TITLE;
DATA TYPE;INFRARED SPECTRUM
ORIGIN;JASCO
OWNER;
DATE;25/03/19
TIME;14:32:00
SPECTROMETER/DATA SYSTEM;
LOCALE;9226
RESOLUTION;
DELTAX;0,964233
XUNITS;1/CM
YUNITS;ABSORBANCE
FIRSTX;  399,1927
LASTX; 4000,6047
NPOINTS;    3736
FIRSTY;     0,25363
MAXY;     0,26414
MINY;    -0,00573
XYDATA
399,1927;0,253632
400,1569;0,251429
401,1211;0,248704
402,0854;0,24571
403,0496;0,242628
404,0138;0,239673
404,9781;0,237143
405,9423;0,235362
406,9065;0,234496
407,8708;0,234419
408,8350;0,234725
409,7992;0,234916
410,7635;0,234653
411,7277;0,233954
412,6919;0,233182
413,6562;0,232818
414,6204;0,233209
415,5846;0,234434
416,5489;0,236238
417,5131;0,237962
418,4773;0,238694
419,4416;0,237995
420,4058;0,23646
421,3700;0,235056
422,3343;0,23427
423,2985;0,234067
424,2627;0,234202
425,2270;0,234457
426,1912;0,234746
427,1554;0,235104
428,1197;0,235596
429,0839;0,236202
430,0481;0,236789
431,0124;0,237163
431,9766;0,23717
432,9408;0,236783
433,9051;0,236112
434,8693;0,235341
435,8335;0,234625
436,7978;0,234017
437,7620;0,233464
438,7262;0,232877
439,6905;0,232216
440,6547;0,231537
441,6189;0,230976
442,5832;0,230665
443,5474;0,230624
444,5116;0,230716
445,4759;0,230721
446,4401;0,230464
447,4043;0,229911
448,3686;0,229175
449,3328;0,228474
450,2970;0,228054
451,2613;0,228098
452,2255;0,228639
453,1897;0,229531
454,1540;0,230487
455,1182;0,231175
456,0824;0,231335
457,0467;0,2309
458,0109;0,230074
458,9751;0,229218
459,9394;0,228616
460,9036;0,228321
461,8678;0,228213
462,8321;0,228139
463,7963;0,227992
464,7605;0,227728
465,7248;0,227353
466,6890;0,226922
467,6532;0,226529
468,6175;0,226306
469,5817;0,226368
470,5459;0,226739
471,5102;0,227276
472,4744;0,227692
473,4386;0,227723
474,4029;0,227323
475,3671;0,226682
476,3313;0,22609
477,2956;0,225765
478,2598;0,225762
479,2240;0,22597
480,1883;0,226181
481,1525;0,226204
482,1167;0,225959
483,0810;0,225526
484,0452;0,225109
485,0094;0,224929
485,9737;0,225098
486,9379;0,225559
487,9021;0,226125
488,8664;0,226573
489,8306;0,226746
490,7948;0,226611
491,7591;0,226263
492,7233;0,225875
493,6875;0,225609
494,6518;0,225551
495,6160;0,225699
496,5802;0,226002
497,5445;0,226392
498,5087;0,226804
499,4729;0,227182
500,4372;0,227477
501,4014;0,22766
502,3656;0,227737
503,3299;0,227743
504,2941;0,22773
505,2583;0,227749
506,2226;0,227837
507,1868;0,22802
508,1510;0,228311
509,1153;0,228704
510,0795;0,229175
511,0437;0,229695
512,0080;0,230246
512,9722;0,230831
513,9365;0,231457
514,9007;0,232113
515,8649;0,232726
516,8292;0,233166
517,7934;0,233295
518,7576;0,233062
519,7219;0,232561
520,6861;0,231988
521,6503;0,231545
522,6146;0,231348
523,5788;0,231398
524,5430;0,231583
525,5073;0,231728
526,4715;0,231675
527,4357;0,231361
528,4000;0,230844
529,3642;0,230241
530,3284;0,229665
531,2927;0,229177
532,2569;0,228771
533,2211;0,228394
534,1854;0,227976
535,1496;0,227467
536,1138;0,226867
537,0781;0,226229
538,0423;0,225631
539,0065;0,225152
539,9708;0,224839
540,9350;0,224704
541,8992;0,22473
542,8635;0,224888
543,8277;0,225142
544,7919;0,225455
545,7562;0,225795
546,7204;0,226139
547,6846;0,226478
548,6489;0,226815
549,6131;0,227147
550,5773;0,227456
551,5416;0,227717
552,5058;0,227915
553,4700;0,228066
554,4343;0,228204
555,3985;0,228351
556,3627;0,228467
557,3270;0,228439
558,2912;0,228113
559,2554;0,227371
560,2197;0,226202
561,1839;0,224725
562,1481;0,223147
563,1124;0,221676
564,0766;0,220442
565,0408;0,219465
566,0051;0,218677
566,9693;0,217985
567,9335;0,217314
568,8978;0,21664
569,8620;0,215974
570,8262;0,215338
571,7905;0,214748
572,7547;0,214212
573,7189;0,213739
574,6832;0,213341
575,6474;0,213019
576,6116;0,212754
577,5759;0,212501
578,5401;0,212205
579,5043;0,211835
580,4686;0,211397
581,4328;0,210931
582,3970;0,210478
583,3613;0,210058
584,3255;0,209653
585,2897;0,209237
586,2540;0,208802
587,2182;0,208378
588,1824;0,208024
589,1467;0,207793
590,1109;0,207704
591,0751;0,207731
592,0394;0,207808
593,0036;0,20786
593,9678;0,207824
594,9321;0,20766
595,8963;0,207347
596,8605;0,20689
597,8248;0,206319
598,7890;0,205694
599,7532;0,205083
600,7175;0,204533
601,6817;0,204052
602,6459;0,203612
603,6102;0,203181
604,5744;0,202747
605,5386;0,202322
606,5029;0,201922
607,4671;0,201526
608,4313;0,201073
609,3956;0,200483
610,3598;0,199716
611,3240;0,19881
612,2883;0,197879
613,2525;0,197061
614,2167;0,196437
615,1810;0,195965
616,1452;0,195482
617,1094;0,194763
618,0737;0,193647
619,0379;0,192129
620,0021;0,190358
620,9664;0,188561
621,9306;0,186934
622,8948;0,185588
623,8591;0,184531
624,8233;0,183657
625,7875;0,182955
626,7518;0,182341
627,7160;0,181758
628,6802;0,181176
629,6445;0,180582
630,6087;0,179968
631,5729;0,179331
632,5372;0,178673
633,5014;0,177996
634,4656;0,177317
635,4299;0,176659
636,3941;0,176051
637,3583;0,175519
638,3226;0,175074
639,2868;0,174708
640,2510;0,174399
641,2153;0,174124
642,1795;0,173865
643,1437;0,17362
644,1080;0,173392
645,0722;0,173179
646,0364;0,172964
647,0007;0,172721
647,9649;0,172428
648,9291;0,172082
649,8934;0,171712
650,8576;0,171372
651,8218;0,171122
652,7861;0,171015
653,7503;0,171075
654,7145;0,171294
655,6788;0,17162
656,6430;0,17197
657,6072;0,172266
658,5715;0,17245
659,5357;0,172492
660,4999;0,172375
661,4642;0,172073
662,4284;0,171534
663,3926;0,170687
664,3569;0,169521
665,3211;0,168224
666,2853;0,167226
667,2496;0,166891
668,2138;0,166891
669,1780;0,166479
670,1423;0,165622
671,1065;0,164653
672,0707;0,16355
673,0350;0,162151
673,9992;0,160444
674,9634;0,158586
675,9277;0,156769
676,8919;0,155093
677,8561;0,15355
678,8204;0,152089
679,7846;0,1507
680,7488;0,14942
681,7131;0,148297
682,6773;0,147334
683,6415;0,14648
684,6058;0,145674
685,5700;0,144883
686,5342;0,144113
687,4985;0,143394
688,4627;0,142755
689,4269;0,142194
690,3912;0,141693
691,3554;0,141232
692,3196;0,140793
693,2839;0,140366
694,2481;0,139937
695,2123;0,1395
696,1766;0,13905
697,1408;0,138583
698,1050;0,138095
699,0693;0,137581
700,0335;0,137036
700,9977;0,136465
701,9620;0,135881
702,9262;0,135306
703,8904;0,134739
704,8547;0,134179
705,8189;0,133602
706,7831;0,13297
707,7474;0,132251
708,7116;0,13144
709,6758;0,130556
710,6401;0,129637
711,6043;0,128719
712,5685;0,127824
713,5328;0,126967
714,4970;0,126166
715,4612;0,124541
716,4255;0,124078
717,3897;0,123724
718,3539;0,123339
719,3182;0,122729
720,2824;0,121743
721,2466;0,120372
722,2109;0,11876
723,1751;0,117125
724,1393;0,11565
725,1036;0,114411
726,0678;0,113377
727,0320;0,112461
727,9963;0,111579
728,9605;0,110691
729,9247;0,109807
730,8890;0,108958
731,8532;0,108168
732,8174;0,107442
733,7817;0,10677
734,7459;0,106142
735,7101;0,105555
736,6744;0,105017
737,6386;0,10454
738,6028;0,104123
739,5671;0,103754
740,5313;0,103402
741,4955;0,103037
742,4598;0,102634
743,4240;0,102184
744,3882;0,101696
745,3525;0,101185
746,3167;0,100665
747,2809;0,100146
748,2452;0,0996301
749,2094;0,0991169
750,1736;0,0986078
751,1379;0,0981047
752,1021;0,0976073
753,0663;0,0971114
754,0306;0,0966102
754,9948;0,0960992
755,9590;0,0955812
756,9233;0,0950653
757,8875;0,0945631
758,8517;0,0940812
759,8160;0,0936184
760,7802;0,0931674
761,7444;0,0927197
762,7087;0,0922703
763,6729;0,0918181
764,6371;0,0913645
765,6014;0,0909136
766,5656;0,0904733
767,5298;0,0900561
768,4941;0,0896746
769,4583;0,0893309
770,4225;0,0890071
771,3868;0,0886654
772,3510;0,0882616
773,3152;0,0877683
774,2795;0,0871918
775,2437;0,0865741
776,2079;0,0859749
777,1722;0,0854442
778,1364;0,0850017
779,1006;0,0846321
780,0649;0,0842986
781,0291;0,0839621
781,9933;0,0835969
782,9576;0,0831941
783,9218;0,0827566
784,8860;0,0822936
785,8503;0,0818185
786,8145;0,0813504
787,7787;0,0809147
788,7430;0,0805353
789,7072;0,0802242
790,6714;0,0799724
791,6357;0,079752
792,5999;0,0795291
793,5641;0,0792796
794,5284;0,0789991
795,4926;0,078699
796,4568;0,0783942
797,4211;0,0780926
798,3853;0,0777938
799,3495;0,0774959
800,3138;0,0772046
801,2780;0,0769324
802,2422;0,0766911
803,2065;0,07648
804,1707;0,0762838
805,1349;0,0760794
806,0992;0,0758499
807,0634;0,0755947
808,0276;0,0753299
808,9919;0,0750791
809,9561;0,0748617
810,9203;0,0746851
811,8846;0,0745436
812,8488;0,0744235
813,8130;0,0743095
814,7773;0,0741897
815,7415;0,0740587
816,7057;0,0739173
817,6700;0,0737706
818,6342;0,073625
819,5984;0,0734848
820,5627;0,0733508
821,5269;0,0732207
822,4911;0,0730929
823,4554;0,0729685
824,4196;0,0728519
825,3839;0,0727468
826,3481;0,0726518
827,3123;0,0725572
828,2766;0,0724479
829,2408;0,0723098
830,2050;0,0721383
831,1693;0,0719419
832,1335;0,0717391
833,0977;0,0715489
834,0620;0,0713805
835,0262;0,071228
835,9904;0,0710735
836,9547;0,0708969
837,9189;0,070686
838,8831;0,0704413
839,8474;0,0701732
840,8116;0,0698948
841,7758;0,0696157
842,7401;0,0693412
843,7043;0,0690768
844,6685;0,0688332
845,6328;0,0686264
846,5970;0,0684718
847,5612;0,0683752
848,5255;0,068326
849,4897;0,0682993
850,4539;0,0682643
851,4182;0,0681982
852,3824;0,068096
853,3466;0,0679717
854,3109;0,0678511
855,2751;0,0677595
856,2393;0,0677103
857,2036;0,0677009
858,1678;0,0677165
859,1320;0,0677383
860,0963;0,0677516
861,0605;0,0677503
862,0247;0,0677364
862,9890;0,0677165
863,9532;0,0676998
864,9174;0,0676959
865,8817;0,0677149
866,8459;0,0677654
867,8101;0,0678518
868,7744;0,0679734
869,7386;0,0681241
870,7028;0,0682959
871,6671;0,0684807
872,6313;0,0686708
873,5955;0,068856
874,5598;0,0690222
875,5240;0,0691538
876,4882;0,069242
877,4525;0,0692938
878,4167;0,0693362
879,3809;0,0694111
880,3452;0,0695625
881,3094;0,0698236
882,2736;0,0702091
883,2379;0,0707172
884,2021;0,0713373
885,1663;0,072057
886,1306;0,072865
887,0948;0,0737489
888,0590;0,0746918
889,0233;0,0756716
889,9875;0,0766619
890,9517;0,077636
891,9160;0,0785684
892,8802;0,0794351
893,8444;0,080213
894,8087;0,0808787
895,7729;0,0814102
896,7371;0,0817877
897,7014;0,0819978
898,6656;0,0820361
899,6298;0,0819116
900,5941;0,0816467
901,5583;0,0812749
902,5225;0,0808337
903,4868;0,0803568
904,4510;0,0798694
905,4152;0,0793894
906,3795;0,0789331
907,3437;0,078521
908,3079;0,0781784
909,2722;0,0779303
910,2364;0,0777935
911,2007;0,0777702
912,1649;0,0778487
913,1292;0,0780087
914,0934;0,0782289
915,0576;0,0784935
916,0219;0,0787944
916,9861;0,0791303
917,9503;0,0795033
918,9146;0,079914
919,8788;0,0803563
920,8430;0,0808156
921,8073;0,0812701
922,7715;0,0816965
923,7357;0,0820782
924,7000;0,0824107
925,6642;0,0827016
926,6284;0,0829646
927,5927;0,0832113
928,5569;0,0834463
929,5211;0,0836667
930,4854;0,0838663
931,4496;0,0840418
932,4138;0,0841964
933,3781;0,0843419
934,3423;0,0844986
935,3065;0,0846927
936,2708;0,0849517
937,2350;0,0852978
938,1992;0,08574
939,1635;0,0862715
940,1277;0,0868736
941,0919;0,0875271
942,0562;0,0882257
943,0204;0,0889814
943,9846;0,0898202
944,9489;0,090768
945,9131;0,0918355
946,8773;0,0930129
947,8416;0,0942759
948,8058;0,0956016
949,7700;0,0969827
950,7343;0,0984319
951,6985;0,0999743
952,6627;0,101633
953,6270;0,103418
954,5912;0,105318
955,5554;0,10731
956,5197;0,109365
957,4839;0,111463
958,4481;0,113596
959,4124;0,115766
960,3766;0,11798
961,3408;0,120243
962,3051;0,122553
963,2693;0,124899
964,2335;0,127265
965,1978;0,129639
966,1620;0,132022
967,1262;0,134429
968,0905;0,136891
969,0547;0,139442
970,0189;0,142115
970,9832;0,144934
971,9474;0,147923
972,9116;0,151106
973,8759;0,154513
974,8401;0,158175
975,8043;0,162107
976,7686;0,166298
977,7328;0,170704
978,6970;0,175251
979,6613;0,179843
980,6255;0,18437
981,5897;0,188726
982,5540;0,192809
983,5182;0,196542
984,4824;0,199883
985,4467;0,202832
986,4109;0,205433
987,3751;0,207754
988,3394;0,209867
989,3036;0,21182
990,2678;0,213628
991,2321;0,215278
992,1963;0,216752
993,1605;0,21804
994,1248;0,219157
995,0890;0,220137
996,0532;0,221017
997,0175;0,221819
997,9817;0,222546
998,9459;0,223192
999,9102;0,223756
1000,8744;0,224266
1001,8386;0,224778
1002,8029;0,225372
1003,7671;0,22613
1004,7313;0,227115
1005,6956;0,228367
1006,6598;0,229896
1007,6240;0,231699
1008,5883;0,233762
1009,5525;0,236064
1010,5167;0,238571
1011,4810;0,241227
1012,4452;0,24395
1013,4094;0,24664
1014,3737;0,249187
1015,3379;0,251497
1016,3021;0,253508
1017,2664;0,255201
1018,2306;0,256598
1019,1948;0,257752
1020,1591;0,258732
1021,1233;0,259599
1022,0875;0,260396
1023,0518;0,261143
1024,0160;0,261837
1024,9802;0,262462
1025,9445;0,263008
1026,9087;0,263466
1027,8729;0,26383
1028,8372;0,264074
1029,8014;0,264141
1030,7656;0,263935
1031,7299;0,263337
1032,6941;0,262245
1033,6583;0,260608
1034,6226;0,258465
1035,5868;0,255938
1036,5510;0,25322
1037,5153;0,250528
1038,4795;0,248059
1039,4437;0,245959
1040,4080;0,2443
1041,3722;0,243086
1042,3364;0,242262
1043,3007;0,24174
1044,2649;0,241414
1045,2291;0,241189
1046,1934;0,240983
1047,1576;0,240732
1048,1218;0,240383
1049,0861;0,23988
1050,0503;0,239169
1051,0145;0,238194
1051,9788;0,23692
1052,9430;0,235339
1053,9072;0,233478
1054,8715;0,231381
1055,8357;0,229078
1056,7999;0,226561
1057,7642;0,223779
1058,7284;0,220662
1059,6926;0,217168
1060,6569;0,213321
1061,6211;0,209229
1062,5853;0,205058
1063,5496;0,200989
1064,5138;0,197172
1065,4780;0,193698
1066,4423;0,190594
1067,4065;0,18784
1068,3707;0,185386
1069,3350;0,183168
1070,2992;0,18111
1071,2634;0,179131
1072,2277;0,177146
1073,1919;0,17508
1074,1561;0,172875
1075,1204;0,170502
1076,0846;0,167963
1077,0488;0,165295
1078,0131;0,162563
1078,9773;0,159852
1079,9415;0,157252
1080,9058;0,154837
1081,8700;0,152652
1082,8342;0,150709
1083,7985;0,148994
1084,7627;0,147483
1085,7269;0,146158
1086,6912;0,145009
1087,6554;0,144037
1088,6196;0,14324
1089,5839;0,142614
1090,5481;0,142146
1091,5123;0,14182
1092,4766;0,141622
1093,4408;0,14154
1094,4050;0,141568
1095,3693;0,141699
1096,3335;0,141924
1097,2977;0,142228
1098,2620;0,142586
1099,2262;0,142962
1100,1904;0,143314
1101,1547;0,143599
1102,1189;0,143779
1103,0831;0,143826
1104,0474;0,143731
1105,0116;0,1435
1105,9758;0,143157
1106,9401;0,14273
1107,9043;0,142236
1108,8685;0,141661
1109,8328;0,140958
1110,7970;0,140048
1111,7612;0,138856
1112,7255;0,137344
1113,6897;0,135542
1114,6539;0,13355
1115,6182;0,131509
1116,5824;0,129557
1117,5466;0,127787
1118,5109;0,126223
1119,4751;0,124823
1120,4393;0,123499
1121,4036;0,122148
1122,3678;0,120677
1123,3320;0,119022
1124,2963;0,117151
1125,2605;0,115069
1126,2247;0,112808
1127,1890;0,110421
1128,1532;0,107969
1129,1174;0,105512
1130,0817;0,103096
1131,0459;0,100753
1132,0101;0,0985048
1132,9744;0,09637
1133,9386;0,094373
1134,9028;0,0925489
1135,8671;0,0909402
1136,8313;0,089588
1137,7955;0,0885212
1138,7598;0,0877493
1139,7240;0,0872618
1140,6882;0,0870343
1141,6525;0,087036
1142,6167;0,087235
1143,5809;0,0875994
1144,5452;0,0880958
1145,5094;0,0886898
1146,4736;0,0893499
1147,4379;0,0900538
1148,4021;0,0907906
1149,3663;0,0915567
1150,3306;0,0923453
1151,2948;0,0931362
1152,2590;0,0938921
1153,2233;0,0945645
1154,1875;0,0951054
1155,1517;0,0954752
1156,1160;0,0956432
1157,0802;0,095577
1158,0444;0,095231
1159,0087;0,0945402
1159,9729;0,0934275
1160,9371;0,0918217
1161,9014;0,0896819
1162,8656;0,0870176
1163,8298;0,0838956
1164,7941;0,0804338
1165,7583;0,0767815
1166,7225;0,0730949
1167,6868;0,0695139
1168,6510;0,0661465
1169,6152;0,0630612
1170,5795;0,0602898
1171,5437;0,0578352
1172,5079;0,0556813
1173,4722;0,0538023
1174,4364;0,0521688
1175,4006;0,0507515
1176,3649;0,0495234
1177,3291;0,0484605
1178,2933;0,0475424
1179,2576;0,0467526
1180,2218;0,0460781
1181,1860;0,0455096
1182,1503;0,0450403
1183,1145;0,0446661
1184,0787;0,0443838
1185,0430;0,0441916
1186,0072;0,044089
1186,9714;0,0440773
1187,9357;0,0441594
1188,8999;0,0443393
1189,8641;0,0446192
1190,8284;0,0449981
1191,7926;0,0454707
1192,7568;0,0460298
1193,7211;0,0466682
1194,6853;0,0473798
1195,6495;0,0481581
1196,6138;0,048992
1197,5780;0,0498632
1198,5422;0,050747
1199,5065;0,0514581
1200,4707;0,0523121
1201,4349;0,0531212
1202,3992;0,0538825
1203,3634;0,0545984
1204,3276;0,0552706
1205,2919;0,055898
1206,2561;0,0564789
1207,2203;0,0570174
1208,1846;0,0575286
1209,1488;0,0580401
1210,1130;0,0585864
1211,0773;0,0592003
1212,0415;0,0599042
1213,0057;0,0607054
1213,9700;0,0615975
1214,9342;0,0625653
1215,8984;0,0635901
1216,8627;0,0646525
1217,8269;0,0657322
1218,7911;0,0668109
1219,7554;0,0678722
1220,7196;0,068903
1221,6838;0,0698953
1222,6481;0,0708454
1223,6123;0,0717531
1224,5765;0,0726196
1225,5408;0,0734466
1226,5050;0,0742353
1227,4692;0,074985
1228,4335;0,0756924
1229,3977;0,0763508
1230,3619;0,0769515
1231,3262;0,0774855
1232,2904;0,0779464
1233,2546;0,0783327
1234,2189;0,0786484
1235,1831;0,0789026
1236,1473;0,0791072
1237,1116;0,0792735
1238,0758;0,0794088
1239,0400;0,0795131
1240,0043;0,0795796
1240,9685;0,0795972
1241,9327;0,0795566
1242,8970;0,0794532
1243,8612;0,0792885
1244,8254;0,0790665
1245,7897;0,078791
1246,7539;0,0784645
1247,7181;0,0780915
1248,6824;0,0776815
1249,6466;0,0772499
1250,6108;0,0768144
1251,5751;0,0763896
1252,5393;0,0759834
1253,5035;0,0755977
1254,4678;0,0752306
1255,4320;0,0748778
1256,3962;0,0745319
1257,3605;0,0741804
1258,3247;0,0738055
1259,2889;0,0733886
1260,2532;0,0729176
1261,2174;0,072391
1262,1816;0,0718167
1263,1459;0,0712055
1264,1101;0,070565
1265,0743;0,0698968
1266,0386;0,0691996
1267,0028;0,0684735
1267,9670;0,0677227
1268,9313;0,0669541
1269,8955;0,0661747
1270,8597;0,0653886
1271,8240;0,0645969
1272,7882;0,0638005
1273,7524;0,063004
1274,7167;0,0622168
1275,6809;0,0614506
1276,6451;0,0607142
1277,6094;0,0600075
1278,5736;0,0593202
1279,5378;0,0586364
1280,5021;0,0579441
1281,4663;0,0572439
1282,4305;0,0565506
1283,3948;0,0558871
1284,3590;0,0552745
1285,3232;0,0547245
1286,2875;0,0542388
1287,2517;0,0538128
1288,2159;0,0534422
1289,1802;0,0531254
1290,1444;0,0528627
1291,1086;0,0526547
1292,0729;0,0525021
1293,0371;0,0524086
1294,0013;0,0523825
1294,9656;0,0524353
1295,9298;0,0525769
1296,8940;0,0528098
1297,8583;0,0531269
1298,8225;0,0535153
1299,7867;0,053962
1300,7510;0,0544589
1301,7152;0,0550056
1302,6794;0,0556038
1303,6437;0,056254
1304,6079;0,0569543
1305,5721;0,0576989
1306,5364;0,0584798
1307,5006;0,0592882
1308,4648;0,0601158
1309,4291;0,0609531
1310,3933;0,0617881
1311,3575;0,0626042
1312,3218;0,0633784
1313,2860;0,0640831
1314,2502;0,0646871
1315,2145;0,0651569
1316,1787;0,06546
1317,1429;0,0655718
1318,1072;0,0654883
1319,0714;0,0652376
1320,0356;0,0648776
1320,9999;0,0644774
1321,9641;0,0640938
1322,9283;0,0637583
1323,8926;0,063481
1324,8568;0,0632612
1325,8210;0,0630955
1326,7853;0,0629798
1327,7495;0,0629059
1328,7137;0,0628606
1329,6780;0,0628265
1330,6422;0,0627863
1331,6064;0,0627279
1332,5707;0,0626429
1333,5349;0,0625256
1334,4991;0,0623646
1335,4634;0,0621374
1336,4276;0,0618077
1337,3918;0,0613331
1338,3561;0,060689
1339,3203;0,0599031
1340,2845;0,0590638
1341,2488;0,0582779
1342,2130;0,057613
1343,1772;0,0570802
1344,1415;0,0566583
1345,1057;0,0563249
1346,0699;0,056073
1347,0342;0,0559117
1347,9984;0,0558581
1348,9626;0,0559255
1349,9269;0,0561128
1350,8911;0,0564002
1351,8553;0,0567557
1352,8196;0,0571483
1353,7838;0,0575614
1354,7480;0,0579988
1355,7123;0,0584769
1356,6765;0,0590086
1357,6407;0,0595917
1358,6050;0,0602093
1359,5692;0,0608392
1360,5334;0,0614558
1361,4977;0,0620314
1362,4619;0,0625482
1363,4261;0,0630167
1364,3904;0,0634664
1365,3546;0,0639137
1366,3188;0,0643496
1367,2831;0,0647509
1368,2473;0,0650941
1369,2115;0,0653605
1370,1758;0,0655323
1371,1400;0,0655866
1372,1042;0,0654937
1373,0685;0,065227
1374,0327;0,064787
1374,9969;0,0642169
1375,9612;0,0635777
1376,9254;0,0628953
1377,8896;0,0621416
1378,8539;0,061273
1379,8181;0,0602873
1380,7823;0,0592443
1381,7466;0,0582318
1382,7108;0,0573021
1383,6750;0,0564369
1384,6393;0,0555688
1385,6035;0,0546396
1386,5677;0,0536647
1387,5320;0,0527558
1388,4962;0,0520522
1389,4604;0,051608
1390,4247;0,0513646
1391,3889;0,0512208
1392,3531;0,0511071
1393,3174;0,051006
1394,2816;0,0509285
1395,2458;0,0508819
1396,2101;0,0508584
1397,1743;0,0508518
1398,1385;0,0508756
1399,1028;0,0509626
1400,0670;0,0511406
1401,0313;0,0514095
1401,9955;0,0517392
1402,9597;0,0520902
1403,9240;0,0524377
1404,8882;0,0527855
1405,8524;0,0531622
1406,8167;0,0535982
1407,7809;0,0541015
1408,7451;0,054659
1409,7094;0,055259
1410,6736;0,0559089
1411,6378;0,0566251
1412,6021;0,0574049
1413,5663;0,0582079
1414,5305;0,0589661
1415,4948;0,0596142
1416,4590;0,0601108
1417,4232;0,0604438
1418,3875;0,0606461
1419,3517;0,0608149
1420,3159;0,061048
1421,2802;0,061334
1422,2444;0,0615556
1423,2086;0,0615934
1424,1729;0,0614057
1425,1371;0,0610317
1426,1013;0,0605372
1427,0656;0,0599579
1428,0298;0,0592901
1428,9940;0,0585319
1429,9583;0,0577277
1430,9225;0,0569519
1431,8867;0,056235
1432,8510;0,0555161
1433,8152;0,0546772
1434,7794;0,0536286
1435,7437;0,0524079
1436,7079;0,0512414
1437,6721;0,0504342
1438,6364;0,0501155
1439,6006;0,0501592
1440,5648;0,0503493
1441,5291;0,0505427
1442,4933;0,0507075
1443,4575;0,0508785
1444,4218;0,0510938
1445,3860;0,0513577
1446,3502;0,051647
1447,3145;0,0519464
1448,2787;0,0522774
1449,2429;0,0526849
1450,2072;0,0531827
1451,1714;0,0537157
1452,1356;0,0541788
1453,0999;0,0544728
1454,0641;0,054543
1455,0283;0,0543623
1455,9926;0,053871
1456,9568;0,0530643
1457,9210;0,0522853
1458,8853;0,0519851
1459,8495;0,052153
1460,8137;0,0524428
1461,7780;0,0525357
1462,7422;0,0522574
1463,7064;0,0515708
1464,6707;0,0505832
1465,6349;0,0495302
1466,5991;0,0486186
1467,5634;0,0478563
1468,5276;0,0470814
1469,4918;0,0461005
1470,4561;0,0447653
1471,4203;0,0429885
1472,3845;0,0408022
1473,3488;0,0384717
1474,3130;0,0364081
1475,2772;0,0348347
1476,2415;0,0336846
1477,2057;0,0327841
1478,1699;0,0320021
1479,1342;0,0312767
1480,0984;0,0305948
1481,0626;0,0299737
1482,0269;0,0294498
1482,9911;0,0290607
1483,9553;0,0288224
1484,9196;0,0287227
1485,8838;0,0287332
1486,8480;0,0288179
1487,8123;0,0289203
1488,7765;0,0289749
1489,7407;0,0289949
1490,7050;0,0290992
1491,6692;0,0293712
1492,6334;0,0297797
1493,5977;0,0302563
1494,5619;0,0307834
1495,5261;0,0314052
1496,4904;0,0321764
1497,4546;0,0331079
1498,4188;0,0341692
1499,3831;0,0353045
1500,3473;0,0364096
1501,3115;0,037344
1502,2758;0,0379996
1503,2400;0,0383697
1504,2042;0,038585
1505,1685;0,0388569
1506,1327;0,0392202
1507,0969;0,0393493
1508,0612;0,0391235
1509,0254;0,0388935
1509,9896;0,0388317
1510,9539;0,0388318
1511,9181;0,0387716
1512,8823;0,0386088
1513,8466;0,0383522
1514,8108;0,0380127
1515,7750;0,0375824
1516,7393;0,0370489
1517,7035;0,0364176
1518,6677;0,0357166
1519,6320;0,034991
1520,5962;0,0343029
1521,5604;0,0337274
1522,5247;0,0333217
1523,4889;0,0330859
1524,4531;0,0329726
1525,4174;0,032942
1526,3816;0,0329945
1527,3458;0,0331455
1528,3101;0,0333821
1529,2743;0,0336617
1530,2385;0,0339589
1531,2028;0,0343088
1532,1670;0,0347935
1533,1312;0,0354651
1534,0955;0,0362757
1535,0597;0,0370935
1536,0239;0,0377899
1536,9882;0,0383255
1537,9524;0,0387852
1538,9166;0,0392937
1539,8809;0,0397452
1540,8451;0,0397221
1541,8093;0,0391611
1542,7736;0,0385238
1543,7378;0,0380736
1544,7020;0,0377775
1545,6663;0,0375688
1546,6305;0,0374269
1547,5947;0,0373381
1548,5590;0,0372674
1549,5232;0,0371763
1550,4874;0,0370605
1551,4517;0,0369619
1552,4159;0,03693
1553,3801;0,0369613
1554,3444;0,0369791
1555,3086;0,0368695
1556,2728;0,0365068
1557,2371;0,0357148
1558,2013;0,03438
1559,1655;0,0330338
1560,1298;0,032616
1561,0940;0,0332183
1562,0582;0,0342695
1563,0225;0,0352848
1563,9867;0,036048
1564,9509;0,0365267
1565,9152;0,0367833
1566,8794;0,0369216
1567,8436;0,0370591
1568,8079;0,0373036
1569,7721;0,0377204
1570,7363;0,0382918
1571,7006;0,038917
1572,6648;0,0394776
1573,6290;0,0399112
1574,5933;0,0402326
1575,5575;0,0404984
1576,5217;0,0407795
1577,4860;0,0411584
1578,4502;0,0416671
1579,4144;0,0422342
1580,3787;0,0427542
1581,3429;0,0431778
1582,3071;0,0435322
1583,2714;0,0438885
1584,2356;0,0443136
1585,1998;0,0448374
1586,1641;0,0454498
1587,1283;0,0461182
1588,0925;0,046806
1589,0568;0,0474788
1590,0210;0,0481047
1590,9852;0,0486515
1591,9495;0,0490857
1592,9137;0,049375
1593,8779;0,0494983
1594,8422;0,0494609
1595,8064;0,0493004
1596,7706;0,0490756
1597,7349;0,0488415
1598,6991;0,0486304
1599,6633;0,0484493
1600,6276;0,0482905
1601,5918;0,0481497
1602,5560;0,0480375
1603,5203;0,0479743
1604,4845;0,047971
1605,4487;0,048014
1606,4130;0,0480719
1607,3772;0,0481228
1608,3414;0,0481835
1609,3057;0,0483076
1610,2699;0,0485402
1611,2341;0,0488643
1612,1984;0,0492002
1613,1626;0,0494609
1614,1268;0,0496127
1615,0911;0,0497029
1616,0553;0,0498503
1617,0195;0,0501954
1617,9838;0,0507967
1618,9480;0,0515633
1619,9122;0,0523293
1620,8765;0,0529758
1621,8407;0,0534784
1622,8049;0,0538813
1623,7692;0,0542489
1624,7334;0,0546281
1625,6976;0,0550356
1626,6619;0,0554729
1627,6261;0,0559512
1628,5903;0,0564867
1629,5546;0,0570657
1630,5188;0,0576234
1631,4830;0,0580723
1632,4473;0,0583566
1633,4115;0,0584822
1634,3757;0,0584882
1635,3400;0,0584081
1636,3042;0,0583404
1637,2684;0,0584703
1638,2327;0,0588645
1639,1969;0,0594065
1640,1611;0,0599403
1641,1254;0,0603633
1642,0896;0,0606311
1643,0538;0,0607423
1644,0181;0,0607272
1644,9823;0,0606308
1645,9465;0,060499
1646,9108;0,0604023
1647,8750;0,0604013
1648,8392;0,0604186
1649,8035;0,060242
1650,7677;0,0596441
1651,7319;0,0584435
1652,6962;0,0566365
1653,6604;0,0548221
1654,6246;0,0539304
1655,5889;0,0540382
1656,5531;0,0545145
1657,5173;0,0548191
1658,4816;0,0547118
1659,4458;0,0541543
1660,4100;0,0532109
1661,3743;0,0520201
1662,3385;0,0508028
1663,3027;0,0497928
1664,2670;0,0490832
1665,2312;0,0485777
1666,1954;0,0480863
1667,1597;0,0474285
1668,1239;0,0464932
1669,0881;0,0452991
1670,0524;0,0440279
1671,0166;0,0428912
1671,9808;0,0419209
1672,9451;0,0409716
1673,9093;0,0399102
1674,8735;0,038776
1675,8378;0,0377883
1676,8020;0,0371688
1677,7662;0,0369331
1678,7305;0,0368804
1679,6947;0,036742
1680,6589;0,0362968
1681,6232;0,0353907
1682,5874;0,0339426
1683,5516;0,0320985
1684,5159;0,0303966
1685,4801;0,0293634
1686,4443;0,0289781
1687,4086;0,028865
1688,3728;0,0287024
1689,3370;0,0283603
1690,3013;0,0278567
1691,2655;0,0272722
1692,2297;0,0266871
1693,1940;0,0261572
1694,1582;0,025711
1695,1224;0,0253371
1696,0867;0,0249659
1697,0509;0,0244812
1698,0151;0,0238045
1698,9794;0,0230149
1699,9436;0,0223652
1700,9078;0,0221031
1701,8721;0,0222668
1702,8363;0,0226828
1703,8005;0,0231193
1704,7648;0,0234233
1705,7290;0,0235768
1706,6932;0,0236802
1707,6575;0,0238712
1708,6217;0,0242274
1709,5859;0,0247338
1710,5502;0,025323
1711,5144;0,025929
1712,4786;0,0265084
1713,4429;0,0270328
1714,4071;0,0274624
1715,3713;0,0277173
1716,3356;0,0277138
1717,2998;0,0275292
1718,2640;0,0274547
1719,2283;0,0277069
1720,1925;0,0282338
1721,1567;0,0288469
1722,1210;0,0293905
1723,0852;0,0298023
1724,0494;0,0301054
1725,0137;0,0303755
1725,9779;0,0306941
1726,9421;0,031101
1727,9064;0,0315686
1728,8706;0,0320092
1729,8348;0,0323043
1730,7991;0,0323359
1731,7633;0,0320179
1732,7275;0,0313605
1733,6918;0,0305665
1734,6560;0,0299678
1735,6202;0,0297251
1736,5845;0,0296976
1737,5487;0,0296257
1738,5129;0,0293282
1739,4772;0,0287733
1740,4414;0,0280611
1741,4056;0,0273459
1742,3699;0,0267313
1743,3341;0,0262147
1744,2983;0,0257208
1745,2626;0,0251654
1746,2268;0,0244784
1747,1910;0,0235879
1748,1553;0,0224182
1749,1195;0,020963
1750,0837;0,0193865
1751,0480;0,0179724
1752,0122;0,0169092
1752,9764;0,0161727
1753,9407;0,0156073
1754,9049;0,0150604
1755,8691;0,0144585
1756,8334;0,0138108
1757,7976;0,0131615
1758,7618;0,0125325
1759,7261;0,0119044
1760,6903;0,0112511
1761,6545;0,0105914
1762,6188;0,00999511
1763,5830;0,00952971
1764,5472;0,00920364
1765,5115;0,00896726
1766,4757;0,00875637
1767,4399;0,00852882
1768,4042;0,00826923
1769,3684;0,00796887
1770,3326;0,00760623
1771,2969;0,00716325
1772,2611;0,00668236
1773,2253;0,00628347
1774,1896;0,00607182
1775,1538;0,00604314
1776,1180;0,00610347
1777,0823;0,00615035
1778,0465;0,00612623
1779,0107;0,0060245
1779,9750;0,00586805
1780,9392;0,00568257
1781,9034;0,00548276
1782,8677;0,00527976
1783,8319;0,00509923
1784,7961;0,00498447
1785,7604;0,00497178
1786,7246;0,00505842
1787,6888;0,00519699
1788,6531;0,00532188
1789,6173;0,0053802
1790,5815;0,00534446
1791,5458;0,00521838
1792,5100;0,00505501
1793,4742;0,00494507
1794,4385;0,00493991
1795,4027;0,00500475
1796,3669;0,00506286
1797,3312;0,00505891
1798,2954;0,00498211
1799,2596;0,00485374
1800,2239;0,00470518
1801,1881;0,00456467
1802,1523;0,00445322
1803,1166;0,00438299
1804,0808;0,00435789
1805,0450;0,00437625
1806,0093;0,00443111
1806,9735;0,0045068
1807,9377;0,00457573
1808,9020;0,00460198
1809,8662;0,00455697
1810,8304;0,00444067
1811,7947;0,00428714
1812,7589;0,00414309
1813,7231;0,00404024
1814,6874;0,00398698
1815,6516;0,00397757
1816,6158;0,00400267
1817,5801;0,00405311
1818,5443;0,00411898
1819,5085;0,00418697
1820,4728;0,00423982
1821,4370;0,00426177
1822,4012;0,004248
1823,3655;0,00421133
1824,3297;0,00417925
1825,2939;0,00417858
1826,2582;0,0042136
1827,2224;0,00425452
1828,1866;0,00424897
1829,1509;0,00415649
1830,1151;0,0039896
1831,0793;0,00381897
1832,0436;0,00371848
1833,0078;0,00370728
1833,9720;0,00375169
1834,9363;0,00380696
1835,9005;0,00384945
1836,8647;0,00388273
1837,8290;0,00392258
1838,7932;0,00397455
1839,7574;0,00402448
1840,7217;0,00405237
1841,6859;0,00405237
1842,6501;0,0040344
1843,6144;0,00400845
1844,5786;0,00397771
1845,5428;0,00394445
1846,5071;0,0039038
1847,4713;0,0038365
1848,4355;0,00372593
1849,3998;0,00357997
1850,3640;0,00343187
1851,3282;0,00332056
1852,2925;0,00326828
1853,2567;0,00327398
1854,2209;0,00332338
1855,1852;0,00340246
1856,1494;0,00350093
1857,1136;0,00360724
1858,0779;0,00370286
1859,0421;0,00376737
1860,0063;0,00379204
1860,9706;0,00379007
1861,9348;0,00379125
1862,8990;0,00382349
1863,8633;0,00389632
1864,8275;0,00399782
1865,7917;0,00410016
1866,7560;0,00416402
1867,7202;0,00414878
1868,6844;0,00404286
1869,6487;0,00388785
1870,6129;0,00374727
1871,5771;0,00365084
1872,5414;0,00358443
1873,5056;0,00352099
1874,4698;0,00344829
1875,4341;0,00337403
1876,3983;0,00331674
1877,3625;0,0032926
1878,3268;0,00330817
1879,2910;0,00335918
1880,2552;0,00343442
1881,2195;0,00351972
1882,1837;0,00360035
1883,1479;0,0036632
1884,1122;0,00369934
1885,0764;0,00370632
1886,0406;0,0036888
1887,0049;0,00365682
1887,9691;0,0036216
1888,9333;0,00359181
1889,8976;0,00357275
1890,8618;0,00356663
1891,8260;0,00357113
1892,7903;0,003579
1893,7545;0,00358155
1894,7188;0,00357313
1895,6830;0,00355383
1896,6472;0,0035298
1897,6115;0,00351078
1898,5757;0,00350576
1899,5399;0,00351953
1900,5042;0,00355167
1901,4684;0,00359672
1902,4326;0,00364489
1903,3969;0,00368436
1904,3611;0,00370515
1905,3253;0,00370267
1906,2896;0,00367918
1907,2538;0,00364247
1908,2180;0,00360262
1909,1823;0,00356871
1910,1465;0,00354728
1911,1107;0,00354151
1912,0750;0,00355029
1913,0392;0,00356888
1914,0034;0,00359251
1914,9677;0,00361966
1915,9319;0,00365103
1916,8961;0,00368642
1917,8604;0,00372507
1918,8246;0,00376813
1919,7888;0,00381621
1920,7531;0,0038632
1921,7173;0,00389477
1922,6815;0,00389454
1923,6458;0,00385484
1924,6100;0,00378528
1925,5742;0,00371074
1926,5385;0,00365824
1927,5027;0,00364231
1928,4669;0,00365775
1929,4312;0,00368169
1930,3954;0,00368646
1931,3596;0,00365971
1932,3239;0,00361759
1933,2881;0,00359976
1934,2523;0,00364526
1935,2166;0,00376352
1936,1808;0,00392115
1937,1450;0,00405668
1938,1093;0,00411511
1939,0735;0,00407931
1940,0377;0,00397899
1941,0020;0,0038722
1941,9662;0,00380901
1942,9304;0,00380069
1943,8947;0,00381914
1944,8589;0,00382688
1945,8231;0,00380932
1946,7874;0,00378414
1947,7516;0,00378506
1948,7158;0,00383391
1949,6801;0,00391996
1950,6443;0,0040021
1951,6085;0,00403454
1952,5728;0,00399913
1953,5370;0,00392184
1954,5012;0,00386104
1955,4655;0,00387348
1956,4297;0,00397752
1957,3939;0,0041358
1958,3582;0,00426884
1959,3224;0,00429454
1960,2866;0,00417389
1961,2509;0,00393658
1962,2151;0,00366945
1963,1793;0,00347597
1964,1436;0,00343288
1965,1078;0,00356312
1966,0720;0,00382873
1967,0363;0,00414305
1968,0005;0,00440172
1968,9647;0,00452299
1969,9290;0,00447897
1970,8932;0,00430537
1971,8574;0,00408855
1972,8217;0,00393337
1973,7859;0,00391734
1974,7501;0,00404671
1975,7144;0,00424582
1976,6786;0,0043971
1977,6428;0,00441641
1978,6071;0,00430882
1979,5713;0,00415997
1980,5355;0,00407448
1981,4998;0,00411328
1982,4640;0,0042673
1983,4282;0,00446924
1984,3925;0,00462735
1985,3567;0,00466351
1986,3209;0,00454149
1987,2852;0,00427636
1988,2494;0,00392619
1989,2136;0,00357386
1990,1779;0,00330519
1991,1421;0,00318579
1992,1063;0,00324165
1993,0706;0,0034529
1994,0348;0,00376583
1994,9990;0,00411544
1995,9633;0,00444501
1996,9275;0,00471492
1997,8917;0,00490208
1998,8560;0,00499519
1999,8202;0,00499036
2000,7844;0,00489089
2001,7487;0,00471288
2002,7129;0,00449513
2003,6771;0,00430506
2004,6414;0,00422765
2005,6056;0,00432843
2006,5698;0,00460381
2007,5341;0,00495446
2008,4983;0,00521861
2009,4625;0,00525936
2010,4268;0,00505132
2011,3910;0,0047066
2012,3552;0,00442098
2013,3195;0,00437146
2014,2837;0,00462005
2015,2479;0,00507619
2016,2122;0,00554482
2017,1764;0,00584005
2018,1406;0,00589347
2019,1049;0,00578159
2020,0691;0,0056597
2021,0333;0,00565931
2021,9976;0,00581859
2022,9618;0,00607704
2023,9260;0,00632263
2024,8903;0,00645532
2025,8545;0,00642986
2026,8187;0,00626094
2027,7830;0,00600099
2028,7472;0,00571346
2029,7114;0,00545626
2030,6757;0,00527462
2031,6399;0,00519676
2032,6041;0,00523025
2033,5684;0,00536406
2034,5326;0,00557709
2035,4968;0,00584633
2036,4611;0,00614387
2037,4253;0,00642663
2038,3895;0,00663016
2039,3538;0,00668271
2040,3180;0,00654014
2041,2822;0,00622255
2042,2465;0,00582331
2043,2107;0,0054756
2044,1749;0,00529346
2045,1392;0,00532213
2046,1034;0,00552225
2047,0676;0,0057924
2048,0320;0,00601747
2048,9961;0,00611821
2049,9604;0,00607521
2050,9246;0,00592002
2051,8889;0,00570947
2052,8530;0,00550145
2053,8174;0,00533851
2054,7815;0,00523799
2055,7458;0,0051919
2056,7100;0,00517766
2057,6743;0,0051769
2058,6384;0,00519051
2059,6028;0,00523811
2060,5669;0,00534061
2061,5313;0,005497
2062,4954;0,00567181
2063,4597;0,00580426
2064,4238;0,00583647
2065,3882;0,0057444
2066,3523;0,00555239
2067,3167;0,00532296
2068,2808;0,00513069
2069,2451;0,0050364
2070,2092;0,00507186
2071,1736;0,00523518
2072,1377;0,00549145
2073,1021;0,00577825
2074,0662;0,00601702
2075,0305;0,00613329
2075,9946;0,00608234
2076,9590;0,00587035
2077,9231;0,00555769
2078,8875;0,00523823
2079,8516;0,00500235
2080,8159;0,00490229
2081,7800;0,00493749
2082,7444;0,00506534
2083,7085;0,00522755
2084,6729;0,00537534
2085,6370;0,00548157
2086,6013;0,00553799
2087,5654;0,00554642
2088,5298;0,00551238
2089,4939;0,00544451
2090,4583;0,005356
2091,4224;0,00526343
2092,3867;0,00518232
2093,3508;0,00512308
2094,3152;0,00509076
2095,2793;0,00508785
2096,2437;0,00511611
2097,2078;0,0051739
2098,1721;0,00525149
2099,1362;0,00533019
2100,1006;0,00539029
2101,0647;0,0054174
2102,0291;0,0054172
2102,9932;0,00540654
2103,9575;0,00540202
2104,9216;0,00540699
2105,8860;0,00540841
2106,8501;0,00538681
2107,8145;0,00533221
2108,7786;0,00525456
2109,7429;0,00518073
2110,7070;0,0051401
2111,6714;0,00514853
2112,6355;0,00520098
2113,5999;0,00527647
2114,5640;0,00535046
2115,5283;0,00540594
2116,4924;0,0054368
2117,4568;0,00544389
2118,4209;0,00542938
2119,3853;0,00539547
2120,3494;0,00534876
2121,3137;0,00530564
2122,2778;0,00529164
2123,2422;0,0053312
2124,2063;0,00543238
2125,1707;0,00557695
2126,1348;0,00572533
2127,0991;0,00583686
2128,0632;0,00589453
2129,0276;0,00591791
2129,9917;0,00595386
2130,9561;0,00604751
2131,9202;0,00620899
2132,8845;0,00639585
2133,8486;0,00652545
2134,8130;0,00651587
2135,7771;0,00633473
2136,7415;0,00602639
2137,7056;0,00569974
2138,6699;0,00548444
2139,6340;0,00548003
2140,5984;0,00572041
2141,5625;0,00616429
2142,5269;0,00671175
2143,4910;0,00723919
2144,4553;0,00764004
2145,4194;0,00785637
2146,3838;0,00788981
2147,3479;0,00778878
2148,3123;0,00762052
2149,2764;0,00744378
2150,2407;0,0072962
2151,2048;0,00719964
2152,1692;0,0071755
2153,1333;0,00725668
2154,0977;0,00748634
2155,0618;0,00789995
2156,0261;0,00849328
2156,9902;0,00918789
2157,9546;0,00982339
2158,9187;0,0102106
2159,8831;0,0102328
2160,8472;0,00991388
2161,8115;0,0093954
2162,7756;0,00885608
2163,7400;0,00843749
2164,7041;0,00820489
2165,6685;0,00814295
2166,6326;0,00818066
2167,5969;0,00823248
2168,5610;0,00823453
2169,5254;0,00815901
2170,4895;0,00800802
2171,4539;0,00780116
2172,4180;0,0075695
2173,3823;0,00735657
2174,3464;0,00721576
2175,3108;0,0071947
2176,2749;0,00731008
2177,2393;0,00752936
2178,2034;0,00777515
2179,1677;0,00795309
2180,1318;0,0079892
2181,0962;0,00785779
2182,0603;0,00758677
2183,0247;0,00723985
2183,9888;0,00688854
2184,9531;0,0065911
2185,9172;0,00638683
2186,8816;0,00630019
2187,8457;0,00634375
2188,8101;0,00651362
2189,7742;0,00678069
2190,7385;0,00708655
2191,7026;0,00735231
2192,6670;0,0075009
2193,6311;0,00748465
2194,5955;0,00730453
2195,5596;0,00700996
2196,5239;0,00667772
2197,4880;0,00638034
2198,4524;0,00616002
2199,4165;0,00602022
2200,3809;0,00593608
2201,3450;0,00587435
2202,3093;0,00581058
2203,2734;0,00573703
2204,2378;0,00566231
2205,2019;0,00560725
2206,1663;0,00559865
2207,1304;0,00565957
2208,0947;0,00579608
2209,0588;0,00598606
2210,0232;0,00617947
2210,9873;0,00631502
2211,9517;0,00634695
2212,9158;0,00626691
2213,8801;0,0061063
2214,8442;0,00591696
2215,8086;0,00574281
2216,7727;0,00560078
2217,7371;0,00548261
2218,7012;0,00537342
2219,6655;0,00527161
2220,6296;0,00519469
2221,5940;0,00516732
2222,5581;0,00520153
2223,5225;0,00528474
2224,4866;0,00538472
2225,4509;0,00546836
2226,4150;0,00552013
2227,3794;0,00554643
2228,3435;0,00556619
2229,3079;0,00559052
2230,2720;0,00561078
2231,2363;0,00560322
2232,2004;0,00554699
2233,1648;0,005442
2234,1289;0,0053133
2235,0933;0,00519857
2236,0574;0,00512763
2237,0217;0,00510829
2237,9858;0,00512693
2238,9502;0,00516134
2239,9143;0,00519479
2240,8787;0,0052216
2241,8428;0,00524254
2242,8071;0,00525707
2243,7712;0,00526064
2244,7356;0,00524976
2245,6997;0,00522976
2246,6641;0,00521728
2247,6282;0,00523349
2248,5925;0,00529198
2249,5566;0,00538952
2250,5210;0,00550634
2251,4851;0,00561521
2252,4495;0,00569348
2253,4136;0,00573063
2254,3779;0,00572858
2255,3420;0,00569671
2256,3064;0,00564669
2257,2705;0,00559009
2258,2349;0,00553846
2259,1990;0,00550276
2260,1633;0,00549053
2261,1274;0,00550214
2262,0918;0,00552938
2263,0559;0,00555828
2264,0203;0,0055755
2264,9844;0,00557437
2265,9487;0,00555714
2266,9128;0,00553258
2267,8772;0,00551114
2268,8413;0,00550067
2269,8057;0,00550466
2270,7698;0,00552207
2271,7341;0,00554721
2272,6982;0,00556923
2273,6626;0,00557267
2274,6267;0,0055411
2275,5911;0,00546409
2276,5552;0,0053448
2277,5195;0,00520324
2278,4836;0,00507173
2279,4480;0,00498315
2280,4121;0,00495737
2281,3765;0,00499352
2282,3406;0,00507224
2283,3049;0,0051668
2284,2690;0,0052564
2285,2334;0,00533478
2286,1975;0,00541049
2287,1619;0,00549998
2288,1260;0,00561816
2289,0903;0,00577111
2290,0544;0,00595369
2291,0188;0,00615166
2291,9829;0,00634685
2292,9473;0,00652321
2293,9114;0,00667207
2294,8757;0,00679453
2295,8398;0,00689925
2296,8042;0,00699561
2297,7683;0,00708536
2298,7327;0,00715831
2299,6968;0,00719639
2300,6611;0,00718593
2301,6252;0,00713178
2302,5896;0,0070627
2303,5537;0,00702351
2304,5181;0,00705414
2305,4822;0,00716581
2306,4465;0,00732713
2307,4106;0,00747015
2308,3750;0,00751616
2309,3391;0,00741013
2310,3035;0,00714594
2311,2676;0,0067694
2312,2319;0,006357
2313,1960;0,00598193
2314,1604;0,0056856
2315,1245;0,00546908
2316,0889;0,00530562
2317,0530;0,00516327
2318,0173;0,00502354
2318,9814;0,00488923
2319,9458;0,00478316
2320,9099;0,00474255
2321,8743;0,00480844
2322,8384;0,00500379
2323,8027;0,00530525
2324,7668;0,00563224
2325,7312;0,00587163
2326,6953;0,00592735
2327,6597;0,00576644
2328,6238;0,00543865
2329,5881;0,00506111
2330,5522;0,00477125
2331,5166;0,00466447
2332,4807;0,0047497
2333,4451;0,0049545
2334,4092;0,00517812
2335,3735;0,00535576
2336,3376;0,00549269
2337,3020;0,00565081
2338,2661;0,00589816
2339,2305;0,00624882
2340,1946;0,00662275
2341,1589;0,00684734
2342,1230;0,0067286
2343,0874;0,00622767
2344,0515;0,00565069
2345,0159;0,00552935
2345,9800;0,00614774
2346,9443;0,00727
2347,9084;0,00835748
2348,8728;0,00894522
2349,8369;0,00886856
2350,8013;0,00829785
2351,7654;0,00762121
2352,7297;0,00721427
2353,6938;0,00721428
2354,6582;0,00749536
2355,6223;0,00786106
2356,5867;0,00819644
2357,5508;0,00843904
2358,5151;0,00850967
2359,4792;0,00833368
2360,4436;0,00790816
2361,4077;0,00730645
2362,3721;0,00661546
2363,3362;0,00588954
2364,3005;0,00515739
2365,2646;0,00444413
2366,2290;0,00377218
2367,1931;0,00314951
2368,1575;0,00257131
2369,1216;0,00203696
2370,0859;0,00156308
2371,0500;0,00118101
2372,0144;0,000926028
2372,9785;0,0008297
2373,9429;0,000917074
2374,9070;0,00120236
2375,8713;0,00168024
2376,8354;0,00231747
2377,7998;0,00305186
2378,7639;0,00380145
2379,7283;0,00448083
2380,6924;0,0050188
2381,6567;0,00537228
2382,6208;0,00553332
2383,5852;0,00552799
2384,5493;0,00540711
2385,5137;0,00523141
2386,4778;0,0050553
2387,4421;0,0049148
2388,4063;0,00482381
2389,3706;0,00477854
2390,3347;0,00476648
2391,2991;0,00477455
2392,2632;0,00479303
2393,2275;0,00481567
2394,1917;0,00483852
2395,1560;0,00485958
2396,1201;0,00487929
2397,0845;0,00490041
2398,0486;0,00492791
2399,0129;0,00496264
2399,9771;0,00500097
2400,9414;0,00503704
2401,9055;0,00506477
2402,8699;0,00508248
2403,8340;0,00509292
2404,7983;0,00510106
2405,7625;0,00511027
2406,7268;0,00511972
2407,6909;0,00512673
2408,6553;0,00513092
2409,6194;0,00513652
2410,5837;0,00515262
2411,5479;0,00518763
2412,5122;0,00524264
2413,4763;0,00530807
2414,4407;0,00536698
2415,4048;0,00540336
2416,3691;0,00541101
2417,3333;0,00539686
2418,2976;0,00537653
2419,2617;0,00536528
2420,2261;0,00536994
2421,1902;0,00538676
2422,1545;0,00540758
2423,1187;0,00542668
2424,0830;0,00544454
2425,0471;0,00546552
2426,0115;0,00549191
2426,9756;0,00552014
2427,9399;0,00554268
2428,9041;0,0055544
2429,8684;0,00555826
2430,8325;0,00556522
2431,7969;0,00558765
2432,7610;0,00563068
2433,7253;0,00568799
2434,6895;0,00574538
2435,6538;0,00578969
2436,6179;0,00581686
2437,5823;0,00583319
2438,5464;0,0058496
2439,5107;0,0058735
2440,4749;0,0059045
2441,4392;0,00593679
2442,4033;0,00596553
2443,3677;0,00599148
2444,3318;0,00602019
2445,2961;0,00605644
2446,2603;0,00609885
2447,2246;0,0061389
2448,1887;0,0061653
2449,1531;0,00617068
2450,1172;0,00615591
2451,0815;0,00612983
2452,0457;0,00610501
2453,0100;0,00609244
2453,9741;0,00609794
2454,9385;0,00612123
2455,9026;0,00615723
2456,8669;0,00619834
2457,8311;0,00623658
2458,7954;0,00626513
2459,7595;0,00627934
2460,7239;0,00627782
2461,6880;0,00626354
2462,6523;0,00624451
2463,6165;0,00623263
2464,5808;0,00623983
2465,5449;0,00627246
2466,5093;0,00632686
2467,4734;0,00638942
2468,4377;0,0064422
2469,4019;0,00647146
2470,3662;0,00647447
2471,3303;0,00646032
2472,2947;0,00644485
2473,2588;0,00644298
2474,2231;0,00646302
2475,1873;0,00650526
2476,1516;0,00656383
2477,1157;0,0066296
2478,0801;0,00669246
2479,0442;0,00674324
2480,0085;0,00677597
2480,9727;0,00679037
2481,9370;0,00679284
2482,9011;0,00679439
2483,8655;0,00680584
2484,8296;0,00683241
2485,7939;0,00687086
2486,7581;0,00691068
2487,7224;0,00693897
2488,6865;0,00694642
2489,6509;0,00693188
2490,6150;0,00690337
2491,5793;0,00687514
2492,5435;0,00686176
2493,5078;0,00687183
2494,4719;0,00690422
2495,4363;0,00694904
2496,4004;0,00699283
2497,3647;0,00702519
2498,3289;0,00704307
2499,2932;0,00705022
2500,2573;0,00705302
2501,2217;0,00705577
2502,1858;0,00705899
2503,1501;0,00706132
2504,1143;0,00706268
2505,0786;0,00706554
2506,0427;0,00707295
2507,0071;0,00708531
2507,9712;0,00709918
2508,9355;0,00710987
2509,8997;0,00711609
2510,8640;0,0071225
2511,8281;0,00713721
2512,7925;0,00716515
2513,7566;0,00720218
2514,7209;0,00723501
2515,6851;0,00724826
2516,6494;0,00723463
2517,6135;0,00720124
2518,5779;0,00716744
2519,5420;0,00715486
2520,5063;0,00717596
2521,4705;0,00722789
2522,4348;0,00729514
2523,3989;0,00735839
2524,3633;0,00740365
2525,3274;0,00742649
2526,2917;0,00743012
2527,2559;0,00742064
2528,2202;0,00740341
2529,1843;0,00738276
2530,1487;0,00736374
2531,1128;0,00735281
2532,0771;0,00735572
2533,0413;0,00737364
2534,0056;0,00740083
2534,9697;0,00742659
2535,9341;0,00744103
2536,8982;0,00744106
2537,8625;0,00743246
2538,8267;0,0074264
2539,7910;0,00743251
2540,7551;0,00745346
2541,7195;0,00748418
2542,6836;0,007516
2543,6479;0,00754233
2544,6121;0,00756187
2545,5764;0,0075779
2546,5405;0,00759473
2547,5049;0,00761414
2548,4690;0,00763369
2549,4333;0,00764757
2550,3975;0,00764921
2551,3618;0,00763459
2552,3259;0,0076053
2553,2903;0,00756977
2554,2544;0,0075414
2555,2188;0,00753338
2556,1829;0,00755227
2557,1472;0,00759403
2558,1113;0,00764537
2559,0757;0,00768997
2560,0398;0,00771607
2561,0042;0,00772088
2561,9683;0,00770979
2562,9326;0,00769177
2563,8967;0,00767457
2564,8611;0,00766213
2565,8252;0,00765495
2566,7896;0,00765173
2567,7537;0,00765126
2568,7180;0,00765366
2569,6821;0,00766095
2570,6465;0,00767613
2571,6106;0,00770094
2572,5750;0,00773322
2573,5391;0,00776614
2574,5034;0,0077911
2575,4675;0,00780305
2576,4319;0,00780474
2577,3960;0,00780598
2578,3604;0,00781777
2579,3245;0,00784495
2580,2888;0,00788289
2581,2529;0,00792044
2582,2173;0,00794673
2583,1814;0,00795691
2584,1458;0,00795306
2585,1099;0,00794092
2586,0742;0,00792614
2587,0383;0,00791284
2588,0027;0,00790489
2588,9668;0,00790727
2589,9312;0,00792515
2590,8953;0,00796082
2591,8596;0,00801066
2592,8237;0,00806462
2593,7881;0,00810928
2594,7522;0,00813316
2595,7166;0,00813204
2596,6807;0,00811171
2597,6450;0,00808662
2598,6091;0,00807433
2599,5735;0,00808794
2600,5376;0,00812991
2601,5020;0,00819082
2602,4661;0,00825426
2603,4304;0,00830498
2604,3945;0,00833576
2605,3589;0,00834885
2606,3230;0,0083521
2607,2874;0,00835316
2608,2515;0,00835609
2609,2158;0,00836176
2610,1799;0,00837064
2611,1443;0,00838447
2612,1084;0,0084056
2613,0728;0,00843484
2614,0369;0,00847023
2615,0012;0,008508
2615,9653;0,00854468
2616,9297;0,00857866
2617,8938;0,00861011
2618,8582;0,00863974
2619,8223;0,00866776
2620,7866;0,00869374
2621,7507;0,00871697
2622,7151;0,00873689
2623,6792;0,00875327
2624,6436;0,00876664
2625,6077;0,00877908
2626,5720;0,00879482
2627,5361;0,00881948
2628,5005;0,00885787
2629,4646;0,0089112
2630,4290;0,00897537
2631,3931;0,00904165
2632,3574;0,00909941
2633,3215;0,00913971
2634,2859;0,00915813
2635,2500;0,00915597
2636,2144;0,00913984
2637,1785;0,00911981
2638,1428;0,00910676
2639,1069;0,00910949
2640,0713;0,00913242
2641,0354;0,00917471
2641,9998;0,00923115
2642,9639;0,00929421
2643,9282;0,00935633
2644,8923;0,00941158
2645,8567;0,00945637
2646,8208;0,00948949
2647,7852;0,00951192
2648,7493;0,00952641
2649,7136;0,00953686
2650,6777;0,00954741
2651,6421;0,00956174
2652,6062;0,00958268
2653,5706;0,00961215
2654,5347;0,00965106
2655,4990;0,00969885
2656,4631;0,00975282
2657,4275;0,00980799
2658,3916;0,00985803
2659,3560;0,0098973
2660,3201;0,00992307
2661,2844;0,00993685
2662,2485;0,00994396
2663,2129;0,00995165
2664,1770;0,0099664
2665,1414;0,00999151
2666,1055;0,0100259
2667,0698;0,0100646
2668,0339;0,0101005
2668,9983;0,0101277
2669,9624;0,0101445
2670,9268;0,0101542
2671,8909;0,0101647
2672,8552;0,0101844
2673,8193;0,0102182
2674,7837;0,0102648
2675,7478;0,0103169
2676,7122;0,0103651
2677,6763;0,0104027
2678,6406;0,0104283
2679,6047;0,0104468
2680,5691;0,0104658
2681,5332;0,0104914
2682,4976;0,010526
2683,4617;0,0105674
2684,4260;0,0106119
2685,3901;0,0106563
2686,3545;0,0106997
2687,3186;0,0107434
2688,2830;0,0107888
2689,2471;0,0108356
2690,2114;0,0108821
2691,1755;0,0109252
2692,1399;0,0109624
2693,1040;0,0109927
2694,0684;0,0110166
2695,0325;0,0110366
2695,9968;0,011056
2696,9609;0,0110784
2697,9253;0,0111072
2698,8894;0,0111444
2699,8538;0,0111904
2700,8179;0,0112437
2701,7822;0,0113021
2702,7463;0,0113628
2703,7107;0,0114233
2704,6748;0,0114814
2705,6392;0,0115346
2706,6033;0,0115807
2707,5676;0,011618
2708,5317;0,0116465
2709,4961;0,0116684
2710,4602;0,0116877
2711,4246;0,0117091
2712,3887;0,0117366
2713,3530;0,0117731
2714,3171;0,0118197
2715,2815;0,0118757
2716,2456;0,0119394
2717,2100;0,0120074
2718,1741;0,0120753
2719,1384;0,0121368
2720,1025;0,0121854
2721,0669;0,0122155
2722,0310;0,0122253
2722,9954;0,012219
2723,9595;0,0122072
2724,9238;0,0122044
2725,8879;0,0122234
2726,8523;0,0122703
2727,8164;0,0123414
2728,7808;0,0124248
2729,7449;0,0125055
2730,7092;0,0125717
2731,6733;0,0126181
2732,6377;0,0126462
2733,6018;0,0126617
2734,5662;0,012671
2735,5303;0,0126787
2736,4946;0,0126877
2737,4587;0,0126996
2738,4231;0,0127153
2739,3872;0,0127363
2740,3516;0,0127637
2741,3157;0,0127984
2742,2800;0,0128401
2743,2441;0,0128864
2744,2085;0,0129332
2745,1726;0,0129753
2746,1370;0,0130083
2747,1011;0,0130308
2748,0654;0,0130451
2749,0295;0,0130565
2749,9939;0,0130714
2750,9580;0,0130949
2751,9224;0,0131293
2752,8865;0,0131741
2753,8508;0,0132263
2754,8149;0,0132821
2755,7793;0,0133366
2756,7434;0,0133858
2757,7078;0,0134274
2758,6719;0,0134617
2759,6362;0,0134925
2760,6003;0,0135255
2761,5647;0,0135665
2762,5288;0,0136182
2763,4932;0,0136788
2764,4573;0,0137431
2765,4216;0,0138052
2766,3857;0,0138619
2767,3501;0,013914
2768,3142;0,0139651
2769,2786;0,0140182
2770,2427;0,0140724
2771,2070;0,0141224
2772,1711;0,0141625
2773,1355;0,0141902
2774,0996;0,0142107
2775,0640;0,0142345
2776,0281;0,014273
2776,9924;0,0143324
2777,9565;0,0144104
2778,9209;0,0144978
2779,8850;0,0145844
2780,8494;0,0146638
2781,8135;0,0147363
2782,7778;0,0148064
2783,7419;0,0148788
2784,7063;0,014955
2785,6704;0,0150325
2786,6348;0,0151074
2787,5989;0,0151775
2788,5632;0,0152444
2789,5273;0,0153129
2790,4917;0,0153882
2791,4558;0,015473
2792,4202;0,0155649
2793,3843;0,0156584
2794,3486;0,0157473
2795,3127;0,0158293
2796,2771;0,0159076
2797,2412;0,0159904
2798,2056;0,0160863
2799,1697;0,0162
2800,1340;0,0163294
2801,0981;0,0164673
2802,0625;0,0166048
2803,0266;0,0167358
2803,9910;0,0168582
2804,9551;0,0169729
2805,9194;0,0170818
2806,8835;0,0171867
2807,8479;0,0172902
2808,8120;0,017397
2809,7764;0,0175139
2810,7405;0,0176472
2811,7048;0,017799
2812,6689;0,0179656
2813,6333;0,0181387
2814,5974;0,0183099
2815,5618;0,0184743
2816,5259;0,018633
2817,4902;0,0187915
2818,4543;0,0189568
2819,4187;0,0191342
2820,3828;0,0193257
2821,3472;0,0195306
2822,3113;0,0197463
2823,2756;0,0199695
2824,2397;0,0201975
2825,2041;0,020429
2826,1682;0,0206644
2827,1326;0,0209056
2828,0967;0,0211556
2829,0610;0,021418
2830,0251;0,0216962
2830,9895;0,0219939
2831,9536;0,0223148
2832,9180;0,0226622
2833,8821;0,0230381
2834,8464;0,0234431
2835,8105;0,0238769
2836,7749;0,0243407
2837,7390;0,0248398
2838,7034;0,0253846
2839,6675;0,0259911
2840,6318;0,0266791
2841,5959;0,0274698
2842,5603;0,0283806
2843,5244;0,0294165
2844,4888;0,030559
2845,4529;0,0317557
2846,4172;0,0329193
2847,3813;0,0339398
2848,3457;0,0347116
2849,3098;0,035165
2850,2742;0,0352892
2851,2383;0,035134
2852,2026;0,0347902
2853,1667;0,0343577
2854,1311;0,0339168
2855,0952;0,0335144
2856,0596;0,0331669
2857,0237;0,0328752
2857,9880;0,0326381
2858,9521;0,032459
2859,9165;0,0323437
2860,8806;0,0322941
2861,8450;0,0323041
2862,8091;0,0323617
2863,7734;0,0324554
2864,7375;0,0325796
2865,7019;0,0327357
2866,6660;0,0329263
2867,6304;0,033147
2868,5945;0,0333817
2869,5588;0,0336053
2870,5229;0,0337929
2871,4873;0,03393
2872,4514;0,0340181
2873,4158;0,034073
2874,3799;0,0341157
2875,3442;0,0341638
2876,3083;0,0342259
2877,2727;0,0343022
2878,2368;0,0343893
2879,2012;0,0344841
2880,1653;0,0345861
2881,1296;0,0346978
2882,0938;0,0348228
2883,0581;0,0349646
2884,0222;0,0351251
2884,9866;0,0353031
2885,9507;0,0354945
2886,9150;0,0356933
2887,8792;0,0358935
2888,8435;0,0360916
2889,8076;0,0362865
2890,7720;0,0364781
2891,7361;0,0366662
2892,7004;0,0368503
2893,6646;0,0370321
2894,6289;0,0372167
2895,5930;0,037412
2896,5574;0,0376243
2897,5215;0,0378541
2898,4858;0,0380936
2899,4500;0,0383307
2900,4143;0,0385553
2901,3784;0,0387664
2902,3428;0,0389731
2903,3069;0,0391922
2904,2712;0,0394418
2905,2354;0,0397382
2906,1997;0,0400948
2907,1638;0,0405248
2908,1282;0,041043
2909,0923;0,041664
2910,0566;0,0423955
2911,0208;0,0432295
2911,9851;0,0441347
2912,9492;0,0450545
2913,9136;0,0459133
2914,8777;0,0466316
2915,8420;0,047143
2916,8062;0,0474104
2917,7705;0,0474328
2918,7346;0,0472414
2919,6990;0,0468877
2920,6631;0,0464273
2921,6274;0,0459071
2922,5916;0,0453587
2923,5559;0,0447984
2924,5200;0,0442313
2925,4844;0,0436572
2926,4485;0,043076
2927,4128;0,0424913
2928,3770;0,0419109
2929,3413;0,0413453
2930,3054;0,040803
2931,2698;0,0402875
2932,2339;0,0397956
2933,1982;0,0393195
2934,1624;0,0388514
2935,1267;0,0383867
2936,0908;0,0379254
2937,0552;0,0374702
2938,0193;0,0370238
2938,9836;0,0365863
2939,9478;0,0361555
2940,9121;0,0357286
2941,8762;0,0353044
2942,8406;0,0348845
2943,8047;0,0344743
2944,7690;0,0340824
2945,7332;0,0337184
2946,6975;0,0333909
2947,6616;0,0331042
2948,6260;0,0328567
2949,5901;0,0326411
2950,5544;0,032446
2951,5186;0,03226
2952,4829;0,0320729
2953,4470;0,0318777
2954,4114;0,0316692
2955,3755;0,0314441
2956,3398;0,0312004
2957,3040;0,0309379
2958,2683;0,0306586
2959,2324;0,0303663
2960,1968;0,0300647
2961,1609;0,0297566
2962,1252;0,0294427
2963,0894;0,0291234
2964,0537;0,0287998
2965,0178;0,028474
2965,9822;0,0281481
2966,9463;0,0278221
2967,9106;0,0274926
2968,8748;0,0271549
2969,8391;0,0268065
2970,8032;0,026451
2971,7676;0,0260991
2972,7317;0,025765
2973,6960;0,0254601
2974,6602;0,0251863
2975,6245;0,0249354
2976,5886;0,024693
2977,5530;0,0244471
2978,5171;0,0241946
2979,4814;0,0239433
2980,4456;0,0237071
2981,4099;0,023499
2982,3740;0,0233245
2983,3384;0,0231801
2984,3025;0,0230562
2985,2668;0,022942
2986,2310;0,0228291
2987,1953;0,0227133
2988,1594;0,0225953
2989,1238;0,0224801
2990,0879;0,0223755
2991,0522;0,0222892
2992,0164;0,0222255
2992,9807;0,0221825
2993,9448;0,0221523
2994,9092;0,0221258
2995,8733;0,0220989
2996,8376;0,0220757
2997,8018;0,0220667
2998,7661;0,0220813
2999,7302;0,022121
3000,6946;0,0221765
3001,6587;0,0222324
3002,6230;0,0222767
3003,5872;0,0223083
3004,5515;0,0223383
3005,5156;0,0223828
3006,4800;0,0224525
3007,4441;0,022546
3008,4084;0,0226493
3009,3726;0,0227438
3010,3369;0,0228154
3011,3010;0,0228615
3012,2654;0,0228906
3013,2295;0,0229169
3014,1938;0,0229528
3015,1580;0,0230047
3016,1223;0,0230738
3017,0864;0,023159
3018,0508;0,0232592
3019,0149;0,0233737
3019,9792;0,0235007
3020,9434;0,023636
3021,9077;0,0237735
3022,8718;0,0239079
3023,8362;0,0240374
3024,8003;0,0241647
3025,7646;0,0242947
3026,7288;0,0244309
3027,6931;0,0245719
3028,6572;0,0247112
3029,6216;0,0248391
3030,5857;0,0249487
3031,5500;0,0250408
3032,5142;0,025125
3033,4785;0,0252162
3034,4426;0,0253271
3035,4070;0,0254617
3036,3711;0,0256135
3037,3354;0,0257692
3038,2996;0,0259163
3039,2639;0,0260496
3040,2280;0,0261734
3041,1924;0,0262991
3042,1565;0,0264388
3043,1208;0,0265996
3044,0850;0,0267814
3045,0493;0,0269768
3046,0134;0,027175
3046,9778;0,0273648
3047,9419;0,0275392
3048,9063;0,0276979
3049,8704;0,0278477
3050,8347;0,0279988
3051,7988;0,02816
3052,7632;0,0283339
3053,7273;0,0285155
3054,6917;0,0286955
3055,6558;0,0288671
3056,6201;0,0290305
3057,5842;0,0291942
3058,5486;0,0293701
3059,5127;0,0295672
3060,4771;0,0297858
3061,4412;0,0300162
3062,4055;0,0302424
3063,3696;0,0304468
3064,3340;0,030618
3065,2981;0,0307543
3066,2625;0,0308653
3067,2266;0,0309683
3068,1909;0,0310818
3069,1550;0,0312194
3070,1194;0,0313852
3071,0835;0,0315744
3072,0479;0,0317764
3073,0120;0,0319794
3073,9763;0,0321754
3074,9404;0,0323613
3075,9048;0,0325379
3076,8689;0,0327075
3077,8333;0,0328702
3078,7974;0,0330239
3079,7617;0,0331655
3080,7258;0,0332951
3081,6902;0,0334175
3082,6543;0,0335423
3083,6187;0,0336789
3084,5828;0,0338325
3085,5471;0,0340005
3086,5112;0,0341754
3087,4756;0,0343487
3088,4397;0,0345171
3089,4041;0,0346835
3090,3682;0,0348546
3091,3325;0,0350357
3092,2966;0,0352268
3093,2610;0,0354224
3094,2251;0,0356143
3095,1895;0,0357957
3096,1536;0,0359644
3097,1179;0,0361222
3098,0820;0,0362737
3099,0464;0,0364242
3100,0105;0,0365782
3100,9749;0,0367389
3101,9390;0,036907
3102,9033;0,0370805
3103,8674;0,0372556
3104,8318;0,0374286
3105,7959;0,0375989
3106,7603;0,0377701
3107,7244;0,0379489
3108,6887;0,0381416
3109,6528;0,0383505
3110,6172;0,0385715
3111,5813;0,0387962
3112,5457;0,0390151
3113,5098;0,0392223
3114,4741;0,0394177
3115,4382;0,0396063
3116,4026;0,0397954
3117,3667;0,0399909
3118,3311;0,040195
3119,2952;0,0404061
3120,2595;0,0406195
3121,2236;0,0408296
3122,1880;0,041032
3123,1521;0,0412256
3124,1165;0,0414133
3125,0806;0,0416018
3126,0449;0,041799
3127,0090;0,0420108
3127,9734;0,0422381
3128,9375;0,0424764
3129,9019;0,0427176
3130,8660;0,0429532
3131,8303;0,0431774
3132,7944;0,0433885
3133,7588;0,0435892
3134,7229;0,043785
3135,6873;0,0439828
3136,6514;0,0441887
3137,6157;0,0444064
3138,5798;0,0446352
3139,5442;0,0448707
3140,5083;0,0451067
3141,4727;0,0453397
3142,4368;0,0455709
3143,4011;0,0458066
3144,3652;0,0460537
3145,3296;0,0463141
3146,2937;0,0465818
3147,2581;0,0468457
3148,2222;0,0470953
3149,1865;0,0473276
3150,1506;0,0475478
3151,1150;0,0477661
3152,0791;0,0479905
3153,0435;0,048222
3154,0076;0,048456
3154,9719;0,0486875
3155,9360;0,0489164
3156,9004;0,0491489
3157,8645;0,0493932
3158,8289;0,0496534
3159,7930;0,0499262
3160,7573;0,0502023
3161,7214;0,0504715
3162,6858;0,0507281
3163,6499;0,0509733
3164,6143;0,0512129
3165,5784;0,0514531
3166,5427;0,0516976
3167,5068;0,0519464
3168,4712;0,0521975
3169,4353;0,0523789
3170,3997;0,0526321
3171,3638;0,0528891
3172,3281;0,0531516
3173,2922;0,053419
3174,2566;0,0536875
3175,2207;0,0539514
3176,1851;0,0542053
3177,1492;0,0544476
3178,1135;0,0546814
3179,0776;0,0549132
3180,0420;0,0551489
3181,0061;0,0553901
3181,9705;0,055633
3182,9346;0,0558704
3183,8989;0,0560958
3184,8630;0,0563072
3185,8274;0,0565086
3186,7915;0,0567084
3187,7559;0,0569161
3188,7200;0,0571389
3189,6843;0,057379
3190,6484;0,0576336
3191,6128;0,0578961
3192,5769;0,0581584
3193,5413;0,0584138
3194,5054;0,0586582
3195,4697;0,0588906
3196,4338;0,0591113
3197,3982;0,0593212
3198,3623;0,0595216
3199,3267;0,0597159
3200,2908;0,0599099
3201,2551;0,0601109
3202,2192;0,0603251
3203,1836;0,0605542
3204,1477;0,0607943
3205,1121;0,0610383
3206,0762;0,0612795
3207,0405;0,0615143
3208,0046;0,0617428
3208,9690;0,0619662
3209,9331;0,0621847
3210,8975;0,0623969
3211,8616;0,0626011
3212,8259;0,0627974
3213,7900;0,0629881
3214,7544;0,0631754
3215,7185;0,0633606
3216,6829;0,0635435
3217,6470;0,0637245
3218,6113;0,0639066
3219,5754;0,0640952
3220,5398;0,0642952
3221,5039;0,0645072
3222,4683;0,0647268
3223,4324;0,0649466
3224,3967;0,065161
3225,3608;0,0653693
3226,3252;0,0655754
3227,2893;0,0657847
3228,2537;0,0659989
3229,2178;0,066214
3230,1821;0,0664218
3231,1462;0,0666139
3232,1106;0,0667863
3233,0747;0,066942
3234,0391;0,0670906
3235,0032;0,0672454
3235,9675;0,0674192
3236,9316;0,0676209
3237,8960;0,0678519
3238,8601;0,0681059
3239,8245;0,0683689
3240,7886;0,0686233
3241,7529;0,0688527
3242,7170;0,0690479
3243,6814;0,0692121
3244,6455;0,0693614
3245,6099;0,0695196
3246,5740;0,0697093
3247,5383;0,069941
3248,5024;0,0702084
3249,4668;0,0704913
3250,4309;0,0707649
3251,3953;0,0710114
3252,3594;0,0712273
3253,3237;0,0714238
3254,2878;0,0716197
3255,2522;0,0718309
3256,2163;0,0720623
3257,1807;0,0723073
3258,1448;0,0725522
3259,1091;0,0727855
3260,0732;0,0730032
3261,0376;0,0732106
3262,0017;0,073418
3262,9661;0,0736342
3263,9302;0,0738606
3264,8945;0,0740902
3265,8586;0,0743121
3266,8230;0,0745171
3267,7871;0,0747032
3268,7515;0,0748756
3269,7156;0,0750411
3270,6799;0,0752024
3271,6440;0,0753537
3272,6084;0,0754842
3273,5725;0,0755853
3274,5369;0,0756575
3275,5010;0,0757126
3276,4653;0,0757674
3277,4294;0,0758349
3278,3938;0,0759169
3279,3579;0,0760035
3280,3223;0,0760792
3281,2864;0,0761323
3282,2507;0,0761617
3283,2148;0,0761779
3284,1792;0,0761974
3285,1433;0,076233
3286,1077;0,0762867
3287,0718;0,0763476
3288,0361;0,076396
3289,0002;0,0764137
3289,9646;0,0763933
3290,9287;0,0763434
3291,8931;0,0762852
3292,8572;0,0762422
3293,8215;0,076229
3294,7856;0,0762448
3295,7500;0,0762753
3296,7141;0,0763019
3297,6785;0,0763109
3298,6426;0,0762996
3299,6069;0,0762741
3300,5710;0,0762438
3301,5354;0,0762145
3302,4995;0,0761859
3303,4639;0,0761537
3304,4280;0,0761134
3305,3923;0,0760637
3306,3564;0,0760075
3307,3208;0,0759499
3308,2849;0,0758961
3309,2493;0,0758496
3310,2134;0,0758121
3311,1777;0,0757841
3312,1418;0,0757653
3313,1062;0,0757554
3314,0703;0,0757546
3315,0347;0,0757641
3315,9988;0,0757864
3316,9631;0,0758251
3317,9272;0,0758831
3318,8916;0,0759615
3319,8557;0,0760573
3320,8201;0,0761636
3321,7842;0,0762709
3322,7485;0,0763696
3323,7126;0,0764534
3324,6770;0,0765217
3325,6411;0,0765794
3326,6055;0,0766353
3327,5696;0,076698
3328,5339;0,0767726
3329,4980;0,0768583
3330,4624;0,0769482
3331,4265;0,0770313
3332,3909;0,0770959
3333,3550;0,0771324
3334,3193;0,0771355
3335,2834;0,0771046
3336,2478;0,0770426
3337,2119;0,0769538
3338,1763;0,0768417
3339,1404;0,0767085
3340,1047;0,0765571
3341,0688;0,076393
3342,0332;0,0762253
3342,9973;0,0760642
3343,9617;0,075916
3344,9258;0,075778
3345,8901;0,0756384
3346,8542;0,0754803
3347,8186;0,0752911
3348,7827;0,0750689
3349,7471;0,0748243
3350,7112;0,0745749
3351,6755;0,0743374
3352,6396;0,07412
3353,6040;0,0739214
3354,5681;0,073735
3355,5325;0,0735542
3356,4966;0,0733766
3357,4609;0,0732036
3358,4250;0,0730379
3359,3894;0,0728802
3360,3535;0,0727277
3361,3179;0,0725746
3362,2820;0,0724138
3363,2463;0,0722392
3364,2104;0,0720474
3365,1748;0,071839
3366,1389;0,0716189
3367,1033;0,0713948
3368,0674;0,071175
3369,0317;0,0709657
3369,9958;0,0707684
3370,9602;0,0705807
3371,9243;0,070397
3372,8887;0,0702114
3373,8528;0,07002
3374,8171;0,0698218
3375,7813;0,0696189
3376,7456;0,0694151
3377,7097;0,0692131
3378,6741;0,0690132
3379,6382;0,0688133
3380,6025;0,0686108
3381,5667;0,0684064
3382,5310;0,0682059
3383,4951;0,0680191
3384,4595;0,0678549
3385,4236;0,0677158
3386,3879;0,0675947
3387,3521;0,0674779
3388,3164;0,0673514
3389,2805;0,0672073
3390,2449;0,0670465
3391,2090;0,0668758
3392,1733;0,0667019
3393,1375;0,0665269
3394,1018;0,0663483
3395,0659;0,0661626
3396,0303;0,065969
3396,9944;0,0657705
3397,9587;0,0655711
3398,9229;0,0653714
3399,8872;0,0651679
3400,8513;0,0649566
3401,8157;0,064737
3402,7798;0,0645144
3403,7441;0,0642961
3404,7083;0,0640863
3405,6726;0,0638827
3406,6367;0,0636779
3407,6011;0,0634644
3408,5652;0,0632391
3409,5295;0,063004
3410,4937;0,0627635
3411,4580;0,0625219
3412,4221;0,0622827
3413,3865;0,062049
3414,3506;0,0618232
3415,3149;0,0616042
3416,2791;0,0613845
3417,2434;0,0611511
3418,2075;0,0608905
3419,1719;0,0605983
3420,1360;0,0602841
3421,1003;0,0599693
3422,0645;0,059675
3423,0288;0,0594101
3423,9929;0,0591667
3424,9573;0,0589268
3425,9214;0,0586737
3426,8857;0,0584014
3427,8499;0,0581165
3428,8142;0,0578325
3429,7783;0,0575606
3430,7427;0,0573027
3431,7068;0,0570506
3432,6711;0,0567918
3433,6353;0,0565173
3434,5996;0,0562264
3435,5637;0,0559274
3436,5281;0,0556321
3437,4922;0,055351
3438,4565;0,0550886
3439,4207;0,054844
3440,3850;0,0546121
3441,3491;0,0543855
3442,3135;0,0541552
3443,2776;0,0539112
3444,2419;0,0536441
3445,2061;0,0533481
3446,1704;0,0530246
3447,1345;0,0526827
3448,0989;0,0523352
3449,0630;0,0519927
3450,0273;0,0516596
3450,9915;0,0513361
3451,9558;0,0510229
3452,9199;0,0507235
3453,8843;0,0504423
3454,8484;0,0501802
3455,8127;0,0499327
3456,7769;0,0496906
3457,7412;0,0494447
3458,7053;0,0491887
3459,6697;0,0489203
3460,6338;0,0486405
3461,5981;0,0483513
3462,5623;0,0480549
3463,5266;0,0477518
3464,4907;0,0474415
3465,4551;0,0471227
3466,4192;0,0467965
3467,3835;0,0464681
3468,3477;0,0461469
3469,3120;0,0458425
3470,2761;0,0455589
3471,2405;0,0452911
3472,2046;0,0450285
3473,1689;0,0447628
3474,1331;0,0444946
3475,0974;0,044234
3476,0615;0,0439909
3477,0259;0,0437652
3477,9900;0,0435427
3478,9543;0,0433023
3479,9185;0,0430292
3480,8828;0,0427256
3481,8469;0,0424108
3482,8113;0,0421075
3483,7754;0,0418256
3484,7397;0,0415555
3485,7039;0,0412765
3486,6682;0,0409725
3487,6323;0,0406446
3488,5967;0,040312
3489,5608;0,0400011
3490,5251;0,0397295
3491,4893;0,0394959
3492,4536;0,0392821
3493,4177;0,0390647
3494,3821;0,0388286
3495,3462;0,0385774
3496,3105;0,0383307
3497,2747;0,0381103
3498,2390;0,0379223
3499,2031;0,0377498
3500,1675;0,0375587
3501,1316;0,037316
3502,0959;0,0370108
3503,0601;0,0366651
3504,0244;0,0363223
3504,9885;0,0360165
3505,9529;0,0357502
3506,9170;0,0354973
3507,8813;0,0352238
3508,8455;0,0349093
3509,8098;0,0345592
3510,7739;0,0341999
3511,7383;0,0338606
3512,7024;0,0335564
3513,6667;0,0332852
3514,6309;0,0330378
3515,5952;0,0328087
3516,5593;0,0326004
3517,5237;0,0324185
3518,4878;0,0322649
3519,4521;0,032132
3520,4163;0,0320034
3521,3806;0,031859
3522,3447;0,0316822
3523,3091;0,0314643
3524,2732;0,0312047
3525,2375;0,0309065
3526,2017;0,0305724
3527,1660;0,0302065
3528,1301;0,0298199
3529,0945;0,0294332
3530,0586;0,0290712
3531,0229;0,0287504
3531,9871;0,0284714
3532,9514;0,0282203
3533,9155;0,0279768
3534,8799;0,0277237
3535,8440;0,0274559
3536,8083;0,0271839
3537,7725;0,0269311
3538,7368;0,0267222
3539,7009;0,026571
3540,6653;0,026474
3541,6294;0,0264085
3542,5938;0,026335
3543,5579;0,0262037
3544,5222;0,0259756
3545,4863;0,0256487
3546,4507;0,025265
3547,4148;0,0248816
3548,3792;0,0245303
3549,3433;0,0242043
3550,3076;0,023875
3551,2717;0,0235198
3552,2361;0,023143
3553,2002;0,022777
3554,1646;0,0224613
3555,1287;0,0222152
3556,0930;0,0220302
3557,0571;0,0218855
3558,0215;0,0217697
3558,9856;0,0216904
3559,9500;0,0216663
3560,9141;0,0217045
3561,8784;0,0217808
3562,8425;0,0218349
3563,8069;0,0217784
3564,7710;0,0215132
3565,7354;0,0209772
3566,6995;0,0202257
3567,6638;0,0194521
3568,6279;0,0188534
3569,5923;0,0184833
3570,5564;0,0182634
3571,5208;0,0180847
3572,4849;0,0178801
3573,4492;0,01764
3574,4133;0,0173931
3575,3777;0,0171729
3576,3418;0,0169932
3577,3062;0,0168463
3578,2703;0,0167209
3579,2346;0,0166195
3580,1987;0,0165582
3581,1631;0,016547
3582,1272;0,0165693
3583,0916;0,0165785
3584,0557;0,0165101
3585,0200;0,016304
3585,9841;0,0159387
3586,9485;0,0154807
3587,9126;0,015087
3588,8770;0,0148968
3589,8411;0,0149172
3590,8054;0,0150384
3591,7695;0,0151252
3592,7339;0,0150857
3593,6980;0,0148993
3594,6624;0,0146157
3595,6265;0,0143187
3596,5908;0,014066
3597,5549;0,0138533
3598,5193;0,0136347
3599,4834;0,0133742
3600,4478;0,0130821
3601,4119;0,0128078
3602,3762;0,0125929
3603,3403;0,0124334
3604,3047;0,0122799
3605,2688;0,012065
3606,2332;0,0117342
3607,1973;0,0112766
3608,1616;0,0107453
3609,1257;0,0102405
3610,0901;0,00985667
3611,0542;0,00963759
3612,0186;0,00956947
3612,9827;0,00959649
3613,9470;0,0096419
3614,9111;0,00963013
3615,8755;0,00950868
3616,8396;0,00926697
3617,8040;0,00895012
3618,7681;0,00865966
3619,7324;0,00851911
3620,6965;0,00859992
3621,6609;0,00886544
3622,6250;0,00919222
3623,5894;0,00943834
3624,5535;0,00949566
3625,5178;0,00930463
3626,4819;0,00884589
3627,4463;0,0081449
3628,4104;0,00732506
3629,3748;0,00661664
3630,3389;0,00618131
3631,3032;0,00596519
3632,2673;0,00579465
3633,2317;0,00553668
3634,1958;0,00516441
3635,1602;0,00473659
3636,1243;0,00433715
3637,0886;0,0040176
3638,0527;0,00377901
3639,0171;0,00359755
3639,9812;0,00346148
3640,9456;0,00338409
3641,9097;0,00338462
3642,8740;0,00345947
3643,8381;0,003572
3644,8025;0,00366404
3645,7666;0,00366407
3646,7310;0,00346735
3647,6951;0,00293456
3648,6594;0,00205713
3649,6235;0,00115914
3650,5879;0,000619183
3651,5520;0,000463576
3652,5164;0,000459727
3653,4805;0,000382786
3654,4448;0,000135879
3655,4089;-0,000242074
3656,3733;-0,000623032
3657,3374;-0,00088112
3658,3018;-0,00098137
3659,2659;-0,000984484
3660,2302;-0,000971388
3661,1943;-0,000972957
3662,1587;-0,000960858
3663,1228;-0,000891931
3664,0872;-0,000760066
3665,0513;-0,000604981
3666,0156;-0,000478547
3666,9797;-0,000405233
3667,9441;-0,000375021
3668,9082;-0,000365871
3669,8726;-0,000363516
3670,8367;-0,000374193
3671,8010;-0,000436869
3672,7651;-0,000604016
3673,7295;-0,000895914
3674,6936;-0,00126879
3675,6580;-0,0016123
3676,6221;-0,00180258
3677,5864;-0,00180522
3678,5505;-0,00169764
3679,5149;-0,00157535
3680,4790;-0,00147157
3681,4434;-0,00135943
3682,4075;-0,00120561
3683,3718;-0,00101793
3684,3359;-0,000847278
3685,3003;-0,00074791
3686,2644;-0,000734397
3687,2288;-0,000771839
3688,1929;-0,0008057
3689,1572;-0,000794124
3690,1213;-0,00071222
3691,0857;-0,000561437
3692,0498;-0,00038011
3693,0142;-0,000215682
3693,9783;-9,05782E-05
3694,9426;4,12057E-07
3695,9067;6,98984E-05
3696,8711;0,000119612
3697,8352;0,000138858
3698,7996;0,000117569
3699,7637;6,19778E-05
3700,7280;2,15397E-06
3701,6921;-1,44708E-05
3702,6565;5,36746E-05
3703,6206;0,000212957
3704,5850;0,000424902
3705,5491;0,000625244
3706,5134;0,000748789
3707,4775;0,000735283
3708,4419;0,000514897
3709,4060;9,42569E-06
3710,3704;-0,000786529
3711,3345;-0,00168481
3712,2988;-0,00237046
3713,2629;-0,00265365
3714,2273;-0,00256784
3715,1914;-0,00225581
3716,1558;-0,00184568
3717,1199;-0,00140598
3718,0842;-0,000956273
3719,0483;-0,000497888
3720,0127;-4,06133E-05
3720,9768;0,000388177
3721,9412;0,000752069
3722,9053;0,00102156
3723,8696;0,00118732
3724,8337;0,001266
3725,7981;0,00129241
3726,7622;0,0012977
3727,7266;0,00129078
3728,6907;0,00126146
3729,6550;0,00119922
3730,6191;0,00110461
3731,5835;0,000977507
3732,5476;0,000787667
3733,5120;0,000467291
3734,4761;-1,31584E-05
3735,4404;-0,000534871
3736,4045;-0,000886164
3737,3689;-0,000972557
3738,3330;-0,00089835
3739,2974;-0,000864729
3740,2615;-0,00104348
3741,2258;-0,00150383
3742,1899;-0,00217674
3743,1543;-0,00285215
3744,1184;-0,00325749
3745,0828;-0,00324193
3746,0469;-0,00290837
3747,0112;-0,00252459
3747,9753;-0,00234244
3748,9397;-0,0025015
3749,9038;-0,00298816
3750,8682;-0,00358971
3751,8323;-0,00398114
3752,7966;-0,00400277
3753,7607;-0,00376801
3754,7251;-0,0034942
3755,6892;-0,00333842
3756,6536;-0,00335288
3757,6177;-0,0035013
3758,5820;-0,00369043
3759,5461;-0,00381725
3760,5105;-0,00382649
3761,4746;-0,0037347
3762,4390;-0,00360199
3763,4031;-0,00348928
3764,3674;-0,00343626
3765,3315;-0,00346004
3766,2959;-0,00356134
3767,2600;-0,00372842
3768,2244;-0,00393609
3769,1885;-0,00414217
3770,1528;-0,00429058
3771,1169;-0,00433294
3772,0813;-0,00425882
3773,0454;-0,00410689
3774,0098;-0,00394431
3774,9739;-0,00383334
3775,9382;-0,00380746
3776,9023;-0,00386406
3777,8667;-0,0039681
3778,8308;-0,00406288
3779,7952;-0,00409546
3780,7593;-0,00404956
3781,7236;-0,00395651
3782,6877;-0,00387368
3783,6521;-0,00385223
3784,6162;-0,00391344
3785,5806;-0,00403946
3786,5447;-0,00418283
3787,5090;-0,00429106
3788,4731;-0,00433217
3789,4375;-0,00430527
3790,4016;-0,00423134
3791,3660;-0,00413264
3792,3301;-0,00401418
3793,2944;-0,00386052
3794,2585;-0,00365264
3795,2229;-0,00339526
3796,1870;-0,0031319
3797,1514;-0,00293182
3798,1155;-0,00285743
3799,0798;-0,0029345
3800,0439;-0,00313701
3801,0083;-0,00339121
3801,9724;-0,00361426
3802,9368;-0,00378043
3803,9009;-0,00394268
3804,8652;-0,00417199
3805,8293;-0,00447226
3806,7937;-0,00474481
3807,7578;-0,00484338
3808,7222;-0,00469512
3809,6863;-0,00436893
3810,6506;-0,00401695
3811,6147;-0,0037644
3812,5791;-0,00364351
3813,5432;-0,00359393
3814,5076;-0,00351635
3815,4717;-0,00335057
3816,4360;-0,0031263
3817,4001;-0,00294835
3818,3645;-0,0029336
3819,3286;-0,00314147
3820,2930;-0,00351964
3821,2571;-0,00390421
3822,2214;-0,00412428
3823,1855;-0,00413217
3824,1499;-0,00401078
3825,1140;-0,00387789
3826,0784;-0,00380518
3827,0425;-0,0037961
3828,0068;-0,00380585
3828,9709;-0,0037785
3829,9353;-0,00368036
3830,8994;-0,00351548
3831,8638;-0,00332109
3832,8279;-0,00315023
3833,7922;-0,00305048
3834,7563;-0,00304777
3835,7207;-0,00314141
3836,6848;-0,00331004
3837,6492;-0,00352005
3838,6133;-0,00373187
3839,5776;-0,00391396
3840,5417;-0,00405945
3841,5061;-0,00417935
3842,4702;-0,00427118
3843,4346;-0,00429781
3844,3987;-0,00420307
3845,3630;-0,00395658
3846,3271;-0,00359102
3847,2915;-0,00320122
3848,2556;-0,00290982
3849,2200;-0,00282819
3850,1841;-0,00303425
3851,1484;-0,00356717
3852,1125;-0,00439
3853,0769;-0,00525765
3854,0410;-0,00572891
3855,0054;-0,00558664
3855,9695;-0,0050357
3856,9338;-0,00441027
3857,8979;-0,00392831
3858,8623;-0,00365634
3859,8264;-0,00355758
3860,7908;-0,00355015
3861,7549;-0,00355912
3862,7192;-0,003549
3863,6833;-0,003522
3864,6477;-0,00349562
3865,6118;-0,00348838
3866,5762;-0,00351515
3867,5403;-0,00358201
3868,5046;-0,00368519
3869,4688;-0,00381595
3870,4331;-0,00396188
3871,3972;-0,00410134
3872,3616;-0,00420511
3873,3257;-0,00425127
3874,2900;-0,00423842
3875,2542;-0,00418389
3876,2185;-0,0041095
3877,1826;-0,00402815
3878,1470;-0,0039411
3879,1111;-0,0038495
3880,0754;-0,00376927
3881,0396;-0,00373325
3882,0039;-0,00377639
3882,9680;-0,00391273
3883,9324;-0,00411564
3884,8965;-0,00431704
3885,8608;-0,00444065
3886,8250;-0,00445427
3887,7893;-0,00439215
3888,7534;-0,00432328
3889,7178;-0,00429773
3890,6819;-0,00431199
3891,6462;-0,00431051
3892,6104;-0,00422732
3893,5747;-0,00404606
3894,5388;-0,00381835
3895,5032;-0,0036206
3896,4673;-0,00350103
3897,4316;-0,00346273
3898,3958;-0,00348259
3899,3601;-0,00354103
3900,3242;-0,00363868
3901,2886;-0,00379085
3902,2527;-0,0040068
3903,2170;-0,00426539
3904,1812;-0,00451005
3905,1455;-0,00468043
3906,1096;-0,00475434
3907,0740;-0,00475435
3908,0381;-0,00471863
3909,0024;-0,00467064
3909,9666;-0,00461052
3910,9309;-0,00452639
3911,8950;-0,00441232
3912,8594;-0,00427959
3913,8235;-0,0041556
3914,7878;-0,00407333
3915,7520;-0,00405615
3916,7163;-0,00410131
3917,6804;-0,00417229
3918,6448;-0,00421672
3919,6089;-0,00420316
3920,5732;-0,00414294
3921,5374;-0,00407768
3922,5017;-0,00404906
3923,4658;-0,00407193
3924,4302;-0,00412339
3925,3943;-0,00415741
3926,3586;-0,00413915
3927,3228;-0,00407084
3928,2871;-0,00398984
3929,2512;-0,00394755
3930,2156;-0,00398446
3931,1797;-0,00410714
3932,1440;-0,0042779
3933,1082;-0,00443331
3934,0725;-0,00452283
3935,0366;-0,00453318
3936,0010;-0,00448301
3936,9651;-0,00440357
3937,9294;-0,00432322
3938,8936;-0,00426079
3939,8579;-0,00422453
3940,8220;-0,00421265
3941,7864;-0,00421424
3942,7505;-0,00421286
3943,7148;-0,0041949
3944,6790;-0,0041597
3945,6433;-0,00412164
3946,6074;-0,00410287
3947,5718;-0,00412222
3948,5359;-0,00418564
3949,5002;-0,00428189
3950,4644;-0,00438718
3951,4287;-0,00447745
3952,3928;-0,00453842
3953,3572;-0,00456667
3954,3213;-0,00456578
3955,2856;-0,00454355
3956,2498;-0,00451124
3957,2141;-0,00448201
3958,1782;-0,00446745
3959,1426;-0,00447385
3960,1067;-0,00450025
3961,0710;-0,00453938
3962,0352;-0,00458077
3962,9995;-0,00461448
3963,9636;-0,00463433
3964,9280;-0,00463861
3965,8921;-0,00462987
3966,8564;-0,00461332
3967,8206;-0,00459507
3968,7849;-0,00458001
3969,7490;-0,00457021
3970,7134;-0,00456462
3971,6775;-0,00456088
3972,6418;-0,00455789
3973,6060;-0,00455715
3974,5703;-0,00456176
3975,5344;-0,00457371
3976,4988;-0,00459193
3977,4629;-0,00461275
3978,4272;-0,00463257
3979,3914;-0,0046506
3980,3557;-0,00466958
3981,3198;-0,00469356
3982,2842;-0,00472381
3983,2483;-0,00475564
3984,2126;-0,00477887
3985,1768;-0,00478243
3986,1411;-0,00476047
3987,1052;-0,00471639
3988,0696;-0,00466245
3989,0337;-0,00461436
3989,9980;-0,00458471
3990,9622;-0,00457819
3991,9265;-0,00459186
3992,8906;-0,00461953
3993,8550;-0,00465638
3994,8191;-0,0047003
3995,7834;-0,00474967
3996,7476;-0,00480006
3997,7119;-0,00484343
3998,6760;-0,00487067
3999,6404;-0,00487595
4000,6045;-0,0046502

##### Extended Information
[Comments]
Sample name
Comment
Username
Division
Organization;UNIVERSIDAD INDUSTRIAL DE SANTANDER

[Detailed Information]
Creation date;19/03/2025 2:32 p.m.

Data array type;Linear data array
Horizontal axis;Wavenumber [cm-1]
Vertical axis;Abs
Start;399,193 cm-1
End;4000,6 cm-1
Data interval;0,964233 cm-1
Data points;3736    

[Measurement Information]
Model name;FT/IR-4X1typeA
Serial No.;A035162111

Accessory;ATR PRO 4X
Accessory S/N;A021162126
Incident angle;45 deg

Measurement date;19/03/2025 2:31 p.m.

Light source;Standard
Detector;TGS
Accumulation;40
Resolution;4 cm-1
Zero filling;On
Apodization;Cosine
Gain;Auto (8)
Aperture;Auto (7 mm)
Scan speed;Auto (2 mm/sec)
Filter;Auto (12800 Hz)

