TITLE;
DATA TYPE;INFRARED SPECTRUM
ORIGIN;JASCO
OWNER;
DATE;25/03/19
TIME;14:41:34
SPECTROMETER/DATA SYSTEM;
LOCALE;9226
RESOLUTION;
DELTAX;0,964233
XUNITS;1/CM
YUNITS;ABSORBANCE
FIRSTX;  399,1927
LASTX; 4000,6047
NPOINTS;    3736
FIRSTY;     0,22659
MAXY;     0,27734
MINY;    -0,00321
XYDATA
399,1927;0,226594
400,1569;0,227036
401,1211;0,225832
402,0854;0,223534
403,0496;0,220804
404,0138;0,218303
404,9781;0,2166
405,9423;0,216007
406,9065;0,21643
407,8708;0,217405
408,8350;0,218361
409,7992;0,218906
410,7635;0,218973
411,7277;0,218773
412,6919;0,218608
413,6562;0,218705
414,6204;0,219186
415,5846;0,220127
416,5489;0,221602
417,5131;0,223581
418,4773;0,225721
419,4416;0,227391
420,4058;0,228219
421,3700;0,228431
422,3343;0,228498
423,2985;0,228746
424,2627;0,229247
425,2270;0,229871
426,1912;0,230401
427,1554;0,230675
428,1197;0,230668
429,0839;0,23046
430,0481;0,230141
431,0124;0,229748
431,9766;0,229269
432,9408;0,228714
433,9051;0,22818
434,8693;0,227837
435,8335;0,227815
436,7978;0,228082
437,7620;0,228418
438,7262;0,228527
439,6905;0,228196
440,6547;0,227395
441,6189;0,226281
442,5832;0,225105
443,5474;0,22408
444,5116;0,223275
445,4759;0,222636
446,4401;0,222084
447,4043;0,221594
448,3686;0,221195
449,3328;0,220928
450,2970;0,220808
451,2613;0,220818
452,2255;0,220928
453,1897;0,221094
454,1540;0,221259
455,1182;0,221331
456,0824;0,221194
457,0467;0,22077
458,0109;0,220093
458,9751;0,219326
459,9394;0,218656
460,9036;0,218168
461,8678;0,217824
462,8321;0,217517
463,7963;0,217152
464,7605;0,216695
465,7248;0,216196
466,6890;0,215777
467,6532;0,21558
468,6175;0,215706
469,5817;0,21615
470,5459;0,216763
471,5102;0,217252
472,4744;0,217302
473,4386;0,216782
474,4029;0,215857
475,3671;0,214901
476,3313;0,214285
477,2956;0,214219
478,2598;0,214686
479,2240;0,215474
480,1883;0,216274
481,1525;0,216827
482,1167;0,217035
483,0810;0,216985
484,0452;0,216883
485,0094;0,216925
485,9737;0,217192
486,9379;0,217636
487,9021;0,218158
488,8664;0,218682
489,8306;0,219189
490,7948;0,219678
491,7591;0,220111
492,7233;0,220393
493,6875;0,220419
494,6518;0,220167
495,6160;0,219756
496,5802;0,219412
497,5445;0,219367
498,5087;0,219752
499,4729;0,220533
500,4372;0,221523
501,4014;0,222458
502,3656;0,223129
503,3299;0,223467
504,2941;0,223554
505,2583;0,223552
506,2226;0,223618
507,1868;0,223863
508,1510;0,224338
509,1153;0,225025
510,0795;0,225844
511,0437;0,226679
512,0080;0,227424
512,9722;0,228033
513,9365;0,22854
514,9007;0,229042
515,8649;0,229636
516,8292;0,230339
517,7934;0,231035
518,7576;0,23153
519,7219;0,231677
520,6861;0,231491
521,6503;0,231137
522,6146;0,23083
523,5788;0,230725
524,5430;0,230831
525,5073;0,231005
526,4715;0,231025
527,4357;0,230735
528,4000;0,230147
529,3642;0,229421
530,3284;0,228756
531,2927;0,22829
532,2569;0,228049
533,2211;0,227949
534,1854;0,22785
535,1496;0,227634
536,1138;0,227263
537,0781;0,22679
538,0423;0,226322
539,0065;0,225967
539,9708;0,225789
540,9350;0,225795
541,8992;0,225953
542,8635;0,226236
543,8277;0,226638
544,7919;0,227175
545,7562;0,227849
546,7204;0,22862
547,6846;0,229395
548,6489;0,230067
549,6131;0,230564
550,5773;0,230893
551,5416;0,231132
552,5058;0,231387
553,4700;0,231733
554,4343;0,232171
555,3985;0,232622
556,3627;0,232949
557,3270;0,232997
558,2912;0,23265
559,2554;0,231863
560,2197;0,230682
561,1839;0,229244
562,1481;0,227741
563,1124;0,226361
564,0766;0,225226
565,0408;0,224354
566,0051;0,223669
566,9693;0,223048
567,9335;0,222392
568,8978;0,221673
569,8620;0,220944
570,8262;0,220296
571,7905;0,219804
572,7547;0,219487
573,7189;0,219307
574,6832;0,219185
575,6474;0,21904
576,6116;0,218819
577,5759;0,218519
578,5401;0,218177
579,5043;0,217844
580,4686;0,217553
581,4328;0,217298
582,3970;0,217042
583,3613;0,216744
584,3255;0,216392
585,2897;0,216019
586,2540;0,215692
587,2182;0,215473
588,1824;0,215383
589,1467;0,215391
590,1109;0,215423
591,0751;0,215396
592,0394;0,215252
593,0036;0,214973
593,9678;0,214576
594,9321;0,214091
595,8963;0,213552
596,8605;0,212993
597,8248;0,212451
598,7890;0,211964
599,7532;0,211546
600,7175;0,211176
601,6817;0,210798
602,6459;0,210352
603,6102;0,20981
604,5744;0,209193
605,5386;0,208563
606,5029;0,207977
607,4671;0,207447
608,4313;0,206926
609,3956;0,206331
610,3598;0,205608
611,3240;0,204781
612,2883;0,20396
613,2525;0,203281
614,2167;0,202822
615,1810;0,202517
616,1452;0,202153
617,1094;0,201452
618,0737;0,20022
619,0379;0,198475
620,0021;0,196438
620,9664;0,194416
621,9306;0,19266
622,8948;0,191286
623,8591;0,190268
624,8233;0,189429
625,7875;0,188745
626,7518;0,188117
627,7160;0,187497
628,6802;0,186858
629,6445;0,186188
630,6087;0,18547
631,5729;0,184708
632,5372;0,183926
633,5014;0,183168
634,4656;0,182477
635,4299;0,181885
636,3941;0,181399
637,3583;0,18101
638,3226;0,180697
639,2868;0,180433
640,2510;0,180183
641,2153;0,179916
642,1795;0,179614
643,1437;0,17929
644,1080;0,178976
645,0722;0,178708
646,0364;0,178498
647,0007;0,178327
647,9649;0,178156
648,9291;0,177959
649,8934;0,177745
650,8576;0,177563
651,8218;0,177477
652,7861;0,177534
653,7503;0,177742
654,7145;0,178061
655,6788;0,178413
656,6430;0,178726
657,6072;0,178963
658,5715;0,179133
659,5357;0,179244
660,4999;0,179244
661,4642;0,178993
662,4284;0,178299
663,3926;0,177004
664,3569;0,175117
665,3211;0,173001
666,2853;0,171456
667,2496;0,171293
668,2138;0,172248
669,1780;0,172946
670,1423;0,172729
671,1065;0,171862
672,0707;0,170507
673,0350;0,168669
673,9992;0,166485
674,9634;0,164224
675,9277;0,16213
676,8919;0,160286
677,8561;0,158637
678,8204;0,157096
679,7846;0,155648
680,7488;0,154332
681,7131;0,15319
682,6773;0,152201
683,6415;0,151299
684,6058;0,150414
685,5700;0,149519
686,5342;0,148628
687,4985;0,147773
688,4627;0,146988
689,4269;0,146278
690,3912;0,145644
691,3554;0,145083
692,3196;0,144588
693,2839;0,144135
694,2481;0,143687
695,2123;0,143209
696,1766;0,142676
697,1408;0,142087
698,1050;0,141454
699,0693;0,140802
700,0335;0,140152
700,9977;0,13952
701,9620;0,138911
702,9262;0,138314
703,8904;0,137688
704,8547;0,137012
705,8189;0,136271
706,7831;0,13547
707,7474;0,134625
708,7116;0,133757
709,6758;0,132874
710,6401;0,131969
711,6043;0,131022
712,5685;0,130028
713,5328;0,129016
714,4970;0,128054
715,4612;0,126045
716,4255;0,125623
717,3897;0,125413
718,3539;0,12521
719,3182;0,12473
720,2824;0,123759
721,2466;0,122277
722,2109;0,12048
723,1751;0,118658
724,1393;0,117042
725,1036;0,115721
726,0678;0,114641
727,0320;0,113682
727,9963;0,112742
728,9605;0,111782
729,9247;0,110827
730,8890;0,109927
731,8532;0,10912
732,8174;0,108412
733,7817;0,107785
734,7459;0,107211
735,7101;0,106665
736,6744;0,106136
737,6386;0,105621
738,6028;0,105124
739,5671;0,104649
740,5313;0,104191
741,4955;0,103739
742,4598;0,103273
743,4240;0,102777
744,3882;0,102249
745,3525;0,101694
746,3167;0,101128
747,2809;0,100562
748,2452;0,0999971
749,2094;0,0994302
750,1736;0,0988597
751,1379;0,0982904
752,1021;0,0977313
753,0663;0,0971869
754,0306;0,0966501
754,9948;0,0961048
755,9590;0,0955359
756,9233;0,0949427
757,8875;0,0943436
758,8517;0,0937681
759,8160;0,0932408
760,7802;0,0927674
761,7444;0,0923316
762,7087;0,0919051
763,6729;0,0914632
764,6371;0,0909958
765,6014;0,0905099
766,5656;0,0900223
767,5298;0,0895502
768,4941;0,0891035
769,4583;0,088683
770,4225;0,0882809
771,3868;0,0878836
772,3510;0,087476
773,3152;0,0870477
774,2795;0,0865991
775,2437;0,0861448
776,2079;0,0857092
777,1722;0,0853151
778,1364;0,0849713
779,1006;0,0846655
780,0649;0,084369
781,0291;0,0840502
781,9933;0,0836892
782,9576;0,0832843
783,9218;0,0828499
784,8860;0,0824071
785,8503;0,0819751
786,8145;0,0815679
787,7787;0,0811934
788,7430;0,0808538
789,7072;0,0805458
790,6714;0,0802606
791,6357;0,079988
792,5999;0,0797219
793,5641;0,0794639
794,5284;0,0792201
795,4926;0,078993
796,4568;0,0787737
797,4211;0,078543
798,3853;0,0782822
799,3495;0,0779866
800,3138;0,0776719
801,2780;0,0773673
802,2422;0,0770999
803,2065;0,0768805
804,1707;0,0766997
805,1349;0,076536
806,0992;0,0763679
807,0634;0,0761836
808,0276;0,0759814
808,9919;0,075766
809,9561;0,0755436
810,9203;0,0753209
811,8846;0,0751068
812,8488;0,0749114
813,8130;0,0747429
814,7773;0,0746032
815,7415;0,0744865
816,7057;0,0743831
817,6700;0,0742844
818,6342;0,0741877
819,5984;0,0740934
820,5627;0,074
821,5269;0,0739001
822,4911;0,0737834
823,4554;0,073644
824,4196;0,0734872
825,3839;0,0733292
826,3481;0,073188
827,3123;0,0730709
828,2766;0,0729681
829,2408;0,0728575
830,2050;0,0727167
831,1693;0,0725354
832,1335;0,0723191
833,0977;0,0720826
834,0620;0,0718389
835,0262;0,0715922
835,9904;0,0713384
836,9547;0,0710711
837,9189;0,0707885
838,8831;0,0704945
839,8474;0,0701963
840,8116;0,069899
841,7758;0,0696051
842,7401;0,0693157
843,7043;0,0690342
844,6685;0,0687673
845,6328;0,0685236
846,5970;0,0683096
847,5612;0,0681265
848,5255;0,0679689
849,4897;0,0678274
850,4539;0,0676917
851,4182;0,0675544
852,3824;0,0674126
853,3466;0,067268
854,3109;0,0671251
855,2751;0,0669891
856,2393;0,0668655
857,2036;0,0667603
858,1678;0,0666804
859,1320;0,0666314
860,0963;0,0666143
861,0605;0,0666224
862,0247;0,0666431
862,9890;0,0666643
863,9532;0,0666821
864,9174;0,0667058
865,8817;0,0667536
866,8459;0,066842
867,8101;0,0669758
868,7744;0,0671459
869,7386;0,0673362
870,7028;0,0675353
871,6671;0,0677416
872,6313;0,0679596
873,5955;0,0681882
874,5598;0,0684135
875,5240;0,0686123
876,4882;0,0687665
877,4525;0,0688793
878,4167;0,0689809
879,3809;0,0691187
880,3452;0,069339
881,3094;0,06967
882,2736;0,0701166
883,2379;0,0706674
884,2021;0,0713068
885,1663;0,0720241
886,1306;0,0728161
887,0948;0,0736826
888,0590;0,0746216
889,0233;0,0756235
889,9875;0,0766683
890,9517;0,0777228
891,9160;0,0787418
892,8802;0,0796737
893,8444;0,0804707
894,8087;0,0810989
895,7729;0,0815442
896,7371;0,0818089
897,7014;0,0819033
898,6656;0,0818376
899,6298;0,0816197
900,5941;0,0812591
901,5583;0,0807735
902,5225;0,0801906
903,4868;0,0795457
904,4510;0,078875
905,4152;0,078211
906,3795;0,0775813
907,3437;0,0770096
908,3079;0,0765169
909,2722;0,0761197
910,2364;0,0758263
911,2007;0,0756349
912,1649;0,0755334
913,1292;0,0755044
914,0934;0,0755317
915,0576;0,0756068
916,0219;0,0757311
916,9861;0,0759133
917,9503;0,076162
918,9146;0,0764766
919,8788;0,0768421
920,8430;0,0772311
921,8073;0,0776126
922,7715;0,0779625
923,7357;0,0782707
924,7000;0,0785405
925,6642;0,0787814
926,6284;0,0790012
927,5927;0,0792024
928,5569;0,0793839
929,5211;0,0795453
930,4854;0,0796909
931,4496;0,07983
932,4138;0,0799752
933,3781;0,0801416
934,3423;0,0803458
935,3065;0,0806053
936,2708;0,0809355
937,2350;0,081345
938,1992;0,0818328
939,1635;0,08239
940,1277;0,0830067
941,0919;0,0836791
942,0562;0,0844146
943,0204;0,0852292
943,9846;0,0861404
944,9489;0,0871594
945,9131;0,0882862
946,8773;0,0895098
947,8416;0,0908127
948,8058;0,0921761
949,7700;0,0935873
950,7343;0,0950436
951,6985;0,0965552
952,6627;0,0981418
953,6270;0,0998248
954,5912;0,101618
955,5554;0,103518
956,5197;0,105511
957,4839;0,107574
958,4481;0,109692
959,4124;0,111859
960,3766;0,114074
961,3408;0,116337
962,3051;0,118633
963,2693;0,120938
964,2335;0,12323
965,1978;0,1255
966,1620;0,12776
967,1262;0,130045
968,0905;0,1324
969,0547;0,134871
970,0189;0,137497
970,9832;0,140306
971,9474;0,143318
972,9116;0,146551
973,8759;0,150018
974,8401;0,153734
975,8043;0,15771
976,7686;0,161947
977,7328;0,166427
978,6970;0,171098
979,6613;0,175872
980,6255;0,180622
981,5897;0,185205
982,5540;0,189487
983,5182;0,193374
984,4824;0,196827
985,4467;0,199871
986,4109;0,202566
987,3751;0,204991
988,3394;0,207211
989,3036;0,209268
990,2678;0,21118
991,2321;0,212947
992,1963;0,214568
993,1605;0,216045
994,1248;0,217386
995,0890;0,218609
996,0532;0,219726
997,0175;0,220748
997,9817;0,221681
998,9459;0,22253
999,9102;0,223311
1000,8744;0,224061
1001,8386;0,224838
1002,8029;0,225714
1003,7671;0,226766
1004,7313;0,228056
1005,6956;0,229625
1006,6598;0,231491
1007,6240;0,233658
1008,5883;0,236119
1009,5525;0,238852
1010,5167;0,241814
1011,4810;0,244934
1012,4452;0,248119
1013,4094;0,251261
1014,3737;0,254263
1015,3379;0,257051
1016,3021;0,25958
1017,2664;0,261836
1018,2306;0,263824
1019,1948;0,26557
1020,1591;0,267114
1021,1233;0,268505
1022,0875;0,269797
1023,0518;0,271032
1024,0160;0,272232
1024,9802;0,273397
1025,9445;0,274502
1026,9087;0,275506
1027,8729;0,276359
1028,8372;0,276996
1029,8014;0,277337
1030,7656;0,277287
1031,7299;0,276738
1032,6941;0,275599
1033,6583;0,273824
1034,6226;0,271442
1035,5868;0,268574
1036,5510;0,26542
1037,5153;0,262226
1038,4795;0,259232
1039,4437;0,256635
1040,4080;0,254552
1041,3722;0,253017
1042,3364;0,251988
1043,3007;0,251368
1044,2649;0,251037
1045,2291;0,250868
1046,1934;0,250748
1047,1576;0,250581
1048,1218;0,250289
1049,0861;0,249804
1050,0503;0,24907
1051,0145;0,248043
1051,9788;0,246699
1052,9430;0,245037
1053,9072;0,243079
1054,8715;0,240845
1055,8357;0,238338
1056,7999;0,235527
1057,7642;0,232347
1058,7284;0,228736
1059,6926;0,224669
1060,6569;0,220201
1061,6211;0,215463
1062,5853;0,210648
1063,5496;0,205957
1064,5138;0,201553
1065,4780;0,197533
1066,4423;0,193916
1067,4065;0,190668
1068,3707;0,187725
1069,3350;0,185015
1070,2992;0,182472
1071,2634;0,180035
1072,2277;0,177641
1073,1919;0,175226
1074,1561;0,172731
1075,1204;0,170117
1076,0846;0,167375
1077,0488;0,164539
1078,0131;0,161678
1078,9773;0,158879
1079,9415;0,156229
1080,9058;0,153798
1081,8700;0,151626
1082,8342;0,149728
1083,7985;0,148094
1084,7627;0,146703
1085,7269;0,145523
1086,6912;0,144528
1087,6554;0,143697
1088,6196;0,143019
1089,5839;0,142494
1090,5481;0,142127
1091,5123;0,141917
1092,4766;0,141858
1093,4408;0,141929
1094,4050;0,14211
1095,3693;0,142385
1096,3335;0,14274
1097,2977;0,143166
1098,2620;0,143647
1099,2262;0,144151
1100,1904;0,144634
1101,1547;0,145047
1102,1189;0,145346
1103,0831;0,145507
1104,0474;0,145526
1105,0116;0,145417
1105,9758;0,145208
1106,9401;0,144919
1107,9043;0,144554
1108,8685;0,144081
1109,8328;0,143437
1110,7970;0,142539
1111,7612;0,141318
1112,7255;0,139752
1113,6897;0,137891
1114,6539;0,13585
1115,6182;0,133777
1116,5824;0,131808
1117,5466;0,130028
1118,5109;0,128451
1119,4751;0,127027
1120,4393;0,125666
1121,4036;0,124265
1122,3678;0,12273
1123,3320;0,120994
1124,2963;0,119023
1125,2605;0,116819
1126,2247;0,114414
1127,1890;0,111864
1128,1532;0,109236
1129,1174;0,106593
1130,0817;0,103983
1131,0459;0,101438
1132,0101;0,0989795
1132,9744;0,0966243
1133,9386;0,0943992
1134,9028;0,092344
1135,8671;0,0905105
1136,8313;0,088953
1137,7955;0,087716
1138,7598;0,0868226
1139,7240;0,0862684
1140,6882;0,086023
1141,6525;0,086038
1142,6167;0,0862577
1143,5809;0,0866304
1144,5452;0,0871157
1145,5094;0,0876882
1146,4736;0,088336
1147,4379;0,0890576
1148,4021;0,0898558
1149,3663;0,0907306
1150,3306;0,0916716
1151,2948;0,0926527
1152,2590;0,0936307
1153,2233;0,0945502
1154,1875;0,0953527
1155,1517;0,0959843
1156,1160;0,0963996
1157,0802;0,0965556
1158,0444;0,0964029
1159,0087;0,0958776
1159,9729;0,0949033
1160,9371;0,0934069
1161,9014;0,0913424
1162,8656;0,0887139
1163,8298;0,0855868
1164,7941;0,0820822
1165,7583;0,078357
1166,7225;0,0745775
1167,6868;0,0708949
1168,6510;0,0674275
1169,6152;0,0642522
1170,5795;0,0614041
1171,5437;0,0588843
1172,5079;0,0566721
1173,4722;0,0547384
1174,4364;0,0530555
1175,4006;0,0516018
1176,3649;0,0503592
1177,3291;0,0493088
1178,2933;0,0484271
1179,2576;0,047686
1180,2218;0,0470578
1181,1860;0,0465213
1182,1503;0,0460663
1183,1145;0,0456937
1184,0787;0,0454114
1185,0430;0,045228
1186,0072;0,0451481
1186,9714;0,0451715
1187,9357;0,0452947
1188,8999;0,0455146
1189,8641;0,0458301
1190,8284;0,0462413
1191,7926;0,0467473
1192,7568;0,0473448
1193,7211;0,0480273
1194,6853;0,0487862
1195,6495;0,049611
1196,6138;0,0504879
1197,5780;0,0513979
1198,5422;0,0523177
1199,5065;0,052991
1200,4707;0,053889
1201,4349;0,0547429
1202,3992;0,0555491
1203,3634;0,0563082
1204,3276;0,0570199
1205,2919;0,0576815
1206,2561;0,0582914
1207,2203;0,0588566
1208,1846;0,0593977
1209,1488;0,059949
1210,1130;0,0605504
1211,0773;0,0612375
1212,0415;0,0620319
1213,0057;0,0629376
1213,9700;0,063944
1214,9342;0,0650305
1215,8984;0,0661734
1216,8627;0,0673463
1217,8269;0,068523
1218,7911;0,0696824
1219,7554;0,0708101
1220,7196;0,0718994
1221,6838;0,0729498
1222,6481;0,073962
1223,6123;0,0749336
1224,5765;0,0758583
1225,5408;0,0767286
1226,5050;0,0775405
1227,4692;0,0782958
1228,4335;0,0789996
1229,3977;0,0796545
1230,3619;0,0802559
1231,3262;0,0807914
1232,2904;0,0812466
1233,2546;0,0816125
1234,2189;0,081892
1235,1831;0,0820996
1236,1473;0,0822565
1237,1116;0,0823814
1238,0758;0,0824832
1239,0400;0,0825583
1240,0043;0,0825937
1240,9685;0,082574
1241,9327;0,0824885
1242,8970;0,082335
1243,8612;0,082118
1244,8254;0,081844
1245,7897;0,0815177
1246,7539;0,0811423
1247,7181;0,0807226
1248,6824;0,0802692
1249,6466;0,0797978
1250,6108;0,0793249
1251,5751;0,0788632
1252,5393;0,0784188
1253,5035;0,0779932
1254,4678;0,0775866
1255,4320;0,077198
1256,3962;0,0768221
1257,3605;0,0764453
1258,3247;0,0760464
1259,2889;0,0756025
1260,2532;0,0750986
1261,2174;0,074533
1262,1816;0,0739161
1263,1459;0,0732629
1264,1101;0,0725859
1265,0743;0,0718916
1266,0386;0,0711824
1267,0028;0,0704584
1267,9670;0,0697178
1268,9313;0,0689574
1269,8955;0,0681725
1270,8597;0,0673599
1271,8240;0,0665211
1272,7882;0,0656655
1273,7524;0,0648096
1274,7167;0,0639735
1275,6809;0,0631763
1276,6451;0,0624296
1277,6094;0,0617335
1278,5736;0,0610747
1279,5378;0,0604305
1280,5021;0,0597781
1281,4663;0,0591064
1282,4305;0,0584226
1283,3948;0,0577494
1284,3590;0,0571158
1285,3232;0,0565456
1286,2875;0,0560493
1287,2517;0,0556246
1288,2159;0,0552617
1289,1802;0,054951
1290,1444;0,0546882
1291,1086;0,0544756
1292,0729;0,0543208
1293,0371;0,0542343
1294,0013;0,0542267
1294,9656;0,0543065
1295,9298;0,0544774
1296,8940;0,0547382
1297,8583;0,0550841
1298,8225;0,0555095
1299,7867;0,0560097
1300,7510;0,0565793
1301,7152;0,0572149
1302,6794;0,0579089
1303,6437;0,0586519
1304,6079;0,059437
1305,5721;0,0602602
1306,5364;0,0611209
1307,5006;0,0620197
1308,4648;0,0629548
1309,4291;0,0639167
1310,3933;0,0648851
1311,3575;0,065828
1312,3218;0,0667063
1313,2860;0,0674819
1314,2502;0,0681248
1315,2145;0,0686132
1316,1787;0,0689293
1317,1429;0,0690569
1318,1072;0,0689896
1319,0714;0,0687439
1320,0356;0,068366
1320,9999;0,0679216
1321,9641;0,0674731
1322,9283;0,0670635
1323,8926;0,0667131
1324,8568;0,0664281
1325,8210;0,066208
1326,7853;0,0660493
1327,7495;0,0659436
1328,7137;0,0658746
1329,6780;0,0658179
1330,6422;0,0657468
1331,6064;0,0656408
1332,5707;0,0654914
1333,5349;0,0653049
1334,4991;0,0650923
1335,4634;0,064854
1336,4276;0,0645643
1337,3918;0,064165
1338,3561;0,0635856
1339,3203;0,0627992
1340,2845;0,0618681
1341,2488;0,06092
1342,2130;0,0600705
1343,1772;0,0593743
1344,1415;0,0588328
1345,1057;0,0584252
1346,0699;0,0581322
1347,0342;0,0579451
1347,9984;0,0578683
1348,9626;0,0579131
1349,9269;0,0580855
1350,8911;0,0583769
1351,8553;0,0587617
1352,8196;0,059206
1353,7838;0,0596799
1354,7480;0,060168
1355,7123;0,060672
1356,6765;0,0612043
1357,6407;0,0617797
1358,6050;0,0624097
1359,5692;0,0630974
1360,5334;0,0638216
1361,4977;0,0645224
1362,4619;0,0651276
1363,4261;0,0656123
1364,3904;0,0660171
1365,3546;0,0663983
1366,3188;0,0667813
1367,2831;0,0671552
1368,2473;0,0674895
1369,2115;0,067751
1370,1758;0,0679154
1371,1400;0,0679673
1372,1042;0,0678901
1373,0685;0,067659
1374,0327;0,0672534
1374,9969;0,0666847
1375,9612;0,065997
1376,9254;0,0652249
1377,8896;0,0643609
1378,8539;0,0633779
1379,8181;0,0622786
1380,7823;0,0611201
1381,7466;0,0599879
1382,7108;0,0589393
1383,6750;0,0579702
1384,6393;0,0570311
1385,6035;0,0560716
1386,5677;0,0550924
1387,5320;0,0541743
1388,4962;0,0534362
1389,4604;0,0529363
1390,4247;0,0526346
1391,3889;0,0524532
1392,3531;0,0523468
1393,3174;0,0523141
1394,2816;0,0523578
1395,2458;0,0524459
1396,2101;0,0525209
1397,1743;0,0525461
1398,1385;0,0525385
1399,1028;0,0525583
1400,0670;0,0526662
1401,0313;0,0528866
1401,9955;0,0532006
1402,9597;0,0535687
1403,9240;0,0539562
1404,8882;0,0543502
1405,8524;0,0547633
1406,8167;0,0552207
1407,7809;0,0557382
1408,7451;0,0563148
1409,7094;0,0569477
1410,6736;0,0576435
1411,6378;0,0584082
1412,6021;0,0592248
1413,5663;0,0600447
1414,5305;0,060808
1415,4948;0,061476
1416,4590;0,0620433
1417,4232;0,0625127
1418,3875;0,0628817
1419,3517;0,0631877
1420,3159;0,063505
1421,2802;0,0638378
1422,2444;0,0640835
1423,2086;0,064121
1424,1729;0,0639016
1425,1371;0,0634647
1426,1013;0,0628875
1427,0656;0,0622235
1428,0298;0,0614825
1428,9940;0,0606611
1429,9583;0,0597852
1430,9225;0,0589073
1431,8867;0,0580476
1432,8510;0,0571545
1433,8152;0,0561388
1434,7794;0,054951
1435,7437;0,0536565
1436,7079;0,0524754
1437,6721;0,0516871
1438,6364;0,0514027
1439,6006;0,0514834
1440,5648;0,0517011
1441,5291;0,0519086
1442,4933;0,0520819
1443,4575;0,0522706
1444,4218;0,0525271
1445,3860;0,0528632
1446,3502;0,0532545
1447,3145;0,053675
1448,2787;0,0541269
1449,2429;0,0546326
1450,2072;0,0551859
1451,1714;0,0557153
1452,1356;0,0561088
1453,0999;0,056286
1454,0641;0,0562584
1455,0283;0,0561078
1455,9926;0,0558387
1456,9568;0,0553218
1457,9210;0,054685
1458,8853;0,0543618
1459,8495;0,0544444
1460,8137;0,0546322
1461,7780;0,0546124
1462,7422;0,0542271
1463,7064;0,0534605
1464,6707;0,052417
1465,6349;0,0513056
1466,5991;0,0503126
1467,5634;0,0494404
1468,5276;0,0485323
1469,4918;0,0474189
1470,4561;0,045999
1471,4203;0,0442254
1472,3845;0,0421052
1473,3488;0,0398191
1474,3130;0,0377359
1475,2772;0,0361182
1476,2415;0,0349466
1477,2057;0,0340608
1478,1699;0,0333209
1479,1342;0,0326514
1480,0984;0,0320268
1481,0626;0,0314572
1482,0269;0,0309792
1482,9911;0,0306372
1483,9553;0,0304591
1484,9196;0,0304476
1485,8838;0,0305935
1486,8480;0,0308747
1487,8123;0,031213
1488,7765;0,0314656
1489,7407;0,0315728
1490,7050;0,0316696
1491,6692;0,0319089
1492,6334;0,0323013
1493,5977;0,0327892
1494,5619;0,0333658
1495,5261;0,0340926
1496,4904;0,0350222
1497,4546;0,0361252
1498,4188;0,0373265
1499,3831;0,0385573
1500,3473;0,039709
1501,3115;0,0406196
1502,2758;0,0411632
1503,2400;0,0413574
1504,2042;0,0414319
1505,1685;0,0417605
1506,1327;0,0424565
1507,0969;0,0429663
1508,0612;0,0428696
1509,0254;0,0425562
1509,9896;0,0423501
1510,9539;0,0421967
1511,9181;0,0419813
1512,8823;0,041679
1513,8466;0,0413232
1514,8108;0,040932
1515,7750;0,0404724
1516,7393;0,0398901
1517,7035;0,0391677
1518,6677;0,0383484
1519,6320;0,037519
1520,5962;0,0367785
1521,5604;0,0362106
1522,5247;0,0358542
1523,4889;0,0356791
1524,4531;0,0356076
1525,4174;0,0355785
1526,3816;0,0355851
1527,3458;0,0356524
1528,3101;0,0357836
1529,2743;0,0359504
1530,2385;0,0361384
1531,2028;0,0363911
1532,1670;0,0367846
1533,1312;0,0373414
1534,0955;0,0379777
1535,0597;0,0385461
1536,0239;0,0389249
1536,9882;0,0391113
1537,9524;0,039287
1538,9166;0,0397411
1539,8809;0,0404807
1540,8451;0,0409284
1541,8093;0,0407126
1542,7736;0,040225
1543,7378;0,0398222
1544,7020;0,0395337
1545,6663;0,0393172
1546,6305;0,0391648
1547,5947;0,0390693
1548,5590;0,0389945
1549,5232;0,038895
1550,4874;0,0387555
1551,4517;0,0386044
1552,4159;0,038476
1553,3801;0,0383529
1554,3444;0,0381528
1555,3086;0,0377819
1556,2728;0,0371788
1557,2371;0,0362497
1558,2013;0,0348741
1559,1655;0,0334994
1560,1298;0,0331085
1561,0940;0,0338453
1562,0582;0,0350638
1563,0225;0,0361831
1563,9867;0,0369441
1564,9509;0,037326
1565,9152;0,037437
1566,8794;0,0374369
1567,8436;0,037479
1568,8079;0,037666
1569,7721;0,0380309
1570,7363;0,0385315
1571,7006;0,0390625
1572,6648;0,0395194
1573,6290;0,0398771
1574,5933;0,0402044
1575,5575;0,0405822
1576,5217;0,0410316
1577,4860;0,0415602
1578,4502;0,0421775
1579,4144;0,0428297
1580,3787;0,0434327
1581,3429;0,0439563
1582,3071;0,0444412
1583,2714;0,0449578
1584,2356;0,0455568
1585,1998;0,0462517
1586,1641;0,0470273
1587,1283;0,0478563
1588,0925;0,0487061
1589,0568;0,0495369
1590,0210;0,0503039
1590,9852;0,0509631
1591,9495;0,051476
1592,9137;0,0518109
1593,8779;0,0519484
1594,8422;0,0518951
1595,8064;0,0516932
1596,7706;0,0514112
1597,7349;0,0511184
1598,6991;0,0508593
1599,6633;0,050646
1600,6276;0,0504663
1601,5918;0,0503046
1602,5560;0,0501606
1603,5203;0,050052
1604,4845;0,0499978
1605,4487;0,0499983
1606,4130;0,0500347
1607,3772;0,0500887
1608,3414;0,0501644
1609,3057;0,0502911
1610,2699;0,0504904
1611,2341;0,0507357
1612,1984;0,0509579
1613,1626;0,051105
1614,1268;0,0512009
1615,0911;0,051343
1616,0553;0,051635
1617,0195;0,0521304
1617,9838;0,052817
1618,9480;0,0536026
1619,9122;0,0543564
1620,8765;0,0549993
1621,8407;0,0555378
1622,8049;0,0560176
1623,7692;0,0564687
1624,7334;0,0569002
1625,6976;0,057324
1626,6619;0,0577618
1627,6261;0,0582375
1628,5903;0,0587528
1629,5546;0,0592612
1630,5188;0,0596728
1631,4830;0,0599084
1632,4473;0,0599734
1633,4115;0,059993
1634,3757;0,0601318
1635,3400;0,0604146
1636,3042;0,0607299
1637,2684;0,0610702
1638,2327;0,0614935
1639,1969;0,0619495
1640,1611;0,062324
1641,1254;0,0625347
1642,0896;0,0625647
1643,0538;0,0624709
1644,0181;0,0623784
1644,9823;0,062413
1645,9465;0,0625712
1646,9108;0,0627051
1647,8750;0,062682
1648,8392;0,0624146
1649,8035;0,061805
1650,7677;0,0608045
1651,7319;0,0594579
1652,6962;0,0578754
1653,6604;0,0564183
1654,6246;0,0557105
1655,5889;0,05582
1656,5531;0,0561985
1657,5173;0,0563442
1658,4816;0,0560508
1659,4458;0,0553348
1660,4100;0,0543163
1661,3743;0,0531439
1662,3385;0,0519843
1663,3027;0,0510009
1664,2670;0,0502587
1665,2312;0,0496769
1666,1954;0,0491039
1667,1597;0,0484065
1668,1239;0,0475052
1669,0881;0,0463975
1670,0524;0,0451942
1671,0166;0,0440561
1671,9808;0,0430259
1672,9451;0,0420055
1673,9093;0,0409121
1674,8735;0,0398189
1675,8378;0,0389445
1676,8020;0,0384732
1677,7662;0,038367
1678,7305;0,0383797
1679,6947;0,0382237
1680,6589;0,0376987
1681,6232;0,0367102
1682,5874;0,0352401
1683,5516;0,0334377
1684,5159;0,0317974
1685,4801;0,0308401
1686,4443;0,0305566
1687,4086;0,0305468
1688,3728;0,0304491
1689,3370;0,0301092
1690,3013;0,0295437
1691,2655;0,0288526
1692,2297;0,0281508
1693,1940;0,027538
1694,1582;0,027082
1695,1224;0,0267845
1696,0867;0,0265407
1697,0509;0,0261596
1698,0151;0,0255005
1698,9794;0,0246516
1699,9436;0,0239469
1700,9078;0,0237143
1701,8721;0,0240037
1702,8363;0,0245912
1703,8005;0,0251803
1704,7648;0,0255759
1705,7290;0,0257516
1706,6932;0,0258286
1707,6575;0,0259801
1708,6217;0,026312
1709,5859;0,0268158
1710,5502;0,0274152
1711,5144;0,0280322
1712,4786;0,0286199
1713,4429;0,0291567
1714,4071;0,0296139
1715,3713;0,0299052
1716,3356;0,0299052
1717,2998;0,0296569
1718,2640;0,0294946
1719,2283;0,0297087
1720,1925;0,0302633
1721,1567;0,0309357
1722,1210;0,0315315
1723,0852;0,031968
1724,0494;0,0322682
1725,0137;0,032522
1725,9779;0,0328303
1726,9421;0,0332459
1727,9064;0,0337401
1728,8706;0,0342118
1729,8348;0,0345291
1730,7991;0,0345726
1731,7633;0,0342651
1732,7275;0,0336178
1733,6918;0,0328223
1734,6560;0,0322133
1735,6202;0,03197
1736,5845;0,0319543
1737,5487;0,0318968
1738,5129;0,0316188
1739,4772;0,0311082
1740,4414;0,0304818
1741,4056;0,0298873
1742,3699;0,0293989
1743,3341;0,0289828
1744,2983;0,0285488
1745,2626;0,0280165
1746,2268;0,0273315
1747,1910;0,0264334
1748,1553;0,0252383
1749,1195;0,0237122
1750,0837;0,0220036
1751,0480;0,020424
1752,0122;0,0192129
1752,9764;0,018378
1753,9407;0,0177665
1754,9049;0,0172127
1755,8691;0,0166248
1756,8334;0,0159921
1757,7976;0,0153421
1758,7618;0,0146894
1759,7261;0,0140188
1760,6903;0,0133176
1761,6545;0,0126196
1762,6188;0,0120052
1763,5830;0,011544
1764,5472;0,0112382
1765,5115;0,0110286
1766,4757;0,0108429
1767,4399;0,0106358
1768,4042;0,0103934
1769,3684;0,0101105
1770,3326;0,00976901
1771,2969;0,00935096
1772,2611;0,00889844
1773,2253;0,00853588
1774,1896;0,00837289
1775,1538;0,00839884
1776,1180;0,00850514
1777,0823;0,00857896
1778,0465;0,0085631
1779,0107;0,00845808
1779,9750;0,00829264
1780,9392;0,00809404
1781,9034;0,00787754
1782,8677;0,00765819
1783,8319;0,00746931
1784,7961;0,00736127
1785,7604;0,00737064
1786,7246;0,00748548
1787,6888;0,00764498
1788,6531;0,00777636
1789,6173;0,00783294
1790,5815;0,00780251
1791,5458;0,00769912
1792,5100;0,00757443
1793,4742;0,0075138
1794,4385;0,00756236
1795,4027;0,00767388
1796,3669;0,00776018
1797,3312;0,00776407
1798,2954;0,00768308
1799,2596;0,00754798
1800,2239;0,00739266
1801,1881;0,00724236
1802,1523;0,00711706
1803,1166;0,00703263
1804,0808;0,00699833
1805,0450;0,00701614
1806,0093;0,00708034
1806,9735;0,00717436
1807,9377;0,00726727
1808,9020;0,00731683
1809,8662;0,00728594
1810,8304;0,00716726
1811,7947;0,00699229
1812,7589;0,00680932
1813,7231;0,00665257
1814,6874;0,00653309
1815,6516;0,00645065
1816,6158;0,00640675
1817,5801;0,0064077
1818,5443;0,00645873
1819,5085;0,00655442
1820,4728;0,0066741
1821,4370;0,00678831
1822,4012;0,00687211
1823,3655;0,00691639
1824,3297;0,00693235
1825,2939;0,006944
1826,2582;0,00696689
1827,2224;0,00698722
1828,1866;0,00696216
1829,1509;0,00684994
1830,1151;0,00665733
1831,0793;0,00645559
1832,0436;0,00632651
1833,0078;0,00629585
1833,9720;0,00633181
1834,9363;0,00639044
1835,9005;0,00644888
1836,8647;0,0065078
1837,8290;0,00657373
1838,7932;0,00663941
1839,7574;0,00668088
1840,7217;0,00667836
1841,6859;0,00663961
1842,6501;0,00659614
1843,6144;0,00657392
1844,5786;0,00657626
1845,5428;0,0065928
1846,5071;0,00660135
1847,4713;0,00656622
1848,4355;0,00646099
1849,3998;0,00629538
1850,3640;0,00611488
1851,3282;0,00597399
1852,2925;0,00590518
1853,2567;0,00590812
1854,2209;0,00596192
1855,1852;0,00604437
1856,1494;0,00614023
1857,1136;0,0062378
1858,0779;0,00632172
1859,0421;0,00637613
1860,0063;0,00639737
1860,9706;0,00640372
1861,9348;0,00642861
1862,8990;0,00650012
1863,8633;0,0066236
1864,8275;0,00677988
1865,7917;0,00693191
1866,7560;0,00702795
1867,7202;0,00701277
1868,6844;0,00686861
1869,6487;0,00665042
1870,6129;0,00644571
1871,5771;0,00629882
1872,5414;0,00619621
1873,5056;0,00610773
1874,4698;0,00602248
1875,4341;0,00595221
1876,3983;0,00591523
1877,3625;0,00591845
1878,3268;0,0059534
1879,2910;0,00600322
1880,2552;0,0060546
1881,2195;0,00610385
1882,1837;0,00615442
1883,1479;0,0062094
1884,1122;0,0062657
1885,0764;0,00631415
1886,0406;0,00634476
1887,0049;0,0063522
1887,9691;0,00633807
1888,9333;0,0063112
1889,8976;0,00628687
1890,8618;0,00628069
1891,8260;0,00629732
1892,7903;0,00632514
1893,7545;0,00634267
1894,7188;0,00633144
1895,6830;0,00628719
1896,6472;0,00622399
1897,6115;0,00616721
1898,5757;0,00613864
1899,5399;0,00614524
1900,5042;0,00617903
1901,4684;0,00622581
1902,4326;0,00627568
1903,3969;0,00632868
1904,3611;0,00639149
1905,3253;0,00646741
1906,2896;0,0065474
1907,2538;0,00660934
1908,2180;0,00662784
1909,1823;0,00659101
1910,1465;0,00651254
1911,1107;0,00642549
1912,0750;0,00636023
1913,0392;0,00632688
1914,0034;0,00631679
1914,9677;0,00631596
1915,9319;0,00631598
1916,8961;0,00631763
1917,8604;0,00633024
1918,8246;0,00636567
1919,7888;0,00642595
1920,7531;0,00649402
1921,7173;0,00653785
1922,6815;0,00652589
1923,6458;0,00644551
1924,6100;0,00631416
1925,5742;0,00617329
1926,5385;0,00606713
1927,5027;0,00602186
1928,4669;0,00603635
1929,4312;0,00608429
1930,3954;0,00612825
1931,3596;0,00614223
1932,3239;0,00612774
1933,2881;0,00611161
1934,2523;0,00612513
1935,2166;0,00617957
1936,1808;0,00625754
1937,1450;0,00632791
1938,1093;0,00637331
1939,0735;0,00640794
1940,0377;0,0064699
1941,0020;0,00658881
1941,9662;0,00675058
1942,9304;0,00689367
1943,8947;0,00694975
1944,8589;0,00689468
1945,8231;0,00676493
1946,7874;0,0066334
1947,7516;0,00656776
1948,7158;0,00659408
1949,6801;0,00668203
1950,6443;0,00676088
1951,6085;0,00675986
1952,5728;0,00664949
1953,5370;0,00645947
1954,5012;0,00626365
1955,4655;0,00614114
1956,4297;0,00613532
1957,3939;0,00623331
1958,3582;0,00637629
1959,3224;0,00649416
1960,2866;0,00654422
1961,2509;0,00653012
1962,2151;0,00648892
1963,1793;0,00645773
1964,1436;0,00644648
1965,1078;0,00643463
1966,0720;0,00639044
1967,0363;0,00629694
1968,0005;0,00616444
1968,9647;0,00602037
1969,9290;0,00588962
1970,8932;0,00578772
1971,8574;0,00573145
1972,8217;0,0057507
1973,7859;0,00588224
1974,7501;0,00614012
1975,7144;0,0064853
1976,6786;0,00682196
1977,6428;0,00703945
1978,6071;0,00707727
1979,5713;0,00696306
1980,5355;0,00679485
1981,4998;0,00668561
1982,4640;0,00670924
1983,4282;0,00687202
1984,3925;0,00711563
1985,3567;0,00734752
1986,3209;0,00748506
1987,2852;0,00749129
1988,2494;0,00738398
1989,2136;0,00721765
1990,1779;0,00705352
1991,1421;0,00693618
1992,1063;0,0068874
1993,0706;0,00691281
1994,0348;0,00700718
1994,9990;0,00714958
1995,9633;0,00729508
1996,9275;0,00737719
1997,8917;0,00733037
1998,8560;0,00712775
1999,8202;0,00681215
2000,7844;0,00649367
2001,7487;0,00630712
2002,7129;0,0063522
2003,6771;0,00664824
2004,6414;0,00712206
2005,6056;0,0076301
2006,5698;0,00800769
2007,5341;0,00812709
2008,4983;0,00794263
2009,4625;0,00750685
2010,4268;0,00695498
2011,3910;0,00646575
2012,3552;0,00620775
2013,3195;0,00628275
2014,2837;0,00668221
2015,2479;0,00727936
2016,2122;0,00787477
2017,1764;0,0082865
2018,1406;0,00843676
2019,1049;0,00837778
2020,0691;0,00824303
2021,0333;0,00816402
2021,9976;0,00820627
2022,9618;0,00835216
2023,9260;0,00852719
2024,8903;0,00864636
2025,8545;0,00865299
2026,8187;0,00853302
2027,7830;0,00830757
2028,7472;0,00801912
2029,7114;0,00772284
2030,6757;0,0074817
2031,6399;0,00735618
2032,6041;0,0073836
2033,5684;0,00755788
2034,5326;0,00782635
2035,4968;0,00811302
2036,4611;0,00835362
2037,4253;0,00852074
2038,3895;0,00862084
2039,3538;0,00867108
2040,3180;0,00867521
2041,2822;0,00861702
2042,2465;0,00847681
2043,2107;0,00825915
2044,1749;0,00801159
2045,1392;0,00781821
2046,1034;0,0077668
2047,0676;0,00790254
2048,0320;0,00819428
2048,9961;0,00854069
2049,9604;0,00881714
2050,9246;0,00893145
2051,8889;0,0088549
2052,8530;0,00862089
2053,8174;0,00830299
2054,7815;0,00798485
2055,7458;0,00773497
2056,7100;0,00759283
2057,6743;0,00757061
2058,6384;0,00766333
2059,6028;0,007856
2060,5669;0,00812202
2061,5313;0,00841813
2062,4954;0,00868633
2063,4597;0,00886821
2064,4238;0,00892678
2065,3882;0,00886241
2066,3523;0,00871197
2067,3167;0,00853183
2068,2808;0,0083764
2069,2451;0,00828365
2070,2092;0,00827022
2071,1736;0,00833203
2072,1377;0,00844561
2073,1021;0,00857305
2074,0662;0,0086717
2075,0305;0,00870879
2075,9946;0,00867384
2076,9590;0,00858177
2077,9231;0,00846401
2078,8875;0,00835358
2079,8516;0,00827395
2080,8159;0,00823728
2081,7800;0,00824883
2082,7444;0,00830962
2083,7085;0,00841273
2084,6729;0,00853658
2085,6370;0,0086451
2086,6013;0,00869928
2087,5654;0,00867707
2088,5298;0,0085886
2089,4939;0,00847484
2090,4583;0,00838779
2091,4224;0,00836349
2092,3867;0,00840407
2093,3508;0,00847962
2094,3152;0,00854777
2095,2793;0,00857872
2096,2437;0,00857
2097,2078;0,00854203
2098,1721;0,00851978
2099,1362;0,00851471
2100,1006;0,00852113
2101,0647;0,0085187
2102,0291;0,00849721
2102,9932;0,00845815
2103,9575;0,00841483
2104,9216;0,00838279
2105,8860;0,00837087
2106,8501;0,00837928
2107,8145;0,0084046
2108,7786;0,00844531
2109,7429;0,00850183
2110,7070;0,00857091
2111,6714;0,00864047
2112,6355;0,00869153
2113,5999;0,00870795
2114,5640;0,00868706
2115,5283;0,00864245
2116,4924;0,00859595
2117,4568;0,00856452
2118,4209;0,00855199
2119,3853;0,00855189
2120,3494;0,00855881
2121,3137;0,00857818
2122,2778;0,00862545
2123,2422;0,00871358
2124,2063;0,00883776
2125,1707;0,00896931
2126,1348;0,0090653
2127,0991;0,00908926
2128,0632;0,0090311
2129,0276;0,00891463
2129,9917;0,008789
2130,9561;0,0087092
2131,9202;0,00871514
2132,8845;0,00881719
2133,8486;0,0089924
2134,8130;0,0091921
2135,7771;0,00935887
2136,7415;0,00944769
2137,7056;0,00944402
2138,6699;0,00937185
2139,6340;0,00928736
2140,5984;0,00925807
2141,5625;0,00933232
2142,5269;0,0095118
2143,4910;0,00974296
2144,4553;0,00993807
2145,4194;0,0100202
2146,3838;0,00996901
2147,3479;0,00983682
2148,3123;0,00972177
2149,2764;0,00971122
2150,2407;0,00983188
2151,2048;0,0100391
2152,1692;0,0102513
2153,1333;0,0104054
2154,0977;0,0104973
2155,0618;0,0105823
2156,0261;0,0107368
2156,9902;0,0109993
2157,9546;0,0113259
2158,9187;0,0115987
2159,8831;0,0116962
2160,8472;0,0115711
2161,8115;0,011272
2162,7756;0,0109074
2163,7400;0,0105924
2164,7041;0,0104048
2165,6685;0,010359
2166,6326;0,0104056
2167,5969;0,0104608
2168,5610;0,010453
2169,5254;0,0103607
2170,4895;0,010219
2171,4539;0,0100951
2172,4180;0,0100481
2173,3823;0,0100974
2174,3464;0,0102175
2175,3108;0,0103584
2176,2749;0,010475
2177,2393;0,0105435
2178,2034;0,0105567
2179,1677;0,0105097
2180,1318;0,0103914
2181,0962;0,0101917
2182,0603;0,00991809
2183,0247;0,00960691
2183,9888;0,00931788
2184,9531;0,00911337
2185,9172;0,00903409
2186,8816;0,0090841
2187,8457;0,00923103
2188,8101;0,00942022
2189,7742;0,00959644
2190,7385;0,00972357
2191,7026;0,00979327
2192,6670;0,0098187
2193,6311;0,00981805
2194,5955;0,00979862
2195,5596;0,00975231
2196,5239;0,00966524
2197,4880;0,0095344
2198,4524;0,00937823
2199,4165;0,00923168
2200,3809;0,00912695
2201,3450;0,00907222
2202,3093;0,00904347
2203,2734;0,00899649
2204,2378;0,00889336
2205,2019;0,0087278
2206,1663;0,00853385
2207,1304;0,00837192
2208,0947;0,00829923
2209,0588;0,00834097
2210,0232;0,00847786
2210,9873;0,00865605
2211,9517;0,00881217
2212,9158;0,0088988
2213,8801;0,00889736
2214,8442;0,00881562
2215,8086;0,00867706
2216,7727;0,00851201
2217,7371;0,00835455
2218,7012;0,00824046
2219,6655;0,00819905
2220,6296;0,00823857
2221,5940;0,00833514
2222,5581;0,00843805
2223,5225;0,00849489
2224,4866;0,00848405
2225,4509;0,00843249
2226,4150;0,00840279
2227,3794;0,00845315
2228,3435;0,00859913
2229,3079;0,0087962
2230,2720;0,00896063
2231,2363;0,00901507
2232,2004;0,00893046
2233,1648;0,00873966
2234,1289;0,00851729
2235,0933;0,0083409
2236,0574;0,00825686
2237,0217;0,00826728
2237,9858;0,00833941
2238,9502;0,00842708
2239,9143;0,0084911
2240,8787;0,00851033
2241,8428;0,00848302
2242,8071;0,0084223
2243,7712;0,00835018
2244,7356;0,00829202
2245,6997;0,00827158
2246,6641;0,0083059
2247,6282;0,00840033
2248,5925;0,00854561
2249,5566;0,00871868
2250,5210;0,00888828
2251,4851;0,00902388
2252,4495;0,0091049
2253,4136;0,0091265
2254,3779;0,00909958
2255,3420;0,00904497
2256,3064;0,00898486
2257,2705;0,0089357
2258,2349;0,00890539
2259,1990;0,00889468
2260,1633;0,00890034
2261,1274;0,00891719
2262,0918;0,00893827
2263,0559;0,00895451
2264,0203;0,00895653
2264,9844;0,00893949
2265,9487;0,00890844
2266,9128;0,00887949
2267,8772;0,00887327
2268,8413;0,00890276
2269,8057;0,00896263
2270,7698;0,00902788
2271,7341;0,00906427
2272,6982;0,0090453
2273,6626;0,00896533
2274,6267;0,00884141
2275,5911;0,00870367
2276,5552;0,00858172
2277,5195;0,00849589
2278,4836;0,00845629
2279,4480;0,00846639
2280,4121;0,00852559
2281,3765;0,00862844
2282,3406;0,00876304
2283,3049;0,00891293
2284,2690;0,00906309
2285,2334;0,00920706
2286,1975;0,00935028
2287,1619;0,0095075
2288,1260;0,00969582
2289,0903;0,00992697
2290,0544;0,0102022
2291,0188;0,0105109
2291,9829;0,0108327
2292,9473;0,0111419
2293,9114;0,0114144
2294,8757;0,0116343
2295,8398;0,0117983
2296,8042;0,0119142
2297,7683;0,011994
2298,7327;0,0120454
2299,6968;0,0120684
2300,6611;0,0120607
2301,6252;0,0120296
2302,5896;0,0120012
2303,5537;0,0120196
2304,5181;0,0121287
2305,4822;0,0123453
2306,4465;0,0126353
2307,4106;0,0129115
2308,3750;0,013059
2309,3391;0,0129827
2310,3035;0,0126537
2311,2676;0,0121276
2312,2319;0,0115235
2313,1960;0,0109694
2314,1604;0,010546
2315,1245;0,0102621
2316,0889;0,0100703
2317,0530;0,00990948
2318,0173;0,00974423
2318,9814;0,00958353
2319,9458;0,00947339
2320,9099;0,00947339
2321,8743;0,0096283
2322,8384;0,00994162
2323,8027;0,0103572
2324,7668;0,0107635
2325,7312;0,0110299
2326,6953;0,0110596
2327,6597;0,0108333
2328,6238;0,0104195
2329,5881;0,00995196
2330,5522;0,00958016
2331,5166;0,00940867
2332,4807;0,00945313
2333,4451;0,00964205
2334,4092;0,00986945
2335,3735;0,0100641
2336,3376;0,0102301
2337,3020;0,0104361
2338,2661;0,0107622
2339,2305;0,011231
2340,1946;0,0117546
2341,1589;0,0121242
2342,1230;0,012085
2343,0874;0,0115569
2344,0515;0,0108986
2345,0159;0,0107812
2345,9800;0,0115793
2346,9443;0,013001
2347,9084;0,0143577
2348,8728;0,01505
2349,8369;0,0148616
2350,8013;0,0140052
2351,7654;0,0129731
2352,7297;0,0122454
2353,6938;0,0120097
2354,6582;0,0121384
2355,6223;0,012429
2356,5867;0,0127747
2357,5508;0,0131102
2358,5151;0,0133259
2359,4792;0,0133076
2360,4436;0,0130249
2361,4077;0,0125287
2362,3721;0,011869
2363,3362;0,0110573
2364,3005;0,0101086
2365,2646;0,00908629
2366,2290;0,00808434
2367,1931;0,00717482
2368,1575;0,0063844
2369,1216;0,00571575
2370,0859;0,00517735
2371,0500;0,00479038
2372,0144;0,00457723
2372,9785;0,00455275
2373,9429;0,0047264
2374,9070;0,00510529
2375,8713;0,00568703
2376,8354;0,00644396
2377,7998;0,00731134
2378,7639;0,00819126
2379,7283;0,00897357
2380,6924;0,00956508
2381,6567;0,00991361
2382,6208;0,0100175
2383,5852;0,00991894
2384,5493;0,00968593
2385,5137;0,00939146
2386,4778;0,0090968
2387,4421;0,0088433
2388,4063;0,00865218
2389,3706;0,00852902
2390,3347;0,00846872
2391,2991;0,00845926
2392,2632;0,00848445
2393,2275;0,0085272
2394,1917;0,00857316
2395,1560;0,00861355
2396,1201;0,00864538
2397,0845;0,00866949
2398,0486;0,00868994
2399,0129;0,00870777
2399,9771;0,00872287
2400,9414;0,00873672
2401,9055;0,00875109
2402,8699;0,00876881
2403,8340;0,00879095
2404,7983;0,00881548
2405,7625;0,00883771
2406,7268;0,00885195
2407,6909;0,00885594
2408,6553;0,00885313
2409,6194;0,00885093
2410,5837;0,00885889
2411,5479;0,00888365
2412,5122;0,00892524
2413,4763;0,00897605
2414,4407;0,00902391
2415,4048;0,00905767
2416,3691;0,00907288
2417,3333;0,00907417
2418,2976;0,0090723
2419,2617;0,00907785
2420,2261;0,00909491
2421,1902;0,0091188
2422,1545;0,00914176
2423,1187;0,00915958
2424,0830;0,00917609
2425,0471;0,0092013
2426,0115;0,00924422
2426,9756;0,00930581
2427,9399;0,00937725
2428,9041;0,00944457
2429,8684;0,00949611
2430,8325;0,00952739
2431,7969;0,00954053
2432,7610;0,00954008
2433,7253;0,0095295
2434,6895;0,00951144
2435,6538;0,00949072
2436,6179;0,00947616
2437,5823;0,00947826
2438,5464;0,00950363
2439,5107;0,00955017
2440,4749;0,00960752
2441,4392;0,00966285
2442,4033;0,00970816
2443,3677;0,00974372
2444,3318;0,00977548
2445,2961;0,00980892
2446,2603;0,0098445
2447,2246;0,00987824
2448,1887;0,00990613
2449,1531;0,00992823
2450,1172;0,00994854
2451,0815;0,00997086
2452,0457;0,00999486
2453,0100;0,0100161
2453,9741;0,0100307
2454,9385;0,01004
2455,9026;0,0100513
2456,8669;0,0100726
2457,8311;0,0101056
2458,7954;0,0101423
2459,7595;0,0101695
2460,7239;0,0101773
2461,6880;0,0101671
2462,6523;0,0101515
2463,6165;0,0101469
2464,5808;0,0101635
2465,5449;0,0101991
2466,5093;0,0102411
2467,4734;0,0102749
2468,4377;0,0102916
2469,4019;0,0102914
2470,3662;0,0102807
2471,3303;0,010267
2472,2947;0,0102567
2473,2588;0,010255
2474,2231;0,0102679
2475,1873;0,0103021
2476,1516;0,0103607
2477,1157;0,0104383
2478,0801;0,0105203
2479,0442;0,0105879
2480,0085;0,0106282
2480,9727;0,0106411
2481,9370;0,0106403
2482,9011;0,0106445
2483,8655;0,0106666
2484,8296;0,0107066
2485,7939;0,0107523
2486,7581;0,0107879
2487,7224;0,0108031
2488,6865;0,010798
2489,6509;0,0107807
2490,6150;0,0107614
2491,5793;0,0107466
2492,5435;0,0107385
2493,5078;0,0107369
2494,4719;0,0107425
2495,4363;0,010758
2496,4004;0,0107868
2497,3647;0,0108296
2498,3289;0,0108831
2499,2932;0,0109398
2500,2573;0,0109905
2501,2217;0,0110275
2502,1858;0,0110472
2503,1501;0,0110509
2504,1143;0,011044
2505,0786;0,0110339
2506,0427;0,0110264
2507,0071;0,0110234
2507,9712;0,0110227
2508,9355;0,0110201
2509,8997;0,0110134
2510,8640;0,011005
2511,8281;0,0110019
2512,7925;0,0110114
2513,7566;0,0110373
2514,7209;0,0110763
2515,6851;0,0111202
2516,6494;0,0111605
2517,6135;0,0111929
2518,5779;0,0112188
2519,5420;0,0112419
2520,5063;0,0112642
2521,4705;0,0112827
2522,4348;0,0112917
2523,3989;0,0112879
2524,3633;0,0112744
2525,3274;0,0112611
2526,2917;0,0112595
2527,2559;0,0112752
2528,2202;0,0113049
2529,1843;0,0113377
2530,1487;0,0113619
2531,1128;0,0113714
2532,0771;0,0113689
2533,0413;0,011362
2534,0056;0,0113579
2534,9697;0,0113588
2535,9341;0,0113619
2536,8982;0,011363
2537,8625;0,0113619
2538,8267;0,0113628
2539,7910;0,0113714
2540,7551;0,0113897
2541,7195;0,0114124
2542,6836;0,0114286
2543,6479;0,0114283
2544,6121;0,0114095
2545,5764;0,0113813
2546,5405;0,0113601
2547,5049;0,0113602
2548,4690;0,0113858
2549,4333;0,0114274
2550,3975;0,0114678
2551,3618;0,0114923
2552,3259;0,0114972
2553,2903;0,0114912
2554,2544;0,0114889
2555,2188;0,0115007
2556,1829;0,0115262
2557,1472;0,0115553
2558,1113;0,0115764
2559,0757;0,0115845
2560,0398;0,0115834
2561,0042;0,0115823
2561,9683;0,0115876
2562,9326;0,0115987
2563,8967;0,0116089
2564,8611;0,0116111
2565,8252;0,0116032
2566,7896;0,0115896
2567,7537;0,011578
2568,7180;0,0115746
2569,6821;0,0115813
2570,6465;0,0115953
2571,6106;0,0116121
2572,5750;0,0116281
2573,5391;0,011642
2574,5034;0,0116557
2575,4675;0,0116725
2576,4319;0,0116964
2577,3960;0,0117293
2578,3604;0,0117694
2579,3245;0,0118106
2580,2888;0,011844
2581,2529;0,011862
2582,2173;0,0118621
2583,1814;0,0118485
2584,1458;0,0118309
2585,1099;0,0118199
2586,0742;0,0118223
2587,0383;0,0118387
2588,0027;0,0118639
2588,9668;0,0118913
2589,9312;0,0119165
2590,8953;0,0119392
2591,8596;0,0119622
2592,8237;0,0119875
2593,7881;0,0120134
2594,7522;0,0120336
2595,7166;0,0120416
2596,6807;0,0120357
2597,6450;0,012023
2598,6091;0,0120177
2599,5735;0,0120343
2600,5376;0,0120797
2601,5020;0,0121477
2602,4661;0,012222
2603,4304;0,0122833
2604,3945;0,0123187
2605,3589;0,0123273
2606,3230;0,0123187
2607,2874;0,0123074
2608,2515;0,0123057
2609,2158;0,0123198
2610,1799;0,012349
2611,1443;0,0123887
2612,1084;0,0124321
2613,0728;0,0124728
2614,0369;0,0125059
2615,0012;0,012529
2615,9653;0,0125442
2616,9297;0,0125581
2617,8938;0,0125794
2618,8582;0,0126154
2619,8223;0,012667
2620,7866;0,0127274
2621,7507;0,0127847
2622,7151;0,0128269
2623,6792;0,0128482
2624,6436;0,0128515
2625,6077;0,0128469
2626,5720;0,012847
2627,5361;0,0128616
2628,5005;0,0128949
2629,4646;0,0129447
2630,4290;0,0130043
2631,3931;0,0130649
2632,3574;0,0131173
2633,3215;0,0131543
2634,2859;0,0131726
2635,2500;0,0131745
2636,2144;0,0131671
2637,1785;0,0131606
2638,1428;0,0131637
2639,1069;0,0131802
2640,0713;0,0132085
2641,0354;0,0132432
2641,9998;0,013279
2642,9639;0,013313
2643,9282;0,0133451
2644,8923;0,0133762
2645,8567;0,0134067
2646,8208;0,013436
2647,7852;0,0134633
2648,7493;0,0134892
2649,7136;0,0135151
2650,6777;0,0135421
2651,6421;0,0135698
2652,6062;0,0135963
2653,5706;0,0136202
2654,5347;0,0136426
2655,4990;0,0136671
2656,4631;0,013698
2657,4275;0,0137367
2658,3916;0,0137805
2659,3560;0,0138233
2660,3201;0,013859
2661,2844;0,0138854
2662,2485;0,0139049
2663,2129;0,0139238
2664,1770;0,013948
2665,1414;0,01398
2666,1055;0,0140178
2667,0698;0,0140562
2668,0339;0,0140897
2668,9983;0,0141151
2669,9624;0,0141333
2670,9268;0,0141483
2671,8909;0,0141655
2672,8552;0,0141891
2673,8193;0,0142199
2674,7837;0,0142553
2675,7478;0,0142899
2676,7122;0,0143187
2677,6763;0,0143395
2678,6406;0,0143551
2679,6047;0,0143718
2680,5691;0,0143975
2681,5332;0,0144376
2682,4976;0,0144924
2683,4617;0,0145572
2684,4260;0,0146237
2685,3901;0,0146834
2686,3545;0,0147302
2687,3186;0,0147622
2688,2830;0,0147821
2689,2471;0,0147957
2690,2114;0,0148097
2691,1755;0,0148293
2692,1399;0,0148564
2693,1040;0,0148902
2694,0684;0,0149281
2695,0325;0,0149681
2695,9968;0,01501
2696,9609;0,0150543
2697,9253;0,0151009
2698,8894;0,0151473
2699,8538;0,0151899
2700,8179;0,0152261
2701,7822;0,0152568
2702,7463;0,0152863
2703,7107;0,0153199
2704,6748;0,0153606
2705,6392;0,0154068
2706,6033;0,0154544
2707,5676;0,0154989
2708,5317;0,0155387
2709,4961;0,0155748
2710,4602;0,0156095
2711,4246;0,0156439
2712,3887;0,0156784
2713,3530;0,0157134
2714,3171;0,0157505
2715,2815;0,0157929
2716,2456;0,0158431
2717,2100;0,0159012
2718,1741;0,0159639
2719,1384;0,0160249
2720,1025;0,0160773
2721,0669;0,0161158
2722,0310;0,0161385
2722,9954;0,0161483
2723,9595;0,0161534
2724,9238;0,0161649
2725,8879;0,0161929
2726,8523;0,0162423
2727,8164;0,0163094
2728,7808;0,0163835
2729,7449;0,0164513
2730,7092;0,016503
2731,6733;0,0165361
2732,6377;0,0165545
2733,6018;0,0165657
2734,5662;0,0165756
2735,5303;0,0165868
2736,4946;0,0165991
2737,4587;0,0166115
2738,4231;0,0166252
2739,3872;0,0166436
2740,3516;0,0166708
2741,3157;0,0167096
2742,2800;0,0167595
2743,2441;0,0168158
2744,2085;0,0168714
2745,1726;0,0169183
2746,1370;0,0169513
2747,1011;0,0169695
2748,0654;0,0169773
2749,0295;0,0169833
2749,9939;0,0169964
2750,9580;0,0170226
2751,9224;0,0170627
2752,8865;0,017112
2753,8508;0,0171635
2754,8149;0,0172107
2755,7793;0,0172507
2756,7434;0,017284
2757,7078;0,0173137
2758,6719;0,0173433
2759,6362;0,017376
2760,6003;0,017414
2761,5647;0,0174585
2762,5288;0,0175094
2763,4932;0,0175652
2764,4573;0,0176223
2765,4216;0,0176777
2766,3857;0,01773
2767,3501;0,0177808
2768,3142;0,0178333
2769,2786;0,0178893
2770,2427;0,0179468
2771,2070;0,0180007
2772,1711;0,0180454
2773,1355;0,0180798
2774,0996;0,0181081
2775,0640;0,0181386
2776,0281;0,0181784
2776,9924;0,0182301
2777,9565;0,0182907
2778,9209;0,0183551
2779,8850;0,0184203
2780,8494;0,0184873
2781,8135;0,0185593
2782,7778;0,0186379
2783,7419;0,0187195
2784,7063;0,0187969
2785,6704;0,0188627
2786,6348;0,0189151
2787,5989;0,0189598
2788,5632;0,0190081
2789,5273;0,0190715
2790,4917;0,019156
2791,4558;0,0192593
2792,4202;0,0193722
2793,3843;0,0194834
2794,3486;0,0195846
2795,3127;0,0196737
2796,2771;0,0197546
2797,2412;0,0198349
2798,2056;0,0199224
2799,1697;0,0200219
2800,1340;0,0201344
2801,0981;0,0202577
2802,0625;0,0203876
2803,0266;0,02052
2803,9910;0,020651
2804,9551;0,0207774
2805,9194;0,0208964
2806,8835;0,0210069
2807,8479;0,0211105
2808,8120;0,0212121
2809,7764;0,0213192
2810,7405;0,0214393
2811,7048;0,0215766
2812,6689;0,0217297
2813,6333;0,0218929
2814,5974;0,0220584
2815,5618;0,0222207
2816,5259;0,0223788
2817,4902;0,0225362
2818,4543;0,0226985
2819,4187;0,022871
2820,3828;0,0230563
2821,3472;0,023254
2822,3113;0,0234614
2823,2756;0,0236751
2824,2397;0,0238928
2825,2041;0,0241143
2826,1682;0,0243419
2827,1326;0,0245793
2828,0967;0,0248297
2829,0610;0,0250956
2830,0251;0,0253786
2830,9895;0,0256807
2831,9536;0,0260047
2832,9180;0,026353
2833,8821;0,0267268
2834,8464;0,0271245
2835,8105;0,0275439
2836,7749;0,0279858
2837,7390;0,0284567
2838,7034;0,0289705
2839,6675;0,0295463
2840,6318;0,0302049
2841,5959;0,0309642
2842,5603;0,0318351
2843,5244;0,0328149
2844,4888;0,0338787
2845,4529;0,0349736
2846,4172;0,0360183
2847,3813;0,0369162
2848,3457;0,0375785
2849,3098;0,0379513
2850,2742;0,0380328
2851,2383;0,0378729
2852,2026;0,0375544
2853,1667;0,0371653
2854,1311;0,0367747
2855,0952;0,0364213
2856,0596;0,0361175
2857,0237;0,035862
2857,9880;0,0356532
2858,9521;0,0354953
2859,9165;0,0353967
2860,8806;0,035363
2861,8450;0,0353911
2862,8091;0,0354694
2863,7734;0,0355834
2864,7375;0,0357228
2865,7019;0,0358845
2866,6660;0,0360683
2867,6304;0,0362701
2868,5945;0,0364766
2869,5588;0,0366676
2870,5229;0,0368248
2871,4873;0,0369407
2872,4514;0,0370221
2873,4158;0,0370855
2874,3799;0,0371469
2875,3442;0,0372146
2876,3083;0,0372879
2877,2727;0,0373621
2878,2368;0,0374351
2879,2012;0,0375097
2880,1653;0,0375926
2881,1296;0,0376896
2882,0938;0,0378034
2883,0581;0,0379336
2884,0222;0,0380787
2884,9866;0,0382366
2885,9507;0,0384055
2886,9150;0,0385819
2887,8792;0,0387616
2888,8435;0,0389407
2889,8076;0,0391172
2890,7720;0,0392925
2891,7361;0,0394695
2892,7004;0,039652
2893,6646;0,0398424
2894,6289;0,0400417
2895,5930;0,0402491
2896,5574;0,0404625
2897,5215;0,0406775
2898,4858;0,0408885
2899,4500;0,0410898
2900,4143;0,0412785
2901,3784;0,0414575
2902,3428;0,0416358
2903,3069;0,0418277
2904,2712;0,0420489
2905,2354;0,0423142
2906,1997;0,0426362
2907,1638;0,0430268
2908,1282;0,0434985
2909,0923;0,0440632
2910,0566;0,0447273
2911,0208;0,0454834
2911,9851;0,0463021
2912,9492;0,0471294
2913,9136;0,0478936
2914,8777;0,048519
2915,8420;0,0489442
2916,8062;0,0491366
2917,7705;0,0490983
2918,7346;0,0488617
2919,6990;0,0484768
2920,6631;0,0479971
2921,6274;0,0474675
2922,5916;0,0469183
2923,5559;0,0463649
2924,5200;0,0458116
2925,4844;0,045258
2926,4485;0,0447043
2927,4128;0,0441549
2928,3770;0,0436178
2929,3413;0,0431017
2930,3054;0,0426114
2931,2698;0,0421453
2932,2339;0,0416959
2933,1982;0,0412542
2934,1624;0,040814
2935,1267;0,0403746
2936,0908;0,039939
2937,0552;0,039511
2938,0193;0,0390918
2938,9836;0,0386792
2939,9478;0,0382699
2940,9121;0,0378622
2941,8762;0,037458
2942,8406;0,037063
2943,8047;0,0366849
2944,7690;0,0363307
2945,7332;0,0360046
2946,6975;0,0357075
2947,6616;0,0354363
2948,6260;0,0351863
2949,5901;0,0349527
2950,5544;0,0347318
2951,5186;0,0345212
2952,4829;0,0343176
2953,4470;0,0341156
2954,4114;0,0339075
2955,3755;0,0336859
2956,3398;0,0334469
2957,3040;0,0331918
2958,2683;0,0329257
2959,2324;0,0326539
2960,1968;0,0323783
2961,1609;0,0320968
2962,1252;0,0318055
2963,0894;0,0315024
2964,0537;0,031189
2965,0178;0,0308694
2965,9822;0,0305476
2966,9463;0,0302259
2967,9106;0,0299044
2968,8748;0,0295832
2969,8391;0,029264
2970,8032;0,0289507
2971,7676;0,0286475
2972,7317;0,0283576
2973,6960;0,0280806
2974,6602;0,0278131
2975,6245;0,0275498
2976,5886;0,0272865
2977,5530;0,0270226
2978,5171;0,0267626
2979,4814;0,0265157
2980,4456;0,0262924
2981,4099;0,0261011
2982,3740;0,0259439
2983,3384;0,0258153
2984,3025;0,0257044
2985,2668;0,0255992
2986,2310;0,0254914
2987,1953;0,0253802
2988,1594;0,0252718
2989,1238;0,0251764
2990,0879;0,0251023
2991,0522;0,0250516
2992,0164;0,0250182
2992,9807;0,0249912
2993,9448;0,0249604
2994,9092;0,0249222
2995,8733;0,0248823
2996,8376;0,0248524
2997,8018;0,0248441
2998,7661;0,0248627
2999,7302;0,0249035
3000,6946;0,0249553
3001,6587;0,0250059
3002,6230;0,0250487
3003,5872;0,0250853
3004,5515;0,0251242
3005,5156;0,025175
3006,4800;0,0252432
3007,4441;0,0253274
3008,4084;0,0254204
3009,3726;0,0255126
3010,3369;0,0255961
3011,3010;0,0256665
3012,2654;0,0257235
3013,2295;0,0257699
3014,1938;0,0258105
3015,1580;0,0258514
3016,1223;0,0258992
3017,0864;0,0259597
3018,0508;0,0260368
3019,0149;0,026131
3019,9792;0,0262404
3020,9434;0,0263611
3021,9077;0,0264894
3022,8718;0,0266225
3023,8362;0,0267588
3024,8003;0,026898
3025,7646;0,0270409
3026,7288;0,0271885
3027,6931;0,0273405
3028,6572;0,0274932
3029,6216;0,027639
3030,5857;0,0277679
3031,5500;0,0278728
3032,5142;0,0279539
3033,4785;0,0280209
3034,4426;0,0280891
3035,4070;0,0281726
3036,3711;0,0282787
3037,3354;0,0284056
3038,2996;0,0285458
3039,2639;0,0286912
3040,2280;0,028838
3041,1924;0,0289872
3042,1565;0,0291433
3043,1208;0,029311
3044,0850;0,029491
3045,0493;0,0296794
3046,0134;0,029867
3046,9778;0,0300434
3047,9419;0,0302011
3048,9063;0,0303404
3049,8704;0,0304706
3050,8347;0,0306064
3051,7988;0,0307613
3052,7632;0,0309399
3053,7273;0,0311359
3054,6917;0,0313352
3055,6558;0,0315238
3056,6201;0,0316955
3057,5842;0,031855
3058,5486;0,0320145
3059,5127;0,0321868
3060,4771;0,0323779
3061,4412;0,0325843
3062,4055;0,0327939
3063,3696;0,032991
3064,3340;0,0331627
3065,2981;0,0333041
3066,2625;0,0334209
3067,2266;0,0335276
3068,1909;0,0336419
3069,1550;0,0337775
3070,1194;0,0339392
3071,0835;0,0341213
3072,0479;0,0343105
3073,0120;0,0344932
3073,9763;0,0346609
3074,9404;0,0348144
3075,9048;0,0349613
3076,8689;0,035111
3077,8333;0,0352681
3078,7974;0,0354294
3079,7617;0,0355857
3080,7258;0,0357278
3081,6902;0,0358523
3082,6543;0,0359646
3083,6187;0,0360762
3084,5828;0,0361984
3085,5471;0,0363365
3086,5112;0,0364889
3087,4756;0,0366493
3088,4397;0,0368125
3089,4041;0,0369787
3090,3682;0,0371522
3091,3325;0,0373378
3092,2966;0,0375357
3093,2610;0,0377386
3094,2251;0,0379357
3095,1895;0,0381178
3096,1536;0,0382832
3097,1179;0,0384382
3098,0820;0,038593
3099,0464;0,0387557
3100,0105;0,038928
3100,9749;0,0391048
3101,9390;0,0392781
3102,9033;0,0394419
3103,8674;0,0395949
3104,8318;0,0397412
3105,7959;0,0398885
3106,7603;0,0400456
3107,7244;0,0402206
3108,6887;0,0404175
3109,6528;0,0406354
3110,6172;0,0408669
3111,5813;0,041101
3112,5457;0,0413267
3113,5098;0,0415382
3114,4741;0,041737
3115,4382;0,0419308
3116,4026;0,0421288
3117,3667;0,0423364
3118,3311;0,0425525
3119,2952;0,0427704
3120,2595;0,0429821
3121,2236;0,0431822
3122,1880;0,0433695
3123,1521;0,0435465
3124,1165;0,0437177
3125,0806;0,0438882
3126,0449;0,0440633
3127,0090;0,0442488
3127,9734;0,0444493
3128,9375;0,0446674
3129,9019;0,044901
3130,8660;0,0451442
3131,8303;0,0453881
3132,7944;0,0456241
3133,7588;0,0458459
3134,7229;0,0460511
3135,6873;0,0462414
3136,6514;0,0464221
3137,6157;0,0466018
3138,5798;0,0467901
3139,5442;0,0469959
3140,5083;0,0472239
3141,4727;0,0474735
3142,4368;0,0477389
3143,4011;0,0480127
3144,3652;0,0482885
3145,3296;0,048562
3146,2937;0,0488297
3147,2581;0,0490876
3148,2222;0,0493321
3149,1865;0,0495617
3150,1506;0,0497797
3151,1150;0,0499941
3152,0791;0,050214
3153,0435;0,0504455
3154,0076;0,0506886
3154,9719;0,050939
3155,9360;0,0511912
3156,9004;0,0514424
3157,8645;0,051693
3158,8289;0,0519447
3159,7930;0,0521982
3160,7573;0,0524522
3161,7214;0,0527041
3162,6858;0,0529527
3163,6499;0,0531987
3164,6143;0,0534445
3165,5784;0,0536926
3166,5427;0,0539439
3167,5068;0,0541978
3168,4712;0,0544526
3169,4353;0,0545963
3170,3997;0,0548533
3171,3638;0,0551159
3172,3281;0,0553872
3173,2922;0,055669
3174,2566;0,0559596
3175,2207;0,0562527
3176,1851;0,0565388
3177,1492;0,0568081
3178,1135;0,0570558
3179,0776;0,0572847
3180,0420;0,0575049
3181,0061;0,0577286
3181,9705;0,0579641
3182,9346;0,0582114
3183,8989;0,058463
3184,8630;0,0587086
3185,8274;0,0589423
3186,7915;0,059166
3187,7559;0,0593882
3188,7200;0,0596188
3189,6843;0,0598625
3190,6484;0,0601179
3191,6128;0,0603794
3192,5769;0,0606421
3193,5413;0,0609044
3194,5054;0,061166
3195,4697;0,061424
3196,4338;0,0616709
3197,3982;0,0618975
3198,3623;0,0621002
3199,3267;0,0622858
3200,2908;0,0624715
3201,2551;0,0626762
3202,2192;0,0629109
3203,1836;0,0631727
3204,1477;0,0634463
3205,1121;0,0637122
3206,0762;0,063957
3207,0405;0,0641781
3208,0046;0,0643833
3208,9690;0,0645842
3209,9331;0,0647901
3210,8975;0,0650045
3211,8616;0,0652259
3212,8259;0,0654507
3213,7900;0,0656759
3214,7544;0,0658998
3215,7185;0,0661212
3216,6829;0,0663387
3217,6470;0,0665507
3218,6113;0,0667577
3219,5754;0,0669629
3220,5398;0,0671719
3221,5039;0,0673896
3222,4683;0,067618
3223,4324;0,0678544
3224,3967;0,0680936
3225,3608;0,0683305
3226,3252;0,0685632
3227,2893;0,0687919
3228,2537;0,0690171
3229,2178;0,0692373
3230,1821;0,069449
3231,1462;0,0696491
3232,1106;0,0698385
3233,0747;0,0700222
3234,0391;0,070208
3235,0032;0,0704031
3235,9675;0,070612
3236,9316;0,0708364
3237,8960;0,0710768
3238,8601;0,0713322
3239,8245;0,0715988
3240,7886;0,0718676
3241,7529;0,0721257
3242,7170;0,0723614
3243,6814;0,0725703
3244,6455;0,0727603
3245,6099;0,0729493
3246,5740;0,073157
3247,5383;0,0733942
3248,5024;0,0736581
3249,4668;0,0739353
3250,4309;0,0742105
3251,3953;0,0744756
3252,3594;0,0747336
3253,3237;0,0749944
3254,2878;0,0752671
3255,2522;0,0755518
3256,2163;0,0758384
3257,1807;0,0761118
3258,1448;0,0763613
3259,1091;0,0765877
3260,0732;0,0768033
3261,0376;0,0770263
3262,0017;0,07727
3262,9661;0,0775365
3263,9302;0,0778145
3264,8945;0,0780855
3265,8586;0,0783331
3266,8230;0,0785498
3267,7871;0,0787405
3268,7515;0,0789174
3269,7156;0,0790931
3270,6799;0,0792734
3271,6440;0,0794539
3272,6084;0,0796223
3273,5725;0,0797648
3274,5369;0,0798733
3275,5010;0,0799502
3276,4653;0,0800074
3277,4294;0,0800607
3278,3938;0,080122
3279,3579;0,0801943
3280,3223;0,0802713
3281,2864;0,080342
3282,2507;0,0803976
3283,2148;0,0804361
3284,1792;0,0804626
3285,1433;0,0804853
3286,1077;0,0805097
3287,0718;0,0805353
3288,0361;0,0805571
3289,0002;0,0805694
3289,9646;0,0805702
3290,9287;0,0805631
3291,8931;0,0805551
3292,8572;0,0805516
3293,8215;0,080554
3294,7856;0,0805581
3295,7500;0,0805567
3296,7141;0,0805432
3297,6785;0,0805142
3298,6426;0,0804702
3299,6069;0,0804145
3300,5710;0,0803512
3301,5354;0,0802851
3302,4995;0,0802219
3303,4639;0,0801678
3304,4280;0,0801286
3305,3923;0,0801067
3306,3564;0,0800991
3307,3208;0,0800971
3308,2849;0,0800898
3309,2493;0,0800689
3310,2134;0,0800339
3311,1777;0,0799924
3312,1418;0,0799565
3313,1062;0,0799361
3314,0703;0,0799348
3315,0347;0,0799493
3315,9988;0,0799745
3316,9631;0,0800095
3317,9272;0,0800603
3318,8916;0,0801364
3319,8557;0,0802425
3320,8201;0,080373
3321,7842;0,0805111
3322,7485;0,0806368
3323,7126;0,0807366
3324,6770;0,0808099
3325,6411;0,0808675
3326,6055;0,0809234
3327,5696;0,0809868
3328,5339;0,0810585
3329,4980;0,0811339
3330,4624;0,0812077
3331,4265;0,0812769
3332,3909;0,0813388
3333,3550;0,0813873
3334,3193;0,0814111
3335,2834;0,0813964
3336,2478;0,0813333
3337,2119;0,0812211
3338,1763;0,0810692
3339,1404;0,0808931
3340,1047;0,0807085
3341,0688;0,0805263
3342,0332;0,0803515
3342,9973;0,080183
3343,9617;0,0800154
3344,9258;0,0798406
3345,8901;0,0796504
3346,8542;0,0794386
3347,8186;0,0792042
3348,7827;0,0789525
3349,7471;0,0786937
3350,7112;0,0784399
3351,6755;0,0781998
3352,6396;0,0779753
3353,6040;0,0777617
3354,5681;0,07755
3355,5325;0,0773323
3356,4966;0,0771062
3357,4609;0,0768765
3358,4250;0,0766524
3359,3894;0,0764437
3360,3535;0,0762552
3361,3179;0,0760845
3362,2820;0,075923
3363,2463;0,0757589
3364,2104;0,0755814
3365,1748;0,0753841
3366,1389;0,0751654
3367,1033;0,0749283
3368,0674;0,0746788
3369,0317;0,0744242
3369,9958;0,0741712
3370,9602;0,0739247
3371,9243;0,073687
3372,8887;0,0734583
3373,8528;0,0732373
3374,8171;0,0730231
3375,7813;0,0728154
3376,7456;0,0726137
3377,7097;0,0724162
3378,6741;0,0722182
3379,6382;0,0720144
3380,6025;0,0718009
3381,5667;0,0715787
3382,5310;0,0713535
3383,4951;0,0711339
3384,4595;0,0709269
3385,4236;0,0707354
3386,3879;0,0705578
3387,3521;0,0703897
3388,3164;0,0702267
3389,2805;0,0700654
3390,2449;0,0699036
3391,2090;0,0697393
3392,1733;0,0695704
3393,1375;0,0693959
3394,1018;0,0692152
3395,0659;0,0690285
3396,0303;0,0688352
3396,9944;0,0686345
3397,9587;0,068425
3398,9229;0,0682052
3399,8872;0,0679743
3400,8513;0,0677324
3401,8157;0,0674823
3402,7798;0,067229
3403,7441;0,0669793
3404,7083;0,0667392
3405,6726;0,0665109
3406,6367;0,0662921
3407,6011;0,0660769
3408,5652;0,0658585
3409,5295;0,0656313
3410,4937;0,0653913
3411,4580;0,0651359
3412,4221;0,0648649
3413,3865;0,0645818
3414,3506;0,0642945
3415,3149;0,0640138
3416,2791;0,063749
3417,2434;0,0635022
3418,2075;0,0632656
3419,1719;0,063025
3420,1360;0,0627665
3421,1003;0,0624837
3422,0645;0,0621795
3423,0288;0,061862
3423,9929;0,0615388
3424,9573;0,0612146
3425,9214;0,0608924
3426,8857;0,0605762
3427,8499;0,0602713
3428,8142;0,0599812
3429,7783;0,0597047
3430,7427;0,0594342
3431,7068;0,0591594
3432,6711;0,0588719
3433,6353;0,0585702
3434,5996;0,0582607
3435,5637;0,0579536
3436,5281;0,0576575
3437,4922;0,0573748
3438,4565;0,0571019
3439,4207;0,0568329
3440,3850;0,0565656
3441,3491;0,0563029
3442,3135;0,0560502
3443,2776;0,0558085
3444,2419;0,0555685
3445,2061;0,0553113
3446,1704;0,0550154
3447,1345;0,0546698
3448,0989;0,0542822
3449,0630;0,0538757
3450,0273;0,0534772
3450,9915;0,0531055
3451,9558;0,0527673
3452,9199;0,0524586
3453,8843;0,0521697
3454,8484;0,0518909
3455,8127;0,0516174
3456,7769;0,0513494
3457,7412;0,0510892
3458,7053;0,0508359
3459,6697;0,0505823
3460,6338;0,0503171
3461,5981;0,0500298
3462,5623;0,0497171
3463,5266;0,049384
3464,4907;0,0490405
3465,4551;0,0486955
3466,4192;0,0483545
3467,3835;0,0480204
3468,3477;0,0476965
3469,3120;0,047386
3470,2761;0,0470896
3471,2405;0,0468018
3472,2046;0,0465121
3473,1689;0,0462121
3474,1331;0,0459035
3475,0974;0,0456005
3476,0615;0,0453223
3477,0259;0,0450803
3477,9900;0,0448693
3478,9543;0,0446694
3479,9185;0,0444554
3480,8828;0,0442108
3481,8469;0,0439347
3482,8113;0,0436382
3483,7754;0,0433318
3484,7397;0,0430165
3485,7039;0,0426854
3486,6682;0,0423332
3487,6323;0,0419661
3488,5967;0,0416035
3489,5608;0,0412697
3490,5251;0,0409818
3491,4893;0,0407398
3492,4536;0,0405273
3493,4177;0,0403187
3494,3821;0,0400929
3495,3462;0,0398448
3496,3105;0,0395916
3497,2747;0,0393626
3498,2390;0,0391804
3499,2031;0,0390425
3500,1675;0,0389157
3501,1316;0,0387459
3502,0959;0,0384862
3503,0601;0,0381299
3504,0244;0,0377203
3504,9885;0,0373223
3505,9529;0,0369802
3506,9170;0,0366955
3507,8813;0,0364352
3508,8455;0,0361562
3509,8098;0,0358333
3510,7739;0,0354746
3511,7383;0,0351128
3512,7024;0,0347798
3513,6667;0,0344886
3514,6309;0,0342328
3515,5952;0,0339998
3516,5593;0,0337837
3517,5237;0,03359
3518,4878;0,0334296
3519,4521;0,0333074
3520,4163;0,0332144
3521,3806;0,0331279
3522,3447;0,0330198
3523,3091;0,0328689
3524,2732;0,0326666
3525,2375;0,0324125
3526,2017;0,0321058
3527,1660;0,0317427
3528,1301;0,0313258
3529,0945;0,0308751
3530,0586;0,0304298
3531,0229;0,0300309
3531,9871;0,029703
3532,9514;0,0294432
3533,9155;0,0292229
3534,8799;0,0290004
3535,8440;0,0287413
3536,8083;0,0284406
3537,7725;0,0281298
3538,7368;0,0278613
3539,7009;0,0276812
3540,6653;0,0276078
3541,6294;0,0276226
3542,5938;0,0276701
3543,5579;0,027666
3544,5222;0,0275277
3545,4863;0,0272223
3546,4507;0,0267942
3547,4148;0,0263342
3548,3792;0,0259172
3549,3433;0,0255654
3550,3076;0,0252544
3551,2717;0,0249419
3552,2361;0,0245987
3553,2002;0,024231
3554,1646;0,0238762
3555,1287;0,0235757
3556,0930;0,0233505
3557,0571;0,0231991
3558,0215;0,0231099
3558,9856;0,0230734
3559,9500;0,0230873
3560,9141;0,0231505
3561,8784;0,0232528
3562,8425;0,0233641
3563,8069;0,0234242
3564,7710;0,0233316
3565,7354;0,022965
3566,6995;0,0222877
3567,6638;0,0214513
3568,6279;0,0207029
3569,5923;0,0201796
3570,5564;0,0198552
3571,5208;0,0196317
3572,4849;0,019429
3573,4492;0,0192138
3574,4133;0,0189888
3575,3777;0,0187709
3576,3418;0,0185748
3577,3062;0,0184088
3578,2703;0,0182797
3579,2346;0,0181981
3580,1987;0,0181728
3581,1631;0,0181996
3582,1272;0,0182534
3583,0916;0,0182947
3584,0557;0,0182816
3585,0200;0,0181747
3585,9841;0,0179436
3586,9485;0,0176065
3587,9126;0,0172738
3588,8770;0,0170868
3589,8411;0,0170911
3590,8054;0,0172138
3591,7695;0,0173383
3592,7339;0,0173727
3593,6980;0,0172771
3594,6624;0,0170687
3595,6265;0,0168076
3596,5908;0,0165529
3597,5549;0,0163199
3598,5193;0,0160817
3599,4834;0,0158067
3600,4478;0,0154965
3601,4119;0,0151894
3602,3762;0,0149248
3603,3403;0,0147056
3604,3047;0,0144929
3605,2688;0,0142272
3606,2332;0,0138537
3607,1973;0,013353
3608,1616;0,0127721
3609,1257;0,0122216
3610,0901;0,0118177
3611,0542;0,01162
3612,0186;0,0116109
3612,9827;0,0117132
3613,9470;0,0118252
3614,9111;0,0118567
3615,8755;0,0117557
3616,8396;0,0115203
3617,8040;0,0112014
3618,7681;0,0108993
3619,7324;0,0107409
3620,6965;0,0108124
3621,6609;0,011089
3622,6250;0,0114405
3623,5894;0,0117073
3624,5535;0,0117738
3625,5178;0,0115969
3626,4819;0,011186
3627,4463;0,0105692
3628,4104;0,00982482
3629,3748;0,00914299
3630,3389;0,00869929
3631,3032;0,00846635
3632,2673;0,00827201
3633,2317;0,00797405
3634,1958;0,00754483
3635,1602;0,00705206
3636,1243;0,00659004
3637,0886;0,00621548
3638,0527;0,00592941
3639,0171;0,00570675
3639,9812;0,00553582
3640,9456;0,00542967
3641,9097;0,00540389
3642,8740;0,00544834
3643,8381;0,00552424
3644,8025;0,00558698
3645,7666;0,00559858
3646,7310;0,00548427
3647,6951;0,00507008
3648,6594;0,00423338
3649,6235;0,00324529
3650,5879;0,0025731
3651,5520;0,00233181
3652,5164;0,00229665
3653,4805;0,00221705
3654,4448;0,00197936
3655,4089;0,00161696
3656,3733;0,00125289
3657,3374;0,00100753
3658,3018;0,000914322
3659,2659;0,000914097
3660,2302;0,000928175
3661,1943;0,000928487
3662,1587;0,000944366
3663,1228;0,0010147
3664,0872;0,00113757
3665,0513;0,00127122
3666,0156;0,00137691
3666,9797;0,00145701
3667,9441;0,00153934
3668,9082;0,00162506
3669,8726;0,00167903
3670,8367;0,00166952
3671,8010;0,00157878
3672,7651;0,00140001
3673,7295;0,00115353
3674,6936;0,000886204
3675,6580;0,000660856
3676,6221;0,000552288
3677,5864;0,000592264
3678,5505;0,000723245
3679,5149;0,000860839
3680,4790;0,000974827
3681,4434;0,00109233
3682,4075;0,00124207
3683,3718;0,00140652
3684,3359;0,00152901
3685,3003;0,00156742
3686,2644;0,00154436
3687,2288;0,00154163
3688,1929;0,0016286
3689,1572;0,0018028
3690,1213;0,00202793
3691,0857;0,00228205
3692,0498;0,00253779
3693,0142;0,00275782
3693,9783;0,00292108
3694,9426;0,00303005
3695,9067;0,00309477
3696,8711;0,00311863
3697,8352;0,00310094
3698,7996;0,00305004
3699,7637;0,00299142
3700,7280;0,00296245
3701,6921;0,00299928
3702,6565;0,00312218
3703,6206;0,00332086
3704,5850;0,00355065
3705,5491;0,0037498
3706,5134;0,00386325
3707,4775;0,00384592
3708,4419;0,00363608
3709,4060;0,00313608
3710,3704;0,00229492
3711,3345;0,0012825
3712,2988;0,000464095
3713,2629;9,84792E-05
3714,2273;0,000177926
3715,1914;0,000546358
3716,1558;0,00105489
3717,1199;0,00162273
3718,0842;0,00222364
3719,0483;0,00284615
3720,0127;0,00346395
3720,9768;0,00403407
3721,9412;0,00451404
3722,9053;0,00487739
3723,8696;0,00511792
3724,8337;0,00524846
3725,7981;0,00529517
3726,7622;0,00528271
3727,7266;0,00521993
3728,6907;0,00510472
3729,6550;0,00494485
3730,6191;0,00476948
3731,5835;0,00460887
3732,5476;0,00444272
3733,5120;0,00416825
3734,4761;0,00368797
3735,4404;0,00308744
3736,4045;0,00261811
3737,3689;0,00242661
3738,3330;0,00241026
3739,2974;0,00233053
3740,2615;0,00198466
3741,2258;0,00131123
3742,1899;0,000431648
3743,1543;-0,000375671
3744,1184;-0,000807309
3745,0828;-0,000745045
3746,0469;-0,000355696
3747,0112;4,37986E-05
3747,9753;0,000191988
3748,9397;-2,10675E-05
3749,9038;-0,000539848
3750,8682;-0,00112933
3751,8323;-0,00146327
3752,7966;-0,00139463
3753,7607;-0,00106618
3754,7251;-0,000726633
3755,6892;-0,000545806
3756,6536;-0,000568502
3757,6177;-0,000744304
3758,5820;-0,000969732
3759,5461;-0,00113402
3760,5105;-0,00117407
3761,4746;-0,00110276
3762,4390;-0,000982633
3763,4031;-0,000879059
3764,3674;-0,000833666
3765,3315;-0,000861811
3766,2959;-0,000959797
3767,2600;-0,00111194
3768,2244;-0,00129429
3769,1885;-0,00147355
3770,1528;-0,00160556
3771,1169;-0,00164844
3772,0813;-0,00158985
3773,0454;-0,00146287
3774,0098;-0,00132895
3774,9739;-0,00124309
3775,9382;-0,00122862
3776,9023;-0,00127505
3777,8667;-0,00134966
3778,8308;-0,00140728
3779,7952;-0,00140404
3780,7593;-0,00132364
3781,7236;-0,00119425
3782,6877;-0,00107487
3783,6521;-0,00102434
3784,6162;-0,00107342
3785,5806;-0,00120872
3786,5447;-0,00137843
3787,5090;-0,0015199
3788,4731;-0,00159311
3789,4375;-0,001596
3790,4016;-0,00155246
3791,3660;-0,00148384
3792,3301;-0,00138478
3793,2944;-0,00122298
3794,2585;-0,000968197
3795,2229;-0,000632587
3796,1870;-0,000286121
3797,1514;-2,78069E-05
3798,1155;6,56986E-05
3799,0798;-2,4851E-05
3800,0439;-0,000257847
3801,0083;-0,000549941
3801,9724;-0,000817342
3802,9368;-0,00103643
3803,9009;-0,00126134
3804,8652;-0,00155761
3805,8293;-0,00191218
3806,7937;-0,00220503
3807,7578;-0,00228138
3808,7222;-0,00208406
3809,6863;-0,00171644
3810,6506;-0,00136398
3811,6147;-0,001162
3812,5791;-0,00111921
3813,5432;-0,00112833
3814,5076;-0,00105037
3815,4717;-0,000822714
3816,4360;-0,000507791
3817,4001;-0,000247105
3818,3645;-0,00017496
3819,3286;-0,000349802
3820,2930;-0,00071052
3821,2571;-0,0010813
3822,2214;-0,00127851
3823,1855;-0,00125215
3824,1499;-0,00109914
3825,1140;-0,000956598
3826,0784;-0,000906281
3827,0425;-0,000947034
3828,0068;-0,00101869
3828,9709;-0,00104779
3829,9353;-0,000989592
3830,8994;-0,00084793
3831,8638;-0,000668543
3832,8279;-0,000513591
3833,7922;-0,000430554
3834,7563;-0,000430555
3835,7207;-0,000489163
3836,6848;-0,00057052
3837,6492;-0,00065525
3838,6133;-0,000744302
3839,5776;-0,000845211
3840,5417;-0,00096529
3841,5061;-0,00110563
3842,4702;-0,00124138
3843,4346;-0,00131073
3844,3987;-0,00124055
3845,3630;-0,00100109
3846,3271;-0,000646472
3847,2915;-0,000305533
3848,2556;-0,000130024
3849,2200;-0,0002348
3850,1841;-0,000657828
3851,1484;-0,00135353
3852,1125;-0,00219983
3853,0769;-0,00294399
3854,0410;-0,00321242
3855,0054;-0,00285306
3855,9695;-0,00212047
3856,9338;-0,00138924
3857,8979;-0,000891354
3858,8623;-0,000672118
3859,8264;-0,00064649
3860,7908;-0,000678724
3861,7549;-0,000665164
3862,7192;-0,00058899
3863,6833;-0,000504473
3864,6477;-0,000470289
3865,6118;-0,000506636
3866,5762;-0,000597449
3867,5403;-0,000706947
3868,5046;-0,000799653
3869,4688;-0,00086325
3870,4331;-0,000915073
3871,3972;-0,000978515
3872,3616;-0,00105602
3873,3257;-0,00113116
3874,2900;-0,00118905
3875,2542;-0,00122575
3876,2185;-0,00123887
3877,1826;-0,00121596
3878,1470;-0,00113769
3879,1111;-0,00100124
3880,0754;-0,000843274
3881,0396;-0,000732787
3882,0039;-0,000734612
3882,9680;-0,000873133
3883,9324;-0,00111578
3884,8965;-0,00138129
3885,8608;-0,00157821
3886,8250;-0,00165881
3887,7893;-0,00164235
3888,7534;-0,0015832
3889,7178;-0,00152044
3890,6819;-0,00145519
3891,6462;-0,00136076
3892,6104;-0,00120942
3893,5747;-0,00100583
3894,5388;-0,000798604
3895,5032;-0,000645969
3896,4673;-0,000570372
3897,4316;-0,00054975
3898,3958;-0,000549571
3899,3601;-0,000559799
3900,3242;-0,000601671
3901,2886;-0,000704794
3902,2527;-0,000883285
3903,2170;-0,00112077
3904,1812;-0,00136754
3905,1455;-0,00156514
3906,1096;-0,00168548
3907,0740;-0,00174182
3908,0381;-0,00176347
3909,0024;-0,00176695
3909,9666;-0,00174856
3910,9309;-0,00169631
3911,8950;-0,00160558
3912,8594;-0,00148622
3913,8235;-0,00135927
3914,7878;-0,00125005
3915,7520;-0,00118135
3916,7163;-0,0011623
3917,6804;-0,00117467
3918,6448;-0,00117711
3919,6089;-0,00113587
3920,5732;-0,00105372
3921,5374;-0,000967277
3922,5017;-0,000921615
3923,4658;-0,000941415
3924,4302;-0,00101154
3925,3943;-0,00108229
3926,3586;-0,00110339
3927,3228;-0,00105906
3928,2871;-0,000975855
3929,2512;-0,000907081
3930,2156;-0,000909303
3931,1797;-0,00101362
3932,1440;-0,00120075
3933,1082;-0,00140695
3934,0725;-0,00156497
3935,0366;-0,00164096
3936,0010;-0,00163837
3936,9651;-0,00158042
3937,9294;-0,00149342
3938,8936;-0,00139951
3939,8579;-0,00131603
3940,8220;-0,00125509
3941,7864;-0,0012194
3942,7505;-0,00119822
3943,7148;-0,00117173
3944,6790;-0,00112653
3945,6433;-0,00106773
3946,6074;-0,00101891
3947,5718;-0,00101139
3948,5359;-0,0010678
3949,5002;-0,00118619
3950,4644;-0,00133715
3951,4287;-0,00148041
3952,3928;-0,00158661
3953,3572;-0,00164668
3954,3213;-0,00166722
3955,2856;-0,00166105
3956,2498;-0,0016398
3957,2141;-0,00161083
3958,1782;-0,00157911
3959,1426;-0,00155126
3960,1067;-0,00153734
3961,0710;-0,00154748
3962,0352;-0,00158478
3962,9995;-0,00164063
3963,9636;-0,00169753
3964,9280;-0,00173736
3965,8921;-0,0017502
3966,8564;-0,00173741
3967,8206;-0,00170884
3968,7849;-0,00167668
3969,7490;-0,00164972
3970,7134;-0,00163149
3971,6775;-0,00162218
3972,6418;-0,00162179
3973,6060;-0,00163121
3974,5703;-0,00165091
3975,5344;-0,00167893
3976,4988;-0,00171059
3977,4629;-0,00174033
3978,4272;-0,00176438
3979,3914;-0,00178259
3980,3557;-0,00179861
3981,3198;-0,00181811
3982,2842;-0,00184521
3983,2483;-0,00187868
3984,2126;-0,00191026
3985,1768;-0,00192725
3986,1411;-0,00191852
3987,1052;-0,00188106
3988,0696;-0,00182328
3989,0337;-0,00176189
3989,9980;-0,00171498
3990,9622;-0,00169412
3991,9265;-0,00170118
3992,8906;-0,00173083
3993,8550;-0,00177554
3994,8191;-0,00182875
3995,7834;-0,00188463
3996,7476;-0,00193656
3997,7119;-0,00197709
3998,6760;-0,00200038
3999,6404;-0,0020051
4000,6045;-0,00169724

##### Extended Information
[Comments]
Sample name
Comment
Username
Division
Organization;UNIVERSIDAD INDUSTRIAL DE SANTANDER

[Detailed Information]
Creation date;19/03/2025 2:41 p.m.

Data array type;Linear data array
Horizontal axis;Wavenumber [cm-1]
Vertical axis;Abs
Start;399,193 cm-1
End;4000,6 cm-1
Data interval;0,964233 cm-1
Data points;3736    

[Measurement Information]
Model name;FT/IR-4X1typeA
Serial No.;A035162111

Accessory;ATR PRO 4X
Accessory S/N;A021162126
Incident angle;45 deg

Measurement date;19/03/2025 2:40 p.m.

Light source;Standard
Detector;TGS
Accumulation;40
Resolution;4 cm-1
Zero filling;On
Apodization;Cosine
Gain;Auto (8)
Aperture;Auto (7 mm)
Scan speed;Auto (2 mm/sec)
Filter;Auto (12800 Hz)

