TITLE;
DATA TYPE;INFRARED SPECTRUM
ORIGIN;JASCO
OWNER;
DATE;25/03/19
TIME;14:52:07
SPECTROMETER/DATA SYSTEM;
LOCALE;9226
RESOLUTION;
DELTAX;0,964233
XUNITS;1/CM
YUNITS;ABSORBANCE
FIRSTX;  399,1927
LASTX; 4000,6047
NPOINTS;    3736
FIRSTY;     0,25068
MAXY;     0,30724
MINY;    -0,00558
XYDATA
399,1927;0,250682
400,1569;0,250246
401,1211;0,247254
402,0854;0,24319
403,0496;0,239468
404,0138;0,23705
404,9781;0,236313
405,9423;0,237025
406,9065;0,238512
407,8708;0,240042
408,8350;0,241183
409,7992;0,241895
410,7635;0,24236
411,7277;0,242768
412,6919;0,243219
413,6562;0,243767
414,6204;0,244518
415,5846;0,245677
416,5489;0,2475
417,5131;0,250103
418,4773;0,253128
419,4416;0,255722
420,4058;0,257228
421,3700;0,257714
422,3343;0,257602
423,2985;0,257188
424,2627;0,256561
425,2270;0,255732
426,1912;0,254767
427,1554;0,253823
428,1197;0,253077
429,0839;0,252626
430,0481;0,252443
431,0124;0,252393
431,9766;0,252306
432,9408;0,252048
433,9051;0,25157
434,8693;0,250902
435,8335;0,250121
436,7978;0,249311
437,7620;0,248546
438,7262;0,247887
439,6905;0,247401
440,6547;0,247156
441,6189;0,247182
442,5832;0,247407
443,5474;0,247614
444,5116;0,247503
445,4759;0,246841
446,4401;0,245582
447,4043;0,243883
448,3686;0,242029
449,3328;0,240333
450,2970;0,239036
451,2613;0,238251
452,2255;0,237936
453,1897;0,237941
454,1540;0,23806
455,1182;0,238081
456,0824;0,237828
457,0467;0,237227
458,0109;0,236375
458,9751;0,235527
459,9394;0,234936
460,9036;0,234702
461,8678;0,234732
462,8321;0,234824
463,7963;0,234754
464,7605;0,234369
465,7248;0,23365
466,6890;0,232737
467,6532;0,231873
468,6175;0,23131
469,5817;0,231233
470,5459;0,231691
471,5102;0,23254
472,4744;0,233453
473,4386;0,23406
474,4029;0,234166
475,3671;0,233842
476,3313;0,233346
477,2956;0,232972
478,2598;0,232912
479,2240;0,233202
480,1883;0,233722
481,1525;0,234271
482,1167;0,234678
483,0810;0,234876
484,0452;0,234942
485,0094;0,235055
485,9737;0,235406
486,9379;0,236106
487,9021;0,237142
488,8664;0,238395
489,8306;0,239665
490,7948;0,240733
491,7591;0,24142
492,7233;0,241653
493,6875;0,241496
494,6518;0,241112
495,6160;0,240713
496,5802;0,240502
497,5445;0,240633
498,5087;0,241182
499,4729;0,242123
500,4372;0,24331
501,4014;0,244508
502,3656;0,245479
503,3299;0,246101
504,2941;0,246426
505,2583;0,246634
506,2226;0,246926
507,1868;0,24743
508,1510;0,248154
509,1153;0,249009
510,0795;0,24987
511,0437;0,250654
512,0080;0,251365
512,9722;0,252083
513,9365;0,252917
514,9007;0,253929
515,8649;0,255072
516,8292;0,256164
517,7934;0,256942
518,7576;0,257213
519,7219;0,256983
520,6861;0,256461
521,6503;0,255938
522,6146;0,255654
523,5788;0,25572
524,5430;0,256094
525,5073;0,256605
526,4715;0,257028
527,4357;0,257185
528,4000;0,257012
529,3642;0,256551
530,3284;0,255896
531,2927;0,255157
532,2569;0,25444
533,2211;0,253835
534,1854;0,253407
535,1496;0,253173
536,1138;0,253107
537,0781;0,25315
538,0423;0,253253
539,0065;0,253398
539,9708;0,253616
540,9350;0,253964
541,8992;0,254488
542,8635;0,255186
543,8277;0,255985
544,7919;0,256768
545,7562;0,257414
546,7204;0,257849
547,6846;0,258076
548,6489;0,258169
549,6131;0,258234
550,5773;0,258381
551,5416;0,258692
552,5058;0,25921
553,4700;0,259925
554,4343;0,260749
555,3985;0,261516
556,3627;0,262009
557,3270;0,262018
558,2912;0,261413
559,2554;0,260188
560,2197;0,258464
561,1839;0,256456
562,1481;0,254407
563,1124;0,252534
564,0766;0,250975
565,0408;0,249764
566,0051;0,248846
566,9693;0,248112
567,9335;0,247458
568,8978;0,246828
569,8620;0,246238
570,8262;0,245751
571,7905;0,245426
572,7547;0,245282
573,7189;0,245284
574,6832;0,245356
575,6474;0,245406
576,6116;0,245367
577,5759;0,24521
578,5401;0,244951
579,5043;0,244635
580,4686;0,244316
581,4328;0,244032
582,3970;0,243791
583,3613;0,243561
584,3255;0,243301
585,2897;0,242983
586,2540;0,24263
587,2182;0,242304
588,1824;0,242073
589,1467;0,241962
590,1109;0,241929
591,0751;0,241871
592,0394;0,241676
593,0036;0,241286
593,9678;0,240721
594,9321;0,240054
595,8963;0,239356
596,8605;0,238665
597,8248;0,237984
598,7890;0,237305
599,7532;0,236633
600,7175;0,235984
601,6817;0,235371
602,6459;0,23479
603,6102;0,234225
604,5744;0,233663
605,5386;0,23311
606,5029;0,232581
607,4671;0,232069
608,4313;0,231529
609,3956;0,230893
610,3598;0,230113
611,3240;0,22922
612,2883;0,228326
613,2525;0,227571
614,2167;0,227023
615,1810;0,2266
616,1452;0,226073
617,1094;0,225161
618,0737;0,223699
619,0379;0,221742
620,0021;0,219537
620,9664;0,217376
621,9306;0,215473
622,8948;0,213898
623,8591;0,212611
624,8233;0,21147
625,7875;0,210504
626,7518;0,209672
627,7160;0,208948
628,6802;0,208292
629,6445;0,207655
630,6087;0,206999
631,5729;0,206318
632,5372;0,205637
633,5014;0,20499
634,4656;0,204392
635,4299;0,203833
636,3941;0,203294
637,3583;0,202771
638,3226;0,202278
639,2868;0,201839
640,2510;0,201456
641,2153;0,201106
642,1795;0,200756
643,1437;0,200386
644,1080;0,200011
645,0722;0,199665
646,0364;0,199374
647,0007;0,199131
647,9649;0,198903
648,9291;0,198655
649,8934;0,198387
650,8576;0,198151
651,8218;0,198029
652,7861;0,198098
653,7503;0,19839
654,7145;0,198871
655,6788;0,199457
656,6430;0,200053
657,6072;0,200597
658,5715;0,201067
659,5357;0,201433
660,4999;0,201607
661,4642;0,201438
662,4284;0,200767
663,3926;0,199506
664,3569;0,197732
665,3211;0,195835
666,2853;0,194567
667,2496;0,194567
668,2138;0,195328
669,1780;0,195421
670,1423;0,194427
671,1065;0,19286
672,0707;0,190963
673,0350;0,188713
673,9992;0,186185
674,9634;0,183596
675,9277;0,181163
676,8919;0,178981
677,8561;0,177019
678,8204;0,175211
679,7846;0,173546
680,7488;0,172055
681,7131;0,170763
682,6773;0,169636
683,6415;0,168595
684,6058;0,167572
685,5700;0,166548
686,5342;0,165556
687,4985;0,164651
688,4627;0,163885
689,4269;0,163262
690,3912;0,162757
691,3554;0,162329
692,3196;0,161933
693,2839;0,161524
694,2481;0,16107
695,2123;0,160553
696,1766;0,159969
697,1408;0,159327
698,1050;0,158641
699,0693;0,157927
700,0335;0,157203
700,9977;0,156482
701,9620;0,155762
702,9262;0,155033
703,8904;0,154257
704,8547;0,153426
705,8189;0,152543
706,7831;0,151617
707,7474;0,150656
708,7116;0,14966
709,6758;0,14862
710,6401;0,147525
711,6043;0,146376
712,5685;0,145189
713,5328;0,144003
714,4970;0,142869
715,4612;0,140718
716,4255;0,140039
717,3897;0,139518
718,3539;0,138972
719,3182;0,138157
720,2824;0,136888
721,2466;0,135156
722,2109;0,133137
723,1751;0,131098
724,1393;0,129253
725,1036;0,127687
726,0678;0,126357
727,0320;0,125161
727,9963;0,124011
728,9605;0,122875
729,9247;0,121771
730,8890;0,12073
731,8532;0,119766
732,8174;0,118872
733,7817;0,118036
734,7459;0,117256
735,7101;0,116547
736,6744;0,115922
737,6386;0,115379
738,6028;0,114896
739,5671;0,114432
740,5313;0,113945
741,4955;0,113404
742,4598;0,112796
743,4240;0,112128
744,3882;0,111425
745,3525;0,110714
746,3167;0,110024
747,2809;0,109365
748,2452;0,108735
749,2094;0,108122
750,1736;0,107511
751,1379;0,1069
752,1021;0,106296
753,0663;0,10571
754,0306;0,105149
754,9948;0,104605
755,9590;0,104059
756,9233;0,10349
757,8875;0,102887
758,8517;0,102257
759,8160;0,101623
760,7802;0,101017
761,7444;0,100462
762,7087;0,0999658
763,6729;0,0995156
764,6371;0,0990886
765,6014;0,0986625
766,5656;0,0982259
767,5298;0,0977816
768,4941;0,0973411
769,4583;0,0969147
770,4225;0,0965024
771,3868;0,0960923
772,3510;0,0956678
773,3152;0,0952182
774,2795;0,0947478
775,2437;0,094276
776,2079;0,0938273
777,1722;0,0934172
778,1364;0,0930424
779,1006;0,0926809
780,0649;0,0923033
781,0291;0,0918888
781,9933;0,0914343
782,9576;0,0909541
783,9218;0,0904697
784,8860;0,0899986
785,8503;0,0895481
786,8145;0,0891168
787,7787;0,0886992
788,7430;0,0882895
789,7072;0,0878823
790,6714;0,0874743
791,6357;0,0870682
792,5999;0,0866762
793,5641;0,0863178
794,5284;0,0860091
795,4926;0,0857487
796,4568;0,0855104
797,4211;0,0852523
798,3853;0,0849394
799,3495;0,0845658
800,3138;0,0841611
801,2780;0,0837756
802,2422;0,0834522
803,2065;0,0832041
804,1707;0,0830107
805,1349;0,0828328
806,0992;0,0826355
807,0634;0,0824035
808,0276;0,0821417
808,9919;0,0818651
809,9561;0,0815878
810,9203;0,0813178
811,8846;0,0810597
812,8488;0,0808191
813,8130;0,0806035
814,7773;0,0804182
815,7415;0,0802614
816,7057;0,0801233
817,6700;0,0799917
818,6342;0,0798598
819,5984;0,0797293
820,5627;0,0796066
821,5269;0,0794941
822,4911;0,0793842
823,4554;0,0792623
824,4196;0,0791166
825,3839;0,0789478
826,3481;0,0787694
827,3123;0,0785972
828,2766;0,0784357
829,2408;0,0782721
830,2050;0,0780842
831,1693;0,0778558
832,1335;0,0775886
833,0977;0,0773016
834,0620;0,077017
835,0262;0,076745
835,9904;0,0764785
836,9547;0,0762013
837,9189;0,0759024
838,8831;0,0755846
839,8474;0,0752615
840,8116;0,0749455
841,7758;0,0746376
842,7401;0,0743284
843,7043;0,0740073
844,6685;0,0736744
845,6328;0,0733443
846,5970;0,0730389
847,5612;0,072777
848,5255;0,0725655
849,4897;0,0724008
850,4539;0,0722744
851,4182;0,0721792
852,3824;0,0721096
853,3466;0,0720571
854,3109;0,0720069
855,2751;0,0719394
856,2393;0,0718386
857,2036;0,0717008
858,1678;0,0715387
859,1320;0,0713765
860,0963;0,0712401
861,0605;0,0711463
862,0247;0,0710992
862,9890;0,0710921
863,9532;0,0711154
864,9174;0,0711628
865,8817;0,071234
866,8459;0,0713317
867,8101;0,0714583
868,7744;0,0716135
869,7386;0,0717937
870,7028;0,0719949
871,6671;0,0722124
872,6313;0,0724402
873,5955;0,0726697
874,5598;0,0728899
875,5240;0,0730928
876,4882;0,073279
877,4525;0,0734613
878,4167;0,0736637
879,3809;0,0739146
880,3452;0,0742401
881,3094;0,0746603
882,2736;0,07519
883,2379;0,0758406
884,2021;0,0766192
885,1663;0,0775252
886,1306;0,0785458
887,0948;0,0796561
888,0590;0,0808247
889,0233;0,0820212
889,9875;0,08322
890,9517;0,0843982
891,9160;0,0855296
892,8802;0,0865805
893,8444;0,0875115
894,8087;0,0882844
895,7729;0,0888703
896,7371;0,0892526
897,7014;0,0894261
898,6656;0,0893935
899,6298;0,0891643
900,5941;0,0887563
901,5583;0,0881982
902,5225;0,0875295
903,4868;0,0867978
904,4510;0,0860526
905,4152;0,0853401
906,3795;0,0846981
907,3437;0,084152
908,3079;0,083713
909,2722;0,083379
910,2364;0,083138
911,2007;0,0829745
912,1649;0,0828759
913,1292;0,0828357
914,0934;0,0828538
915,0576;0,0829344
916,0219;0,0830831
916,9861;0,0833049
917,9503;0,0836008
918,9146;0,0839651
919,8788;0,0843821
920,8430;0,0848265
921,8073;0,0852681
922,7715;0,085679
923,7357;0,0860412
924,7000;0,0863489
925,6642;0,0866067
926,6284;0,0868225
927,5927;0,0870034
928,5569;0,0871526
929,5211;0,0872728
930,4854;0,0873693
931,4496;0,0874542
932,4138;0,087546
933,3781;0,087668
934,3423;0,0878429
935,3065;0,0880883
936,2708;0,0884141
937,2350;0,0888229
938,1992;0,0893132
939,1635;0,089884
940,1277;0,0905385
941,0919;0,0912847
942,0562;0,0921325
943,0204;0,09309
943,9846;0,0941584
944,9489;0,0953299
945,9131;0,0965889
946,8773;0,0979163
947,8416;0,0992957
948,8058;0,100719
949,7700;0,10219
950,7343;0,103723
951,6985;0,105339
952,6627;0,107059
953,6270;0,108895
954,5912;0,110851
955,5554;0,112923
956,5197;0,115101
957,4839;0,117375
958,4481;0,119736
959,4124;0,122175
960,3766;0,12468
961,3408;0,127233
962,3051;0,129818
963,2693;0,132421
964,2335;0,135041
965,1978;0,137691
966,1620;0,140399
967,1262;0,143195
968,0905;0,146108
969,0547;0,149161
970,0189;0,152372
970,9832;0,155764
971,9474;0,159366
972,9116;0,163215
973,8759;0,167351
974,8401;0,171808
975,8043;0,176604
976,7686;0,181732
977,7328;0,18715
978,6970;0,192772
979,6613;0,198462
980,6255;0,20404
981,5897;0,209307
982,5540;0,214088
983,5182;0,218274
984,4824;0,221852
985,4467;0,224898
986,4109;0,227548
987,3751;0,229947
988,3394;0,232211
989,3036;0,2344
990,2678;0,236524
991,2321;0,238555
992,1963;0,240455
993,1605;0,242195
994,1248;0,243765
995,0890;0,245175
996,0532;0,246441
997,0175;0,247575
997,9817;0,248574
998,9459;0,249428
999,9102;0,250142
1000,8744;0,250751
1001,8386;0,251339
1002,8029;0,252021
1003,7671;0,25292
1004,7313;0,254128
1005,6956;0,25569
1006,6598;0,257603
1007,6240;0,259833
1008,5883;0,262338
1009,5525;0,265086
1010,5167;0,268046
1011,4810;0,271185
1012,4452;0,274442
1013,4094;0,27773
1014,3737;0,280943
1015,3379;0,283977
1016,3021;0,286755
1017,2664;0,289239
1018,2306;0,291433
1019,1948;0,293371
1020,1591;0,295104
1021,1233;0,296688
1022,0875;0,298173
1023,0518;0,299601
1024,0160;0,300999
1024,9802;0,302372
1025,9445;0,3037
1026,9087;0,304936
1027,8729;0,306006
1028,8372;0,306814
1029,8014;0,307241
1030,7656;0,30715
1031,7299;0,306399
1032,6941;0,304873
1033,6583;0,302523
1034,6226;0,299409
1035,5868;0,295708
1036,5510;0,291693
1037,5153;0,287681
1038,4795;0,283966
1039,4437;0,280772
1040,4080;0,278227
1041,3722;0,276364
1042,3364;0,275131
1043,3007;0,274419
1044,2649;0,274089
1045,2291;0,273994
1046,1934;0,274004
1047,1576;0,274012
1048,1218;0,273928
1049,0861;0,273672
1050,0503;0,273155
1051,0145;0,272297
1051,9788;0,271037
1052,9430;0,269357
1053,9072;0,267282
1054,8715;0,264852
1055,8357;0,262083
1056,7999;0,25894
1057,7642;0,255339
1058,7284;0,251191
1059,6926;0,246463
1060,6569;0,241217
1061,6211;0,235625
1062,5853;0,229924
1063,5496;0,224363
1064,5138;0,219139
1065,4780;0,214369
1066,4423;0,210083
1067,4065;0,206248
1068,3707;0,202789
1069,3350;0,199619
1070,2992;0,196653
1071,2634;0,193808
1072,2277;0,191011
1073,1919;0,18819
1074,1561;0,185291
1075,1204;0,182277
1076,0846;0,179146
1077,0488;0,175934
1078,0131;0,172714
1078,9773;0,169586
1079,9415;0,166655
1080,9058;0,164015
1081,8700;0,161724
1082,8342;0,1598
1083,7985;0,158226
1084,7627;0,156963
1085,7269;0,155964
1086,6912;0,155192
1087,6554;0,154621
1088,6196;0,154239
1089,5839;0,154036
1090,5481;0,154006
1091,5123;0,154137
1092,4766;0,154413
1093,4408;0,154818
1094,4050;0,155336
1095,3693;0,155954
1096,3335;0,156658
1097,2977;0,157426
1098,2620;0,158224
1099,2262;0,159003
1100,1904;0,159703
1101,1547;0,160262
1102,1189;0,160632
1103,0831;0,160788
1104,0474;0,160739
1105,0116;0,160522
1105,9758;0,160188
1106,9401;0,159779
1107,9043;0,159305
1108,8685;0,158722
1109,8328;0,157932
1110,7970;0,156806
1111,7612;0,155231
1112,7255;0,153159
1113,6897;0,150649
1114,6539;0,147852
1115,6182;0,144981
1116,5824;0,142238
1117,5466;0,139764
1118,5109;0,137601
1119,4751;0,135704
1120,4393;0,133959
1121,4036;0,132229
1122,3678;0,130386
1123,3320;0,128333
1124,2963;0,126026
1125,2605;0,123468
1126,2247;0,12071
1127,1890;0,117832
1128,1532;0,114919
1129,1174;0,112044
1130,0817;0,109256
1131,0459;0,106575
1132,0101;0,104007
1132,9744;0,101559
1133,9386;0,0992518
1134,9028;0,0971261
1135,8671;0,0952392
1136,8313;0,0936522
1137,7955;0,0924152
1138,7598;0,0915553
1139,7240;0,0910706
1140,6882;0,0909323
1141,6525;0,0910926
1142,6167;0,0914936
1143,5809;0,0920769
1144,5452;0,0927899
1145,5094;0,0935916
1146,4736;0,0944568
1147,4379;0,0953776
1148,4021;0,0963603
1149,3663;0,0974162
1150,3306;0,098549
1151,2948;0,0997442
1152,2590;0,100966
1153,2233;0,102164
1154,1875;0,103285
1155,1517;0,104276
1156,1160;0,105089
1157,0802;0,105666
1158,0444;0,105928
1159,0087;0,105769
1159,9729;0,105068
1160,9371;0,103709
1161,9014;0,101618
1162,8656;0,0987836
1163,8298;0,0952765
1164,7941;0,0912415
1165,7583;0,0868745
1166,7225;0,0823905
1167,6868;0,0779904
1168,6510;0,0738355
1169,6152;0,0700332
1170,5795;0,0666348
1171,5437;0,0636439
1172,5079;0,0610319
1173,4722;0,0587549
1174,4364;0,056768
1175,4006;0,0550332
1176,3649;0,0535218
1177,3291;0,0522113
1178,2933;0,0510824
1179,2576;0,0501169
1180,2218;0,0492977
1181,1860;0,0486103
1182,1503;0,0480434
1183,1145;0,0475892
1184,0787;0,0472428
1185,0430;0,0470023
1186,0072;0,0468692
1186,9714;0,0468479
1187,9357;0,0469447
1188,8999;0,047165
1189,8641;0,047511
1190,8284;0,0479799
1191,7926;0,0485643
1192,7568;0,0492538
1193,7211;0,0500357
1194,6853;0,0508961
1195,6495;0,0518191
1196,6138;0,0527845
1197,5780;0,0537679
1198,5422;0,0547418
1199,5065;0,0553975
1200,4707;0,0563089
1201,4349;0,0571476
1202,3992;0,0579031
1203,3634;0,0585679
1204,3276;0,0591344
1205,2919;0,0595948
1206,2561;0,0599457
1207,2203;0,0601964
1208,1846;0,0603744
1209,1488;0,0605265
1210,1130;0,0607107
1211,0773;0,0609844
1212,0415;0,061391
1213,0057;0,0619519
1213,9700;0,0626651
1214,9342;0,0635115
1215,8984;0,0644629
1216,8627;0,0654885
1217,8269;0,0665588
1218,7911;0,067652
1219,7554;0,0687529
1220,7196;0,0698506
1221,6838;0,0709361
1222,6481;0,0719993
1223,6123;0,073027
1224,5765;0,0740057
1225,5408;0,0749255
1226,5050;0,0757843
1227,4692;0,0765891
1228,4335;0,0773519
1229,3977;0,0780821
1230,3619;0,0787791
1231,3262;0,0794293
1232,2904;0,0800105
1233,2546;0,0805012
1234,2189;0,0808911
1235,1831;0,0811868
1236,1473;0,0814096
1237,1116;0,0815867
1238,0758;0,0817398
1239,0400;0,0818779
1240,0043;0,0819973
1240,9685;0,0820861
1241,9327;0,082132
1242,8970;0,0821262
1243,8612;0,0820635
1244,8254;0,0819399
1245,7897;0,0817514
1246,7539;0,0814966
1247,7181;0,0811799
1248,6824;0,0808142
1249,6466;0,0804197
1250,6108;0,0800192
1251,5751;0,0796341
1252,5393;0,0792812
1253,5035;0,0789718
1254,4678;0,07871
1255,4320;0,0784907
1256,3962;0,0782969
1257,3605;0,0781014
1258,3247;0,077872
1259,2889;0,0775823
1260,2532;0,0772197
1261,2174;0,0767882
1262,1816;0,0763033
1263,1459;0,0757832
1264,1101;0,0752424
1265,0743;0,0746896
1266,0386;0,0741295
1267,0028;0,0735632
1267,9670;0,0729884
1268,9313;0,0723981
1269,8955;0,071782
1270,8597;0,0711304
1271,8240;0,0704398
1272,7882;0,0697176
1273,7524;0,068982
1274,7167;0,0682579
1275,6809;0,0675696
1276,6451;0,0669308
1277,6094;0,066338
1278,5736;0,0657688
1279,5378;0,0651902
1280,5021;0,0645744
1281,4663;0,0639129
1282,4305;0,0632228
1283,3948;0,0625391
1284,3590;0,0618998
1285,3232;0,0613312
1286,2875;0,0608424
1287,2517;0,0604281
1288,2159;0,060078
1289,1802;0,0597844
1290,1444;0,0595468
1291,1086;0,0593713
1292,0729;0,0592687
1293,0371;0,059253
1294,0013;0,0593384
1294,9656;0,0595368
1295,9298;0,0598535
1296,8940;0,0602867
1297,8583;0,0608287
1298,8225;0,06147
1299,7867;0,0622019
1300,7510;0,0630166
1301,7152;0,0639102
1302,6794;0,0648772
1303,6437;0,0659126
1304,6079;0,0670142
1305,5721;0,0681801
1306,5364;0,069406
1307,5006;0,0706835
1308,4648;0,0719989
1309,4291;0,0733317
1310,3933;0,0746528
1311,3575;0,0759218
1312,3218;0,0770879
1313,2860;0,0780954
1314,2502;0,0788922
1315,2145;0,0794341
1316,1787;0,0796853
1317,1429;0,0796238
1318,1072;0,0792547
1319,0714;0,0786264
1320,0356;0,0778296
1320,9999;0,0769736
1321,9641;0,0761516
1322,9283;0,0754203
1323,8926;0,0748034
1324,8568;0,0743076
1325,8210;0,0739353
1326,7853;0,0736879
1327,7495;0,0735599
1328,7137;0,0735321
1329,6780;0,073569
1330,6422;0,0736257
1331,6064;0,0736611
1332,5707;0,0736491
1333,5349;0,0735859
1334,4991;0,0734794
1335,4634;0,0733282
1336,4276;0,0730974
1337,3918;0,0727074
1338,3561;0,0720587
1339,3203;0,0711078
1340,2845;0,0699321
1341,2488;0,0687011
1342,2130;0,0675743
1343,1772;0,0666336
1344,1415;0,0658908
1345,1057;0,0653261
1346,0699;0,0649189
1347,0342;0,0646578
1347,9984;0,0645437
1348,9626;0,0645829
1349,9269;0,0647764
1350,8911;0,0651087
1351,8553;0,0655463
1352,8196;0,0660458
1353,7838;0,0665696
1354,7480;0,0671011
1355,7123;0,0676501
1356,6765;0,0682437
1357,6407;0,0689073
1358,6050;0,0696508
1359,5692;0,0704573
1360,5334;0,0712689
1361,4977;0,0719864
1362,4619;0,0725246
1363,4261;0,0728916
1364,3904;0,0731855
1365,3546;0,0735031
1366,3188;0,0738758
1367,2831;0,0742744
1368,2473;0,0746437
1369,2115;0,0749323
1370,1758;0,0751064
1371,1400;0,0751447
1372,1042;0,0750212
1373,0685;0,0746973
1374,0327;0,0741442
1374,9969;0,0733839
1375,9612;0,072489
1376,9254;0,0715196
1377,8896;0,0704764
1378,8539;0,0693271
1379,8181;0,0680711
1380,7823;0,0667734
1381,7466;0,0655334
1382,7108;0,064418
1383,6750;0,0634195
1384,6393;0,0624716
1385,6035;0,0614994
1386,5677;0,0604817
1387,5320;0,0594973
1388,4962;0,0586888
1389,4604;0,0581447
1390,4247;0,0578398
1391,3889;0,0576968
1392,3531;0,0576672
1393,3174;0,0577435
1394,2816;0,0579121
1395,2458;0,0581121
1396,2101;0,0582582
1397,1743;0,0583048
1398,1385;0,0582846
1399,1028;0,058286
1400,0670;0,058394
1401,0313;0,0586415
1401,9955;0,0590027
1402,9597;0,0594228
1403,9240;0,0598547
1404,8882;0,0602834
1405,8524;0,0607311
1406,8167;0,0612357
1407,7809;0,0618148
1408,7451;0,0624542
1409,7094;0,0631328
1410,6736;0,0638496
1411,6378;0,0646214
1412,6021;0,0654554
1413,5663;0,0663223
1414,5305;0,0671635
1415,4948;0,0679251
1416,4590;0,0685764
1417,4232;0,0690915
1418,3875;0,0694546
1419,3517;0,0697327
1420,3159;0,0700571
1421,2802;0,0704588
1422,2444;0,0708124
1423,2086;0,0709556
1424,1729;0,0708115
1425,1371;0,0704142
1426,1013;0,0698507
1427,0656;0,0691846
1428,0298;0,0684279
1428,9940;0,0675743
1429,9583;0,0666514
1430,9225;0,0657205
1431,8867;0,0648084
1432,8510;0,0638552
1433,8152;0,0627493
1434,7794;0,0614139
1435,7437;0,0598995
1436,7079;0,0584525
1437,6721;0,057425
1438,6364;0,0569895
1439,6006;0,0570065
1440,5648;0,0572064
1441,5291;0,0574042
1442,4933;0,0575609
1443,4575;0,0577274
1444,4218;0,0579588
1445,3860;0,0582615
1446,3502;0,0586002
1447,3145;0,0589457
1448,2787;0,0593171
1449,2429;0,0597671
1450,2072;0,0603109
1451,1714;0,06087
1452,1356;0,0613043
1453,0999;0,061506
1454,0641;0,0614735
1455,0283;0,0612796
1455,9926;0,0608851
1456,9568;0,0600998
1457,9210;0,0591211
1458,8853;0,0585595
1459,8495;0,0585595
1460,8137;0,0587412
1461,7780;0,0587049
1462,7422;0,0582506
1463,7064;0,0573621
1464,6707;0,056173
1465,6349;0,0549369
1466,5991;0,0538706
1467,5634;0,0529684
1468,5276;0,0520415
1469,4918;0,0508958
1470,4561;0,049425
1471,4203;0,0475776
1472,3845;0,0453358
1473,3488;0,0428589
1474,3130;0,0405493
1475,2772;0,0387312
1476,2415;0,0374112
1477,2057;0,0364183
1478,1699;0,0355913
1479,1342;0,0348359
1480,0984;0,0341119
1481,0626;0,03342
1482,0269;0,0327984
1482,9911;0,0323059
1483,9553;0,0319911
1484,9196;0,0318742
1485,8838;0,0319505
1486,8480;0,0321777
1487,8123;0,0324208
1488,7765;0,0324663
1489,7407;0,0322534
1490,7050;0,0320144
1491,6692;0,0319944
1492,6334;0,0322182
1493,5977;0,0325948
1494,5619;0,0330821
1495,5261;0,0337193
1496,4904;0,0345432
1497,4546;0,0355205
1498,4188;0,0366007
1499,3831;0,0377501
1500,3473;0,03886
1501,3115;0,039733
1502,2758;0,0402104
1503,2400;0,0403161
1504,2042;0,0403457
1505,1685;0,040785
1506,1327;0,0417896
1507,0969;0,0426285
1508,0612;0,0426835
1509,0254;0,0424078
1509,9896;0,0422429
1510,9539;0,0421592
1511,9181;0,0420334
1512,8823;0,0418421
1513,8466;0,0416286
1514,8108;0,0414111
1515,7750;0,0411346
1516,7393;0,0407118
1517,7035;0,0401046
1518,6677;0,0393621
1519,6320;0,0385971
1520,5962;0,0379352
1521,5604;0,0374728
1522,5247;0,0372455
1523,4889;0,0372101
1524,4531;0,0372742
1525,4174;0,0373671
1526,3816;0,0374826
1527,3458;0,0376521
1528,3101;0,0378842
1529,2743;0,0381527
1530,2385;0,0384489
1531,2028;0,0388292
1532,1670;0,0393793
1533,1312;0,040111
1534,0955;0,0409111
1535,0597;0,0416051
1536,0239;0,0420602
1536,9882;0,0422894
1537,9524;0,0425298
1538,9166;0,043151
1539,8809;0,0441716
1540,8451;0,0448638
1541,8093;0,0447261
1542,7736;0,0442192
1543,7378;0,0437919
1544,7020;0,043497
1545,6663;0,043295
1546,6305;0,0431851
1547,5947;0,0431624
1548,5590;0,043178
1549,5232;0,0431633
1550,4874;0,0430813
1551,4517;0,0429525
1552,4159;0,0428184
1553,3801;0,042672
1554,3444;0,0424347
1555,3086;0,042015
1556,2728;0,0413598
1557,2371;0,0403656
1558,2013;0,0388486
1559,1655;0,0372744
1560,1298;0,0368239
1561,0940;0,0377234
1562,0582;0,039224
1563,0225;0,0406297
1563,9867;0,0416245
1564,9509;0,0421787
1565,9152;0,0424174
1566,8794;0,0425242
1567,8436;0,0426698
1568,8079;0,0429635
1569,7721;0,0434413
1570,7363;0,0440629
1571,7006;0,0447166
1572,6648;0,0452843
1573,6290;0,045732
1574,5933;0,0461263
1575,5575;0,046541
1576,5217;0,0469919
1577,4860;0,047513
1578,4502;0,0481521
1579,4144;0,0488564
1580,3787;0,0495124
1581,3429;0,0500639
1582,3071;0,0505443
1583,2714;0,0510315
1584,2356;0,0515893
1585,1998;0,0522401
1586,1641;0,0529699
1587,1283;0,0537489
1588,0925;0,0545439
1589,0568;0,055321
1590,0210;0,056044
1590,9852;0,0566756
1591,9495;0,057177
1592,9137;0,0575101
1593,8779;0,0576472
1594,8422;0,0575894
1595,8064;0,0573802
1596,7706;0,0570946
1597,7349;0,0568082
1598,6991;0,0565669
1599,6633;0,0563769
1600,6276;0,0562162
1601,5918;0,056061
1602,5560;0,0559105
1603,5203;0,0557905
1604,4845;0,0557302
1605,4487;0,0557329
1606,4130;0,0557712
1607,3772;0,0558111
1608,3414;0,0558458
1609,3057;0,05591
1610,2699;0,0560441
1611,2341;0,0562367
1612,1984;0,0564166
1613,1626;0,0565181
1614,1268;0,056552
1615,0911;0,0566113
1616,0553;0,0568108
1617,0195;0,0572414
1617,9838;0,057933
1618,9480;0,0587927
1619,9122;0,0596457
1620,8765;0,060367
1621,8407;0,0609408
1622,8049;0,0614175
1623,7692;0,0618498
1624,7334;0,062272
1625,6976;0,0627061
1626,6619;0,0631685
1627,6261;0,0636764
1628,5903;0,064234
1629,5546;0,0647996
1630,5188;0,0652768
1631,4830;0,0655689
1632,4473;0,0656667
1633,4115;0,0656925
1634,3757;0,0658082
1635,3400;0,0660254
1636,3042;0,0662503
1637,2684;0,0665489
1638,2327;0,067024
1639,1969;0,0675981
1640,1611;0,0681078
1641,1254;0,0684368
1642,0896;0,0685567
1643,0538;0,06853
1644,0181;0,0684976
1644,9823;0,0685945
1645,9465;0,0688006
1646,9108;0,0689476
1647,8750;0,0689128
1648,8392;0,0686211
1649,8035;0,0679613
1650,7677;0,06687
1651,7319;0,065389
1652,6962;0,0636135
1653,6604;0,0619339
1654,6246;0,0611181
1655,5889;0,0612961
1656,5531;0,061821
1657,5173;0,0620774
1658,4816;0,061805
1659,4458;0,0610151
1660,4100;0,0598456
1661,3743;0,0584724
1662,3385;0,0571
1663,3027;0,0559376
1664,2670;0,0550754
1665,2312;0,0544206
1666,1954;0,053789
1667,1597;0,0530157
1668,1239;0,0519977
1669,0881;0,0507224
1670,0524;0,0493189
1671,0166;0,0479854
1671,9808;0,0467815
1672,9451;0,0455922
1673,9093;0,0443168
1674,8735;0,0430434
1675,8378;0,0420386
1676,8020;0,0415283
1677,7662;0,0414662
1678,7305;0,0415503
1679,6947;0,041427
1680,6589;0,0408507
1681,6232;0,0397062
1682,5874;0,0379725
1683,5516;0,0358314
1684,5159;0,0338843
1685,4801;0,0327627
1686,4443;0,0324489
1687,4086;0,0324488
1688,3728;0,0323198
1689,3370;0,0318782
1690,3013;0,0311556
1691,2655;0,0302868
1692,2297;0,029422
1693,1940;0,0286844
1694,1582;0,0281488
1695,1224;0,0278007
1696,0867;0,0274933
1697,0509;0,0269846
1698,0151;0,0261132
1698,9794;0,0250126
1699,9436;0,0241122
1700,9078;0,0238155
1701,8721;0,0241705
1702,8363;0,0248861
1703,8005;0,0255849
1704,7648;0,0260161
1705,7290;0,02614
1706,6932;0,0261062
1707,6575;0,026136
1708,6217;0,0263694
1709,5859;0,0268017
1710,5502;0,0273414
1711,5144;0,0278978
1712,4786;0,0284223
1713,4429;0,0288987
1714,4071;0,0292917
1715,3713;0,0294754
1716,3356;0,0292611
1717,2998;0,028691
1718,2640;0,0282132
1719,2283;0,0282286
1720,1925;0,0287037
1721,1567;0,0293508
1722,1210;0,0299141
1723,0852;0,0302829
1724,0494;0,0304874
1725,0137;0,0306469
1725,9779;0,0308947
1726,9421;0,0313009
1727,9064;0,0318314
1728,8706;0,0323634
1729,8348;0,03274
1730,7991;0,0328228
1731,7633;0,0325211
1732,7275;0,0318368
1733,6918;0,0309731
1734,6560;0,030314
1735,6202;0,0300845
1736,5845;0,0301424
1737,5487;0,0301822
1738,5129;0,0299968
1739,4772;0,0295666
1740,4414;0,0290159
1741,4056;0,0285023
1742,3699;0,0281053
1743,3341;0,0277873
1744,2983;0,0274482
1745,2626;0,0269969
1746,2268;0,0263708
1747,1910;0,0255009
1748,1553;0,024288
1749,1195;0,0226823
1750,0837;0,0208397
1751,0480;0,0191122
1752,0122;0,0177836
1752,9764;0,0168789
1753,9407;0,0162363
1754,9049;0,0156739
1755,8691;0,0150874
1756,8334;0,0144597
1757,7976;0,0138159
1758,7618;0,0131698
1759,7261;0,0125051
1760,6903;0,011806
1761,6545;0,0111038
1762,6188;0,0104808
1763,5830;0,0100128
1764,5472;0,00970726
1765,5115;0,00950545
1766,4757;0,00933289
1767,4399;0,00914202
1768,4042;0,00891773
1769,3684;0,00865376
1770,3326;0,0083271
1771,2969;0,00791076
1772,2611;0,00744212
1773,2253;0,00705684
1774,1896;0,00688416
1775,1538;0,00692153
1776,1180;0,0070529
1777,0823;0,0071538
1778,0465;0,00715957
1779,0107;0,00706683
1779,9750;0,00690078
1780,9392;0,00668599
1781,9034;0,00643887
1782,8677;0,00618027
1783,8319;0,00595224
1784,7961;0,00581412
1785,7604;0,0058083
1786,7246;0,00592307
1787,6888;0,00609354
1788,6531;0,00624369
1789,6173;0,00632728
1790,5815;0,0063304
1791,5458;0,00625465
1792,5100;0,00613628
1793,4742;0,00606241
1794,4385;0,00609338
1795,4027;0,00619031
1796,3669;0,00626131
1797,3312;0,00624548
1798,2954;0,00614187
1799,2596;0,00598367
1800,2239;0,00580286
1801,1881;0,00562069
1802,1523;0,00545734
1803,1166;0,00533452
1804,0808;0,00526912
1805,0450;0,00526866
1806,0093;0,00532908
1806,9735;0,00543094
1807,9377;0,00553617
1808,9020;0,00559284
1809,8662;0,00555594
1810,8304;0,00541766
1811,7947;0,00521795
1812,7589;0,0050168
1813,7231;0,00485554
1814,6874;0,0047445
1815,6516;0,00467605
1816,6158;0,00464058
1817,5801;0,00463431
1818,5443;0,00465979
1819,5085;0,00471978
1820,4728;0,00480923
1821,4370;0,00491405
1822,4012;0,00501655
1823,3655;0,00510094
1824,3297;0,00515826
1825,2939;0,00518889
1826,2582;0,00519454
1827,2224;0,00516375
1828,1866;0,00506965
1829,1509;0,00489349
1830,1151;0,00466411
1831,0793;0,00446501
1832,0436;0,00437368
1833,0078;0,00439682
1833,9720;0,0044785
1834,9363;0,00455604
1835,9005;0,00459898
1836,8647;0,00461344
1837,8290;0,00462208
1838,7932;0,00463656
1839,7574;0,00464663
1840,7217;0,00464018
1841,6859;0,0046287
1842,6501;0,00463894
1843,6144;0,00467606
1844,5786;0,00471484
1845,5428;0,00473222
1846,5071;0,0047156
1847,4713;0,00464443
1848,4355;0,00450141
1849,3998;0,00430073
1850,3640;0,004091
1851,3282;0,00392838
1852,2925;0,00384412
1853,2567;0,00383392
1854,2209;0,00387252
1855,1852;0,00393563
1856,1494;0,00400986
1857,1136;0,00408911
1858,0779;0,0041648
1859,0421;0,00422519
1860,0063;0,00426525
1860,9706;0,00429671
1861,9348;0,00434539
1862,8990;0,00443637
1863,8633;0,00458039
1864,8275;0,00477111
1865,7917;0,00498429
1866,7560;0,00516652
1867,7202;0,00523407
1868,6844;0,00512482
1869,6487;0,00486956
1870,6129;0,00457107
1871,5771;0,00430818
1872,5414;0,00409522
1873,5056;0,00391713
1874,4698;0,00377034
1875,4341;0,00366991
1876,3983;0,00363431
1877,3625;0,00366711
1878,3268;0,00375327
1879,2910;0,00386627
1880,2552;0,00398061
1881,2195;0,00407939
1882,1837;0,00415491
1883,1479;0,00420536
1884,1122;0,0042317
1885,0764;0,00423725
1886,0406;0,00422922
1887,0049;0,00421835
1887,9691;0,00421425
1888,9333;0,00422093
1889,8976;0,00423854
1890,8618;0,00426712
1891,8260;0,00430456
1892,7903;0,00434245
1893,7545;0,00436678
1894,7188;0,00436286
1895,6830;0,00432163
1896,6472;0,00424625
1897,6115;0,00415369
1898,5757;0,00406804
1899,5399;0,00401053
1900,5042;0,00399332
1901,4684;0,00401831
1902,4326;0,00407927
1903,3969;0,00416546
1904,3611;0,00426434
1905,3253;0,00436101
1906,2896;0,00443594
1907,2538;0,00446556
1908,2180;0,0044301
1909,1823;0,00432828
1910,1465;0,00418782
1911,1107;0,00405659
1912,0750;0,00397602
1913,0392;0,00396049
1914,0034;0,00399922
1914,9677;0,00407205
1915,9319;0,00416196
1916,8961;0,00425945
1917,8604;0,00436314
1918,8246;0,00447478
1919,7888;0,00458562
1920,7531;0,00466607
1921,7173;0,00467334
1922,6815;0,00457512
1923,6458;0,00437454
1924,6100;0,00411825
1925,5742;0,0038762
1926,5385;0,00370604
1927,5027;0,00362915
1928,4669;0,00362983
1929,4312;0,00366966
1930,3954;0,00370987
1931,3596;0,00373401
1932,3239;0,00375504
1933,2881;0,00380146
1934,2523;0,00388982
1935,2166;0,00400398
1936,1808;0,0040992
1937,1450;0,0041319
1938,1093;0,00409491
1939,0735;0,00403271
1940,0377;0,00402277
1941,0020;0,00412747
1941,9662;0,00434273
1942,9304;0,00458679
1943,8947;0,0047504
1944,8589;0,00476906
1945,8231;0,00465718
1946,7874;0,00448978
1947,7516;0,00435805
1948,7158;0,00432524
1949,6801;0,00439889
1950,6443;0,00452965
1951,6085;0,00463659
1952,5728;0,00464604
1953,5370;0,00452524
1954,5012;0,00429735
1955,4655;0,00403164
1956,4297;0,00381168
1957,3939;0,00369448
1958,3582;0,00368057
1959,3224;0,0037134
1960,2866;0,0037138
1961,2509;0,0036337
1962,2151;0,00349328
1963,1793;0,0033726
1964,1436;0,00336072
1965,1078;0,00349335
1966,0720;0,00371686
1967,0363;0,00390836
1968,0005;0,00394985
1968,9647;0,00380637
1969,9290;0,00354626
1970,8932;0,00329331
1971,8574;0,00315445
1972,8217;0,00317015
1973,7859;0,00330815
1974,7501;0,00349441
1975,7144;0,00366293
1976,6786;0,00378665
1977,6428;0,00387335
1978,6071;0,00393965
1979,5713;0,0039951
1980,5355;0,0040497
1981,4998;0,00412788
1982,4640;0,0042666
1983,4282;0,00449117
1984,3925;0,00478384
1985,3567;0,00507079
1986,3209;0,00524586
1987,2852;0,00522366
1988,2494;0,00499159
1989,2136;0,00462881
1990,1779;0,00427896
1991,1421;0,00408598
1992,1063;0,00412444
1993,0706;0,00436637
1994,0348;0,00470501
1994,9990;0,00501301
1995,9633;0,00519314
1996,9275;0,00519901
1997,8917;0,00503117
1998,8560;0,00472447
1999,8202;0,00433821
2000,7844;0,00395108
2001,7487;0,0036559
2002,7129;0,00354747
2003,6771;0,0036988
2004,6414;0,00412817
2005,6056;0,00476983
2006,5698;0,00547404
2007,5341;0,00605113
2008,4983;0,00634709
2009,4625;0,00630868
2010,4268;0,00600046
2011,3910;0,00557145
2012,3552;0,00519529
2013,3195;0,00501112
2014,2837;0,00508011
2015,2479;0,00536643
2016,2122;0,00575165
2017,1764;0,00608631
2018,1406;0,00625958
2019,1049;0,00624821
2020,0691;0,00611538
2021,0333;0,00596539
2021,9976;0,00588549
2022,9618;0,00590715
2023,9260;0,00600261
2024,8903;0,0061125
2025,8545;0,00618267
2026,8187;0,00618629
2027,7830;0,00612229
2028,7472;0,00600255
2029,7114;0,00584593
2030,6757;0,00568534
2031,6399;0,00557615
2032,6041;0,00558751
2033,5684;0,00577381
2034,5326;0,00614179
2035,4968;0,00663839
2036,4611;0,00716664
2037,4253;0,00761863
2038,3895;0,0079001
2039,3538;0,00794291
2040,3180;0,00771515
2041,2822;0,00723772
2042,2465;0,00659953
2043,2107;0,00595149
2044,1749;0,0054688
2045,1392;0,00529035
2046,1034;0,0054594
2047,0676;0,00589575
2048,0320;0,00642528
2048,9961;0,00686248
2049,9604;0,00709515
2050,9246;0,00711545
2051,8889;0,00699075
2052,8530;0,00681106
2053,8174;0,00664858
2054,7815;0,00654073
2055,7458;0,00649557
2056,7100;0,00650557
2057,6743;0,00655946
2058,6384;0,00664586
2059,6028;0,00675079
2060,5669;0,00685598
2061,5313;0,00694212
2062,4954;0,006995
2063,4597;0,00700964
2064,4238;0,00698909
2065,3882;0,00693975
2066,3523;0,00686847
2067,3167;0,00678458
2068,2808;0,00670506
2069,2451;0,00665648
2070,2092;0,00666839
2071,1736;0,0067587
2072,1377;0,00691793
2073,1021;0,00710548
2074,0662;0,00726208
2075,0305;0,0073346
2075,9946;0,00729934
2076,9590;0,00717102
2077,9231;0,00699297
2078,8875;0,00681605
2079,8516;0,00667984
2080,8159;0,00660534
2081,7800;0,00659852
2082,7444;0,006656
2083,7085;0,00676556
2084,6729;0,00690166
2085,6370;0,00702527
2086,6013;0,00709364
2087,5654;0,00707975
2088,5298;0,00698922
2089,4939;0,00686172
2090,4583;0,00675278
2091,4224;0,00670584
2092,3867;0,00673183
2093,3508;0,00680809
2094,3152;0,00689562
2095,2793;0,00696227
2096,2437;0,00699671
2097,2078;0,00700575
2098,1721;0,00700111
2099,1362;0,00698841
2100,1006;0,00696907
2101,0647;0,00694079
2102,0291;0,00691746
2102,9932;0,00691752
2103,9575;0,00695429
2104,9216;0,00702278
2105,8860;0,0070959
2106,8501;0,00713533
2107,8145;0,00711254
2108,7786;0,00702784
2109,7429;0,00691475
2110,7070;0,00682506
2111,6714;0,00680183
2112,6355;0,0068559
2113,5999;0,00695987
2114,5640;0,00706332
2115,5283;0,00712004
2116,4924;0,00711114
2117,4568;0,00705183
2118,4209;0,00698024
2119,3853;0,00693691
2120,3494;0,00694738
2121,3137;0,00701541
2122,2778;0,007127
2123,2422;0,00725894
2124,2063;0,00738616
2125,1707;0,00748622
2126,1348;0,00754314
2127,0991;0,00755205
2128,0632;0,00752285
2129,0276;0,0074787
2129,9917;0,0074474
2130,9561;0,00744852
2131,9202;0,00748365
2132,8845;0,00753628
2133,8486;0,00758281
2134,8130;0,00760787
2135,7771;0,00761289
2136,7415;0,00761116
2137,7056;0,00761415
2138,6699;0,00762225
2139,6340;0,00762927
2140,5984;0,00763713
2141,5625;0,00766686
2142,5269;0,00775318
2143,4910;0,00792206
2144,4553;0,00816614
2145,4194;0,008438
2146,3838;0,00867094
2147,3479;0,00881609
2148,3123;0,00887052
2149,2764;0,0088755
2150,2407;0,00888665
2151,2048;0,00893893
2152,1692;0,00903196
2153,1333;0,00914374
2154,0977;0,00925828
2155,0618;0,00938303
2156,0261;0,0095409
2156,9902;0,00974121
2157,9546;0,0099539
2158,9187;0,0101179
2159,8831;0,0101862
2160,8472;0,0101648
2161,8115;0,0101044
2162,7756;0,0100591
2163,7400;0,0100485
2164,7041;0,0100486
2165,6685;0,0100074
2166,6326;0,00987635
2167,5969;0,00963805
2168,5610;0,00931674
2169,5254;0,00896737
2170,4895;0,0086528
2171,4539;0,00842213
2172,4180;0,00829997
2173,3823;0,00828937
2174,3464;0,00838337
2175,3108;0,00857459
2176,2749;0,00885307
2177,2393;0,00919287
2178,2034;0,00953844
2179,1677;0,00980578
2180,1318;0,00990594
2181,0962;0,00978419
2182,0603;0,00945425
2183,0247;0,00900329
2183,9888;0,00855852
2184,9531;0,00823284
2185,9172;0,00808154
2186,8816;0,00809197
2187,8457;0,00820593
2188,8101;0,00835725
2189,7742;0,00850232
2190,7385;0,0086285
2191,7026;0,00873979
2192,6670;0,00883271
2193,6311;0,00888095
2194,5955;0,00884086
2195,5596;0,00867638
2196,5239;0,00838866
2197,4880;0,00803101
2198,4524;0,00769642
2199,4165;0,00748012
2200,3809;0,00743481
2201,3450;0,00754269
2202,3093;0,0077209
2203,2734;0,00785939
2204,2378;0,00787214
2205,2019;0,00773543
2206,1663;0,00749427
2207,1304;0,00723603
2208,0947;0,00704755
2209,0588;0,00697913
2210,0232;0,00703107
2210,9873;0,00716373
2211,9517;0,00731979
2212,9158;0,007445
2213,8801;0,00750047
2214,8442;0,00746752
2215,8086;0,00734956
2216,7727;0,00717215
2217,7371;0,00697873
2218,7012;0,00681915
2219,6655;0,00673275
2220,6296;0,00673307
2221,5940;0,00680237
2222,5581;0,00689963
2223,5225;0,00697882
2224,4866;0,00700933
2225,4509;0,0069893
2226,4150;0,00694547
2227,3794;0,00691792
2228,3435;0,00694077
2229,3079;0,00702079
2230,2720;0,0071306
2231,2363;0,00722026
2232,2004;0,0072424
2233,1648;0,00717773
2234,1289;0,00704615
2235,0933;0,00689704
2236,0574;0,00678444
2237,0217;0,00674147
2237,9858;0,00676756
2238,9502;0,00683317
2239,9143;0,00689703
2240,8787;0,00692541
2241,8428;0,00690497
2242,8071;0,00684568
2243,7712;0,0067748
2244,7356;0,00672527
2245,6997;0,00672303
2246,6641;0,00677767
2247,6282;0,00688012
2248,5925;0,00700829
2249,5566;0,00713745
2250,5210;0,00724925
2251,4851;0,0073348
2252,4495;0,0073917
2253,4136;0,00741926
2254,3779;0,00741695
2255,3420;0,00738703
2256,3064;0,00733796
2257,2705;0,0072839
2258,2349;0,0072395
2259,1990;0,0072133
2260,1633;0,00720468
2261,1274;0,00720596
2262,0918;0,00720785
2263,0559;0,00720399
2264,0203;0,00719285
2264,9844;0,00717748
2265,9487;0,00716508
2266,9128;0,00716623
2267,8772;0,00719198
2268,8413;0,00724777
2269,8057;0,00732664
2270,7698;0,00740694
2271,7341;0,00745811
2272,6982;0,00745341
2273,6626;0,00738257
2274,6267;0,00725739
2275,5911;0,00710695
2276,5552;0,00696608
2277,5195;0,00686372
2278,4836;0,00681632
2279,4480;0,00682722
2280,4121;0,00688982
2281,3765;0,00699182
2282,3406;0,0071197
2283,3049;0,00726293
2284,2690;0,00741696
2285,2334;0,0075838
2286,1975;0,00776914
2287,1619;0,00797771
2288,1260;0,00820963
2289,0903;0,00846002
2290,0544;0,00872199
2291,0188;0,00899042
2291,9829;0,00926397
2292,9473;0,00954414
2293,9114;0,00983213
2294,8757;0,0101252
2295,8398;0,0104144
2296,8042;0,0106837
2297,7683;0,0109128
2298,7327;0,0110824
2299,6968;0,0111828
2300,6611;0,0112225
2301,6252;0,0112334
2302,5896;0,0112648
2303,5537;0,0113696
2304,5181;0,0115818
2305,4822;0,0118951
2306,4465;0,0122519
2307,4106;0,0125529
2308,3750;0,012688
2309,3391;0,0125804
2310,3035;0,0122218
2311,2676;0,0116832
2312,2319;0,0110882
2313,1960;0,0105608
2314,1604;0,0101737
2315,1245;0,0099252
2316,0889;0,00975646
2317,0530;0,00959423
2318,0173;0,00939355
2318,9814;0,00916103
2319,9458;0,00895201
2320,9099;0,00884566
2321,8743;0,00890833
2322,8384;0,00915622
2323,8027;0,00953259
2324,7668;0,00991647
2325,7312;0,0101662
2326,6953;0,0101771
2327,6597;0,00992309
2328,6238;0,00946524
2329,5881;0,00892799
2330,5522;0,00845383
2331,5166;0,00814898
2332,4807;0,00804024
2333,4451;0,00807067
2334,4092;0,00814325
2335,3735;0,00818653
2336,3376;0,00820097
2337,3020;0,00826101
2338,2661;0,00847161
2339,2305;0,00889662
2340,1946;0,00948785
2341,1589;0,0100505
2342,1230;0,0102983
2343,0874;0,0100745
2344,0515;0,00964937
2345,0159;0,00964937
2345,9800;0,0104671
2346,9443;0,0118584
2347,9084;0,0131738
2348,8728;0,0138313
2349,8369;0,0136144
2350,8013;0,0127263
2351,7654;0,0116492
2352,7297;0,0108622
2353,6938;0,0105662
2354,6582;0,0106527
2355,6223;0,0109243
2356,5867;0,0112563
2357,5508;0,0115517
2358,5151;0,0116778
2359,4792;0,0115241
2360,4436;0,011095
2361,4077;0,0104926
2362,3721;0,00981198
2363,3362;0,00908362
2364,3005;0,0083091
2365,2646;0,00751427
2366,2290;0,00675138
2367,1931;0,00606308
2368,1575;0,00546237
2369,1216;0,00494657
2370,0859;0,0045201
2371,0500;0,0042012
2372,0144;0,00401507
2372,9785;0,00398791
2373,9429;0,00414575
2374,9070;0,00451045
2375,8713;0,00508665
2376,8354;0,00584502
2377,7998;0,00671357
2378,7639;0,0075851
2379,7283;0,00834022
2380,6924;0,00887697
2381,6567;0,00913622
2382,6208;0,00911445
2383,5852;0,0088608
2384,5493;0,00846042
2385,5137;0,00800986
2386,4778;0,0075924
2387,4421;0,00726087
2388,4063;0,00703276
2389,3706;0,00689723
2390,3347;0,00682878
2391,2991;0,00680069
2392,2632;0,00679317
2393,2275;0,00679543
2394,1917;0,00680379
2395,1560;0,00681869
2396,1201;0,00684203
2397,0845;0,00687488
2398,0486;0,00691773
2399,0129;0,00696467
2399,9771;0,00700605
2400,9414;0,00703347
2401,9055;0,00704251
2402,8699;0,00703726
2403,8340;0,00702828
2404,7983;0,00702791
2405,7625;0,00704424
2406,7268;0,00707684
2407,6909;0,00711897
2408,6553;0,00716236
2409,6194;0,00720098
2410,5837;0,00723472
2411,5479;0,00726745
2412,5122;0,00730322
2413,4763;0,00734245
2414,4407;0,00738099
2415,4048;0,00741175
2416,3691;0,00742854
2417,3333;0,00742959
2418,2976;0,0074188
2419,2617;0,00740453
2420,2261;0,00739633
2421,1902;0,00740104
2422,1545;0,00742264
2423,1187;0,00746164
2424,0830;0,00751552
2425,0471;0,00757849
2426,0115;0,00764128
2426,9756;0,00769291
2427,9399;0,00772494
2428,9041;0,00773657
2429,8684;0,00773683
2430,8325;0,00774115
2431,7969;0,00776305
2432,7610;0,00780617
2433,7253;0,00786198
2434,6895;0,00791547
2435,6538;0,007955
2436,6179;0,00797929
2437,5823;0,00799686
2438,5464;0,00801858
2439,5107;0,00804962
2440,4749;0,00808696
2441,4392;0,00812404
2442,4033;0,00815793
2443,3677;0,00819282
2444,3318;0,00823644
2445,2961;0,0082923
2446,2603;0,008354
2447,2246;0,00840653
2448,1887;0,00843427
2449,1531;0,00843042
2450,1172;0,00840186
2451,0815;0,00836636
2452,0457;0,00834423
2453,0100;0,00834928
2453,9741;0,00838422
2454,9385;0,0084417
2455,9026;0,00850949
2456,8669;0,00857589
2457,8311;0,00863267
2458,7954;0,008675
2459,7595;0,00870036
2460,7239;0,00870837
2461,6880;0,00870234
2462,6523;0,00869072
2463,6165;0,00868599
2464,5808;0,00870002
2465,5449;0,00873797
2466,5093;0,00879444
2467,4734;0,00885508
2468,4377;0,00890304
2469,4019;0,00892694
2470,3662;0,00892569
2471,3303;0,00890821
2472,2947;0,00888907
2473,2588;0,00888272
2474,2231;0,00889913
2475,1873;0,0089413
2476,1516;0,00900475
2477,1157;0,00907891
2478,0801;0,00915064
2479,0442;0,00920939
2480,0085;0,00925172
2480,9727;0,00928247
2481,9370;0,00931121
2482,9011;0,00934578
2483,8655;0,00938726
2484,8296;0,00942949
2485,7939;0,00946363
2486,7581;0,00948432
2487,7224;0,00949302
2488,6865;0,00949668
2489,6509;0,00950299
2490,6150;0,00951577
2491,5793;0,00953341
2492,5435;0,00955082
2493,5078;0,00956304
2494,4719;0,00956815
2495,4363;0,00956838
2496,4004;0,00956939
2497,3647;0,00957852
2498,3289;0,00960257
2499,2932;0,00964519
2500,2573;0,00970477
2501,2217;0,00977351
2502,1858;0,00983913
2503,1501;0,00988912
2504,1143;0,00991584
2505,0786;0,00991986
2506,0427;0,00990935
2507,0071;0,00989577
2507,9712;0,00988832
2508,9355;0,00989056
2509,8997;0,00990085
2510,8640;0,00991584
2511,8281;0,00993397
2512,7925;0,00995647
2513,7566;0,0099853
2514,7209;0,0100202
2515,6851;0,0100574
2516,6494;0,0100915
2517,6135;0,010119
2518,5779;0,0101402
2519,5420;0,0101593
2520,5063;0,0101804
2521,4705;0,0102034
2522,4348;0,0102233
2523,3989;0,0102327
2524,3633;0,0102275
2525,3274;0,0102114
2526,2917;0,0101958
2527,2559;0,0101948
2528,2202;0,0102178
2529,1843;0,0102641
2530,1487;0,0103234
2531,1128;0,0103814
2532,0771;0,0104269
2533,0413;0,0104557
2534,0056;0,0104689
2534,9697;0,0104697
2535,9341;0,0104595
2536,8982;0,0104398
2537,8625;0,0104147
2538,8267;0,0103935
2539,7910;0,0103876
2540,7551;0,010404
2541,7195;0,0104398
2542,6836;0,0104812
2543,6479;0,010511
2544,6121;0,0105175
2545,5764;0,010502
2546,5405;0,0104779
2547,5049;0,0104629
2548,4690;0,0104685
2549,4333;0,0104941
2550,3975;0,0105275
2551,3618;0,0105534
2552,3259;0,0105624
2553,2903;0,0105571
2554,2544;0,0105498
2555,2188;0,0105556
2556,1829;0,0105837
2557,1472;0,0106321
2558,1113;0,0106898
2559,0757;0,0107415
2560,0398;0,0107744
2561,0042;0,0107822
2561,9683;0,0107659
2562,9326;0,0107327
2563,8967;0,0106941
2564,8611;0,0106636
2565,8252;0,0106532
2566,7896;0,0106698
2567,7537;0,0107115
2568,7180;0,0107683
2569,6821;0,0108257
2570,6465;0,0108713
2571,6106;0,0108992
2572,5750;0,0109115
2573,5391;0,0109153
2574,5034;0,0109184
2575,4675;0,0109267
2576,4319;0,0109426
2577,3960;0,0109665
2578,3604;0,0109964
2579,3245;0,0110289
2580,2888;0,0110592
2581,2529;0,0110831
2582,2173;0,0110992
2583,1814;0,0111096
2584,1458;0,0111196
2585,1099;0,0111338
2586,0742;0,0111543
2587,0383;0,0111793
2588,0027;0,0112057
2588,9668;0,0112313
2589,9312;0,0112564
2590,8953;0,0112822
2591,8596;0,0113081
2592,8237;0,0113296
2593,7881;0,01134
2594,7522;0,0113346
2595,7166;0,0113152
2596,6807;0,0112919
2597,6450;0,0112801
2598,6091;0,0112943
2599,5735;0,0113414
2600,5376;0,0114176
2601,5020;0,0115094
2602,4661;0,0115991
2603,4304;0,011671
2604,3945;0,0117168
2605,3589;0,0117373
2606,3230;0,0117411
2607,2874;0,0117404
2608,2515;0,011747
2609,2158;0,0117685
2610,1799;0,0118066
2611,1443;0,0118575
2612,1084;0,0119136
2613,0728;0,0119668
2614,0369;0,0120112
2615,0012;0,0120448
2615,9653;0,0120703
2616,9297;0,0120938
2617,8938;0,0121225
2618,8582;0,012162
2619,8223;0,0122132
2620,7866;0,0122714
2621,7507;0,0123274
2622,7151;0,0123713
2623,6792;0,0123972
2624,6436;0,0124066
2625,6077;0,012408
2626,5720;0,012413
2627,5361;0,0124314
2628,5005;0,0124674
2629,4646;0,0125187
2630,4290;0,0125787
2631,3931;0,0126403
2632,3574;0,0126974
2633,3215;0,0127454
2634,2859;0,0127814
2635,2500;0,0128042
2636,2144;0,0128156
2637,1785;0,0128209
2638,1428;0,0128277
2639,1069;0,0128432
2640,0713;0,0128715
2641,0354;0,0129122
2641,9998;0,0129626
2642,9639;0,013019
2643,9282;0,0130788
2644,8923;0,0131394
2645,8567;0,0131975
2646,8208;0,0132484
2647,7852;0,0132878
2648,7493;0,0133136
2649,7136;0,013328
2650,6777;0,0133368
2651,6421;0,0133474
2652,6062;0,0133665
2653,5706;0,0133983
2654,5347;0,0134438
2655,4990;0,0135013
2656,4631;0,0135663
2657,4275;0,013632
2658,3916;0,0136915
2659,3560;0,0137398
2660,3201;0,0137761
2661,2844;0,0138045
2662,2485;0,0138314
2663,2129;0,0138628
2664,1770;0,0139008
2665,1414;0,0139432
2666,1055;0,0139854
2667,0698;0,014023
2668,0339;0,014054
2668,9983;0,0140796
2669,9624;0,0141035
2670,9268;0,0141299
2671,8909;0,0141621
2672,8552;0,0142015
2673,8193;0,0142469
2674,7837;0,014295
2675,7478;0,0143421
2676,7122;0,014385
2677,6763;0,014423
2678,6406;0,0144583
2679,6047;0,0144953
2680,5691;0,0145381
2681,5332;0,014589
2682,4976;0,0146471
2683,4617;0,014709
2684,4260;0,0147696
2685,3901;0,0148243
2686,3545;0,01487
2687,3186;0,014906
2688,2830;0,0149344
2689,2471;0,0149593
2690,2114;0,0149861
2691,1755;0,0150193
2692,1399;0,0150613
2693,1040;0,0151118
2694,0684;0,0151674
2695,0325;0,0152239
2695,9968;0,0152781
2696,9609;0,0153286
2697,9253;0,0153765
2698,8894;0,0154241
2699,8538;0,0154741
2700,8179;0,015528
2701,7822;0,0155865
2702,7463;0,0156493
2703,7107;0,0157154
2704,6748;0,0157827
2705,6392;0,0158484
2706,6033;0,0159097
2707,5676;0,0159645
2708,5317;0,0160127
2709,4961;0,0160563
2710,4602;0,0160987
2711,4246;0,0161431
2712,3887;0,016191
2713,3530;0,016242
2714,3171;0,0162948
2715,2815;0,0163486
2716,2456;0,0164038
2717,2100;0,0164613
2718,1741;0,0165213
2719,1384;0,0165815
2720,1025;0,0166372
2721,0669;0,016683
2722,0310;0,0167156
2722,9954;0,0167365
2723,9595;0,016752
2724,9238;0,0167718
2725,8879;0,0168049
2726,8523;0,0168557
2727,8164;0,0169226
2728,7808;0,016999
2729,7449;0,0170757
2730,7092;0,0171446
2731,6733;0,0172005
2732,6377;0,017242
2733,6018;0,01727
2734,5662;0,0172874
2735,5303;0,0172975
2736,4946;0,0173043
2737,4587;0,0173126
2738,4231;0,0173274
2739,3872;0,0173533
2740,3516;0,0173931
2741,3157;0,017446
2742,2800;0,0175073
2743,2441;0,0175692
2744,2085;0,0176232
2745,1726;0,0176636
2746,1370;0,0176895
2747,1011;0,0177053
2748,0654;0,017719
2749,0295;0,0177388
2749,9939;0,0177701
2750,9580;0,0178139
2751,9224;0,017867
2752,8865;0,0179242
2753,8508;0,0179801
2754,8149;0,0180314
2755,7793;0,0180772
2756,7434;0,018119
2757,7078;0,0181601
2758,6719;0,018204
2759,6362;0,0182531
2760,6003;0,0183083
2761,5647;0,0183679
2762,5288;0,0184288
2763,4932;0,018488
2764,4573;0,0185447
2765,4216;0,0186008
2766,3857;0,0186603
2767,3501;0,0187267
2768,3142;0,0188003
2769,2786;0,018877
2770,2427;0,0189499
2771,2070;0,019013
2772,1711;0,0190644
2773,1355;0,0191078
2774,0996;0,0191506
2775,0640;0,0192002
2776,0281;0,0192609
2776,9924;0,019333
2777,9565;0,0194145
2778,9209;0,0195031
2779,8850;0,0195983
2780,8494;0,0197005
2781,8135;0,0198088
2782,7778;0,0199193
2783,7419;0,0200252
2784,7063;0,020119
2785,6704;0,0201964
2786,6348;0,020259
2787,5989;0,0203147
2788,5632;0,0203754
2789,5273;0,0204527
2790,4917;0,0205531
2791,4558;0,0206759
2792,4202;0,0208134
2793,3843;0,0209541
2794,3486;0,0210878
2795,3127;0,0212093
2796,2771;0,0213201
2797,2412;0,0214269
2798,2056;0,0215382
2799,1697;0,021661
2800,1340;0,0217992
2801,0981;0,0219529
2802,0625;0,0221199
2803,0266;0,022295
2803,9910;0,0224704
2804,9551;0,0226365
2805,9194;0,0227851
2806,8835;0,0229134
2807,8479;0,0230277
2808,8120;0,0231421
2809,7764;0,0232738
2810,7405;0,0234344
2811,7048;0,0236248
2812,6689;0,0238345
2813,6333;0,0240481
2814,5974;0,0242529
2815,5618;0,0244453
2816,5259;0,0246311
2817,4902;0,0248216
2818,4543;0,0250273
2819,4187;0,0252534
2820,3828;0,0254988
2821,3472;0,0257581
2822,3113;0,0260253
2823,2756;0,0262963
2824,2397;0,0265704
2825,2041;0,0268499
2826,1682;0,0271384
2827,1326;0,0274393
2828,0967;0,027755
2829,0610;0,0280875
2830,0251;0,0284392
2830,9895;0,0288146
2831,9536;0,0292193
2832,9180;0,0296576
2833,8821;0,0301313
2834,8464;0,030639
2835,8105;0,0311792
2836,7749;0,0317545
2837,7390;0,0323753
2838,7034;0,0330601
2839,6675;0,0338336
2840,6318;0,0347219
2841,5959;0,0357491
2842,5603;0,0369311
2843,5244;0,0382679
2844,4888;0,0397322
2845,4529;0,0412598
2846,4172;0,0427472
2847,3813;0,0440659
2848,3457;0,0450918
2849,3098;0,0457414
2850,2742;0,0459976
2851,2383;0,0459129
2852,2026;0,0455869
2853,1667;0,0451291
2854,1311;0,0446273
2855,0952;0,0441324
2856,0596;0,0436648
2857,0237;0,0432317
2857,9880;0,0428431
2858,9521;0,0425164
2859,9165;0,0422701
2860,8806;0,042114
2861,8450;0,0420435
2862,8091;0,042044
2863,7734;0,0420991
2864,7375;0,0421996
2865,7019;0,042343
2866,6660;0,0425279
2867,6304;0,0427453
2868,5945;0,0429741
2869,5588;0,0431865
2870,5229;0,0433581
2871,4873;0,0434782
2872,4514;0,0435536
2873,4158;0,0436035
2874,3799;0,0436495
2875,3442;0,043706
2876,3083;0,0437767
2877,2727;0,0438586
2878,2368;0,0439481
2879,2012;0,0440461
2880,1653;0,0441584
2881,1296;0,0442933
2882,0938;0,0444576
2883,0581;0,0446546
2884,0222;0,0448837
2884,9866;0,0451404
2885,9507;0,0454178
2886,9150;0,0457068
2887,8792;0,0459985
2888,8435;0,0462862
2889,8076;0,0465671
2890,7720;0,0468426
2891,7361;0,047117
2892,7004;0,0473956
2893,6646;0,0476823
2894,6289;0,04798
2895,5930;0,048289
2896,5574;0,0486072
2897,5215;0,0489284
2898,4858;0,0492428
2899,4500;0,0495402
2900,4143;0,0498142
2901,3784;0,0500673
2902,3428;0,0503124
2903,3069;0,0505696
2904,2712;0,0508612
2905,2354;0,051207
2906,1997;0,0516228
2907,1638;0,0521237
2908,1282;0,0527268
2909,0923;0,0534506
2910,0566;0,0543069
2911,0208;0,0552894
2911,9851;0,0563623
2912,9492;0,0574572
2913,9136;0,0584826
2914,8777;0,0593421
2915,8420;0,0599573
2916,8062;0,0602848
2917,7705;0,060323
2918,7346;0,0601063
2919,6990;0,0596908
2920,6631;0,0591379
2921,6274;0,0585001
2922,5916;0,0578128
2923,5559;0,0570928
2924,5200;0,0563432
2925,4844;0,0555615
2926,4485;0,0547493
2927,4128;0,0539169
2928,3770;0,053083
2929,3413;0,0522679
2930,3054;0,0514856
2931,2698;0,0507387
2932,2339;0,0500198
2933,1982;0,0493181
2934,1624;0,0486266
2935,1267;0,0479449
2936,0908;0,0472779
2937,0552;0,0466308
2938,0193;0,0460058
2938,9836;0,0454011
2939,9478;0,0448131
2940,9121;0,0442396
2941,8762;0,0436809
2942,8406;0,0431402
2943,8047;0,0426229
2944,7690;0,0421351
2945,7332;0,0416829
2946,6975;0,0412705
2947,6616;0,0408994
2948,6260;0,0405679
2949,5901;0,040272
2950,5544;0,0400066
2951,5186;0,0397649
2952,4829;0,0395374
2953,4470;0,0393111
2954,4114;0,0390702
2955,3755;0,0388005
2956,3398;0,0384934
2957,3040;0,0381494
2958,2683;0,0377761
2959,2324;0,0373842
2960,1968;0,0369829
2961,1609;0,0365769
2962,1252;0,0361679
2963,0894;0,0357572
2964,0537;0,0353468
2965,0178;0,0349389
2965,9822;0,0345337
2966,9463;0,0341279
2967,9106;0,0337157
2968,8748;0,033292
2969,8391;0,0328566
2970,8032;0,0324164
2971,7676;0,0319832
2972,7317;0,03157
2973,6960;0,0311858
2974,6602;0,0308322
2975,6245;0,0305041
2976,5886;0,0301935
2977,5530;0,0298942
2978,5171;0,0296049
2979,4814;0,0293294
2980,4456;0,0290739
2981,4099;0,0288435
2982,3740;0,0286396
2983,3384;0,0284589
2984,3025;0,0282951
2985,2668;0,0281414
2986,2310;0,0279929
2987,1953;0,0278496
2988,1594;0,0277163
2989,1238;0,0276016
2990,0879;0,0275134
2991,0522;0,0274547
2992,0164;0,0274209
2992,9807;0,0274008
2993,9448;0,0273817
2994,9092;0,0273556
2995,8733;0,0273237
2996,8376;0,0272959
2997,8018;0,0272858
2998,7661;0,0273033
2999,7302;0,0273496
3000,6946;0,027417
3001,6587;0,0274928
3002,6230;0,0275661
3003,5872;0,0276332
3004,5515;0,0276991
3005,5156;0,0277741
3006,4800;0,0278673
3007,4441;0,0279802
3008,4084;0,0281051
3009,3726;0,0282272
3010,3369;0,0283309
3011,3010;0,0284071
3012,2654;0,0284565
3013,2295;0,0284896
3014,1938;0,0285212
3015,1580;0,028565
3016,1223;0,02863
3017,0864;0,0287195
3018,0508;0,0288332
3019,0149;0,0289686
3019,9792;0,0291216
3020,9434;0,0292862
3021,9077;0,0294547
3022,8718;0,02962
3023,8362;0,0297791
3024,8003;0,0299356
3025,7646;0,0300985
3026,7288;0,0302768
3027,6931;0,0304728
3028,6572;0,0306778
3029,6216;0,0308748
3030,5857;0,0310465
3031,5500;0,0311852
3032,5142;0,0312968
3033,4785;0,0313984
3034,4426;0,031508
3035,4070;0,0316365
3036,3711;0,031784
3037,3354;0,031943
3038,2996;0,0321051
3039,2639;0,0322661
3040,2280;0,0324275
3041,1924;0,0325953
3042,1565;0,0327769
3043,1208;0,0329782
3044,0850;0,0332011
3045,0493;0,0334409
3046,0134;0,0336854
3046,9778;0,0339184
3047,9419;0,0341264
3048,9063;0,0343066
3049,8704;0,0344703
3050,8347;0,0346384
3051,7988;0,0348303
3052,7632;0,0350533
3053,7273;0,035299
3054,6917;0,0355482
3055,6558;0,0357827
3056,6201;0,0359951
3057,5842;0,0361923
3058,5486;0,0363901
3059,5127;0,036603
3060,4771;0,0368373
3061,4412;0,0370877
3062,4055;0,0373405
3063,3696;0,0375795
3064,3340;0,0377923
3065,2981;0,0379749
3066,2625;0,0381333
3067,2266;0,0382809
3068,1909;0,0384331
3069,1550;0,0386016
3070,1194;0,038791
3071,0835;0,0389985
3072,0479;0,0392179
3073,0120;0,0394433
3073,9763;0,0396712
3074,9404;0,0399
3075,9048;0,0401272
3076,8689;0,0403476
3077,8333;0,040554
3078,7974;0,0407401
3079,7617;0,0409044
3080,7258;0,0410523
3081,6902;0,0411945
3082,6543;0,0413436
3083,6187;0,0415094
3084,5828;0,0416953
3085,5471;0,0418985
3086,5112;0,0421116
3087,4756;0,0423273
3088,4397;0,0425427
3089,4041;0,0427602
3090,3682;0,0429856
3091,3325;0,0432229
3092,2966;0,0434703
3093,2610;0,0437194
3094,2251;0,043959
3095,1895;0,0441809
3096,1536;0,0443848
3097,1179;0,0445783
3098,0820;0,0447725
3099,0464;0,044977
3100,0105;0,0451952
3100,9749;0,0454241
3101,9390;0,0456559
3102,9033;0,0458827
3103,8674;0,0460987
3104,8318;0,0463034
3105,7959;0,0465012
3106,7603;0,0467007
3107,7244;0,0469123
3108,6887;0,0471445
3109,6528;0,0474016
3110,6172;0,0476813
3111,5813;0,0479757
3112,5457;0,0482738
3113,5098;0,0485641
3114,4741;0,048838
3115,4382;0,0490919
3116,4026;0,0493281
3117,3667;0,049554
3118,3311;0,0497791
3119,2952;0,0500114
3120,2595;0,050255
3121,2236;0,0505084
3122,1880;0,0507655
3123,1521;0,0510183
3124,1165;0,0512601
3125,0806;0,051488
3126,0449;0,0517056
3127,0090;0,0519217
3127,9734;0,0521489
3128,9375;0,0523985
3129,9019;0,0526757
3130,8660;0,0529766
3131,8303;0,053289
3132,7944;0,0535962
3133,7588;0,0538845
3134,7229;0,0541482
3135,6873;0,0543917
3136,6514;0,0546257
3137,6157;0,0548626
3138,5798;0,0551111
3139,5442;0,0553749
3140,5083;0,0556531
3141,4727;0,0559432
3142,4368;0,0562443
3143,4011;0,0565573
3144,3652;0,056883
3145,3296;0,057219
3146,2937;0,0575576
3147,2581;0,0578874
3148,2222;0,0581983
3149,1865;0,0584867
3150,1506;0,0587579
3151,1150;0,0590232
3152,0791;0,0592939
3153,0435;0,0595756
3154,0076;0,0598664
3154,9719;0,0601613
3155,9360;0,0604569
3156,9004;0,0607549
3157,8645;0,0610601
3158,8289;0,0613755
3159,7930;0,0616988
3160,7573;0,0620224
3161,7214;0,0623379
3162,6858;0,0626417
3163,6499;0,0629372
3164,6143;0,0632334
3165,5784;0,0635393
3166,5427;0,0638591
3167,5068;0,0641901
3168,4712;0,0645246
3169,4353;0,0647098
3170,3997;0,0650317
3171,3638;0,0653482
3172,3281;0,0656649
3173,2922;0,0659879
3174,2566;0,0663198
3175,2207;0,0666578
3176,1851;0,0669939
3177,1492;0,0673183
3178,1135;0,0676242
3179,0776;0,0679118
3180,0420;0,0681883
3181,0061;0,0684647
3181,9705;0,0687502
3182,9346;0,0690473
3183,8989;0,0693511
3184,8630;0,0696525
3185,8274;0,0699437
3186,7915;0,0702231
3187,7559;0,0704958
3188,7200;0,0707708
3189,6843;0,0710557
3190,6484;0,0713543
3191,6128;0,071666
3192,5769;0,0719879
3193,5413;0,0723162
3194,5054;0,0726465
3195,4697;0,0729726
3196,4338;0,0732871
3197,3982;0,073583
3198,3623;0,0738576
3199,3267;0,0741149
3200,2908;0,0743647
3201,2551;0,0746184
3202,2192;0,0748846
3203,1836;0,075166
3204,1477;0,0754594
3205,1121;0,0757577
3206,0762;0,0760542
3207,0405;0,0763443
3208,0046;0,0766279
3208,9690;0,0769071
3209,9331;0,077185
3210,8975;0,0774632
3211,8616;0,0777413
3212,8259;0,0780173
3213,7900;0,0782893
3214,7544;0,078556
3215,7185;0,0788171
3216,6829;0,0790715
3217,6470;0,0793177
3218,6113;0,0795552
3219,5754;0,0797868
3220,5398;0,0800198
3221,5039;0,0802641
3222,4683;0,0805285
3223,4324;0,0808169
3224,3967;0,0811274
3225,3608;0,0814523
3226,3252;0,0817812
3227,2893;0,082103
3228,2537;0,0824075
3229,2178;0,0826879
3230,1821;0,0829439
3231,1462;0,0831819
3232,1106;0,083414
3233,0747;0,083652
3234,0391;0,0839027
3235,0032;0,0841651
3235,9675;0,0844348
3236,9316;0,08471
3237,8960;0,0849957
3238,8601;0,0853013
3239,8245;0,0856319
3240,7886;0,0859809
3241,7529;0,0863287
3242,7170;0,0866517
3243,6814;0,0869352
3244,6455;0,0871838
3245,6099;0,0874209
3246,5740;0,0876774
3247,5383;0,087975
3248,5024;0,0883162
3249,4668;0,0886858
3250,4309;0,0890613
3251,3953;0,089425
3252,3594;0,0897703
3253,3237;0,0901017
3254,2878;0,090428
3255,2522;0,090757
3256,2163;0,0910915
3257,1807;0,0914314
3258,1448;0,0917758
3259,1091;0,0921246
3260,0732;0,0924783
3261,0376;0,0928354
3262,0017;0,0931917
3262,9661;0,0935404
3263,9302;0,093874
3264,8945;0,0941861
3265,8586;0,094474
3266,8230;0,0947393
3267,7871;0,0949885
3268,7515;0,0952297
3269,7156;0,095469
3270,6799;0,0957055
3271,6440;0,0959302
3272,6084;0,0961292
3273,5725;0,0962911
3274,5369;0,0964138
3275,5010;0,0965073
3276,4653;0,0965883
3277,4294;0,0966707
3278,3938;0,0967585
3279,3579;0,0968447
3280,3223;0,0969177
3281,2864;0,0969713
3282,2507;0,0970108
3283,2148;0,0970516
3284,1792;0,0971098
3285,1433;0,0971918
3286,1077;0,0972895
3287,0718;0,0973832
3288,0361;0,0974531
3289,0002;0,0974881
3289,9646;0,0974906
3290,9287;0,0974725
3291,8931;0,0974457
3292,8572;0,0974157
3293,8215;0,0973808
3294,7856;0,0973365
3295,7500;0,0972815
3296,7141;0,0972194
3297,6785;0,0971561
3298,6426;0,0970946
3299,6069;0,0970333
3300,5710;0,0969674
3301,5354;0,0968943
3302,4995;0,0968169
3303,4639;0,0967418
3304,4280;0,0966757
3305,3923;0,0966199
3306,3564;0,0965696
3307,3208;0,0965164
3308,2849;0,0964533
3309,2493;0,096378
3310,2134;0,0962948
3311,1777;0,0962122
3312,1418;0,096141
3313,1062;0,0960917
3314,0703;0,0960727
3315,0347;0,0960888
3315,9988;0,0961406
3316,9631;0,0962243
3317,9272;0,096333
3318,8916;0,0964583
3319,8557;0,0965929
3320,8201;0,0967318
3321,7842;0,096873
3322,7485;0,0970166
3323,7126;0,0971626
3324,6770;0,0973083
3325,6411;0,0974478
3326,6055;0,0975734
3327,5696;0,09768
3328,5339;0,0977702
3329,4980;0,0978536
3330,4624;0,0979425
3331,4265;0,0980429
3332,3909;0,0981484
3333,3550;0,0982402
3334,3193;0,0982935
3335,2834;0,0982892
3336,2478;0,0982211
3337,2119;0,0980965
3338,1763;0,0979292
3339,1404;0,0977305
3340,1047;0,0975059
3341,0688;0,0972573
3342,0332;0,0969887
3342,9973;0,0967091
3343,9617;0,0964298
3344,9258;0,096158
3345,8901;0,0958914
3346,8542;0,0956188
3347,8186;0,0953271
3348,7827;0,0950095
3349,7471;0,0946705
3350,7112;0,0943231
3351,6755;0,093982
3352,6396;0,0936551
3353,6040;0,0933409
3354,5681;0,0930321
3355,5325;0,0927223
3356,4966;0,0924111
3357,4609;0,0921038
3358,4250;0,0918067
3359,3894;0,0915227
3360,3535;0,0912494
3361,3179;0,0909812
3362,2820;0,0907138
3363,2463;0,0904458
3364,2104;0,0901781
3365,1748;0,0899114
3366,1389;0,0896439
3367,1033;0,0893719
3368,0674;0,0890918
3369,0317;0,0888016
3369,9958;0,088501
3370,9602;0,0881906
3371,9243;0,0878722
3372,8887;0,0875491
3373,8528;0,0872277
3374,8171;0,0869161
3375,7813;0,0866202
3376,7456;0,0863409
3377,7097;0,0860725
3378,6741;0,0858061
3379,6382;0,0855348
3380,6025;0,0852578
3381,5667;0,08498
3382,5310;0,0847083
3383,4951;0,0844471
3384,4595;0,0841982
3385,4236;0,0839625
3386,3879;0,0837425
3387,3521;0,083542
3388,3164;0,0833613
3389,2805;0,0831939
3390,2449;0,0830252
3391,2090;0,0828383
3392,1733;0,082622
3393,1375;0,0823766
3394,1018;0,0821126
3395,0659;0,0818442
3396,0303;0,081581
3396,9944;0,0813251
3397,9587;0,0810721
3398,9229;0,0808142
3399,8872;0,0805432
3400,8513;0,0802539
3401,8157;0,079946
3402,7798;0,0796254
3403,7441;0,0793034
3404,7083;0,0789923
3405,6726;0,0786993
3406,6367;0,0784225
3407,6011;0,0781516
3408,5652;0,0778732
3409,5295;0,0775765
3410,4937;0,0772566
3411,4580;0,0769153
3412,4221;0,0765593
3413,3865;0,0761997
3414,3506;0,0758492
3415,3149;0,0755181
3416,2791;0,0752103
3417,2434;0,0749175
3418,2075;0,0746206
3419,1719;0,074296
3420,1360;0,0739284
3421,1003;0,0735188
3422,0645;0,0730837
3423,0288;0,0726452
3423,9929;0,0722195
3424,9573;0,0718129
3425,9214;0,0714249
3426,8857;0,0710532
3427,8499;0,0706965
3428,8142;0,0703528
3429,7783;0,0700167
3430,7427;0,0696789
3431,7068;0,0693294
3432,6711;0,068962
3433,6353;0,068577
3434,5996;0,0681809
3435,5637;0,0677827
3436,5281;0,0673903
3437,4922;0,0670086
3438,4565;0,066641
3439,4207;0,0662914
3440,3850;0,0659647
3441,3491;0,0656647
3442,3135;0,0653885
3443,2776;0,0651226
3444,2419;0,0648417
3445,2061;0,0645163
3446,1704;0,064124
3447,1345;0,063664
3448,0989;0,0631602
3449,0630;0,0626505
3450,0273;0,0621677
3450,9915;0,0617269
3451,9558;0,0613259
3452,9199;0,0609527
3453,8843;0,0605956
3454,8484;0,0602488
3455,8127;0,0599137
3456,7769;0,0595933
3457,7412;0,0592861
3458,7053;0,0589824
3459,6697;0,0586664
3460,6338;0,0583226
3461,5981;0,0579431
3462,5623;0,0575304
3463,5266;0,0570945
3464,4907;0,0566468
3465,4551;0,0561955
3466,4192;0,0557466
3467,3835;0,0553075
3468,3477;0,0548886
3469,3120;0,0545003
3470,2761;0,0541453
3471,2405;0,0538138
3472,2046;0,0534868
3473,1689;0,0531482
3474,1331;0,0527972
3475,0974;0,0524525
3476,0615;0,0521401
3477,0259;0,051874
3477,9900;0,0516417
3478,9543;0,0514062
3479,9185;0,0511246
3480,8828;0,0507731
3481,8469;0,0503633
3482,8113;0,0499341
3483,7754;0,0495248
3484,7397;0,0491503
3485,7039;0,0487962
3486,6682;0,0484342
3487,6323;0,0480442
3488,5967;0,0476296
3489,5608;0,0472152
3490,5251;0,0468313
3491,4893;0,0464941
3492,4536;0,0461981
3493,4177;0,0459208
3494,3821;0,0456382
3495,3462;0,0453418
3496,3105;0,0450468
3497,2747;0,0447842
3498,2390;0,0445778
3499,2031;0,0444229
3500,1675;0,0442795
3501,1316;0,0440834
3502,0959;0,0437791
3503,0601;0,0433583
3504,0244;0,0428719
3504,9885;0,0423953
3505,9529;0,0419769
3506,9170;0,0416139
3507,8813;0,0412646
3508,8455;0,0408803
3509,8098;0,0404394
3510,7739;0,0399635
3511,7383;0,039501
3512,7024;0,039093
3513,6667;0,0387509
3514,6309;0,0384597
3515,5952;0,0381972
3516,5593;0,0379527
3517,5237;0,0377335
3518,4878;0,0375557
3519,4521;0,0374285
3520,4163;0,0373413
3521,3806;0,0372634
3522,3447;0,0371549
3523,3091;0,0369837
3524,2732;0,0367359
3525,2375;0,0364118
3526,2017;0,0360152
3527,1660;0,0355479
3528,1301;0,0350191
3529,0945;0,0344574
3530,0586;0,0339111
3531,0229;0,0334279
3531,9871;0,0330341
3532,9514;0,0327242
3533,9155;0,0324643
3534,8799;0,0322078
3535,8440;0,0319179
3536,8083;0,0315907
3537,7725;0,0312613
3538,7368;0,0309855
3539,7009;0,0308091
3540,6653;0,0307463
3541,6294;0,0307712
3542,5938;0,0308179
3543,5579;0,0307897
3544,5222;0,030595
3545,4863;0,030203
3546,4507;0,029675
3547,4148;0,0291241
3548,3792;0,0286377
3549,3433;0,028235
3550,3076;0,0278775
3551,2717;0,0275063
3552,2361;0,0270844
3553,2002;0,0266251
3554,1646;0,0261843
3555,1287;0,0258212
3556,0930;0,0255632
3557,0571;0,0254025
3558,0215;0,0253151
3558,9856;0,0252821
3559,9500;0,0253007
3560,9141;0,0253798
3561,8784;0,0255209
3562,8425;0,0256971
3563,8069;0,025833
3564,7710;0,0257865
3565,7354;0,0253785
3566,6995;0,0245416
3567,6638;0,0234718
3568,6279;0,0225068
3569,5923;0,0218409
3570,5564;0,0214438
3571,5208;0,0211843
3572,4849;0,0209533
3573,4492;0,0207061
3574,4133;0,0204491
3575,3777;0,0202071
3576,3418;0,0199956
3577,3062;0,0198131
3578,2703;0,0196531
3579,2346;0,0195202
3580,1987;0,0194319
3581,1631;0,0194032
3582,1272;0,0194276
3583,0916;0,0194731
3584,0557;0,0194889
3585,0200;0,0194057
3585,9841;0,0191456
3586,9485;0,0186927
3587,9126;0,0181824
3588,8770;0,0178292
3589,8411;0,0177341
3590,8054;0,0178269
3591,7695;0,0179613
3592,7339;0,0180125
3593,6980;0,0179196
3594,6624;0,0176972
3595,6265;0,0174172
3596,5908;0,0171499
3597,5549;0,016906
3598,5193;0,0166384
3599,4834;0,0162962
3600,4478;0,0158818
3601,4119;0,015458
3602,3762;0,0150947
3603,3403;0,0148109
3604,3047;0,0145649
3605,2688;0,0142833
3606,2332;0,0138975
3607,1973;0,0133831
3608,1616;0,0127955
3609,1257;0,0122612
3610,0901;0,0119036
3611,0542;0,0117693
3612,0186;0,011813
3612,9827;0,0119319
3613,9470;0,0120156
3614,9111;0,0119838
3615,8755;0,0118031
3616,8396;0,0114854
3617,8040;0,0110828
3618,7681;0,0106898
3619,7324;0,0104377
3620,6965;0,0104339
3621,6609;0,01067
3622,6250;0,0110078
3623,5894;0,0112628
3624,5535;0,0112991
3625,5178;0,0110699
3626,4819;0,0105904
3627,4463;0,00988609
3628,4104;0,00902927
3629,3748;0,00824083
3630,3389;0,0077509
3631,3032;0,00754413
3632,2673;0,00741166
3633,2317;0,00716914
3634,1958;0,00676892
3635,1602;0,00628185
3636,1243;0,00581699
3637,0886;0,00544466
3638,0527;0,00517146
3639,0171;0,00497035
3639,9812;0,00482409
3640,9456;0,00473912
3641,9097;0,0047235
3642,8740;0,00475941
3643,8381;0,00480508
3644,8025;0,00482628
3645,7666;0,00481273
3646,7310;0,00471614
3647,6951;0,00433871
3648,6594;0,00347476
3649,6235;0,00236906
3650,5879;0,00157044
3651,5520;0,00125682
3652,5164;0,00119303
3653,4805;0,00109704
3654,4448;0,000840941
3655,4089;0,000460407
3656,3733;8,29667E-05
3657,3374;-0,00017134
3658,3018;-0,000272996
3659,2659;-0,000286407
3660,2302;-0,000293021
3661,1943;-0,000318142
3662,1587;-0,000327436
3663,1228;-0,000282344
3664,0872;-0,000193555
3665,0513;-0,000112121
3666,0156;-7,46338E-05
3666,9797;-6,01625E-05
3667,9441;-1,93098E-05
3668,9082;4,98064E-05
3669,8726;9,00899E-05
3670,8367;5,21437E-05
3671,8010;-7,95833E-05
3672,7651;-0,000294631
3673,7295;-0,000549717
3674,6936;-0,000788862
3675,6580;-0,000967341
3676,6221;-0,00103192
3677,5864;-0,000954162
3678,5505;-0,000792728
3679,5149;-0,000639656
3680,4790;-0,000528758
3681,4434;-0,000428625
3682,4075;-0,000306029
3683,3718;-0,000180227
3684,3359;-0,000111667
3685,3003;-0,000135777
3686,2644;-0,000204715
3687,2288;-0,000204735
3688,1929;-6,0635E-05
3689,1572;0,000189597
3690,1213;0,000473392
3691,0857;0,000768425
3692,0498;0,00106092
3693,0142;0,00131567
3693,9783;0,00150444
3694,9426;0,00162131
3695,9067;0,00166957
3696,8711;0,00164902
3697,8352;0,00156144
3698,7996;0,00142604
3699,7637;0,00128589
3700,7280;0,00119534
3701,6921;0,00119838
3702,6565;0,00130996
3703,6206;0,00150373
3704,5850;0,00171481
3705,5491;0,00186729
3706,5134;0,00190827
3707,4775;0,00181613
3708,4419;0,00156603
3709,4060;0,00108517
3710,3704;0,000308196
3711,3345;-0,000635487
3712,2988;-0,00140194
3713,2629;-0,00172933
3714,2273;-0,00162675
3715,1914;-0,00126194
3716,1558;-0,00079085
3717,1199;-0,000286286
3718,0842;0,000246829
3719,0483;0,000820581
3720,0127;0,00142169
3720,9768;0,00200343
3721,9412;0,00250719
3722,9053;0,00288834
3723,8696;0,00312822
3724,8337;0,00323528
3725,7981;0,00323714
3726,7622;0,0031616
3727,7266;0,00302017
3728,6907;0,00281679
3729,6550;0,00257627
3730,6191;0,00235939
3731,5835;0,00223382
3732,5476;0,00219723
3733,5120;0,00211343
3734,4761;0,00180387
3735,4404;0,00129473
3736,4045;0,000854126
3737,3689;0,00067342
3738,3330;0,000656582
3739,2974;0,000536422
3740,2615;8,59499E-05
3741,2258;-0,00074672
3742,1899;-0,00179262
3743,1543;-0,00271357
3744,1184;-0,00317575
3745,0828;-0,00307446
3746,0469;-0,00261144
3747,0112;-0,00213498
3747,9753;-0,00191932
3748,9397;-0,00207209
3749,9038;-0,00254561
3750,8682;-0,00312575
3751,8323;-0,00347546
3752,7966;-0,00340546
3753,7607;-0,00304109
3754,7251;-0,00264625
3755,6892;-0,00240836
3756,6536;-0,0023805
3757,6177;-0,00252066
3758,5820;-0,00273826
3759,5461;-0,00292722
3760,5105;-0,00301207
3761,4746;-0,0029866
3762,4390;-0,00290028
3763,4031;-0,00281356
3764,3674;-0,00276914
3765,3315;-0,00278799
3766,2959;-0,00287437
3767,2600;-0,00301884
3768,2244;-0,00319946
3769,1885;-0,00338151
3770,1528;-0,00351811
3771,1169;-0,00356503
3772,0813;-0,0035099
3773,0454;-0,00338913
3774,0098;-0,00326788
3774,9739;-0,00319977
3775,9382;-0,00320011
3776,9023;-0,00324949
3777,8667;-0,00331395
3778,8308;-0,00335418
3779,7952;-0,00332932
3780,7593;-0,00321915
3781,7236;-0,00304863
3782,6877;-0,00288194
3783,6521;-0,00279158
3784,6162;-0,00282395
3785,5806;-0,00297359
3786,5447;-0,00318282
3787,5090;-0,00337269
3788,4731;-0,00348742
3789,4375;-0,00351862
3790,4016;-0,0034934
3791,3660;-0,00343899
3792,3301;-0,00335177
3793,2944;-0,00319634
3794,2585;-0,00294073
3795,2229;-0,00260333
3796,1870;-0,00226688
3797,1514;-0,00203942
3798,1155;-0,00199281
3799,0798;-0,00212817
3800,0439;-0,00238572
3801,0083;-0,00267793
3801,9724;-0,00292968
3802,9368;-0,00312791
3803,9009;-0,00333368
3804,8652;-0,00361372
3805,8293;-0,0039494
3806,7937;-0,00421435
3807,7578;-0,00425448
3808,7222;-0,00402338
3809,6863;-0,0036439
3810,6506;-0,00332112
3811,6147;-0,00319385
3812,5791;-0,00324696
3813,5432;-0,00332925
3814,5076;-0,00326531
3815,4717;-0,00299045
3816,4360;-0,00259614
3817,4001;-0,00225615
3818,3645;-0,00212165
3819,3286;-0,00225505
3820,2930;-0,00259412
3821,2571;-0,00295483
3822,2214;-0,0031358
3823,1855;-0,00307467
3824,1499;-0,00287512
3825,1140;-0,00269272
3826,0784;-0,00262496
3827,0425;-0,002677
3828,0068;-0,00278607
3828,9709;-0,00287045
3829,9353;-0,00287547
3830,8994;-0,00279695
3831,8638;-0,00267589
3832,8279;-0,00257069
3833,7922;-0,00252161
3834,7563;-0,0025266
3835,7207;-0,00254721
3836,6848;-0,00254661
3837,6492;-0,00252883
3838,6133;-0,00253218
3839,5776;-0,0025886
3840,5417;-0,00270457
3841,5061;-0,00286623
3842,4702;-0,00303232
3843,4346;-0,00312768
3844,3987;-0,00307131
3845,3630;-0,00283551
3846,3271;-0,00248926
3847,2915;-0,00218492
3848,2556;-0,00209418
3849,2200;-0,00233224
3850,1841;-0,00290599
3851,1484;-0,00371576
3852,1125;-0,00460678
3853,0769;-0,00534723
3854,0410;-0,00557563
3855,0054;-0,00511449
3855,9695;-0,00423097
3856,9338;-0,00335344
3857,8979;-0,00275552
3858,8623;-0,00248844
3859,8264;-0,0024455
3860,7908;-0,00246379
3861,7549;-0,00243074
3862,7192;-0,00234663
3863,6833;-0,00228803
3864,6477;-0,00231381
3865,6118;-0,00242138
3866,5762;-0,00256735
3867,5403;-0,00269742
3868,5046;-0,00277207
3869,4688;-0,00279177
3870,4331;-0,00279768
3871,3972;-0,00283272
3872,3616;-0,00290394
3873,3257;-0,00298864
3874,2900;-0,0030642
3875,2542;-0,00312007
3876,2185;-0,00314486
3877,1826;-0,00311311
3878,1470;-0,00299421
3879,1111;-0,00278785
3880,0754;-0,0025539
3881,0396;-0,00239485
3882,0039;-0,00239832
3882,9680;-0,00258892
3883,9324;-0,00291518
3884,8965;-0,00326815
3885,8608;-0,00353109
3886,8250;-0,00364304
3887,7893;-0,00362444
3888,7534;-0,00353851
3889,7178;-0,00343333
3890,6819;-0,00331968
3891,6462;-0,00318284
3892,6104;-0,00300296
3893,5747;-0,00278514
3894,5388;-0,00257761
3895,5032;-0,00243909
3896,4673;-0,00238658
3897,4316;-0,00238446
3898,3958;-0,00238444
3899,3601;-0,00237196
3900,3242;-0,00237449
3901,2886;-0,00243424
3902,2527;-0,00258154
3903,2170;-0,00281482
3904,1812;-0,00308747
3905,1455;-0,00332875
3906,1096;-0,00349364
3907,0740;-0,00358582
3908,0381;-0,00363293
3909,0024;-0,00365211
3909,9666;-0,0036394
3910,9309;-0,00358266
3911,8950;-0,00347895
3912,8594;-0,00334137
3913,8235;-0,00319399
3914,7878;-0,00306417
3915,7520;-0,00297674
3916,7163;-0,00294321
3917,6804;-0,00294507
3918,6448;-0,00293586
3919,6089;-0,00287548
3920,5732;-0,00276533
3921,5374;-0,0026472
3922,5017;-0,00257557
3923,4658;-0,00258507
3924,4302;-0,00266569
3925,3943;-0,00276355
3926,3586;-0,00281647
3927,3228;-0,00279586
3928,2871;-0,00271981
3929,2512;-0,00263965
3930,2156;-0,00261789
3931,1797;-0,00269834
3932,1440;-0,00287441
3933,1082;-0,00308766
3934,0725;-0,00326893
3935,0366;-0,00338005
3936,0010;-0,00341956
3936,9651;-0,00340292
3937,9294;-0,00334448
3938,8936;-0,00325316
3939,8579;-0,00313904
3940,8220;-0,00302036
3941,7864;-0,00292013
3942,7505;-0,00285184
3943,7148;-0,00280911
3944,6790;-0,0027745
3945,6433;-0,00273733
3946,6074;-0,00270514
3947,5718;-0,00270283
3948,5359;-0,0027594
3949,5002;-0,00288606
3950,4644;-0,00306214
3951,4287;-0,00324455
3952,3928;-0,00339199
3953,3572;-0,00348173
3954,3213;-0,00351201
3955,2856;-0,00349597
3956,2498;-0,00345308
3957,2141;-0,00340131
3958,1782;-0,00335377
3959,1426;-0,00332034
3960,1067;-0,0033108
3961,0710;-0,00333411
3962,0352;-0,00339265
3962,9995;-0,00347673
3963,9636;-0,00356582
3964,9280;-0,00363604
3965,8921;-0,00367053
3966,8564;-0,00366492
3967,8206;-0,0036267
3968,7849;-0,00356959
3969,7490;-0,00350675
3970,7134;-0,00344728
3971,6775;-0,00339766
3972,6418;-0,00336501
3973,6060;-0,00335788
3974,5703;-0,00338253
3975,5344;-0,00343781
3976,4988;-0,00351315
3977,4629;-0,00359236
3978,4272;-0,00366067
3979,3914;-0,00371088
3980,3557;-0,00374512
3981,3198;-0,00377148
3982,2842;-0,00379728
3983,2483;-0,00382299
3984,2126;-0,00384082
3985,1768;-0,00383922
3986,1411;-0,00381052
3987,1052;-0,00375693
3988,0696;-0,00369152
3989,0337;-0,00363244
3989,9980;-0,00359543
3990,9622;-0,00358758
3991,9265;-0,00360715
3992,8906;-0,00364796
3993,8550;-0,0037041
3994,8191;-0,00377078
3995,7834;-0,0038417
3996,7476;-0,00390674
3997,7119;-0,0039535
3998,6760;-0,00397242
3999,6404;-0,00396201
4000,6045;-0,00353375

##### Extended Information
[Comments]
Sample name
Comment
Username
Division
Organization;UNIVERSIDAD INDUSTRIAL DE SANTANDER

[Detailed Information]
Creation date;19/03/2025 2:52 p.m.

Data array type;Linear data array
Horizontal axis;Wavenumber [cm-1]
Vertical axis;Abs
Start;399,193 cm-1
End;4000,6 cm-1
Data interval;0,964233 cm-1
Data points;3736    

[Measurement Information]
Model name;FT/IR-4X1typeA
Serial No.;A035162111

Accessory;ATR PRO 4X
Accessory S/N;A021162126
Incident angle;45 deg

Measurement date;19/03/2025 2:51 p.m.

Light source;Standard
Detector;TGS
Accumulation;40
Resolution;4 cm-1
Zero filling;On
Apodization;Cosine
Gain;Auto (8)
Aperture;Auto (7 mm)
Scan speed;Auto (2 mm/sec)
Filter;Auto (12800 Hz)

