TITLE;
DATA TYPE;INFRARED SPECTRUM
ORIGIN;JASCO
OWNER;
DATE;25/01/29
TIME;14:06:39
SPECTROMETER/DATA SYSTEM;
LOCALE;9226
RESOLUTION;
DELTAX;0,964233
XUNITS;1/CM
YUNITS;ABSORBANCE
FIRSTX;  399,1927
LASTX; 4000,6047
NPOINTS;    3736
FIRSTY;     0,17707
MAXY;     0,21456
MINY;     0,01013
XYDATA
399,1927;0,177069
400,1569;0,17625
401,1211;0,174865
402,0854;0,173364
403,0496;0,172223
404,0138;0,171789
404,9781;0,17216
405,9423;0,173114
406,9065;0,174203
407,8708;0,175002
408,8350;0,175339
409,7992;0,175338
410,7635;0,175271
411,7277;0,175337
412,6919;0,175554
413,6562;0,175806
414,6204;0,175987
415,5846;0,176103
416,5489;0,176278
417,5131;0,176696
418,4773;0,17742
419,4416;0,178231
420,4058;0,17879
421,3700;0,178977
422,3343;0,178909
423,2985;0,178764
424,2627;0,178666
425,2270;0,178666
426,1912;0,178755
427,1554;0,178901
428,1197;0,179089
429,0839;0,179321
430,0481;0,179606
431,0124;0,179927
431,9766;0,180239
432,9408;0,180484
433,9051;0,180612
434,8693;0,1806
435,8335;0,18045
436,7978;0,180173
437,7620;0,17978
438,7262;0,179295
439,6905;0,178772
440,6547;0,178306
441,6189;0,178012
442,5832;0,177949
443,5474;0,178048
444,5116;0,178111
445,4759;0,177932
446,4401;0,177431
447,4043;0,176715
448,3686;0,176007
449,3328;0,175525
450,2970;0,175367
451,2613;0,175463
452,2255;0,175635
453,1897;0,175698
454,1540;0,17556
455,1182;0,175241
456,0824;0,17485
457,0467;0,174526
458,0109;0,174383
458,9751;0,174453
459,9394;0,174669
460,9036;0,174915
461,8678;0,175073
462,8321;0,175065
463,7963;0,17487
464,7605;0,174537
465,7248;0,174173
466,6890;0,173877
467,6532;0,173684
468,6175;0,173539
469,5817;0,173349
470,5459;0,173063
471,5102;0,172737
472,4744;0,172526
473,4386;0,172586
474,4029;0,172956
475,3671;0,17353
476,3313;0,174132
477,2956;0,174595
478,2598;0,174814
479,2240;0,174759
480,1883;0,174472
481,1525;0,174043
482,1167;0,173596
483,0810;0,173264
484,0452;0,173165
485,0094;0,173366
485,9737;0,173851
486,9379;0,174524
487,9021;0,17524
488,8664;0,175851
489,8306;0,176238
490,7948;0,176339
491,7591;0,176179
492,7233;0,175867
493,6875;0,175547
494,6518;0,17533
495,6160;0,175253
496,5802;0,175279
497,5445;0,175337
498,5087;0,175366
499,4729;0,175352
500,4372;0,175332
501,4014;0,175367
502,3656;0,175498
503,3299;0,175708
504,2941;0,175929
505,2583;0,176086
506,2226;0,176147
507,1868;0,176145
508,1510;0,176163
509,1153;0,176291
510,0795;0,176574
511,0437;0,176983
512,0080;0,177437
512,9722;0,177848
513,9365;0,178163
514,9007;0,17838
515,8649;0,178542
516,8292;0,178699
517,7934;0,178877
518,7576;0,179063
519,7219;0,179215
520,6861;0,179304
521,6503;0,17932
522,6146;0,179274
523,5788;0,179184
524,5430;0,179067
525,5073;0,178939
526,4715;0,178809
527,4357;0,178672
528,4000;0,178511
529,3642;0,1783
530,3284;0,178015
531,2927;0,177643
532,2569;0,177194
533,2211;0,176696
534,1854;0,176195
535,1496;0,17574
536,1138;0,175374
537,0781;0,175127
538,0423;0,175003
539,0065;0,174981
539,9708;0,175021
540,9350;0,175078
541,8992;0,175127
542,8635;0,175172
543,8277;0,175238
544,7919;0,175348
545,7562;0,175505
546,7204;0,175686
547,6846;0,175857
548,6489;0,175998
549,6131;0,176126
550,5773;0,176283
551,5416;0,176519
552,5058;0,17686
553,4700;0,177291
554,4343;0,177749
555,3985;0,178134
556,3627;0,17833
557,3270;0,17824
558,2912;0,17781
559,2554;0,177055
560,2197;0,176053
561,1839;0,174923
562,1481;0,173791
563,1124;0,172746
564,0766;0,171824
565,0408;0,171017
566,0051;0,170302
566,9693;0,169665
567,9335;0,169115
568,8978;0,168665
569,8620;0,168312
570,8262;0,168028
571,7905;0,167765
572,7547;0,167484
573,7189;0,167168
574,6832;0,166827
575,6474;0,166486
576,6116;0,166172
577,5759;0,1659
578,5401;0,165672
579,5043;0,165477
580,4686;0,165298
581,4328;0,165114
582,3970;0,164908
583,3613;0,164677
584,3255;0,164434
585,2897;0,164207
586,2540;0,164026
587,2182;0,163903
588,1824;0,163825
589,1467;0,163757
590,1109;0,163661
591,0751;0,16351
592,0394;0,163308
593,0036;0,163083
593,9678;0,162867
594,9321;0,162677
595,8963;0,162501
596,8605;0,162303
597,8248;0,162044
598,7890;0,161698
599,7532;0,161267
600,7175;0,160786
601,6817;0,160304
602,6459;0,159864
603,6102;0,159487
604,5744;0,159164
605,5386;0,15886
606,5029;0,158525
607,4671;0,158115
608,4313;0,157605
609,3956;0,157003
610,3598;0,156343
611,3240;0,155667
612,2883;0,155003
613,2525;0,154352
614,2167;0,153696
615,1810;0,153011
616,1452;0,152283
617,1094;0,151515
618,0737;0,150715
619,0379;0,149884
620,0021;0,149012
620,9664;0,148092
621,9306;0,147138
622,8948;0,146192
623,8591;0,145312
624,8233;0,144558
625,7875;0,14392
626,7518;0,143365
627,7160;0,142838
628,6802;0,142295
629,6445;0,141719
630,6087;0,141116
631,5729;0,1405
632,5372;0,13988
633,5014;0,139251
634,4656;0,138609
635,4299;0,137963
636,3941;0,13733
637,3583;0,136732
638,3226;0,136184
639,2868;0,135684
640,2510;0,135217
641,2153;0,134766
642,1795;0,134316
643,1437;0,133859
644,1080;0,133384
645,0722;0,132883
646,0364;0,132354
647,0007;0,131806
647,9649;0,131271
648,9291;0,130797
649,8934;0,130434
650,8576;0,130205
651,8218;0,130097
652,7861;0,130073
653,7503;0,130099
654,7145;0,130164
655,6788;0,130286
656,6430;0,130491
657,6072;0,130775
658,5715;0,131084
659,5357;0,131326
660,4999;0,131421
661,4642;0,131361
662,4284;0,131229
663,3926;0,131137
664,3569;0,131137
665,3211;0,131136
666,2853;0,130845
667,2496;0,129873
668,2138;0,128144
669,1780;0,126235
670,1423;0,124732
671,1065;0,123641
672,0707;0,122711
673,0350;0,121734
673,9992;0,120587
674,9634;0,119246
675,9277;0,117795
676,8919;0,116378
677,8561;0,115101
678,8204;0,113989
679,7846;0,113015
680,7488;0,11215
681,7131;0,111387
682,6773;0,110728
683,6415;0,110164
684,6058;0,109677
685,5700;0,10925
686,5342;0,10888
687,4985;0,10857
688,4627;0,108322
689,4269;0,108128
690,3912;0,107974
691,3554;0,107835
692,3196;0,107689
693,2839;0,107523
694,2481;0,107332
695,2123;0,107126
696,1766;0,106922
697,1408;0,10673
698,1050;0,106548
699,0693;0,106358
700,0335;0,106137
700,9977;0,105871
701,9620;0,105561
702,9262;0,105221
703,8904;0,104871
704,8547;0,104514
705,8189;0,104141
706,7831;0,103736
707,7474;0,103292
708,7116;0,102813
709,6758;0,102311
710,6401;0,101794
711,6043;0,101265
712,5685;0,100714
713,5328;0,100132
714,4970;0,0995186
715,4612;0,0990825
716,4255;0,0983807
717,3897;0,09765
718,3539;0,0969051
719,3182;0,0961669
720,2824;0,0954562
721,2466;0,0947815
722,2109;0,0941304
723,1751;0,0934741
724,1393;0,0927837
725,1036;0,0920477
726,0678;0,0912806
727,0320;0,090518
727,9963;0,0897999
728,9605;0,0891525
729,9247;0,0885799
730,8890;0,0880673
731,8532;0,0875931
732,8174;0,0871394
733,7817;0,0866965
734,7459;0,0862634
735,7101;0,0858445
736,6744;0,0854456
737,6386;0,085069
738,6028;0,0847099
739,5671;0,0843575
740,5313;0,0839998
741,4955;0,0836305
742,4598;0,0832517
743,4240;0,0828709
744,3882;0,0824946
745,3525;0,0821245
746,3167;0,0817585
747,2809;0,0813943
748,2452;0,0810317
749,2094;0,0806703
750,1736;0,0803055
751,1379;0,079929
752,1021;0,0795344
753,0663;0,079124
754,0306;0,0787103
754,9948;0,0783084
755,9590;0,0779249
756,9233;0,0775523
757,8875;0,0771745
758,8517;0,0767788
759,8160;0,0763675
760,7802;0,0759583
761,7444;0,0755738
762,7087;0,0752281
763,6729;0,0749198
764,6371;0,0746359
765,6014;0,0743619
766,5656;0,0740902
767,5298;0,0738198
768,4941;0,0735504
769,4583;0,0732758
770,4225;0,072985
771,3868;0,072669
772,3510;0,0723295
773,3152;0,0719813
774,2795;0,0716467
775,2437;0,0713441
776,2079;0,0710787
777,1722;0,0708407
778,1364;0,070611
779,1006;0,0703709
780,0649;0,0701101
781,0291;0,069829
781,9933;0,0695353
782,9576;0,0692385
783,9218;0,0689445
784,8860;0,0686546
785,8503;0,0683675
786,8145;0,068084
787,7787;0,0678098
788,7430;0,0675538
789,7072;0,0673236
790,6714;0,0671204
791,6357;0,066938
792,5999;0,0667669
793,5641;0,0666006
794,5284;0,066439
795,4926;0,0662863
796,4568;0,0661453
797,4211;0,0660115
798,3853;0,0658739
799,3495;0,0657208
800,3138;0,0655478
801,2780;0,0653616
802,2422;0,0651771
803,2065;0,0650098
804,1707;0,0648686
805,1349;0,0647534
806,0992;0,0646577
807,0634;0,0645732
808,0276;0,0644932
808,9919;0,0644124
809,9561;0,0643269
810,9203;0,0642338
811,8846;0,0641339
812,8488;0,0640334
813,8130;0,0639433
814,7773;0,0638755
815,7415;0,0638373
816,7057;0,0638281
817,6700;0,0638403
818,6342;0,0638635
819,5984;0,0638884
820,5627;0,0639081
821,5269;0,0639181
822,4911;0,0639149
823,4554;0,0638965
824,4196;0,0638643
825,3839;0,0638231
826,3481;0,063779
827,3123;0,0637348
828,2766;0,063688
829,2408;0,0636318
830,2050;0,0635593
831,1693;0,063468
832,1335;0,0633605
833,0977;0,063241
834,0620;0,0631116
835,0262;0,0629697
835,9904;0,062811
836,9547;0,0626334
837,9189;0,0624405
838,8831;0,0622423
839,8474;0,0620506
840,8116;0,0618756
841,7758;0,0617223
842,7401;0,0615904
843,7043;0,0614762
844,6685;0,0613746
845,6328;0,061281
846,5970;0,0611917
847,5612;0,0611037
848,5255;0,0610147
849,4897;0,0609231
850,4539;0,060828
851,4182;0,0607306
852,3824;0,060634
853,3466;0,0605439
854,3109;0,060467
855,2751;0,0604098
856,2393;0,0603758
857,2036;0,0603648
858,1678;0,0603727
859,1320;0,0603941
860,0963;0,0604249
861,0605;0,0604648
862,0247;0,0605175
862,9890;0,0605884
863,9532;0,0606828
864,9174;0,0608042
865,8817;0,0609545
866,8459;0,0611348
867,8101;0,0613459
868,7744;0,0615876
869,7386;0,061857
870,7028;0,0621474
871,6671;0,0624482
872,6313;0,0627466
873,5955;0,0630302
874,5598;0,0632897
875,5240;0,0635212
876,4882;0,063727
877,4525;0,0639171
878,4167;0,0641077
879,3809;0,0643197
880,3452;0,0645753
881,3094;0,0648939
882,2736;0,0652894
883,2379;0,0657694
884,2021;0,0663358
885,1663;0,0669865
886,1306;0,0677166
887,0948;0,0685175
888,0590;0,0693749
889,0233;0,0702674
889,9875;0,0711673
890,9517;0,0720445
891,9160;0,0728708
892,8802;0,073623
893,8444;0,0742814
894,8087;0,0748265
895,7729;0,0752377
896,7371;0,0754953
897,7014;0,0755872
898,6656;0,0755148
899,6298;0,0752952
900,5941;0,0749568
901,5583;0,0745317
902,5225;0,0740503
903,4868;0,0735401
904,4510;0,0730282
905,4152;0,0725429
906,3795;0,0721108
907,3437;0,0717518
908,3079;0,0714737
909,2722;0,0712741
910,2364;0,0711453
911,2007;0,0710815
912,1649;0,0710816
913,1292;0,0711466
914,0934;0,0712747
915,0576;0,071458
916,0219;0,0716842
916,9861;0,0719415
917,9503;0,0722227
918,9146;0,0725258
919,8788;0,0728515
920,8430;0,0731978
921,8073;0,0735579
922,7715;0,0739194
923,7357;0,0742681
924,7000;0,0745915
925,6642;0,0748825
926,6284;0,0751409
927,5927;0,0753735
928,5569;0,0755909
929,5211;0,0758043
930,4854;0,0760228
931,4496;0,0762529
932,4138;0,0764992
933,3781;0,0767666
934,3423;0,0770608
935,3065;0,0773885
936,2708;0,0777569
937,2350;0,0781741
938,1992;0,0786497
939,1635;0,0791934
940,1277;0,0798127
941,0919;0,0805097
942,0562;0,0812802
943,0204;0,0821159
943,9846;0,0830092
944,9489;0,0839575
945,9131;0,0849631
946,8773;0,0860305
947,8416;0,0871619
948,8058;0,0883568
949,7700;0,089614
950,7343;0,0909342
951,6985;0,0923217
952,6627;0,0937811
953,6270;0,0953136
954,5912;0,096914
955,5554;0,0985713
956,5197;0,100273
957,4839;0,102007
958,4481;0,103769
959,4124;0,105557
960,3766;0,107372
961,3408;0,109215
962,3051;0,111083
963,2693;0,112968
964,2335;0,114858
965,1978;0,116743
966,1620;0,118624
967,1262;0,120515
968,0905;0,122449
969,0547;0,12446
970,0189;0,126581
970,9832;0,12883
971,9474;0,131216
972,9116;0,133741
973,8759;0,136415
974,8401;0,139253
975,8043;0,142276
976,7686;0,145489
977,7328;0,148872
978,6970;0,152368
979,6613;0,155889
980,6255;0,15933
981,5897;0,162588
982,5540;0,165582
983,5182;0,168263
984,4824;0,170623
985,4467;0,172685
986,4109;0,174492
987,3751;0,176092
988,3394;0,177528
989,3036;0,178821
990,2678;0,179975
991,2321;0,180986
992,1963;0,181848
993,1605;0,182567
994,1248;0,183165
995,0890;0,183675
996,0532;0,184129
997,0175;0,18455
997,9817;0,184949
998,9459;0,185335
999,9102;0,185723
1000,8744;0,186145
1001,8386;0,186645
1002,8029;0,187268
1003,7671;0,188048
1004,7313;0,189001
1005,6956;0,190126
1006,6598;0,191415
1007,6240;0,19286
1008,5883;0,194452
1009,5525;0,196174
1010,5167;0,197996
1011,4810;0,199869
1012,4452;0,201731
1013,4094;0,203522
1014,3737;0,205192
1015,3379;0,206709
1016,3021;0,208061
1017,2664;0,209249
1018,2306;0,210283
1019,1948;0,21117
1020,1591;0,211918
1021,1233;0,212534
1022,0875;0,213031
1023,0518;0,213431
1024,0160;0,213755
1024,9802;0,214027
1025,9445;0,214256
1026,9087;0,214438
1027,8729;0,214551
1028,8372;0,214559
1029,8014;0,214415
1030,7656;0,214068
1031,7299;0,213466
1032,6941;0,212569
1033,6583;0,211365
1034,6226;0,209884
1035,5868;0,208199
1036,5510;0,206418
1037,5153;0,204662
1038,4795;0,203041
1039,4437;0,201636
1040,4080;0,20049
1041,3722;0,199609
1042,3364;0,198968
1043,3007;0,198522
1044,2649;0,198211
1045,2291;0,197966
1046,1934;0,197722
1047,1576;0,197423
1048,1218;0,197023
1049,0861;0,196486
1050,0503;0,195785
1051,0145;0,1949
1051,9788;0,193822
1052,9430;0,192553
1053,9072;0,191111
1054,8715;0,189516
1055,8357;0,187783
1056,7999;0,185902
1057,7642;0,183844
1058,7284;0,181572
1059,6926;0,179068
1060,6569;0,176352
1061,6211;0,173492
1062,5853;0,170594
1063,5496;0,16777
1064,5138;0,165113
1065,4780;0,162675
1066,4423;0,160465
1067,4065;0,15846
1068,3707;0,156617
1069,3350;0,154894
1070,2992;0,153248
1071,2634;0,151638
1072,2277;0,150024
1073,1919;0,148366
1074,1561;0,14663
1075,1204;0,144798
1076,0846;0,142871
1077,0488;0,140876
1078,0131;0,138861
1078,9773;0,136886
1079,9415;0,135013
1080,9058;0,133291
1081,8700;0,131751
1082,8342;0,130399
1083,7985;0,129225
1084,7627;0,128209
1085,7269;0,127328
1086,6912;0,126566
1087,6554;0,125913
1088,6196;0,125366
1089,5839;0,124923
1090,5481;0,124578
1091,5123;0,124324
1092,4766;0,124149
1093,4408;0,124043
1094,4050;0,123996
1095,3693;0,124003
1096,3335;0,124059
1097,2977;0,124158
1098,2620;0,124288
1099,2262;0,124432
1100,1904;0,124565
1101,1547;0,124658
1102,1189;0,124684
1103,0831;0,124625
1104,0474;0,124474
1105,0116;0,12424
1105,9758;0,123942
1106,9401;0,123602
1107,9043;0,123227
1108,8685;0,122803
1109,8328;0,12229
1110,7970;0,121635
1111,7612;0,120793
1112,7255;0,119748
1113,6897;0,118525
1114,6539;0,117188
1115,6182;0,115821
1116,5824;0,114503
1117,5466;0,113283
1118,5109;0,112172
1119,4751;0,11114
1120,4393;0,110131
1121,4036;0,109073
1122,3678;0,107898
1123,3320;0,106559
1124,2963;0,105035
1125,2605;0,103335
1126,2247;0,101496
1127,1890;0,0995608
1128,1532;0,0975768
1129,1174;0,09558
1130,0817;0,0935964
1131,0459;0,0916454
1132,0101;0,0897465
1132,9744;0,0879243
1133,9386;0,0862109
1134,9028;0,084644
1135,8671;0,0832621
1136,8313;0,0820978
1137,7955;0,0811713
1138,7598;0,0804875
1139,7240;0,0800362
1140,6882;0,0797963
1141,6525;0,079741
1142,6167;0,0798418
1143,5809;0,0800704
1144,5452;0,0804001
1145,5094;0,0808064
1146,4736;0,0812702
1147,4379;0,0817791
1148,4021;0,0823274
1149,3663;0,0829107
1150,3306;0,0835197
1151,2948;0,0841333
1152,2590;0,0847181
1153,2233;0,0852322
1154,1875;0,0856327
1155,1517;0,085881
1156,1160;0,085944
1157,0802;0,0857899
1158,0444;0,0853842
1159,0087;0,0846871
1159,9729;0,0836581
1160,9371;0,0822653
1161,9014;0,080497
1162,8656;0,0783706
1163,8298;0,0759359
1164,7941;0,0732701
1165,7583;0,0704682
1166,7225;0,0676306
1167,6868;0,0648504
1168,6510;0,062205
1169,6152;0,0597499
1170,5795;0,0575184
1171,5437;0,0555235
1172,5079;0,0537629
1173,4722;0,0522235
1174,4364;0,0508859
1175,4006;0,0497275
1176,3649;0,0487253
1177,3291;0,0478587
1178,2933;0,0471109
1179,2576;0,0464688
1180,2218;0,0459221
1181,1860;0,0454622
1182,1503;0,0450811
1183,1145;0,0447729
1184,0787;0,0445349
1185,0430;0,0443682
1186,0072;0,0442774
1186,9714;0,044268
1187,9357;0,0443443
1188,8999;0,0445076
1189,8641;0,0447565
1190,8284;0,0450872
1191,7926;0,0454952
1192,7568;0,0459749
1193,7211;0,0465191
1194,6853;0,0471189
1195,6495;0,0477626
1196,6138;0,0484376
1197,5780;0,0491312
1198,5422;0,0498329
1199,5065;0,0505182
1200,4707;0,0512156
1201,4349;0,0519003
1202,3992;0,0525646
1203,3634;0,0531995
1204,3276;0,053797
1205,2919;0,0543529
1206,2561;0,0548699
1207,2203;0,055359
1208,1846;0,0558385
1209,1488;0,0563315
1210,1130;0,0568619
1211,0773;0,0574501
1212,0415;0,0581097
1213,0057;0,0588451
1213,9700;0,0596515
1214,9342;0,0605163
1215,8984;0,0614216
1216,8627;0,0623464
1217,8269;0,0632695
1218,7911;0,0641728
1219,7554;0,0650435
1220,7196;0,0658748
1221,6838;0,0666652
1222,6481;0,0674162
1223,6123;0,0681294
1224,5765;0,0688051
1225,5408;0,069442
1226,5050;0,0700377
1227,4692;0,07059
1228,4335;0,0710966
1229,3977;0,0715549
1230,3619;0,0719615
1231,3262;0,0723118
1232,2904;0,0726013
1233,2546;0,0728268
1234,2189;0,0729888
1235,1831;0,073093
1236,1473;0,0731493
1237,1116;0,0731697
1238,0758;0,0731643
1239,0400;0,0731385
1240,0043;0,073092
1240,9685;0,0730201
1241,9327;0,0729166
1242,8970;0,0727763
1243,8612;0,0725954
1244,8254;0,072372
1245,7897;0,0721059
1246,7539;0,0717992
1247,7181;0,0714576
1248,6824;0,0710899
1249,6466;0,070708
1250,6108;0,0703251
1251,5751;0,0699533
1252,5393;0,069602
1253,5035;0,0692755
1254,4678;0,0689719
1255,4320;0,0686823
1256,3962;0,0683939
1257,3605;0,0680935
1258,3247;0,0677715
1259,2889;0,067424
1260,2532;0,0670516
1261,2174;0,0666557
1262,1816;0,0662354
1263,1459;0,0657872
1264,1101;0,0653069
1265,0743;0,0647916
1266,0386;0,0642409
1267,0028;0,0636563
1267,9670;0,0630399
1268,9313;0,0623951
1269,8955;0,0617275
1270,8597;0,0610453
1271,8240;0,0603581
1272,7882;0,0596745
1273,7524;0,0590006
1274,7167;0,0583398
1275,6809;0,0576944
1276,6451;0,0570666
1277,6094;0,0564571
1278,5736;0,0558637
1279,5378;0,0552808
1280,5021;0,0547018
1281,4663;0,0541237
1282,4305;0,0535502
1283,3948;0,0529917
1284,3590;0,052462
1285,3232;0,0519745
1286,2875;0,0515393
1287,2517;0,0511623
1288,2159;0,0508448
1289,1802;0,0505841
1290,1444;0,0503747
1291,1086;0,0502108
1292,0729;0,0500906
1293,0371;0,0500188
1294,0013;0,0500056
1294,9656;0,0500624
1295,9298;0,0501954
1296,8940;0,0504022
1297,8583;0,050673
1298,8225;0,0509954
1299,7867;0,0513602
1300,7510;0,0517631
1301,7152;0,0522039
1302,6794;0,0526836
1303,6437;0,0532026
1304,6079;0,0537591
1305,5721;0,0543492
1306,5364;0,0549664
1307,5006;0,0556019
1308,4648;0,0562462
1309,4291;0,056891
1310,3933;0,057529
1311,3575;0,058152
1312,3218;0,0587467
1313,2860;0,059293
1314,2502;0,0597652
1315,2145;0,0601371
1316,1787;0,0603886
1317,1429;0,0605117
1318,1072;0,0605148
1319,0714;0,0604239
1320,0356;0,0602749
1320,9999;0,0601029
1321,9641;0,059932
1322,9283;0,0597746
1323,8926;0,0596352
1324,8568;0,0595168
1325,8210;0,0594214
1326,7853;0,059349
1327,7495;0,0592932
1328,7137;0,0592408
1329,6780;0,0591743
1330,6422;0,0590765
1331,6064;0,0589357
1332,5707;0,0587464
1333,5349;0,0585076
1334,4991;0,058217
1335,4634;0,0578668
1336,4276;0,0574451
1337,3918;0,0569459
1338,3561;0,0563837
1339,3203;0,0558015
1340,2845;0,0552559
1341,2488;0,0547866
1342,2130;0,0544
1343,1772;0,0540791
1344,1415;0,0538036
1345,1057;0,0535645
1346,0699;0,0533686
1347,0342;0,0532353
1347,9984;0,0531863
1348,9626;0,0532346
1349,9269;0,0533774
1350,8911;0,0535968
1351,8553;0,0538684
1352,8196;0,0541723
1353,7838;0,0545012
1354,7480;0,0548592
1355,7123;0,0552523
1356,6765;0,0556786
1357,6407;0,0561258
1358,6050;0,056578
1359,5692;0,0570247
1360,5334;0,0574639
1361,4977;0,0578988
1362,4619;0,0583298
1363,4261;0,05875
1364,3904;0,059148
1365,3546;0,0595138
1366,3188;0,0598399
1367,2831;0,0601189
1368,2473;0,0603408
1369,2115;0,0604925
1370,1758;0,0605581
1371,1400;0,0605197
1372,1042;0,0603608
1373,0685;0,0600747
1374,0327;0,0596767
1374,9969;0,0592039
1375,9612;0,0586915
1376,9254;0,0581447
1377,8896;0,0575372
1378,8539;0,0568388
1379,8181;0,0560479
1380,7823;0,0552043
1381,7466;0,0543674
1382,7108;0,0535754
1383,6750;0,0528209
1384,6393;0,052062
1385,6035;0,0512653
1386,5677;0,050453
1387,5320;0,0497112
1388,4962;0,0491304
1389,4604;0,0487357
1390,4247;0,0484837
1391,3889;0,0483092
1392,3531;0,0481637
1393,3174;0,0480303
1394,2816;0,0479197
1395,2458;0,0478552
1396,2101;0,0478541
1397,1743;0,0479186
1398,1385;0,0480417
1399,1028;0,0482146
1400,0670;0,0484285
1401,0313;0,0486738
1401,9955;0,0489413
1402,9597;0,0492268
1403,9240;0,0495348
1404,8882;0,0498741
1405,8524;0,0502507
1406,8167;0,0506608
1407,7809;0,0510962
1408,7451;0,051554
1409,7094;0,0520419
1410,6736;0,0525717
1411,6378;0,0531454
1412,6021;0,0537466
1413,5663;0,0543459
1414,5305;0,0549161
1415,4948;0,0554408
1416,4590;0,0559148
1417,4232;0,0563379
1418,3875;0,05671
1419,3517;0,0570276
1420,3159;0,0572785
1421,2802;0,057439
1422,2444;0,0574814
1423,2086;0,0573901
1424,1729;0,0571735
1425,1371;0,0568592
1426,1013;0,0564687
1427,0656;0,0559951
1428,0298;0,0554095
1428,9940;0,0547011
1429,9583;0,0539164
1430,9225;0,0531466
1431,8867;0,0524593
1432,8510;0,0518464
1433,8152;0,0512328
1434,7794;0,0505341
1435,7437;0,0497387
1436,7079;0,0489636
1437,6721;0,0483818
1438,6364;0,0480688
1439,6006;0,04797
1440,5648;0,0479909
1441,5291;0,0480679
1442,4933;0,0481806
1443,4575;0,0483345
1444,4218;0,0485407
1445,3860;0,0488018
1446,3502;0,0491087
1447,3145;0,0494441
1448,2787;0,0497888
1449,2429;0,0501261
1450,2072;0,0504438
1451,1714;0,0507329
1452,1356;0,0509828
1453,0999;0,051175
1454,0641;0,0512739
1455,0283;0,0512189
1455,9926;0,0509508
1456,9568;0,050518
1457,9210;0,0501312
1458,8853;0,0499492
1459,8495;0,0499309
1460,8137;0,0499479
1461,7780;0,0498761
1462,7422;0,0496038
1463,7064;0,0490458
1464,6707;0,0482081
1465,6349;0,0472262
1466,5991;0,0462694
1467,5634;0,0454004
1468,5276;0,0445552
1469,4918;0,0436012
1470,4561;0,0423919
1471,4203;0,0408322
1472,3845;0,0389979
1473,3488;0,0371877
1474,3130;0,0357101
1475,2772;0,03463
1476,2415;0,0338252
1477,2057;0,0331638
1478,1699;0,0325737
1479,1342;0,0320302
1480,0984;0,0315322
1481,0626;0,031091
1482,0269;0,030724
1482,9911;0,0304453
1483,9553;0,030255
1484,9196;0,0301337
1485,8838;0,0300503
1486,8480;0,0299793
1487,8123;0,0299259
1488,7765;0,029941
1489,7407;0,0300874
1490,7050;0,0303748
1491,6692;0,0307554
1492,6334;0,0311776
1493,5977;0,0316184
1494,5619;0,0320845
1495,5261;0,0326029
1496,4904;0,0332052
1497,4546;0,0338986
1498,4188;0,0346455
1499,3831;0,0353838
1500,3473;0,0360662
1501,3115;0,0366691
1502,2758;0,0371792
1503,2400;0,0375784
1504,2042;0,0378292
1505,1685;0,037859
1506,1327;0,0375865
1507,0969;0,037066
1508,0612;0,0365494
1509,0254;0,0361966
1509,9896;0,0359568
1510,9539;0,0357308
1511,9181;0,0354506
1512,8823;0,0350736
1513,8466;0,0345727
1514,8108;0,0339462
1515,7750;0,0332297
1516,7393;0,0324855
1517,7035;0,0317626
1518,6677;0,0310648
1519,6320;0,0303653
1520,5962;0,0296592
1521,5604;0,0289999
1522,5247;0,0284655
1523,4889;0,0280914
1524,4531;0,0278517
1525,4174;0,0276984
1526,3816;0,0276007
1527,3458;0,0275527
1528,3101;0,027556
1529,2743;0,0276041
1530,2385;0,0276826
1531,2028;0,0277811
1532,1670;0,027905
1533,1312;0,0280746
1534,0955;0,0283038
1535,0597;0,0285795
1536,0239;0,0288666
1536,9882;0,0291217
1537,9524;0,0292948
1538,9166;0,0293241
1539,8809;0,0291693
1540,8451;0,028909
1541,8093;0,0287245
1542,7736;0,0286876
1543,7378;0,0287352
1544,7020;0,0288001
1545,6663;0,0288575
1546,6305;0,0289078
1547,5947;0,0289547
1548,5590;0,0289945
1549,5232;0,0290211
1550,4874;0,0290363
1551,4517;0,0290564
1552,4159;0,0291034
1553,3801;0,0291873
1554,3444;0,029293
1555,3086;0,029379
1556,2728;0,029379
1557,2371;0,029223
1558,2013;0,0289405
1559,1655;0,0287525
1560,1298;0,0288315
1561,0940;0,0291127
1562,0582;0,0294738
1563,0225;0,0298468
1563,9867;0,0302013
1564,9509;0,0305198
1565,9152;0,0307927
1566,8794;0,0310285
1567,8436;0,0312652
1568,8079;0,0315578
1569,7721;0,0319354
1570,7363;0,0323735
1571,7006;0,0328217
1572,6648;0,0332491
1573,6290;0,0336617
1574,5933;0,0340981
1575,5575;0,0346064
1576,5217;0,0352002
1577,4860;0,0358355
1578,4502;0,0364595
1579,4144;0,0370596
1580,3787;0,0376549
1581,3429;0,0382688
1582,3071;0,0389136
1583,2714;0,0395885
1584,2356;0,040287
1585,1998;0,0410039
1586,1641;0,0417354
1587,1283;0,0424708
1588,0925;0,0431859
1589,0568;0,043847
1590,0210;0,0444204
1590,9852;0,0448806
1591,9495;0,0452103
1592,9137;0,0453992
1593,8779;0,045447
1594,8422;0,045371
1595,8064;0,0452041
1596,7706;0,0449833
1597,7349;0,0447351
1598,6991;0,0444712
1599,6633;0,0441946
1600,6276;0,04391
1601,5918;0,0436292
1602,5560;0,043369
1603,5203;0,0431432
1604,4845;0,042954
1605,4487;0,0427907
1606,4130;0,0426365
1607,3772;0,0424822
1608,3414;0,0423382
1609,3057;0,0422335
1610,2699;0,0421967
1611,2341;0,0422324
1612,1984;0,0423171
1613,1626;0,0424105
1614,1268;0,0424728
1615,0911;0,042486
1616,0553;0,0424773
1617,0195;0,0425102
1617,9838;0,0426248
1618,9480;0,0428031
1619,9122;0,0430004
1620,8765;0,0431814
1621,8407;0,0433327
1622,8049;0,0434626
1623,7692;0,0435924
1624,7334;0,0437384
1625,6976;0,0439013
1626,6619;0,0440737
1627,6261;0,0442531
1628,5903;0,0444439
1629,5546;0,0446495
1630,5188;0,0448625
1631,4830;0,0450622
1632,4473;0,0452146
1633,4115;0,0452767
1634,3757;0,0452155
1635,3400;0,0450621
1636,3042;0,0449326
1637,2684;0,0449242
1638,2327;0,0450265
1639,1969;0,0451792
1640,1611;0,0453385
1641,1254;0,0454856
1642,0896;0,0456085
1643,0538;0,0456833
1644,0181;0,0456643
1644,9823;0,045504
1645,9465;0,0452193
1646,9108;0,0449386
1647,8750;0,0448004
1648,8392;0,0448177
1649,8035;0,044889
1650,7677;0,0448568
1651,7319;0,0445356
1652,6962;0,0438382
1653,6604;0,0430271
1654,6246;0,0425094
1655,5889;0,0423294
1656,5531;0,0422975
1657,5173;0,0422628
1658,4816;0,0421433
1659,4458;0,0418876
1660,4100;0,0414634
1661,3743;0,0408875
1662,3385;0,0402548
1663,3027;0,0396924
1664,2670;0,0392638
1665,2312;0,0389352
1666,1954;0,0386123
1667,1597;0,0381856
1668,1239;0,03758
1669,0881;0,0368226
1670,0524;0,036058
1671,0166;0,0354301
1671,9808;0,0349521
1672,9451;0,034527
1673,9093;0,0340501
1674,8735;0,0334871
1675,8378;0,0328977
1676,8020;0,0323855
1677,7662;0,03201
1678,7305;0,0317551
1679,6947;0,0315542
1680,6589;0,0313137
1681,6232;0,0309176
1682,5874;0,0302644
1683,5516;0,0293906
1684,5159;0,0285389
1685,4801;0,0279293
1686,4443;0,0275578
1687,4086;0,0273081
1688,3728;0,0270919
1689,3370;0,0268798
1690,3013;0,0266801
1691,2655;0,0265076
1692,2297;0,026363
1693,1940;0,0262261
1694,1582;0,0260672
1695,1224;0,0258649
1696,0867;0,025624
1697,0509;0,0253768
1698,0151;0,0251649
1698,9794;0,0250168
1699,9436;0,0249419
1700,9078;0,0249385
1701,8721;0,0250015
1702,8363;0,0251256
1703,8005;0,0253075
1704,7648;0,0255458
1705,7290;0,0258369
1706,6932;0,0261711
1707,6575;0,0265345
1708,6217;0,0269172
1709,5859;0,0273177
1710,5502;0,0277379
1711,5144;0,0281742
1712,4786;0,0286131
1713,4429;0,0290344
1714,4071;0,0294246
1715,3713;0,0297951
1716,3356;0,030189
1717,2998;0,0306469
1718,2640;0,0311578
1719,2283;0,0316769
1720,1925;0,0321771
1721,1567;0,0326578
1722,1210;0,0331258
1723,0852;0,0335829
1724,0494;0,0340233
1725,0137;0,0344394
1725,9779;0,0348281
1726,9421;0,035191
1727,9064;0,0355285
1728,8706;0,0358331
1729,8348;0,0360837
1730,7991;0,0362429
1731,7633;0,0362645
1732,7275;0,0361268
1733,6918;0,0358796
1734,6560;0,0356262
1735,6202;0,0354284
1736,5845;0,0352656
1737,5487;0,0350754
1738,5129;0,0347984
1739,4772;0,0344036
1740,4414;0,0339011
1741,4056;0,0333344
1742,3699;0,0327474
1743,3341;0,0321569
1744,2983;0,0315551
1745,2626;0,0309259
1746,2268;0,0302487
1747,1910;0,0294894
1748,1553;0,0286082
1749,1195;0,0276014
1750,0837;0,0265466
1751,0480;0,0255683
1752,0122;0,0247413
1752,9764;0,0240473
1753,9407;0,0234142
1754,9049;0,022775
1755,8691;0,0221057
1756,8334;0,0214287
1757,7976;0,0207836
1758,7618;0,020186
1759,7261;0,0196142
1760,6903;0,0190382
1761,6545;0,0184611
1762,6188;0,0179254
1763,5830;0,0174761
1764,5472;0,0171221
1765,5115;0,0168341
1766,4757;0,0165701
1767,4399;0,0162987
1768,4042;0,0160068
1769,3684;0,0156934
1770,3326;0,0153612
1771,2969;0,0150191
1772,2611;0,0146955
1773,2253;0,0144328
1774,1896;0,0142571
1775,1538;0,0141598
1776,1180;0,0141088
1777,0823;0,014069
1778,0465;0,0140164
1779,0107;0,0139447
1779,9750;0,0138636
1780,9392;0,0137871
1781,9034;0,013721
1782,8677;0,0136613
1783,8319;0,0136031
1784,7961;0,0135508
1785,7604;0,013516
1786,7246;0,0135071
1787,6888;0,0135196
1788,6531;0,0135349
1789,6173;0,0135252
1790,5815;0,0134677
1791,5458;0,0133643
1792,5100;0,0132517
1793,4742;0,0131757
1794,4385;0,0131538
1795,4027;0,013171
1796,3669;0,0131988
1797,3312;0,0132115
1798,2954;0,0131927
1799,2596;0,0131404
1800,2239;0,0130682
1801,1881;0,0129982
1802,1523;0,0129485
1803,1166;0,0129244
1804,0808;0,0129214
1805,0450;0,0129304
1806,0093;0,0129422
1806,9735;0,0129487
1807,9377;0,0129442
1808,9020;0,0129263
1809,8662;0,0128964
1810,8304;0,012859
1811,7947;0,0128184
1812,7589;0,0127769
1813,7231;0,0127349
1814,6874;0,0126932
1815,6516;0,0126555
1816,6158;0,0126292
1817,5801;0,0126234
1818,5443;0,0126435
1819,5085;0,0126872
1820,4728;0,0127438
1821,4370;0,0127983
1822,4012;0,0128357
1823,3655;0,0128463
1824,3297;0,0128294
1825,2939;0,0127933
1826,2582;0,0127486
1827,2224;0,0127023
1828,1866;0,0126563
1829,1509;0,0126119
1830,1151;0,0125736
1831,0793;0,0125477
1832,0436;0,012537
1833,0078;0,0125392
1833,9720;0,0125494
1834,9363;0,0125631
1835,9005;0,0125791
1836,8647;0,0125997
1837,8290;0,0126277
1838,7932;0,0126627
1839,7574;0,0126981
1840,7217;0,0127226
1841,6859;0,0127226
1842,6501;0,0126899
1843,6144;0,0126312
1844,5786;0,012569
1845,5428;0,0125261
1846,5071;0,0125085
1847,4713;0,0125062
1848,4355;0,0125049
1849,3998;0,0124955
1850,3640;0,0124771
1851,3282;0,0124563
1852,2925;0,0124423
1853,2567;0,0124406
1854,2209;0,0124503
1855,1852;0,0124654
1856,1494;0,012479
1857,1136;0,0124872
1858,0779;0,0124909
1859,0421;0,012493
1860,0063;0,0124953
1860,9706;0,0124963
1861,9348;0,0124926
1862,8990;0,0124815
1863,8633;0,0124644
1864,8275;0,0124463
1865,7917;0,0124347
1866,7560;0,0124372
1867,7202;0,0124576
1868,6844;0,0124915
1869,6487;0,0125271
1870,6129;0,0125525
1871,5771;0,0125622
1872,5414;0,0125558
1873,5056;0,0125341
1874,4698;0,0124978
1875,4341;0,0124508
1876,3983;0,0124038
1877,3625;0,0123728
1878,3268;0,0123733
1879,2910;0,0124115
1880,2552;0,012481
1881,2195;0,012563
1882,1837;0,0126336
1883,1479;0,0126718
1884,1122;0,0126678
1885,0764;0,0126248
1886,0406;0,0125566
1887,0049;0,0124828
1887,9691;0,0124226
1888,9333;0,0123892
1889,8976;0,0123839
1890,8618;0,012397
1891,8260;0,0124147
1892,7903;0,0124277
1893,7545;0,0124335
1894,7188;0,0124341
1895,6830;0,0124317
1896,6472;0,0124264
1897,6115;0,0124169
1898,5757;0,0124045
1899,5399;0,0123941
1900,5042;0,0123931
1901,4684;0,0124058
1902,4326;0,0124298
1903,3969;0,0124554
1904,3611;0,0124704
1905,3253;0,0124677
1906,2896;0,0124489
1907,2538;0,012423
1908,2180;0,0124012
1909,1823;0,0123907
1910,1465;0,0123914
1911,1107;0,0123978
1912,0750;0,0124048
1913,0392;0,0124111
1914,0034;0,0124185
1914,9677;0,0124292
1915,9319;0,0124431
1916,8961;0,0124573
1917,8604;0,0124674
1918,8246;0,01247
1919,7888;0,012464
1920,7531;0,0124505
1921,7173;0,0124309
1922,6815;0,0124067
1923,6458;0,0123802
1924,6100;0,0123545
1925,5742;0,0123343
1926,5385;0,0123244
1927,5027;0,0123289
1928,4669;0,0123503
1929,4312;0,0123889
1930,3954;0,0124418
1931,3596;0,0125035
1932,3239;0,0125666
1933,2881;0,0126227
1934,2523;0,0126633
1935,2166;0,0126808
1936,1808;0,0126704
1937,1450;0,0126335
1938,1093;0,012578
1939,0735;0,0125183
1940,0377;0,0124722
1941,0020;0,0124558
1941,9662;0,0124772
1942,9304;0,0125301
1943,8947;0,0125956
1944,8589;0,0126512
1945,8231;0,0126803
1946,7874;0,0126756
1947,7516;0,012637
1948,7158;0,0125707
1949,6801;0,0124892
1950,6443;0,0124108
1951,6085;0,0123545
1952,5728;0,0123324
1953,5370;0,012342
1954,5012;0,0123672
1955,4655;0,0123872
1956,4297;0,0123917
1957,3939;0,0123899
1958,3582;0,0124053
1959,3224;0,0124582
1960,2866;0,0125458
1961,2509;0,0126379
1962,2151;0,0126914
1963,1793;0,0126755
1964,1436;0,0125871
1965,1078;0,0124496
1966,0720;0,0122977
1967,0363;0,0121595
1968,0005;0,0120479
1968,9647;0,0119644
1969,9290;0,0119108
1970,8932;0,0118962
1971,8574;0,0119356
1972,8217;0,0120426
1973,7859;0,0122223
1974,7501;0,0124649
1975,7144;0,0127415
1976,6786;0,0130035
1977,6428;0,0131918
1978,6071;0,0132572
1979,5713;0,0131821
1980,5355;0,0129904
1981,4998;0,0127402
1982,4640;0,0125056
1983,4282;0,0123543
1984,3925;0,0123266
1985,3567;0,0124216
1986,3209;0,0125993
1987,2852;0,0127991
1988,2494;0,0129669
1989,2136;0,0130773
1990,1779;0,0131386
1991,1421;0,0131801
1992,1063;0,013229
1993,0706;0,0132921
1994,0348;0,0133568
1994,9990;0,0134057
1995,9633;0,0134316
1996,9275;0,0134396
1997,8917;0,013438
1998,8560;0,0134275
1999,8202;0,0134009
2000,7844;0,0133537
2001,7487;0,0132982
2002,7129;0,0132637
2003,6771;0,0132792
2004,6414;0,0133486
2005,6056;0,0134383
2006,5698;0,0134951
2007,5341;0,0134864
2008,4983;0,0134313
2009,4625;0,013392
2010,4268;0,0134282
2011,3910;0,0135507
2012,3552;0,0137097
2013,3195;0,0138252
2014,2837;0,0138373
2015,2479;0,0137455
2016,2122;0,0136108
2017,1764;0,0135185
2018,1406;0,0135263
2019,1049;0,0136362
2020,0691;0,0138065
2021,0333;0,0139857
2021,9976;0,0141389
2022,9618;0,0142518
2023,9260;0,0143191
2024,8903;0,0143336
2025,8545;0,0142886
2026,8187;0,01419
2027,7830;0,0140651
2028,7472;0,0139565
2029,7114;0,0139028
2030,6757;0,01392
2031,6399;0,0139971
2032,6041;0,0141087
2033,5684;0,0142342
2034,5326;0,0143668
2035,4968;0,0145067
2036,4611;0,0146465
2037,4253;0,0147641
2038,3895;0,014828
2039,3538;0,0148133
2040,3180;0,0147162
2041,2822;0,0145619
2042,2465;0,014398
2043,2107;0,01428
2044,1749;0,0142524
2045,1392;0,014334
2046,1034;0,0145087
2047,0676;0,0147252
2048,0320;0,0149124
2048,9961;0,0150072
2049,9604;0,0149813
2050,9246;0,0148499
2051,8889;0,0146615
2052,8530;0,0144773
2053,8174;0,0143495
2054,7815;0,0143035
2055,7458;0,0143291
2056,7100;0,0143881
2057,6743;0,0144349
2058,6384;0,0144399
2059,6028;0,0144033
2060,5669;0,0143501
2061,5313;0,0143133
2062,4954;0,0143147
2063,4597;0,0143537
2064,4238;0,0144121
2065,3882;0,0144663
2066,3523;0,0145015
2067,3167;0,0145155
2068,2808;0,0145148
2069,2451;0,0145074
2070,2092;0,0144986
2071,1736;0,0144903
2072,1377;0,0144823
2073,1021;0,0144709
2074,0662;0,0144495
2075,0305;0,0144113
2075,9946;0,0143563
2076,9590;0,0142976
2077,9231;0,0142594
2078,8875;0,0142664
2079,8516;0,0143277
2080,8159;0,0144274
2081,7800;0,0145281
2082,7444;0,0145887
2083,7085;0,0145855
2084,6729;0,014525
2085,6370;0,0144394
2086,6013;0,014369
2087,5654;0,0143406
2088,5298;0,0143566
2089,4939;0,0144002
2090,4583;0,0144516
2091,4224;0,0145029
2092,3867;0,0145616
2093,3508;0,0146395
2094,3152;0,0147358
2095,2793;0,01483
2096,2437;0,0148895
2097,2078;0,0148911
2098,1721;0,0148374
2099,1362;0,0147575
2100,1006;0,0146895
2101,0647;0,0146603
2102,0291;0,0146726
2102,9932;0,0147092
2103,9575;0,0147475
2104,9216;0,0147733
2105,8860;0,0147867
2106,8501;0,0147972
2107,8145;0,0148146
2108,7786;0,0148422
2109,7429;0,0148758
2110,7070;0,0149063
2111,6714;0,0149233
2112,6355;0,0149192
2113,5999;0,0148918
2114,5640;0,0148465
2115,5283;0,0147964
2116,4924;0,0147585
2117,4568;0,0147471
2118,4209;0,0147671
2119,3853;0,0148108
2120,3494;0,0148604
2121,3137;0,0148951
2122,2778;0,0148984
2123,2422;0,0148633
2124,2063;0,0147922
2125,1707;0,0146952
2126,1348;0,0145874
2127,0991;0,0144876
2128,0632;0,0144172
2129,0276;0,0143988
2129,9917;0,0144505
2130,9561;0,0145793
2131,9202;0,0147742
2132,8845;0,0150026
2133,8486;0,0152157
2134,8130;0,0153633
2135,7771;0,0154147
2136,7415;0,0153742
2137,7056;0,0152809
2138,6699;0,0151917
2139,6340;0,015157
2140,5984;0,0152007
2141,5625;0,0153147
2142,5269;0,0154692
2143,4910;0,0156324
2144,4553;0,0157865
2145,4194;0,0159319
2146,3838;0,0160763
2147,3479;0,0162184
2148,3123;0,0163367
2149,2764;0,0163941
2150,2407;0,0163533
2151,2048;0,0161979
2152,1692;0,0159464
2153,1333;0,0156547
2154,0977;0,0154077
2155,0618;0,015302
2156,0261;0,0154198
2156,9902;0,0157916
2157,9546;0,0163591
2158,9187;0,0169748
2159,8831;0,0174639
2160,8472;0,0177118
2161,8115;0,0177053
2162,7756;0,0175097
2163,7400;0,0172188
2164,7041;0,0169133
2165,6685;0,0166407
2166,6326;0,0164129
2167,5969;0,0162204
2168,5610;0,0160524
2169,5254;0,015911
2170,4895;0,0158127
2171,4539;0,0157778
2172,4180;0,0158142
2173,3823;0,0159071
2174,3464;0,0160217
2175,3108;0,0161183
2176,2749;0,0161707
2177,2393;0,0161746
2178,2034;0,0161413
2179,1677;0,0160845
2180,1318;0,016012
2181,0962;0,0159296
2182,0603;0,0158502
2183,0247;0,0157974
2183,9888;0,0157953
2184,9531;0,0158515
2185,9172;0,0159483
2186,8816;0,0160501
2187,8457;0,016124
2188,8101;0,0161575
2189,7742;0,0161618
2190,7385;0,0161581
2191,7026;0,0161585
2192,6670;0,0161563
2193,6311;0,0161315
2194,5955;0,0160655
2195,5596;0,0159562
2196,5239;0,0158222
2197,4880;0,0156983
2198,4524;0,0156223
2199,4165;0,0156208
2200,3809;0,0156961
2201,3450;0,0158196
2202,3093;0,0159375
2203,2734;0,0159911
2204,2378;0,015944
2205,2019;0,015801
2206,1663;0,0156076
2207,1304;0,0154256
2208,0947;0,0153005
2209,0588;0,0152401
2210,0232;0,0152187
2210,9873;0,0152011
2211,9517;0,0151692
2212,9158;0,0151315
2213,8801;0,0151125
2214,8442;0,015131
2215,8086;0,0151851
2216,7727;0,0152538
2217,7371;0,0153109
2218,7012;0,0153396
2219,6655;0,0153381
2220,6296;0,0153145
2221,5940;0,0152785
2222,5581;0,0152359
2223,5225;0,015189
2224,4866;0,0151396
2225,4509;0,0150905
2226,4150;0,0150441
2227,3794;0,0150025
2228,3435;0,0149686
2229,3079;0,0149499
2230,2720;0,0149588
2231,2363;0,0150063
2232,2004;0,0150921
2233,1648;0,0151967
2234,1289;0,0152848
2235,0933;0,0153201
2236,0574;0,0152852
2237,0217;0,0151932
2237,9858;0,0150824
2238,9502;0,0149962
2239,9143;0,0149599
2240,8787;0,0149698
2241,8428;0,0150003
2242,8071;0,0150228
2243,7712;0,0150226
2244,7356;0,0150019
2245,6997;0,0149701
2246,6641;0,0149306
2247,6282;0,0148768
2248,5925;0,0148003
2249,5566;0,014704
2250,5210;0,0146084
2251,4851;0,014545
2252,4495;0,0145392
2253,4136;0,0145961
2254,3779;0,0146949
2255,3420;0,0147983
2256,3064;0,0148682
2257,2705;0,0148806
2258,2349;0,0148327
2259,1990;0,0147405
2260,1633;0,0146316
2261,1274;0,0145346
2262,0918;0,01447
2263,0559;0,0144441
2264,0203;0,0144491
2264,9844;0,0144683
2265,9487;0,014485
2266,9128;0,0144889
2267,8772;0,0144769
2268,8413;0,0144512
2269,8057;0,0144151
2270,7698;0,0143727
2271,7341;0,0143292
2272,6982;0,0142922
2273,6626;0,014269
2274,6267;0,0142641
2275,5911;0,0142772
2276,5552;0,0143053
2277,5195;0,0143451
2278,4836;0,0143951
2279,4480;0,0144532
2280,4121;0,0145133
2281,3765;0,0145645
2282,3406;0,0145952
2283,3049;0,0145986
2284,2690;0,0145775
2285,2334;0,0145415
2286,1975;0,0145011
2287,1619;0,014461
2288,1260;0,0144183
2289,0903;0,0143667
2290,0544;0,0143036
2291,0188;0,0142339
2291,9829;0,0141686
2292,9473;0,0141185
2293,9114;0,0140885
2294,8757;0,0140771
2295,8398;0,0140794
2296,8042;0,0140927
2297,7683;0,0141177
2298,7327;0,0141565
2299,6968;0,0142076
2300,6611;0,0142639
2301,6252;0,0143138
2302,5896;0,0143464
2303,5537;0,0143563
2304,5181;0,0143453
2305,4822;0,0143224
2306,4465;0,0143011
2307,4106;0,0142963
2308,3750;0,0143201
2309,3391;0,0143776
2310,3035;0,0144641
2311,2676;0,0145651
2312,2319;0,014662
2313,1960;0,0147401
2314,1604;0,014795
2315,1245;0,0148341
2316,0889;0,0148716
2317,0530;0,0149209
2318,0173;0,0149873
2318,9814;0,0150627
2319,9458;0,0151234
2320,9099;0,0151349
2321,8743;0,0150639
2322,8384;0,0148968
2323,8027;0,0146525
2324,7668;0,0143791
2325,7312;0,0141368
2326,6953;0,0139754
2327,6597;0,0139168
2328,6238;0,0139475
2329,5881;0,0140243
2330,5522;0,014093
2331,5166;0,0141136
2332,4807;0,0140757
2333,4451;0,0139936
2334,4092;0,0138878
2335,3735;0,0137692
2336,3376;0,0136363
2337,3020;0,0134843
2338,2661;0,0133165
2339,2305;0,0131487
2340,1946;0,0130081
2341,1589;0,0129332
2342,1230;0,012969
2343,0874;0,0131346
2344,0515;0,0133696
2345,0159;0,0135452
2345,9800;0,0135745
2346,9443;0,0134863
2347,9084;0,013381
2348,8728;0,0133483
2349,8369;0,0134192
2350,8013;0,0135618
2351,7654;0,0137111
2352,7297;0,0138196
2353,6938;0,0138947
2354,6582;0,013975
2355,6223;0,0140648
2356,5867;0,0141149
2357,5508;0,0140691
2358,5151;0,0139152
2359,4792;0,0136934
2360,4436;0,0134692
2361,4077;0,0133025
2362,3721;0,0132319
2363,3362;0,0132676
2364,3005;0,0133877
2365,2646;0,0135476
2366,2290;0,0137054
2367,1931;0,0138442
2368,1575;0,0139727
2369,1216;0,0141059
2370,0859;0,0142468
2371,0500;0,0143832
2372,0144;0,0144986
2372,9785;0,0145838
2373,9429;0,0146396
2374,9070;0,0146712
2375,8713;0,0146806
2376,8354;0,0146644
2377,7998;0,0146194
2378,7639;0,0145491
2379,7283;0,0144676
2380,6924;0,0143962
2381,6567;0,0143552
2382,6208;0,0143552
2383,5852;0,0143932
2384,5493;0,014455
2385,5137;0,0145229
2386,4778;0,0145823
2387,4421;0,0146271
2388,4063;0,0146591
2389,3706;0,0146841
2390,3347;0,0147078
2391,2991;0,0147328
2392,2632;0,0147592
2393,2275;0,014786
2394,1917;0,0148128
2395,1560;0,01484
2396,1201;0,0148677
2397,0845;0,0148941
2398,0486;0,0149156
2399,0129;0,0149287
2399,9771;0,0149323
2400,9414;0,0149292
2401,9055;0,0149262
2402,8699;0,014931
2403,8340;0,0149486
2404,7983;0,0149782
2405,7625;0,0150133
2406,7268;0,0150449
2407,6909;0,015066
2408,6553;0,0150751
2409,6194;0,0150768
2410,5837;0,0150793
2411,5479;0,0150904
2412,5122;0,0151145
2413,4763;0,0151513
2414,4407;0,0151963
2415,4048;0,0152426
2416,3691;0,015283
2417,3333;0,015313
2418,2976;0,015332
2419,2617;0,0153433
2420,2261;0,0153521
2421,1902;0,0153619
2422,1545;0,015373
2423,1187;0,015383
2424,0830;0,0153894
2425,0471;0,0153928
2426,0115;0,0153974
2426,9756;0,0154084
2427,9399;0,0154283
2428,9041;0,0154555
2429,8684;0,0154852
2430,8325;0,0155127
2431,7969;0,0155362
2432,7610;0,0155574
2433,7253;0,0155789
2434,6895;0,0156025
2435,6538;0,0156277
2436,6179;0,0156532
2437,5823;0,0156784
2438,5464;0,0157038
2439,5107;0,0157299
2440,4749;0,0157561
2441,4392;0,0157796
2442,4033;0,0157971
2443,3677;0,0158069
2444,3318;0,0158106
2445,2961;0,0158128
2446,2603;0,0158188
2447,2246;0,0158327
2448,1887;0,0158559
2449,1531;0,0158867
2450,1172;0,0159221
2451,0815;0,0159579
2452,0457;0,0159897
2453,0100;0,0160138
2453,9741;0,016028
2454,9385;0,0160331
2455,9026;0,0160332
2456,8669;0,0160342
2457,8311;0,0160409
2458,7954;0,0160546
2459,7595;0,0160724
2460,7239;0,0160892
2461,6880;0,0161007
2462,6523;0,0161061
2463,6165;0,0161079
2464,5808;0,0161105
2465,5449;0,0161173
2466,5093;0,0161299
2467,4734;0,0161478
2468,4377;0,0161692
2469,4019;0,0161911
2470,3662;0,0162095
2471,3303;0,0162206
2472,2947;0,016223
2473,2588;0,0162195
2474,2231;0,0162165
2475,1873;0,016221
2476,1516;0,0162369
2477,1157;0,0162625
2478,0801;0,0162923
2479,0442;0,0163201
2480,0085;0,0163433
2480,9727;0,0163629
2481,9370;0,0163823
2482,9011;0,0164035
2483,8655;0,0164263
2484,8296;0,0164481
2485,7939;0,0164656
2486,7581;0,0164764
2487,7224;0,01648
2488,6865;0,0164785
2489,6509;0,0164768
2490,6150;0,0164815
2491,5793;0,0164986
2492,5435;0,0165297
2493,5078;0,0165704
2494,4719;0,0166109
2495,4363;0,0166412
2496,4004;0,0166563
2497,3647;0,0166589
2498,3289;0,016658
2499,2932;0,0166638
2500,2573;0,0166828
2501,2217;0,0167147
2502,1858;0,0167535
2503,1501;0,0167904
2504,1143;0,0168171
2505,0786;0,0168294
2506,0427;0,0168282
2507,0071;0,0168194
2507,9712;0,0168114
2508,9355;0,0168113
2509,8997;0,0168215
2510,8640;0,0168393
2511,8281;0,0168589
2512,7925;0,0168758
2513,7566;0,0168885
2514,7209;0,0168985
2515,6851;0,0169071
2516,6494;0,0169131
2517,6135;0,0169126
2518,5779;0,0169029
2519,5420;0,0168856
2520,5063;0,016868
2521,4705;0,0168598
2522,4348;0,0168686
2523,3989;0,0168957
2524,3633;0,0169355
2525,3274;0,0169779
2526,2917;0,0170131
2527,2559;0,0170341
2528,2202;0,0170389
2529,1843;0,0170299
2530,1487;0,0170126
2531,1128;0,0169941
2532,0771;0,0169809
2533,0413;0,0169775
2534,0056;0,0169845
2534,9697;0,0169985
2535,9341;0,0170143
2536,8982;0,0170273
2537,8625;0,0170362
2538,8267;0,0170434
2539,7910;0,0170521
2540,7551;0,0170637
2541,7195;0,0170758
2542,6836;0,0170836
2543,6479;0,0170833
2544,6121;0,0170757
2545,5764;0,0170671
2546,5405;0,0170669
2547,5049;0,0170826
2548,4690;0,0171159
2549,4333;0,0171608
2550,3975;0,0172065
2551,3618;0,0172417
2552,3259;0,017259
2553,2903;0,0172578
2554,2544;0,0172434
2555,2188;0,0172241
2556,1829;0,0172068
2557,1472;0,0171945
2558,1113;0,0171862
2559,0757;0,0171794
2560,0398;0,0171729
2561,0042;0,0171695
2561,9683;0,017174
2562,9326;0,0171903
2563,8967;0,0172179
2564,8611;0,0172518
2565,8252;0,0172854
2566,7896;0,0173148
2567,7537;0,0173411
2568,7180;0,0173683
2569,6821;0,0173989
2570,6465;0,0174309
2571,6106;0,017458
2572,5750;0,0174734
2573,5391;0,0174746
2574,5034;0,0174646
2575,4675;0,0174498
2576,4319;0,0174365
2577,3960;0,0174282
2578,3604;0,0174261
2579,3245;0,0174305
2580,2888;0,0174419
2581,2529;0,0174596
2582,2173;0,0174805
2583,1814;0,0175
2584,1458;0,0175141
2585,1099;0,017522
2586,0742;0,017527
2587,0383;0,0175335
2588,0027;0,0175438
2588,9668;0,0175564
2589,9312;0,0175678
2590,8953;0,0175761
2591,8596;0,0175831
2592,8237;0,017594
2593,7881;0,0176131
2594,7522;0,0176417
2595,7166;0,0176765
2596,6807;0,0177119
2597,6450;0,017742
2598,6091;0,0177634
2599,5735;0,0177756
2600,5376;0,0177813
2601,5020;0,0177853
2602,4661;0,0177939
2603,4304;0,0178119
2604,3945;0,017841
2605,3589;0,0178781
2606,3230;0,0179168
2607,2874;0,0179505
2608,2515;0,0179753
2609,2158;0,0179911
2610,1799;0,0180006
2611,1443;0,018007
2612,1084;0,0180127
2613,0728;0,0180194
2614,0369;0,0180292
2615,0012;0,0180443
2615,9653;0,0180657
2616,9297;0,018092
2617,8938;0,018119
2618,8582;0,0181425
2619,8223;0,0181604
2620,7866;0,0181749
2621,7507;0,0181902
2622,7151;0,0182101
2623,6792;0,0182353
2624,6436;0,0182636
2625,6077;0,0182919
2626,5720;0,0183183
2627,5361;0,0183432
2628,5005;0,0183678
2629,4646;0,0183922
2630,4290;0,0184153
2631,3931;0,0184363
2632,3574;0,0184562
2633,3215;0,0184787
2634,2859;0,0185076
2635,2500;0,0185445
2636,2144;0,0185864
2637,1785;0,0186274
2638,1428;0,0186621
2639,1069;0,0186886
2640,0713;0,0187095
2641,0354;0,0187295
2641,9998;0,0187521
2642,9639;0,0187775
2643,9282;0,018803
2644,8923;0,0188258
2645,8567;0,0188455
2646,8208;0,018864
2647,7852;0,0188843
2648,7493;0,0189077
2649,7136;0,018933
2650,6777;0,0189576
2651,6421;0,0189796
2652,6062;0,0189988
2653,5706;0,0190169
2654,5347;0,0190357
2655,4990;0,019056
2656,4631;0,0190775
2657,4275;0,0190997
2658,3916;0,0191225
2659,3560;0,0191464
2660,3201;0,0191712
2661,2844;0,0191954
2662,2485;0,0192172
2663,2129;0,0192354
2664,1770;0,0192506
2665,1414;0,019266
2666,1055;0,0192848
2667,0698;0,0193084
2668,0339;0,0193347
2668,9983;0,0193595
2669,9624;0,0193787
2670,9268;0,0193912
2671,8909;0,0193998
2672,8552;0,0194101
2673,8193;0,0194269
2674,7837;0,0194523
2675,7478;0,0194844
2676,7122;0,0195194
2677,6763;0,0195538
2678,6406;0,0195867
2679,6047;0,0196197
2680,5691;0,0196545
2681,5332;0,0196914
2682,4976;0,0197282
2683,4617;0,0197608
2684,4260;0,0197865
2685,3901;0,0198056
2686,3545;0,0198223
2687,3186;0,0198428
2688,2830;0,0198727
2689,2471;0,0199137
2690,2114;0,0199627
2691,1755;0,0200136
2692,1399;0,0200593
2693,1040;0,0200956
2694,0684;0,0201219
2695,0325;0,0201414
2695,9968;0,020159
2696,9609;0,0201788
2697,9253;0,0202027
2698,8894;0,0202301
2699,8538;0,0202592
2700,8179;0,0202884
2701,7822;0,0203172
2702,7463;0,0203467
2703,7107;0,0203784
2704,6748;0,0204133
2705,6392;0,0204514
2706,6033;0,0204916
2707,5676;0,0205325
2708,5317;0,0205723
2709,4961;0,0206091
2710,4602;0,020641
2711,4246;0,0206671
2712,3887;0,0206879
2713,3530;0,0207067
2714,3171;0,0207283
2715,2815;0,0207575
2716,2456;0,0207962
2717,2100;0,0208425
2718,1741;0,020891
2719,1384;0,0209355
2720,1025;0,0209717
2721,0669;0,0209988
2722,0310;0,0210186
2722,9954;0,0210347
2723,9595;0,0210503
2724,9238;0,0210682
2725,8879;0,0210903
2726,8523;0,0211185
2727,8164;0,0211534
2728,7808;0,0211941
2729,7449;0,0212378
2730,7092;0,0212806
2731,6733;0,0213189
2732,6377;0,0213506
2733,6018;0,0213751
2734,5662;0,0213929
2735,5303;0,0214047
2736,4946;0,0214118
2737,4587;0,0214164
2738,4231;0,0214225
2739,3872;0,0214349
2740,3516;0,0214572
2741,3157;0,0214894
2742,2800;0,0215274
2743,2441;0,0215641
2744,2085;0,0215928
2745,1726;0,0216101
2746,1370;0,0216172
2747,1011;0,021619
2748,0654;0,0216218
2749,0295;0,0216311
2749,9939;0,02165
2750,9580;0,021679
2751,9224;0,0217165
2752,8865;0,0217595
2753,8508;0,0218042
2754,8149;0,0218465
2755,7793;0,021884
2756,7434;0,0219162
2757,7078;0,0219449
2758,6719;0,0219729
2759,6362;0,0220029
2760,6003;0,0220358
2761,5647;0,022071
2762,5288;0,0221064
2763,4932;0,0221404
2764,4573;0,0221724
2765,4216;0,0222039
2766,3857;0,0222379
2767,3501;0,0222781
2768,3142;0,0223265
2769,2786;0,022382
2770,2427;0,0224393
2771,2070;0,0224915
2772,1711;0,0225334
2773,1355;0,0225647
2774,0996;0,022591
2775,0640;0,0226207
2776,0281;0,0226606
2776,9924;0,0227119
2777,9565;0,0227704
2778,9209;0,0228298
2779,8850;0,0228856
2780,8494;0,0229378
2781,8135;0,0229895
2782,7778;0,0230433
2783,7419;0,0230994
2784,7063;0,0231549
2785,6704;0,0232066
2786,6348;0,0232533
2787,5989;0,0232974
2788,5632;0,0233435
2789,5273;0,0233963
2790,4917;0,0234585
2791,4558;0,02353
2792,4202;0,0236086
2793,3843;0,0236905
2794,3486;0,0237718
2795,3127;0,0238495
2796,2771;0,0239224
2797,2412;0,0239922
2798,2056;0,0240625
2799,1697;0,0241375
2800,1340;0,0242204
2801,0981;0,0243121
2802,0625;0,0244114
2803,0266;0,024516
2803,9910;0,0246231
2804,9551;0,0247296
2805,9194;0,0248321
2806,8835;0,0249279
2807,8479;0,0250164
2808,8120;0,0251007
2809,7764;0,0251875
2810,7405;0,0252847
2811,7048;0,0253977
2812,6689;0,0255269
2813,6333;0,0256676
2814,5974;0,0258129
2815,5618;0,0259577
2816,5259;0,0261005
2817,4902;0,0262439
2818,4543;0,0263921
2819,4187;0,0265483
2820,3828;0,0267133
2821,3472;0,0268856
2822,3113;0,0270624
2823,2756;0,027241
2824,2397;0,0274201
2825,2041;0,0276008
2826,1682;0,0277869
2827,1326;0,0279842
2828,0967;0,0281984
2829,0610;0,028433
2830,0251;0,0286875
2830,9895;0,0289578
2831,9536;0,0292386
2832,9180;0,0295257
2833,8821;0,029818
2834,8464;0,0301178
2835,8105;0,0304289
2836,7749;0,0307556
2837,7390;0,0311022
2838,7034;0,031474
2839,6675;0,0318786
2840,6318;0,0323257
2841,5959;0,0328261
2842,5603;0,033387
2843,5244;0,0340075
2844,4888;0,0346747
2845,4529;0,0353629
2846,4172;0,0360358
2847,3813;0,0366529
2848,3457;0,0371778
2849,3098;0,0375848
2850,2742;0,0378639
2851,2383;0,0380205
2852,2026;0,0380727
2853,1667;0,0380458
2854,1311;0,0379668
2855,0952;0,0378598
2856,0596;0,0377433
2857,0237;0,0376289
2857,9880;0,0375239
2858,9521;0,0374332
2859,9165;0,0373619
2860,8806;0,0373165
2861,8450;0,0373035
2862,8091;0,0373275
2863,7734;0,0373897
2864,7375;0,037488
2865,7019;0,0376172
2866,6660;0,0377701
2867,6304;0,0379371
2868,5945;0,0381065
2869,5588;0,0382655
2870,5229;0,0384027
2871,4873;0,0385117
2872,4514;0,0385929
2873,4158;0,0386535
2874,3799;0,0387044
2875,3442;0,0387555
2876,3083;0,0388132
2877,2727;0,0388788
2878,2368;0,0389505
2879,2012;0,0390258
2880,1653;0,0391034
2881,1296;0,0391848
2882,0938;0,0392735
2883,0581;0,0393735
2884,0222;0,0394872
2884,9866;0,0396142
2885,9507;0,0397503
2886,9150;0,0398895
2887,8792;0,0400261
2888,8435;0,0401571
2889,8076;0,0402825
2890,7720;0,040405
2891,7361;0,0405275
2892,7004;0,0406518
2893,6646;0,0407789
2894,6289;0,0409094
2895,5930;0,0410442
2896,5574;0,0411841
2897,5215;0,0413288
2898,4858;0,0414762
2899,4500;0,0416223
2900,4143;0,0417631
2901,3784;0,041897
2902,3428;0,0420261
2903,3069;0,042156
2904,2712;0,0422941
2905,2354;0,042448
2906,1997;0,0426238
2907,1638;0,0428266
2908,1282;0,0430621
2909,0923;0,0433375
2910,0566;0,0436602
2911,0208;0,0440342
2911,9851;0,0444537
2912,9492;0,0448997
2913,9136;0,0453411
2914,8777;0,0457417
2915,8420;0,0460712
2916,8062;0,046313
2917,7705;0,0464666
2918,7346;0,0465422
2919,6990;0,046552
2920,6631;0,0465038
2921,6274;0,0463994
2922,5916;0,0462388
2923,5559;0,0460244
2924,5200;0,0457629
2925,4844;0,0454642
2926,4485;0,0451378
2927,4128;0,0447909
2928,3770;0,0444286
2929,3413;0,0440549
2930,3054;0,0436741
2931,2698;0,0432896
2932,2339;0,0429028
2933,1982;0,0425127
2934,1624;0,0421172
2935,1267;0,0417155
2936,0908;0,0413094
2937,0552;0,0409033
2938,0193;0,0405024
2938,9836;0,0401106
2939,9478;0,0397296
2940,9121;0,039359
2941,8762;0,0389976
2942,8406;0,038645
2943,8047;0,038302
2944,7690;0,0379712
2945,7332;0,0376559
2946,6975;0,0373593
2947,6616;0,0370836
2948,6260;0,0368297
2949,5901;0,0365973
2950,5544;0,0363848
2951,5186;0,0361895
2952,4829;0,0360074
2953,4470;0,0358335
2954,4114;0,0356619
2955,3755;0,0354865
2956,3398;0,0353017
2957,3040;0,0351031
2958,2683;0,034888
2959,2324;0,0346559
2960,1968;0,0344089
2961,1609;0,0341511
2962,1252;0,0338873
2963,0894;0,0336207
2964,0537;0,0333517
2965,0178;0,0330781
2965,9822;0,0327972
2966,9463;0,0325088
2967,9106;0,0322159
2968,8748;0,0319236
2969,8391;0,0316368
2970,8032;0,0313581
2971,7676;0,0310877
2972,7317;0,0308248
2973,6960;0,0305699
2974,6602;0,0303247
2975,6245;0,0300917
2976,5886;0,0298726
2977,5530;0,0296679
2978,5171;0,0294774
2979,4814;0,0293009
2980,4456;0,0291375
2981,4099;0,028986
2982,3740;0,028844
2983,3384;0,0287096
2984,3025;0,0285831
2985,2668;0,0284671
2986,2310;0,028365
2987,1953;0,0282787
2988,1594;0,0282066
2989,1238;0,0281443
2990,0879;0,0280877
2991,0522;0,0280355
2992,0164;0,0279892
2992,9807;0,0279522
2993,9448;0,0279265
2994,9092;0,027912
2995,8733;0,0279073
2996,8376;0,0279109
2997,8018;0,0279227
2998,7661;0,0279424
2999,7302;0,0279694
3000,6946;0,0280013
3001,6587;0,028035
3002,6230;0,0280673
3003,5872;0,0280962
3004,5515;0,0281207
3005,5156;0,0281411
3006,4800;0,0281585
3007,4441;0,0281746
3008,4084;0,0281911
3009,3726;0,0282087
3010,3369;0,0282266
3011,3010;0,0282432
3012,2654;0,028258
3013,2295;0,0282726
3014,1938;0,0282905
3015,1580;0,0283152
3016,1223;0,0283477
3017,0864;0,0283861
3018,0508;0,0284272
3019,0149;0,0284694
3019,9792;0,0285142
3020,9434;0,028565
3021,9077;0,0286244
3022,8718;0,0286918
3023,8362;0,028763
3024,8003;0,0288332
3025,7646;0,0288995
3026,7288;0,0289633
3027,6931;0,0290281
3028,6572;0,0290973
3029,6216;0,0291711
3030,5857;0,0292467
3031,5500;0,0293207
3032,5142;0,0293926
3033,4785;0,0294655
3034,4426;0,0295446
3035,4070;0,0296333
3036,3711;0,0297306
3037,3354;0,0298314
3038,2996;0,02993
3039,2639;0,0300239
3040,2280;0,0301157
3041,1924;0,0302107
3042,1565;0,030313
3043,1208;0,0304219
3044,0850;0,0305321
3045,0493;0,0306376
3046,0134;0,0307369
3046,9778;0,0308345
3047,9419;0,0309387
3048,9063;0,0310561
3049,8704;0,0311865
3050,8347;0,0313226
3051,7988;0,0314538
3052,7632;0,0315724
3053,7273;0,031678
3054,6917;0,0317774
3055,6558;0,0318813
3056,6201;0,0319979
3057,5842;0,0321293
3058,5486;0,0322713
3059,5127;0,0324157
3060,4771;0,0325545
3061,4412;0,0326828
3062,4055;0,0328003
3063,3696;0,0329102
3064,3340;0,0330186
3065,2981;0,0331319
3066,2625;0,0332546
3067,2266;0,0333879
3068,1909;0,0335279
3069,1550;0,0336679
3070,1194;0,0338009
3071,0835;0,0339237
3072,0479;0,0340382
3073,0120;0,0341512
3073,9763;0,0342706
3074,9404;0,0344004
3075,9048;0,0345386
3076,8689;0,0346779
3077,8333;0,0348095
3078,7974;0,0349287
3079,7617;0,0350371
3080,7258;0,0351422
3081,6902;0,0352528
3082,6543;0,0353747
3083,6187;0,0355079
3084,5828;0,0356467
3085,5471;0,0357836
3086,5112;0,0359127
3087,4756;0,0360324
3088,4397;0,0361453
3089,4041;0,0362569
3090,3682;0,0363722
3091,3325;0,0364942
3092,2966;0,036624
3093,2610;0,0367616
3094,2251;0,0369065
3095,1895;0,0370577
3096,1536;0,0372121
3097,1179;0,0373647
3098,0820;0,0375091
3099,0464;0,0376409
3100,0105;0,0377609
3100,9749;0,0378756
3101,9390;0,0379951
3102,9033;0,0381279
3103,8674;0,0382764
3104,8318;0,0384365
3105,7959;0,0386004
3106,7603;0,0387616
3107,7244;0,0389181
3108,6887;0,0390725
3109,6528;0,0392286
3110,6172;0,0393877
3111,5813;0,0395473
3112,5457;0,0397031
3113,5098;0,039852
3114,4741;0,0399945
3115,4382;0,0401343
3116,4026;0,0402754
3117,3667;0,0404195
3118,3311;0,0405655
3119,2952;0,0407116
3120,2595;0,0408576
3121,2236;0,0410061
3122,1880;0,0411611
3123,1521;0,0413256
3124,1165;0,0414993
3125,0806;0,0416785
3126,0449;0,0418583
3127,0090;0,0420338
3127,9734;0,0422021
3128,9375;0,0423622
3129,9019;0,0425156
3130,8660;0,0426659
3131,8303;0,0428189
3132,7944;0,0429807
3133,7588;0,0431556
3134,7229;0,0433435
3135,6873;0,0435396
3136,6514;0,0437363
3137,6157;0,0439263
3138,5798;0,044106
3139,5442;0,0442762
3140,5083;0,0444414
3141,4727;0,0446066
3142,4368;0,044776
3143,4011;0,0449517
3144,3652;0,045134
3145,3296;0,0453228
3146,2937;0,0455172
3147,2581;0,0457153
3148,2222;0,0459139
3149,1865;0,0461089
3150,1506;0,046296
3151,1150;0,0464736
3152,0791;0,0466437
3153,0435;0,0468113
3154,0076;0,0469828
3154,9719;0,0471621
3155,9360;0,0473488
3156,9004;0,0475385
3157,8645;0,0477261
3158,8289;0,0479086
3159,7930;0,0480876
3160,7573;0,0482678
3161,7214;0,0484544
3162,6858;0,0486496
3163,6499;0,048852
3164,6143;0,0490578
3165,5784;0,0492628
3166,5427;0,0494645
3167,5068;0,0496618
3168,4712;0,0498551
3169,4353;0,0500433
3170,3997;0,0502335
3171,3638;0,0504258
3172,3281;0,0506216
3173,2922;0,0508201
3174,2566;0,0510185
3175,2207;0,0512132
3176,1851;0,0514033
3177,1492;0,0515907
3178,1135;0,0517794
3179,0776;0,0519719
3180,0420;0,0521673
3181,0061;0,0523615
3181,9705;0,0525508
3182,9346;0,052734
3183,8989;0,0529127
3184,8630;0,05309
3185,8274;0,0532677
3186,7915;0,0534459
3187,7559;0,0536254
3188,7200;0,0538084
3189,6843;0,0539983
3190,6484;0,0541967
3191,6128;0,0544003
3192,5769;0,054601
3193,5413;0,0547898
3194,5054;0,0549617
3195,4697;0,0551186
3196,4338;0,0552686
3197,3982;0,0554209
3198,3623;0,0555818
3199,3267;0,0557528
3200,2908;0,0559317
3201,2551;0,0561159
3202,2192;0,0563037
3203,1836;0,0564943
3204,1477;0,0566864
3205,1121;0,0568777
3206,0762;0,0570657
3207,0405;0,0572497
3208,0046;0,0574301
3208,9690;0,0576082
3209,9331;0,0577838
3210,8975;0,0579549
3211,8616;0,0581191
3212,8259;0,0582759
3213,7900;0,0584286
3214,7544;0,0585831
3215,7185;0,0587442
3216,6829;0,058913
3217,6470;0,0590856
3218,6113;0,059256
3219,5754;0,0594203
3220,5398;0,0595788
3221,5039;0,0597354
3222,4683;0,0598938
3223,4324;0,0600549
3224,3967;0,0602164
3225,3608;0,0603753
3226,3252;0,0605317
3227,2893;0,0606889
3228,2537;0,0608514
3229,2178;0,0610213
3230,1821;0,0611963
3231,1462;0,0613713
3232,1106;0,0615418
3233,0747;0,0617064
3234,0391;0,0618669
3235,0032;0,062026
3235,9675;0,0621852
3236,9316;0,0623445
3237,8960;0,0625036
3238,8601;0,0626635
3239,8245;0,0628268
3240,7886;0,0629953
3241,7529;0,0631683
3242,7170;0,0633424
3243,6814;0,0635135
3244,6455;0,0636793
3245,6099;0,0638416
3246,5740;0,0640057
3247,5383;0,0641774
3248,5024;0,0643589
3249,4668;0,0645481
3250,4309;0,0647383
3251,3953;0,0649227
3252,3594;0,0650975
3253,3237;0,065265
3254,2878;0,0654326
3255,2522;0,0656085
3256,2163;0,0657972
3257,1807;0,0659962
3258,1448;0,0661974
3259,1091;0,066391
3260,0732;0,0665711
3261,0376;0,0667381
3262,0017;0,0668977
3262,9661;0,0670572
3263,9302;0,0672213
3264,8945;0,0673907
3265,8586;0,0675628
3266,8230;0,067733
3267,7871;0,0678972
3268,7515;0,068051
3269,7156;0,0681904
3270,6799;0,0683122
3271,6440;0,0684152
3272,6084;0,0685016
3273,5725;0,0685765
3274,5369;0,0686462
3275,5010;0,0687152
3276,4653;0,0687852
3277,4294;0,0688558
3278,3938;0,0689268
3279,3579;0,0689989
3280,3223;0,069073
3281,2864;0,0691488
3282,2507;0,0692242
3283,2148;0,0692957
3284,1792;0,0693615
3285,1433;0,0694217
3286,1077;0,0694777
3287,0718;0,0695303
3288,0361;0,0695778
3289,0002;0,0696179
3289,9646;0,06965
3290,9287;0,0696767
3291,8931;0,0697029
3292,8572;0,0697317
3293,8215;0,0697626
3294,7856;0,0697917
3295,7500;0,069816
3296,7141;0,069837
3297,6785;0,069861
3298,6426;0,0698952
3299,6069;0,0699419
3300,5710;0,0699962
3301,5354;0,0700478
3302,4995;0,0700861
3303,4639;0,0701053
3304,4280;0,0701059
3305,3923;0,070093
3306,3564;0,0700741
3307,3208;0,070057
3308,2849;0,0700494
3309,2493;0,0700576
3310,2134;0,0700847
3311,1777;0,0701285
3312,1418;0,0701814
3313,1062;0,0702338
3314,0703;0,0702789
3315,0347;0,0703173
3315,9988;0,0703572
3316,9631;0,0704098
3317,9272;0,070484
3318,8916;0,0705816
3319,8557;0,0706963
3320,8201;0,0708174
3321,7842;0,0709343
3322,7485;0,0710401
3323,7126;0,071133
3324,6770;0,0712149
3325,6411;0,0712894
3326,6055;0,0713595
3327,5696;0,071427
3328,5339;0,0714933
3329,4980;0,0715595
3330,4624;0,0716265
3331,4265;0,0716936
3332,3909;0,0717571
3333,3550;0,07181
3334,3193;0,071844
3335,2834;0,0718532
3336,2478;0,0718376
3337,2119;0,0718035
3338,1763;0,0717591
3339,1404;0,0717097
3340,1047;0,0716531
3341,0688;0,0715823
3342,0332;0,0714897
3342,9973;0,071374
3343,9617;0,0712424
3344,9258;0,0711077
3345,8901;0,0709818
3346,8542;0,0708707
3347,8186;0,0707717
3348,7827;0,0706763
3349,7471;0,0705744
3350,7112;0,0704592
3351,6755;0,0703291
3352,6396;0,0701873
3353,6040;0,0700398
3354,5681;0,0698931
3355,5325;0,0697518
3356,4966;0,0696182
3357,4609;0,0694922
3358,4250;0,0693731
3359,3894;0,0692606
3360,3535;0,0691554
3361,3179;0,0690583
3362,2820;0,0689679
3363,2463;0,0688799
3364,2104;0,0687877
3365,1748;0,0686849
3366,1389;0,0685676
3367,1033;0,0684362
3368,0674;0,068294
3369,0317;0,0681466
3369,9958;0,0679998
3370,9602;0,0678594
3371,9243;0,0677302
3372,8887;0,0676142
3373,8528;0,0675094
3374,8171;0,0674087
3375,7813;0,0673032
3376,7456;0,067186
3377,7097;0,0670564
3378,6741;0,0669195
3379,6382;0,0667826
3380,6025;0,0666498
3381,5667;0,0665201
3382,5310;0,0663898
3383,4951;0,066258
3384,4595;0,0661306
3385,4236;0,0660173
3386,3879;0,0659248
3387,3521;0,0658493
3388,3164;0,0657758
3389,2805;0,0656843
3390,2449;0,0655606
3391,2090;0,065404
3392,1733;0,0652287
3393,1375;0,0650567
3394,1018;0,0649062
3395,0659;0,0647846
3396,0303;0,0646865
3396,9944;0,0645982
3397,9587;0,0645042
3398,9229;0,0643928
3399,8872;0,0642592
3400,8513;0,0641059
3401,8157;0,0639407
3402,7798;0,0637723
3403,7441;0,0636064
3404,7083;0,063444
3405,6726;0,0632827
3406,6367;0,0631203
3407,6011;0,0629575
3408,5652;0,0627975
3409,5295;0,0626426
3410,4937;0,0624908
3411,4580;0,0623363
3412,4221;0,0621725
3413,3865;0,0619969
3414,3506;0,0618123
3415,3149;0,061624
3416,2791;0,0614358
3417,2434;0,0612471
3418,2075;0,0610545
3419,1719;0,0608553
3420,1360;0,0606506
3421,1003;0,0604455
3422,0645;0,0602458
3423,0288;0,0600545
3423,9929;0,0598702
3424,9573;0,059688
3425,9214;0,0595023
3426,8857;0,0593098
3427,8499;0,0591114
3428,8142;0,0589116
3429,7783;0,0587158
3430,7427;0,0585266
3431,7068;0,0583412
3432,6711;0,0581522
3433,6353;0,0579523
3434,5996;0,0577386
3435,5637;0,0575144
3436,5281;0,0572862
3437,4922;0,0570605
3438,4565;0,0568406
3439,4207;0,0566279
3440,3850;0,0564226
3441,3491;0,056224
3442,3135;0,0560272
3443,2776;0,0558226
3444,2419;0,0555991
3445,2061;0,0553521
3446,1704;0,0550894
3447,1345;0,0548306
3448,0989;0,054595
3449,0630;0,054389
3450,0273;0,054202
3450,9915;0,0540138
3451,9558;0,053808
3452,9199;0,0535811
3453,8843;0,0533429
3454,8484;0,0531086
3455,8127;0,0528884
3456,7769;0,0526817
3457,7412;0,0524798
3458,7053;0,0522721
3459,6697;0,0520533
3460,6338;0,0518242
3461,5981;0,0515898
3462,5623;0,0513546
3463,5266;0,0511198
3464,4907;0,0508836
3465,4551;0,050644
3466,4192;0,0504014
3467,3835;0,0501591
3468,3477;0,049922
3469,3120;0,0496923
3470,2761;0,0494677
3471,2405;0,0492428
3472,2046;0,0490136
3473,1689;0,0487819
3474,1331;0,0485556
3475,0974;0,0483423
3476,0615;0,0481414
3477,0259;0,0479409
3477,9900;0,0477223
3478,9543;0,0474721
3479,9185;0,0471933
3480,8828;0,0469065
3481,8469;0,0466394
3482,8113;0,0464093
3483,7754;0,046212
3484,7397;0,0460256
3485,7039;0,0458249
3486,6682;0,0455968
3487,6323;0,0453468
3488,5967;0,045095
3489,5608;0,0448621
3490,5251;0,0446565
3491,4893;0,0444693
3492,4536;0,0442818
3493,4177;0,0440767
3494,3821;0,0438497
3495,3462;0,043613
3496,3105;0,0433864
3497,2747;0,0431828
3498,2390;0,0429971
3499,2031;0,0428067
3500,1675;0,0425858
3501,1316;0,042323
3502,0959;0,0420335
3503,0601;0,0417538
3504,0244;0,0415171
3504,9885;0,0413299
3505,9529;0,0411691
3506,9170;0,0409981
3507,8813;0,0407889
3508,8455;0,0405368
3509,8098;0,0402614
3510,7739;0,039992
3511,7383;0,0397487
3512,7024;0,0395334
3513,6667;0,0393358
3514,6309;0,0391451
3515,5952;0,0389574
3516,5593;0,0387747
3517,5237;0,0385989
3518,4878;0,0384257
3519,4521;0,0382457
3520,4163;0,0380497
3521,3806;0,0378357
3522,3447;0,0376099
3523,3091;0,0373814
3524,2732;0,0371533
3525,2375;0,0369188
3526,2017;0,0366671
3527,1660;0,036395
3528,1301;0,0361153
3529,0945;0,0358523
3530,0586;0,0356272
3531,0229;0,0354442
3531,9871;0,0352875
3532,9514;0,03513
3533,9155;0,0349474
3534,8799;0,0347297
3535,8440;0,0344868
3536,8083;0,0342427
3537,7725;0,0340223
3538,7368;0,0338392
3539,7009;0,0336909
3540,6653;0,0335609
3541,6294;0,033424
3542,5938;0,0332539
3543,5579;0,0330337
3544,5222;0,0327674
3545,4863;0,0324822
3546,4507;0,0322131
3547,4148;0,0319793
3548,3792;0,0317733
3549,3433;0,0315701
3550,3076;0,031345
3551,2717;0,0310903
3552,2361;0,0308225
3553,2002;0,0305723
3554,1646;0,0303634
3555,1287;0,0301959
3556,0930;0,030049
3557,0571;0,0298965
3558,0215;0,029725
3558,9856;0,029544
3559,9500;0,02938
3560,9141;0,0292564
3561,8784;0,0291705
3562,8425;0,0290838
3563,8069;0,0289289
3564,7710;0,0286363
3565,7354;0,0281871
3566,6995;0,0276593
3567,6638;0,0271927
3568,6279;0,0268797
3569,5923;0,0267137
3570,5564;0,0266302
3571,5208;0,0265614
3572,4849;0,0264614
3573,4492;0,0263125
3574,4133;0,0261211
3575,3777;0,0259057
3576,3418;0,0256815
3577,3062;0,0254551
3578,2703;0,0252309
3579,2346;0,0250225
3580,1987;0,024852
3581,1631;0,0247359
3582,1272;0,0246668
3583,0916;0,0246053
3584,0557;0,0244861
3585,0200;0,0242439
3585,9841;0,0238608
3586,9485;0,0234094
3587,9126;0,0230196
3588,8770;0,0227736
3589,8411;0,0226526
3590,8054;0,0225794
3591,7695;0,0224774
3592,7339;0,0223045
3593,6980;0,0220658
3594,6624;0,0218052
3595,6265;0,0215687
3596,5908;0,0213674
3597,5549;0,0211775
3598,5193;0,020973
3599,4834;0,020759
3600,4478;0,0205736
3601,4119;0,0204581
3602,3762;0,0204199
3603,3403;0,0204248
3604,3047;0,020417
3605,2688;0,020349
3606,2332;0,020206
3607,1973;0,0200156
3608,1616;0,0198287
3609,1257;0,019679
3610,0901;0,0195603
3611,0542;0,0194434
3612,0186;0,0193083
3612,9827;0,019159
3613,9470;0,019012
3614,9111;0,0188716
3615,8755;0,0187147
3616,8396;0,0184996
3617,8040;0,0181978
3618,7681;0,0178328
3619,7324;0,0174861
3620,6965;0,0172459
3621,6609;0,0171486
3622,6250;0,0171729
3623,5894;0,0172647
3624,5535;0,0173536
3625,5178;0,0173536
3626,4819;0,017175
3627,4463;0,0167826
3628,4104;0,016275
3629,3748;0,0158451
3630,3389;0,015605
3631,3032;0,0155232
3632,2673;0,015514
3633,2317;0,0155116
3634,1958;0,015486
3635,1602;0,0154354
3636,1243;0,015371
3637,0886;0,0153029
3638,0527;0,0152345
3639,0171;0,0151689
3639,9812;0,0151179
3640,9456;0,0151038
3641,9097;0,015149
3642,8740;0,0152601
3643,8381;0,0154165
3644,8025;0,0155633
3645,7666;0,0156061
3646,7310;0,0154257
3647,6951;0,0149607
3648,6594;0,0143453
3649,6235;0,013863
3650,5879;0,0136599
3651,5520;0,013664
3652,5164;0,0137388
3653,4805;0,0137786
3654,4448;0,0137229
3655,4089;0,0135638
3656,3733;0,0133508
3657,3374;0,0131601
3658,3018;0,0130391
3659,2659;0,0129828
3660,2302;0,0129591
3661,1943;0,0129438
3662,1587;0,0129377
3663,1228;0,012958
3664,0872;0,0130152
3665,0513;0,0130939
3666,0156;0,0131505
3666,9797;0,0131326
3667,9441;0,0130155
3668,9082;0,0128433
3669,8726;0,0127108
3670,8367;0,0126753
3671,8010;0,0126991
3672,7651;0,0126809
3673,7295;0,0125218
3674,6936;0,0121971
3675,6580;0,011806
3676,6221;0,0115039
3677,5864;0,0113624
3678,5505;0,0113466
3679,5149;0,0113922
3680,4790;0,0114598
3681,4434;0,0115406
3682,4075;0,0116418
3683,3718;0,0117681
3684,3359;0,0119046
3685,3003;0,0120109
3686,2644;0,0120253
3687,2288;0,0118897
3688,1929;0,0116039
3689,1572;0,0112644
3690,1213;0,0110048
3691,0857;0,010883
3692,0498;0,0108674
3693,0142;0,0109022
3693,9783;0,0109505
3694,9426;0,0109993
3695,9067;0,0110471
3696,8711;0,0110895
3697,8352;0,0111105
3698,7996;0,0110848
3699,7637;0,0109938
3700,7280;0,0108488
3701,6921;0,0106995
3702,6565;0,0106098
3703,6206;0,0106164
3704,5850;0,0107118
3705,5491;0,010857
3706,5134;0,0109997
3707,4775;0,0110853
3708,4419;0,0110691
3709,4060;0,0109439
3710,3704;0,0107687
3711,3345;0,0106451
3712,2988;0,0106318
3713,2629;0,0107078
3714,2273;0,010817
3715,1914;0,0109121
3716,1558;0,0109648
3717,1199;0,0109616
3718,0842;0,0109038
3719,0483;0,0108072
3720,0127;0,010695
3720,9768;0,0105833
3721,9412;0,0104729
3722,9053;0,0103569
3723,8696;0,0102411
3724,8337;0,0101538
3725,7981;0,0101335
3726,7622;0,0102017
3727,7266;0,0103513
3728,6907;0,0105534
3729,6550;0,0107692
3730,6191;0,010955
3731,5835;0,0110615
3732,5476;0,0110402
3733,5120;0,0108731
3734,4761;0,0106179
3735,4404;0,0104045
3736,4045;0,0103439
3737,3689;0,0104581
3738,3330;0,0107019
3739,2974;0,0110101
3740,2615;0,0113144
3741,2258;0,0115413
3742,1899;0,0116253
3743,1543;0,0115563
3744,1184;0,0114261
3745,0828;0,0113701
3746,0469;0,0114386
3747,0112;0,0115676
3747,9753;0,0116427
3748,9397;0,0115647
3749,9038;0,0113196
3750,8682;0,0110295
3751,8323;0,0108624
3752,7966;0,010872
3753,7607;0,0109938
3754,7251;0,0111358
3755,6892;0,0112273
3756,6536;0,0112297
3757,6177;0,0111495
3758,5820;0,0110415
3759,5461;0,0109759
3760,5105;0,0109893
3761,4746;0,0110699
3762,4390;0,0111798
3763,4031;0,0112809
3764,3674;0,0113473
3765,3315;0,0113679
3766,2959;0,0113422
3767,2600;0,0112758
3768,2244;0,0111789
3769,1885;0,0110717
3770,1528;0,0109859
3771,1169;0,0109537
3772,0813;0,0109894
3773,0454;0,011081
3774,0098;0,0111966
3774,9739;0,011295
3775,9382;0,0113389
3776,9023;0,0113106
3777,8667;0,0112271
3778,8308;0,0111355
3779,7952;0,0110807
3780,7593;0,0110742
3781,7236;0,0110957
3782,6877;0,0111159
3783,6521;0,0111167
3784,6162;0,0110971
3785,5806;0,0110687
3786,5447;0,0110464
3787,5090;0,0110415
3788,4731;0,0110599
3789,4375;0,011103
3790,4016;0,0111666
3791,3660;0,0112405
3792,3301;0,0113104
3793,2944;0,0113667
3794,2585;0,0114115
3795,2229;0,0114583
3796,1870;0,0115174
3797,1514;0,0115783
3798,1155;0,0116061
3799,0798;0,0115625
3800,0439;0,0114448
3801,0083;0,0113067
3801,9724;0,0112223
3802,9368;0,0112169
3803,9009;0,0112482
3804,8652;0,0112474
3805,8293;0,0111728
3806,7937;0,0110464
3807,7578;0,0109463
3808,7222;0,0109463
3809,6863;0,0110621
3810,6506;0,0112545
3811,6147;0,0114613
3812,5791;0,0116217
3813,5432;0,0116968
3814,5076;0,0116924
3815,4717;0,0116583
3816,4360;0,0116428
3817,4001;0,0116444
3818,3645;0,0116171
3819,3286;0,011519
3820,2930;0,01136
3821,2571;0,0112043
3822,2214;0,0111147
3823,1855;0,0111032
3824,1499;0,0111416
3825,1140;0,0111958
3826,0784;0,011245
3827,0425;0,0112845
3828,0068;0,0113202
3828,9709;0,0113613
3829,9353;0,0114143
3830,8994;0,0114831
3831,8638;0,0115688
3832,8279;0,0116666
3833,7922;0,0117597
3834,7563;0,0118176
3835,7207;0,0118036
3836,6848;0,0116979
3837,6492;0,0115204
3838,6133;0,0113287
3839,5776;0,0111795
3840,5417;0,0110928
3841,5061;0,0110555
3842,4702;0,0110474
3843,4346;0,0110623
3844,3987;0,0111121
3845,3630;0,011217
3846,3271;0,0113924
3847,2915;0,0116386
3848,2556;0,0119342
3849,2200;0,0122273
3850,1841;0,0124225
3851,1484;0,0123891
3852,1125;0,0120496
3853,0769;0,0115338
3854,0410;0,0111251
3855,0054;0,0109657
3855,9695;0,011003
3856,9338;0,0111444
3857,8979;0,0113249
3858,8623;0,0114988
3859,8264;0,0116265
3860,7908;0,0116777
3861,7549;0,0116498
3862,7192;0,0115811
3863,6833;0,0115337
3864,6477;0,0115488
3865,6118;0,0116221
3866,5762;0,0117144
3867,5403;0,0117771
3868,5046;0,0117717
3869,4688;0,0116862
3870,4331;0,0115434
3871,3972;0,0113921
3872,3616;0,0112823
3873,3257;0,011244
3874,2900;0,0112804
3875,2542;0,0113719
3876,2185;0,0114858
3877,1826;0,0115858
3878,1470;0,0116453
3879,1111;0,0116592
3880,0754;0,011645
3881,0396;0,0116253
3882,0039;0,0116062
3882,9680;0,011577
3883,9324;0,0115325
3884,8965;0,0114899
3885,8608;0,0114795
3886,8250;0,0115134
3887,7893;0,0115684
3888,7534;0,0115965
3889,7178;0,0115564
3890,6819;0,0114491
3891,6462;0,0113337
3892,6104;0,0112893
3893,5747;0,0113534
3894,5388;0,0115048
3895,5032;0,0116926
3896,4673;0,0118664
3897,4316;0,0119904
3898,3958;0,01205
3899,3601;0,0120485
3900,3242;0,0119935
3901,2886;0,011886
3902,2527;0,0117295
3903,2170;0,0115488
3904,1812;0,0113879
3905,1455;0,0112827
3906,1096;0,0112416
3907,0740;0,0112498
3908,0381;0,0112871
3909,0024;0,0113396
3909,9666;0,0114027
3910,9309;0,0114768
3911,8950;0,0115598
3912,8594;0,0116402
3913,8235;0,0116979
3914,7878;0,0117125
3915,7520;0,011677
3916,7163;0,0116082
3917,6804;0,0115413
3918,6448;0,011507
3919,6089;0,0115119
3920,5732;0,0115392
3921,5374;0,011563
3922,5017;0,0115649
3923,4658;0,0115454
3924,4302;0,0115237
3925,3943;0,0115235
3926,3586;0,0115537
3927,3228;0,0116023
3928,2871;0,0116425
3929,2512;0,0116469
3930,2156;0,0116023
3931,1797;0,01152
3932,1440;0,0114309
3933,1082;0,0113668
3934,0725;0,011344
3935,0366;0,0113623
3936,0010;0,0114117
3936,9651;0,0114796
3937,9294;0,0115515
3938,8936;0,0116124
3939,8579;0,0116497
3940,8220;0,0116589
3941,7864;0,0116482
3942,7505;0,011635
3943,7148;0,0116344
3944,6790;0,0116485
3945,6433;0,0116652
3946,6074;0,0116668
3947,5718;0,0116413
3948,5359;0,0115921
3949,5002;0,0115369
3950,4644;0,011496
3951,4287;0,0114804
3952,3928;0,0114874
3953,3572;0,0115066
3954,3213;0,0115279
3955,2856;0,0115459
3956,2498;0,0115601
3957,2141;0,0115713
3958,1782;0,0115783
3959,1426;0,0115784
3960,1067;0,0115699
3961,0710;0,0115546
3962,0352;0,0115384
3962,9995;0,0115282
3963,9636;0,0115287
3964,9280;0,0115403
3965,8921;0,0115598
3966,8564;0,0115821
3967,8206;0,0116022
3968,7849;0,0116164
3969,7490;0,0116229
3970,7134;0,0116222
3971,6775;0,0116162
3972,6418;0,0116081
3973,6060;0,0116007
3974,5703;0,0115957
3975,5344;0,011593
3976,4988;0,0115913
3977,4629;0,0115889
3978,4272;0,0115851
3979,3914;0,0115806
3980,3557;0,0115774
3981,3198;0,0115775
3982,2842;0,0115826
3983,2483;0,0115933
3984,2126;0,0116092
3985,1768;0,0116284
3986,1411;0,0116477
3987,1052;0,011663
3988,0696;0,0116703
3989,0337;0,011667
3989,9980;0,0116537
3990,9622;0,0116345
3991,9265;0,0116152
3992,8906;0,0116017
3993,8550;0,0115972
3994,8191;0,0116011
3995,7834;0,0116096
3996,7476;0,0116175
3997,7119;0,0116206
3998,6760;0,0116176
3999,6404;0,0116107
4000,6045;0,0115495

##### Extended Information
[Comments]
Sample name
Comment
Username
Division
Organization;UNIVERSIDAD INDUSTRIAL DE SANTANDER

[Detailed Information]
Creation date;29/01/2025 2:06 p.m.

Data array type;Linear data array
Horizontal axis;Wavenumber [cm-1]
Vertical axis;Abs
Start;399,193 cm-1
End;4000,6 cm-1
Data interval;0,964233 cm-1
Data points;3736    

[Measurement Information]
Model name;FT/IR-4X1typeA
Serial No.;A035162111

Accessory;ATR PRO 4X
Accessory S/N;A021162126
Incident angle;45 deg

Measurement date;29/01/2025 2:06 p.m.

Light source;Standard
Detector;TGS
Accumulation;Auto (74)
Resolution;4 cm-1
Zero filling;On
Apodization;Cosine
Gain;Auto (8)
Aperture;Auto (7 mm)
Scan speed;Auto (2 mm/sec)
Filter;Auto (12800 Hz)

