TITLE;
DATA TYPE;INFRARED SPECTRUM
ORIGIN;JASCO
OWNER;
DATE;25/03/19
TIME;14:29:12
SPECTROMETER/DATA SYSTEM;
LOCALE;9226
RESOLUTION;
DELTAX;0,964233
XUNITS;1/CM
YUNITS;ABSORBANCE
FIRSTX;  399,1927
LASTX; 4000,6047
NPOINTS;    3736
FIRSTY;     0,21422
MAXY;     0,26883
MINY;    -0,00124
XYDATA
399,1927;0,214217
400,1569;0,213164
401,1211;0,212644
402,0854;0,212264
403,0496;0,211849
404,0138;0,211434
404,9781;0,211156
405,9423;0,211128
406,9065;0,211356
407,8708;0,211739
408,8350;0,212145
409,7992;0,212478
410,7635;0,2127
411,7277;0,212826
412,6919;0,212911
413,6562;0,213058
414,6204;0,213423
415,5846;0,214224
416,5489;0,215713
417,5131;0,218002
418,4773;0,220732
419,4416;0,22301
420,4058;0,224133
421,3700;0,224208
422,3343;0,223826
423,2985;0,223523
424,2627;0,22358
425,2270;0,224011
426,1912;0,224601
427,1554;0,22504
428,1197;0,225108
429,0839;0,224794
430,0481;0,224294
431,0124;0,223893
431,9766;0,22379
432,9408;0,223997
433,9051;0,22434
434,8693;0,224593
435,8335;0,22462
436,7978;0,224433
437,7620;0,224121
438,7262;0,223735
439,6905;0,223235
440,6547;0,222536
441,6189;0,221609
442,5832;0,220548
443,5474;0,21955
444,5116;0,218799
445,4759;0,218348
446,4401;0,218115
447,4043;0,217952
448,3686;0,217729
449,3328;0,217387
450,2970;0,216949
451,2613;0,216513
452,2255;0,2162
453,1897;0,216093
454,1540;0,216185
455,1182;0,216366
456,0824;0,216461
457,0467;0,216324
458,0109;0,21595
458,9751;0,215505
459,9394;0,215204
460,9036;0,215144
461,8678;0,215272
462,8321;0,215444
463,7963;0,21552
464,7605;0,215427
465,7248;0,21518
466,6890;0,214867
467,6532;0,214605
468,6175;0,214491
469,5817;0,214582
470,5459;0,21486
471,5102;0,215203
472,4744;0,215399
473,4386;0,215254
474,4029;0,214738
475,3671;0,214034
476,3313;0,213446
477,2956;0,213245
478,2598;0,213529
479,2240;0,214157
480,1883;0,214798
481,1525;0,215094
482,1167;0,214851
483,0810;0,214159
484,0452;0,213352
485,0094;0,212825
485,9737;0,212804
486,9379;0,213247
487,9021;0,21392
488,8664;0,214546
489,8306;0,214922
490,7948;0,214968
491,7591;0,214717
492,7233;0,214288
493,6875;0,213839
494,6518;0,213531
495,6160;0,213488
496,5802;0,213776
497,5445;0,214375
498,5087;0,215178
499,4729;0,216022
500,4372;0,216734
501,4014;0,2172
502,3656;0,217409
503,3299;0,217443
504,2941;0,21742
505,2583;0,217438
506,2226;0,21756
507,1868;0,21782
508,1510;0,218235
509,1153;0,218791
510,0795;0,219436
511,0437;0,220092
512,0080;0,22069
512,9722;0,221216
513,9365;0,221713
514,9007;0,222244
515,8649;0,222835
516,8292;0,223416
517,7934;0,223845
518,7576;0,223998
519,7219;0,223872
520,6861;0,2236
521,6503;0,223368
522,6146;0,223315
523,5788;0,223478
524,5430;0,223784
525,5073;0,224092
526,4715;0,224257
527,4357;0,224204
528,4000;0,223939
529,3642;0,223521
530,3284;0,223017
531,2927;0,222476
532,2569;0,221934
533,2211;0,22141
534,1854;0,220911
535,1496;0,220432
536,1138;0,219966
537,0781;0,219521
538,0423;0,219119
539,0065;0,218797
539,9708;0,218584
540,9350;0,218488
541,8992;0,218494
542,8635;0,21858
543,8277;0,218728
544,7919;0,218928
545,7562;0,219175
546,7204;0,219456
547,6846;0,219747
548,6489;0,220029
549,6131;0,2203
550,5773;0,220585
551,5416;0,220923
552,5058;0,221345
553,4700;0,221841
554,4343;0,222356
555,3985;0,222796
556,3627;0,223055
557,3270;0,223033
558,2912;0,222662
559,2554;0,221911
560,2197;0,220807
561,1839;0,219448
562,1481;0,217994
563,1124;0,216625
564,0766;0,215483
565,0408;0,214612
566,0051;0,213954
566,9693;0,213389
567,9335;0,212809
568,8978;0,212182
569,8620;0,211554
570,8262;0,211004
571,7905;0,210578
572,7547;0,210262
573,7189;0,209994
574,6832;0,209703
575,6474;0,209351
576,6116;0,208944
577,5759;0,208523
578,5401;0,208125
579,5043;0,20777
580,4686;0,207445
581,4328;0,207122
582,3970;0,206767
583,3613;0,206365
584,3255;0,20593
585,2897;0,205507
586,2540;0,20516
587,2182;0,204941
588,1824;0,204868
589,1467;0,204903
590,1109;0,20497
591,0751;0,204983
592,0394;0,204883
593,0036;0,20466
593,9678;0,204341
594,9321;0,20396
595,8963;0,203531
596,8605;0,203053
597,8248;0,202527
598,7890;0,201976
599,7532;0,201443
600,7175;0,200969
601,6817;0,200568
602,6459;0,200221
603,6102;0,199886
604,5744;0,199533
605,5386;0,199145
606,5029;0,198716
607,4671;0,198227
608,4313;0,197638
609,3956;0,196911
610,3598;0,196045
611,3240;0,19511
612,2883;0,194229
613,2525;0,193525
614,2167;0,193047
615,1810;0,19272
616,1452;0,192351
617,1094;0,191712
618,0737;0,19066
619,0379;0,189217
620,0021;0,187557
620,9664;0,185902
621,9306;0,184425
622,8948;0,183194
623,8591;0,18218
624,8233;0,181266
625,7875;0,180437
626,7518;0,179644
627,7160;0,178878
628,6802;0,17814
629,6445;0,177431
630,6087;0,17674
631,5729;0,176055
632,5372;0,175375
633,5014;0,174711
634,4656;0,174081
635,4299;0,1735
636,3941;0,172977
637,3583;0,172514
638,3226;0,172111
639,2868;0,171761
640,2510;0,171447
641,2153;0,171142
642,1795;0,170819
643,1437;0,170466
644,1080;0,170088
645,0722;0,169712
646,0364;0,169363
647,0007;0,169059
647,9649;0,168799
648,9291;0,168576
649,8934;0,168386
650,8576;0,168238
651,8218;0,168155
652,7861;0,168159
653,7503;0,168264
654,7145;0,168464
655,6788;0,168732
656,6430;0,169022
657,6072;0,169296
658,5715;0,169525
659,5357;0,169684
660,4999;0,169732
661,4642;0,169608
662,4284;0,169234
663,3926;0,168544
664,3569;0,167542
665,3211;0,166398
666,2853;0,16549
667,2496;0,16515
668,2138;0,16515
669,1780;0,164849
670,1423;0,164108
671,1065;0,16314
672,0707;0,161946
673,0350;0,16043
673,9992;0,158614
674,9634;0,156653
675,9277;0,154732
676,8919;0,152957
677,8561;0,15133
678,8204;0,149806
679,7846;0,148369
680,7488;0,14705
681,7131;0,145894
682,6773;0,144914
683,6415;0,144082
684,6058;0,14335
685,5700;0,142679
686,5342;0,142047
687,4985;0,141438
688,4627;0,140842
689,4269;0,140247
690,3912;0,139659
691,3554;0,139099
692,3196;0,138592
693,2839;0,138147
694,2481;0,137748
695,2123;0,137368
696,1766;0,136979
697,1408;0,136566
698,1050;0,136124
699,0693;0,135654
700,0335;0,135158
700,9977;0,134639
701,9620;0,1341
702,9262;0,133548
703,8904;0,132973
704,8547;0,13238
705,8189;0,131768
706,7831;0,131134
707,7474;0,130476
708,7116;0,129788
709,6758;0,129063
710,6401;0,128287
711,6043;0,127454
712,5685;0,126572
713,5328;0,125679
714,4970;0,124832
715,4612;0,123391
716,4255;0,122906
717,3897;0,122547
718,3539;0,122164
719,3182;0,121574
720,2824;0,120646
721,2466;0,119382
722,2109;0,117917
723,1751;0,116436
724,1393;0,115085
725,1036;0,113911
726,0678;0,112879
727,0320;0,111912
727,9963;0,110947
728,9605;0,109969
729,9247;0,109008
730,8890;0,108113
731,8532;0,107325
732,8174;0,106653
733,7817;0,106078
734,7459;0,10556
735,7101;0,105062
736,6744;0,104564
737,6386;0,104067
738,6028;0,103587
739,5671;0,103138
740,5313;0,102718
741,4955;0,102305
742,4598;0,101874
743,4240;0,101406
744,3882;0,100906
745,3525;0,100394
746,3167;0,099894
747,2809;0,0994197
748,2452;0,0989672
749,2094;0,0985216
750,1736;0,0980666
751,1379;0,0975928
752,1021;0,0970991
753,0663;0,0965895
754,0306;0,0960697
754,9948;0,0955457
755,9590;0,0950236
756,9233;0,0945096
757,8875;0,0940081
758,8517;0,0935206
759,8160;0,0930459
760,7802;0,0925829
761,7444;0,0921315
762,7087;0,0916921
763,6729;0,0912629
764,6371;0,0908391
765,6014;0,0904168
766,5656;0,0899975
767,5298;0,0895894
768,4941;0,0892015
769,4583;0,0888326
770,4225;0,0884643
771,3868;0,0880653
772,3510;0,0876079
773,3152;0,0870862
774,2795;0,0865248
775,2437;0,0859697
776,2079;0,0854664
777,1722;0,0850378
778,1364;0,0846746
779,1006;0,0843438
780,0649;0,0840081
781,0291;0,0836437
781,9933;0,0832474
782,9576;0,0828317
783,9218;0,0824133
784,8860;0,0820037
785,8503;0,0816077
786,8145;0,0812264
787,7787;0,0808625
788,7430;0,0805204
789,7072;0,080204
790,6714;0,0799131
791,6357;0,079643
792,5999;0,0793876
793,5641;0,0791428
794,5284;0,078908
795,4926;0,0786834
796,4568;0,0784668
797,4211;0,0782517
798,3853;0,0780303
799,3495;0,0777969
800,3138;0,077552
801,2780;0,0773012
802,2422;0,0770523
803,2065;0,0768117
804,1707;0,0765815
805,1349;0,0763601
806,0992;0,0761433
807,0634;0,0759279
808,0276;0,075715
808,9919;0,0755114
809,9561;0,0753286
810,9203;0,0751765
811,8846;0,0750565
812,8488;0,0749567
813,8130;0,0748546
814,7773;0,0747272
815,7415;0,0745628
816,7057;0,0743684
817,6700;0,0741665
818,6342;0,0739843
819,5984;0,0738412
820,5627;0,0737409
821,5269;0,073673
822,4911;0,0736205
823,4554;0,0735688
824,4196;0,0735108
825,3839;0,0734468
826,3481;0,0733811
827,3123;0,0733166
828,2766;0,0732519
829,2408;0,0731805
830,2050;0,0730938
831,1693;0,0729851
832,1335;0,0728527
833,0977;0,0726993
834,0620;0,0725295
835,0262;0,0723452
835,9904;0,0721446
836,9547;0,071924
837,9189;0,0716825
838,8831;0,0714247
839,8474;0,0711607
840,8116;0,0709021
841,7758;0,070658
842,7401;0,070434
843,7043;0,0702335
844,6685;0,0700601
845,6328;0,0699178
846,5970;0,0698084
847,5612;0,0697287
848,5255;0,069669
849,4897;0,0696166
850,4539;0,0695598
851,4182;0,0694931
852,3824;0,069419
853,3466;0,0693462
854,3109;0,0692856
855,2751;0,0692448
856,2393;0,0692254
857,2036;0,0692236
858,1678;0,069234
859,1320;0,0692536
860,0963;0,0692831
861,0605;0,0693248
862,0247;0,0693762
862,9890;0,0694282
863,9532;0,069468
864,9174;0,0694882
865,8817;0,0694953
866,8459;0,06951
867,8101;0,0695583
868,7744;0,0696578
869,7386;0,0698065
870,7028;0,0699837
871,6671;0,0701588
872,6313;0,0703039
873,5955;0,070402
874,5598;0,070449
875,5240;0,0704514
876,4882;0,0704254
877,4525;0,0703968
878,4167;0,0703991
879,3809;0,0704684
880,3452;0,070634
881,3094;0,0709109
882,2736;0,0712982
883,2379;0,0717846
884,2021;0,072357
885,1663;0,0730069
886,1306;0,0737326
887,0948;0,0745359
888,0590;0,075416
889,0233;0,0763632
889,9875;0,0773533
890,9517;0,078347
891,9160;0,0792954
892,8802;0,0801523
893,8444;0,0808873
894,8087;0,0814921
895,7729;0,0819752
896,7371;0,0823473
897,7014;0,0826079
898,6656;0,0827422
899,6298;0,0827311
900,5941;0,082567
901,5583;0,0822639
902,5225;0,0818561
903,4868;0,0813882
904,4510;0,0809046
905,4152;0,0804437
906,3795;0,0800377
907,3437;0,0797116
908,3079;0,0794805
909,2722;0,0793459
910,2364;0,0792968
911,2007;0,0793161
912,1649;0,0793905
913,1292;0,0795161
914,0934;0,0796967
915,0576;0,0799363
916,0219;0,0802337
916,9861;0,0805807
917,9503;0,0809659
918,9146;0,0813774
919,8788;0,0818035
920,8430;0,082231
921,8073;0,0826446
922,7715;0,0830303
923,7357;0,0833793
924,7000;0,0836902
925,6642;0,0839663
926,6284;0,0842104
927,5927;0,0844217
928,5569;0,0845967
929,5211;0,084735
930,4854;0,0848449
931,4496;0,0849442
932,4138;0,0850554
933,3781;0,0851979
934,3423;0,0853824
935,3065;0,0856094
936,2708;0,0858726
937,2350;0,0861663
938,1992;0,0864902
939,1635;0,0868518
940,1277;0,0872654
941,0919;0,0877479
942,0562;0,0883157
943,0204;0,0889823
943,9846;0,0897567
944,9489;0,0906432
945,9131;0,0916407
946,8773;0,0927432
947,8416;0,0939416
948,8058;0,095228
949,7700;0,0965981
950,7343;0,098052
951,6985;0,0995923
952,6627;0,101221
953,6270;0,102937
954,5912;0,104739
955,5554;0,106624
956,5197;0,108594
957,4839;0,110647
958,4481;0,112778
959,4124;0,114971
960,3766;0,11721
961,3408;0,119477
962,3051;0,121762
963,2693;0,124064
964,2335;0,126385
965,1978;0,128731
966,1620;0,131106
967,1262;0,133514
968,0905;0,135971
969,0547;0,138504
970,0189;0,141149
970,9832;0,143947
971,9474;0,146937
972,9116;0,150151
973,8759;0,153608
974,8401;0,157322
975,8043;0,161293
976,7686;0,165508
977,7328;0,169939
978,6970;0,174536
979,6613;0,179222
980,6255;0,183894
981,5897;0,188427
982,5540;0,192691
983,5182;0,196578
984,4824;0,200022
985,4467;0,20302
986,4109;0,20562
987,3751;0,207905
988,3394;0,209958
989,3036;0,211842
990,2678;0,21359
991,2321;0,215211
992,1963;0,216704
993,1605;0,218071
994,1248;0,219322
995,0890;0,220467
996,0532;0,221516
997,0175;0,222469
997,9817;0,223325
998,9459;0,224086
999,9102;0,224765
1000,8744;0,225395
1001,8386;0,226026
1002,8029;0,226727
1003,7671;0,227564
1004,7313;0,2286
1005,6956;0,229875
1006,6598;0,231412
1007,6240;0,233208
1008,5883;0,235247
1009,5525;0,237503
1010,5167;0,239936
1011,4810;0,242494
1012,4452;0,24511
1013,4094;0,247702
1014,3737;0,250179
1015,3379;0,25246
1016,3021;0,254491
1017,2664;0,256252
1018,2306;0,257765
1019,1948;0,259078
1020,1591;0,260255
1021,1233;0,261353
1022,0875;0,262413
1023,0518;0,263451
1024,0160;0,264465
1024,9802;0,265441
1025,9445;0,266361
1026,9087;0,267204
1027,8729;0,267937
1028,8372;0,268507
1029,8014;0,268833
1030,7656;0,268808
1031,7299;0,26832
1032,6941;0,267283
1033,6583;0,265667
1034,6226;0,263516
1035,5868;0,260949
1036,5510;0,25814
1037,5153;0,255288
1038,4795;0,252585
1039,4437;0,250191
1040,4080;0,248216
1041,3722;0,246708
1042,3364;0,245652
1043,3007;0,244978
1044,2649;0,244578
1045,2291;0,24433
1046,1934;0,244126
1047,1576;0,24388
1048,1218;0,243529
1049,0861;0,243016
1050,0503;0,242283
1051,0145;0,241268
1051,9788;0,239928
1052,9430;0,238251
1053,9072;0,236271
1054,8715;0,234038
1055,8357;0,231592
1056,7999;0,228928
1057,7642;0,225987
1058,7284;0,22269
1059,6926;0,218985
1060,6569;0,214891
1061,6211;0,210516
1062,5853;0,206035
1063,5496;0,201642
1064,5138;0,197506
1065,4780;0,193736
1066,4423;0,190375
1067,4065;0,187409
1068,3707;0,184786
1069,3350;0,182439
1070,2992;0,180292
1071,2634;0,17827
1072,2277;0,176295
1073,1919;0,174292
1074,1561;0,172195
1075,1204;0,169953
1076,0846;0,16755
1077,0488;0,165007
1078,0131;0,162385
1078,9773;0,159764
1079,9415;0,157232
1080,9058;0,154865
1081,8700;0,152715
1082,8342;0,150811
1083,7985;0,149157
1084,7627;0,147739
1085,7269;0,146533
1086,6912;0,14551
1087,6554;0,144649
1088,6196;0,143936
1089,5839;0,143368
1090,5481;0,142948
1091,5123;0,142676
1092,4766;0,142548
1093,4408;0,142557
1094,4050;0,142695
1095,3693;0,142952
1096,3335;0,143316
1097,2977;0,143768
1098,2620;0,144274
1099,2262;0,144797
1100,1904;0,145293
1101,1547;0,145725
1102,1189;0,146061
1103,0831;0,146276
1104,0474;0,14635
1105,0116;0,146274
1105,9758;0,146052
1106,9401;0,145703
1107,9043;0,145242
1108,8685;0,144668
1109,8328;0,143944
1110,7970;0,143007
1111,7612;0,141789
1112,7255;0,140257
1113,6897;0,138442
1114,6539;0,13644
1115,6182;0,134387
1116,5824;0,132415
1117,5466;0,130607
1118,5109;0,128989
1119,4751;0,127525
1120,4393;0,126145
1121,4036;0,124764
1122,3678;0,123301
1123,3320;0,121685
1124,2963;0,119865
1125,2605;0,11782
1126,2247;0,115562
1127,1890;0,113139
1128,1532;0,110619
1129,1174;0,108076
1130,0817;0,105568
1131,0459;0,103136
1132,0101;0,100799
1132,9744;0,0985738
1133,9386;0,0964801
1134,9028;0,0945511
1135,8671;0,0928305
1136,8313;0,0913661
1137,7955;0,0901985
1138,7598;0,0893515
1139,7240;0,0888243
1140,6882;0,0885906
1141,6525;0,0886042
1142,6167;0,0888094
1143,5809;0,0891532
1144,5452;0,0895951
1145,5094;0,0901104
1146,4736;0,090688
1147,4379;0,0913251
1148,4021;0,0920204
1149,3663;0,0927686
1150,3306;0,0935563
1151,2948;0,0943601
1152,2590;0,0951476
1153,2233;0,0958803
1154,1875;0,0965178
1155,1517;0,0970207
1156,1160;0,0973494
1157,0802;0,097459
1158,0444;0,0972941
1159,0087;0,0967865
1159,9729;0,0958606
1160,9371;0,0944471
1161,9014;0,0925025
1162,8656;0,0900271
1163,8298;0,0870748
1164,7941;0,0837505
1165,7583;0,0801953
1166,7225;0,0765643
1167,6868;0,0730031
1168,6510;0,0696301
1169,6152;0,0665266
1170,5795;0,0637364
1171,5437;0,061271
1172,5079;0,0591182
1173,4722;0,0572511
1174,4364;0,0556357
1175,4006;0,0542377
1176,3649;0,0530262
1177,3291;0,0519769
1178,2933;0,0510712
1179,2576;0,0502947
1180,2218;0,0496347
1181,1860;0,0490792
1182,1503;0,0486177
1183,1145;0,048243
1184,0787;0,0479532
1185,0430;0,0477512
1186,0072;0,0476431
1186,9714;0,0476353
1187,9357;0,0477315
1188,8999;0,0479321
1189,8641;0,0482343
1190,8284;0,0486333
1191,7926;0,0491236
1192,7568;0,0496995
1193,7211;0,0503551
1194,6853;0,0510836
1195,6495;0,0518755
1196,6138;0,0527171
1197,5780;0,0535901
1198,5422;0,054474
1199,5065;0,055237
1200,4707;0,0561001
1201,4349;0,0569309
1202,3992;0,0577256
1203,3634;0,0584828
1204,3276;0,0591989
1205,2919;0,059868
1206,2561;0,0604843
1207,2203;0,061049
1208,1846;0,0615759
1209,1488;0,062094
1210,1130;0,0626424
1211,0773;0,0632616
1212,0415;0,0639816
1213,0057;0,0648139
1213,9700;0,0657507
1214,9342;0,06677
1215,8984;0,0678444
1216,8627;0,0689471
1217,8269;0,0700551
1218,7911;0,0711513
1219,7554;0,0722224
1220,7196;0,0732597
1221,6838;0,0742579
1222,6481;0,0752153
1223,6123;0,0761316
1224,5765;0,0770057
1225,5408;0,0778357
1226,5050;0,0786195
1227,4692;0,0793567
1228,4335;0,0800482
1229,3977;0,080694
1230,3619;0,0812899
1231,3262;0,0818264
1232,2904;0,0822906
1233,2546;0,082673
1234,2189;0,0829726
1235,1831;0,0831993
1236,1473;0,0833703
1237,1116;0,0835027
1238,0758;0,0836065
1239,0400;0,0836819
1240,0043;0,0837216
1240,9685;0,0837159
1241,9327;0,0836579
1242,8970;0,0835441
1243,8612;0,0833731
1244,8254;0,0831426
1245,7897;0,0828497
1246,7539;0,0824934
1247,7181;0,0820794
1248,6824;0,081622
1249,6466;0,0811417
1250,6108;0,0806596
1251,5751;0,0801926
1252,5393;0,0797501
1253,5035;0,079335
1254,4678;0,0789451
1255,4320;0,0785738
1256,3962;0,0782098
1257,3605;0,0778368
1258,3247;0,0774356
1259,2889;0,0769899
1260,2532;0,0764908
1261,2174;0,0759392
1262,1816;0,0753427
1263,1459;0,0747101
1264,1101;0,0740472
1265,0743;0,0733563
1266,0386;0,0726387
1267,0028;0,0718972
1267,9670;0,0711377
1268,9313;0,0703671
1269,8955;0,0695916
1270,8597;0,0688147
1271,8240;0,0680369
1272,7882;0,0672579
1273,7524;0,0664801
1274,7167;0,0657105
1275,6809;0,0649603
1276,6451;0,0642401
1277,6094;0,0635534
1278,5736;0,0628924
1279,5378;0,0622408
1280,5021;0,0615819
1281,4663;0,0609096
1282,4305;0,0602325
1283,3948;0,0595709
1284,3590;0,0589468
1285,3232;0,0583762
1286,2875;0,0578654
1287,2517;0,0574147
1288,2159;0,0570227
1289,1802;0,0566891
1290,1444;0,0564138
1291,1086;0,0561952
1292,0729;0,056031
1293,0371;0,0559225
1294,0013;0,0558767
1294,9656;0,0559065
1295,9298;0,056025
1296,8940;0,0562392
1297,8583;0,056547
1298,8225;0,0569385
1299,7867;0,0574006
1300,7510;0,057922
1301,7152;0,0584966
1302,6794;0,0591221
1303,6437;0,0597983
1304,6079;0,0605258
1305,5721;0,0613033
1306,5364;0,0621249
1307,5006;0,0629801
1308,4648;0,0638551
1309,4291;0,0647349
1310,3933;0,0656039
1311,3575;0,0664448
1312,3218;0,0672363
1313,2860;0,0679518
1314,2502;0,0685604
1315,2145;0,0690287
1316,1787;0,0693255
1317,1429;0,0694297
1318,1072;0,0693417
1319,0714;0,069092
1320,0356;0,0687372
1320,9999;0,0683418
1321,9641;0,067957
1322,9283;0,0676107
1323,8926;0,0673124
1324,8568;0,0670635
1325,8210;0,0668651
1326,7853;0,0667184
1327,7495;0,0666205
1328,7137;0,0665609
1329,6780;0,0665214
1330,6422;0,0664806
1331,6064;0,0664191
1332,5707;0,066322
1333,5349;0,066179
1334,4991;0,0659789
1335,4634;0,0657025
1336,4276;0,0653212
1337,3918;0,0648027
1338,3561;0,0641338
1339,3203;0,0633473
1340,2845;0,0625256
1341,2488;0,0617619
1342,2130;0,0611119
1343,1772;0,0605827
1344,1415;0,0601552
1345,1057;0,0598103
1346,0699;0,0595429
1347,0342;0,0593634
1347,9984;0,0592908
1348,9626;0,0593418
1349,9269;0,0595194
1350,8911;0,0598073
1351,8553;0,0601742
1352,8196;0,0605868
1353,7838;0,0610241
1354,7480;0,0614849
1355,7123;0,0619828
1356,6765;0,0625309
1357,6407;0,0631296
1358,6050;0,0637655
1359,5692;0,0644176
1360,5334;0,0650591
1361,4977;0,0656588
1362,4619;0,0661934
1363,4261;0,0666669
1364,3904;0,067105
1365,3546;0,0675282
1366,3188;0,067936
1367,2831;0,0683122
1368,2473;0,0686361
1369,2115;0,0688874
1370,1758;0,0690464
1371,1400;0,0690895
1372,1042;0,0689886
1373,0685;0,0687189
1374,0327;0,0682799
1374,9969;0,0677098
1375,9612;0,067063
1376,9254;0,0663639
1377,8896;0,065589
1378,8539;0,0647018
1379,8181;0,0637027
1380,7823;0,0626493
1381,7466;0,0616248
1382,7108;0,0606785
1383,6750;0,0597919
1384,6393;0,0588977
1385,6035;0,0579379
1386,5677;0,0569302
1387,5320;0,0559906
1388,4962;0,0552615
1389,4604;0,0548
1390,4247;0,0545516
1391,3889;0,0544172
1392,3531;0,0543222
1393,3174;0,0542382
1394,2816;0,0541663
1395,2458;0,054113
1396,2101;0,0540791
1397,1743;0,0540682
1398,1385;0,054099
1399,1028;0,0542018
1400,0670;0,0543986
1401,0313;0,0546847
1401,9955;0,0550293
1402,9597;0,0553947
1403,9240;0,0557583
1404,8882;0,0561259
1405,8524;0,0565268
1406,8167;0,0569909
1407,7809;0,0575259
1408,7451;0,0581179
1409,7094;0,0587523
1410,6736;0,0594285
1411,6378;0,0601544
1412,6021;0,0609257
1413,5663;0,0617117
1414,5305;0,0624624
1415,4948;0,0631298
1416,4590;0,0636812
1417,4232;0,0641002
1418,3875;0,0643976
1419,3517;0,064631
1420,3159;0,0648655
1421,2802;0,0650922
1422,2444;0,0652264
1423,2086;0,0651855
1424,1729;0,0649496
1425,1371;0,0645609
1426,1013;0,064073
1427,0656;0,0635023
1428,0298;0,0628272
1428,9940;0,0620371
1429,9583;0,0611815
1430,9225;0,0603527
1431,8867;0,0596029
1432,8510;0,058886
1433,8152;0,0580842
1434,7794;0,0570923
1435,7437;0,055923
1436,7079;0,0547795
1437,6721;0,0539556
1438,6364;0,0535881
1439,6006;0,0535748
1440,5648;0,0537253
1441,5291;0,0539097
1442,4933;0,0540942
1443,4575;0,0543039
1444,4218;0,0545687
1445,3860;0,0548915
1446,3502;0,0552511
1447,3145;0,0556308
1448,2787;0,0560413
1449,2429;0,0565118
1450,2072;0,0570499
1451,1714;0,0576121
1452,1356;0,0581168
1453,0999;0,0584831
1454,0641;0,058655
1455,0283;0,0585842
1455,9926;0,0581916
1456,9568;0,0574798
1457,9210;0,0567882
1458,8853;0,0565342
1459,8495;0,056709
1460,8137;0,057007
1461,7780;0,0571362
1462,7422;0,0569122
1463,7064;0,0562601
1464,6707;0,0552526
1465,6349;0,0541235
1466,5991;0,0531111
1467,5634;0,052261
1468,5276;0,0514312
1469,4918;0,0504173
1470,4561;0,0490322
1471,4203;0,0471466
1472,3845;0,0447903
1473,3488;0,0422844
1474,3130;0,0400938
1475,2772;0,0384451
1476,2415;0,0372483
1477,2057;0,0363112
1478,1699;0,035492
1479,1342;0,0347207
1480,0984;0,0339784
1481,0626;0,0332818
1482,0269;0,0326743
1482,9911;0,0322049
1483,9553;0,0319002
1484,9196;0,0317499
1485,8838;0,0317166
1486,8480;0,0317499
1487,8123;0,0317916
1488,7765;0,0318032
1489,7407;0,0318303
1490,7050;0,0319887
1491,6692;0,0323347
1492,6334;0,0328203
1493,5977;0,0333724
1494,5619;0,0339646
1495,5261;0,0346238
1496,4904;0,0353912
1497,4546;0,036283
1498,4188;0,0372894
1499,3831;0,0383754
1500,3473;0,0394574
1501,3115;0,0404168
1502,2758;0,0411559
1503,2400;0,0416493
1504,2042;0,0419613
1505,1685;0,0421929
1506,1327;0,0423101
1507,0969;0,0421134
1508,0612;0,0416945
1509,0254;0,0414191
1509,9896;0,0413707
1510,9539;0,0413967
1511,9181;0,0413617
1512,8823;0,041213
1513,8466;0,0409498
1514,8108;0,0405828
1515,7750;0,0401183
1516,7393;0,039563
1517,7035;0,0389312
1518,6677;0,0382433
1519,6320;0,0375296
1520,5962;0,0368444
1521,5604;0,0362678
1522,5247;0,0358697
1523,4889;0,0356619
1524,4531;0,035605
1525,4174;0,0356605
1526,3816;0,0358195
1527,3458;0,0360826
1528,3101;0,0364278
1529,2743;0,0368154
1530,2385;0,0372309
1531,2028;0,0377195
1532,1670;0,0383663
1533,1312;0,0392166
1534,0955;0,0402074
1535,0597;0,041199
1536,0239;0,0420704
1536,9882;0,0427892
1537,9524;0,0434189
1538,9166;0,044022
1539,8809;0,0444295
1540,8451;0,0442477
1541,8093;0,043508
1542,7736;0,0427193
1543,7378;0,0421467
1544,7020;0,0417556
1545,6663;0,0414764
1546,6305;0,0412815
1547,5947;0,0411496
1548,5590;0,0410395
1549,5232;0,0409066
1550,4874;0,0407409
1551,4517;0,0405822
1552,4159;0,0404872
1553,3801;0,0404689
1554,3444;0,0404689
1555,3086;0,0403809
1556,2728;0,0400702
1557,2371;0,0393532
1558,2013;0,0381381
1559,1655;0,0369436
1560,1298;0,0366052
1561,0940;0,0371771
1562,0582;0,0381546
1563,0225;0,0391212
1563,9867;0,0398885
1564,9509;0,0404206
1565,9152;0,0407623
1566,8794;0,0410041
1567,8436;0,0412633
1568,8079;0,0416549
1569,7721;0,0422401
1570,7363;0,042983
1571,7006;0,0437712
1572,6648;0,0444878
1573,6290;0,0450691
1574,5933;0,0455105
1575,5575;0,0458371
1576,5217;0,0461008
1577,4860;0,0463955
1578,4502;0,0467852
1579,4144;0,0472309
1580,3787;0,0476454
1581,3429;0,0479803
1582,3071;0,0482542
1583,2714;0,0485318
1584,2356;0,0488808
1585,1998;0,0493366
1586,1641;0,0498923
1587,1283;0,0505138
1588,0925;0,0511599
1589,0568;0,0517923
1590,0210;0,0523768
1590,9852;0,0528803
1591,9495;0,0532683
1592,9137;0,0535082
1593,8779;0,0535804
1594,8422;0,0534932
1595,8064;0,053287
1596,7706;0,0530198
1597,7349;0,0527429
1598,6991;0,0524836
1599,6633;0,052245
1600,6276;0,0520186
1601,5918;0,0518012
1602,5560;0,0516058
1603,5203;0,0514553
1604,4845;0,0513637
1605,4487;0,0513218
1606,4130;0,0513031
1607,3772;0,0512903
1608,3414;0,0513012
1609,3057;0,0513863
1610,2699;0,0515861
1611,2341;0,0518829
1612,1984;0,0522019
1613,1626;0,0524597
1614,1268;0,0526178
1615,0911;0,0527104
1616,0553;0,0528421
1617,0195;0,0531437
1617,9838;0,0536725
1618,9480;0,0543499
1619,9122;0,0550312
1620,8765;0,0556124
1621,8407;0,0560709
1622,8049;0,0564438
1623,7692;0,0567875
1624,7334;0,057144
1625,6976;0,0575281
1626,6619;0,0579416
1627,6261;0,0583937
1628,5903;0,0588974
1629,5546;0,0594393
1630,5188;0,0599627
1631,4830;0,0603895
1632,4473;0,0606643
1633,4115;0,0607784
1634,3757;0,0607528
1635,3400;0,0606256
1636,3042;0,0605159
1637,2684;0,0606061
1638,2327;0,0609466
1639,1969;0,061424
1640,1611;0,0618983
1641,1254;0,0622816
1642,0896;0,0625362
1643,0538;0,0626574
1644,0181;0,0626626
1644,9823;0,06258
1645,9465;0,0624507
1646,9108;0,0623539
1647,8750;0,0623617
1648,8392;0,0624114
1649,8035;0,0623107
1650,7677;0,0618408
1651,7319;0,0608059
1652,6962;0,0591655
1653,6604;0,0574516
1654,6246;0,0565268
1655,5889;0,0564882
1656,5531;0,0567896
1657,5173;0,0569561
1658,4816;0,05677
1659,4458;0,0561848
1660,4100;0,0552448
1661,3743;0,0540708
1662,3385;0,0528731
1663,3027;0,051878
1664,2670;0,051174
1665,2312;0,0506648
1666,1954;0,05016
1667,1597;0,0494734
1668,1239;0,0484906
1669,0881;0,0472441
1670,0524;0,0459451
1671,0166;0,0448255
1671,9808;0,043916
1672,9451;0,0430582
1673,9093;0,0420994
1674,8735;0,0410515
1675,8378;0,0401067
1676,8020;0,0394782
1677,7662;0,0392015
1678,7305;0,0391106
1679,6947;0,0389653
1680,6589;0,0385512
1681,6232;0,037698
1682,5874;0,036301
1683,5516;0,0344986
1684,5159;0,0328355
1685,4801;0,0318352
1686,4443;0,0314769
1687,4086;0,0313997
1688,3728;0,0312952
1689,3370;0,0310334
1690,3013;0,0306226
1691,2655;0,0301316
1692,2297;0,0296318
1693,1940;0,029174
1694,1582;0,0287838
1695,1224;0,0284525
1696,0867;0,0281213
1697,0509;0,0276922
1698,0151;0,0271006
1698,9794;0,0264206
1699,9436;0,025878
1700,9078;0,0256922
1701,8721;0,0258965
1702,8363;0,0263386
1703,8005;0,0268161
1704,7648;0,0271941
1705,7290;0,0274527
1706,6932;0,0276724
1707,6575;0,0279657
1708,6217;0,0283965
1709,5859;0,0289516
1710,5502;0,0295732
1711,5144;0,0302012
1712,4786;0,0307917
1713,4429;0,0313127
1714,4071;0,0317285
1715,3713;0,0319862
1716,3356;0,0320505
1717,2998;0,0320204
1718,2640;0,0321356
1719,2283;0,0325432
1720,1925;0,033173
1721,1567;0,0338598
1722,1210;0,0344754
1723,0852;0,0349698
1724,0494;0,0353615
1725,0137;0,0357094
1725,9779;0,0360771
1726,9421;0,0364967
1727,9064;0,0369474
1728,8706;0,0373598
1729,8348;0,0376349
1730,7991;0,0376651
1731,7633;0,0373602
1732,7275;0,0367145
1733,6918;0,0359124
1734,6560;0,0352728
1735,6202;0,0349585
1736,5845;0,0348423
1737,5487;0,0346752
1738,5129;0,0342733
1739,4772;0,0335935
1740,4414;0,0327296
1741,4056;0,0318436
1742,3699;0,0310552
1743,3341;0,0303746
1744,2983;0,0297307
1745,2626;0,0290379
1746,2268;0,028225
1747,1910;0,0272241
1748,1553;0,0259716
1749,1195;0,0244753
1750,0837;0,0229005
1751,0480;0,0215115
1752,0122;0,0204712
1752,9764;0,0197425
1753,9407;0,0191699
1754,9049;0,0186051
1755,8691;0,0179781
1756,8334;0,0172991
1757,7976;0,0166129
1758,7618;0,0159425
1759,7261;0,0152713
1760,6903;0,0145788
1761,6545;0,0138891
1762,6188;0,0132733
1763,5830;0,0127931
1764,5472;0,0124479
1765,5115;0,01218
1766,4757;0,0119209
1767,4399;0,0116276
1768,4042;0,0112884
1769,3684;0,0109036
1770,3326;0,0104672
1771,2969;0,00998049
1772,2611;0,00949735
1773,2253;0,00912852
1774,1896;0,00895536
1775,1538;0,00895507
1776,1180;0,00902918
1777,0823;0,00907946
1778,0465;0,00905508
1779,0107;0,0089564
1779,9750;0,00881201
1780,9392;0,00864905
1781,9034;0,00847811
1782,8677;0,0083038
1783,8319;0,00814727
1784,7961;0,00805119
1785,7604;0,00805364
1786,7246;0,0081532
1787,6888;0,00830092
1788,6531;0,0084255
1789,6173;0,00846562
1790,5815;0,00838973
1791,5458;0,00821142
1792,5100;0,0080054
1793,4742;0,00787709
1794,4385;0,00787573
1795,4027;0,0079572
1796,3669;0,0080365
1797,3312;0,00805058
1798,2954;0,00798138
1799,2596;0,00784798
1800,2239;0,0076898
1801,1881;0,00755071
1802,1523;0,00746415
1803,1166;0,00744262
1804,0808;0,00747806
1805,0450;0,00755009
1806,0093;0,00763325
1806,9735;0,00770014
1807,9377;0,0077238
1808,9020;0,00768423
1809,8662;0,00757998
1810,8304;0,00743654
1811,7947;0,00729725
1812,7589;0,0071979
1813,7231;0,00714788
1814,6874;0,00713358
1815,6516;0,00713543
1816,6158;0,00714212
1817,5801;0,00715495
1818,5443;0,00718215
1819,5085;0,00722731
1820,4728;0,00728175
1821,4370;0,00732852
1822,4012;0,00735454
1823,3655;0,00736036
1824,3297;0,00736032
1825,2939;0,00737026
1826,2582;0,00738916
1827,2224;0,00739065
1828,1866;0,00733622
1829,1509;0,00720747
1830,1151;0,00703677
1831,0793;0,0068983
1832,0436;0,00685099
1833,0078;0,00689329
1833,9720;0,00697668
1834,9363;0,0070503
1835,9005;0,00709189
1836,8647;0,00711182
1837,8290;0,00713385
1838,7932;0,00716759
1839,7574;0,00719679
1840,7217;0,00719499
1841,6859;0,00715027
1842,6501;0,00707478
1843,6144;0,00699535
1844,5786;0,00693946
1845,5428;0,00692175
1846,5071;0,00693015
1847,4713;0,00692996
1848,4355;0,00689155
1849,3998;0,00681377
1850,3640;0,00672314
1851,3282;0,00665405
1852,2925;0,00662718
1853,2567;0,00664245
1854,2209;0,00668761
1855,1852;0,00675053
1856,1494;0,00682358
1857,1136;0,00690013
1858,0779;0,00696964
1859,0421;0,00702019
1860,0063;0,00704753
1860,9706;0,00706156
1861,9348;0,00708179
1862,8990;0,00712392
1863,8633;0,00718897
1864,8275;0,0072626
1865,7917;0,00732047
1866,7560;0,0073327
1867,7202;0,00727363
1868,6844;0,00714693
1869,6487;0,00700052
1870,6129;0,00689322
1871,5771;0,00684599
1872,5414;0,00683664
1873,5056;0,00683003
1874,4698;0,00680475
1875,4341;0,00676086
1876,3983;0,00671501
1877,3625;0,00668854
1878,3268;0,00669618
1879,2910;0,00673925
1880,2552;0,00680746
1881,2195;0,00688594
1882,1837;0,0069622
1883,1479;0,00702932
1884,1122;0,00708417
1885,0764;0,00712317
1886,0406;0,00714013
1887,0049;0,00712832
1887,9691;0,00708607
1888,9333;0,00702297
1889,8976;0,00696068
1890,8618;0,00692235
1891,8260;0,00691676
1892,7903;0,00693218
1893,7545;0,00694525
1894,7188;0,00693672
1895,6830;0,00690355
1896,6472;0,00686094
1897,6115;0,00683224
1898,5757;0,0068333
1899,5399;0,00686332
1900,5042;0,00690726
1901,4684;0,00694605
1902,4326;0,00696755
1903,3969;0,00697238
1904,3611;0,00697126
1905,3253;0,00697588
1906,2896;0,00698983
1907,2538;0,00700537
1908,2180;0,00700814
1909,1823;0,00698777
1910,1465;0,00694752
1911,1107;0,00690328
1912,0750;0,00687138
1913,0392;0,00685727
1914,0034;0,00685553
1914,9677;0,00685835
1915,9319;0,00686295
1916,8961;0,00687315
1917,8604;0,00689519
1918,8246;0,00692982
1919,7888;0,00696474
1920,7531;0,00697579
1921,7173;0,00693983
1922,6815;0,00685164
1923,6458;0,00673331
1924,6100;0,00662701
1925,5742;0,0065729
1926,5385;0,00658748
1927,5027;0,00665728
1928,4669;0,00674804
1929,4312;0,00682042
1930,3954;0,00684687
1931,3596;0,00682438
1932,3239;0,00677455
1933,2881;0,00672993
1934,2523;0,00671399
1935,2166;0,00672727
1936,1808;0,00674944
1937,1450;0,00675695
1938,1093;0,00674403
1939,0735;0,00673157
1940,0377;0,00675592
1941,0020;0,00684123
1941,9662;0,00697306
1942,9304;0,00709897
1943,8947;0,00716326
1944,8589;0,00714686
1945,8231;0,00707701
1946,7874;0,00700489
1947,7516;0,00697292
1948,7158;0,00699021
1949,6801;0,00702645
1950,6443;0,00702744
1951,6085;0,00694534
1952,5728;0,00676808
1953,5370;0,00653302
1954,5012;0,00631689
1955,4655;0,00620334
1956,4297;0,00623969
1957,3939;0,00640402
1958,3582;0,00660403
1959,3224;0,00671772
1960,2866;0,00666227
1961,2509;0,00645072
1962,2151;0,00619171
1963,1793;0,00602512
1964,1436;0,00603567
1965,1078;0,00619971
1966,0720;0,00639778
1967,0363;0,00649033
1968,0005;0,00641031
1968,9647;0,00620219
1969,9290;0,00597798
1970,8932;0,00583651
1971,8574;0,00581338
1972,8217;0,00588671
1973,7859;0,00601697
1974,7501;0,00618109
1975,7144;0,00637598
1976,6786;0,00659237
1977,6428;0,00679388
1978,6071;0,00693105
1979,5713;0,00698032
1980,5355;0,00696783
1981,4998;0,00695449
1982,4640;0,00699598
1983,4282;0,00710705
1984,3925;0,00725161
1985,3567;0,00736345
1986,3209;0,00738468
1987,2852;0,00729813
1988,2494;0,00713531
1989,2136;0,00695937
1990,1779;0,0068358
1991,1421;0,00680541
1992,1063;0,00687091
1993,0706;0,00700136
1994,0348;0,00714901
1994,9990;0,007267
1995,9633;0,00732029
1996,9275;0,00729006
1997,8917;0,00717493
1998,8560;0,00699088
1999,8202;0,00676908
2000,7844;0,006551
2001,7487;0,00638208
2002,7129;0,00630574
2003,6771;0,00635681
2004,6414;0,00655134
2005,6056;0,00687278
2006,5698;0,00726344
2007,5341;0,00763243
2008,4983;0,00788496
2009,4625;0,0079612
2010,4268;0,00786373
2011,3910;0,0076597
2012,3552;0,00745699
2013,3195;0,00736419
2014,2837;0,00744752
2015,2479;0,00770076
2016,2122;0,00804516
2017,1764;0,00836768
2018,1406;0,00858085
2019,1049;0,00866695
2020,0691;0,00867776
2021,0333;0,00869393
2021,9976;0,0087738
2022,9618;0,00892124
2023,9260;0,00908722
2024,8903;0,0091999
2025,8545;0,00920304
2026,8187;0,00908027
2027,7830;0,00885572
2028,7472;0,00857848
2029,7114;0,00830532
2030,6757;0,00809018
2031,6399;0,00797868
2032,6041;0,00800148
2033,5684;0,00816485
2034,5326;0,00844256
2035,4968;0,00877603
2036,4611;0,00908413
2037,4253;0,0092814
2038,3895;0,00929879
2039,3538;0,00910621
2040,3180;0,00873266
2041,2822;0,00827167
2042,2465;0,00785916
2043,2107;0,00762512
2044,1749;0,00764155
2045,1392;0,00789292
2046,1034;0,00828277
2047,0676;0,00867435
2048,0320;0,00894922
2048,9961;0,0090534
2049,9604;0,00900405
2050,9246;0,00885971
2051,8889;0,00868313
2052,8530;0,00852024
2053,8174;0,00839733
2054,7815;0,00832617
2055,7458;0,00830997
2056,7100;0,00834536
2057,6743;0,00842224
2058,6384;0,00852386
2059,6028;0,00862866
2060,5669;0,00871437
2061,5313;0,00876374
2062,4954;0,00877039
2063,4597;0,0087419
2064,4238;0,00869758
2065,3882;0,00866048
2066,3523;0,00864794
2067,3167;0,0086667
2068,2808;0,00871578
2069,2451;0,00879372
2070,2092;0,00890225
2071,1736;0,0090417
2072,1377;0,00919976
2073,1021;0,00934499
2074,0662;0,00943287
2075,0305;0,0094254
2075,9946;0,00931318
2076,9590;0,00912558
2077,9231;0,00892089
2078,8875;0,00876146
2079,8516;0,00868819
2080,8159;0,00870806
2081,7800;0,00879882
2082,7444;0,00892439
2083,7085;0,0090504
2084,6729;0,00915241
2085,6370;0,00921665
2086,6013;0,00923655
2087,5654;0,00920996
2088,5298;0,00913874
2089,4939;0,00903049
2090,4583;0,00890059
2091,4224;0,00877252
2092,3867;0,00867478
2093,3508;0,00863347
2094,3152;0,008662
2095,2793;0,00875293
2096,2437;0,00887841
2097,2078;0,00900161
2098,1721;0,00909351
2099,1362;0,00914413
2100,1006;0,00916273
2101,0647;0,00916321
2102,0291;0,00916067
2102,9932;0,0091623
2103,9575;0,00917136
2104,9216;0,00919073
2105,8860;0,00922153
2106,8501;0,0092576
2107,8145;0,0092825
2108,7786;0,00927558
2109,7429;0,00922539
2110,7070;0,00914125
2111,6714;0,0090526
2112,6355;0,00899441
2113,5999;0,00898768
2114,5640;0,00902812
2115,5283;0,00909035
2116,4924;0,00914341
2117,4568;0,00916687
2118,4209;0,00915788
2119,3853;0,00912768
2120,3494;0,00909283
2121,3137;0,00906779
2122,2778;0,00906149
2123,2422;0,00907583
2124,2063;0,00910382
2125,1707;0,00912873
2126,1348;0,0091288
2127,0991;0,00908939
2128,0632;0,00901753
2129,0276;0,00894826
2129,9917;0,00893402
2130,9561;0,00901862
2131,9202;0,00920857
2132,8845;0,00946011
2133,8486;0,0096943
2134,8130;0,00983644
2135,7771;0,00985631
2136,7415;0,00978104
2137,7056;0,00967127
2138,6699;0,00958021
2139,6340;0,00952694
2140,5984;0,0095006
2141,5625;0,0094867
2142,5269;0,00949065
2143,4910;0,00953794
2144,4553;0,00964979
2145,4194;0,00981416
2146,3838;0,00997701
2147,3479;0,0100641
2148,3123;0,0100196
2149,2764;0,00983572
2150,2407;0,0095535
2151,2048;0,00924109
2152,1692;0,00896904
2153,1333;0,0088019
2154,0977;0,00880623
2155,0618;0,00905586
2156,0261;0,00960874
2156,9902;0,0104474
2157,9546;0,0114186
2158,9187;0,0122523
2159,8831;0,0126952
2160,8472;0,0126627
2161,8115;0,0122701
2162,7756;0,011738
2163,7400;0,0112694
2164,7041;0,0109708
2165,6685;0,0108373
2166,6326;0,0107893
2167,5969;0,0107356
2168,5610;0,0106254
2169,5254;0,0104653
2170,4895;0,0102991
2171,4539;0,010174
2172,4180;0,0101157
2173,3823;0,0101229
2174,3464;0,0101819
2175,3108;0,0102834
2176,2749;0,0104297
2177,2393;0,0106239
2178,2034;0,010852
2179,1677;0,011073
2180,1318;0,0112289
2181,0962;0,0112703
2182,0603;0,0111837
2183,0247;0,0109998
2183,9888;0,0107747
2184,9531;0,0105587
2185,9172;0,0103748
2186,8816;0,0102227
2187,8457;0,0100991
2188,8101;0,0100154
2189,7742;0,00999592
2190,7385;0,0100572
2191,7026;0,0101854
2192,6670;0,0103313
2193,6311;0,0104278
2194,5955;0,0104225
2195,5596;0,0103026
2196,5239;0,0100997
2197,4880;0,0098728
2198,4524;0,00968136
2199,4165;0,00956252
2200,3809;0,00952122
2201,3450;0,00953411
2202,3093;0,00956337
2203,2734;0,00957434
2204,2378;0,00955037
2205,2019;0,00949877
2206,1663;0,00944521
2207,1304;0,00941954
2208,0947;0,00944126
2209,0588;0,00951257
2210,0232;0,00962107
2210,9873;0,00974628
2211,9517;0,00986347
2212,9158;0,00994372
2213,8801;0,00995622
2214,8442;0,00987838
2215,8086;0,00971077
2216,7727;0,00948535
2217,7371;0,00925694
2218,7012;0,0090795
2219,6655;0,00898174
2220,6296;0,00895833
2221,5940;0,00898121
2222,5581;0,00902073
2223,5225;0,00906068
2224,4866;0,00909919
2225,4509;0,00914031
2226,4150;0,00918632
2227,3794;0,00923562
2228,3435;0,00928628
2229,3079;0,00933425
2230,2720;0,00936978
2231,2363;0,00937757
2232,2004;0,00934536
2233,1648;0,00927673
2234,1289;0,00919642
2235,0933;0,00913997
2236,0574;0,0091321
2237,0217;0,00916973
2237,9858;0,00922357
2238,9502;0,00925836
2239,9143;0,00925677
2240,8787;0,00922892
2241,8428;0,00920108
2242,8071;0,00919345
2243,7712;0,00920485
2244,7356;0,00921596
2245,6997;0,00920745
2246,6641;0,00917851
2247,6282;0,0091514
2248,5925;0,00915895
2249,5566;0,00922401
2250,5210;0,00934468
2251,4851;0,00949374
2252,4495;0,0096313
2253,4136;0,00972261
2254,3779;0,00975133
2255,3420;0,00972307
2256,3064;0,00965946
2257,2705;0,00958772
2258,2349;0,00953112
2259,1990;0,00950307
2260,1633;0,00950485
2261,1274;0,00952666
2262,0918;0,00955165
2263,0559;0,0095628
2264,0203;0,0095508
2264,9844;0,00951924
2265,9487;0,00948364
2266,9128;0,00946386
2267,8772;0,00947381
2268,8413;0,0095142
2269,8057;0,00957244
2270,7698;0,00962896
2271,7341;0,00966579
2272,6982;0,00967272
2273,6626;0,00964876
2274,6267;0,0096002
2275,5911;0,00953732
2276,5552;0,00947181
2277,5195;0,00941489
2278,4836;0,00937571
2279,4480;0,00935972
2280,4121;0,00936802
2281,3765;0,009398
2282,3406;0,0094454
2283,3049;0,00950658
2284,2690;0,00958005
2285,2334;0,00966643
2286,1975;0,00976726
2287,1619;0,009883
2288,1260;0,0100112
2289,0903;0,0101455
2290,0544;0,0102767
2291,0188;0,0103961
2291,9829;0,0104992
2292,9473;0,0105893
2293,9114;0,0106766
2294,8757;0,0107728
2295,8398;0,0108831
2296,8042;0,0109992
2297,7683;0,0111003
2298,7327;0,0111601
2299,6968;0,0111605
2300,6611;0,0111028
2301,6252;0,0110118
2302,5896;0,0109286
2303,5537;0,010895
2304,5181;0,0109359
2305,4822;0,0110448
2306,4465;0,0111809
2307,4106;0,0112817
2308,3750;0,0112864
2309,3391;0,0111634
2310,3035;0,0109265
2311,2676;0,0106293
2312,2319;0,0103407
2313,1960;0,0101109
2314,1604;0,0099505
2315,1245;0,0098333
2316,0889;0,00972025
2317,0530;0,00958864
2318,0173;0,00944881
2318,9814;0,00933939
2319,9458;0,0093049
2320,9099;0,00937065
2321,8743;0,00953101
2322,8384;0,00975306
2323,8027;0,00998487
2324,7668;0,010163
2325,7312;0,010226
2326,6953;0,0101376
2327,6597;0,00990664
2328,6238;0,00959369
2329,5881;0,00929562
2330,5522;0,00911124
2331,5166;0,00909841
2332,4807;0,00924505
2333,4451;0,00947612
2334,4092;0,00969727
2335,3735;0,00984839
2336,3376;0,0099343
2337,3020;0,0100155
2338,2661;0,0101636
2339,2305;0,0104048
2340,1946;0,0106801
2341,1589;0,0108461
2342,1230;0,0107409
2343,0874;0,010335
2344,0515;0,00988571
2345,0159;0,00983103
2345,9800;0,0103973
2346,9443;0,011378
2347,9084;0,0123172
2348,8728;0,0128232
2349,8369;0,0127568
2350,8013;0,0122611
2351,7654;0,0116669
2352,7297;0,0113024
2353,6938;0,0113024
2354,6582;0,0115751
2355,6223;0,0119498
2356,5867;0,0123056
2357,5508;0,0125623
2358,5151;0,0126366
2359,4792;0,0124624
2360,4436;0,0120402
2361,4077;0,0114357
2362,3721;0,0107293
2363,3362;0,00998493
2364,3005;0,0092577
2365,2646;0,00860195
2366,2290;0,00805399
2367,1931;0,00761042
2368,1575;0,00723342
2369,1216;0,00688207
2370,0859;0,00654253
2371,0500;0,00623607
2372,0144;0,00600667
2372,9785;0,00590229
2373,9429;0,00596014
2374,9070;0,00619712
2375,8713;0,00660412
2376,8354;0,00714505
2377,7998;0,00776232
2378,7639;0,00838778
2379,7283;0,00895584
2380,6924;0,00941504
2381,6567;0,00973559
2382,6208;0,0099124
2383,5852;0,00996343
2384,5493;0,00992363
2385,5137;0,00983539
2386,4778;0,00973803
2387,4421;0,00965938
2388,4063;0,00961248
2389,3706;0,00959742
2390,3347;0,00960648
2391,2991;0,00962923
2392,2632;0,00965557
2393,2275;0,00967715
2394,1917;0,0096885
2395,1560;0,00968871
2396,1201;0,00968265
2397,0845;0,00967981
2398,0486;0,00969154
2399,0129;0,00972268
2399,9771;0,00976943
2400,9414;0,00982183
2401,9055;0,00986812
2402,8699;0,00990148
2403,8340;0,00992173
2404,7983;0,00993311
2405,7625;0,00993991
2406,7268;0,00994361
2407,6909;0,00994478
2408,6553;0,00994612
2409,6194;0,00995287
2410,5837;0,00997108
2411,5479;0,0100027
2412,5122;0,0100432
2413,4763;0,0100832
2414,4407;0,0101143
2415,4048;0,0101339
2416,3691;0,0101465
2417,3333;0,0101592
2418,2976;0,0101768
2419,2617;0,0101993
2420,2261;0,0102227
2421,1902;0,0102435
2422,1545;0,010262
2423,1187;0,0102815
2424,0830;0,0103053
2425,0471;0,0103333
2426,0115;0,0103619
2426,9756;0,0103877
2427,9399;0,0104112
2428,9041;0,0104379
2429,8684;0,0104752
2430,8325;0,0105263
2431,7969;0,0105858
2432,7610;0,0106402
2433,7253;0,0106749
2434,6895;0,0106831
2435,6538;0,0106712
2436,6179;0,0106575
2437,5823;0,0106621
2438,5464;0,0106963
2439,5107;0,010756
2440,4749;0,0108244
2441,4392;0,0108818
2442,4033;0,0109169
2443,3677;0,010932
2444,3318;0,0109395
2445,2961;0,0109537
2446,2603;0,010982
2447,2246;0,0110218
2448,1887;0,0110636
2449,1531;0,0110974
2450,1172;0,0111181
2451,0815;0,0111278
2452,0457;0,0111338
2453,0100;0,0111448
2453,9741;0,0111667
2454,9385;0,0111998
2455,9026;0,0112388
2456,8669;0,0112749
2457,8311;0,0113008
2458,7954;0,0113138
2459,7595;0,0113177
2460,7239;0,0113199
2461,6880;0,0113271
2462,6523;0,0113415
2463,6165;0,0113594
2464,5808;0,0113747
2465,5449;0,0113834
2466,5093;0,0113862
2467,4734;0,0113881
2468,4377;0,011395
2469,4019;0,0114101
2470,3662;0,0114328
2471,3303;0,01146
2472,2947;0,0114885
2473,2588;0,0115169
2474,2231;0,0115454
2475,1873;0,0115739
2476,1516;0,0116017
2477,1157;0,0116275
2478,0801;0,0116514
2479,0442;0,0116761
2480,0085;0,0117058
2480,9727;0,011744
2481,9370;0,0117905
2482,9011;0,0118402
2483,8655;0,0118846
2484,8296;0,0119152
2485,7939;0,0119268
2486,7581;0,0119198
2487,7224;0,0118999
2488,6865;0,0118761
2489,6509;0,0118583
2490,6150;0,0118535
2491,5793;0,0118649
2492,5435;0,0118904
2493,5078;0,0119239
2494,4719;0,011957
2495,4363;0,0119823
2496,4004;0,011996
2497,3647;0,0119991
2498,3289;0,011997
2499,2932;0,011997
2500,2573;0,0120052
2501,2217;0,0120243
2502,1858;0,012053
2503,1501;0,0120874
2504,1143;0,0121233
2505,0786;0,0121572
2506,0427;0,0121867
2507,0071;0,0122082
2507,9712;0,0122175
2508,9355;0,0122117
2509,8997;0,0121931
2510,8640;0,0121713
2511,8281;0,0121611
2512,7925;0,0121757
2513,7566;0,012218
2514,7209;0,0122773
2515,6851;0,0123336
2516,6494;0,0123684
2517,6135;0,0123748
2518,5779;0,0123615
2519,5420;0,0123466
2520,5063;0,0123466
2521,4705;0,0123671
2522,4348;0,012402
2523,3989;0,0124395
2524,3633;0,012471
2525,3274;0,0124954
2526,2917;0,0125172
2527,2559;0,0125403
2528,2202;0,0125639
2529,1843;0,012583
2530,1487;0,0125927
2531,1128;0,0125931
2532,0771;0,0125891
2533,0413;0,0125873
2534,0056;0,012591
2534,9697;0,0125972
2535,9341;0,0125995
2536,8982;0,012592
2537,8625;0,0125741
2538,8267;0,0125509
2539,7910;0,0125312
2540,7551;0,0125232
2541,7195;0,0125309
2542,6836;0,012552
2543,6479;0,0125794
2544,6121;0,0126033
2545,5764;0,0126154
2546,5405;0,0126126
2547,5049;0,012599
2548,4690;0,0125839
2549,4333;0,0125774
2550,3975;0,0125857
2551,3618;0,0126083
2552,3259;0,0126402
2553,2903;0,0126749
2554,2544;0,0127078
2555,2188;0,0127363
2556,1829;0,0127587
2557,1472;0,0127732
2558,1113;0,0127792
2559,0757;0,0127786
2560,0398;0,0127761
2561,0042;0,0127764
2561,9683;0,012781
2562,9326;0,0127871
2563,8967;0,0127899
2564,8611;0,0127878
2565,8252;0,0127843
2566,7896;0,0127867
2567,7537;0,0128007
2568,7180;0,0128265
2569,6821;0,0128582
2570,6465;0,0128879
2571,6106;0,0129106
2572,5750;0,0129255
2573,5391;0,0129357
2574,5034;0,0129453
2575,4675;0,0129578
2576,4319;0,0129754
2577,3960;0,0129993
2578,3604;0,0130288
2579,3245;0,0130613
2580,2888;0,0130921
2581,2529;0,0131172
2582,2173;0,0131353
2583,1814;0,0131488
2584,1458;0,0131621
2585,1099;0,0131779
2586,0742;0,0131955
2587,0383;0,013211
2588,0027;0,01322
2588,9668;0,0132213
2589,9312;0,0132181
2590,8953;0,0132165
2591,8596;0,0132228
2592,8237;0,0132405
2593,7881;0,0132685
2594,7522;0,0133015
2595,7166;0,0133328
2596,6807;0,0133571
2597,6450;0,0133743
2598,6091;0,0133898
2599,5735;0,0134128
2600,5376;0,0134518
2601,5020;0,0135085
2602,4661;0,0135766
2603,4304;0,0136426
2604,3945;0,0136925
2605,3589;0,0137183
2606,3230;0,0137213
2607,2874;0,0137117
2608,2515;0,0137027
2609,2158;0,0137053
2610,1799;0,0137235
2611,1443;0,0137545
2612,1084;0,0137922
2613,0728;0,0138305
2614,0369;0,0138666
2615,0012;0,0139006
2615,9653;0,0139342
2616,9297;0,0139688
2617,8938;0,0140046
2618,8582;0,0140406
2619,8223;0,0140752
2620,7866;0,0141067
2621,7507;0,0141336
2622,7151;0,0141547
2623,6792;0,0141694
2624,6436;0,0141793
2625,6077;0,0141886
2626,5720;0,0142033
2627,5361;0,0142294
2628,5005;0,0142701
2629,4646;0,0143234
2630,4290;0,0143829
2631,3931;0,0144397
2632,3574;0,0144859
2633,3215;0,0145176
2634,2859;0,0145359
2635,2500;0,0145461
2636,2144;0,014555
2637,1785;0,0145681
2638,1428;0,0145881
2639,1069;0,0146145
2640,0713;0,0146453
2641,0354;0,0146784
2641,9998;0,0147129
2642,9639;0,0147488
2643,9282;0,014786
2644,8923;0,0148232
2645,8567;0,0148577
2646,8208;0,014887
2647,7852;0,0149102
2648,7493;0,0149297
2649,7136;0,0149495
2650,6777;0,014974
2651,6421;0,0150048
2652,6062;0,0150403
2653,5706;0,0150768
2654,5347;0,0151111
2655,4990;0,0151419
2656,4631;0,0151709
2657,4275;0,0152004
2658,3916;0,0152318
2659,3560;0,015264
2660,3201;0,0152942
2661,2844;0,0153193
2662,2485;0,0153381
2663,2129;0,0153517
2664,1770;0,0153632
2665,1414;0,0153761
2666,1055;0,015393
2667,0698;0,0154148
2668,0339;0,015441
2668,9983;0,0154709
2669,9624;0,0155034
2670,9268;0,0155377
2671,8909;0,0155727
2672,8552;0,0156069
2673,8193;0,0156384
2674,7837;0,0156653
2675,7478;0,0156867
2676,7122;0,0157037
2677,6763;0,0157188
2678,6406;0,0157366
2679,6047;0,0157619
2680,5691;0,0157981
2681,5332;0,0158462
2682,4976;0,0159037
2683,4617;0,0159653
2684,4260;0,0160247
2685,3901;0,016077
2686,3545;0,01612
2687,3186;0,0161544
2688,2830;0,0161833
2689,2471;0,0162103
2690,2114;0,0162385
2691,1755;0,0162696
2692,1399;0,0163035
2693,1040;0,0163386
2694,0684;0,0163732
2695,0325;0,0164056
2695,9968;0,0164358
2696,9609;0,0164652
2697,9253;0,0164961
2698,8894;0,0165311
2699,8538;0,0165723
2700,8179;0,0166213
2701,7822;0,0166791
2702,7463;0,0167451
2703,7107;0,0168165
2704,6748;0,0168873
2705,6392;0,0169505
2706,6033;0,0170001
2707,5676;0,0170349
2708,5317;0,0170592
2709,4961;0,0170808
2710,4602;0,017107
2711,4246;0,0171414
2712,3887;0,0171828
2713,3530;0,0172271
2714,3171;0,0172707
2715,2815;0,0173123
2716,2456;0,0173538
2717,2100;0,0173982
2718,1741;0,0174471
2719,1384;0,0174999
2720,1025;0,0175529
2721,0669;0,0176004
2722,0310;0,0176373
2722,9954;0,0176616
2723,9595;0,0176766
2724,9238;0,0176904
2725,8879;0,0177137
2726,8523;0,0177547
2727,8164;0,017815
2728,7808;0,0178882
2729,7449;0,0179622
2730,7092;0,0180246
2731,6733;0,0180682
2732,6377;0,0180928
2733,6018;0,0181048
2734,5662;0,0181127
2735,5303;0,0181237
2736,4946;0,0181409
2737,4587;0,0181635
2738,4231;0,0181893
2739,3872;0,0182163
2740,3516;0,0182446
2741,3157;0,0182764
2742,2800;0,0183141
2743,2441;0,0183585
2744,2085;0,0184072
2745,1726;0,0184551
2746,1370;0,0184958
2747,1011;0,0185247
2748,0654;0,0185414
2749,0295;0,0185503
2749,9939;0,0185594
2750,9580;0,0185769
2751,9224;0,0186078
2752,8865;0,0186523
2753,8508;0,0187056
2754,8149;0,0187609
2755,7793;0,0188124
2756,7434;0,0188577
2757,7078;0,0188979
2758,6719;0,0189369
2759,6362;0,0189785
2760,6003;0,0190252
2761,5647;0,0190768
2762,5288;0,0191311
2763,4932;0,0191852
2764,4573;0,0192367
2765,4216;0,0192852
2766,3857;0,0193327
2767,3501;0,0193826
2768,3142;0,0194382
2769,2786;0,0195001
2770,2427;0,0195651
2771,2070;0,0196272
2772,1711;0,0196806
2773,1355;0,019723
2774,0996;0,019758
2775,0640;0,0197939
2776,0281;0,0198397
2776,9924;0,019901
2777,9565;0,0199771
2778,9209;0,0200621
2779,8850;0,0201486
2780,8494;0,0202315
2781,8135;0,0203101
2782,7778;0,0203865
2783,7419;0,0204633
2784,7063;0,0205404
2785,6704;0,0206151
2786,6348;0,020684
2787,5989;0,0207464
2788,5632;0,0208057
2789,5273;0,0208689
2790,4917;0,0209439
2791,4558;0,021035
2792,4202;0,0211411
2793,3843;0,0212553
2794,3486;0,0213692
2795,3127;0,0214763
2796,2771;0,0215758
2797,2412;0,0216724
2798,2056;0,0217734
2799,1697;0,021884
2800,1340;0,0220056
2801,0981;0,022135
2802,0625;0,022268
2803,0266;0,0224014
2803,9910;0,0225342
2804,9551;0,022666
2805,9194;0,0227954
2806,8835;0,0229205
2807,8479;0,0230406
2808,8120;0,0231592
2809,7764;0,0232833
2810,7405;0,0234205
2811,7048;0,0235745
2812,6689;0,023742
2813,6333;0,0239146
2814,5974;0,0240842
2815,5618;0,0242476
2816,5259;0,0244085
2817,4902;0,0245754
2818,4543;0,024756
2819,4187;0,0249541
2820,3828;0,0251684
2821,3472;0,0253947
2822,3113;0,0256291
2823,2756;0,0258697
2824,2397;0,0261166
2825,2041;0,0263708
2826,1682;0,0266331
2827,1326;0,0269038
2828,0967;0,0271841
2829,0610;0,0274769
2830,0251;0,0277872
2830,9895;0,0281217
2831,9536;0,0284867
2832,9180;0,028887
2833,8821;0,0293245
2834,8464;0,0297996
2835,8105;0,0303133
2836,7749;0,0308694
2837,7390;0,0314761
2838,7034;0,0321458
2839,6675;0,0328951
2840,6318;0,0337449
2841,5959;0,0347195
2842,5603;0,0358413
2843,5244;0,0371181
2844,4888;0,0385259
2845,4529;0,0399944
2846,4172;0,0414061
2847,3813;0,0426164
2848,3457;0,0434926
2849,3098;0,0439548
2850,2742;0,0440027
2851,2383;0,0437109
2852,2026;0,0431991
2853,1667;0,0425905
2854,1311;0,0419784
2855,0952;0,0414141
2856,0596;0,0409137
2857,0237;0,0404759
2857,9880;0,0400984
2858,9521;0,0397842
2859,9165;0,0395407
2860,8806;0,0393735
2861,8450;0,0392823
2862,8091;0,0392604
2863,7734;0,0392982
2864,7375;0,0393871
2865,7019;0,0395203
2866,6660;0,0396911
2867,6304;0,0398885
2868,5945;0,0400948
2869,5588;0,0402874
2870,5229;0,0404449
2871,4873;0,0405546
2872,4514;0,0406178
2873,4158;0,0406483
2874,3799;0,0406664
2875,3442;0,0406905
2876,3083;0,0407314
2877,2727;0,0407917
2878,2368;0,0408694
2879,2012;0,0409622
2880,1653;0,0410703
2881,1296;0,0411967
2882,0938;0,0413452
2883,0581;0,0415181
2884,0222;0,0417149
2884,9866;0,0419319
2885,9507;0,0421624
2886,9150;0,0423993
2887,8792;0,042637
2888,8435;0,0428731
2889,8076;0,0431088
2890,7720;0,0433471
2891,7361;0,0435915
2892,7004;0,0438449
2893,6646;0,0441097
2894,6289;0,0443879
2895,5930;0,04468
2896,5574;0,0449837
2897,5215;0,0452915
2898,4858;0,0455927
2899,4500;0,0458769
2900,4143;0,0461401
2901,3784;0,0463883
2902,3428;0,0466376
2903,3069;0,0469105
2904,2712;0,0472298
2905,2354;0,0476157
2906,1997;0,048085
2907,1638;0,0486543
2908,1282;0,0493416
2909,0923;0,0501634
2910,0566;0,0511267
2911,0208;0,0522159
2911,9851;0,0533834
2912,9492;0,0545486
2913,9136;0,0556094
2914,8777;0,0564646
2915,8420;0,0570383
2916,8062;0,057297
2917,7705;0,0572535
2918,7346;0,0569562
2919,6990;0,0564712
2920,6631;0,0558645
2921,6274;0,0551902
2922,5916;0,0544853
2923,5559;0,0537699
2924,5200;0,0530507
2925,4844;0,052326
2926,4485;0,0515923
2927,4128;0,0508505
2928,3770;0,0501086
2929,3413;0,0493803
2930,3054;0,0486787
2931,2698;0,0480106
2932,2339;0,0473738
2933,1982;0,0467596
2934,1624;0,0461594
2935,1267;0,045569
2936,0908;0,0449901
2937,0552;0,044427
2938,0193;0,0438824
2938,9836;0,0433556
2939,9478;0,0428432
2940,9121;0,0423435
2941,8762;0,0418585
2942,8406;0,0413944
2943,8047;0,0409598
2944,7690;0,0405617
2945,7332;0,0402036
2946,6975;0,039885
2947,6616;0,0396018
2948,6260;0,0393478
2949,5901;0,0391162
2950,5544;0,0388998
2951,5186;0,0386919
2952,4829;0,0384858
2953,4470;0,0382745
2954,4114;0,0380505
2955,3755;0,0378058
2956,3398;0,0375339
2957,3040;0,0372318
2958,2683;0,0369018
2959,2324;0,0365506
2960,1968;0,0361863
2961,1609;0,0358142
2962,1252;0,0354345
2963,0894;0,0350447
2964,0537;0,0346435
2965,0178;0,034235
2965,9822;0,0338286
2966,9463;0,0334337
2967,9106;0,0330544
2968,8748;0,0326854
2969,8391;0,0323163
2970,8032;0,0319384
2971,7676;0,0315516
2972,7317;0,0311665
2973,6960;0,030799
2974,6602;0,0304618
2975,6245;0,030158
2976,5886;0,0298803
2977,5530;0,0296164
2978,5171;0,0293566
2979,4814;0,0290992
2980,4456;0,028851
2981,4099;0,0286227
2982,3740;0,0284226
2983,3384;0,0282521
2984,3025;0,0281046
2985,2668;0,0279691
2986,2310;0,0278345
2987,1953;0,0276953
2988,1594;0,0275529
2989,1238;0,0274149
2990,0879;0,0272907
2991,0522;0,0271873
2992,0164;0,0271064
2992,9807;0,0270448
2993,9448;0,0269969
2994,9092;0,0269592
2995,8733;0,0269321
2996,8376;0,0269202
2997,8018;0,0269282
2998,7661;0,0269567
2999,7302;0,0270001
3000,6946;0,0270476
3001,6587;0,0270887
3002,6230;0,0271186
3003,5872;0,027141
3004,5515;0,0271666
3005,5156;0,0272065
3006,4800;0,0272656
3007,4441;0,0273398
3008,4084;0,0274177
3009,3726;0,0274873
3010,3369;0,0275416
3011,3010;0,0275815
3012,2654;0,0276135
3013,2295;0,0276461
3014,1938;0,027686
3015,1580;0,0277373
3016,1223;0,0278029
3017,0864;0,0278852
3018,0508;0,0279854
3019,0149;0,0281016
3019,9792;0,0282273
3020,9434;0,0283533
3021,9077;0,0284711
3022,8718;0,0285781
3023,8362;0,0286786
3024,8003;0,0287826
3025,7646;0,0288996
3026,7288;0,0290333
3027,6931;0,0291786
3028,6572;0,0293235
3029,6216;0,0294538
3030,5857;0,029561
3031,5500;0,0296459
3032,5142;0,0297199
3033,4785;0,0297989
3034,4426;0,0298965
3035,4070;0,0300176
3036,3711;0,0301578
3037,3354;0,030307
3038,2996;0,0304554
3039,2639;0,0305981
3040,2280;0,0307357
3041,1924;0,0308727
3042,1565;0,0310143
3043,1208;0,031164
3044,0850;0,0313227
3045,0493;0,0314889
3046,0134;0,0316581
3046,9778;0,0318241
3047,9419;0,0319815
3048,9063;0,0321282
3049,8704;0,0322678
3050,8347;0,0324079
3051,7988;0,0325561
3052,7632;0,0327156
3053,7273;0,032884
3054,6917;0,0330559
3055,6558;0,0332276
3056,6201;0,0333996
3057,5842;0,0335759
3058,5486;0,03376
3059,5127;0,0339517
3060,4771;0,0341466
3061,4412;0,0343378
3062,4055;0,0345191
3063,3696;0,0346861
3064,3340;0,0348364
3065,2981;0,0349701
3066,2625;0,0350912
3067,2266;0,0352076
3068,1909;0,0353305
3069,1550;0,0354699
3070,1194;0,0356303
3071,0835;0,0358088
3072,0479;0,035997
3073,0120;0,0361849
3073,9763;0,0363663
3074,9404;0,036539
3075,9048;0,0367044
3076,8689;0,0368633
3077,8333;0,037015
3078,7974;0,0371574
3079,7617;0,0372897
3080,7258;0,037414
3081,6902;0,0375359
3082,6543;0,0376619
3083,6187;0,0377971
3084,5828;0,0379431
3085,5471;0,0380981
3086,5112;0,0382585
3087,4756;0,0384212
3088,4397;0,0385852
3089,4041;0,0387515
3090,3682;0,0389219
3091,3325;0,0390967
3092,2966;0,0392738
3093,2610;0,0394495
3094,2251;0,0396202
3095,1895;0,0397833
3096,1536;0,0399389
3097,1179;0,0400885
3098,0820;0,0402355
3099,0464;0,0403842
3100,0105;0,0405391
3100,9749;0,0407038
3101,9390;0,040878
3102,9033;0,0410574
3103,8674;0,0412351
3104,8318;0,0414051
3105,7959;0,0415665
3106,7603;0,0417243
3107,7244;0,0418873
3108,6887;0,0420631
3109,6528;0,042254
3110,6172;0,0424557
3111,5813;0,0426613
3112,5457;0,0428645
3113,5098;0,0430633
3114,4741;0,0432595
3115,4382;0,0434556
3116,4026;0,0436524
3117,3667;0,043848
3118,3311;0,0440395
3119,2952;0,0442257
3120,2595;0,0444082
3121,2236;0,0445909
3122,1880;0,0447778
3123,1521;0,0449704
3124,1165;0,0451678
3125,0806;0,0453671
3126,0449;0,0455661
3127,0090;0,0457646
3127,9734;0,045965
3128,9375;0,0461708
3129,9019;0,0463853
3130,8660;0,04661
3131,8303;0,0468429
3132,7944;0,0470789
3133,7588;0,0473101
3134,7229;0,0475283
3135,6873;0,047729
3136,6514;0,0479134
3137,6157;0,0480892
3138,5798;0,0482681
3139,5442;0,0484614
3140,5083;0,0486759
3141,4727;0,0489124
3142,4368;0,0491667
3143,4011;0,0494329
3144,3652;0,0497048
3145,3296;0,0499761
3146,2937;0,0502397
3147,2581;0,0504881
3148,2222;0,0507165
3149,1865;0,0509255
3150,1506;0,0511228
3151,1150;0,0513196
3152,0791;0,0515261
3153,0435;0,0517464
3154,0076;0,0519779
3154,9719;0,0522145
3155,9360;0,0524521
3156,9004;0,0526911
3157,8645;0,0529355
3158,8289;0,0531888
3159,7930;0,0534505
3160,7573;0,0537145
3161,7214;0,0539728
3162,6858;0,0542192
3163,6499;0,0544534
3164,6143;0,0546809
3165,5784;0,0549099
3166,5427;0,0551469
3167,5068;0,0553933
3168,4712;0,0556458
3169,4353;0,055844
3170,3997;0,0560963
3171,3638;0,0563483
3172,3281;0,056603
3173,2922;0,0568622
3174,2566;0,0571237
3175,2207;0,0573816
3176,1851;0,0576293
3177,1492;0,0578638
3178,1135;0,0580879
3179,0776;0,0583087
3180,0420;0,0585341
3181,0061;0,0587681
3181,9705;0,0590096
3182,9346;0,0592526
3183,8989;0,0594892
3184,8630;0,059713
3185,8274;0,0599215
3186,7915;0,0601183
3187,7559;0,0603125
3188,7200;0,0605161
3189,6843;0,0607392
3190,6484;0,0609854
3191,6128;0,0612489
3192,5769;0,0615171
3193,5413;0,0617756
3194,5054;0,0620151
3195,4697;0,0622342
3196,4338;0,0624387
3197,3982;0,062637
3198,3623;0,0628356
3199,3267;0,0630379
3200,2908;0,0632453
3201,2551;0,0634598
3202,2192;0,063684
3203,1836;0,0639191
3204,1477;0,0641628
3205,1121;0,064408
3206,0762;0,0646456
3207,0405;0,0648688
3208,0046;0,0650762
3208,9690;0,0652728
3209,9331;0,0654669
3210,8975;0,0656669
3211,8616;0,0658771
3212,8259;0,0660977
3213,7900;0,0663247
3214,7544;0,0665523
3215,7185;0,0667741
3216,6829;0,0669854
3217,6470;0,0671846
3218,6113;0,0673745
3219,5754;0,0675618
3220,5398;0,0677555
3221,5039;0,0679622
3222,4683;0,0681843
3223,4324;0,0684184
3224,3967;0,0686581
3225,3608;0,068897
3226,3252;0,069131
3227,2893;0,0693582
3228,2537;0,0695771
3229,2178;0,0697856
3230,1821;0,0699814
3231,1462;0,0701653
3232,1106;0,0703417
3233,0747;0,0705186
3234,0391;0,0707037
3235,0032;0,0709015
3235,9675;0,0711126
3236,9316;0,0713365
3237,8960;0,0715743
3238,8601;0,0718282
3239,8245;0,0720983
3240,7886;0,072377
3241,7529;0,0726479
3242,7170;0,0728915
3243,6814;0,0730955
3244,6455;0,0732639
3245,6099;0,0734185
3246,5740;0,0735894
3247,5383;0,0738009
3248,5024;0,0740595
3249,4668;0,0743532
3250,4309;0,0746595
3251,3953;0,0749578
3252,3594;0,0752377
3253,3237;0,0755013
3254,2878;0,0757577
3255,2522;0,0760164
3256,2163;0,0762809
3257,1807;0,0765487
3258,1448;0,0768139
3259,1091;0,0770713
3260,0732;0,0773198
3261,0376;0,0775629
3262,0017;0,0778064
3262,9661;0,0780553
3263,9302;0,0783103
3264,8945;0,0785661
3265,8586;0,0788142
3266,8230;0,0790473
3267,7871;0,0792636
3268,7515;0,0794675
3269,7156;0,0796658
3270,6799;0,0798614
3271,6440;0,0800488
3272,6084;0,0802159
3273,5725;0,0803506
3274,5369;0,0804485
3275,5010;0,080517
3276,4653;0,0805725
3277,4294;0,0806327
3278,3938;0,080709
3279,3579;0,0808019
3280,3223;0,0809033
3281,2864;0,0810006
3282,2507;0,0810832
3283,2148;0,0811465
3284,1792;0,0811926
3285,1433;0,0812279
3286,1077;0,0812586
3287,0718;0,0812864
3288,0361;0,0813079
3289,0002;0,0813176
3289,9646;0,0813127
3290,9287;0,0812961
3291,8931;0,0812761
3292,8572;0,0812616
3293,8215;0,0812565
3294,7856;0,0812575
3295,7500;0,081257
3296,7141;0,0812481
3297,6785;0,0812293
3298,6426;0,081205
3299,6069;0,0811815
3300,5710;0,0811623
3301,5354;0,0811459
3302,4995;0,0811269
3303,4639;0,0810995
3304,4280;0,0810611
3305,3923;0,0810134
3306,3564;0,0809612
3307,3208;0,0809102
3308,2849;0,0808652
3309,2493;0,080829
3310,2134;0,0808024
3311,1777;0,0807846
3312,1418;0,080774
3313,1062;0,0807688
3314,0703;0,0807692
3315,0347;0,0807783
3315,9988;0,0808023
3316,9631;0,0808491
3317,9272;0,0809242
3318,8916;0,0810278
3319,8557;0,0811526
3320,8201;0,0812861
3321,7842;0,0814144
3322,7485;0,0815275
3323,7126;0,081622
3324,6770;0,0817008
3325,6411;0,08177
3326,6055;0,0818364
3327,5696;0,0819059
3328,5339;0,0819831
3329,4980;0,0820698
3330,4624;0,0821627
3331,4265;0,0822517
3332,3909;0,0823206
3333,3550;0,0823529
3334,3193;0,0823387
3335,2834;0,0822796
3336,2478;0,0821876
3337,2119;0,0820776
3338,1763;0,0819596
3339,1404;0,081835
3340,1047;0,0817001
3341,0688;0,0815528
3342,0332;0,0813968
3342,9973;0,0812394
3343,9617;0,0810853
3344,9258;0,0809312
3345,8901;0,0807662
3346,8542;0,0805782
3347,8186;0,0803613
3348,7827;0,0801204
3349,7471;0,0798677
3350,7112;0,0796163
3351,6755;0,079373
3352,6396;0,0791369
3353,6040;0,0789029
3354,5681;0,0786674
3355,5325;0,0784315
3356,4966;0,0782008
3357,4609;0,0779817
3358,4250;0,077777
3359,3894;0,0775851
3360,3535;0,0774009
3361,3179;0,0772187
3362,2820;0,0770344
3363,2463;0,0768453
3364,2104;0,0766494
3365,1748;0,0764442
3366,1389;0,0762276
3367,1033;0,0759989
3368,0674;0,0757603
3369,0317;0,0755176
3369,9958;0,0752779
3370,9602;0,0750476
3371,9243;0,0748288
3372,8887;0,0746185
3373,8528;0,0744094
3374,8171;0,0741944
3375,7813;0,0739705
3376,7456;0,0737414
3377,7097;0,0735157
3378,6741;0,0733015
3379,6382;0,0731004
3380,6025;0,0729052
3381,5667;0,0727037
3382,5310;0,0724872
3383,4951;0,0722578
3384,4595;0,0720301
3385,4236;0,0718242
3386,3879;0,0716542
3387,3521;0,0715192
3388,3164;0,0714029
3389,2805;0,0712811
3390,2449;0,0711329
3391,2090;0,0709497
3392,1733;0,0707378
3393,1375;0,0705136
3394,1018;0,070295
3395,0659;0,0700934
3396,0303;0,0699099
3396,9944;0,0697367
3397,9587;0,0695609
3398,9229;0,069369
3399,8872;0,0691524
3400,8513;0,0689102
3401,8157;0,0686508
3402,7798;0,0683886
3403,7441;0,0681384
3404,7083;0,0679097
3405,6726;0,0677026
3406,6367;0,0675088
3407,6011;0,0673153
3408,5652;0,0671096
3409,5295;0,066883
3410,4937;0,0666328
3411,4580;0,0663621
3412,4221;0,0660799
3413,3865;0,065798
3414,3506;0,0655273
3415,3149;0,0652721
3416,2791;0,0650274
3417,2434;0,0647805
3418,2075;0,0645173
3419,1719;0,0642306
3420,1360;0,0639251
3421,1003;0,0636152
3422,0645;0,0633163
3423,0288;0,0630352
3423,9929;0,062767
3424,9573;0,0624992
3425,9214;0,0622197
3426,8857;0,0619243
3427,8499;0,061618
3428,8142;0,0613121
3429,7783;0,061017
3430,7427;0,0607366
3431,7068;0,0604659
3432,6711;0,0601945
3433,6353;0,059913
3434,5996;0,0596182
3435,5637;0,059315
3436,5281;0,059013
3437,4922;0,0587218
3438,4565;0,0584472
3439,4207;0,05819
3440,3850;0,0579463
3441,3491;0,0577081
3442,3135;0,0574635
3443,2776;0,057198
3444,2419;0,0568979
3445,2061;0,0565579
3446,1704;0,0561862
3447,1345;0,0558044
3448,0989;0,0554379
3449,0630;0,0551031
3450,0273;0,0547997
3450,9915;0,0545146
3451,9558;0,0542322
3452,9199;0,0539432
3453,8843;0,0536474
3454,8484;0,053351
3455,8127;0,0530598
3456,7769;0,052776
3457,7412;0,0524967
3458,7053;0,0522161
3459,6697;0,0519278
3460,6338;0,051627
3461,5981;0,0513113
3462,5623;0,0509817
3463,5266;0,0506417
3464,4907;0,050296
3465,4551;0,0499502
3466,4192;0,0496101
3467,3835;0,049283
3468,3477;0,0489758
3469,3120;0,0486912
3470,2761;0,0484243
3471,2405;0,0481625
3472,2046;0,0478918
3473,1689;0,0476056
3474,1331;0,0473104
3475,0974;0,0470224
3476,0615;0,0467553
3477,0259;0,0465087
3477,9900;0,046267
3478,9543;0,0460088
3479,9185;0,0457222
3480,8828;0,0454134
3481,8469;0,045103
3482,8113;0,0448098
3483,7754;0,0445362
3484,7397;0,0442662
3485,7039;0,043978
3486,6682;0,0436595
3487,6323;0,0433178
3488,5967;0,0429757
3489,5608;0,042658
3490,5251;0,0423775
3491,4893;0,0421293
3492,4536;0,041896
3493,4177;0,0416589
3494,3821;0,0414094
3495,3462;0,0411543
3496,3105;0,0409112
3497,2747;0,0406958
3498,2390;0,0405067
3499,2031;0,0403216
3500,1675;0,0401056
3501,1316;0,0398297
3502,0959;0,0394919
3503,0601;0,0391241
3504,0244;0,0387744
3504,9885;0,038474
3505,9529;0,0382169
3506,9170;0,0379686
3507,8813;0,0376909
3508,8455;0,0373678
3509,8098;0,0370149
3510,7739;0,036668
3511,7383;0,0363577
3512,7024;0,0360909
3513,6667;0,0358534
3514,6309;0,0356258
3515,5952;0,0353997
3516,5593;0,0351818
3517,5237;0,0349852
3518,4878;0,0348168
3519,4521;0,0346689
3520,4163;0,0345205
3521,3806;0,0343468
3522,3447;0,0341295
3523,3091;0,033864
3524,2732;0,0335574
3525,2375;0,0332224
3526,2017;0,0328702
3527,1660;0,0325101
3528,1301;0,0321518
3529,0945;0,0318081
3530,0586;0,0314907
3531,0229;0,0312038
3531,9871;0,030941
3532,9514;0,0306886
3533,9155;0,0304324
3534,8799;0,0301654
3535,8440;0,0298927
3536,8083;0,0296323
3537,7725;0,0294092
3538,7368;0,0292427
3539,7009;0,0291359
3540,6653;0,0290701
3541,6294;0,0290067
3542,5938;0,0288945
3543,5579;0,028686
3544,5222;0,0283625
3545,4863;0,0279544
3546,4507;0,0275306
3547,4148;0,027154
3548,3792;0,0268439
3549,3433;0,0265742
3550,3076;0,0263016
3551,2717;0,0259971
3552,2361;0,0256661
3553,2002;0,025344
3554,1646;0,0250691
3555,1287;0,0248545
3556,0930;0,0246833
3557,0571;0,0245282
3558,0215;0,0243772
3558,9856;0,0242456
3559,9500;0,0241663
3560,9141;0,0241614
3561,8784;0,0242148
3562,8425;0,0242628
3563,8069;0,0242038
3564,7710;0,0239236
3565,7354;0,0233557
3566,6995;0,0225705
3567,6638;0,0217837
3568,6279;0,0212037
3569,5923;0,0208837
3570,5564;0,0207393
3571,5208;0,020651
3572,4849;0,0205345
3573,4492;0,0203593
3574,4133;0,0201377
3575,3777;0,0199011
3576,3418;0,0196766
3577,3062;0,0194787
3578,2703;0,019316
3579,2346;0,0192016
3580,1987;0,0191504
3581,1631;0,019163
3582,1272;0,0192104
3583,0916;0,0192336
3584,0557;0,0191584
3585,0200;0,0189203
3585,9841;0,0185075
3586,9485;0,0180094
3587,9126;0,0176013
3588,8770;0,0174186
3589,8411;0,0174532
3590,8054;0,017585
3591,7695;0,0176757
3592,7339;0,0176344
3593,6980;0,0174451
3594,6624;0,0171644
3595,6265;0,0168796
3596,5908;0,0166456
3597,5549;0,0164521
3598,5193;0,0162502
3599,4834;0,0160064
3600,4478;0,0157363
3601,4119;0,0154917
3602,3762;0,0153106
3603,3403;0,0151814
3604,3047;0,015048
3605,2688;0,014842
3606,2332;0,0145178
3607,1973;0,0140807
3608,1616;0,013594
3609,1257;0,0131491
3610,0901;0,0128164
3611,0542;0,0126203
3612,0186;0,0125488
3612,9827;0,0125685
3613,9470;0,0126306
3614,9111;0,0126719
3615,8755;0,0126242
3616,8396;0,012438
3617,8040;0,0121165
3618,7681;0,0117465
3619,7324;0,0114798
3620,6965;0,0114411
3621,6609;0,0116365
3622,6250;0,0119592
3623,5894;0,0122615
3624,5535;0,0124134
3625,5178;0,012319
3626,4819;0,0119173
3627,4463;0,0112105
3628,4104;0,0103421
3629,3748;0,00958467
3630,3389;0,00912143
3631,3032;0,00889971
3632,2673;0,00874734
3633,2317;0,00853394
3634,1958;0,00822907
3635,1602;0,00787982
3636,1243;0,00755464
3637,0886;0,00729291
3638,0527;0,00709209
3639,0171;0,00693372
3639,9812;0,00681682
3640,9456;0,00676619
3641,9097;0,00680971
3642,8740;0,0069474
3643,8381;0,00713895
3644,8025;0,00731085
3645,7666;0,00736039
3646,7310;0,00714406
3647,6951;0,0065136
3648,6594;0,0055199
3649,6235;0,00456566
3650,5879;0,00404301
3651,5520;0,00395081
3652,5164;0,00403741
3653,4805;0,00406436
3654,4448;0,00391287
3655,4089;0,00359609
3656,3733;0,00323023
3657,3374;0,00295409
3658,3018;0,00282978
3659,2659;0,00281762
3660,2302;0,00284081
3661,1943;0,00285918
3662,1587;0,00288972
3663,1228;0,00297291
3664,0872;0,00312191
3665,0513;0,00330346
3666,0156;0,00345928
3666,9797;0,00354291
3667,9441;0,00354292
3668,9082;0,00348881
3669,8726;0,003437
3670,8367;0,00342124
3671,8010;0,00340563
3672,7651;0,00330457
3673,7295;0,00304766
3674,6936;0,00264152
3675,6580;0,00220513
3676,6221;0,00191103
3677,5864;0,00183682
3678,5505;0,00191914
3679,5149;0,00205577
3680,4790;0,00219738
3681,4434;0,00235405
3682,4075;0,00254986
3683,3718;0,00277816
3684,3359;0,00299297
3685,3003;0,00313607
3686,2644;0,00317195
3687,2288;0,00310646
3688,1929;0,0029872
3689,1572;0,00289508
3690,1213;0,00291163
3691,0857;0,00305873
3692,0498;0,00328495
3693,0142;0,0035192
3693,9783;0,0037186
3694,9426;0,00387375
3695,9067;0,00398953
3696,8711;0,00406594
3697,8352;0,00409274
3698,7996;0,00405847
3699,7637;0,0039666
3700,7280;0,00384905
3701,6921;0,00376487
3702,6565;0,00377383
3703,6206;0,00389808
3704,5850;0,00410692
3705,5491;0,00433492
3706,5134;0,00450648
3707,4775;0,0045418
3708,4419;0,00434796
3709,4060;0,00383495
3710,3704;0,00301085
3711,3345;0,00209033
3712,2988;0,00139773
3713,2629;0,00111369
3714,2273;0,00119791
3715,1914;0,00150875
3716,1558;0,00191899
3717,1199;0,00235526
3718,0842;0,00278925
3719,0483;0,00321273
3720,0127;0,00361492
3720,9768;0,00397214
3721,9412;0,00425255
3722,9053;0,00443147
3723,8696;0,00450898
3724,8337;0,00451875
3725,7981;0,00451569
3726,7622;0,00454444
3727,7266;0,00461482
3728,6907;0,00470499
3729,6550;0,00478163
3730,6191;0,00481235
3731,5835;0,0047584
3732,5476;0,00455858
3733,5120;0,00414528
3734,4761;0,00353353
3735,4404;0,00290329
3736,4045;0,00249735
3737,3689;0,00240953
3738,3330;0,00253343
3739,2974;0,00267379
3740,2615;0,00265919
3741,2258;0,00239942
3742,1899;0,00191624
3743,1543;0,00136346
3744,1184;0,000986997
3745,0828;0,000963035
3746,0469;0,00123993
3747,0112;0,00158643
3747,9753;0,0017561
3748,9397;0,00159241
3749,9038;0,00109529
3750,8682;0,000484683
3751,8323;9,59044E-05
3752,7966;8,52484E-05
3753,7607;0,000335783
3754,7251;0,000631339
3755,6892;0,000810493
3756,6536;0,000809483
3757,6177;0,000656916
3758,5820;0,000452403
3759,5461;0,000314233
3760,5105;0,000307468
3761,4746;0,000414332
3762,4390;0,000567336
3763,4031;0,000698234
3764,3674;0,000764525
3765,3315;0,000752205
3766,2959;0,000666481
3767,2600;0,000521119
3768,2244;0,000335372
3769,1885;0,000141192
3770,1528;-1,12753E-05
3771,1169;-6,94932E-05
3772,0813;-1,11703E-05
3773,0454;0,000137097
3774,0098;0,00031343
3774,9739;0,000451013
3775,9382;0,000503871
3776,9023;0,000461409
3777,8667;0,000353868
3778,8308;0,000243913
3779,7952;0,000193687
3780,7593;0,000224029
3781,7236;0,000304109
3782,6877;0,000377417
3783,6521;0,000395854
3784,6162;0,000341372
3785,5806;0,000231382
3786,5447;0,000107867
3787,5090;1,60997E-05
3788,4731;-1,54509E-05
3789,4375;1,67181E-05
3790,4016;9,71722E-05
3791,3660;0,000206519
3792,3301;0,000336548
3793,2944;0,000495801
3794,2585;0,000699395
3795,2229;0,000946727
3796,1870;0,00120317
3797,1514;0,00140276
3798,1155;0,0014733
3799,0798;0,00137151
3800,0439;0,00111665
3801,0083;0,000801697
3801,9724;0,000543228
3802,9368;0,000386284
3803,9009;0,000271267
3804,8652;0,000104271
3805,8293;-0,000144238
3806,7937;-0,000390897
3807,7578;-0,000486191
3808,7222;-0,000339872
3809,6863;-2,29685E-06
3810,6506;0,000382759
3811,6147;0,000681362
3812,5791;0,000835736
3813,5432;0,00087711
3814,5076;0,000896793
3815,4717;0,000981576
3816,4360;0,00114158
3817,4001;0,00129039
3818,3645;0,00130079
3819,3286;0,00109368
3820,2930;0,000712773
3821,2571;0,000326366
3822,2214;0,000109253
3823,1855;0,000106948
3824,1499;0,000235272
3825,1140;0,000379058
3826,0784;0,000469835
3827,0425;0,000504386
3828,0068;0,000523182
3828,9709;0,000573909
3829,9353;0,000681813
3830,8994;0,000839981
3831,8638;0,00101748
3832,8279;0,00117444
3833,7922;0,00127512
3834,7563;0,00129563
3835,7207;0,00122639
3836,6848;0,00107312
3837,6492;0,00085953
3838,6133;0,000626742
3839,5776;0,000415082
3840,5417;0,000240619
3841,5061;9,85593E-05
3842,4702;-6,87705E-06
3843,4346;-4,14504E-05
3844,3987;4,62737E-05
3845,3630;0,000285913
3846,3271;0,00065259
3847,2915;0,00106644
3848,2556;0,0014184
3849,2200;0,00159697
3850,1841;0,00149948
3851,1484;0,00103972
3852,1125;0,000218047
3853,0769;-0,000704295
3854,0410;-0,0012436
3855,0054;-0,00116698
3855,9695;-0,000672018
3856,9338;-7,77676E-05
3857,8979;0,000405014
3858,8623;0,000699082
3859,8264;0,000817002
3860,7908;0,000817003
3861,7549;0,000768641
3862,7192;0,000728318
3863,6833;0,000725785
3864,6477;0,000759732
3865,6118;0,000803008
3866,5762;0,000819147
3867,5403;0,000781314
3868,5046;0,000681606
3869,4688;0,000530283
3870,4331;0,000352586
3871,3972;0,000185351
3872,3616;6,72712E-05
3873,3257;2,33487E-05
3874,2900;5,45205E-05
3875,2542;0,000139753
3876,2185;0,000248297
3877,1826;0,000353607
3878,1470;0,000441842
3879,1111;0,000510461
3880,0754;0,000558683
3881,0396;0,000576565
3882,0039;0,000542494
3882,9680;0,000437679
3883,9324;0,000272917
3884,8965;0,000102883
3885,8608;1,05824E-06
3886,8250;5,15094E-06
3887,7893;8,56723E-05
3888,7534;0,000169783
3889,7178;0,000195051
3890,6819;0,000154361
3891,6462;0,000107366
3892,6104;0,000139042
3893,5747;0,000286365
3894,5388;0,000509005
3895,5032;0,000730233
3896,4673;0,000891484
3897,4316;0,000974085
3898,3958;0,000987815
3899,3601;0,000945825
3900,3242;0,000845272
3901,2886;0,000668786
3902,2527;0,00040918
3903,2170;0,00010045
3904,1812;-0,000180459
3905,1455;-0,000357775
3906,1096;-0,000406604
3907,0740;-0,000357566
3908,0381;-0,000262346
3909,0024;-0,000159358
3909,9666;-6,11427E-05
3910,9309;3,81461E-05
3911,8950;0,0001461
3912,8594;0,000258146
3913,8235;0,000354428
3914,7878;0,000408419
3915,7520;0,000403268
3916,7163;0,000348663
3917,6804;0,000284208
3918,6448;0,000256503
3919,6089;0,000284189
3920,5732;0,000344187
3921,5374;0,00039089
3922,5017;0,000388847
3923,4658;0,000337626
3924,4302;0,000274733
3925,3943;0,000250611
3926,3586;0,000291254
3927,3228;0,000379692
3928,2871;0,000468226
3929,2512;0,000505691
3930,2156;0,000462569
3931,1797;0,00034657
3932,1440;0,000200703
3933,1082;7,89505E-05
3934,0725;1,57016E-05
3935,0366;1,44085E-05
3936,0010;5,80264E-05
3936,9651;0,000124165
3937,9294;0,000193003
3938,8936;0,000248802
3939,8579;0,00028075
3940,8220;0,000286441
3941,7864;0,000275572
3942,7505;0,000267201
3943,7148;0,000277963
3944,6790;0,000308611
3945,6433;0,000341828
3946,6074;0,000352746
3947,5718;0,000323946
3948,5359;0,00025607
3949,5002;0,000168129
3950,4644;8,62344E-05
3951,4287;2,85144E-05
3952,3928;-1,41366E-06
3953,3572;-9,32387E-06
3954,3213;-1,92425E-06
3955,2856;1,67198E-05
3956,2498;4,29806E-05
3957,2141;7,02511E-05
3958,1782;8,88158E-05
3959,1426;8,98254E-05
3960,1067;7,03769E-05
3961,0710;3,58097E-05
3962,0352;-2,78438E-06
3962,9995;-3,43618E-05
3963,9636;-5,3098E-05
3964,9280;-5,9112E-05
3965,8921;-5,58511E-05
3966,8564;-4,64503E-05
3967,8206;-3,2402E-05
3968,7849;-1,48532E-05
3969,7490;3,29756E-06
3970,7134;1,68747E-05
3971,6775;2,03844E-05
3972,6418;1,12615E-05
3973,6060;-8,06837E-06
3974,5703;-3,10442E-05
3975,5344;-5,04533E-05
3976,4988;-6,21479E-05
3977,4629;-6,65082E-05
3978,4272;-6,70163E-05
3979,3914;-6,76266E-05
3980,3557;-7,09969E-05
3981,3198;-7,83007E-05
3982,2842;-8,9616E-05
3983,2483;-0,000103732
3984,2126;-0,000117384
3985,1768;-0,000125192
3986,1411;-0,00012136
3987,1052;-0,000102708
3988,0696;-7,12076E-05
3989,0337;-3,36441E-05
3989,9980;1,08403E-06
3990,9622;2,58393E-05
3991,9265;3,71795E-05
3992,8906;3,45224E-05
3993,8550;1,82052E-05
3994,8191;-1,11378E-05
3995,7834;-5,11863E-05
3996,7476;-9,62224E-05
3997,7119;-0,000137413
3998,6760;-0,000165688
3999,6404;-0,000175448
4000,6045;-2,03718E-05

##### Extended Information
[Comments]
Sample name
Comment
Username
Division
Organization;UNIVERSIDAD INDUSTRIAL DE SANTANDER

[Detailed Information]
Creation date;19/03/2025 2:29 p.m.

Data array type;Linear data array
Horizontal axis;Wavenumber [cm-1]
Vertical axis;Abs
Start;399,193 cm-1
End;4000,6 cm-1
Data interval;0,964233 cm-1
Data points;3736    

[Measurement Information]
Model name;FT/IR-4X1typeA
Serial No.;A035162111

Accessory;ATR PRO 4X
Accessory S/N;A021162126
Incident angle;45 deg

Measurement date;19/03/2025 2:27 p.m.

Light source;Standard
Detector;TGS
Accumulation;40
Resolution;4 cm-1
Zero filling;On
Apodization;Cosine
Gain;Auto (8)
Aperture;Auto (7 mm)
Scan speed;Auto (2 mm/sec)
Filter;Auto (12800 Hz)

