TITLE;
DATA TYPE;INFRARED SPECTRUM
ORIGIN;JASCO
OWNER;
DATE;25/01/29
TIME;14:11:49
SPECTROMETER/DATA SYSTEM;
LOCALE;9226
RESOLUTION;
DELTAX;0,964233
XUNITS;1/CM
YUNITS;ABSORBANCE
FIRSTX;  399,1927
LASTX; 4000,6047
NPOINTS;    3736
FIRSTY;     0,10328
MAXY;     0,12305
MINY;     0,00672
XYDATA
399,1927;0,103283
400,1569;0,103631
401,1211;0,103548
402,0854;0,103072
403,0496;0,10234
404,0138;0,101548
404,9781;0,100931
405,9423;0,100697
406,9065;0,100927
407,8708;0,10151
408,8350;0,102173
409,7992;0,102597
410,7635;0,102565
411,7277;0,102068
412,6919;0,101289
413,6562;0,100467
414,6204;0,0997606
415,5846;0,0992146
416,5489;0,0988175
417,5131;0,0985869
418,4773;0,0986063
419,4416;0,0989305
420,4058;0,0994575
421,3700;0,0999948
422,3343;0,100419
423,2985;0,100722
424,2627;0,100984
425,2270;0,101315
426,1912;0,101795
427,1554;0,102424
428,1197;0,103116
429,0839;0,103751
430,0481;0,104233
431,0124;0,104529
431,9766;0,104669
432,9408;0,104717
433,9051;0,104729
434,8693;0,104734
435,8335;0,10474
436,7978;0,104754
437,7620;0,104789
438,7262;0,104851
439,6905;0,104929
440,6547;0,104997
441,6189;0,10503
442,5832;0,105025
443,5474;0,105002
444,5116;0,104985
445,4759;0,10499
446,4401;0,105031
447,4043;0,105128
448,3686;0,105306
449,3328;0,10557
450,2970;0,105874
451,2613;0,106124
452,2255;0,106224
453,1897;0,106135
454,1540;0,105906
455,1182;0,105644
456,0824;0,105467
457,0467;0,105449
458,0109;0,105584
458,9751;0,10581
459,9394;0,106059
460,9036;0,10629
461,8678;0,106484
462,8321;0,106623
463,7963;0,106698
464,7605;0,106719
465,7248;0,106728
466,6890;0,106768
467,6532;0,106849
468,6175;0,10693
469,5817;0,10694
470,5459;0,106831
471,5102;0,106618
472,4744;0,106379
473,4386;0,106204
474,4029;0,106131
475,3671;0,106139
476,3313;0,106181
477,2956;0,106225
478,2598;0,106264
479,2240;0,106302
480,1883;0,106341
481,1525;0,106376
482,1167;0,106403
483,0810;0,106422
484,0452;0,106442
485,0094;0,106474
485,9737;0,106527
486,9379;0,1066
487,9021;0,10668
488,8664;0,106736
489,8306;0,10672
490,7948;0,106588
491,7591;0,10633
492,7233;0,105994
493,6875;0,105675
494,6518;0,105465
495,6160;0,105401
496,5802;0,105444
497,5445;0,105501
498,5087;0,10548
499,4729;0,105338
500,4372;0,105104
501,4014;0,104869
502,3656;0,104734
503,3299;0,104744
504,2941;0,104865
505,2583;0,105013
506,2226;0,105113
507,1868;0,105139
508,1510;0,10512
509,1153;0,105113
510,0795;0,105154
511,0437;0,105234
512,0080;0,105309
512,9722;0,105336
513,9365;0,105311
514,9007;0,105277
515,8649;0,105312
516,8292;0,105478
517,7934;0,105777
518,7576;0,106132
519,7219;0,106427
520,6861;0,106572
521,6503;0,106533
522,6146;0,106333
523,5788;0,106031
524,5430;0,105709
525,5073;0,105448
526,4715;0,105309
527,4357;0,105299
528,4000;0,105374
529,3642;0,105465
530,3284;0,1055
531,2927;0,105429
532,2569;0,105225
533,2211;0,104886
534,1854;0,104436
535,1496;0,103927
536,1138;0,103434
537,0781;0,103042
538,0423;0,10282
539,0065;0,102792
539,9708;0,10293
540,9350;0,103163
541,8992;0,103415
542,8635;0,103638
543,8277;0,103822
544,7919;0,103982
545,7562;0,104134
546,7204;0,104272
547,6846;0,104375
548,6489;0,104426
549,6131;0,104442
550,5773;0,104469
551,5416;0,104564
552,5058;0,104762
553,4700;0,105054
554,4343;0,105386
555,3985;0,105678
556,3627;0,105846
557,3270;0,105827
558,2912;0,105582
559,2554;0,105111
560,2197;0,104443
561,1839;0,103636
562,1481;0,102766
563,1124;0,101903
564,0766;0,101097
565,0408;0,100365
566,0051;0,0997076
566,9693;0,0991215
567,9335;0,0986149
568,8978;0,0982014
569,8620;0,0978849
570,8262;0,0976481
571,7905;0,0974556
572,7547;0,0972691
573,7189;0,0970645
574,6832;0,0968398
575,6474;0,0966115
576,6116;0,0964025
577,5759;0,0962289
578,5401;0,0960941
579,5043;0,0959911
580,4686;0,09591
581,4328;0,0958447
582,3970;0,095795
583,3613;0,0957656
584,3255;0,0957614
585,2897;0,0957822
586,2540;0,0958212
587,2182;0,0958648
588,1824;0,095897
589,1467;0,0959022
590,1109;0,095869
591,0751;0,0957916
592,0394;0,0956721
593,0036;0,0955207
593,9678;0,095352
594,9321;0,0951794
595,8963;0,0950085
596,8605;0,0948339
597,8248;0,0946411
598,7890;0,0944133
599,7532;0,0941433
600,7175;0,0938423
601,6817;0,0935411
602,6459;0,09328
603,6102;0,09309
604,5744;0,0929758
605,5386;0,092908
606,5029;0,0928319
607,4671;0,09269
608,4313;0,092447
609,3956;0,0921017
610,3598;0,0916797
611,3240;0,0912114
612,2883;0,0907137
613,2525;0,090189
614,2167;0,0896406
615,1810;0,0890912
616,1452;0,0885852
617,1094;0,0881654
618,0737;0,0878397
619,0379;0,0875661
620,0021;0,087275
620,9664;0,0869116
621,9306;0,0864652
622,8948;0,0859697
623,8591;0,0854797
624,8233;0,085052
625,7875;0,0846695
626,7518;0,0843103
627,7160;0,0839417
628,6802;0,0835444
629,6445;0,0831182
630,6087;0,0826761
631,5729;0,0822315
632,5372;0,0817922
633,5014;0,0813598
634,4656;0,0809327
635,4299;0,0805079
636,3941;0,0800815
637,3583;0,0796497
638,3226;0,0792119
639,2868;0,0787738
640,2510;0,0783461
641,2153;0,0779371
642,1795;0,0775446
643,1437;0,0771513
644,1080;0,0767298
645,0722;0,0762566
646,0364;0,0757268
647,0007;0,0751654
647,9649;0,0746272
648,9291;0,0741805
649,8934;0,0738786
650,8576;0,0737333
651,8218;0,0737091
652,7861;0,0737451
653,7503;0,0737884
654,7145;0,0738208
655,6788;0,0738626
656,6430;0,0739503
657,6072;0,0741034
658,5715;0,0743066
659,5357;0,0745202
660,4999;0,0747119
661,4642;0,0748848
662,4284;0,075073
663,3926;0,0753007
664,3569;0,0755164
665,3211;0,0755164
666,2853;0,0749199
667,2496;0,0733923
668,2138;0,0712583
669,1780;0,0695805
670,1423;0,0688865
671,1065;0,0687647
672,0707;0,0687117
673,0350;0,0684729
673,9992;0,0679561
674,9634;0,067179
675,9277;0,0662607
676,8919;0,0653612
677,8561;0,0645833
678,8204;0,0639333
679,7846;0,0633706
680,7488;0,0628753
681,7131;0,0624652
682,6773;0,0621682
683,6415;0,0619832
684,6058;0,0618745
685,5700;0,0617957
686,5342;0,0617185
687,4985;0,0616436
688,4627;0,0615876
689,4269;0,0615682
690,3912;0,0615857
691,3554;0,0616241
692,3196;0,0616646
693,2839;0,0616986
694,2481;0,0617325
695,2123;0,06178
696,1766;0,0618493
697,1408;0,0619328
698,1050;0,0620067
699,0693;0,0620427
700,0335;0,0620231
700,9977;0,0619494
701,9620;0,0618399
702,9262;0,061717
703,8904;0,0615988
704,8547;0,0614801
705,8189;0,061343
706,7831;0,0611668
707,7474;0,0609398
708,7116;0,0606648
709,6758;0,0603575
710,6401;0,0600401
711,6043;0,0597339
712,5685;0,0594506
713,5328;0,0591842
714,4970;0,058908
715,4612;0,0588632
716,4255;0,0583863
717,3897;0,0577841
718,3539;0,0571045
719,3182;0,0564469
720,2824;0,0559205
721,2466;0,0555835
722,2109;0,0554087
723,1751;0,0553017
724,1393;0,0551561
725,1036;0,0549039
726,0678;0,0545359
727,0320;0,0540909
727,9963;0,0536261
728,9605;0,053187
729,9247;0,0527923
730,8890;0,0524384
731,8532;0,0521127
732,8174;0,0518064
733,7817;0,051518
734,7459;0,0512525
735,7101;0,0510173
736,6744;0,0508171
737,6386;0,0506495
738,6028;0,0505013
739,5671;0,0503515
740,5313;0,0501794
741,4955;0,0499755
742,4598;0,0497455
743,4240;0,0495058
744,3882;0,0492727
745,3525;0,0490532
746,3167;0,0488449
747,2809;0,0486421
748,2452;0,0484419
749,2094;0,0482437
750,1736;0,0480445
751,1379;0,0478345
752,1021;0,0476018
753,0663;0,0473408
754,0306;0,04706
754,9948;0,0467801
755,9590;0,0465228
756,9233;0,0462986
757,8875;0,0461017
758,8517;0,0459162
759,8160;0,0457278
760,7802;0,0455325
761,7444;0,0453366
762,7087;0,0451494
763,6729;0,0449751
764,6371;0,0448101
765,6014;0,0446464
766,5656;0,0444792
767,5298;0,0443104
768,4941;0,0441467
769,4583;0,0439944
770,4225;0,0438531
771,3868;0,0437152
772,3510;0,0435702
773,3152;0,043412
774,2795;0,0432426
775,2437;0,0430716
776,2079;0,0429091
777,1722;0,0427592
778,1364;0,0426159
779,1006;0,0424677
780,0649;0,042305
781,0291;0,0421276
781,9933;0,0419446
782,9576;0,041768
783,9218;0,0416042
784,8860;0,04145
785,8503;0,0412963
786,8145;0,0411364
787,7787;0,0409732
788,7430;0,0408187
789,7072;0,0406867
790,6714;0,0405842
791,6357;0,0405066
792,5999;0,040441
793,5641;0,0403728
794,5284;0,0402926
795,4926;0,040199
796,4568;0,0400972
797,4211;0,0399952
798,3853;0,0399009
799,3495;0,039819
800,3138;0,0397505
801,2780;0,0396929
802,2422;0,039642
803,2065;0,039595
804,1707;0,0395519
805,1349;0,039515
806,0992;0,0394862
807,0634;0,0394645
808,0276;0,0394455
808,9919;0,0394227
809,9561;0,0393896
810,9203;0,0393416
811,8846;0,0392771
812,8488;0,0391994
813,8130;0,0391175
814,7773;0,0390457
815,7415;0,038999
816,7057;0,0389867
817,6700;0,0390067
818,6342;0,0390452
819,5984;0,0390835
820,5627;0,0391066
821,5269;0,0391095
822,4911;0,0390968
823,4554;0,0390781
824,4196;0,0390622
825,3839;0,0390543
826,3481;0,039056
827,3123;0,0390668
828,2766;0,0390837
829,2408;0,0391016
830,2050;0,0391124
831,1693;0,039107
832,1335;0,039077
833,0977;0,039017
834,0620;0,0389255
835,0262;0,0388059
835,9904;0,038667
836,9547;0,0385216
837,9189;0,0383841
838,8831;0,0382651
839,8474;0,0381676
840,8116;0,0380867
841,7758;0,0380151
842,7401;0,0379494
843,7043;0,0378926
844,6685;0,0378515
845,6328;0,0378291
846,5970;0,0378193
847,5612;0,0378083
848,5255;0,0377819
849,4897;0,037734
850,4539;0,0376695
851,4182;0,0376011
852,3824;0,0375416
853,3466;0,0374978
854,3109;0,0374697
855,2751;0,0374524
856,2393;0,0374408
857,2036;0,0374308
858,1678;0,0374203
859,1320;0,0374093
860,0963;0,0374006
861,0605;0,0373999
862,0247;0,0374141
862,9890;0,0374478
863,9532;0,0375014
864,9174;0,0375706
865,8817;0,03765
866,8459;0,0377363
867,8101;0,0378303
868,7744;0,0379352
869,7386;0,0380534
870,7028;0,0381845
871,6671;0,0383251
872,6313;0,0384707
873,5955;0,0386172
874,5598;0,0387615
875,5240;0,0389018
876,4882;0,0390378
877,4525;0,0391713
878,4167;0,0393069
879,3809;0,0394516
880,3452;0,0396144
881,3094;0,0398046
882,2736;0,0400316
883,2379;0,0403034
884,2021;0,0406253
885,1663;0,0409974
886,1306;0,0414134
887,0948;0,0418616
888,0590;0,0423279
889,0233;0,0427997
889,9875;0,0432676
890,9517;0,0437253
891,9160;0,0441652
892,8802;0,0445759
893,8444;0,0449411
894,8087;0,0452423
895,7729;0,0454633
896,7371;0,0455956
897,7014;0,0456408
898,6656;0,0456084
899,6298;0,0455119
900,5941;0,0453635
901,5583;0,0451719
902,5225;0,0449437
903,4868;0,0446887
904,4510;0,0444233
905,4152;0,0441708
906,3795;0,043955
907,3437;0,0437927
908,3079;0,0436873
909,2722;0,0436296
910,2364;0,0436051
911,2007;0,0436029
912,1649;0,0436215
913,1292;0,0436684
914,0934;0,0437536
915,0576;0,0438822
916,0219;0,0440495
916,9861;0,0442419
917,9503;0,0444433
918,9146;0,0446415
919,8788;0,0448324
920,8430;0,0450189
921,8073;0,0452064
922,7715;0,0453973
923,7357;0,0455887
924,7000;0,0457755
925,6642;0,0459545
926,6284;0,0461282
927,5927;0,0463028
928,5569;0,0464828
929,5211;0,0466666
930,4854;0,0468462
931,4496;0,047012
932,4138;0,0471609
933,3781;0,0473002
934,3423;0,0474462
935,3065;0,0476176
936,2708;0,0478295
937,2350;0,0480899
938,1992;0,0484011
939,1635;0,048762
940,1277;0,0491702
941,0919;0,0496215
942,0562;0,0501099
943,0204;0,0506285
943,9846;0,0511718
944,9489;0,051738
945,9131;0,0523292
946,8773;0,0529498
947,8416;0,0536044
948,8058;0,0542971
949,7700;0,0550321
950,7343;0,0558136
951,6985;0,0566445
952,6627;0,0575236
953,6270;0,0584438
954,5912;0,0593928
955,5554;0,0603581
956,5197;0,0613324
957,4839;0,0623163
958,4481;0,0633163
959,4124;0,0643392
960,3766;0,065386
961,3408;0,0664503
962,3051;0,0675215
963,2693;0,0685906
964,2335;0,0696557
965,1978;0,0707229
966,1620;0,071803
967,1262;0,0729071
968,0905;0,074044
969,0547;0,0752194
970,0189;0,0764384
970,9832;0,0777077
971,9474;0,0790367
972,9116;0,0804376
973,8759;0,0819241
974,8401;0,0835081
975,8043;0,0851953
976,7686;0,0869797
977,7328;0,0888392
978,6970;0,0907344
979,6613;0,0926126
980,6255;0,0944144
981,5897;0,0960831
982,5540;0,0975728
983,5182;0,0988555
984,4824;0,0999254
985,4467;0,1008
986,4109;0,101517
987,3751;0,102122
988,3394;0,102658
989,3036;0,103152
990,2678;0,103616
991,2321;0,104047
992,1963;0,10444
993,1605;0,104797
994,1248;0,105127
995,0890;0,105444
996,0532;0,105758
997,0175;0,106072
997,9817;0,106383
998,9459;0,106687
999,9102;0,106987
1000,8744;0,107291
1001,8386;0,107612
1002,8029;0,107962
1003,7671;0,10835
1004,7313;0,108783
1005,6956;0,109269
1006,6598;0,109815
1007,6240;0,110428
1008,5883;0,11111
1009,5525;0,111858
1010,5167;0,112662
1011,4810;0,113505
1012,4452;0,114366
1013,4094;0,115222
1014,3737;0,11605
1015,3379;0,116831
1016,3021;0,117553
1017,2664;0,118209
1018,2306;0,118801
1019,1948;0,119338
1020,1591;0,119827
1021,1233;0,120279
1022,0875;0,120701
1023,0518;0,121101
1024,0160;0,121482
1024,9802;0,121845
1025,9445;0,122187
1026,9087;0,122496
1027,8729;0,122757
1028,8372;0,122948
1029,8014;0,123047
1030,7656;0,123029
1031,7299;0,122869
1032,6941;0,122545
1033,6583;0,122043
1034,6226;0,12137
1035,5868;0,120555
1036,5510;0,119649
1037,5153;0,118719
1038,4795;0,117832
1039,4437;0,117049
1040,4080;0,116411
1041,3722;0,115938
1042,3364;0,11563
1043,3007;0,115466
1044,2649;0,115412
1045,2291;0,115426
1046,1934;0,115467
1047,1576;0,115499
1048,1218;0,115492
1049,0861;0,115423
1050,0503;0,115274
1051,0145;0,115034
1051,9788;0,114696
1052,9430;0,114259
1053,9072;0,113722
1054,8715;0,113083
1055,8357;0,112334
1056,7999;0,111461
1057,7642;0,110444
1058,7284;0,109265
1059,6926;0,10792
1060,6569;0,106422
1061,6211;0,104806
1062,5853;0,10313
1063,5496;0,101458
1064,5138;0,0998499
1065,4780;0,0983471
1066,4423;0,0969707
1067,4065;0,0957223
1068,3707;0,0945918
1069,3350;0,0935629
1070,2992;0,0926153
1071,2634;0,0917227
1072,2277;0,0908531
1073,1919;0,089972
1074,1561;0,0890503
1075,1204;0,0880721
1076,0846;0,0870387
1077,0488;0,0859661
1078,0131;0,0848794
1078,9773;0,0838076
1079,9415;0,0827805
1080,9058;0,0818269
1081,8700;0,080972
1082,8342;0,0802323
1083,7985;0,0796112
1084,7627;0,0790983
1085,7269;0,078674
1086,6912;0,0783179
1087,6554;0,0780158
1088,6196;0,077762
1089,5839;0,077557
1090,5481;0,0774024
1091,5123;0,0772981
1092,4766;0,0772424
1093,4408;0,0772334
1094,4050;0,0772702
1095,3693;0,0773517
1096,3335;0,0774735
1097,2977;0,0776258
1098,2620;0,0777939
1099,2262;0,0779603
1100,1904;0,0781065
1101,1547;0,0782159
1102,1189;0,078274
1103,0831;0,0782711
1104,0474;0,0782037
1105,0116;0,078077
1105,9758;0,0779029
1106,9401;0,0776949
1107,9043;0,0774594
1108,8685;0,0771875
1109,8328;0,0768543
1110,7970;0,0764252
1111,7612;0,0758705
1112,7255;0,0751804
1113,6897;0,0743736
1114,6539;0,0734942
1115,6182;0,0725993
1116,5824;0,0717415
1117,5466;0,0709546
1118,5109;0,0702463
1119,4751;0,069599
1120,4393;0,0689767
1121,4036;0,0683341
1122,3678;0,0676274
1123,3320;0,0668229
1124,2963;0,0659035
1125,2605;0,0648707
1126,2247;0,0637411
1127,1890;0,06254
1128,1532;0,0612944
1129,1174;0,0600277
1130,0817;0,0587579
1131,0459;0,0574995
1132,0101;0,0562666
1132,9744;0,0550752
1133,9386;0,0539456
1134,9028;0,0529011
1135,8671;0,0519665
1136,8313;0,051163
1137,7955;0,0505049
1138,7598;0,0499973
1139,7240;0,0496363
1140,6882;0,0494119
1141,6525;0,0493101
1142,6167;0,0493138
1143,5809;0,0494031
1144,5452;0,0495553
1145,5094;0,0497481
1146,4736;0,0499649
1147,4379;0,0501982
1148,4021;0,0504505
1149,3663;0,0507284
1150,3306;0,0510354
1151,2948;0,0513651
1152,2590;0,0517001
1153,2233;0,0520163
1154,1875;0,052289
1155,1517;0,0524976
1156,1160;0,0526251
1157,0802;0,0526542
1158,0444;0,0525627
1159,0087;0,0523217
1159,9729;0,0518988
1160,9371;0,0512649
1161,9014;0,0504019
1162,8656;0,0493097
1163,8298;0,0480078
1164,7941;0,0465348
1165,7583;0,0449434
1166,7225;0,0432946
1167,6868;0,0416506
1168,6510;0,0400681
1169,6152;0,0385917
1170,5795;0,0372499
1171,5437;0,0360551
1172,5079;0,0350061
1173,4722;0,0340931
1174,4364;0,0333023
1175,4006;0,0326193
1176,3649;0,0320306
1177,3291;0,0315247
1178,2933;0,0310922
1179,2576;0,030726
1180,2218;0,0304212
1181,1860;0,0301727
1182,1503;0,0299754
1183,1145;0,0298233
1184,0787;0,0297121
1185,0430;0,0296403
1186,0072;0,0296105
1186,9714;0,0296279
1187,9357;0,0296972
1188,8999;0,0298202
1189,8641;0,029994
1190,8284;0,0302129
1191,7926;0,0304709
1192,7568;0,0307634
1193,7211;0,0310882
1194,6853;0,0314434
1195,6495;0,0318265
1196,6138;0,0322328
1197,5780;0,0326557
1198,5422;0,0330882
1199,5065;0,0335486
1200,4707;0,033979
1201,4349;0,0344014
1202,3992;0,0348099
1203,3634;0,0351977
1204,3276;0,0355588
1205,2919;0,0358901
1206,2561;0,0361935
1207,2203;0,0364768
1208,1846;0,036752
1209,1488;0,0370332
1210,1130;0,0373344
1211,0773;0,0376676
1212,0415;0,038042
1213,0057;0,038463
1213,9700;0,038931
1214,9342;0,0394407
1215,8984;0,039981
1216,8627;0,0405365
1217,8269;0,0410906
1218,7911;0,041629
1219,7554;0,0421422
1220,7196;0,0426263
1221,6838;0,0430818
1222,6481;0,0435103
1223,6123;0,0439127
1224,5765;0,0442882
1225,5408;0,0446346
1226,5050;0,0449499
1227,4692;0,0452344
1228,4335;0,0454908
1229,3977;0,0457233
1230,3619;0,0459348
1231,3262;0,0461246
1232,2904;0,0462876
1233,2546;0,0464157
1234,2189;0,0465021
1235,1831;0,0465452
1236,1473;0,04655
1237,1116;0,0465268
1238,0758;0,0464867
1239,0400;0,0464374
1240,0043;0,0463806
1240,9685;0,046313
1241,9327;0,0462286
1242,8970;0,0461216
1243,8612;0,0459883
1244,8254;0,0458275
1245,7897;0,0456403
1246,7539;0,0454295
1247,7181;0,0451996
1248,6824;0,0449568
1249,6466;0,0447085
1250,6108;0,0444625
1251,5751;0,0442259
1252,5393;0,0440032
1253,5035;0,0437946
1254,4678;0,0435965
1255,4320;0,0434019
1256,3962;0,043204
1257,3605;0,0429982
1258,3247;0,0427841
1259,2889;0,0425638
1260,2532;0,0423396
1261,2174;0,042111
1262,1816;0,0418744
1263,1459;0,0416246
1264,1101;0,0413575
1265,0743;0,041071
1266,0386;0,040765
1267,0028;0,04044
1267,9670;0,0400969
1268,9313;0,0397374
1269,8955;0,0393648
1270,8597;0,0389838
1271,8240;0,0385995
1272,7882;0,0382154
1273,7524;0,0378339
1274,7167;0,0374574
1275,6809;0,0370896
1276,6451;0,0367349
1277,6094;0,0363958
1278,5736;0,0360699
1279,5378;0,0357502
1280,5021;0,0354275
1281,4663;0,0350964
1282,4305;0,0347589
1283,3948;0,0344238
1284,3590;0,0341035
1285,3232;0,0338093
1286,2875;0,033549
1287,2517;0,0333266
1288,2159;0,0331433
1289,1802;0,0329983
1290,1444;0,0328892
1291,1086;0,0328124
1292,0729;0,0327648
1293,0371;0,0327458
1294,0013;0,0327581
1294,9656;0,0328065
1295,9298;0,0328959
1296,8940;0,0330279
1297,8583;0,0332012
1298,8225;0,0334124
1299,7867;0,033658
1300,7510;0,0339359
1301,7152;0,0342442
1302,6794;0,0345817
1303,6437;0,0349466
1304,6079;0,0353362
1305,5721;0,0357466
1306,5364;0,0361714
1307,5006;0,0366026
1308,4648;0,0370315
1309,4291;0,037452
1310,3933;0,0378602
1311,3575;0,0382537
1312,3218;0,0386274
1313,2860;0,0389702
1314,2502;0,0392647
1315,2145;0,0394903
1316,1787;0,0396288
1317,1429;0,0396715
1318,1072;0,0396237
1319,0714;0,0395058
1320,0356;0,0393475
1320,9999;0,0391774
1321,9641;0,0390145
1322,9283;0,0388664
1323,8926;0,0387332
1324,8568;0,0386131
1325,8210;0,0385062
1326,7853;0,0384149
1327,7495;0,0383411
1328,7137;0,0382838
1329,6780;0,0382369
1330,6422;0,0381901
1331,6064;0,0381302
1332,5707;0,0380453
1333,5349;0,0379254
1334,4991;0,0377625
1335,4634;0,0375485
1336,4276;0,0372762
1337,3918;0,0369455
1338,3561;0,0365723
1339,3203;0,0361903
1340,2845;0,0358369
1341,2488;0,0355338
1342,2130;0,0352811
1343,1772;0,035067
1344,1415;0,0348796
1345,1057;0,034714
1346,0699;0,0345741
1347,0342;0,0344709
1347,9984;0,0344172
1348,9626;0,0344219
1349,9269;0,0344848
1350,8911;0,034597
1351,8553;0,0347446
1352,8196;0,0349158
1353,7838;0,0351058
1354,7480;0,0353174
1355,7123;0,0355545
1356,6765;0,0358158
1357,6407;0,0360918
1358,6050;0,0363679
1359,5692;0,0366308
1360,5334;0,0368726
1361,4977;0,0370938
1362,4619;0,0372995
1363,4261;0,0374928
1364,3904;0,0376717
1365,3546;0,0378344
1366,3188;0,0379812
1367,2831;0,0381124
1368,2473;0,0382234
1369,2115;0,0383022
1370,1758;0,0383304
1371,1400;0,0382876
1372,1042;0,038159
1373,0685;0,0379458
1374,0327;0,0376715
1374,9969;0,0373725
1375,9612;0,0370734
1376,9254;0,0367696
1377,8896;0,0364357
1378,8539;0,0360481
1379,8181;0,0356054
1380,7823;0,0351336
1381,7466;0,0346698
1382,7108;0,0342363
1383,6750;0,0338249
1384,6393;0,033406
1385,6035;0,032957
1386,5677;0,0324943
1387,5320;0,0320766
1388,4962;0,0317621
1389,4604;0,0315648
1390,4247;0,0314564
1391,3889;0,0313944
1392,3531;0,0313428
1393,3174;0,0312816
1394,2816;0,0312121
1395,2458;0,031153
1396,2101;0,0311276
1397,1743;0,0311502
1398,1385;0,0312218
1399,1028;0,0313345
1400,0670;0,0314754
1401,0313;0,0316303
1401,9955;0,0317873
1402,9597;0,0319405
1403,9240;0,0320935
1404,8882;0,0322583
1405,8524;0,0324481
1406,8167;0,0326676
1407,7809;0,0329119
1408,7451;0,0331735
1409,7094;0,0334496
1410,6736;0,0337427
1411,6378;0,0340556
1412,6021;0,0343862
1413,5663;0,0347261
1414,5305;0,035063
1415,4948;0,0353814
1416,4590;0,0356635
1417,4232;0,0358961
1418,3875;0,0360794
1419,3517;0,0362214
1420,3159;0,0363212
1421,2802;0,0363677
1422,2444;0,0363512
1423,2086;0,0362706
1424,1729;0,0361336
1425,1371;0,0359505
1426,1013;0,0357223
1427,0656;0,035433
1428,0298;0,0350599
1428,9940;0,0346026
1429,9583;0,0341051
1430,9225;0,0336396
1431,8867;0,0332554
1432,8510;0,0329447
1433,8152;0,0326484
1434,7794;0,032295
1435,7437;0,0318592
1436,7079;0,031405
1437,6721;0,0310414
1438,6364;0,0308244
1439,6006;0,0307371
1440,5648;0,0307391
1441,5291;0,0308005
1442,4933;0,0309053
1443,4575;0,0310449
1444,4218;0,0312126
1445,3860;0,0314018
1446,3502;0,0316069
1447,3145;0,0318236
1448,2787;0,0320464
1449,2429;0,0322682
1450,2072;0,0324825
1451,1714;0,0326882
1452,1356;0,0328854
1453,0999;0,0330617
1454,0641;0,0331749
1455,0283;0,0331495
1455,9926;0,032929
1456,9568;0,0325907
1457,9210;0,0323276
1458,8853;0,0322213
1459,8495;0,0322082
1460,8137;0,0322082
1461,7780;0,0321557
1462,7422;0,0319819
1463,7064;0,0316303
1464,6707;0,0311104
1465,6349;0,0305192
1466,5991;0,0299655
1467,5634;0,0294845
1468,5276;0,0290316
1469,4918;0,0285141
1470,4561;0,0278212
1471,4203;0,0268773
1472,3845;0,0257399
1473,3488;0,0246287
1474,3130;0,0237498
1475,2772;0,0231258
1476,2415;0,0226643
1477,2057;0,0222838
1478,1699;0,0219464
1479,1342;0,0216417
1480,0984;0,0213706
1481,0626;0,0211391
1482,0269;0,0209563
1482,9911;0,0208296
1483,9553;0,0207573
1484,9196;0,0207234
1485,8838;0,0207004
1486,8480;0,0206631
1487,8123;0,0206178
1488,7765;0,0206217
1489,7407;0,020741
1490,7050;0,0209767
1491,6692;0,0212765
1492,6334;0,0215979
1493,5977;0,0219262
1494,5619;0,022261
1495,5261;0,022608
1496,4904;0,0229826
1497,4546;0,0234022
1498,4188;0,0238604
1499,3831;0,0243239
1500,3473;0,0247677
1501,3115;0,0251893
1502,2758;0,025591
1503,2400;0,0259515
1504,2042;0,0262027
1505,1685;0,0262279
1506,1327;0,0259455
1507,0969;0,0254918
1508,0612;0,0251432
1509,0254;0,024968
1509,9896;0,0248716
1510,9539;0,0247818
1511,9181;0,0246633
1512,8823;0,0244869
1513,8466;0,0242262
1514,8108;0,023874
1515,7750;0,0234579
1516,7393;0,0230278
1517,7035;0,0226205
1518,6677;0,0222344
1519,6320;0,021845
1520,5962;0,0214458
1521,5604;0,0210711
1522,5247;0,0207695
1523,4889;0,0205622
1524,4531;0,0204372
1525,4174;0,0203743
1526,3816;0,0203617
1527,3458;0,0203957
1528,3101;0,0204702
1529,2743;0,0205721
1530,2385;0,0206815
1531,2028;0,0207812
1532,1670;0,0208722
1533,1312;0,0209823
1534,0955;0,0211454
1535,0597;0,0213698
1536,0239;0,0216326
1536,9882;0,0218858
1537,9524;0,0220507
1538,9166;0,0220268
1539,8809;0,0217868
1540,8451;0,021508
1541,8093;0,0214169
1542,7736;0,0215055
1543,7378;0,0216486
1544,7020;0,021778
1545,6663;0,0218822
1546,6305;0,0219681
1547,5947;0,0220423
1548,5590;0,0221058
1549,5232;0,0221557
1550,4874;0,022193
1551,4517;0,0222296
1552,4159;0,0222863
1553,3801;0,0223797
1554,3444;0,022507
1555,3086;0,0226318
1556,2728;0,0226771
1557,2371;0,0225626
1558,2013;0,0223414
1559,1655;0,0222331
1560,1298;0,0223109
1561,0940;0,0224636
1562,0582;0,0226294
1563,0225;0,0228111
1563,9867;0,0230141
1564,9509;0,0232249
1565,9152;0,0234188
1566,8794;0,0235808
1567,8436;0,0237284
1568,8079;0,0239113
1569,7721;0,0241681
1570,7363;0,0244884
1571,7006;0,0248317
1572,6648;0,0251644
1573,6290;0,0254703
1574,5933;0,0257496
1575,5575;0,026025
1576,5217;0,0263317
1577,4860;0,026677
1578,4502;0,0270368
1579,4144;0,0273969
1580,3787;0,0277639
1581,3429;0,0281464
1582,3071;0,0285445
1583,2714;0,0289517
1584,2356;0,0293638
1585,1998;0,029781
1586,1641;0,0302039
1587,1283;0,0306258
1588,0925;0,0310302
1589,0568;0,0313938
1590,0210;0,0316944
1590,9852;0,0319163
1591,9495;0,0320503
1592,9137;0,0320941
1593,8779;0,0320544
1594,8422;0,0319482
1595,8064;0,0317982
1596,7706;0,0316234
1597,7349;0,0314324
1598,6991;0,0312254
1599,6633;0,031002
1600,6276;0,0307678
1601,5918;0,0305361
1602,5560;0,0303228
1603,5203;0,0301377
1604,4845;0,0299792
1605,4487;0,0298359
1606,4130;0,029695
1607,3772;0,0295531
1608,3414;0,0294238
1609,3057;0,0293334
1610,2699;0,029303
1611,2341;0,0293326
1612,1984;0,0294002
1613,1626;0,0294687
1614,1268;0,029498
1615,0911;0,0294689
1616,0553;0,029414
1617,0195;0,0293993
1617,9838;0,0294546
1618,9480;0,0295545
1619,9122;0,0296617
1620,8765;0,0297529
1621,8407;0,0298211
1622,8049;0,0298765
1623,7692;0,0299394
1624,7334;0,0300224
1625,6976;0,0301211
1626,6619;0,0302273
1627,6261;0,0303426
1628,5903;0,0304765
1629,5546;0,0306358
1630,5188;0,0308156
1631,4830;0,0309946
1632,4473;0,0311309
1633,4115;0,0311631
1634,3757;0,0310477
1635,3400;0,0308379
1636,3042;0,0306842
1637,2684;0,030673
1638,2327;0,0307617
1639,1969;0,0308852
1640,1611;0,0310151
1641,1254;0,031146
1642,0896;0,0312689
1643,0538;0,0313531
1644,0181;0,0313422
1644,9823;0,0311874
1645,9465;0,0309244
1646,9108;0,0306986
1647,8750;0,0306359
1648,8392;0,0307328
1649,8035;0,0308945
1650,7677;0,0309785
1651,7319;0,0308121
1652,6962;0,0303269
1653,6604;0,0297553
1654,6246;0,0293854
1655,5889;0,0292122
1656,5531;0,0291188
1657,5173;0,029037
1658,4816;0,0289256
1659,4458;0,0287401
1660,4100;0,0284421
1661,3743;0,0280403
1662,3385;0,0276123
1663,3027;0,0272537
1664,2670;0,027001
1665,2312;0,0268174
1666,1954;0,026624
1667,1597;0,0263318
1668,1239;0,0258854
1669,0881;0,025325
1670,0524;0,0247883
1671,0166;0,0243934
1671,9808;0,0241369
1672,9451;0,0239286
1673,9093;0,0236761
1674,8735;0,0233409
1675,8378;0,0229576
1676,8020;0,0226018
1677,7662;0,0223302
1678,7305;0,022151
1679,6947;0,0220294
1680,6589;0,0218923
1681,6232;0,0216334
1682,5874;0,0211641
1683,5516;0,0205345
1684,5159;0,019952
1685,4801;0,0195568
1686,4443;0,0193134
1687,4086;0,019139
1688,3728;0,0189902
1689,3370;0,0188625
1690,3013;0,0187664
1691,2655;0,0187075
1692,2297;0,0186735
1693,1940;0,0186338
1694,1582;0,0185516
1695,1224;0,0184054
1696,0867;0,0182084
1697,0509;0,0180052
1698,0151;0,0178419
1698,9794;0,0177334
1699,9436;0,0176618
1700,9078;0,0176029
1701,8721;0,0175512
1702,8363;0,0175209
1703,8005;0,0175326
1704,7648;0,0176018
1705,7290;0,0177338
1706,6932;0,0179202
1707,6575;0,018142
1708,6217;0,0183807
1709,5859;0,0186296
1710,5502;0,0188919
1711,5144;0,01917
1712,4786;0,0194552
1713,4429;0,0197254
1714,4071;0,0199537
1715,3713;0,0201347
1716,3356;0,0203133
1717,2998;0,0205561
1718,2640;0,0208697
1719,2283;0,0212013
1720,1925;0,0215148
1721,1567;0,0218108
1722,1210;0,0221014
1723,0852;0,0223913
1724,0494;0,0226757
1725,0137;0,0229475
1725,9779;0,0232036
1726,9421;0,0234471
1727,9064;0,0236833
1728,8706;0,0239106
1729,8348;0,0241118
1730,7991;0,0242478
1731,7633;0,0242695
1732,7275;0,0241587
1733,6918;0,0239683
1734,6560;0,0237854
1735,6202;0,0236483
1736,5845;0,0235356
1737,5487;0,0234057
1738,5129;0,0232202
1739,4772;0,0229579
1740,4414;0,0226274
1741,4056;0,0222631
1742,3699;0,0218977
1743,3341;0,0215412
1744,2983;0,0211839
1745,2626;0,0208098
1746,2268;0,0204005
1747,1910;0,0199343
1748,1553;0,019395
1749,1195;0,0187977
1750,0837;0,0182016
1751,0480;0,0176731
1752,0122;0,0172357
1752,9764;0,0168634
1753,9407;0,0165105
1754,9049;0,016141
1755,8691;0,0157463
1756,8334;0,0153451
1757,7976;0,0149644
1758,7618;0,0146125
1759,7261;0,0142733
1760,6903;0,0139274
1761,6545;0,0135803
1762,6188;0,0132644
1763,5830;0,0130114
1764,5472;0,0128272
1765,5115;0,0126905
1766,4757;0,0125693
1767,4399;0,012435
1768,4042;0,0122684
1769,3684;0,0120595
1770,3326;0,0118088
1771,2969;0,0115379
1772,2611;0,0112926
1773,2253;0,0111198
1774,1896;0,0110342
1775,1538;0,0110158
1776,1180;0,0110304
1777,0823;0,0110459
1778,0465;0,0110399
1779,0107;0,0110062
1779,9750;0,0109565
1780,9392;0,0109098
1781,9034;0,0108772
1782,8677;0,0108564
1783,8319;0,0108413
1784,7961;0,0108333
1785,7604;0,0108412
1786,7246;0,0108725
1787,6888;0,0109213
1788,6531;0,010964
1789,6173;0,010964
1790,5815;0,0108925
1791,5458;0,0107598
1792,5100;0,0106234
1793,4742;0,0105429
1794,4385;0,0105321
1795,4027;0,0105663
1796,3669;0,0106119
1797,3312;0,010641
1798,2954;0,0106378
1799,2596;0,0106031
1800,2239;0,0105551
1801,1881;0,0105169
1802,1523;0,0105018
1803,1166;0,0105091
1804,0808;0,0105317
1805,0450;0,0105613
1806,0093;0,0105901
1806,9735;0,0106086
1807,9377;0,0106076
1808,9020;0,0105831
1809,8662;0,0105411
1810,8304;0,0104974
1811,7947;0,0104681
1812,7589;0,0104599
1813,7231;0,0104672
1814,6874;0,0104781
1815,6516;0,0104817
1816,6158;0,0104755
1817,5801;0,0104677
1818,5443;0,0104719
1819,5085;0,0104975
1820,4728;0,010543
1821,4370;0,0105975
1822,4012;0,0106465
1823,3655;0,0106789
1824,3297;0,0106898
1825,2939;0,0106776
1826,2582;0,0106395
1827,2224;0,0105718
1828,1866;0,0104788
1829,1509;0,0103821
1830,1151;0,0103171
1831,0793;0,0103098
1832,0436;0,0103576
1833,0078;0,0104348
1833,9720;0,0105106
1834,9363;0,0105619
1835,9005;0,0105818
1836,8647;0,0105833
1837,8290;0,0105917
1838,7932;0,0106273
1839,7574;0,0106915
1840,7217;0,0107643
1841,6859;0,0108126
1842,6501;0,0108067
1843,6144;0,0107438
1844,5786;0,0106552
1845,5428;0,0105814
1846,5071;0,0105404
1847,4713;0,0105252
1848,4355;0,0105193
1849,3998;0,01051
1850,3640;0,010494
1851,3282;0,0104777
1852,2925;0,0104724
1853,2567;0,0104858
1854,2209;0,0105165
1855,1852;0,0105544
1856,1494;0,0105864
1857,1136;0,0106035
1858,0779;0,0106049
1859,0421;0,0105971
1860,0063;0,0105894
1860,9706;0,0105888
1861,9348;0,0105972
1862,8990;0,0106114
1863,8633;0,0106256
1864,8275;0,0106322
1865,7917;0,0106247
1866,7560;0,0106019
1867,7202;0,010574
1868,6844;0,0105588
1869,6487;0,0105661
1870,6129;0,0105901
1871,5771;0,0106176
1872,5414;0,0106374
1873,5056;0,0106423
1874,4698;0,0106277
1875,4341;0,0105953
1876,3983;0,0105549
1877,3625;0,0105234
1878,3268;0,0105171
1879,2910;0,0105446
1880,2552;0,0106035
1881,2195;0,0106807
1882,1837;0,0107573
1883,1479;0,0108156
1884,1122;0,0108451
1885,0764;0,0108452
1886,0406;0,0108229
1887,0049;0,0107883
1887,9691;0,0107499
1888,9333;0,0107113
1889,8976;0,0106705
1890,8618;0,0106239
1891,8260;0,0105721
1892,7903;0,0105236
1893,7545;0,0104915
1894,7188;0,0104855
1895,6830;0,0105052
1896,6472;0,0105375
1897,6115;0,0105638
1898,5757;0,0105715
1899,5399;0,0105611
1900,5042;0,0105451
1901,4684;0,0105391
1902,4326;0,0105522
1903,3969;0,0105814
1904,3611;0,0106129
1905,3253;0,0106306
1906,2896;0,0106247
1907,2538;0,0105964
1908,2180;0,0105583
1909,1823;0,010529
1910,1465;0,0105253
1911,1107;0,0105546
1912,0750;0,0106127
1913,0392;0,0106864
1914,0034;0,0107571
1914,9677;0,0108042
1915,9319;0,0108106
1916,8961;0,0107719
1917,8604;0,0107012
1918,8246;0,0106234
1919,7888;0,0105605
1920,7531;0,0105202
1921,7173;0,0104951
1922,6815;0,0104711
1923,6458;0,0104389
1924,6100;0,0104025
1925,5742;0,0103774
1926,5385;0,0103804
1927,5027;0,0104185
1928,4669;0,0104843
1929,4312;0,0105593
1930,3954;0,0106241
1931,3596;0,0106673
1932,3239;0,0106891
1933,2881;0,010696
1934,2523;0,0106939
1935,2166;0,0106854
1936,1808;0,0106724
1937,1450;0,0106601
1938,1093;0,0106556
1939,0735;0,0106616
1940,0377;0,0106722
1941,0020;0,010674
1941,9662;0,0106562
1942,9304;0,0106213
1943,8947;0,0105856
1944,8589;0,0105671
1945,8231;0,0105716
1946,7874;0,0105882
1947,7516;0,0105971
1948,7158;0,0105818
1949,6801;0,0105395
1950,6443;0,0104811
1951,6085;0,0104221
1952,5728;0,010371
1953,5370;0,0103241
1954,5012;0,0102702
1955,4655;0,0102021
1956,4297;0,010127
1957,3939;0,0100676
1958,3582;0,0100538
1959,3224;0,0101079
1960,2866;0,0102314
1961,2509;0,0104022
1962,2151;0,0105832
1963,1793;0,010736
1964,1436;0,0108286
1965,1078;0,0108353
1966,0720;0,0107362
1967,0363;0,0105254
1968,0005;0,0102238
1968,9647;0,00988554
1969,9290;0,00958609
1970,8932;0,00939817
1971,8574;0,00936718
1972,8217;0,00949746
1973,7859;0,00975307
1974,7501;0,0100713
1975,7144;0,0103818
1976,6786;0,0106234
1977,6428;0,0107559
1978,6071;0,0107638
1979,5713;0,0106565
1980,5355;0,0104628
1981,4998;0,0102237
1982,4640;0,00998525
1983,4282;0,00979165
1984,3925;0,00967847
1985,3567;0,00966445
1986,3209;0,00974507
1987,2852;0,0098931
1988,2494;0,0100687
1989,2136;0,0102357
1990,1779;0,0103763
1991,1421;0,0104944
1992,1063;0,0106029
1993,0706;0,0107056
1994,0348;0,0107875
1994,9990;0,0108249
1995,9633;0,0108056
1996,9275;0,0107417
1997,8917;0,0106662
1998,8560;0,0106141
1999,8202;0,0106023
2000,7844;0,010623
2001,7487;0,0106559
2002,7129;0,0106847
2003,6771;0,0107035
2004,6414;0,0107079
2005,6056;0,0106857
2006,5698;0,0106233
2007,5341;0,0105302
2008,4983;0,0104552
2009,4625;0,01047
2010,4268;0,0106219
2011,3910;0,0108898
2012,3552;0,0111809
2013,3195;0,0113765
2014,2837;0,0114018
2015,2479;0,0112776
2016,2122;0,0111163
2017,1764;0,0110546
2018,1406;0,0111633
2019,1049;0,0114012
2020,0691;0,0116465
2021,0333;0,0117759
2021,9976;0,0117359
2022,9618;0,011562
2023,9260;0,0113439
2024,8903;0,0111642
2025,8545;0,0110532
2026,8187;0,0109898
2027,7830;0,0109394
2028,7472;0,0108943
2029,7114;0,0108819
2030,6757;0,0109362
2031,6399;0,0110589
2032,6041;0,0112052
2033,5684;0,0113095
2034,5326;0,0113298
2035,4968;0,0112765
2036,4611;0,0112001
2037,4253;0,0111534
2038,3895;0,0111584
2039,3538;0,0111997
2040,3180;0,0112413
2041,2822;0,0112533
2042,2465;0,0112292
2043,2107;0,0111882
2044,1749;0,0111635
2045,1392;0,0111874
2046,1034;0,0112757
2047,0676;0,0114156
2048,0320;0,0115653
2048,9961;0,0116691
2049,9604;0,0116853
2050,9246;0,0116069
2051,8889;0,0114653
2052,8530;0,0113158
2053,8174;0,0112133
2054,7815;0,0111898
2055,7458;0,0112425
2056,7100;0,0113393
2057,6743;0,0114377
2058,6384;0,0115055
2059,6028;0,01153
2060,5669;0,0115168
2061,5313;0,0114801
2062,4954;0,0114355
2063,4597;0,0113949
2064,4238;0,0113639
2065,3882;0,0113426
2066,3523;0,0113268
2067,3167;0,0113123
2068,2808;0,0112991
2069,2451;0,0112927
2070,2092;0,0113004
2071,1736;0,0113256
2072,1377;0,0113635
2073,1021;0,011402
2074,0662;0,0114287
2075,0305;0,0114375
2075,9946;0,0114317
2076,9590;0,0114214
2077,9231;0,0114178
2078,8875;0,0114285
2079,8516;0,011456
2080,8159;0,0114966
2081,7800;0,0115409
2082,7444;0,0115749
2083,7085;0,0115839
2084,6729;0,0115586
2085,6370;0,0115019
2086,6013;0,0114302
2087,5654;0,0113669
2088,5298;0,0113323
2089,4939;0,0113336
2090,4583;0,0113636
2091,4224;0,0114069
2092,3867;0,0114492
2093,3508;0,0114843
2094,3152;0,0115137
2095,2793;0,0115414
2096,2437;0,0115695
2097,2078;0,0115972
2098,1721;0,011623
2099,1362;0,0116476
2100,1006;0,0116734
2101,0647;0,0117021
2102,0291;0,011729
2102,9932;0,011744
2103,9575;0,0117351
2104,9216;0,0116956
2105,8860;0,0116307
2106,8501;0,0115594
2107,8145;0,0115083
2108,7786;0,0115
2109,7429;0,0115412
2110,7070;0,0116173
2111,6714;0,0116985
2112,6355;0,011754
2113,5999;0,0117674
2114,5640;0,0117431
2115,5283;0,0117016
2116,4924;0,0116665
2117,4568;0,0116524
2118,4209;0,01166
2119,3853;0,0116799
2120,3494;0,0116998
2121,3137;0,0117099
2122,2778;0,0117037
2123,2422;0,0116768
2124,2063;0,0116268
2125,1707;0,0115565
2126,1348;0,0114776
2127,0991;0,0114098
2128,0632;0,0113741
2129,0276;0,0113827
2129,9917;0,0114323
2130,9561;0,011505
2131,9202;0,0115777
2132,8845;0,0116336
2133,8486;0,0116691
2134,8130;0,0116916
2135,7771;0,0117102
2136,7415;0,0117266
2137,7056;0,0117348
2138,6699;0,0117284
2139,6340;0,0117082
2140,5984;0,0116844
2141,5625;0,0116711
2142,5269;0,0116809
2143,4910;0,011724
2144,4553;0,0118106
2145,4194;0,0119512
2146,3838;0,0121448
2147,3479;0,0123628
2148,3123;0,0125413
2149,2764;0,012599
2150,2407;0,012476
2151,2048;0,0121744
2152,1692;0,011772
2153,1333;0,0113962
2154,0977;0,0111728
2155,0618;0,0111772
2156,0261;0,0114109
2156,9902;0,0118097
2157,9546;0,0122733
2158,9187;0,0127033
2159,8831;0,0130292
2160,8472;0,0132137
2161,8115;0,0132477
2162,7756;0,0131473
2163,7400;0,0129548
2164,7041;0,01273
2165,6685;0,0125306
2166,6326;0,0123875
2167,5969;0,0122948
2168,5610;0,0122228
2169,5254;0,0121439
2170,4895;0,0120548
2171,4539;0,0119802
2172,4180;0,011957
2173,3823;0,012009
2174,3464;0,0121269
2175,3108;0,0122679
2176,2749;0,0123757
2177,2393;0,0124093
2178,2034;0,0123638
2179,1677;0,0122721
2180,1318;0,0121887
2181,0962;0,0121639
2182,0603;0,0122203
2183,0247;0,0123418
2183,9888;0,0124814
2184,9531;0,0125836
2185,9172;0,0126094
2186,8816;0,0125542
2187,8457;0,0124508
2188,8101;0,0123556
2189,7742;0,0123222
2190,7385;0,0123751
2191,7026;0,0124949
2192,6670;0,0126263
2193,6311;0,0127034
2194,5955;0,0126801
2195,5596;0,0125503
2196,5239;0,0123481
2197,4880;0,012132
2198,4524;0,0119625
2199,4165;0,0118828
2200,3809;0,0119078
2201,3450;0,0120217
2202,3093;0,0121843
2203,2734;0,0123434
2204,2378;0,0124535
2205,2019;0,012492
2206,1663;0,0124657
2207,1304;0,0124018
2208,0947;0,0123295
2209,0588;0,012264
2210,0232;0,0122033
2210,9873;0,0121384
2211,9517;0,0120674
2212,9158;0,012001
2213,8801;0,0119556
2214,8442;0,0119418
2215,8086;0,0119577
2216,7727;0,0119941
2217,7371;0,0120438
2218,7012;0,0121067
2219,6655;0,0121831
2220,6296;0,0122642
2221,5940;0,0123287
2222,5581;0,0123531
2223,5225;0,0123277
2224,4866;0,0122668
2225,4509;0,0122013
2226,4150;0,0121579
2227,3794;0,0121415
2228,3435;0,012132
2229,3079;0,0121029
2230,2720;0,0120458
2231,2363;0,0119822
2232,2004;0,0119518
2233,1648;0,0119855
2234,1289;0,0120809
2235,0933;0,0121996
2236,0574;0,0122877
2237,0217;0,0123066
2237,9858;0,0122535
2238,9502;0,0121595
2239,9143;0,0120691
2240,8787;0,0120164
2241,8428;0,0120116
2242,8071;0,0120422
2243,7712;0,0120843
2244,7356;0,0121134
2245,6997;0,0121116
2246,6641;0,0120712
2247,6282;0,0119969
2248,5925;0,0119062
2249,5566;0,011824
2250,5210;0,0117717
2251,4851;0,0117559
2252,4495;0,0117647
2253,4136;0,0117768
2254,3779;0,0117764
2255,3420;0,0117643
2256,3064;0,0117531
2257,2705;0,0117529
2258,2349;0,0117579
2259,1990;0,0117473
2260,1633;0,0117004
2261,1274;0,0116147
2262,0918;0,0115121
2263,0559;0,0114285
2264,0203;0,0113933
2264,9844;0,0114132
2265,9487;0,0114694
2266,9128;0,0115292
2267,8772;0,0115629
2268,8413;0,0115549
2269,8057;0,011507
2270,7698;0,0114357
2271,7341;0,0113652
2272,6982;0,0113195
2273,6626;0,0113144
2274,6267;0,011351
2275,5911;0,0114157
2276,5552;0,011488
2277,5195;0,0115514
2278,4836;0,011602
2279,4480;0,011647
2280,4121;0,0116949
2281,3765;0,0117453
2282,3406;0,0117854
2283,3049;0,0117971
2284,2690;0,0117675
2285,2334;0,0116974
2286,1975;0,0116001
2287,1619;0,0114936
2288,1260;0,0113912
2289,0903;0,0112965
2290,0544;0,0112058
2291,0188;0,0111154
2291,9829;0,0110266
2292,9473;0,0109476
2293,9114;0,0108886
2294,8757;0,0108571
2295,8398;0,0108539
2296,8042;0,0108743
2297,7683;0,0109121
2298,7327;0,0109631
2299,6968;0,0110262
2300,6611;0,0111012
2301,6252;0,0111846
2302,5896;0,0112673
2303,5537;0,0113357
2304,5181;0,0113772
2305,4822;0,0113893
2306,4465;0,0113856
2307,4106;0,011395
2308,3750;0,0114521
2309,3391;0,0115802
2310,3035;0,0117788
2311,2676;0,0120212
2312,2319;0,0122667
2313,1960;0,0124803
2314,1604;0,0126486
2315,1245;0,0127816
2316,0889;0,0129021
2317,0530;0,0130284
2318,0173;0,0131611
2318,9814;0,0132778
2319,9458;0,013338
2320,9099;0,0132946
2321,8743;0,0131136
2322,8384;0,0127942
2323,8027;0,0123812
2324,7668;0,0119571
2325,7312;0,0116133
2326,6953;0,0114147
2327,6597;0,0113728
2328,6238;0,011441
2329,5881;0,0115329
2330,5522;0,0115604
2331,5166;0,011474
2332,4807;0,0112834
2333,4451;0,0110431
2334,4092;0,0108129
2335,3735;0,0106219
2336,3376;0,0104564
2337,3020;0,0102763
2338,2661;0,0100464
2339,2305;0,00976441
2340,1946;0,00947889
2341,1589;0,00929494
2342,1230;0,00935118
2343,0874;0,0097176
2344,0515;0,0102438
2345,0159;0,0105945
2345,9800;0,0105535
2346,9443;0,0102221
2347,9084;0,00989516
2348,8728;0,00982831
2349,8369;0,0101006
2350,8013;0,0105961
2351,7654;0,0110809
2352,7297;0,0113478
2353,6938;0,0113479
2354,6582;0,0111748
2355,6223;0,0109186
2356,5867;0,0105905
2357,5508;0,0101957
2358,5151;0,00980717
2359,4792;0,00953147
2360,4436;0,00942032
2361,4077;0,00944788
2362,3721;0,00957218
2363,3362;0,00979102
2364,3005;0,0101325
2365,2646;0,0106084
2366,2290;0,0111871
2367,1931;0,011805
2368,1575;0,0123939
2369,1216;0,0128999
2370,0859;0,0132916
2371,0500;0,0135623
2372,0144;0,0137254
2372,9785;0,0138031
2373,9429;0,0138127
2374,9070;0,0137586
2375,8713;0,0136352
2376,8354;0,0134365
2377,7998;0,0131681
2378,7639;0,0128529
2379,7283;0,0125288
2380,6924;0,0122398
2381,6567;0,0120236
2382,6208;0,0119018
2383,5852;0,0118754
2384,5493;0,0119268
2385,5137;0,0120271
2386,4778;0,0121454
2387,4421;0,0122567
2388,4063;0,0123466
2389,3706;0,0124122
2390,3347;0,0124578
2391,2991;0,0124911
2392,2632;0,0125181
2393,2275;0,0125413
2394,1917;0,0125602
2395,1560;0,0125741
2396,1201;0,0125835
2397,0845;0,0125903
2398,0486;0,0125954
2399,0129;0,012599
2399,9771;0,0125997
2400,9414;0,0125966
2401,9055;0,0125926
2402,8699;0,0125941
2403,8340;0,0126088
2404,7983;0,01264
2405,7625;0,0126841
2406,7268;0,0127305
2407,6909;0,012767
2408,6553;0,0127858
2409,6194;0,012788
2410,5837;0,0127823
2411,5479;0,0127796
2412,5122;0,0127878
2413,4763;0,0128081
2414,4407;0,0128357
2415,4048;0,0128635
2416,3691;0,0128858
2417,3333;0,0129004
2418,2976;0,0129082
2419,2617;0,0129118
2420,2261;0,012914
2421,1902;0,0129177
2422,1545;0,0129239
2423,1187;0,0129323
2424,0830;0,0129407
2425,0471;0,0129459
2426,0115;0,0129456
2426,9756;0,012941
2427,9399;0,0129366
2428,9041;0,0129389
2429,8684;0,0129526
2430,8325;0,0129782
2431,7969;0,0130114
2432,7610;0,0130457
2433,7253;0,0130753
2434,6895;0,0130977
2435,6538;0,0131131
2436,6179;0,0131238
2437,5823;0,013133
2438,5464;0,013144
2439,5107;0,0131596
2440,4749;0,0131806
2441,4392;0,0132048
2442,4033;0,0132276
2443,3677;0,0132439
2444,3318;0,0132519
2445,2961;0,0132541
2446,2603;0,0132556
2447,2246;0,0132609
2448,1887;0,0132705
2449,1531;0,0132821
2450,1172;0,0132937
2451,0815;0,0133057
2452,0457;0,0133214
2453,0100;0,0133433
2453,9741;0,0133698
2454,9385;0,0133947
2455,9026;0,0134105
2456,8669;0,0134123
2457,8311;0,0134008
2458,7954;0,0133817
2459,7595;0,0133632
2460,7239;0,0133524
2461,6880;0,0133542
2462,6523;0,0133703
2463,6165;0,0133988
2464,5808;0,0134345
2465,5449;0,0134694
2466,5093;0,0134948
2467,4734;0,0135044
2468,4377;0,0134961
2469,4019;0,0134735
2470,3662;0,0134446
2471,3303;0,0134191
2472,2947;0,0134057
2473,2588;0,0134097
2474,2231;0,0134312
2475,1873;0,0134648
2476,1516;0,0135017
2477,1157;0,0135327
2478,0801;0,0135522
2479,0442;0,0135599
2480,0085;0,0135599
2480,9727;0,0135581
2481,9370;0,013559
2482,9011;0,0135645
2483,8655;0,0135741
2484,8296;0,0135865
2485,7939;0,0136
2486,7581;0,0136135
2487,7224;0,0136265
2488,6865;0,0136398
2489,6509;0,0136551
2490,6150;0,0136745
2491,5793;0,0136981
2492,5435;0,0137228
2493,5078;0,0137429
2494,4719;0,0137529
2495,4363;0,0137511
2496,4004;0,0137414
2497,3647;0,0137322
2498,3289;0,0137322
2499,2932;0,0137462
2500,2573;0,0137731
2501,2217;0,0138069
2502,1858;0,0138394
2503,1501;0,0138639
2504,1143;0,0138782
2505,0786;0,0138847
2506,0427;0,0138885
2507,0071;0,0138946
2507,9712;0,0139047
2508,9355;0,0139159
2509,8997;0,0139233
2510,8640;0,0139232
2511,8281;0,0139162
2512,7925;0,0139068
2513,7566;0,0139009
2514,7209;0,0139012
2515,6851;0,0139057
2516,6494;0,0139092
2517,6135;0,0139072
2518,5779;0,0138995
2519,5420;0,0138901
2520,5063;0,0138844
2521,4705;0,0138859
2522,4348;0,0138947
2523,3989;0,0139086
2524,3633;0,013925
2525,3274;0,0139428
2526,2917;0,0139609
2527,2559;0,0139768
2528,2202;0,0139857
2529,1843;0,0139828
2530,1487;0,0139659
2531,1128;0,0139388
2532,0771;0,0139106
2533,0413;0,0138927
2534,0056;0,0138939
2534,9697;0,0139156
2535,9341;0,0139518
2536,8982;0,0139917
2537,8625;0,0140248
2538,8267;0,0140457
2539,7910;0,0140555
2540,7551;0,0140598
2541,7195;0,0140645
2542,6836;0,0140719
2543,6479;0,0140793
2544,6121;0,0140816
2545,5764;0,0140753
2546,5405;0,0140625
2547,5049;0,0140509
2548,4690;0,0140503
2549,4333;0,0140674
2550,3975;0,0141005
2551,3618;0,01414
2552,3259;0,0141713
2553,2903;0,014182
2554,2544;0,0141679
2555,2188;0,0141351
2556,1829;0,0140971
2557,1472;0,0140686
2558,1113;0,0140586
2559,0757;0,0140669
2560,0398;0,0140859
2561,0042;0,0141054
2561,9683;0,0141188
2562,9326;0,0141252
2563,8967;0,0141283
2564,8611;0,0141321
2565,8252;0,0141382
2566,7896;0,0141454
2567,7537;0,0141519
2568,7180;0,0141581
2569,6821;0,014167
2570,6465;0,0141816
2571,6106;0,0142018
2572,5750;0,0142235
2573,5391;0,0142407
2574,5034;0,0142487
2575,4675;0,0142476
2576,4319;0,0142415
2577,3960;0,014236
2578,3604;0,0142348
2579,3245;0,0142391
2580,2888;0,0142478
2581,2529;0,01426
2582,2173;0,0142755
2583,1814;0,014294
2584,1458;0,0143137
2585,1099;0,0143308
2586,0742;0,0143413
2587,0383;0,0143432
2588,0027;0,0143383
2588,9668;0,0143316
2589,9312;0,014329
2590,8953;0,0143342
2591,8596;0,0143468
2592,8237;0,0143628
2593,7881;0,0143773
2594,7522;0,0143869
2595,7166;0,0143915
2596,6807;0,0143939
2597,6450;0,0143978
2598,6091;0,0144064
2599,5735;0,0144216
2600,5376;0,0144435
2601,5020;0,0144711
2602,4661;0,0145024
2603,4304;0,0145334
2604,3945;0,014559
2605,3589;0,0145744
2606,3230;0,0145778
2607,2874;0,0145722
2608,2515;0,0145648
2609,2158;0,0145633
2610,1799;0,0145718
2611,1443;0,0145883
2612,1084;0,0146065
2613,0728;0,0146201
2614,0369;0,014627
2615,0012;0,0146305
2615,9653;0,0146364
2616,9297;0,0146488
2617,8938;0,0146673
2618,8582;0,0146875
2619,8223;0,0147045
2620,7866;0,0147158
2621,7507;0,0147229
2622,7151;0,0147295
2623,6792;0,0147385
2624,6436;0,0147512
2625,6077;0,0147663
2626,5720;0,0147822
2627,5361;0,0147971
2628,5005;0,0148103
2629,4646;0,0148215
2630,4290;0,0148311
2631,3931;0,0148402
2632,3574;0,0148506
2633,3215;0,0148638
2634,2859;0,0148805
2635,2500;0,0148999
2636,2144;0,0149199
2637,1785;0,0149391
2638,1428;0,014957
2639,1069;0,0149749
2640,0713;0,0149942
2641,0354;0,0150153
2641,9998;0,0150369
2642,9639;0,0150566
2643,9282;0,0150722
2644,8923;0,0150828
2645,8567;0,0150894
2646,8208;0,0150936
2647,7852;0,0150976
2648,7493;0,015103
2649,7136;0,0151111
2650,6777;0,0151228
2651,6421;0,0151382
2652,6062;0,0151559
2653,5706;0,0151731
2654,5347;0,0151865
2655,4990;0,0151939
2656,4631;0,0151959
2657,4275;0,0151959
2658,3916;0,0151981
2659,3560;0,0152054
2660,3201;0,0152178
2661,2844;0,0152327
2662,2485;0,0152472
2663,2129;0,0152597
2664,1770;0,0152712
2665,1414;0,015284
2666,1055;0,0152996
2667,0698;0,0153175
2668,0339;0,0153349
2668,9983;0,0153488
2669,9624;0,0153576
2670,9268;0,015362
2671,8909;0,015365
2672,8552;0,0153697
2673,8193;0,0153788
2674,7837;0,0153931
2675,7478;0,0154112
2676,7122;0,0154306
2677,6763;0,0154488
2678,6406;0,0154645
2679,6047;0,0154788
2680,5691;0,0154942
2681,5332;0,0155137
2682,4976;0,0155383
2683,4617;0,0155665
2684,4260;0,0155946
2685,3901;0,0156188
2686,3545;0,0156376
2687,3186;0,0156518
2688,2830;0,0156647
2689,2471;0,0156794
2690,2114;0,0156979
2691,1755;0,01572
2692,1399;0,0157442
2693,1040;0,0157686
2694,0684;0,0157913
2695,0325;0,0158113
2695,9968;0,0158279
2696,9609;0,0158409
2697,9253;0,0158509
2698,8894;0,0158592
2699,8538;0,0158677
2700,8179;0,0158786
2701,7822;0,0158942
2702,7463;0,0159157
2703,7107;0,0159428
2704,6748;0,0159734
2705,6392;0,0160039
2706,6033;0,0160309
2707,5676;0,0160527
2708,5317;0,0160698
2709,4961;0,0160845
2710,4602;0,0160995
2711,4246;0,0161159
2712,3887;0,0161336
2713,3530;0,0161527
2714,3171;0,0161742
2715,2815;0,0162006
2716,2456;0,0162336
2717,2100;0,0162724
2718,1741;0,0163122
2719,1384;0,0163469
2720,1025;0,0163717
2721,0669;0,0163857
2722,0310;0,0163919
2722,9954;0,0163945
2723,9595;0,0163971
2724,9238;0,0164017
2725,8879;0,0164095
2726,8523;0,0164227
2727,8164;0,016444
2728,7808;0,0164747
2729,7449;0,0165126
2730,7092;0,0165516
2731,6733;0,0165839
2732,6377;0,0166037
2733,6018;0,0166099
2734,5662;0,0166063
2735,5303;0,016599
2736,4946;0,0165931
2737,4587;0,0165917
2738,4231;0,0165952
2739,3872;0,0166038
2740,3516;0,0166181
2741,3157;0,0166389
2742,2800;0,0166658
2743,2441;0,0166962
2744,2085;0,0167257
2745,1726;0,0167495
2746,1370;0,0167648
2747,1011;0,0167721
2748,0654;0,0167749
2749,0295;0,0167781
2749,9939;0,0167859
2750,9580;0,0168002
2751,9224;0,0168201
2752,8865;0,016843
2753,8508;0,0168657
2754,8149;0,0168865
2755,7793;0,0169055
2756,7434;0,016925
2757,7078;0,0169482
2758,6719;0,0169773
2759,6362;0,017012
2760,6003;0,017049
2761,5647;0,0170829
2762,5288;0,0171083
2763,4932;0,0171231
2764,4573;0,0171295
2765,4216;0,0171339
2766,3857;0,017144
2767,3501;0,0171655
2768,3142;0,0171991
2769,2786;0,0172403
2770,2427;0,0172818
2771,2070;0,017317
2772,1711;0,0173429
2773,1355;0,0173616
2774,0996;0,0173779
2775,0640;0,0173972
2776,0281;0,0174226
2776,9924;0,0174544
2777,9565;0,0174911
2778,9209;0,017531
2779,8850;0,0175733
2780,8494;0,0176176
2781,8135;0,0176634
2782,7778;0,0177084
2783,7419;0,0177493
2784,7063;0,0177827
2785,6704;0,0178069
2786,6348;0,0178234
2787,5989;0,0178368
2788,5632;0,0178536
2789,5273;0,0178798
2790,4917;0,0179185
2791,4558;0,0179689
2792,4202;0,0180273
2793,3843;0,0180884
2794,3486;0,0181478
2795,3127;0,0182033
2796,2771;0,0182547
2797,2412;0,018303
2798,2056;0,0183491
2799,1697;0,0183936
2800,1340;0,018437
2801,0981;0,0184808
2802,0625;0,018528
2803,0266;0,0185822
2803,9910;0,0186462
2804,9551;0,0187202
2805,9194;0,0188009
2806,8835;0,0188826
2807,8479;0,0189596
2808,8120;0,0190285
2809,7764;0,01909
2810,7405;0,0191479
2811,7048;0,0192077
2812,6689;0,0192736
2813,6333;0,0193475
2814,5974;0,0194292
2815,5618;0,0195171
2816,5259;0,0196096
2817,4902;0,0197058
2818,4543;0,0198052
2819,4187;0,0199071
2820,3828;0,0200103
2821,3472;0,0201133
2822,3113;0,020215
2823,2756;0,0203157
2824,2397;0,0204167
2825,2041;0,0205207
2826,1682;0,0206314
2827,1326;0,0207527
2828,0967;0,020888
2829,0610;0,021039
2830,0251;0,0212049
2830,9895;0,0213827
2831,9536;0,0215676
2832,9180;0,0217552
2833,8821;0,0219423
2834,8464;0,0221281
2835,8105;0,0223143
2836,7749;0,0225049
2837,7390;0,0227065
2838,7034;0,0229272
2839,6675;0,0231758
2840,6318;0,0234591
2841,5959;0,0237799
2842,5603;0,0241355
2843,5244;0,0245176
2844,4888;0,0249136
2845,4529;0,0253081
2846,4172;0,0256843
2847,3813;0,0260245
2848,3457;0,0263125
2849,3098;0,0265357
2850,2742;0,0266878
2851,2383;0,0267712
2852,2026;0,0267961
2853,1667;0,026777
2854,1311;0,0267285
2855,0952;0,0266625
2856,0596;0,0265869
2857,0237;0,0265074
2857,9880;0,0264299
2858,9521;0,0263614
2859,9165;0,0263094
2860,8806;0,02628
2861,8450;0,0262761
2862,8091;0,0262972
2863,7734;0,0263402
2864,7375;0,0264015
2865,7019;0,0264779
2866,6660;0,0265665
2867,6304;0,0266633
2868,5945;0,0267625
2869,5588;0,0268559
2870,5229;0,0269351
2871,4873;0,0269938
2872,4514;0,0270306
2873,4158;0,0270493
2874,3799;0,0270584
2875,3442;0,0270678
2876,3083;0,0270858
2877,2727;0,0271164
2878,2368;0,0271591
2879,2012;0,0272101
2880,1653;0,0272651
2881,1296;0,0273218
2882,0938;0,0273808
2883,0581;0,0274455
2884,0222;0,0275196
2884,9866;0,0276046
2885,9507;0,0276989
2886,9150;0,0277976
2887,8792;0,0278949
2888,8435;0,0279863
2889,8076;0,0280707
2890,7720;0,0281506
2891,7361;0,02823
2892,7004;0,0283133
2893,6646;0,0284024
2894,6289;0,028497
2895,5930;0,0285945
2896,5574;0,0286917
2897,5215;0,028787
2898,4858;0,0288801
2899,4500;0,0289719
2900,4143;0,0290628
2901,3784;0,0291522
2902,3428;0,0292383
2903,3069;0,0293213
2904,2712;0,0294041
2905,2354;0,0294934
2906,1997;0,0295967
2907,1638;0,0297202
2908,1282;0,0298661
2909,0923;0,0300339
2910,0566;0,0302217
2911,0208;0,0304277
2911,9851;0,0306489
2912,9492;0,0308784
2913,9136;0,0311039
2914,8777;0,0313088
2915,8420;0,0314773
2916,8062;0,0315994
2917,7705;0,0316732
2918,7346;0,0317032
2919,6990;0,0316952
2920,6631;0,0316528
2921,6274;0,0315765
2922,5916;0,0314668
2923,5559;0,0313264
2924,5200;0,0311612
2925,4844;0,0309778
2926,4485;0,0307808
2927,4128;0,0305715
2928,3770;0,03035
2929,3413;0,0301175
2930,3054;0,0298782
2931,2698;0,0296384
2932,2339;0,029403
2933,1982;0,029173
2934,1624;0,0289459
2935,1267;0,028718
2936,0908;0,0284874
2937,0552;0,028256
2938,0193;0,028028
2938,9836;0,0278074
2939,9478;0,0275962
2940,9121;0,027393
2941,8762;0,0271949
2942,8406;0,0269987
2943,8047;0,0268027
2944,7690;0,0266075
2945,7332;0,0264158
2946,6975;0,0262319
2947,6616;0,0260607
2948,6260;0,0259065
2949,5901;0,0257716
2950,5544;0,0256549
2951,5186;0,0255521
2952,4829;0,0254569
2953,4470;0,0253625
2954,4114;0,0252633
2955,3755;0,0251556
2956,3398;0,0250378
2957,3040;0,0249094
2958,2683;0,0247712
2959,2324;0,0246253
2960,1968;0,0244746
2961,1609;0,0243223
2962,1252;0,024171
2963,0894;0,0240213
2964,0537;0,0238721
2965,0178;0,0237206
2965,9822;0,0235642
2966,9463;0,0234019
2967,9106;0,0232347
2968,8748;0,0230654
2969,8391;0,0228976
2970,8032;0,0227338
2971,7676;0,0225752
2972,7317;0,0224221
2973,6960;0,0222747
2974,6602;0,0221341
2975,6245;0,0220023
2976,5886;0,0218811
2977,5530;0,0217705
2978,5171;0,0216686
2979,4814;0,0215714
2980,4456;0,0214752
2981,4099;0,0213783
2982,3740;0,021282
2983,3384;0,0211903
2984,3025;0,0211081
2985,2668;0,0210393
2986,2310;0,020985
2987,1953;0,0209429
2988,1594;0,0209083
2989,1238;0,0208763
2990,0879;0,0208436
2991,0522;0,0208097
2992,0164;0,020777
2992,9807;0,0207491
2993,9448;0,0207291
2994,9092;0,0207181
2995,8733;0,020715
2996,8376;0,0207179
2997,8018;0,0207247
2998,7661;0,020734
2999,7302;0,020745
3000,6946;0,0207576
3001,6587;0,0207718
3002,6230;0,0207874
3003,5872;0,0208038
3004,5515;0,0208199
3005,5156;0,020834
3006,4800;0,0208443
3007,4441;0,0208504
3008,4084;0,0208532
3009,3726;0,0208552
3010,3369;0,0208589
3011,3010;0,0208664
3012,2654;0,020879
3013,2295;0,0208971
3014,1938;0,020921
3015,1580;0,0209508
3016,1223;0,0209856
3017,0864;0,0210235
3018,0508;0,0210621
3019,0149;0,0210992
3019,9792;0,0211345
3020,9434;0,0211697
3021,9077;0,0212075
3022,8718;0,0212501
3023,8362;0,0212973
3024,8003;0,0213471
3025,7646;0,0213963
3026,7288;0,0214425
3027,6931;0,0214847
3028,6572;0,0215236
3029,6216;0,0215609
3030,5857;0,0215985
3031,5500;0,0216377
3032,5142;0,0216798
3033,4785;0,0217254
3034,4426;0,0217752
3035,4070;0,0218292
3036,3711;0,0218865
3037,3354;0,0219453
3038,2996;0,0220039
3039,2639;0,0220612
3040,2280;0,022118
3041,1924;0,0221761
3042,1565;0,0222376
3043,1208;0,0223025
3044,0850;0,0223688
3045,0493;0,0224335
3046,0134;0,0224949
3046,9778;0,0225546
3047,9419;0,0226171
3048,9063;0,0226869
3049,8704;0,0227654
3050,8347;0,022849
3051,7988;0,0229305
3052,7632;0,0230035
3053,7273;0,0230662
3054,6917;0,0231227
3055,6558;0,0231809
3056,6201;0,0232476
3057,5842;0,0233246
3058,5486;0,0234074
3059,5127;0,0234889
3060,4771;0,0235626
3061,4412;0,0236264
3062,4055;0,0236823
3063,3696;0,023735
3064,3340;0,0237893
3065,2981;0,0238484
3066,2625;0,0239137
3067,2266;0,023985
3068,1909;0,0240611
3069,1550;0,0241402
3070,1194;0,0242198
3071,0835;0,0242978
3072,0479;0,0243722
3073,0120;0,0244422
3073,9763;0,0245077
3074,9404;0,0245691
3075,9048;0,0246278
3076,8689;0,0246853
3077,8333;0,0247432
3078,7974;0,0248028
3079,7617;0,0248649
3080,7258;0,0249299
3081,6902;0,0249982
3082,6543;0,0250705
3083,6187;0,0251467
3084,5828;0,0252252
3085,5471;0,0253024
3086,5112;0,0253741
3087,4756;0,0254382
3088,4397;0,0254958
3089,4041;0,0255507
3090,3682;0,0256075
3091,3325;0,0256686
3092,2966;0,0257338
3093,2610;0,0258015
3094,2251;0,0258707
3095,1895;0,025941
3096,1536;0,0260119
3097,1179;0,026081
3098,0820;0,0261451
3099,0464;0,0262033
3100,0105;0,0262588
3100,9749;0,0263192
3101,9390;0,0263919
3102,9033;0,0264792
3103,8674;0,0265765
3104,8318;0,0266754
3105,7959;0,0267696
3106,7603;0,0268581
3107,7244;0,0269449
3108,6887;0,0270339
3109,6528;0,0271244
3110,6172;0,0272101
3111,5813;0,027284
3112,5457;0,0273435
3113,5098;0,0273939
3114,4741;0,027446
3115,4382;0,0275103
3116,4026;0,0275909
3117,3667;0,0276836
3118,3311;0,0277792
3119,2952;0,0278685
3120,2595;0,027947
3121,2236;0,0280168
3122,1880;0,0280847
3123,1521;0,0281588
3124,1165;0,0282447
3125,0806;0,0283437
3126,0449;0,0284515
3127,0090;0,0285603
3127,9734;0,0286616
3128,9375;0,0287495
3129,9019;0,0288234
3130,8660;0,0288886
3131,8303;0,0289548
3132,7944;0,0290315
3133,7588;0,0291242
3134,7229;0,0292316
3135,6873;0,0293467
3136,6514;0,0294599
3137,6157;0,0295642
3138,5798;0,029657
3139,5442;0,0297409
3140,5083;0,0298207
3141,4727;0,029901
3142,4368;0,0299841
3143,4011;0,0300706
3144,3652;0,0301604
3145,3296;0,0302539
3146,2937;0,030352
3147,2581;0,0304549
3148,2222;0,0305615
3149,1865;0,0306694
3150,1506;0,0307759
3151,1150;0,0308791
3152,0791;0,0309784
3153,0435;0,0310746
3154,0076;0,0311693
3154,9719;0,0312643
3155,9360;0,0313608
3156,9004;0,031459
3157,8645;0,031558
3158,8289;0,0316569
3159,7930;0,0317554
3160,7573;0,0318546
3161,7214;0,0319567
3162,6858;0,0320631
3163,6499;0,0321732
3164,6143;0,0322839
3165,5784;0,0323916
3166,5427;0,0324936
3167,5068;0,0325905
3168,4712;0,0326853
3169,4353;0,0328118
3170,3997;0,0329127
3171,3638;0,0330181
3172,3281;0,033126
3173,2922;0,0332328
3174,2566;0,0333354
3175,2207;0,0334323
3176,1851;0,0335249
3177,1492;0,033617
3178,1135;0,0337132
3179,0776;0,0338161
3180,0420;0,0339247
3181,0061;0,0340353
3181,9705;0,0341429
3182,9346;0,0342445
3183,8989;0,0343392
3184,8630;0,0344278
3185,8274;0,0345119
3186,7915;0,0345933
3187,7559;0,0346749
3188,7200;0,034761
3189,6843;0,0348557
3190,6484;0,0349604
3191,6128;0,0350718
3192,5769;0,035183
3193,5413;0,0352878
3194,5054;0,0353843
3195,4697;0,0354755
3196,4338;0,0355668
3197,3982;0,0356616
3198,3623;0,035759
3199,3267;0,0358553
3200,2908;0,0359483
3201,2551;0,0360391
3202,2192;0,036131
3203,1836;0,0362262
3204,1477;0,0363236
3205,1121;0,0364191
3206,0762;0,0365098
3207,0405;0,0365965
3208,0046;0,0366833
3208,9690;0,036775
3209,9331;0,0368725
3210,8975;0,0369729
3211,8616;0,0370712
3212,8259;0,0371645
3213,7900;0,0372537
3214,7544;0,0373413
3215,7185;0,0374292
3216,6829;0,0375162
3217,6470;0,0375998
3218,6113;0,0376794
3219,5754;0,0377581
3220,5398;0,0378418
3221,5039;0,0379348
3222,4683;0,0380363
3223,4324;0,0381402
3224,3967;0,0382382
3225,3608;0,0383255
3226,3252;0,0384031
3227,2893;0,0384779
3228,2537;0,0385578
3229,2178;0,0386471
3230,1821;0,0387446
3231,1462;0,0388447
3232,1106;0,0389413
3233,0747;0,0390317
3234,0391;0,0391173
3235,0032;0,0392028
3235,9675;0,0392928
3236,9316;0,03939
3237,8960;0,0394935
3238,8601;0,0396002
3239,8245;0,0397061
3240,7886;0,0398083
3241,7529;0,0399057
3242,7170;0,0399988
3243,6814;0,0400894
3244,6455;0,0401799
3245,6099;0,0402727
3246,5740;0,0403698
3247,5383;0,0404727
3248,5024;0,040581
3249,4668;0,0406921
3250,4309;0,0408019
3251,3953;0,0409064
3252,3594;0,0410039
3253,3237;0,0410967
3254,2878;0,0411906
3255,2522;0,041292
3256,2163;0,0414043
3257,1807;0,0415257
3258,1448;0,0416504
3259,1091;0,041772
3260,0732;0,0418874
3261,0376;0,0419973
3262,0017;0,0421053
3262,9661;0,042214
3263,9302;0,0423229
3264,8945;0,0424289
3265,8586;0,042529
3266,8230;0,0426228
3267,7871;0,0427122
3268,7515;0,0427983
3269,7156;0,0428792
3270,6799;0,0429497
3271,6440;0,0430051
3272,6084;0,0430458
3273,5725;0,0430784
3274,5369;0,0431134
3275,5010;0,0431586
3276,4653;0,0432149
3277,4294;0,0432768
3278,3938;0,0433364
3279,3579;0,0433887
3280,3223;0,0434338
3281,2864;0,0434743
3282,2507;0,0435126
3283,2148;0,0435482
3284,1792;0,0435783
3285,1433;0,0436007
3286,1077;0,0436154
3287,0718;0,0436247
3288,0361;0,0436318
3289,0002;0,0436392
3289,9646;0,0436484
3290,9287;0,0436601
3291,8931;0,0436747
3292,8572;0,0436917
3293,8215;0,0437091
3294,7856;0,043724
3295,7500;0,0437344
3296,7141;0,0437399
3297,6785;0,0437425
3298,6426;0,0437456
3299,6069;0,0437518
3300,5710;0,0437612
3301,5354;0,0437707
3302,4995;0,0437755
3303,4639;0,0437702
3304,4280;0,0437519
3305,3923;0,0437213
3306,3564;0,0436841
3307,3208;0,0436494
3308,2849;0,0436267
3309,2493;0,0436215
3310,2134;0,0436332
3311,1777;0,0436551
3312,1418;0,0436783
3313,1062;0,0436968
3314,0703;0,0437097
3315,0347;0,043722
3315,9988;0,0437407
3316,9631;0,0437713
3317,9272;0,0438147
3318,8916;0,0438673
3319,8557;0,0439226
3320,8201;0,0439737
3321,7842;0,0440165
3322,7485;0,0440503
3323,7126;0,0440784
3324,6770;0,0441057
3325,6411;0,0441363
3326,6055;0,0441713
3327,5696;0,0442089
3328,5339;0,0442463
3329,4980;0,0442822
3330,4624;0,0443179
3331,4265;0,0443555
3332,3909;0,0443943
3333,3550;0,0444296
3334,3193;0,0444533
3335,2834;0,0444586
3336,2478;0,0444437
3337,2119;0,0444133
3338,1763;0,0443747
3339,1404;0,0443334
3340,1047;0,0442899
3341,0688;0,0442406
3342,0332;0,0441811
3342,9973;0,0441109
3343,9617;0,0440331
3344,9258;0,0439537
3345,8901;0,0438771
3346,8542;0,0438043
3347,8186;0,0437317
3348,7827;0,0436536
3349,7471;0,0435646
3350,7112;0,0434623
3351,6755;0,0433484
3352,6396;0,043228
3353,6040;0,0431077
3354,5681;0,0429929
3355,5325;0,0428865
3356,4966;0,0427888
3357,4609;0,0426994
3358,4250;0,0426178
3359,3894;0,042544
3360,3535;0,0424774
3361,3179;0,0424156
3362,2820;0,0423552
3363,2463;0,0422927
3364,2104;0,0422258
3365,1748;0,0421537
3366,1389;0,042076
3367,1033;0,041992
3368,0674;0,0419012
3369,0317;0,0418049
3369,9958;0,0417069
3370,9602;0,0416128
3371,9243;0,0415271
3372,8887;0,0414499
3373,8528;0,0413772
3374,8171;0,0413026
3375,7813;0,0412222
3376,7456;0,0411374
3377,7097;0,0410544
3378,6741;0,0409796
3379,6382;0,0409142
3380,6025;0,040852
3381,5667;0,0407832
3382,5310;0,0407009
3383,4951;0,0406071
3384,4595;0,0405131
3385,4236;0,0404325
3386,3879;0,0403721
3387,3521;0,0403256
3388,3164;0,0402774
3389,2805;0,0402112
3390,2449;0,0401201
3391,2090;0,0400111
3392,1733;0,0399001
3393,1375;0,0398029
3394,1018;0,0397264
3395,0659;0,0396671
3396,0303;0,0396155
3396,9944;0,0395623
3397,9587;0,0395017
3398,9229;0,0394318
3399,8872;0,0393523
3400,8513;0,0392637
3401,8157;0,0391672
3402,7798;0,0390651
3403,7441;0,0389609
3404,7083;0,038858
3405,6726;0,0387589
3406,6367;0,0386651
3407,6011;0,0385762
3408,5652;0,0384899
3409,5295;0,0384017
3410,4937;0,0383064
3411,4580;0,0382013
3412,4221;0,0380887
3413,3865;0,0379749
3414,3506;0,0378669
3415,3149;0,0377666
3416,2791;0,0376689
3417,2434;0,0375639
3418,2075;0,0374432
3419,1719;0,0373058
3420,1360;0,0371594
3421,1003;0,0370166
3422,0645;0,036888
3423,0288;0,036777
3423,9929;0,0366794
3424,9573;0,0365863
3425,9214;0,0364889
3426,8857;0,0363827
3427,8499;0,0362689
3428,8142;0,0361537
3429,7783;0,036044
3430,7427;0,0359427
3431,7068;0,0358457
3432,6711;0,035744
3433,6353;0,0356294
3434,5996;0,0354997
3435,5637;0,0353598
3436,5281;0,0352189
3437,4922;0,0350842
3438,4565;0,0349583
3439,4207;0,0348395
3440,3850;0,0347244
3441,3491;0,0346091
3442,3135;0,0344895
3443,2776;0,0343605
3444,2419;0,0342184
3445,2061;0,0340647
3446,1704;0,0339087
3447,1345;0,0337648
3448,0989;0,0336433
3449,0630;0,0335437
3450,0273;0,0334548
3450,9915;0,0333623
3451,9558;0,0332563
3452,9199;0,0331359
3453,8843;0,0330069
3454,8484;0,0328757
3455,8127;0,0327443
3456,7769;0,0326098
3457,7412;0,0324686
3458,7053;0,0323209
3459,6697;0,0321725
3460,6338;0,0320321
3461,5981;0,0319055
3462,5623;0,0317917
3463,5266;0,0316829
3464,4907;0,0315685
3465,4551;0,0314408
3466,4192;0,031299
3467,3835;0,0311494
3468,3477;0,0310012
3469,3120;0,0308615
3470,2761;0,0307311
3471,2405;0,0306065
3472,2046;0,0304841
3473,1689;0,0303643
3474,1331;0,0302507
3475,0974;0,030146
3476,0615;0,0300454
3477,0259;0,0299368
3477,9900;0,0298064
3478,9543;0,0296486
3479,9185;0,0294723
3480,8828;0,0292974
3481,8469;0,0291438
3482,8113;0,0290174
3483,7754;0,0289072
3484,7397;0,0287944
3485,7039;0,0286657
3486,6682;0,028522
3487,6323;0,0283777
3488,5967;0,0282509
3489,5608;0,0281508
3490,5251;0,0280715
3491,4893;0,0279957
3492,4536;0,0279041
3493,4177;0,027786
3494,3821;0,0276447
3495,3462;0,0274952
3496,3105;0,027355
3497,2747;0,027232
3498,2390;0,0271193
3499,2031;0,0269989
3500,1675;0,0268545
3501,1316;0,0266843
3502,0959;0,0265072
3503,0601;0,0263523
3504,0244;0,0262389
3504,9885;0,0261612
3505,9529;0,0260935
3506,9170;0,0260057
3507,8813;0,0258796
3508,8455;0,025718
3509,8098;0,0255414
3510,7739;0,0253741
3511,7383;0,0252301
3512,7024;0,0251088
3513,6667;0,0250021
3514,6309;0,0249037
3515,5952;0,0248121
3516,5593;0,0247283
3517,5237;0,0246504
3518,4878;0,0245707
3519,4521;0,0244785
3520,4163;0,0243662
3521,3806;0,0242336
3522,3447;0,0240882
3523,3091;0,0239395
3524,2732;0,0237918
3525,2375;0,0236419
3526,2017;0,023484
3527,1660;0,0233181
3528,1301;0,0231544
3529,0945;0,0230089
3530,0586;0,0228931
3531,0229;0,022806
3531,9871;0,022734
3532,9514;0,0226571
3533,9155;0,0225584
3534,8799;0,0224322
3535,8440;0,0222878
3536,8083;0,0221453
3537,7725;0,0220246
3538,7368;0,0219351
3539,7009;0,0218721
3540,6653;0,0218183
3541,6294;0,0217496
3542,5938;0,0216436
3543,5579;0,0214914
3544,5222;0,0213073
3545,4863;0,0211236
3546,4507;0,0209699
3547,4148;0,0208537
3548,3792;0,020759
3549,3433;0,0206593
3550,3076;0,0205338
3551,2717;0,020378
3552,2361;0,0202079
3553,2002;0,0200497
3554,1646;0,0199226
3555,1287;0,0198275
3556,0930;0,0197503
3557,0571;0,0196737
3558,0215;0,0195887
3558,9856;0,0195011
3559,9500;0,0194272
3560,9141;0,0193796
3561,8784;0,0193528
3562,8425;0,0193164
3563,8069;0,0192214
3564,7710;0,0190235
3565,7354;0,0187245
3566,6995;0,0183939
3567,6638;0,0181215
3568,6279;0,0179439
3569,5923;0,0178392
3570,5564;0,0177681
3571,5208;0,0177004
3572,4849;0,0176184
3573,4492;0,0175166
3574,4133;0,0173995
3575,3777;0,0172753
3576,3418;0,0171478
3577,3062;0,0170158
3578,2703;0,01688
3579,2346;0,0167522
3580,1987;0,0166529
3581,1631;0,0165983
3582,1272;0,0165837
3583,0916;0,0165738
3584,0557;0,0165074
3585,0200;0,0163224
3585,9841;0,0160044
3586,9485;0,0156244
3587,9126;0,0152967
3588,8770;0,0150821
3589,8411;0,0149571
3590,8054;0,0148611
3591,7695;0,0147419
3592,7339;0,0145759
3593,6980;0,0143759
3594,6624;0,0141799
3595,6265;0,0140173
3596,5908;0,0138833
3597,5549;0,0137508
3598,5193;0,0136047
3599,4834;0,0134654
3600,4478;0,0133785
3601,4119;0,0133789
3602,3762;0,013461
3603,3403;0,0135813
3604,3047;0,0136848
3605,2688;0,0137319
3606,2332;0,0137185
3607,1973;0,0136792
3608,1616;0,0136604
3609,1257;0,013678
3610,0901;0,0137037
3611,0542;0,0136939
3612,0186;0,0136266
3612,9827;0,0135145
3613,9470;0,0133875
3614,9111;0,0132622
3615,8755;0,0131201
3616,8396;0,0129144
3617,8040;0,0126068
3618,7681;0,0122155
3619,7324;0,0118266
3620,6965;0,0115407
3621,6609;0,0114109
3622,6250;0,0114326
3623,5894;0,0115632
3624,5535;0,0117309
3625,5178;0,0118334
3626,4819;0,0117609
3627,4463;0,0114745
3628,4104;0,0110886
3629,3748;0,0107934
3630,3389;0,0106697
3631,3032;0,0106696
3632,2673;0,0107219
3633,2317;0,0107836
3634,1958;0,0108389
3635,1602;0,0108878
3636,1243;0,0109368
3637,0886;0,0109901
3638,0527;0,0110476
3639,0171;0,0111098
3639,9812;0,0111855
3640,9456;0,0112941
3641,9097;0,0114573
3642,8740;0,0116843
3643,8381;0,0119562
3644,8025;0,0122108
3645,7666;0,0123338
3646,7310;0,0121863
3647,6951;0,0117254
3648,6594;0,0111506
3649,6235;0,010773
3650,5879;0,010686
3651,5520;0,0107703
3652,5164;0,010892
3653,4805;0,0109656
3654,4448;0,010943
3655,4089;0,0108194
3656,3733;0,0106443
3657,3374;0,010492
3658,3018;0,0104068
3659,2659;0,0103832
3660,2302;0,0103912
3661,1943;0,0104097
3662,1587;0,0104422
3663,1228;0,0105096
3664,0872;0,0106268
3665,0513;0,0107784
3666,0156;0,0109124
3666,9797;0,0109577
3667,9441;0,0108747
3668,9082;0,0107113
3669,8726;0,0105833
3670,8367;0,0105611
3671,8010;0,0106
3672,7651;0,0105803
3673,7295;0,010386
3674,6936;0,0099964
3675,6580;0,00954052
3676,6221;0,00919875
3677,5864;0,00903856
3678,5505;0,00901167
3679,5149;0,00905052
3680,4790;0,00911724
3681,4434;0,00920456
3682,4075;0,00932244
3683,3718;0,00947933
3684,3359;0,00966141
3685,3003;0,00981679
3686,2644;0,00985476
3687,2288;0,00968032
3688,1929;0,00927719
3689,1572;0,00877176
3690,1213;0,00834958
3691,0857;0,00809802
3692,0498;0,00798752
3693,0142;0,007956
3693,9783;0,00796128
3694,9426;0,00798662
3695,9067;0,00802859
3696,8711;0,00808113
3697,8352;0,00812318
3698,7996;0,00811889
3699,7637;0,00803659
3700,7280;0,00788035
3701,6921;0,00770627
3702,6565;0,00759583
3703,6206;0,00760446
3704,5850;0,00773539
3705,5491;0,00794917
3706,5134;0,00818197
3707,4775;0,00836024
3708,4419;0,00842438
3709,4060;0,00837339
3710,3704;0,00829569
3711,3345;0,00830661
3712,2988;0,00843046
3713,2629;0,00859505
3714,2273;0,00872236
3715,1914;0,00877377
3716,1558;0,00873857
3717,1199;0,00861778
3718,0842;0,00842254
3719,0483;0,00817777
3720,0127;0,00791611
3720,9768;0,0076609
3721,9412;0,00741541
3722,9053;0,00717424
3723,8696;0,00694887
3724,8337;0,00677975
3725,7981;0,00671752
3726,7622;0,00679055
3727,7266;0,0069912
3728,6907;0,00728479
3729,6550;0,00762107
3730,6191;0,00793658
3731,5835;0,00815491
3732,5476;0,00820334
3733,5120;0,00806251
3734,4761;0,00782243
3735,4404;0,00765207
3736,4045;0,0076717
3737,3689;0,00789061
3738,3330;0,00826111
3739,2974;0,00872928
3740,2615;0,00923337
3741,2258;0,00968594
3742,1899;0,00998304
3743,1543;0,0100696
3744,1184;0,0100167
3745,0828;0,00997738
3746,0469;0,0100375
3747,0112;0,0101611
3747,9753;0,0102408
3748,9397;0,0101653
3749,9038;0,0099103
3750,8682;0,00960393
3751,8323;0,00941952
3752,7966;0,0094057
3753,7607;0,00949869
3754,7251;0,00961587
3755,6892;0,00969021
3756,6536;0,00967931
3757,6177;0,00958691
3758,5820;0,00947255
3759,5461;0,009413
3760,5105;0,00944506
3761,4746;0,00955213
3762,4390;0,00969171
3763,4031;0,00982209
3764,3674;0,00991393
3765,3315;0,00995217
3766,2959;0,00993259
3767,2600;0,00985755
3768,2244;0,00973793
3769,1885;0,00960053
3770,1528;0,0094878
3771,1169;0,00944035
3772,0813;0,00947443
3773,0454;0,00957482
3774,0098;0,0097031
3774,9739;0,00981018
3775,9382;0,00985071
3776,9023;0,00980451
3777,8667;0,00969669
3778,8308;0,00958869
3779,7952;0,00953301
3780,7593;0,00953605
3781,7236;0,00956615
3782,6877;0,00958609
3783,6521;0,00957635
3784,6162;0,00954034
3785,5806;0,00949625
3786,5447;0,0094643
3787,5090;0,00945846
3788,4731;0,00948569
3789,4375;0,00954732
3790,4016;0,0096373
3791,3660;0,00973982
3792,3301;0,00983243
3793,2944;0,00989757
3794,2585;0,00993661
3795,2229;0,00997175
3796,1870;0,010026
3797,1514;0,0100942
3798,1155;0,0101331
3799,0798;0,010088
3800,0439;0,00994645
3801,0083;0,00977246
3801,9724;0,00966103
3802,9368;0,0096501
3803,9009;0,00969532
3804,8652;0,00971757
3805,8293;0,0096638
3806,7937;0,00955001
3807,7578;0,00945639
3808,7222;0,00946377
3809,6863;0,00959606
3810,6506;0,00981974
3811,6147;0,010069
3812,5791;0,0102669
3813,5432;0,0103541
3814,5076;0,0103295
3815,4717;0,0102576
3816,4360;0,0102074
3817,4001;0,0101825
3818,3645;0,0101261
3819,3286;0,00998576
3820,2930;0,0097759
3821,2571;0,00957734
3822,2214;0,00946338
3823,1855;0,00944444
3824,1499;0,00948809
3825,1140;0,00955936
3826,0784;0,00963745
3827,0425;0,00971507
3828,0068;0,00979248
3828,9709;0,00987116
3829,9353;0,00995156
3830,8994;0,0100352
3831,8638;0,0101257
3832,8279;0,0102229
3833,7922;0,0103117
3834,7563;0,0103564
3835,7207;0,0103125
3836,6848;0,0101579
3837,6492;0,00992486
3838,6133;0,00969093
3839,5776;0,00952416
3840,5417;0,00944102
3841,5061;0,00941786
3842,4702;0,00942649
3843,4346;0,00945737
3844,3987;0,00952278
3845,3630;0,00964696
3846,3271;0,00985233
3847,2915;0,0101474
3848,2556;0,0105143
3849,2200;0,0108906
3850,1841;0,0111508
3851,1484;0,0111242
3852,1125;0,0107238
3853,0769;0,0101303
3854,0410;0,00967388
3855,0054;0,00948124
3855,9695;0,00948129
3856,9338;0,00959153
3857,8979;0,00976115
3858,8623;0,00994325
3859,8264;0,0100821
3860,7908;0,0101291
3861,7549;0,0100771
3862,7192;0,0099818
3863,6833;0,00993026
3864,6477;0,00997395
3865,6118;0,0100967
3866,5762;0,010237
3867,5403;0,0103244
3868,5046;0,0103083
3869,4688;0,0101795
3870,4331;0,00997842
3871,3972;0,00977619
3872,3616;0,00963784
3873,3257;0,00959721
3874,2900;0,0096544
3875,2542;0,00978413
3876,2185;0,00994478
3877,1826;0,0100888
3878,1470;0,0101779
3879,1111;0,010201
3880,0754;0,0101798
3881,0396;0,0101468
3882,0039;0,0101164
3882,9680;0,01008
3883,9324;0,0100302
3884,8965;0,00998274
3885,8608;0,00996714
3886,8250;0,00999567
3887,7893;0,010044
3888,7534;0,0100617
3889,7178;0,010005
3890,6819;0,00987716
3891,6462;0,00974546
3892,6104;0,00969746
3893,5747;0,0097727
3894,5388;0,00994783
3895,5032;0,0101686
3896,4673;0,0103778
3897,4316;0,0105297
3898,3958;0,0106006
3899,3601;0,0105905
3900,3242;0,0105089
3901,2886;0,0103604
3902,2527;0,0101551
3903,2170;0,00992921
3904,1812;0,00973717
3905,1455;0,00961897
3906,1096;0,00957948
3907,0740;0,0095983
3908,0381;0,00964957
3909,0024;0,00971476
3909,9666;0,00978653
3910,9309;0,00986601
3911,8950;0,00995472
3912,8594;0,0100454
3913,8235;0,0101187
3914,7878;0,0101507
3915,7520;0,0101286
3916,7163;0,0100649
3917,6804;0,00999364
3918,6448;0,00994663
3919,6089;0,00993237
3920,5732;0,00993628
3921,5374;0,00993552
3922,5017;0,00991597
3923,4658;0,00988339
3924,4302;0,00986076
3925,3943;0,00987006
3926,3586;0,00991395
3927,3228;0,00997277
3928,2871;0,0100155
3929,2512;0,0100154
3930,2156;0,00996532
3931,1797;0,00988432
3932,1440;0,00980655
3933,1082;0,00975921
3934,0725;0,00975079
3935,0366;0,00977656
3936,0010;0,00982788
3936,9651;0,00989523
3937,9294;0,00996607
3938,8936;0,0100242
3939,8579;0,0100546
3940,8220;0,0100529
3941,7864;0,0100313
3942,7505;0,0100126
3943,7148;0,0100134
3944,6790;0,0100321
3945,6433;0,0100503
3946,6074;0,0100452
3947,5718;0,0100056
3948,5359;0,00994121
3949,5002;0,00987719
3950,4644;0,0098376
3951,4287;0,00983089
3952,3928;0,00984925
3953,3572;0,00987792
3954,3213;0,00990442
3955,2856;0,00992249
3956,2498;0,00993068
3957,2141;0,00992904
3958,1782;0,00991776
3959,1426;0,00989873
3960,1067;0,00987757
3961,0710;0,00986285
3962,0352;0,00986172
3962,9995;0,0098752
3963,9636;0,00989751
3964,9280;0,0099196
3965,8921;0,00993428
3966,8564;0,0099391
3967,8206;0,00993607
3968,7849;0,00992926
3969,7490;0,0099222
3970,7134;0,00991677
3971,6775;0,00991366
3972,6418;0,00991342
3973,6060;0,00991682
3974,5703;0,00992422
3975,5344;0,00993467
3976,4988;0,00994567
3977,4629;0,00995377
3978,4272;0,00995589
3979,3914;0,00995079
3980,3557;0,0099401
3981,3198;0,00992848
3982,2842;0,00992225
3983,2483;0,00992663
3984,2126;0,00994308
3985,1768;0,00996816
3986,1411;0,00999488
3987,1052;0,0100157
3988,0696;0,0100255
3989,0337;0,010023
3989,9980;0,0100104
3990,9622;0,00999167
3991,9265;0,00997069
3992,8906;0,00995116
3993,8550;0,00993661
3994,8191;0,00992994
3995,7834;0,00993208
3996,7476;0,00994087
3997,7119;0,00995171
3998,6760;0,00996006
3999,6404;0,00996425
4000,6045;0,00985964

##### Extended Information
[Comments]
Sample name
Comment
Username
Division
Organization;UNIVERSIDAD INDUSTRIAL DE SANTANDER

[Detailed Information]
Creation date;29/01/2025 2:11 p.m.

Data array type;Linear data array
Horizontal axis;Wavenumber [cm-1]
Vertical axis;Abs
Start;399,193 cm-1
End;4000,6 cm-1
Data interval;0,964233 cm-1
Data points;3736    

[Measurement Information]
Model name;FT/IR-4X1typeA
Serial No.;A035162111

Accessory;ATR PRO 4X
Accessory S/N;A021162126
Incident angle;45 deg

Measurement date;29/01/2025 2:11 p.m.

Light source;Standard
Detector;TGS
Accumulation;Auto (72)
Resolution;4 cm-1
Zero filling;On
Apodization;Cosine
Gain;Auto (8)
Aperture;Auto (7 mm)
Scan speed;Auto (2 mm/sec)
Filter;Auto (12800 Hz)

