TITLE;
DATA TYPE;INFRARED SPECTRUM
ORIGIN;JASCO
OWNER;
DATE;25/03/19
TIME;14:33:24
SPECTROMETER/DATA SYSTEM;
LOCALE;9226
RESOLUTION;
DELTAX;0,964233
XUNITS;1/CM
YUNITS;ABSORBANCE
FIRSTX;  399,1927
LASTX; 4000,6047
NPOINTS;    3736
FIRSTY;     0,21745
MAXY;     0,26242
MINY;    -0,00191
XYDATA
399,1927;0,217452
400,1569;0,216631
401,1211;0,215233
402,0854;0,21362
403,0496;0,212024
404,0138;0,21057
404,9781;0,20936
405,9423;0,208522
406,9065;0,208169
407,8708;0,208312
408,8350;0,208796
409,7992;0,209352
410,7635;0,209735
411,7277;0,209868
412,6919;0,209902
413,6562;0,210102
414,6204;0,210698
415,5846;0,211782
416,5489;0,213266
417,5131;0,214825
418,4773;0,215932
419,4416;0,21621
420,4058;0,21581
421,3700;0,215194
422,3343;0,214677
423,2985;0,214343
424,2627;0,214179
425,2270;0,214188
426,1912;0,214403
427,1554;0,214855
428,1197;0,215522
429,0839;0,216322
430,0481;0,217128
431,0124;0,217806
431,9766;0,218245
432,9408;0,218385
433,9051;0,218227
434,8693;0,217845
435,8335;0,217379
436,7978;0,216992
437,7620;0,2168
438,7262;0,216822
439,6905;0,216978
440,6547;0,217134
441,6189;0,217154
442,5832;0,21694
443,5474;0,21646
444,5116;0,215745
445,4759;0,214859
446,4401;0,213872
447,4043;0,212852
448,3686;0,211865
449,3328;0,210981
450,2970;0,210275
451,2613;0,209826
452,2255;0,209688
453,1897;0,209869
454,1540;0,210301
455,1182;0,210836
456,0824;0,211268
457,0467;0,211403
458,0109;0,211168
458,9751;0,210674
459,9394;0,210133
460,9036;0,209698
461,8678;0,209385
462,8321;0,209114
463,7963;0,208786
464,7605;0,20835
465,7248;0,207838
466,6890;0,207357
467,6532;0,207044
468,6175;0,207006
469,5817;0,207281
470,5459;0,207799
471,5102;0,208373
472,4744;0,208766
473,4386;0,208819
474,4029;0,208567
475,3671;0,208204
476,3313;0,207959
477,2956;0,207968
478,2598;0,208224
479,2240;0,208594
480,1883;0,208889
481,1525;0,208961
482,1167;0,208778
483,0810;0,208435
484,0452;0,208111
485,0094;0,207984
485,9737;0,208135
486,9379;0,208525
487,9021;0,209025
488,8664;0,209487
489,8306;0,209796
490,7948;0,209913
491,7591;0,209885
492,7233;0,209818
493,6875;0,209824
494,6518;0,209965
495,6160;0,210232
496,5802;0,210569
497,5445;0,210914
498,5087;0,21123
499,4729;0,211512
500,4372;0,211774
501,4014;0,212019
502,3656;0,212223
503,3299;0,21234
504,2941;0,212332
505,2583;0,212207
506,2226;0,212037
507,1868;0,211947
508,1510;0,212071
509,1153;0,212496
510,0795;0,213224
511,0437;0,214166
512,0080;0,215192
512,9722;0,216174
513,9365;0,217023
514,9007;0,21768
515,8649;0,2181
516,8292;0,21825
517,7934;0,218128
518,7576;0,217806
519,7219;0,217431
520,6861;0,217171
521,6503;0,217138
522,6146;0,21735
523,5788;0,217724
524,5430;0,21811
525,5073;0,218361
526,4715;0,218407
527,4357;0,218284
528,4000;0,21809
529,3642;0,2179
530,3284;0,217712
531,2927;0,217459
532,2569;0,217061
533,2211;0,216483
534,1854;0,215775
535,1496;0,215055
536,1138;0,214461
537,0781;0,214085
538,0423;0,213938
539,0065;0,213947
539,9708;0,214006
540,9350;0,214037
541,8992;0,214025
542,8635;0,214025
543,8277;0,214114
544,7919;0,214338
545,7562;0,214687
546,7204;0,2151
547,6846;0,215519
548,6489;0,215917
549,6131;0,216308
550,5773;0,216707
551,5416;0,217101
552,5058;0,217452
553,4700;0,217722
554,4343;0,217911
555,3985;0,218056
556,3627;0,218188
557,3270;0,218281
558,2912;0,218228
559,2554;0,217882
560,2197;0,217136
561,1839;0,215992
562,1481;0,214583
563,1124;0,213111
564,0766;0,211756
565,0408;0,210607
566,0051;0,20965
566,9693;0,208819
567,9335;0,208062
568,8978;0,207381
569,8620;0,206823
570,8262;0,206429
571,7905;0,20619
572,7547;0,206042
573,7189;0,205901
574,6832;0,205702
575,6474;0,205433
576,6116;0,205126
577,5759;0,204824
578,5401;0,204547
579,5043;0,204282
580,4686;0,203997
581,4328;0,203664
582,3970;0,203275
583,3613;0,202839
584,3255;0,202383
585,2897;0,201946
586,2540;0,20158
587,2182;0,201343
588,1824;0,201278
589,1467;0,201382
590,1109;0,201593
591,0751;0,201797
592,0394;0,201873
593,0036;0,201748
593,9678;0,201425
594,9321;0,200968
595,8963;0,200454
596,8605;0,199938
597,8248;0,199437
598,7890;0,198952
599,7532;0,198476
600,7175;0,198009
601,6817;0,19755
602,6459;0,197102
603,6102;0,19667
604,5744;0,196271
605,5386;0,195918
606,5029;0,195597
607,4671;0,195241
608,4313;0,194744
609,3956;0,19401
610,3598;0,193033
611,3240;0,191939
612,2883;0,190942
613,2525;0,19024
614,2167;0,189895
615,1810;0,18977
616,1452;0,189572
617,1094;0,188993
618,0737;0,187885
619,0379;0,18633
620,0021;0,184578
620,9664;0,182893
621,9306;0,181438
622,8948;0,180247
623,8591;0,17927
624,8233;0,17838
625,7875;0,177612
626,7518;0,176926
627,7160;0,176289
628,6802;0,17566
629,6445;0,175009
630,6087;0,174325
631,5729;0,173624
632,5372;0,172931
633,5014;0,172266
634,4656;0,17163
635,4299;0,17102
636,3941;0,170438
637,3583;0,169898
638,3226;0,169419
639,2868;0,169002
640,2510;0,168633
641,2153;0,168288
642,1795;0,167956
643,1437;0,167653
644,1080;0,167408
645,0722;0,167239
646,0364;0,167134
647,0007;0,167043
647,9649;0,166909
648,9291;0,166698
649,8934;0,166417
650,8576;0,166115
651,8218;0,165854
652,7861;0,16569
653,7503;0,165658
654,7145;0,165761
655,6788;0,165968
656,6430;0,166226
657,6072;0,166478
658,5715;0,166682
659,5357;0,166807
660,4999;0,166807
661,4642;0,166598
662,4284;0,166057
663,3926;0,165062
664,3569;0,163587
665,3211;0,161875
666,2853;0,160511
667,2496;0,160109
668,2138;0,160513
669,1780;0,160804
670,1423;0,16058
671,1065;0,15998
672,0707;0,158993
673,0350;0,157534
673,9992;0,155685
674,9634;0,153689
675,9277;0,151793
676,8919;0,150111
677,8561;0,148606
678,8204;0,147189
679,7846;0,145821
680,7488;0,14453
681,7131;0,14337
682,6773;0,142351
683,6415;0,141439
684,6058;0,140581
685,5700;0,139751
686,5342;0,138957
687,4985;0,138228
688,4627;0,137591
689,4269;0,137039
690,3912;0,136548
691,3554;0,136089
692,3196;0,135632
693,2839;0,135156
694,2481;0,134652
695,2123;0,134124
696,1766;0,133591
697,1408;0,133077
698,1050;0,132592
699,0693;0,132133
700,0335;0,13168
700,9977;0,131215
701,9620;0,130724
702,9262;0,130205
703,8904;0,129644
704,8547;0,129057
705,8189;0,128451
706,7831;0,127831
707,7474;0,127191
708,7116;0,126516
709,6758;0,125788
710,6401;0,124991
711,6043;0,124126
712,5685;0,123218
713,5328;0,12232
714,4970;0,121497
715,4612;0,119804
716,4255;0,119453
717,3897;0,119259
718,3539;0,119041
719,3182;0,118578
720,2824;0,117707
721,2466;0,116422
722,2109;0,114875
723,1751;0,113286
724,1393;0,111831
725,1036;0,110575
726,0678;0,109488
727,0320;0,108495
727,9963;0,107539
728,9605;0,106605
729,9247;0,105714
730,8890;0,104895
731,8532;0,104159
732,8174;0,103497
733,7817;0,10289
734,7459;0,102325
735,7101;0,101796
736,6744;0,101302
737,6386;0,10084
738,6028;0,100401
739,5671;0,0999716
740,5313;0,0995419
741,4955;0,0991036
742,4598;0,0986518
743,4240;0,0981842
744,3882;0,0977006
745,3525;0,0972043
746,3167;0,0967012
747,2809;0,0961973
748,2452;0,0956957
749,2094;0,0951961
750,1736;0,0946968
751,1379;0,0941989
752,1021;0,0937073
753,0663;0,0932276
754,0306;0,092759
754,9948;0,0922909
755,9590;0,0918064
756,9233;0,091292
757,8875;0,0907482
758,8517;0,0901936
759,8160;0,0896571
760,7802;0,0891637
761,7444;0,0887202
762,7087;0,0883113
763,6729;0,0879069
764,6371;0,087479
765,6014;0,0870177
766,5656;0,0865383
767,5298;0,0860744
768,4941;0,0856597
769,4583;0,0853073
770,4225;0,0849989
771,3868;0,0846912
772,3510;0,0843368
773,3152;0,0839095
774,2795;0,0834194
775,2437;0,0829067
776,2079;0,0824199
777,1722;0,0819897
778,1364;0,0816148
779,1006;0,0812683
780,0649;0,0809171
781,0291;0,0805425
781,9933;0,0801477
782,9576;0,0797505
783,9218;0,0793695
784,8860;0,0790137
785,8503;0,0786811
786,8145;0,0783654
787,7787;0,0780611
788,7430;0,0777646
789,7072;0,0774721
790,6714;0,0771788
791,6357;0,0768829
792,5999;0,0765901
793,5641;0,0763138
794,5284;0,0760672
795,4926;0,0758528
796,4568;0,0756579
797,4211;0,0754606
798,3853;0,0752432
799,3495;0,0750041
800,3138;0,0747568
801,2780;0,0745198
802,2422;0,0743032
803,2065;0,074103
804,1707;0,0739072
805,1349;0,0737074
806,0992;0,0735054
807,0634;0,0733118
808,0276;0,0731365
808,9919;0,072981
809,9561;0,0728382
810,9203;0,0726994
811,8846;0,0725614
812,8488;0,0724284
813,8130;0,0723061
814,7773;0,0721938
815,7415;0,0720817
816,7057;0,0719566
817,6700;0,0718112
818,6342;0,0716519
819,5984;0,0714963
820,5627;0,0713632
821,5269;0,0712614
822,4911;0,0711849
823,4554;0,0711195
824,4196;0,0710533
825,3839;0,070985
826,3481;0,0709221
827,3123;0,0708712
828,2766;0,0708278
829,2408;0,070774
830,2050;0,0706866
831,1693;0,0705501
832,1335;0,070365
833,0977;0,0701465
834,0620;0,0699146
835,0262;0,0696828
835,9904;0,0694538
836,9547;0,0692227
837,9189;0,0689845
838,8831;0,0687383
839,8474;0,0684861
840,8116;0,0682286
841,7758;0,067964
842,7401;0,0676914
843,7043;0,0674175
844,6685;0,0671592
845,6328;0,0669386
846,5970;0,0667717
847,5612;0,0666578
848,5255;0,0665783
849,4897;0,0665057
850,4539;0,0664188
851,4182;0,0663128
852,3824;0,0661994
853,3466;0,0660964
854,3109;0,0660148
855,2751;0,0659535
856,2393;0,0659031
857,2036;0,0658568
858,1678;0,0658185
859,1320;0,0658014
860,0963;0,0658182
861,0605;0,0658694
862,0247;0,0659399
862,9890;0,0660058
863,9532;0,0660492
864,9174;0,0660707
865,8817;0,0660896
866,8459;0,0661341
867,8101;0,0662254
868,7744;0,0663667
869,7386;0,0665434
870,7028;0,0667312
871,6671;0,0669072
872,6313;0,0670562
873,5955;0,0671713
874,5598;0,0672523
875,5240;0,0673039
876,4882;0,0673379
877,4525;0,0673728
878,4167;0,067432
879,3809;0,0675375
880,3452;0,0677067
881,3094;0,0679516
882,2736;0,0682827
883,2379;0,0687116
884,2021;0,0692488
885,1663;0,069897
886,1306;0,0706457
887,0948;0,0714715
888,0590;0,0723462
889,0233;0,0732454
889,9875;0,0741529
890,9517;0,0750562
891,9160;0,0759384
892,8802;0,0767735
893,8444;0,077529
894,8087;0,0781727
895,7729;0,0786799
896,7371;0,0790351
897,7014;0,0792297
898,6656;0,07926
899,6298;0,0791288
900,5941;0,0788487
901,5583;0,0784451
902,5225;0,0779531
903,4868;0,0774118
904,4510;0,0768583
905,4152;0,0763251
906,3795;0,0758396
907,3437;0,0754253
908,3079;0,0751001
909,2722;0,0748735
910,2364;0,0747456
911,2007;0,0747082
912,1649;0,0747484
913,1292;0,0748518
914,0934;0,0750052
915,0576;0,0751976
916,0219;0,075423
916,9861;0,0756826
917,9503;0,0759843
918,9146;0,0763375
919,8788;0,0767435
920,8430;0,0771883
921,8073;0,0776422
922,7715;0,078069
923,7357;0,0784404
924,7000;0,078746
925,6642;0,0789947
926,6284;0,0792052
927,5927;0,079394
928,5569;0,0795682
929,5211;0,0797257
930,4854;0,0798635
931,4496;0,0799845
932,4138;0,0801013
933,3781;0,0802326
934,3423;0,0803979
935,3065;0,0806118
936,2708;0,0808819
937,2350;0,0812094
938,1992;0,0815923
939,1635;0,0820297
940,1277;0,0825249
941,0919;0,0830881
942,0562;0,0837344
943,0204;0,0844795
943,9846;0,0853322
944,9489;0,0862901
945,9131;0,0873392
946,8773;0,0884598
947,8416;0,0896362
948,8058;0,0908641
949,7700;0,0921532
950,7343;0,0935224
951,6985;0,0949913
952,6627;0,0965718
953,6270;0,098264
954,5912;0,100057
955,5554;0,101935
956,5197;0,10388
957,4839;0,105883
958,4481;0,107938
959,4124;0,110045
960,3766;0,112201
961,3408;0,114403
962,3051;0,116637
963,2693;0,118883
964,2335;0,121119
965,1978;0,12333
966,1620;0,125519
967,1262;0,127711
968,0905;0,129954
969,0547;0,132306
970,0189;0,134822
970,9832;0,137532
971,9474;0,140446
972,9116;0,143556
973,8759;0,146854
974,8401;0,150347
975,8043;0,154057
976,7686;0,158007
977,7328;0,162197
978,6970;0,166587
979,6613;0,17109
980,6255;0,17558
981,5897;0,179915
982,5540;0,183969
983,5182;0,18765
984,4824;0,190914
985,4467;0,193767
986,4109;0,196252
987,3751;0,198433
988,3394;0,200373
989,3036;0,202125
990,2678;0,203722
991,2321;0,205181
992,1963;0,206505
993,1605;0,207695
994,1248;0,208758
995,0890;0,209706
996,0532;0,210561
997,0175;0,211349
997,9817;0,212092
998,9459;0,212809
999,9102;0,213513
1000,8744;0,214219
1001,8386;0,214955
1002,8029;0,215763
1003,7671;0,216697
1004,7313;0,217815
1005,6956;0,219161
1006,6598;0,220762
1007,6240;0,222623
1008,5883;0,224738
1009,5525;0,227092
1010,5167;0,229655
1011,4810;0,232379
1012,4452;0,235186
1013,4094;0,237982
1014,3737;0,240668
1015,3379;0,243167
1016,3021;0,245434
1017,2664;0,247458
1018,2306;0,249254
1019,1948;0,250851
1020,1591;0,252283
1021,1233;0,253586
1022,0875;0,254799
1023,0518;0,255954
1024,0160;0,257072
1024,9802;0,25816
1025,9445;0,259207
1026,9087;0,260191
1027,8729;0,261075
1028,8372;0,261803
1029,8014;0,262289
1030,7656;0,262421
1031,7299;0,262075
1032,6941;0,261155
1033,6583;0,25962
1034,6226;0,257514
1035,5868;0,25497
1036,5510;0,25218
1037,5153;0,249367
1038,4795;0,246738
1039,4437;0,244458
1040,4080;0,242623
1041,3722;0,241263
1042,3364;0,240343
1043,3007;0,239788
1044,2649;0,239494
1045,2291;0,239351
1046,1934;0,239255
1047,1576;0,239109
1048,1218;0,238829
1049,0861;0,238342
1050,0503;0,237589
1051,0145;0,236533
1051,9788;0,235162
1052,9430;0,233493
1053,9072;0,231562
1054,8715;0,229406
1055,8357;0,227037
1056,7999;0,224425
1057,7642;0,2215
1058,7284;0,218187
1059,6926;0,214441
1060,6569;0,21029
1061,6211;0,205846
1062,5853;0,201286
1063,5496;0,196808
1064,5138;0,192585
1065,4780;0,188727
1066,4423;0,185274
1067,4065;0,182211
1068,3707;0,179482
1069,3350;0,177019
1070,2992;0,174751
1071,2634;0,172607
1072,2277;0,170516
1073,1919;0,168409
1074,1561;0,166225
1075,1204;0,163922
1076,0846;0,161484
1077,0488;0,158935
1078,0131;0,156329
1078,9773;0,153744
1079,9415;0,151263
1080,9058;0,148959
1081,8700;0,14688
1082,8342;0,145045
1083,7985;0,143448
1084,7627;0,142067
1085,7269;0,140874
1086,6912;0,139846
1087,6554;0,13897
1088,6196;0,138239
1089,5839;0,137653
1090,5481;0,13721
1091,5123;0,136907
1092,4766;0,136742
1093,4408;0,136712
1094,4050;0,136818
1095,3693;0,137059
1096,3335;0,137424
1097,2977;0,137891
1098,2620;0,138425
1099,2262;0,138986
1100,1904;0,139529
1101,1547;0,140011
1102,1189;0,140396
1103,0831;0,140651
1104,0474;0,14076
1105,0116;0,14072
1105,9758;0,140552
1106,9401;0,140283
1107,9043;0,139933
1108,8685;0,13949
1109,8328;0,138904
1110,7970;0,138096
1111,7612;0,136996
1112,7255;0,135577
1113,6897;0,133881
1114,6539;0,132009
1115,6182;0,130092
1116,5824;0,12825
1117,5466;0,126562
1118,5109;0,125055
1119,4751;0,123703
1120,4393;0,122442
1121,4036;0,121183
1122,3678;0,11983
1123,3320;0,118297
1124,2963;0,116524
1125,2605;0,114499
1126,2247;0,112251
1127,1890;0,109844
1128,1532;0,107356
1129,1174;0,104853
1130,0817;0,102378
1131,0459;0,0999538
1132,0101;0,097593
1132,9744;0,0953132
1133,9386;0,0931473
1134,9028;0,0911451
1135,8671;0,0893651
1136,8313;0,0878613
1137,7955;0,0866696
1138,7598;0,0858001
1139,7240;0,0852364
1140,6882;0,0849425
1141,6525;0,0848728
1142,6167;0,0849807
1143,5809;0,0852253
1144,5452;0,0855739
1145,5094;0,0860038
1146,4736;0,0865024
1147,4379;0,0870667
1148,4021;0,0876994
1149,3663;0,0884017
1150,3306;0,0891649
1151,2948;0,0899648
1152,2590;0,0907621
1153,2233;0,0915092
1154,1875;0,092159
1155,1517;0,0926698
1156,1160;0,0930038
1157,0802;0,0931194
1158,0444;0,0929624
1159,0087;0,0924629
1159,9729;0,0915417
1160,9371;0,0901272
1161,9014;0,0881784
1162,8656;0,0857039
1163,8298;0,0827701
1164,7941;0,0794934
1165,7583;0,0760206
1166,7225;0,0725024
1167,6868;0,0690718
1168,6510;0,0658305
1169,6152;0,062846
1170,5795;0,0601551
1171,5437;0,0577703
1172,5079;0,0556855
1173,4722;0,0538813
1174,4364;0,0523291
1175,4006;0,0509968
1176,3649;0,0498535
1177,3291;0,0488732
1178,2933;0,0480359
1179,2576;0,0473259
1180,2218;0,0467303
1181,1860;0,046238
1182,1503;0,04584
1183,1145;0,0455299
1184,0787;0,0453039
1185,0430;0,0451597
1186,0072;0,0450958
1186,9714;0,0451113
1187,9357;0,0452061
1188,8999;0,0453825
1189,8641;0,0456439
1190,8284;0,0459946
1191,7926;0,0464377
1192,7568;0,0469739
1193,7211;0,0476003
1194,6853;0,04831
1195,6495;0,0490909
1196,6138;0,049926
1197,5780;0,0507937
1198,5422;0,0516718
1199,5065;0,0523585
1200,4707;0,0532298
1201,4349;0,0540795
1202,3992;0,0549091
1203,3634;0,0557204
1204,3276;0,0565109
1205,2919;0,0572727
1206,2561;0,0579967
1207,2203;0,0586798
1208,1846;0,059332
1209,1488;0,0599784
1210,1130;0,0606545
1211,0773;0,0613958
1212,0415;0,0622274
1213,0057;0,0631566
1213,9700;0,0641735
1214,9342;0,0652571
1215,8984;0,0663828
1216,8627;0,0675268
1217,8269;0,0686674
1218,7911;0,0697874
1219,7554;0,0708731
1220,7196;0,0719153
1221,6838;0,0729097
1222,6481;0,0738555
1223,6123;0,0747531
1224,5765;0,0756014
1225,5408;0,0763979
1226,5050;0,0771411
1227,4692;0,0778321
1228,4335;0,0784746
1229,3977;0,0790723
1230,3619;0,0796241
1231,3262;0,0801229
1232,2904;0,0805568
1233,2546;0,0809148
1234,2189;0,0811918
1235,1831;0,0813924
1236,1473;0,0815299
1237,1116;0,0816222
1238,0758;0,0816851
1239,0400;0,081727
1240,0043;0,081746
1240,9685;0,0817316
1241,9327;0,0816693
1242,8970;0,0815466
1243,8612;0,0813562
1244,8254;0,0810967
1245,7897;0,0807709
1246,7539;0,0803848
1247,7181;0,0799474
1248,6824;0,0794726
1249,6466;0,0789791
1250,6108;0,078488
1251,5751;0,0780177
1252,5393;0,0775791
1253,5035;0,0771729
1254,4678;0,0767903
1255,4320;0,0764162
1256,3962;0,0760331
1257,3605;0,0756242
1258,3247;0,0751759
1259,2889;0,0746806
1260,2532;0,0741365
1261,2174;0,0735478
1262,1816;0,0729212
1263,1459;0,0722637
1264,1101;0,0715804
1265,0743;0,070875
1266,0386;0,0701497
1267,0028;0,0694051
1267,9670;0,0686401
1268,9313;0,0678522
1269,8955;0,0670395
1270,8597;0,0662026
1271,8240;0,0653471
1272,7882;0,0644826
1273,7524;0,0636219
1274,7167;0,062779
1275,6809;0,0619671
1276,6451;0,0611955
1277,6094;0,0604661
1278,5736;0,0597713
1279,5378;0,0590958
1280,5021;0,0584233
1281,4663;0,057745
1282,4305;0,0570646
1283,3948;0,0563967
1284,3590;0,0557596
1285,3232;0,0551689
1286,2875;0,0546332
1287,2517;0,0541554
1288,2159;0,0537363
1289,1802;0,0533767
1290,1444;0,0530785
1291,1086;0,0528431
1292,0729;0,0526719
1293,0371;0,0525674
1294,0013;0,052534
1294,9656;0,0525769
1295,9298;0,0527001
1296,8940;0,0529036
1297,8583;0,0531846
1298,8225;0,0535384
1299,7867;0,0539613
1300,7510;0,0544499
1301,7152;0,0550027
1302,6794;0,0556155
1303,6437;0,0562817
1304,6079;0,056995
1305,5721;0,0577499
1306,5364;0,0585418
1307,5006;0,0593657
1308,4648;0,0602148
1309,4291;0,0610783
1310,3933;0,0619405
1311,3575;0,0627796
1312,3218;0,0635692
1313,2860;0,0642818
1314,2502;0,0648911
1315,2145;0,0653725
1316,1787;0,0657021
1317,1429;0,0658594
1318,1072;0,0658366
1319,0714;0,06565
1320,0356;0,0653436
1320,9999;0,0649777
1321,9641;0,0646089
1322,9283;0,0642762
1323,8926;0,0639996
1324,8568;0,0637846
1325,8210;0,063628
1326,7853;0,0635198
1327,7495;0,0634434
1328,7137;0,0633792
1329,6780;0,0633077
1330,6422;0,0632148
1331,6064;0,063094
1332,5707;0,0629433
1333,5349;0,062762
1334,4991;0,0625433
1335,4634;0,0622689
1336,4276;0,0619076
1337,3918;0,0614207
1338,3561;0,0607833
1339,3203;0,0600161
1340,2845;0,0591972
1341,2488;0,0584248
1342,2130;0,0577625
1343,1772;0,0572218
1344,1415;0,0567838
1345,1057;0,0564293
1346,0699;0,0561543
1347,0342;0,0559696
1347,9984;0,055894
1348,9626;0,0559425
1349,9269;0,056116
1350,8911;0,0563961
1351,8553;0,0567507
1352,8196;0,0571455
1353,7838;0,0575581
1354,7480;0,0579862
1355,7123;0,0584436
1356,6765;0,0589467
1357,6407;0,0595025
1358,6050;0,0601059
1359,5692;0,0607422
1360,5334;0,0613846
1361,4977;0,0619903
1362,4619;0,0625205
1363,4261;0,0629742
1364,3904;0,0633871
1365,3546;0,0637919
1366,3188;0,0641919
1367,2831;0,0645662
1368,2473;0,0648862
1369,2115;0,065127
1370,1758;0,0652701
1371,1400;0,0653002
1372,1042;0,0651983
1373,0685;0,0649437
1374,0327;0,0645305
1374,9969;0,0639864
1375,9612;0,0633607
1376,9254;0,0626791
1377,8896;0,0619215
1378,8539;0,0610524
1379,8181;0,0600703
1380,7823;0,0590293
1381,7466;0,0580094
1382,7108;0,0570596
1383,6750;0,0561666
1384,6393;0,0552739
1385,6035;0,0543338
1386,5677;0,0533635
1387,5320;0,0524665
1388,4962;0,0517713
1389,4604;0,0513272
1390,4247;0,0510776
1391,3889;0,0509286
1392,3531;0,05082
1393,3174;0,0507415
1394,2816;0,0507028
1395,2458;0,050698
1396,2101;0,0507019
1397,1743;0,0506964
1398,1385;0,0506956
1399,1028;0,0507419
1400,0670;0,0508757
1401,0313;0,051107
1401,9955;0,0514131
1402,9597;0,0517593
1403,9240;0,0521226
1404,8882;0,0525039
1405,8524;0,0529221
1406,8167;0,0533954
1407,7809;0,0539238
1408,7451;0,0544933
1409,7094;0,0550988
1410,6736;0,0557567
1411,6378;0,0564903
1412,6021;0,0572973
1413,5663;0,0581336
1414,5305;0,0589295
1415,4948;0,0596259
1416,4590;0,0601936
1417,4232;0,0606266
1418,3875;0,0609418
1419,3517;0,0612043
1420,3159;0,0614919
1421,2802;0,0617961
1422,2444;0,0620106
1423,2086;0,0620245
1424,1729;0,0618005
1425,1371;0,0613806
1426,1013;0,0608327
1427,0656;0,0601944
1428,0298;0,0594637
1428,9940;0,0586395
1429,9583;0,0577654
1430,9225;0,0569159
1431,8867;0,0561228
1432,8510;0,0553292
1433,8152;0,0544266
1434,7794;0,0533392
1435,7437;0,0521149
1436,7079;0,0509752
1437,6721;0,0502088
1438,6364;0,049931
1439,6006;0,0500096
1440,5648;0,0502276
1441,5291;0,0504454
1442,4933;0,0506382
1443,4575;0,0508494
1444,4218;0,051126
1445,3860;0,0514786
1446,3502;0,0518848
1447,3145;0,0523218
1448,2787;0,0527939
1449,2429;0,0533246
1450,2072;0,0539113
1451,1714;0,0544917
1452,1356;0,0549628
1453,0999;0,0552384
1454,0641;0,0552942
1455,0283;0,0551548
1455,9926;0,0548084
1456,9568;0,0542282
1457,9210;0,0536584
1458,8853;0,0534907
1459,8495;0,0537286
1460,8137;0,0540532
1461,7780;0,0541644
1462,7422;0,0539031
1463,7064;0,053239
1464,6707;0,0522704
1465,6349;0,0512146
1466,5991;0,050269
1467,5634;0,049445
1468,5276;0,0485885
1469,4918;0,0475164
1470,4561;0,0460965
1471,4203;0,0442593
1472,3845;0,042043
1473,3488;0,0397031
1474,3130;0,0376397
1475,2772;0,0360753
1476,2415;0,0349433
1477,2057;0,0340668
1478,1699;0,0333095
1479,1342;0,0326052
1480,0984;0,0319386
1481,0626;0,0313282
1482,0269;0,0308152
1482,9911;0,0304434
1483,9553;0,0302328
1484,9196;0,0301721
1485,8838;0,0302324
1486,8480;0,030378
1487,8123;0,0305502
1488,7765;0,0306764
1489,7407;0,0307649
1490,7050;0,0309389
1491,6692;0,0312862
1492,6334;0,0317721
1493,5977;0,0323238
1494,5619;0,0329254
1495,5261;0,0336288
1496,4904;0,0344928
1497,4546;0,0355207
1498,4188;0,0366704
1499,3831;0,0378814
1500,3473;0,0390462
1501,3115;0,0400165
1502,2758;0,040675
1503,2400;0,0410136
1504,2042;0,041174
1505,1685;0,041389
1506,1327;0,0417034
1507,0969;0,0417754
1508,0612;0,0414836
1509,0254;0,041202
1509,9896;0,0410992
1510,9539;0,0410466
1511,9181;0,0409094
1512,8823;0,040649
1513,8466;0,0402871
1514,8108;0,0398472
1515,7750;0,0393259
1516,7393;0,0387071
1517,7035;0,0379903
1518,6677;0,0372026
1519,6320;0,0363955
1520,5962;0,0356403
1521,5604;0,0350192
1522,5247;0,0345914
1523,4889;0,0343527
1524,4531;0,0342478
1525,4174;0,0342298
1526,3816;0,0342942
1527,3458;0,0344548
1528,3101;0,0346991
1529,2743;0,0349872
1530,2385;0,0352997
1531,2028;0,0356817
1532,1670;0,0362208
1533,1312;0,03696
1534,0955;0,0378287
1535,0597;0,0386751
1536,0239;0,0393643
1536,9882;0,0398657
1537,9524;0,0402879
1538,9166;0,0407859
1539,8809;0,0412555
1540,8451;0,0412229
1541,8093;0,0405839
1542,7736;0,0398323
1543,7378;0,0392671
1544,7020;0,0388628
1545,6663;0,0385542
1546,6305;0,0383251
1547,5947;0,0381655
1548,5590;0,0380395
1549,5232;0,0379025
1550,4874;0,0377413
1551,4517;0,0375889
1552,4159;0,0374884
1553,3801;0,0374326
1554,3444;0,0373443
1555,3086;0,0371158
1556,2728;0,0366401
1557,2371;0,0357718
1558,2013;0,0344159
1559,1655;0,0330968
1560,1298;0,0327506
1561,0940;0,033459
1562,0582;0,0346198
1563,0225;0,0357194
1563,9867;0,0365277
1564,9509;0,0370146
1565,9152;0,0372573
1566,8794;0,0373841
1567,8436;0,0375362
1568,8079;0,0378298
1569,7721;0,0383158
1570,7363;0,0389524
1571,7006;0,0396243
1572,6648;0,0402151
1573,6290;0,0406782
1574,5933;0,0410476
1575,5575;0,0413824
1576,5217;0,0417263
1577,4860;0,0421323
1578,4502;0,0426327
1579,4144;0,0431746
1580,3787;0,0436687
1581,3429;0,0440758
1582,3071;0,0444285
1583,2714;0,044797
1584,2356;0,045242
1585,1998;0,0457876
1586,1641;0,0464224
1587,1283;0,0471178
1588,0925;0,0478406
1589,0568;0,0485554
1590,0210;0,0492233
1590,9852;0,049802
1591,9495;0,0502486
1592,9137;0,0505248
1593,8779;0,0506079
1594,8422;0,0505058
1595,8064;0,0502635
1596,7706;0,0499493
1597,7349;0,0496273
1598,6991;0,0493359
1599,6633;0,0490835
1600,6276;0,0488594
1601,5918;0,0486526
1602,5560;0,048467
1603,5203;0,0483204
1604,4845;0,0482276
1605,4487;0,0481831
1606,4130;0,0481645
1607,3772;0,0481554
1608,3414;0,0481693
1609,3057;0,0482496
1610,2699;0,0484289
1611,2341;0,0486839
1612,1984;0,0489381
1613,1626;0,0491184
1614,1268;0,0492127
1615,0911;0,0492875
1616,0553;0,0494567
1617,0195;0,0498269
1617,9838;0,0504249
1618,9480;0,0511542
1619,9122;0,0518609
1620,8765;0,0524419
1621,8407;0,0528877
1622,8049;0,0532514
1623,7692;0,0535972
1624,7334;0,0539665
1625,6976;0,0543712
1626,6619;0,0548088
1627,6261;0,0552812
1628,5903;0,0557891
1629,5546;0,0563037
1630,5188;0,0567553
1631,4830;0,057066
1632,4473;0,0572076
1633,4115;0,057233
1634,3757;0,057233
1635,3400;0,057248
1636,3042;0,0573011
1637,2684;0,0574906
1638,2327;0,057865
1639,1969;0,0583338
1640,1611;0,0587666
1641,1254;0,0590787
1642,0896;0,0592421
1643,0538;0,059279
1644,0181;0,0592536
1644,9823;0,0592365
1645,9465;0,0592472
1646,9108;0,059264
1647,8750;0,0592686
1648,8392;0,0591856
1649,8035;0,058861
1650,7677;0,0581516
1651,7319;0,0569771
1652,6962;0,0553791
1653,6604;0,0538243
1654,6246;0,0530655
1655,5889;0,0531729
1656,5531;0,0535854
1657,5173;0,0538078
1658,4816;0,0536252
1659,4458;0,053021
1660,4100;0,0520778
1661,3743;0,0509358
1662,3385;0,0497936
1663,3027;0,0488531
1664,2670;0,04819
1665,2312;0,0477097
1666,1954;0,0472345
1667,1597;0,0466002
1668,1239;0,0457072
1669,0881;0,0445721
1670,0524;0,0433619
1671,0166;0,0422794
1671,9808;0,0413635
1672,9451;0,0404838
1673,9093;0,0395182
1674,8735;0,0385055
1675,8378;0,0376489
1676,8020;0,0371476
1677,7662;0,0370013
1678,7305;0,037004
1679,6947;0,0368909
1680,6589;0,0364547
1681,6232;0,0355669
1682,5874;0,0341766
1683,5516;0,0324387
1684,5159;0,0308678
1685,4801;0,0299648
1686,4443;0,0297012
1687,4086;0,0296991
1688,3728;0,0296328
1689,3370;0,0293683
1690,3013;0,0289219
1691,2655;0,0283779
1692,2297;0,0278276
1693,1940;0,027344
1694,1582;0,0269725
1695,1224;0,0267073
1696,0867;0,026462
1697,0509;0,0260855
1698,0151;0,0254718
1698,9794;0,024708
1699,9436;0,0240875
1700,9078;0,0238944
1701,8721;0,02417
1702,8363;0,0247186
1703,8005;0,0252821
1704,7648;0,02569
1705,7290;0,0259179
1706,6932;0,0260702
1707,6575;0,0262952
1708,6217;0,0266821
1709,5859;0,0272212
1710,5502;0,0278441
1711,5144;0,0284804
1712,4786;0,0290829
1713,4429;0,0296228
1714,4071;0,0300646
1715,3713;0,0303347
1716,3356;0,0303511
1717,2998;0,0301894
1718,2640;0,0301446
1719,2283;0,0304391
1720,1925;0,0310182
1721,1567;0,0316839
1722,1210;0,0322721
1723,0852;0,0327151
1724,0494;0,0330348
1725,0137;0,0333091
1725,9779;0,0336244
1726,9421;0,0340259
1727,9064;0,0344887
1728,8706;0,0349248
1729,8348;0,0352147
1730,7991;0,035242
1731,7633;0,0349237
1732,7275;0,0342712
1733,6918;0,0334846
1734,6560;0,0328942
1735,6202;0,0326613
1736,5845;0,0326413
1737,5487;0,0325681
1738,5129;0,0322581
1739,4772;0,0316845
1740,4414;0,0309573
1741,4056;0,0302385
1742,3699;0,0296319
1743,3341;0,0291275
1744,2983;0,0286414
1745,2626;0,0280845
1746,2268;0,0273899
1747,1910;0,0264944
1748,1553;0,0253317
1749,1195;0,0238962
1750,0837;0,0223431
1751,0480;0,0209457
1752,0122;0,0198894
1752,9764;0,0191538
1753,9407;0,0185893
1754,9049;0,0180486
1755,8691;0,0174601
1756,8334;0,0168289
1757,7976;0,0161897
1758,7618;0,0155551
1759,7261;0,0149021
1760,6903;0,0142105
1761,6545;0,0135115
1762,6188;0,0128874
1763,5830;0,0124106
1764,5472;0,0120863
1765,5115;0,011857
1766,4757;0,0116518
1767,4399;0,0114249
1768,4042;0,0111606
1769,3684;0,0108523
1770,3326;0,0104819
1771,2969;0,0100355
1772,2611;0,00955931
1773,2253;0,00917521
1774,1896;0,00898685
1775,1538;0,0089849
1776,1180;0,00907024
1777,0823;0,00913845
1778,0465;0,0091332
1779,0107;0,00904916
1779,9750;0,00890731
1780,9392;0,00872931
1781,9034;0,00852885
1782,8677;0,00832321
1783,8319;0,00814959
1784,7961;0,00806091
1785,7604;0,00809349
1786,7246;0,00823295
1787,6888;0,00841411
1788,6531;0,00855581
1789,6173;0,00859832
1790,5815;0,00852015
1791,5458;0,00834503
1792,5100;0,00815338
1793,4742;0,00805324
1794,4385;0,00809104
1795,4027;0,00821189
1796,3669;0,00831856
1797,3312;0,00834311
1798,2954;0,0082716
1799,2596;0,00813078
1800,2239;0,007964
1801,1881;0,00781289
1802,1523;0,00770625
1803,1166;0,00765497
1804,0808;0,00765548
1805,0450;0,00769794
1806,0093;0,00777046
1806,9735;0,00785669
1807,9377;0,00793136
1808,9020;0,0079618
1809,8662;0,00792179
1810,8304;0,00781214
1811,7947;0,00766627
1812,7589;0,00752858
1813,7231;0,00742657
1814,6874;0,00736335
1815,6516;0,00732945
1816,6158;0,00731679
1817,5801;0,00732479
1818,5443;0,00735758
1819,5085;0,00741507
1820,4728;0,0074863
1821,4370;0,00755332
1822,4012;0,00760256
1823,3655;0,00763389
1824,3297;0,0076604
1825,2939;0,0076962
1826,2582;0,00773734
1827,2224;0,00775141
1828,1866;0,00769068
1829,1509;0,00752957
1830,1151;0,00730466
1831,0793;0,0071092
1832,0436;0,00702434
1833,0078;0,00705849
1833,9720;0,00715822
1834,9363;0,00726021
1835,9005;0,00732948
1836,8647;0,00736812
1837,8290;0,0073991
1838,7932;0,00743777
1839,7574;0,00747569
1840,7217;0,0074928
1841,6859;0,00748027
1842,6501;0,00744596
1843,6144;0,00740199
1844,5786;0,00735934
1845,5428;0,00732965
1846,5071;0,00731109
1847,4713;0,00727827
1848,4355;0,00720374
1849,3998;0,00708587
1850,3640;0,00695293
1851,3282;0,00684416
1852,2925;0,00678586
1853,2567;0,00678169
1854,2209;0,0068198
1855,1852;0,00688559
1856,1494;0,00696748
1857,1136;0,00705543
1858,0779;0,00713728
1859,0421;0,00720168
1860,0063;0,00724628
1860,9706;0,0072824
1861,9348;0,00732916
1862,8990;0,00740045
1863,8633;0,00749625
1864,8275;0,00760438
1865,7917;0,00770519
1866,7560;0,00776974
1867,7202;0,00776108
1868,6844;0,0076604
1869,6487;0,00749825
1870,6129;0,00733451
1871,5771;0,00720489
1872,5414;0,00710507
1873,5056;0,00701661
1874,4698;0,00693279
1875,4341;0,00686367
1876,3983;0,00682803
1877,3625;0,00684108
1878,3268;0,00690679
1879,2910;0,00701478
1880,2552;0,00714324
1881,2195;0,00726538
1882,1837;0,00735798
1883,1479;0,00740929
1884,1122;0,00742195
1885,0764;0,00740876
1886,0406;0,00738439
1887,0049;0,00735824
1887,9691;0,00733157
1888,9333;0,00730147
1889,8976;0,0072697
1890,8618;0,00724615
1891,8260;0,00724092
1892,7903;0,00725408
1893,7545;0,00727394
1894,7188;0,00728333
1895,6830;0,00726914
1896,6472;0,00723059
1897,6115;0,00718085
1898,5757;0,00713996
1899,5399;0,00712483
1900,5042;0,0071429
1901,4684;0,0071908
1902,4326;0,00725679
1903,3969;0,0073261
1904,3611;0,00738674
1905,3253;0,00743258
1906,2896;0,00746229
1907,2538;0,00747616
1908,2180;0,00747384
1909,1823;0,00745576
1910,1465;0,00742667
1911,1107;0,00739554
1912,0750;0,00736966
1913,0392;0,00734951
1914,0034;0,00733137
1914,9677;0,00731463
1915,9319;0,00730612
1916,8961;0,00731797
1917,8604;0,00736145
1918,8246;0,00743879
1919,7888;0,00753583
1920,7531;0,00762195
1921,7173;0,00766076
1922,6815;0,00762718
1923,6458;0,00752261
1924,6100;0,00737915
1925,5742;0,00724678
1926,5385;0,00717036
1927,5027;0,00717188
1928,4669;0,00724404
1929,4312;0,0073525
1930,3954;0,00744819
1931,3596;0,00749052
1932,3239;0,00746976
1933,2881;0,00741385
1934,2523;0,00737206
1935,2166;0,00738395
1936,1808;0,00745403
1937,1450;0,00755041
1938,1093;0,00762881
1939,0735;0,00766373
1940,0377;0,00766372
1941,0020;0,00766024
1941,9662;0,00767785
1942,9304;0,00771032
1943,8947;0,00772549
1944,8589;0,00769561
1945,8231;0,00762458
1946,7874;0,00755091
1947,7516;0,00752645
1948,7158;0,00758456
1949,6801;0,00771615
1950,6443;0,00786979
1951,6085;0,00797762
1952,5728;0,00799085
1953,5370;0,00790287
1954,5012;0,00774875
1955,4655;0,00758457
1956,4297;0,00746028
1957,3939;0,00740014
1958,3582;0,00739811
1959,3224;0,00742708
1960,2866;0,00745567
1961,2509;0,00746471
1962,2151;0,0074558
1963,1793;0,00744832
1964,1436;0,00746753
1965,1078;0,00752986
1966,0720;0,00763127
1967,0363;0,00774499
1968,0005;0,00783223
1968,9647;0,00785987
1969,9290;0,00781441
1970,8932;0,00770642
1971,8574;0,00756868
1972,8217;0,00745073
1973,7859;0,00740788
1974,7501;0,00747971
1975,7144;0,00766533
1976,6786;0,00790825
1977,6428;0,00811242
1978,6071;0,00819053
1979,5713;0,00811465
1980,5355;0,00793179
1981,4998;0,00773534
1982,4640;0,00761512
1983,4282;0,00761437
1984,3925;0,00771296
1985,3567;0,00784384
1986,3209;0,00793334
1987,2852;0,0079409
1988,2494;0,0078737
1989,2136;0,00777109
1990,1779;0,00767541
1991,1421;0,00761219
1992,1063;0,00759255
1993,0706;0,00762879
1994,0348;0,00774079
1994,9990;0,00794127
1995,9633;0,00821077
1996,9275;0,00848359
1997,8917;0,00866108
1998,8560;0,00865366
1999,8202;0,00843316
2000,7844;0,00806147
2001,7487;0,00767283
2002,7129;0,00741977
2003,6771;0,00741328
2004,6414;0,00768284
2005,6056;0,00816547
2006,5698;0,00872542
2007,5341;0,00919801
2008,4983;0,00944514
2009,4625;0,00940351
2010,4268;0,00910914
2011,3910;0,00868955
2012,3552;0,00832243
2013,3195;0,00816878
2014,2837;0,00830073
2015,2479;0,00865716
2016,2122;0,00906297
2017,1764;0,00931951
2018,1406;0,00931889
2019,1049;0,00910304
2020,0691;0,00882645
2021,0333;0,0086564
2021,9976;0,00868174
2022,9618;0,00888136
2023,9260;0,00915859
2024,8903;0,00940923
2025,8545;0,00957472
2026,8187;0,0096486
2027,7830;0,00964427
2028,7472;0,00956175
2029,7114;0,00938598
2030,6757;0,00911807
2031,6399;0,00880993
2032,6041;0,00856611
2033,5684;0,00850051
2034,5326;0,00867065
2035,4968;0,00903548
2036,4611;0,00946678
2037,4253;0,00980836
2038,3895;0,00994358
2039,3538;0,00983874
2040,3180;0,00954768
2041,2822;0,00918097
2042,2465;0,00885573
2043,2107;0,00865062
2044,1749;0,00858716
2045,1392;0,00863953
2046,1034;0,00875885
2047,0676;0,00889624
2048,0320;0,0090167
2048,9961;0,009103
2049,9604;0,00915194
2050,9246;0,00916703
2051,8889;0,00915166
2052,8530;0,00910592
2053,8174;0,00902877
2054,7815;0,00892448
2055,7458;0,00881147
2056,7100;0,00872433
2057,6743;0,00870377
2058,6384;0,00877668
2059,6028;0,00893704
2060,5669;0,00914119
2061,5313;0,00932356
2062,4954;0,00942655
2063,4597;0,00942734
2064,4238;0,00934447
2065,3882;0,00922006
2066,3523;0,00909172
2067,3167;0,00897619
2068,2808;0,00887551
2069,2451;0,00879594
2070,2092;0,00875883
2071,1736;0,00879009
2072,1377;0,00889407
2073,1021;0,00903566
2074,0662;0,00914915
2075,0305;0,0091741
2075,9946;0,00909453
2076,9590;0,00895298
2077,9231;0,00882727
2078,8875;0,00878481
2079,8516;0,00884462
2080,8159;0,00897127
2081,7800;0,00910128
2082,7444;0,00918154
2083,7085;0,00919426
2084,6729;0,00915579
2085,6370;0,00909646
2086,6013;0,00903859
2087,5654;0,00898764
2088,5298;0,00893873
2089,4939;0,00888983
2090,4583;0,00884977
2091,4224;0,00883525
2092,3867;0,00885996
2093,3508;0,008924
2094,3152;0,00901134
2095,2793;0,00909708
2096,2437;0,00916008
2097,2078;0,00919229
2098,1721;0,0091989
2099,1362;0,0091904
2100,1006;0,00917526
2101,0647;0,00915286
2102,0291;0,00912648
2102,9932;0,00910344
2103,9575;0,00909644
2104,9216;0,00911541
2105,8860;0,00915694
2106,8501;0,00920096
2107,8145;0,00921966
2108,7786;0,00919438
2109,7429;0,00912895
2110,7070;0,00904943
2111,6714;0,00898976
2112,6355;0,00897288
2113,5999;0,00899994
2114,5640;0,00905343
2115,5283;0,00911029
2116,4924;0,00915475
2117,4568;0,00918339
2118,4209;0,00920154
2119,3853;0,00921637
2120,3494;0,00923271
2121,3137;0,00925324
2122,2778;0,00928062
2123,2422;0,00931742
2124,2063;0,00936318
2125,1707;0,00941152
2126,1348;0,00945166
2127,0991;0,00947529
2128,0632;0,00948516
2129,0276;0,00949907
2129,9917;0,00954476
2130,9561;0,00964701
2131,9202;0,00981299
2132,8845;0,0100239
2133,8486;0,0102386
2134,8130;0,0104083
2135,7771;0,0104957
2136,7415;0,0104875
2137,7056;0,0103957
2138,6699;0,010252
2139,6340;0,0101001
2140,5984;0,00999128
2141,5625;0,0099741
2142,5269;0,0100776
2143,4910;0,0102896
2144,4553;0,0105451
2145,4194;0,0107408
2146,3838;0,0107776
2147,3479;0,0106148
2148,3123;0,0103009
2149,2764;0,00995847
2150,2407;0,00972443
2151,2048;0,00968045
2152,1692;0,00981449
2153,1333;0,0100367
2154,0977;0,0102388
2155,0618;0,0103615
2156,0261;0,0104287
2156,9902;0,0105279
2157,9546;0,0107388
2158,9187;0,0110578
2159,8831;0,011388
2160,8472;0,0116118
2161,8115;0,0116729
2162,7756;0,0115988
2163,7400;0,0114681
2164,7041;0,0113623
2165,6685;0,0113297
2166,6326;0,0113708
2167,5969;0,0114433
2168,5610;0,0114817
2169,5254;0,0114244
2170,4895;0,0112408
2171,4539;0,0109526
2172,4180;0,0106368
2173,3823;0,0104036
2174,3464;0,0103499
2175,3108;0,0105102
2176,2749;0,010833
2177,2393;0,0112019
2178,2034;0,0114865
2179,1677;0,011595
2180,1318;0,0115008
2181,0962;0,0112382
2182,0603;0,0108762
2183,0247;0,0104884
2183,9888;0,0101317
2184,9531;0,00984139
2185,9172;0,00963524
2186,8816;0,00952129
2187,8457;0,0095033
2188,8101;0,0095828
2189,7742;0,00975692
2190,7385;0,0100122
2191,7026;0,010317
2192,6670;0,0106179
2193,6311;0,0108466
2194,5955;0,010939
2195,5596;0,0108604
2196,5239;0,0106237
2197,4880;0,0102917
2198,4524;0,00995508
2199,4165;0,00969742
2200,3809;0,00956047
2201,3450;0,00952884
2202,3093;0,00954252
2203,2734;0,00953137
2204,2378;0,00945273
2205,2019;0,00931171
2206,1663;0,00915404
2207,1304;0,00903822
2208,0947;0,00900505
2209,0588;0,00906157
2210,0232;0,00918475
2210,9873;0,00933686
2211,9517;0,00948035
2212,9158;0,00958561
2213,8801;0,00963347
2214,8442;0,00961761
2215,8086;0,00954713
2216,7727;0,00944512
2217,7371;0,00933978
2218,7012;0,00925187
2219,6655;0,00918745
2220,6296;0,00914189
2221,5940;0,0091112
2222,5581;0,0091
2223,5225;0,00911829
2224,4866;0,00917003
2225,4509;0,00924461
2226,4150;0,00931971
2227,3794;0,00937228
2228,3435;0,00939158
2229,3079;0,0093786
2230,2720;0,00933848
2231,2363;0,00927482
2232,2004;0,00919269
2233,1648;0,00910688
2234,1289;0,00904394
2235,0933;0,00903115
2236,0574;0,00907802
2237,0217;0,00916553
2237,9858;0,00925386
2238,9502;0,00930521
2239,9143;0,0093059
2240,8787;0,00927197
2241,8428;0,0092355
2242,8071;0,00922263
2243,7712;0,00923907
2244,7356;0,00927082
2245,6997;0,00929682
2246,6641;0,00930337
2247,6282;0,0092923
2248,5925;0,00928058
2249,5566;0,00929369
2250,5210;0,00935513
2251,4851;0,00947445
2252,4495;0,00963793
2253,4136;0,00980823
2254,3779;0,00993735
2255,3420;0,00998956
2256,3064;0,00996105
2257,2705;0,00988249
2258,2349;0,0098012
2259,1990;0,00975424
2260,1633;0,00974999
2261,1274;0,00976931
2262,0918;0,00978336
2263,0559;0,00977429
2264,0203;0,00974493
2264,9844;0,00971287
2265,9487;0,00969651
2266,9128;0,00970428
2267,8772;0,0097332
2268,8413;0,00977382
2269,8057;0,00981502
2270,7698;0,00984512
2271,7341;0,00985144
2272,6982;0,00982259
2273,6626;0,0097539
2274,6267;0,00965228
2275,5911;0,00953554
2276,5552;0,00942562
2277,5195;0,00934025
2278,4836;0,00928851
2279,4480;0,0092725
2280,4121;0,00929201
2281,3765;0,00934722
2282,3406;0,00943715
2283,3049;0,00955608
2284,2690;0,00969222
2285,2334;0,00983112
2286,1975;0,00996245
2287,1619;0,0100858
2288,1260;0,0102114
2289,0903;0,0103538
2290,0544;0,0105223
2291,0188;0,0107135
2291,9829;0,0109106
2292,9473;0,0110924
2293,9114;0,0112441
2294,8757;0,0113658
2295,8398;0,0114706
2296,8042;0,0115727
2297,7683;0,0116742
2298,7327;0,0117593
2299,6968;0,0118023
2300,6611;0,0117862
2301,6252;0,0117199
2302,5896;0,0116418
2303,5537;0,0116065
2304,5181;0,0116573
2305,4822;0,0118
2306,4465;0,0119913
2307,4106;0,0121502
2308,3750;0,0121894
2309,3391;0,0120535
2310,3035;0,0117444
2311,2676;0,0113223
2312,2319;0,0108791
2313,1960;0,0104986
2314,1604;0,0102243
2315,1245;0,0100503
2316,0889;0,00993808
2317,0530;0,00984496
2318,0173;0,00974763
2318,9814;0,00965095
2319,9458;0,00958283
2320,9099;0,00958285
2321,8743;0,00968873
2322,8384;0,00991745
2323,8027;0,0102429
2324,7668;0,0105881
2325,7312;0,0108469
2326,6953;0,0109292
2327,6597;0,0108013
2328,6238;0,0105046
2329,5881;0,010144
2330,5522;0,00984902
2331,5166;0,00971779
2332,4807;0,00977022
2333,4451;0,0099448
2334,4092;0,0101455
2335,3735;0,0103071
2336,3376;0,0104342
2337,3020;0,010591
2338,2661;0,0108493
2339,2305;0,0112225
2340,1946;0,0116206
2341,1589;0,0118537
2342,1230;0,0117122
2343,0874;0,0111589
2344,0515;0,0105289
2345,0159;0,0103934
2345,9800;0,0110519
2346,9443;0,0122465
2347,9084;0,0133992
2348,8728;0,0140129
2349,8369;0,0139114
2350,8013;0,0132734
2351,7654;0,0125083
2352,7297;0,0120122
2353,6938;0,0119312
2354,6582;0,0121385
2355,6223;0,0124389
2356,5867;0,0127286
2357,5508;0,0129607
2358,5151;0,0130672
2359,4792;0,0129736
2360,4436;0,0126607
2361,4077;0,0121697
2362,3721;0,0115484
2363,3362;0,0108237
2364,3005;0,0100247
2365,2646;0,00920638
2366,2290;0,00843164
2367,1931;0,00773502
2368,1575;0,007114
2369,1216;0,00655479
2370,0859;0,00606205
2371,0500;0,00566607
2372,0144;0,00540923
2372,9785;0,0053291
2373,9429;0,00544913
2374,9070;0,00577502
2375,8713;0,00629141
2376,8354;0,00695854
2377,7998;0,00771271
2378,7639;0,0084738
2379,7283;0,00915928
2380,6924;0,00970058
2381,6567;0,0100566
2382,6208;0,0102203
2383,5852;0,0102167
2384,5493;0,0100935
2385,5137;0,00990709
2386,4778;0,00970935
2387,4421;0,0095383
2388,4063;0,00941499
2389,3706;0,00934553
2390,3347;0,00932535
2391,2991;0,00934333
2392,2632;0,00938467
2393,2275;0,0094335
2394,1917;0,00947591
2395,1560;0,00950311
2396,1201;0,00951348
2397,0845;0,00951232
2398,0486;0,00951095
2399,0129;0,00951909
2399,9771;0,00954254
2400,9414;0,00958269
2401,9055;0,00963505
2402,8699;0,00969198
2403,8340;0,00974395
2404,7983;0,00978176
2405,7625;0,00979888
2406,7268;0,00979317
2407,6909;0,00976941
2408,6553;0,00973901
2409,6194;0,00971621
2410,5837;0,00971449
2411,5479;0,00974142
2412,5122;0,00979557
2413,4763;0,00986641
2414,4407;0,00993782
2415,4048;0,00999373
2416,3691;0,0100241
2417,3333;0,010029
2418,2976;0,010018
2419,2617;0,0100055
2420,2261;0,0100041
2421,1902;0,0100179
2422,1545;0,0100429
2423,1187;0,0100703
2424,0830;0,0100926
2425,0471;0,0101081
2426,0115;0,0101203
2426,9756;0,0101343
2427,9399;0,0101538
2428,9041;0,0101799
2429,8684;0,0102124
2430,8325;0,0102519
2431,7969;0,0102979
2432,7610;0,0103467
2433,7253;0,01039
2434,6895;0,0104175
2435,6538;0,0104232
2436,6179;0,0104098
2437,5823;0,0103887
2438,5464;0,0103744
2439,5107;0,0103778
2440,4749;0,010402
2441,4392;0,0104435
2442,4033;0,0104961
2443,3677;0,0105545
2444,3318;0,010614
2445,2961;0,0106689
2446,2603;0,0107116
2447,2246;0,0107351
2448,1887;0,0107369
2449,1531;0,0107217
2450,1172;0,0106999
2451,0815;0,0106836
2452,0457;0,0106823
2453,0100;0,0107005
2453,9741;0,0107377
2454,9385;0,0107899
2455,9026;0,0108499
2456,8669;0,0109077
2457,8311;0,0109513
2458,7954;0,0109708
2459,7595;0,0109631
2460,7239;0,0109354
2461,6880;0,0109043
2462,6523;0,0108902
2463,6165;0,0109085
2464,5808;0,010962
2465,5449;0,0110393
2466,5093;0,01112
2467,4734;0,011184
2468,4377;0,0112202
2469,4019;0,0112292
2470,3662;0,0112207
2471,3303;0,0112065
2472,2947;0,0111944
2473,2588;0,0111877
2474,2231;0,0111876
2475,1873;0,0111967
2476,1516;0,0112196
2477,1157;0,0112596
2478,0801;0,0113142
2479,0442;0,0113741
2480,0085;0,0114262
2480,9727;0,0114603
2481,9370;0,0114741
2482,9011;0,0114738
2483,8655;0,0114698
2484,8296;0,0114707
2485,7939;0,011479
2486,7581;0,0114911
2487,7224;0,0115009
2488,6865;0,0115044
2489,6509;0,0115022
2490,6150;0,0114987
2491,5793;0,0114994
2492,5435;0,0115078
2493,5078;0,0115232
2494,4719;0,0115425
2495,4363;0,0115618
2496,4004;0,0115787
2497,3647;0,0115931
2498,3289;0,011606
2499,2932;0,0116187
2500,2573;0,0116318
2501,2217;0,0116455
2502,1858;0,0116605
2503,1501;0,0116773
2504,1143;0,0116955
2505,0786;0,0117122
2506,0427;0,0117227
2507,0071;0,0117225
2507,9712;0,0117096
2508,9355;0,0116871
2509,8997;0,011663
2510,8640;0,0116472
2511,8281;0,0116482
2512,7925;0,0116695
2513,7566;0,011708
2514,7209;0,0117549
2515,6851;0,0117994
2516,6494;0,0118325
2517,6135;0,0118509
2518,5779;0,011858
2519,5420;0,0118617
2520,5063;0,0118702
2521,4705;0,0118875
2522,4348;0,0119106
2523,3989;0,0119324
2524,3633;0,011946
2525,3274;0,0119497
2526,2917;0,0119484
2527,2559;0,0119512
2528,2202;0,011965
2529,1843;0,0119903
2530,1487;0,0120199
2531,1128;0,0120434
2532,0771;0,0120526
2533,0413;0,0120461
2534,0056;0,012029
2534,9697;0,0120095
2535,9341;0,0119944
2536,8982;0,0119858
2537,8625;0,0119822
2538,8267;0,011981
2539,7910;0,0119811
2540,7551;0,0119837
2541,7195;0,0119911
2542,6836;0,0120047
2543,6479;0,0120236
2544,6121;0,0120446
2545,5764;0,0120645
2546,5405;0,0120818
2547,5049;0,0120973
2548,4690;0,0121131
2549,4333;0,0121297
2550,3975;0,0121452
2551,3618;0,0121557
2552,3259;0,0121578
2553,2903;0,0121518
2554,2544;0,0121416
2555,2188;0,012133
2556,1829;0,0121305
2557,1472;0,0121349
2558,1113;0,0121449
2559,0757;0,0121589
2560,0398;0,0121768
2561,0042;0,0121986
2561,9683;0,0122227
2562,9326;0,0122442
2563,8967;0,0122577
2564,8611;0,0122602
2565,8252;0,0122536
2566,7896;0,0122432
2567,7537;0,0122344
2568,7180;0,0122294
2569,6821;0,0122272
2570,6465;0,0122262
2571,6106;0,0122274
2572,5750;0,0122341
2573,5391;0,01225
2574,5034;0,0122756
2575,4675;0,0123078
2576,4319;0,0123412
2577,3960;0,0123712
2578,3604;0,0123954
2579,3245;0,0124141
2580,2888;0,0124286
2581,2529;0,0124404
2582,2173;0,0124507
2583,1814;0,0124601
2584,1458;0,0124686
2585,1099;0,0124749
2586,0742;0,0124778
2587,0383;0,0124765
2588,0027;0,0124732
2588,9668;0,0124727
2589,9312;0,0124809
2590,8953;0,0125019
2591,8596;0,0125355
2592,8237;0,012576
2593,7881;0,012614
2594,7522;0,0126397
2595,7166;0,0126472
2596,6807;0,0126376
2597,6450;0,0126191
2598,6091;0,0126045
2599,5735;0,0126055
2600,5376;0,0126278
2601,5020;0,0126688
2602,4661;0,0127191
2603,4304;0,0127671
2604,3945;0,0128045
2605,3589;0,0128291
2606,3230;0,0128441
2607,2874;0,0128559
2608,2515;0,0128706
2609,2158;0,0128922
2610,1799;0,0129214
2611,1443;0,012956
2612,1084;0,0129917
2613,0728;0,0130245
2614,0369;0,0130515
2615,0012;0,0130729
2615,9653;0,0130917
2616,9297;0,0131117
2617,8938;0,013136
2618,8582;0,0131658
2619,8223;0,0132002
2620,7866;0,0132372
2621,7507;0,0132737
2622,7151;0,0133057
2623,6792;0,013329
2624,6436;0,0133407
2625,6077;0,0133418
2626,5720;0,013339
2627,5361;0,0133435
2628,5005;0,0133661
2629,4646;0,0134116
2630,4290;0,0134754
2631,3931;0,013544
2632,3574;0,0136006
2633,3215;0,0136326
2634,2859;0,0136369
2635,2500;0,0136211
2636,2144;0,0135995
2637,1785;0,0135868
2638,1428;0,0135919
2639,1069;0,0136162
2640,0713;0,0136543
2641,0354;0,0136989
2641,9998;0,0137444
2642,9639;0,0137881
2643,9282;0,0138293
2644,8923;0,0138668
2645,8567;0,0138985
2646,8208;0,0139218
2647,7852;0,0139359
2648,7493;0,0139436
2649,7136;0,0139498
2650,6777;0,0139596
2651,6421;0,0139764
2652,6062;0,0140008
2653,5706;0,0140318
2654,5347;0,0140691
2655,4990;0,0141124
2656,4631;0,0141611
2657,4275;0,0142124
2658,3916;0,0142612
2659,3560;0,0143015
2660,3201;0,0143296
2661,2844;0,0143455
2662,2485;0,0143534
2663,2129;0,0143592
2664,1770;0,0143683
2665,1414;0,0143833
2666,1055;0,0144032
2667,0698;0,0144244
2668,0339;0,0144431
2668,9983;0,014457
2669,9624;0,0144669
2670,9268;0,0144771
2671,8909;0,0144929
2672,8552;0,0145182
2673,8193;0,0145533
2674,7837;0,0145937
2675,7478;0,0146326
2676,7122;0,0146644
2677,6763;0,0146874
2678,6406;0,0147055
2679,6047;0,0147251
2680,5691;0,0147523
2681,5332;0,0147889
2682,4976;0,014832
2683,4617;0,0148761
2684,4260;0,0149165
2685,3901;0,0149517
2686,3545;0,0149833
2687,3186;0,0150142
2688,2830;0,0150462
2689,2471;0,0150794
2690,2114;0,015113
2691,1755;0,0151471
2692,1399;0,0151829
2693,1040;0,0152224
2694,0684;0,0152659
2695,0325;0,0153114
2695,9968;0,015355
2696,9609;0,0153928
2697,9253;0,0154233
2698,8894;0,0154477
2699,8538;0,0154701
2700,8179;0,0154955
2701,7822;0,0155281
2702,7463;0,0155699
2703,7107;0,0156194
2704,6748;0,0156719
2705,6392;0,0157213
2706,6033;0,015763
2707,5676;0,0157965
2708,5317;0,0158257
2709,4961;0,0158569
2710,4602;0,0158943
2711,4246;0,0159375
2712,3887;0,0159813
2713,3530;0,0160196
2714,3171;0,0160499
2715,2815;0,0160756
2716,2456;0,0161041
2717,2100;0,0161429
2718,1741;0,0161946
2719,1384;0,0162547
2720,1025;0,0163136
2721,0669;0,0163607
2722,0310;0,016389
2722,9954;0,016399
2723,9595;0,016399
2724,9238;0,0164016
2725,8879;0,0164191
2726,8523;0,016458
2727,8164;0,0165158
2728,7808;0,0165826
2729,7449;0,0166457
2730,7092;0,0166953
2731,6733;0,0167286
2732,6377;0,0167496
2733,6018;0,0167659
2734,5662;0,0167837
2735,5303;0,0168054
2736,4946;0,016829
2737,4587;0,0168514
2738,4231;0,0168713
2739,3872;0,0168908
2740,3516;0,0169145
2741,3157;0,0169467
2742,2800;0,0169885
2743,2441;0,0170361
2744,2085;0,0170823
2745,1726;0,0171196
2746,1370;0,0171437
2747,1011;0,0171556
2748,0654;0,0171607
2749,0295;0,0171671
2749,9939;0,0171819
2750,9580;0,0172087
2751,9224;0,0172471
2752,8865;0,0172932
2753,8508;0,0173415
2754,8149;0,0173868
2755,7793;0,0174258
2756,7434;0,017458
2757,7078;0,0174851
2758,6719;0,0175103
2759,6362;0,0175376
2760,6003;0,0175704
2761,5647;0,0176115
2762,5288;0,0176621
2763,4932;0,0177209
2764,4573;0,0177839
2765,4216;0,0178458
2766,3857;0,0179019
2767,3501;0,017951
2768,3142;0,0179957
2769,2786;0,0180404
2770,2427;0,0180878
2771,2070;0,018136
2772,1711;0,0181799
2773,1355;0,0182156
2774,0996;0,0182443
2775,0640;0,0182738
2776,0281;0,0183143
2776,9924;0,0183723
2777,9565;0,0184468
2778,9209;0,0185299
2779,8850;0,0186125
2780,8494;0,0186897
2781,8135;0,018762
2782,7778;0,0188328
2783,7419;0,0189035
2784,7063;0,0189712
2785,6704;0,0190311
2786,6348;0,0190816
2787,5989;0,0191276
2788,5632;0,0191794
2789,5273;0,0192472
2790,4917;0,0193347
2791,4558;0,0194372
2792,4202;0,0195439
2793,3843;0,0196445
2794,3486;0,019734
2795,3127;0,0198143
2796,2771;0,019892
2797,2412;0,0199742
2798,2056;0,0200648
2799,1697;0,0201646
2800,1340;0,0202716
2801,0981;0,0203838
2802,0625;0,0204998
2803,0266;0,0206188
2803,9910;0,0207395
2804,9551;0,020859
2805,9194;0,0209741
2806,8835;0,0210821
2807,8479;0,0211834
2808,8120;0,0212828
2809,7764;0,0213876
2810,7405;0,0215051
2811,7048;0,0216386
2812,6689;0,0217855
2813,6333;0,021939
2814,5974;0,0220918
2815,5618;0,0222404
2816,5259;0,0223873
2817,4902;0,0225393
2818,4543;0,0227043
2819,4187;0,0228866
2820,3828;0,0230854
2821,3472;0,0232951
2822,3113;0,0235083
2823,2756;0,0237193
2824,2397;0,0239269
2825,2041;0,0241349
2826,1682;0,02435
2827,1326;0,0245789
2828,0967;0,024826
2829,0610;0,0250928
2830,0251;0,025379
2830,9895;0,0256851
2831,9536;0,0260132
2832,9180;0,0263662
2833,8821;0,026745
2834,8464;0,0271484
2835,8105;0,0275746
2836,7749;0,0280252
2837,7390;0,0285093
2838,7034;0,029044
2839,6675;0,0296522
2840,6318;0,0303582
2841,5959;0,0311834
2842,5603;0,032141
2843,5244;0,0332285
2844,4888;0,0344173
2845,4529;0,0356432
2846,4172;0,0368064
2847,3813;0,0377867
2848,3457;0,0384742
2849,3098;0,0388039
2850,2742;0,0387782
2851,2383;0,0384663
2852,2026;0,0379775
2853,1667;0,0374243
2854,1311;0,0368908
2855,0952;0,0364201
2856,0596;0,0360211
2857,0237;0,0356863
2857,9880;0,0354091
2858,9521;0,0351904
2859,9165;0,0350359
2860,8806;0,0349486
2861,8450;0,0349235
2862,8091;0,0349491
2863,7734;0,0350136
2864,7375;0,0351107
2865,7019;0,0352402
2866,6660;0,0354034
2867,6304;0,0355952
2868,5945;0,0357997
2869,5588;0,0359932
2870,5229;0,036152
2871,4873;0,0362628
2872,4514;0,0363283
2873,4158;0,0363648
2874,3799;0,0363942
2875,3442;0,0364347
2876,3083;0,0364948
2877,2727;0,0365734
2878,2368;0,0366637
2879,2012;0,0367588
2880,1653;0,036855
2881,1296;0,036953
2882,0938;0,0370576
2883,0581;0,0371749
2884,0222;0,0373102
2884,9866;0,0374657
2885,9507;0,0376394
2886,9150;0,0378261
2887,8792;0,0380195
2888,8435;0,0382147
2889,8076;0,0384094
2890,7720;0,0386031
2891,7361;0,0387958
2892,7004;0,0389878
2893,6646;0,0391804
2894,6289;0,039377
2895,5930;0,0395825
2896,5574;0,0398013
2897,5215;0,0400336
2898,4858;0,0402738
2899,4500;0,0405123
2900,4143;0,0407401
2901,3784;0,0409547
2902,3428;0,0411636
2903,3069;0,0413836
2904,2712;0,0416362
2905,2354;0,0419429
2906,1997;0,0423221
2907,1638;0,0427897
2908,1282;0,0433611
2909,0923;0,0440502
2910,0566;0,0448637
2911,0208;0,0457902
2911,9851;0,0467899
2912,9492;0,0477912
2913,9136;0,0487006
2914,8777;0,0494229
2915,8420;0,0498861
2916,8062;0,0500589
2917,7705;0,0499555
2918,7346;0,049625
2919,6990;0,0491328
2920,6631;0,0485427
2921,6274;0,0479048
2922,5916;0,0472511
2923,5559;0,0465971
2924,5200;0,0459466
2925,4844;0,0452975
2926,4485;0,0446487
2927,4128;0,0440052
2928,3770;0,0433797
2929,3413;0,0427888
2930,3054;0,0422454
2931,2698;0,041752
2932,2339;0,0412981
2933,1982;0,0408653
2934,1624;0,0404352
2935,1267;0,0399975
2936,0908;0,0395525
2937,0552;0,0391075
2938,0193;0,0386707
2938,9836;0,0382461
2939,9478;0,0378325
2940,9121;0,0374258
2941,8762;0,0370234
2942,8406;0,036627
2943,8047;0,0362429
2944,7690;0,0358799
2945,7332;0,0355463
2946,6975;0,0352473
2947,6616;0,0349844
2948,6260;0,0347551
2949,5901;0,0345539
2950,5544;0,0343731
2951,5186;0,034204
2952,4829;0,0340365
2953,4470;0,0338609
2954,4114;0,0336685
2955,3755;0,0334535
2956,3398;0,0332145
2957,3040;0,0329544
2958,2683;0,0326793
2959,2324;0,0323962
2960,1968;0,0321106
2961,1609;0,0318246
2962,1252;0,0315368
2963,0894;0,0312439
2964,0537;0,0309427
2965,0178;0,0306319
2965,9822;0,0303126
2966,9463;0,029987
2967,9106;0,0296582
2968,8748;0,0293284
2969,8391;0,0290003
2970,8032;0,0286777
2971,7676;0,028366
2972,7317;0,0280704
2973,6960;0,0277938
2974,6602;0,027534
2975,6245;0,0272842
2976,5886;0,0270365
2977,5530;0,0267863
2978,5171;0,0265361
2979,4814;0,0262948
2980,4456;0,0260743
2981,4099;0,0258839
2982,3740;0,0257266
2983,3384;0,0255983
2984,3025;0,0254899
2985,2668;0,0253907
2986,2310;0,0252914
2987,1953;0,0251869
2988,1594;0,0250783
2989,1238;0,0249726
2990,0879;0,0248801
2991,0522;0,0248095
2992,0164;0,0247633
2992,9807;0,0247357
2993,9448;0,0247159
2994,9092;0,024695
2995,8733;0,0246718
2996,8376;0,0246539
2997,8018;0,0246531
2998,7661;0,0246771
2999,7302;0,0247242
3000,6946;0,0247831
3001,6587;0,0248389
3002,6230;0,0248812
3003,5872;0,0249096
3004,5515;0,0249334
3005,5156;0,0249657
3006,4800;0,0250167
3007,4441;0,0250878
3008,4084;0,0251717
3009,3726;0,0252554
3010,3369;0,0253263
3011,3010;0,0253771
3012,2654;0,0254077
3013,2295;0,0254251
3014,1938;0,0254404
3015,1580;0,0254648
3016,1223;0,0255075
3017,0864;0,0255732
3018,0508;0,0256612
3019,0149;0,0257656
3019,9792;0,0258777
3020,9434;0,0259886
3021,9077;0,0260935
3022,8718;0,0261934
3023,8362;0,026295
3024,8003;0,0264067
3025,7646;0,0265342
3026,7288;0,0266766
3027,6931;0,0268259
3028,6572;0,0269699
3029,6216;0,0270971
3030,5857;0,0272018
3031,5500;0,0272869
3032,5142;0,0273627
3033,4785;0,0274414
3034,4426;0,0275315
3035,4070;0,0276341
3036,3711;0,0277439
3037,3354;0,0278537
3038,2996;0,0279595
3039,2639;0,028063
3040,2280;0,0281711
3041,1924;0,0282921
3042,1565;0,0284316
3043,1208;0,0285901
3044,0850;0,0287621
3045,0493;0,0289377
3046,0134;0,029105
3046,9778;0,0292545
3047,9419;0,029383
3048,9063;0,0294963
3049,8704;0,0296082
3050,8347;0,0297336
3051,7988;0,0298814
3052,7632;0,0300496
3053,7273;0,0302262
3054,6917;0,0303964
3055,6558;0,0305517
3056,6201;0,0306942
3057,5842;0,0308349
3058,5486;0,0309867
3059,5127;0,0311569
3060,4771;0,031343
3061,4412;0,0315353
3062,4055;0,0317205
3063,3696;0,031887
3064,3340;0,032029
3065,2981;0,0321478
3066,2625;0,0322521
3067,2266;0,0323554
3068,1909;0,0324719
3069,1550;0,0326108
3070,1194;0,0327726
3071,0835;0,0329488
3072,0479;0,0331258
3073,0120;0,0332916
3073,9763;0,0334409
3074,9404;0,0335776
3075,9048;0,0337109
3076,8689;0,0338492
3077,8333;0,0339945
3078,7974;0,0341412
3079,7617;0,0342794
3080,7258;0,0344017
3081,6902;0,0345084
3082,6543;0,0346085
3083,6187;0,034715
3084,5828;0,0348376
3085,5471;0,0349778
3086,5112;0,0351284
3087,4756;0,0352786
3088,4397;0,0354209
3089,4041;0,0355559
3090,3682;0,0356918
3091,3325;0,0358394
3092,2966;0,0360048
3093,2610;0,0361856
3094,2251;0,0363715
3095,1895;0,0365494
3096,1536;0,0367101
3097,1179;0,0368519
3098,0820;0,0369812
3099,0464;0,0371083
3100,0105;0,0372432
3100,9749;0,0373909
3101,9390;0,03755
3102,9033;0,0377142
3103,8674;0,0378751
3104,8318;0,0380269
3105,7959;0,0381687
3106,7603;0,0383052
3107,7244;0,0384456
3108,6887;0,0385994
3109,6528;0,0387727
3110,6172;0,0389655
3111,5813;0,0391722
3112,5457;0,0393839
3113,5098;0,0395913
3114,4741;0,0397879
3115,4382;0,039971
3116,4026;0,0401422
3117,3667;0,0403062
3118,3311;0,0404692
3119,2952;0,0406368
3120,2595;0,040812
3121,2236;0,0409935
3122,1880;0,0411766
3123,1521;0,0413551
3124,1165;0,0415247
3125,0806;0,0416857
3126,0449;0,0418435
3127,0090;0,0420068
3127,9734;0,0421831
3128,9375;0,0423761
3129,9019;0,0425845
3130,8660;0,0428025
3131,8303;0,0430229
3132,7944;0,0432384
3133,7588;0,0434431
3134,7229;0,0436337
3135,6873;0,0438102
3136,6514;0,0439764
3137,6157;0,0441399
3138,5798;0,0443104
3139,5442;0,0444962
3140,5083;0,0447012
3141,4727;0,0449238
3142,4368;0,0451585
3143,4011;0,0453989
3144,3652;0,04564
3145,3296;0,0458784
3146,2937;0,046111
3147,2581;0,0463347
3148,2222;0,0465471
3149,1865;0,0467488
3150,1506;0,0469439
3151,1150;0,0471386
3152,0791;0,047338
3153,0435;0,0475437
3154,0076;0,047754
3154,9719;0,0479671
3155,9360;0,0481834
3156,9004;0,0484057
3157,8645;0,0486368
3158,8289;0,0488758
3159,7930;0,0491182
3160,7573;0,0493581
3161,7214;0,0495924
3162,6858;0,0498223
3163,6499;0,0500522
3164,6143;0,0502856
3165,5784;0,0505223
3166,5427;0,0507584
3167,5068;0,0509882
3168,4712;0,0512086
3169,4353;0,0513379
3170,3997;0,0515476
3171,3638;0,0517621
3172,3281;0,0519866
3173,2922;0,0522225
3174,2566;0,0524667
3175,2207;0,0527125
3176,1851;0,0529524
3177,1492;0,0531809
3178,1135;0,0533964
3179,0776;0,0536019
3180,0420;0,0538033
3181,0061;0,0540062
3181,9705;0,0542142
3182,9346;0,0544277
3183,8989;0,0546442
3184,8630;0,0548596
3185,8274;0,0550694
3186,7915;0,0552709
3187,7559;0,0554642
3188,7200;0,055654
3189,6843;0,0558474
3190,6484;0,0560524
3191,6128;0,0562739
3192,5769;0,0565122
3193,5413;0,056763
3194,5054;0,0570185
3195,4697;0,0572704
3196,4338;0,057511
3197,3982;0,057735
3198,3623;0,0579407
3199,3267;0,0581313
3200,2908;0,0583141
3201,2551;0,058498
3202,2192;0,0586899
3203,1836;0,0588908
3204,1477;0,0590966
3205,1121;0,0593003
3206,0762;0,059497
3207,0405;0,0596869
3208,0046;0,0598745
3208,9690;0,060065
3209,9331;0,0602609
3210,8975;0,0604611
3211,8616;0,0606634
3212,8259;0,0608676
3213,7900;0,0610762
3214,7544;0,0612917
3215,7185;0,0615128
3216,6829;0,0617323
3217,6470;0,0619393
3218,6113;0,0621255
3219,5754;0,0622906
3220,5398;0,0624437
3221,5039;0,0625986
3222,4683;0,0627675
3223,4324;0,0629554
3224,3967;0,0631601
3225,3608;0,0633763
3226,3252;0,063599
3227,2893;0,0638251
3228,2537;0,0640503
3229,2178;0,0642679
3230,1821;0,0644691
3231,1462;0,0646474
3232,1106;0,0648041
3233,0747;0,0649488
3234,0391;0,0650958
3235,0032;0,0652575
3235,9675;0,0654405
3236,9316;0,0656452
3237,8960;0,0658689
3238,8601;0,0661083
3239,8245;0,0663575
3240,7886;0,0666066
3241,7529;0,0668411
3242,7170;0,0670474
3243,6814;0,0672209
3244,6455;0,0673716
3245,6099;0,0675212
3246,5740;0,0676934
3247,5383;0,0679014
3248,5024;0,0681424
3249,4668;0,0684009
3250,4309;0,0686589
3251,3953;0,0689047
3252,3594;0,0691366
3253,3237;0,0693608
3254,2878;0,0695852
3255,2522;0,0698143
3256,2163;0,0700481
3257,1807;0,0702836
3258,1448;0,0705182
3259,1091;0,0707516
3260,0732;0,0709859
3261,0376;0,0712236
3262,0017;0,0714651
3262,9661;0,0717067
3263,9302;0,0719412
3264,8945;0,0721607
3265,8586;0,0723605
3266,8230;0,0725423
3267,7871;0,0727143
3268,7515;0,0728858
3269,7156;0,0730615
3270,6799;0,0732367
3271,6440;0,0733993
3272,6084;0,0735355
3273,5725;0,0736396
3274,5369;0,073718
3275,5010;0,073787
3276,4653;0,0738636
3277,4294;0,073956
3278,3938;0,0740584
3279,3579;0,0741549
3280,3223;0,074228
3281,2864;0,0742686
3282,2507;0,074281
3283,2148;0,0742804
3284,1792;0,0742855
3285,1433;0,0743098
3286,1077;0,0743561
3287,0718;0,0744165
3288,0361;0,0744767
3289,0002;0,0745222
3289,9646;0,0745437
3290,9287;0,0745394
3291,8931;0,0745147
3292,8572;0,0744778
3293,8215;0,0744368
3294,7856;0,0743959
3295,7500;0,074356
3296,7141;0,0743166
3297,6785;0,0742785
3298,6426;0,0742443
3299,6069;0,0742168
3300,5710;0,074196
3301,5354;0,074178
3302,4995;0,0741566
3303,4639;0,0741271
3304,4280;0,0740896
3305,3923;0,0740484
3306,3564;0,0740091
3307,3208;0,0739739
3308,2849;0,0739407
3309,2493;0,0739062
3310,2134;0,0738703
3311,1777;0,0738392
3312,1418;0,0738234
3313,1062;0,0738307
3314,0703;0,073862
3315,0347;0,07391
3315,9988;0,0739643
3316,9631;0,0740188
3317,9272;0,0740753
3318,8916;0,0741411
3319,8557;0,0742225
3320,8201;0,0743193
3321,7842;0,0744231
3322,7485;0,0745224
3323,7126;0,0746086
3324,6770;0,07468
3325,6411;0,0747413
3326,6055;0,0747992
3327,5696;0,0748586
3328,5339;0,0749213
3329,4980;0,0749866
3330,4624;0,0750523
3331,4265;0,0751146
3332,3909;0,0751673
3333,3550;0,0752008
3334,3193;0,0752044
3335,2834;0,0751696
3336,2478;0,0750936
3337,2119;0,0749807
3338,1763;0,0748407
3339,1404;0,0746855
3340,1047;0,0745253
3341,0688;0,0743667
3342,0332;0,0742124
3342,9973;0,0740612
3343,9617;0,0739091
3344,9258;0,0737509
3345,8901;0,0735814
3346,8542;0,0733977
3347,8186;0,0731996
3348,7827;0,0729892
3349,7471;0,0727704
3350,7112;0,0725478
3351,6755;0,0723259
3352,6396;0,072109
3353,6040;0,0718998
3354,5681;0,071699
3355,5325;0,0715043
3356,4966;0,0713115
3357,4609;0,0711167
3358,4250;0,0709194
3359,3894;0,0707235
3360,3535;0,0705364
3361,3179;0,0703643
3362,2820;0,0702073
3363,2463;0,0700576
3364,2104;0,0699012
3365,1748;0,0697248
3366,1389;0,0695216
3367,1033;0,0692951
3368,0674;0,0690566
3369,0317;0,0688197
3369,9958;0,0685946
3370,9602;0,0683847
3371,9243;0,0681879
3372,8887;0,0679995
3373,8528;0,0678145
3374,8171;0,0676294
3375,7813;0,0674421
3376,7456;0,0672518
3377,7097;0,0670584
3378,6741;0,0668618
3379,6382;0,066662
3380,6025;0,0664589
3381,5667;0,0662535
3382,5310;0,0660482
3383,4951;0,0658481
3384,4595;0,0656593
3385,4236;0,0654861
3386,3879;0,0653291
3387,3521;0,0651838
3388,3164;0,0650425
3389,2805;0,0648978
3390,2449;0,0647451
3391,2090;0,0645827
3392,1733;0,064412
3393,1375;0,0642349
3394,1018;0,0640533
3395,0659;0,0638688
3396,0303;0,0636828
3396,9944;0,0634964
3397,9587;0,0633097
3398,9229;0,0631203
3399,8872;0,0629244
3400,8513;0,062719
3401,8157;0,0625042
3402,7798;0,0622852
3403,7441;0,0620692
3404,7083;0,0618621
3405,6726;0,0616644
3406,6367;0,0614713
3407,6011;0,0612754
3408,5652;0,0610711
3409,5295;0,0608565
3410,4937;0,0606333
3411,4580;0,0604047
3412,4221;0,0601735
3413,3865;0,0599419
3414,3506;0,0597108
3415,3149;0,0594801
3416,2791;0,0592475
3417,2434;0,0590081
3418,2075;0,0587553
3419,1719;0,0584845
3420,1360;0,0581971
3421,1003;0,0579013
3422,0645;0,0576091
3423,0288;0,0573301
3423,9929;0,0570663
3424,9573;0,0568131
3425,9214;0,0565621
3426,8857;0,0563068
3427,8499;0,0560449
3428,8142;0,0557783
3429,7783;0,0555099
3430,7427;0,0552406
3431,7068;0,0549684
3432,6711;0,0546907
3433,6353;0,0544072
3434,5996;0,0541226
3435,5637;0,0538445
3436,5281;0,0535796
3437,4922;0,0533298
3438,4565;0,0530922
3439,4207;0,0528614
3440,3850;0,0526337
3441,3491;0,0524077
3442,3135;0,0521826
3443,2776;0,0519542
3444,2419;0,0517142
3445,2061;0,0514522
3446,1704;0,051162
3447,1345;0,0508453
3448,0989;0,0505118
3449,0630;0,0501735
3450,0273;0,0498398
3450,9915;0,0495162
3451,9558;0,0492079
3452,9199;0,0489209
3453,8843;0,0486598
3454,8484;0,0484239
3455,8127;0,0482053
3456,7769;0,0479911
3457,7412;0,0477691
3458,7053;0,0475313
3459,6697;0,0472749
3460,6338;0,0470001
3461,5981;0,046708
3462,5623;0,0464004
3463,5266;0,0460802
3464,4907;0,0457522
3465,4551;0,0454235
3466,4192;0,0451024
3467,3835;0,0447964
3468,3477;0,0445112
3469,3120;0,0442478
3470,2761;0,0440017
3471,2405;0,0437632
3472,2046;0,0435215
3473,1689;0,0432701
3474,1331;0,0430115
3475,0974;0,0427559
3476,0615;0,0425152
3477,0259;0,0422945
3477,9900;0,0420873
3478,9543;0,0418787
3479,9185;0,0416523
3480,8828;0,0413993
3481,8469;0,0411226
3482,8113;0,0408331
3483,7754;0,0405413
3484,7397;0,0402509
3485,7039;0,0399591
3486,6682;0,0396626
3487,6323;0,0393631
3488,5967;0,039068
3489,5608;0,0387879
3490,5251;0,03853
3491,4893;0,0382943
3492,4536;0,0380739
3493,4177;0,0378596
3494,3821;0,0376453
3495,3462;0,0374328
3496,3105;0,0372317
3497,2747;0,0370521
3498,2390;0,0368943
3499,2031;0,0367425
3500,1675;0,0365677
3501,1316;0,0363403
3502,0959;0,0360494
3503,0601;0,0357155
3504,0244;0,0353831
3504,9885;0,0350914
3505,9529;0,0348477
3506,9170;0,0346254
3507,8813;0,0343823
3508,8455;0,0340873
3509,8098;0,0337403
3510,7739;0,0333736
3511,7383;0,0330312
3512,7024;0,0327417
3513,6667;0,032506
3514,6309;0,0323052
3515,5952;0,0321179
3516,5593;0,0319339
3517,5237;0,0317578
3518,4878;0,0316015
3519,4521;0,0314718
3520,4163;0,0313624
3521,3806;0,0312539
3522,3447;0,0311216
3523,3091;0,030947
3524,2732;0,030724
3525,2375;0,030457
3526,2017;0,0301542
3527,1660;0,0298228
3528,1301;0,0294712
3529,0945;0,0291136
3530,0586;0,0287695
3531,0229;0,0284557
3531,9871;0,0281791
3532,9514;0,0279339
3533,9155;0,0277047
3534,8799;0,0274736
3535,8440;0,0272297
3536,8083;0,026979
3537,7725;0,0267449
3538,7368;0,0265581
3539,7009;0,0264394
3540,6653;0,0263875
3541,6294;0,026375
3542,5938;0,0263512
3543,5579;0,0262541
3544,5222;0,0260384
3545,4863;0,0257069
3546,4507;0,0253164
3547,4148;0,0249396
3548,3792;0,0246167
3549,3433;0,0243397
3550,3076;0,0240718
3551,2717;0,0237782
3552,2361;0,0234514
3553,2002;0,0231169
3554,1646;0,0228147
3555,1287;0,0225708
3556,0930;0,0223843
3557,0571;0,0222399
3558,0215;0,0221282
3558,9856;0,0220571
3559,9500;0,0220454
3560,9141;0,0221023
3561,8784;0,0222072
3562,8425;0,0223034
3563,8069;0,0223034
3564,7710;0,0221031
3565,7354;0,0216257
3566,6995;0,0209097
3567,6638;0,020145
3568,6279;0,019543
3569,5923;0,0191765
3570,5564;0,0189777
3571,5208;0,0188381
3572,4849;0,0186828
3573,4492;0,0184894
3574,4133;0,0182729
3575,3777;0,0180599
3576,3418;0,0178691
3577,3062;0,0177074
3578,2703;0,017579
3579,2346;0,0174933
3580,1987;0,0174618
3581,1631;0,0174831
3582,1272;0,017533
3583,0916;0,0175676
3584,0557;0,0175346
3585,0200;0,0173864
3585,9841;0,0170997
3586,9485;0,0167177
3587,9126;0,0163688
3588,8770;0,0161853
3589,8411;0,0161936
3590,8054;0,0163111
3591,7695;0,0164228
3592,7339;0,016443
3593,6980;0,0163425
3594,6624;0,0161507
3595,6265;0,0159316
3596,5908;0,0157347
3597,5549;0,0155587
3598,5193;0,0153642
3599,4834;0,0151192
3600,4478;0,0148354
3601,4119;0,0145642
3602,3762;0,0143515
3603,3403;0,0141977
3604,3047;0,0140554
3605,2688;0,0138554
3606,2332;0,0135399
3607,1973;0,0130957
3608,1616;0,0125774
3609,1257;0,0120905
3610,0901;0,0117326
3611,0542;0,0115456
3612,0186;0,0115095
3612,9827;0,0115638
3613,9470;0,011632
3614,9111;0,011644
3615,8755;0,0115517
3616,8396;0,0113428
3617,8040;0,0110519
3618,7681;0,0107682
3619,7324;0,0106136
3620,6965;0,0106728
3621,6609;0,0109278
3622,6250;0,0112649
3623,5894;0,0115426
3624,5535;0,0116485
3625,5178;0,0115187
3626,4819;0,0111279
3627,4463;0,0104894
3628,4104;0,00971028
3629,3748;0,00901589
3630,3389;0,00858067
3631,3032;0,00836497
3632,2673;0,00819927
3633,2317;0,00794713
3634,1958;0,00757609
3635,1602;0,00714097
3636,1243;0,0067262
3637,0886;0,00638948
3638,0527;0,00614179
3639,0171;0,00596846
3639,9812;0,00586112
3640,9456;0,00582833
3641,9097;0,00587878
3642,8740;0,0059986
3643,8381;0,00614676
3644,8025;0,00626852
3645,7666;0,00630079
3646,7310;0,00614401
3647,6951;0,00564858
3648,6594;0,00478149
3649,6235;0,00385966
3650,5879;0,00328645
3651,5520;0,00311342
3652,5164;0,00311404
3653,4805;0,00305688
3654,4448;0,00283425
3655,4089;0,00247407
3656,3733;0,0020979
3657,3374;0,00183444
3658,3018;0,00172913
3659,2659;0,00173149
3660,2302;0,00176496
3661,1943;0,00179681
3662,1587;0,00184959
3663,1228;0,0019596
3664,0872;0,00212782
3665,0513;0,00231247
3666,0156;0,00246198
3666,9797;0,00255271
3667,9441;0,00259495
3668,9082;0,00261216
3669,8726;0,00262513
3670,8367;0,00263816
3671,8010;0,00261863
3672,7651;0,00250945
3673,7295;0,0022723
3674,6936;0,00192288
3675,6580;0,00155236
3676,6221;0,00129883
3677,5864;0,00123482
3678,5505;0,00131112
3679,5149;0,00143823
3680,4790;0,00157526
3681,4434;0,00173676
3682,4075;0,00194388
3683,3718;0,00217951
3684,3359;0,00238758
3685,3003;0,00251195
3686,2644;0,00253734
3687,2288;0,0024977
3688,1929;0,0024489
3689,1572;0,00244257
3690,1213;0,00252101
3691,0857;0,00269405
3692,0498;0,00291911
3693,0142;0,00313408
3693,9783;0,00330035
3694,9426;0,0034111
3695,9067;0,00347423
3696,8711;0,0034954
3697,8352;0,00347543
3698,7996;0,00342009
3699,7637;0,00335095
3700,7280;0,00330713
3701,6921;0,00333427
3702,6565;0,00346226
3703,6206;0,00368327
3704,5850;0,0039491
3705,5491;0,00419168
3706,5134;0,00434495
3707,4775;0,00434695
3708,4419;0,00412264
3709,4060;0,00358621
3710,3704;0,00273094
3711,3345;0,00176056
3712,2988;0,00101642
3713,2629;0,000705831
3714,2273;0,000796478
3715,1914;0,00113851
3716,1558;0,00159674
3717,1199;0,00209813
3718,0842;0,00261966
3719,0483;0,00315465
3720,0127;0,00368425
3720,9768;0,00416978
3721,9412;0,00456607
3722,9053;0,0048427
3723,8696;0,00499947
3724,8337;0,0050689
3725,7981;0,00509991
3726,7622;0,00512815
3727,7266;0,00515642
3728,6907;0,00516345
3729,6550;0,00512873
3730,6191;0,005047
3731,5835;0,00491666
3732,5476;0,00470852
3733,5120;0,00435647
3734,4761;0,00383334
3735,4404;0,00326351
3736,4045;0,0028673
3737,3689;0,00274567
3738,3330;0,00279546
3739,2974;0,00281331
3740,2615;0,0026256
3741,2258;0,00216351
3742,1899;0,00149792
3743,1543;0,000838285
3744,1184;0,000450658
3745,0828;0,000477136
3746,0469;0,000811316
3747,0112;0,00118792
3747,9753;0,00135976
3748,9397;0,00119158
3749,9038;0,00069963
3750,8682;9,72142E-05
3751,8323;-0,000290652
3752,7966;-0,00030438
3753,7607;-5,92206E-05
3754,7251;0,000223433
3755,6892;0,000380948
3756,6536;0,000355214
3757,6177;0,000179188
3758,5820;-5,01977E-05
3759,5461;-0,000218447
3760,5105;-0,000257667
3761,4746;-0,000178205
3762,4390;-4,1532E-05
3763,4031;8,61235E-05
3764,3674;0,00015992
3765,3315;0,000159786
3766,2959;8,39531E-05
3767,2600;-5,76321E-05
3768,2244;-0,00024498
3769,1885;-0,000443594
3770,1528;-0,000602124
3771,1169;-0,000668488
3772,0813;-0,000621045
3773,0454;-0,000486349
3774,0098;-0,000324528
3774,9739;-0,000197777
3775,9382;-0,000145672
3776,9023;-0,000175761
3777,8667;-0,000263084
3778,8308;-0,000354923
3779,7952;-0,000393157
3780,7593;-0,000351719
3781,7236;-0,000255321
3782,6877;-0,000161842
3783,6521;-0,000128697
3784,6162;-0,000184919
3785,5806;-0,000317167
3786,5447;-0,000476494
3787,5090;-0,000604083
3788,4731;-0,000660882
3789,4375;-0,00064164
3790,4016;-0,000566488
3791,3660;-0,000458453
3792,3301;-0,000322536
3793,2944;-0,000141352
3794,2585;0,000106551
3795,2229;0,000415973
3796,1870;0,000737174
3797,1514;0,00098921
3798,1155;0,00109572
3799,0798;0,00101936
3800,0439;0,000782787
3801,0083;0,000470221
3801,9724;0,000185865
3802,9368;-2,59055E-05
3803,9009;-0,000212269
3804,8652;-0,000449108
3805,8293;-0,000748738
3806,7937;-0,00101943
3807,7578;-0,00111812
3808,7222;-0,000971555
3809,6863;-0,000646766
3810,6506;-0,000294286
3811,6147;-3,79815E-05
3812,5791;9,17343E-05
3813,5432;0,000157271
3814,5076;0,000258425
3815,4717;0,000452085
3816,4360;0,000701813
3817,4001;0,000896191
3818,3645;0,000915194
3819,3286;0,000701017
3820,2930;0,000312435
3821,2571;-7,81979E-05
3822,2214;-0,000295238
3823,1855;-0,000292963
3824,1499;-0,000159952
3825,1140;-1,9017E-05
3826,0784;5,61503E-05
3827,0425;6,33832E-05
3828,0068;5,10158E-05
3828,9709;7,88896E-05
3829,9353;0,000183205
3830,8994;0,000360475
3831,8638;0,000572606
3832,8279;0,000765271
3833,7922;0,000889583
3834,7563;0,000918113
3835,7207;0,00084899
3836,6848;0,000699321
3837,6492;0,000497183
3838,6133;0,000277629
3839,5776;7,11388E-05
3840,5417;-0,000112523
3841,5061;-0,000278543
3842,4702;-0,000416455
3843,4346;-0,000479781
3844,3987;-0,00040414
3845,3630;-0,00015544
3846,3271;0,000231165
3847,2915;0,00065358
3848,2556;0,000979744
3849,2200;0,00108839
3850,1841;0,000891426
3851,1484;0,000341379
3852,1125;-0,000522344
3853,0769;-0,00143108
3854,0410;-0,00191445
3855,0054;-0,00175139
3855,9695;-0,00116358
3856,9338;-0,000501003
3857,8979;1,00936E-05
3858,8623;0,000299841
3859,8264;0,000403791
3860,7908;0,000403753
3861,7549;0,000376266
3862,7192;0,000360961
3863,6833;0,000361899
3864,6477;0,000367593
3865,6118;0,000363124
3866,5762;0,000334875
3867,5403;0,000276528
3868,5046;0,00019032
3869,4688;8,15703E-05
3870,4331;-4,26296E-05
3871,3972;-0,000166306
3872,3616;-0,000263804
3873,3257;-0,000313611
3874,2900;-0,00031234
3875,2542;-0,000274223
3876,2185;-0,000217736
3877,1826;-0,000152342
3878,1470;-7,59746E-05
3879,1111;1,28421E-05
3880,0754;9,87768E-05
3881,0396;0,000146605
3882,0039;0,000116808
3882,9680;-9,47107E-06
3883,9324;-0,000209039
3884,8965;-0,000415
3885,8608;-0,000549797
3886,8250;-0,000578111
3887,7893;-0,000530628
3888,7534;-0,000473648
3889,7178;-0,000455981
3890,6819;-0,00047441
3891,6462;-0,000474785
3892,6104;-0,000392515
3893,5747;-0,000210932
3894,5388;2,0802E-05
3895,5032;0,000229997
3896,4673;0,000371781
3897,4316;0,000444226
3898,3958;0,000467245
3899,3601;0,000451867
3900,3242;0,000385604
3901,2886;0,000242905
3902,2527;1,06474E-05
3903,2170;-0,00028561
3904,1812;-0,000577977
3905,1455;-0,000792727
3906,1096;-0,000897842
3907,0740;-0,000912428
3908,0381;-0,000876929
3909,0024;-0,000821015
3909,9666;-0,000752655
3910,9309;-0,000666698
3911,8950;-0,00056015
3912,8594;-0,00044226
3913,8235;-0,000334426
3914,7878;-0,000262196
3915,7520;-0,000243101
3916,7163;-0,000272826
3917,6804;-0,000318608
3918,6448;-0,000335268
3919,6089;-0,000298227
3920,5732;-0,000222789
3921,5374;-0,000151569
3922,5017;-0,000125268
3923,4658;-0,000156331
3924,4302;-0,000218408
3925,3943;-0,000261725
3926,3586;-0,000248337
3927,3228;-0,000178543
3928,2871;-8,91066E-05
3929,2512;-3,26474E-05
3930,2156;-5,3365E-05
3931,1797;-0,000163966
3932,1440;-0,000333134
3933,1082;-0,000500466
3934,0725;-0,000613057
3935,0366;-0,000650907
3936,0010;-0,000624651
3936,9651;-0,00055926
3937,9294;-0,000480848
3938,8936;-0,000410888
3939,8579;-0,000364141
3940,8220;-0,00034597
3941,7864;-0,000348732
3942,7505;-0,000352697
3943,7148;-0,00033642
3944,6790;-0,000292652
3945,6433;-0,000235684
3946,6074;-0,000195057
3947,5718;-0,00020072
3948,5359;-0,000266727
3949,5002;-0,000381117
3950,4644;-0,000510864
3951,4287;-0,000621064
3952,3928;-0,000692569
3953,3572;-0,00072523
3954,3213;-0,000729873
3955,2856;-0,00071884
3956,2498;-0,000700758
3957,2141;-0,000680117
3958,1782;-0,00065995
3959,1426;-0,000644702
3960,1067;-0,000640771
3961,0710;-0,000653878
3962,0352;-0,000684956
3962,9995;-0,000727867
3963,9636;-0,000771288
3964,9280;-0,000802983
3965,8921;-0,000814635
3966,8564;-0,000804108
3967,8206;-0,000775586
3968,7849;-0,00073782
3969,7490;-0,000701208
3970,7134;-0,000674682
3971,6775;-0,000663456
3972,6418;-0,000668054
3973,6060;-0,000684734
3974,5703;-0,000707188
3975,5344;-0,000729196
3976,4988;-0,000747089
3977,4629;-0,00076079
3978,4272;-0,000772887
3979,3914;-0,000786658
3980,3557;-0,00080439
3981,3198;-0,0008267
3982,2842;-0,000852386
3983,2483;-0,000878288
3984,2126;-0,000899226
3985,1768;-0,000908796
3986,1411;-0,000901448
3987,1052;-0,000875285
3988,0696;-0,000834064
3989,0337;-0,000786312
3989,9980;-0,000742551
3990,9622;-0,000711444
3991,9265;-0,000697869
3992,8906;-0,000703514
3993,8550;-0,000728318
3994,8191;-0,000770604
3995,7834;-0,000825576
3996,7476;-0,00088413
3997,7119;-0,000934236
3998,6760;-0,000965071
3999,6404;-0,000971576
4000,6045;-0,000754248

##### Extended Information
[Comments]
Sample name
Comment
Username
Division
Organization;UNIVERSIDAD INDUSTRIAL DE SANTANDER

[Detailed Information]
Creation date;19/03/2025 2:33 p.m.

Data array type;Linear data array
Horizontal axis;Wavenumber [cm-1]
Vertical axis;Abs
Start;399,193 cm-1
End;4000,6 cm-1
Data interval;0,964233 cm-1
Data points;3736    

[Measurement Information]
Model name;FT/IR-4X1typeA
Serial No.;A035162111

Accessory;ATR PRO 4X
Accessory S/N;A021162126
Incident angle;45 deg

Measurement date;19/03/2025 2:32 p.m.

Light source;Standard
Detector;TGS
Accumulation;40
Resolution;4 cm-1
Zero filling;On
Apodization;Cosine
Gain;Auto (8)
Aperture;Auto (7 mm)
Scan speed;Auto (2 mm/sec)
Filter;Auto (12800 Hz)

