TITLE;
DATA TYPE;INFRARED SPECTRUM
ORIGIN;JASCO
OWNER;
DATE;25/03/19
TIME;14:37:55
SPECTROMETER/DATA SYSTEM;
LOCALE;9226
RESOLUTION;
DELTAX;0,964233
XUNITS;1/CM
YUNITS;ABSORBANCE
FIRSTX;  399,1927
LASTX; 4000,6047
NPOINTS;    3736
FIRSTY;     0,24856
MAXY;     0,27036
MINY;    -0,00322
XYDATA
399,1927;0,248564
400,1569;0,244539
401,1211;0,241015
402,0854;0,238039
403,0496;0,235616
404,0138;0,233767
404,9781;0,232527
405,9423;0,231895
406,9065;0,231756
407,8708;0,231845
408,8350;0,231803
409,7992;0,231338
410,7635;0,230421
411,7277;0,22939
412,6919;0,228801
413,6562;0,229114
414,6204;0,230457
415,5846;0,232573
416,5489;0,23482
417,5131;0,236224
418,4773;0,235924
419,4416;0,234063
420,4058;0,231878
421,3700;0,230456
422,3343;0,230001
423,2985;0,230167
424,2627;0,230534
425,2270;0,230833
426,1912;0,231
427,1554;0,231117
428,1197;0,231294
429,0839;0,231564
430,0481;0,231852
431,0124;0,232012
431,9766;0,231903
432,9408;0,231478
433,9051;0,230823
434,8693;0,230137
435,8335;0,229621
436,7978;0,229365
437,7620;0,229299
438,7262;0,229267
439,6905;0,229165
440,6547;0,229014
441,6189;0,228919
442,5832;0,228912
443,5474;0,228819
444,5116;0,228316
445,4759;0,22718
446,4401;0,225505
447,4043;0,223703
448,3686;0,222282
449,3328;0,221585
450,2970;0,221623
451,2613;0,222097
452,2255;0,222597
453,1897;0,222835
454,1540;0,222757
455,1182;0,222493
456,0824;0,222232
457,0467;0,222129
458,0109;0,222255
458,9751;0,222596
459,9394;0,223068
460,9036;0,22354
461,8678;0,223868
462,8321;0,223932
463,7963;0,223691
464,7605;0,223221
465,7248;0,222696
466,6890;0,222289
467,6532;0,222065
468,6175;0,221947
469,5817;0,221782
470,5459;0,221451
471,5102;0,22096
472,4744;0,220446
473,4386;0,220083
474,4029;0,219959
475,3671;0,220033
476,3313;0,220186
477,2956;0,220291
478,2598;0,220256
479,2240;0,220037
480,1883;0,219652
481,1525;0,219178
482,1167;0,218745
483,0810;0,2185
484,0452;0,218554
485,0094;0,218924
485,9737;0,219522
486,9379;0,220196
487,9021;0,220809
488,8664;0,221274
489,8306;0,221557
490,7948;0,221654
491,7591;0,221583
492,7233;0,221381
493,6875;0,22111
494,6518;0,220852
495,6160;0,220686
496,5802;0,220666
497,5445;0,220806
498,5087;0,221087
499,4729;0,221468
500,4372;0,2219
501,4014;0,222328
502,3656;0,222685
503,3299;0,222903
504,2941;0,222946
505,2583;0,222838
506,2226;0,222677
507,1868;0,222611
508,1510;0,222777
509,1153;0,22323
510,0795;0,223917
511,0437;0,224702
512,0080;0,225448
512,9722;0,22608
513,9365;0,226597
514,9007;0,227042
515,8649;0,227452
516,8292;0,227814
517,7934;0,228068
518,7576;0,228147
519,7219;0,228033
520,6861;0,227777
521,6503;0,227473
522,6146;0,227229
523,5788;0,227136
524,5430;0,227242
525,5073;0,227522
526,4715;0,227867
527,4357;0,228109
528,4000;0,228101
529,3642;0,227771
530,3284;0,227141
531,2927;0,226306
532,2569;0,225405
533,2211;0,224579
534,1854;0,223938
535,1496;0,22353
536,1138;0,22334
537,0781;0,223298
538,0423;0,223303
539,0065;0,223264
539,9708;0,223136
540,9350;0,222945
541,8992;0,222781
542,8635;0,222759
543,8277;0,222955
544,7919;0,223365
545,7562;0,223895
546,7204;0,224399
547,6846;0,224756
548,6489;0,224923
549,6131;0,224954
550,5773;0,22496
551,5416;0,225047
552,5058;0,225271
553,4700;0,225623
554,4343;0,226042
555,3985;0,226439
556,3627;0,226714
557,3270;0,226767
558,2912;0,226507
559,2554;0,225874
560,2197;0,224866
561,1839;0,223561
562,1481;0,222099
563,1124;0,220641
564,0766;0,219306
565,0408;0,218136
566,0051;0,217111
566,9693;0,216192
567,9335;0,215361
568,8978;0,214634
569,8620;0,214035
570,8262;0,213562
571,7905;0,213177
572,7547;0,212831
573,7189;0,212497
574,6832;0,212182
575,6474;0,211918
576,6116;0,211718
577,5759;0,211556
578,5401;0,211373
579,5043;0,211109
580,4686;0,210739
581,4328;0,21028
582,3970;0,209777
583,3613;0,209286
584,3255;0,208851
585,2897;0,20851
586,2540;0,208295
587,2182;0,208231
588,1824;0,20832
589,1467;0,208519
590,1109;0,208745
591,0751;0,208887
592,0394;0,208852
593,0036;0,208603
593,9678;0,208173
594,9321;0,207633
595,8963;0,207061
596,8605;0,206512
597,8248;0,206018
598,7890;0,205596
599,7532;0,20525
600,7175;0,204968
601,6817;0,204713
602,6459;0,20443
603,6102;0,204072
604,5744;0,203622
605,5386;0,203102
606,5029;0,202551
607,4671;0,201984
608,4313;0,201375
609,3956;0,200676
610,3598;0,199874
611,3240;0,199034
612,2883;0,198293
613,2525;0,19778
614,2167;0,197513
615,1810;0,197344
616,1452;0,196988
617,1094;0,196163
618,0737;0,194761
619,0379;0,192921
620,0021;0,190952
620,9664;0,189161
621,9306;0,18772
622,8948;0,186633
623,8591;0,18579
624,8233;0,184986
625,7875;0,184238
626,7518;0,183512
627,7160;0,182816
628,6802;0,182159
629,6445;0,181534
630,6087;0,180921
631,5729;0,180305
632,5372;0,179685
633,5014;0,179071
634,4656;0,178481
635,4299;0,177933
636,3941;0,177445
637,3583;0,177034
638,3226;0,17671
639,2868;0,176464
640,2510;0,176266
641,2153;0,176071
642,1795;0,175833
643,1437;0,175528
644,1080;0,17516
645,0722;0,174759
646,0364;0,174364
647,0007;0,174018
647,9649;0,173752
648,9291;0,173581
649,8934;0,173496
650,8576;0,173466
651,8218;0,173455
652,7861;0,173445
653,7503;0,173451
654,7145;0,173505
655,6788;0,173628
656,6430;0,173805
657,6072;0,173994
658,5715;0,174142
659,5357;0,174206
660,4999;0,174128
661,4642;0,173818
662,4284;0,173132
663,3926;0,17191
664,3569;0,17011
665,3211;0,168018
666,2853;0,166361
667,2496;0,165929
668,2138;0,166564
669,1780;0,16714
670,1423;0,16714
671,1065;0,166728
672,0707;0,165895
673,0350;0,164532
673,9992;0,162722
674,9634;0,160715
675,9277;0,158757
676,8919;0,156961
677,8561;0,155316
678,8204;0,153779
679,7846;0,152356
680,7488;0,151088
681,7131;0,15
682,6773;0,149062
683,6415;0,148212
684,6058;0,147403
685,5700;0,146628
686,5342;0,145897
687,4985;0,145208
688,4627;0,144542
689,4269;0,143857
690,3912;0,143146
691,3554;0,142446
692,3196;0,141817
693,2839;0,141294
694,2481;0,14087
695,2123;0,140493
696,1766;0,140103
697,1408;0,139653
698,1050;0,139134
699,0693;0,13856
700,0335;0,137958
700,9977;0,137343
701,9620;0,136719
702,9262;0,136083
703,8904;0,135415
704,8547;0,134727
705,8189;0,134036
706,7831;0,133352
707,7474;0,132673
708,7116;0,131984
709,6758;0,131257
710,6401;0,130471
711,6043;0,129615
712,5685;0,128705
713,5328;0,127788
714,4970;0,126932
715,4612;0,124962
716,4255;0,124629
717,3897;0,124474
718,3539;0,124291
719,3182;0,123818
720,2824;0,122867
721,2466;0,12144
722,2109;0,11973
723,1751;0,118003
724,1393;0,116466
725,1036;0,115188
726,0678;0,114124
727,0320;0,113175
727,9963;0,112263
728,9605;0,111361
729,9247;0,110489
730,8890;0,109678
731,8532;0,108951
732,8174;0,108305
733,7817;0,107725
734,7459;0,107192
735,7101;0,10669
736,6744;0,106212
737,6386;0,105754
738,6028;0,105318
739,5671;0,104901
740,5313;0,104492
741,4955;0,104072
742,4598;0,103616
743,4240;0,103108
744,3882;0,102547
745,3525;0,101947
746,3167;0,101333
747,2809;0,10073
748,2452;0,100159
749,2094;0,0996248
750,1736;0,0991253
751,1379;0,0986477
752,1021;0,0981741
753,0663;0,0976865
754,0306;0,0971726
754,9948;0,0966305
755,9590;0,0960687
756,9233;0,0955013
757,8875;0,0949409
758,8517;0,0943938
759,8160;0,0938603
760,7802;0,0933385
761,7444;0,0928285
762,7087;0,0923331
763,6729;0,0918555
764,6371;0,0913972
765,6014;0,0909592
766,5656;0,0905445
767,5298;0,0901599
768,4941;0,0898116
769,4583;0,0894968
770,4225;0,0891968
771,3868;0,0888796
772,3510;0,088512
773,3152;0,0880776
774,2795;0,0875872
775,2437;0,0870749
776,2079;0,0865813
777,1722;0,0861326
778,1364;0,085729
779,1006;0,0853482
780,0649;0,0849614
781,0291;0,0845519
781,9933;0,0841233
782,9576;0,0836968
783,9218;0,083298
784,8860;0,0829434
785,8503;0,0826332
786,8145;0,0823532
787,7787;0,082083
788,7430;0,0818048
789,7072;0,0815105
790,6714;0,081203
791,6357;0,0808936
792,5999;0,0805963
793,5641;0,0803205
794,5284;0,0800659
795,4926;0,0798218
796,4568;0,0795718
797,4211;0,0793036
798,3853;0,0790182
799,3495;0,0787317
800,3138;0,0784686
801,2780;0,0782481
802,2422;0,0780726
803,2065;0,077925
804,1707;0,077777
805,1349;0,0776049
806,0992;0,0774007
807,0634;0,0771731
808,0276;0,0769395
808,9919;0,0767127
809,9561;0,076495
810,9203;0,0762806
811,8846;0,0760655
812,8488;0,0758561
813,8130;0,0756689
814,7773;0,0755215
815,7415;0,0754205
816,7057;0,0753547
817,6700;0,0752998
818,6342;0,0752314
819,5984;0,0751385
820,5627;0,0750275
821,5269;0,0749156
822,4911;0,0748173
823,4554;0,0747345
824,4196;0,0746564
825,3839;0,0745673
826,3481;0,0744572
827,3123;0,0743258
828,2766;0,0741787
829,2408;0,0740209
830,2050;0,0738528
831,1693;0,0736714
832,1335;0,0734755
833,0977;0,0732672
834,0620;0,0730508
835,0262;0,0728286
835,9904;0,0725992
836,9547;0,0723592
837,9189;0,0721075
838,8831;0,0718462
839,8474;0,0715788
840,8116;0,071308
841,7758;0,0710358
842,7401;0,0707666
843,7043;0,0705104
844,6685;0,0702808
845,6328;0,070088
846,5970;0,0699323
847,5612;0,069803
848,5255;0,0696851
849,4897;0,0695691
850,4539;0,0694555
851,4182;0,0693516
852,3824;0,0692629
853,3466;0,0691867
854,3109;0,0691132
855,2751;0,0690332
856,2393;0,0689458
857,2036;0,0688598
858,1678;0,0687882
859,1320;0,0687411
860,0963;0,0687204
861,0605;0,0687212
862,0247;0,0687356
862,9890;0,0687569
863,9532;0,0687814
864,9174;0,0688097
865,8817;0,0688474
866,8459;0,0689065
867,8101;0,0690043
868,7744;0,0691587
869,7386;0,0693805
870,7028;0,0696656
871,6671;0,0699912
872,6313;0,0703185
873,5955;0,0706027
874,5598;0,0708065
875,5240;0,070914
876,4882;0,0709386
877,4525;0,0709217
878,4167;0,0709202
879,3809;0,070989
880,3452;0,0711649
881,3094;0,071461
882,2736;0,0718725
883,2379;0,0723891
884,2021;0,073005
885,1663;0,0737202
886,1306;0,0745338
887,0948;0,0754369
888,0590;0,0764102
889,0233;0,0774277
889,9875;0,0784627
890,9517;0,0794893
891,9160;0,0804799
892,8802;0,081402
893,8444;0,0822192
894,8087;0,0828979
895,7729;0,0834147
896,7371;0,0837589
897,7014;0,08393
898,6656;0,0839317
899,6298;0,0837697
900,5941;0,0834548
901,5583;0,0830078
902,5225;0,0824616
903,4868;0,0818585
904,4510;0,0812434
905,4152;0,0806566
906,3795;0,0801311
907,3437;0,0796907
908,3079;0,0793508
909,2722;0,0791173
910,2364;0,0789867
911,2007;0,0789474
912,1649;0,0789826
913,1292;0,0790749
914,0934;0,079212
915,0576;0,0793894
916,0219;0,079612
916,9861;0,0798902
917,9503;0,0802327
918,9146;0,0806374
919,8788;0,0810862
920,8430;0,0815467
921,8073;0,0819835
922,7715;0,0823704
923,7357;0,0827005
924,7000;0,0829853
925,6642;0,0832462
926,6284;0,0835035
927,5927;0,0837695
928,5569;0,0840474
929,5211;0,0843341
930,4854;0,0846232
931,4496;0,0849077
932,4138;0,0851816
933,3781;0,0854441
934,3423;0,0857045
935,3065;0,0859838
936,2708;0,0863112
937,2350;0,0867137
938,1992;0,0872066
939,1635;0,0877875
940,1277;0,0884414
941,0919;0,0891524
942,0562;0,0899154
943,0204;0,0907424
943,9846;0,0916564
944,9489;0,0926784
945,9131;0,093813
946,8773;0,0950436
947,8416;0,0963396
948,8058;0,097672
949,7700;0,0990305
950,7343;0,10043
951,6985;0,101903
952,6627;0,103487
953,6270;0,105201
954,5912;0,107046
955,5554;0,109001
956,5197;0,111035
957,4839;0,113125
958,4481;0,115258
959,4124;0,117431
960,3766;0,119645
961,3408;0,121895
962,3051;0,124166
963,2693;0,126436
964,2335;0,128688
965,1978;0,130924
966,1620;0,133167
967,1262;0,135461
968,0905;0,137852
969,0547;0,140376
970,0189;0,143047
970,9832;0,145868
971,9474;0,148844
972,9116;0,151994
973,8759;0,155356
974,8401;0,158964
975,8043;0,162836
976,7686;0,166954
977,7328;0,171266
978,6970;0,175699
979,6613;0,180171
980,6255;0,184598
981,5897;0,188889
982,5540;0,192946
983,5182;0,196674
984,4824;0,200003
985,4467;0,202913
986,4109;0,205442
987,3751;0,207672
988,3394;0,209698
989,3036;0,211591
990,2678;0,213374
991,2321;0,215033
992,1963;0,216535
993,1605;0,217862
994,1248;0,219022
995,0890;0,220046
996,0532;0,220975
997,0175;0,221839
997,9817;0,222651
998,9459;0,223411
999,9102;0,224126
1000,8744;0,224823
1001,8386;0,225554
1002,8029;0,226384
1003,7671;0,227378
1004,7313;0,228585
1005,6956;0,230029
1006,6598;0,231721
1007,6240;0,233661
1008,5883;0,23585
1009,5525;0,238286
1010,5167;0,240944
1011,4810;0,243766
1012,4452;0,246661
1013,4094;0,249514
1014,3737;0,252213
1015,3379;0,254673
1016,3021;0,256848
1017,2664;0,258732
1018,2306;0,260348
1019,1948;0,261735
1020,1591;0,262947
1021,1233;0,264039
1022,0875;0,265059
1023,0518;0,266037
1024,0160;0,266978
1024,9802;0,267865
1025,9445;0,268666
1026,9087;0,26935
1027,8729;0,269886
1028,8372;0,27024
1029,8014;0,270365
1030,7656;0,270188
1031,7299;0,26962
1032,6941;0,268578
1033,6583;0,267015
1034,6226;0,264949
1035,5868;0,262476
1036,5510;0,259758
1037,5153;0,256999
1038,4795;0,2544
1039,4437;0,252129
1040,4080;0,250291
1041,3722;0,248923
1042,3364;0,247996
1043,3007;0,247426
1044,2649;0,247099
1045,2291;0,246892
1046,1934;0,246696
1047,1576;0,246426
1048,1218;0,246024
1049,0861;0,245448
1050,0503;0,244654
1051,0145;0,243598
1051,9788;0,242239
1052,9430;0,240563
1053,9072;0,238585
1054,8715;0,236342
1055,8357;0,233866
1056,7999;0,231152
1057,7642;0,228157
1058,7284;0,22482
1059,6926;0,221115
1060,6569;0,217081
1061,6211;0,212837
1062,5853;0,208551
1063,5496;0,204394
1064,5138;0,200499
1065,4780;0,196937
1066,4423;0,19372
1067,4065;0,190821
1068,3707;0,18819
1069,3350;0,185772
1070,2992;0,183508
1071,2634;0,181336
1072,2277;0,179193
1073,1919;0,177012
1074,1561;0,174738
1075,1204;0,172333
1076,0846;0,169791
1077,0488;0,167142
1078,0131;0,16445
1078,9773;0,161799
1079,9415;0,159271
1080,9058;0,156936
1081,8700;0,154833
1082,8342;0,152977
1083,7985;0,151361
1084,7627;0,149971
1085,7269;0,14879
1086,6912;0,147799
1087,6554;0,146984
1088,6196;0,146326
1089,5839;0,14581
1090,5481;0,145421
1091,5123;0,14515
1092,4766;0,144995
1093,4408;0,144958
1094,4050;0,145041
1095,3693;0,14524
1096,3335;0,145539
1097,2977;0,14591
1098,2620;0,146318
1099,2262;0,146726
1100,1904;0,147101
1101,1547;0,147413
1102,1189;0,147633
1103,0831;0,147737
1104,0474;0,147709
1105,0116;0,147549
1105,9758;0,147276
1106,9401;0,146916
1107,9043;0,146485
1108,8685;0,145968
1109,8328;0,145315
1110,7970;0,144449
1111,7612;0,143299
1112,7255;0,14184
1113,6897;0,140113
1114,6539;0,138219
1115,6182;0,136289
1116,5824;0,134438
1117,5466;0,132739
1118,5109;0,131202
1119,4751;0,129791
1120,4393;0,128436
1121,4036;0,127057
1122,3678;0,125572
1123,3320;0,123913
1124,2963;0,122032
1125,2605;0,119914
1126,2247;0,117582
1127,1890;0,115093
1128,1532;0,112522
1129,1174;0,109939
1130,0817;0,107396
1131,0459;0,104922
1132,0101;0,102528
1132,9744;0,100231
1133,9386;0,0980553
1134,9028;0,0960462
1135,8671;0,0942574
1136,8313;0,0927408
1137,7955;0,0915327
1138,7598;0,0906457
1139,7240;0,0900667
1140,6882;0,0897626
1141,6525;0,0896883
1142,6167;0,0897972
1143,5809;0,0900489
1144,5452;0,0904131
1145,5094;0,09087
1146,4736;0,0914078
1147,4379;0,0920191
1148,4021;0,092697
1149,3663;0,0934326
1150,3306;0,0942114
1151,2948;0,0950121
1152,2590;0,0958041
1153,2233;0,096548
1154,1875;0,0971974
1155,1517;0,0977016
1156,1160;0,098008
1157,0802;0,0980628
1158,0444;0,0978097
1159,0087;0,0971884
1159,9729;0,0961368
1160,9371;0,0945996
1161,9014;0,0925433
1162,8656;0,0899735
1163,8298;0,0869466
1164,7941;0,08357
1165,7583;0,0799875
1166,7225;0,0763552
1167,6868;0,072815
1168,6510;0,0694765
1169,6152;0,0664085
1170,5795;0,0636431
1171,5437;0,0611854
1172,5079;0,059024
1173,4722;0,0571384
1174,4364;0,0555033
1175,4006;0,0540916
1176,3649;0,0528765
1177,3291;0,0518344
1178,2933;0,0509458
1179,2576;0,0501941
1180,2218;0,0495638
1181,1860;0,0490393
1182,1503;0,0486061
1183,1145;0,0482545
1184,0787;0,0479824
1185,0430;0,0477964
1186,0072;0,0477075
1186,9714;0,0477261
1187,9357;0,0478579
1188,8999;0,0481016
1189,8641;0,0484506
1190,8284;0,0488963
1191,7926;0,0494305
1192,7568;0,0500471
1193,7211;0,0507417
1194,6853;0,0515097
1195,6495;0,0523442
1196,6138;0,053234
1197,5780;0,0541626
1198,5422;0,0551102
1199,5065;0,0558403
1200,4707;0,0567941
1201,4349;0,0577203
1202,3992;0,058612
1203,3634;0,0594652
1204,3276;0,0602769
1205,2919;0,0610448
1206,2561;0,0617697
1207,2203;0,0624592
1208,1846;0,0631301
1209,1488;0,0638083
1210,1130;0,0645252
1211,0773;0,0653111
1212,0415;0,0661887
1213,0057;0,0671673
1213,9700;0,0682417
1214,9342;0,0693944
1215,8984;0,0706009
1216,8627;0,0718346
1217,8269;0,0730704
1218,7911;0,0742901
1219,7554;0,0754815
1220,7196;0,0766362
1221,6838;0,0777473
1222,6481;0,0788068
1223,6123;0,0798057
1224,5765;0,0807361
1225,5408;0,0815943
1226,5050;0,0823832
1227,4692;0,0831116
1228,4335;0,0837895
1229,3977;0,084422
1230,3619;0,0850045
1231,3262;0,0855237
1232,2904;0,0859627
1233,2546;0,0863101
1234,2189;0,0865654
1235,1831;0,0867407
1236,1473;0,0868553
1237,1116;0,0869283
1238,0758;0,0869716
1239,0400;0,0869872
1240,0043;0,0869691
1240,9685;0,0869077
1241,9327;0,0867949
1242,8970;0,0866261
1243,8612;0,0863997
1244,8254;0,0861155
1245,7897;0,0857734
1246,7539;0,0853747
1247,7181;0,0849256
1248,6824;0,0844385
1249,6466;0,0839317
1250,6108;0,0834244
1251,5751;0,0829322
1252,5393;0,0824634
1253,5035;0,0820191
1254,4678;0,0815951
1255,4320;0,0811839
1256,3962;0,0807746
1257,3605;0,0803523
1258,3247;0,0798994
1259,2889;0,0793996
1260,2532;0,0788428
1261,2174;0,0782287
1262,1816;0,0775652
1263,1459;0,0768638
1264,1101;0,0761342
1265,0743;0,0753826
1266,0386;0,0746119
1267,0028;0,0738217
1267,9670;0,0730095
1268,9313;0,0721703
1269,8955;0,071299
1270,8597;0,0703935
1271,8240;0,0694589
1272,7882;0,0685094
1273,7524;0,067566
1274,7167;0,0666515
1275,6809;0,0657839
1276,6451;0,0649705
1277,6094;0,0642047
1278,5736;0,0634681
1279,5378;0,0627374
1280,5021;0,0619955
1281,4663;0,0612406
1282,4305;0,0604878
1283,3948;0,0597628
1284,3590;0,059091
1285,3232;0,0584886
1286,2875;0,0579604
1287,2517;0,0575022
1288,2159;0,0571067
1289,1802;0,0567669
1290,1444;0,0564776
1291,1086;0,0562362
1292,0729;0,0560444
1293,0371;0,0559109
1294,0013;0,055851
1294,9656;0,0558822
1295,9298;0,0560161
1296,8940;0,0562521
1297,8583;0,0565785
1298,8225;0,0569784
1299,7867;0,0574383
1300,7510;0,0579526
1301,7152;0,0585242
1302,6794;0,0591558
1303,6437;0,0598464
1304,6079;0,0605913
1305,5721;0,0613836
1306,5364;0,0622162
1307,5006;0,0630824
1308,4648;0,0639748
1309,4291;0,0648823
1310,3933;0,065788
1311,3575;0,0666688
1312,3218;0,0674966
1313,2860;0,0682411
1314,2502;0,0688728
1315,2145;0,0693629
1316,1787;0,0696841
1317,1429;0,0698147
1318,1072;0,0697505
1319,0714;0,0695155
1320,0356;0,0691628
1320,9999;0,0687587
1321,9641;0,0683605
1322,9283;0,0680034
1323,8926;0,0677023
1324,8568;0,0674611
1325,8210;0,0672792
1326,7853;0,0671519
1327,7495;0,0670678
1328,7137;0,0670073
1329,6780;0,0669454
1330,6422;0,0668595
1331,6064;0,066737
1332,5707;0,0665777
1333,5349;0,0663918
1334,4991;0,0661877
1335,4634;0,0659588
1336,4276;0,0656729
1337,3918;0,0652716
1338,3561;0,0646946
1339,3203;0,0639298
1340,2845;0,0630489
1341,2488;0,0621752
1342,2130;0,0614103
1343,1772;0,0607956
1344,1415;0,0603263
1345,1057;0,0599829
1346,0699;0,0597516
1347,0342;0,0596283
1347,9984;0,0596171
1348,9626;0,0597227
1349,9269;0,0599436
1350,8911;0,0602663
1351,8553;0,0606668
1352,8196;0,0611188
1353,7838;0,0616033
1354,7480;0,0621148
1355,7123;0,0626598
1356,6765;0,0632486
1357,6407;0,0638872
1358,6050;0,064575
1359,5692;0,0653044
1360,5334;0,0660499
1361,4977;0,0667587
1362,4619;0,0673745
1363,4261;0,0678863
1364,3904;0,0683355
1365,3546;0,0687684
1366,3188;0,0691981
1367,2831;0,0696064
1368,2473;0,0699621
1369,2115;0,0702366
1370,1758;0,0704105
1371,1400;0,0704692
1372,1042;0,0703937
1373,0685;0,0701568
1374,0327;0,0697404
1374,9969;0,0691624
1375,9612;0,0684718
1376,9254;0,0677019
1377,8896;0,0668399
1378,8539;0,0658539
1379,8181;0,064746
1380,7823;0,0635775
1381,7466;0,0624385
1382,7108;0,0613868
1383,6750;0,0604131
1384,6393;0,0594595
1385,6035;0,0584719
1386,5677;0,0574582
1387,5320;0,056516
1388,4962;0,0557775
1389,4604;0,0553003
1390,4247;0,0550327
1391,3889;0,0548812
1392,3531;0,0547869
1393,3174;0,0547406
1394,2816;0,0547479
1395,2458;0,0547929
1396,2101;0,0548394
1397,1743;0,0548659
1398,1385;0,0548913
1399,1028;0,0549656
1400,0670;0,0551346
1401,0313;0,0554085
1401,9955;0,0557605
1402,9597;0,0561504
1403,9240;0,0565512
1404,8882;0,0569633
1405,8524;0,0574106
1406,8167;0,0579202
1407,7809;0,0584986
1408,7451;0,0591313
1409,7094;0,0598061
1410,6736;0,0605287
1411,6378;0,0613126
1412,6021;0,0621504
1413,5663;0,0629979
1414,5305;0,0637884
1415,4948;0,0644666
1416,4590;0,0650076
1417,4232;0,0654063
1418,3875;0,0656791
1419,3517;0,0659004
1420,3159;0,0661662
1421,2802;0,0664733
1422,2444;0,0667013
1423,2086;0,0667184
1424,1729;0,0664753
1425,1371;0,0660156
1426,1013;0,0654177
1427,0656;0,0647305
1428,0298;0,0639585
1428,9940;0,0631003
1429,9583;0,062195
1430,9225;0,0613104
1431,8867;0,060471
1432,8510;0,0596127
1433,8152;0,0586225
1434,7794;0,0574269
1435,7437;0,0560851
1436,7079;0,0548398
1437,6721;0,0540064
1438,6364;0,0537126
1439,6006;0,0538115
1440,5648;0,0540596
1441,5291;0,0542973
1442,4933;0,0544935
1443,4575;0,0546941
1444,4218;0,0549501
1445,3860;0,055274
1446,3502;0,0556453
1447,3145;0,0560466
1448,2787;0,0564928
1449,2429;0,0570169
1450,2072;0,0576155
1451,1714;0,0582113
1452,1356;0,0586806
1453,0999;0,0589245
1454,0641;0,0589245
1455,0283;0,0587232
1455,9926;0,0583082
1456,9568;0,0576168
1457,9210;0,0568957
1458,8853;0,0566087
1459,8495;0,0567898
1460,8137;0,0570851
1461,7780;0,057154
1462,7422;0,0568218
1463,7064;0,0560653
1464,6707;0,0549996
1465,6349;0,0538598
1466,5991;0,0528525
1467,5634;0,0519796
1468,5276;0,0510686
1469,4918;0,049926
1470,4561;0,0484249
1471,4203;0,0465047
1472,3845;0,0441969
1473,3488;0,0417441
1474,3130;0,0395587
1475,2772;0,0378935
1476,2415;0,0366968
1477,2057;0,0357878
1478,1699;0,0350216
1479,1342;0,034325
1480,0984;0,0336754
1481,0626;0,0330838
1482,0269;0,0325848
1482,9911;0,0322204
1483,9553;0,0320148
1484,9196;0,0319662
1485,8838;0,0320586
1486,8480;0,0322642
1487,8123;0,0325116
1488,7765;0,0326859
1489,7407;0,0327605
1490,7050;0,0328755
1491,6692;0,0331609
1492,6334;0,0336045
1493,5977;0,034137
1494,5619;0,034746
1495,5261;0,0354919
1496,4904;0,0364336
1497,4546;0,0375556
1498,4188;0,0387946
1499,3831;0,0400827
1500,3473;0,0413067
1501,3115;0,0423029
1502,2758;0,0429417
1503,2400;0,0432264
1504,2042;0,0433529
1505,1685;0,0436448
1506,1327;0,0441947
1507,0969;0,0445409
1508,0612;0,0443965
1509,0254;0,0441507
1509,9896;0,044051
1510,9539;0,0439946
1511,9181;0,0438481
1512,8823;0,0435775
1513,8466;0,0432116
1514,8108;0,0427722
1515,7750;0,0422403
1516,7393;0,0415803
1517,7035;0,0407846
1518,6677;0,0398919
1519,6320;0,0389769
1520,5962;0,0381342
1521,5604;0,03746
1522,5247;0,0370131
1523,4889;0,0367752
1524,4531;0,0366687
1525,4174;0,0366281
1526,3816;0,0366441
1527,3458;0,0367396
1528,3101;0,0369149
1529,2743;0,037136
1530,2385;0,0373817
1531,2028;0,0376904
1532,1670;0,0381397
1533,1312;0,0387614
1534,0955;0,0394831
1535,0597;0,0401602
1536,0239;0,0406629
1536,9882;0,0409698
1537,9524;0,0412262
1538,9166;0,041662
1539,8809;0,042235
1540,8451;0,0424221
1541,8093;0,0419986
1542,7736;0,041419
1543,7378;0,0409986
1544,7020;0,0407188
1545,6663;0,0405131
1546,6305;0,0403657
1547,5947;0,0402695
1548,5590;0,0401914
1549,5232;0,0400898
1550,4874;0,0399532
1551,4517;0,0398131
1552,4159;0,0397068
1553,3801;0,0396181
1554,3444;0,0394646
1555,3086;0,0391462
1556,2728;0,0385834
1557,2371;0,0376526
1558,2013;0,0362195
1559,1655;0,034769
1560,1298;0,0343273
1561,0940;0,0350455
1562,0582;0,0362753
1563,0225;0,0374362
1563,9867;0,0382648
1564,9509;0,0387301
1565,9152;0,0389261
1566,8794;0,039001
1567,8436;0,0391063
1568,8079;0,0393564
1569,7721;0,0397987
1570,7363;0,0403926
1571,7006;0,0410225
1572,6648;0,0415683
1573,6290;0,0419887
1574,5933;0,042338
1575,5575;0,0426989
1576,5217;0,0431215
1577,4860;0,0436488
1578,4502;0,044298
1579,4144;0,0449988
1580,3787;0,045647
1581,3429;0,0461995
1582,3071;0,0466935
1583,2714;0,0472054
1584,2356;0,0477975
1585,1998;0,0484913
1586,1641;0,0492705
1587,1283;0,0501002
1588,0925;0,0509406
1589,0568;0,0517517
1590,0210;0,052494
1590,9852;0,05313
1591,9495;0,0536242
1592,9137;0,0539445
1593,8779;0,0540705
1594,8422;0,0540092
1595,8064;0,053804
1596,7706;0,0535233
1597,7349;0,053233
1598,6991;0,0529728
1599,6633;0,0527511
1600,6276;0,052556
1601,5918;0,0523755
1602,5560;0,052214
1603,5203;0,0520914
1604,4845;0,052024
1605,4487;0,0520058
1606,4130;0,0520105
1607,3772;0,0520168
1608,3414;0,0520353
1609,3057;0,052111
1610,2699;0,0522816
1611,2341;0,0525269
1612,1984;0,05277
1613,1626;0,0529402
1614,1268;0,0530367
1615,0911;0,05314
1616,0553;0,0533637
1617,0195;0,0537998
1617,9838;0,0544656
1618,9480;0,0552622
1619,9122;0,0560305
1620,8765;0,0566648
1621,8407;0,0571592
1622,8049;0,0575704
1623,7692;0,0579594
1624,7334;0,058362
1625,6976;0,0587896
1626,6619;0,0592446
1627,6261;0,0597359
1628,5903;0,0602682
1629,5546;0,0608103
1630,5188;0,0612824
1631,4830;0,0615971
1632,4473;0,0617298
1633,4115;0,0617554
1634,3757;0,0617882
1635,3400;0,06186
1636,3042;0,0619628
1637,2684;0,0621968
1638,2327;0,0626326
1639,1969;0,063176
1640,1611;0,0636743
1641,1254;0,0640229
1642,0896;0,0641875
1643,0538;0,0641999
1644,0181;0,0641485
1644,9823;0,0641289
1645,9465;0,0641593
1646,9108;0,0641886
1647,8750;0,0641759
1648,8392;0,0640383
1649,8035;0,0636159
1650,7677;0,062771
1651,7319;0,0614419
1652,6962;0,0596762
1653,6604;0,0579536
1654,6246;0,0571046
1655,5889;0,0572346
1656,5531;0,0577177
1657,5173;0,0579863
1658,4816;0,0577953
1659,4458;0,0571346
1660,4100;0,0561082
1661,3743;0,0548717
1662,3385;0,0536296
1663,3027;0,0525902
1664,2670;0,0518378
1665,2312;0,0512802
1666,1954;0,050739
1667,1597;0,0500532
1668,1239;0,0491257
1669,0881;0,047962
1670,0524;0,0467083
1671,0166;0,0455566
1671,9808;0,0445487
1672,9451;0,0435597
1673,9093;0,0424764
1674,8735;0,0413561
1675,8378;0,0404261
1676,8020;0,0398973
1677,7662;0,0397556
1678,7305;0,0397621
1679,6947;0,0396217
1680,6589;0,0391171
1681,6232;0,0381305
1682,5874;0,0366236
1683,5516;0,03475
1684,5159;0,0330389
1685,4801;0,0320389
1686,4443;0,0317404
1687,4086;0,0317343
1688,3728;0,0316536
1689,3370;0,0313407
1690,3013;0,0308083
1691,2655;0,0301498
1692,2297;0,0294721
1693,1940;0,0288677
1694,1582;0,0284011
1695,1224;0,0280787
1696,0867;0,0278098
1697,0509;0,0274211
1698,0151;0,0267805
1698,9794;0,0259673
1699,9436;0,0252955
1700,9078;0,0250796
1701,8721;0,025372
1702,8363;0,0259608
1703,8005;0,0265633
1704,7648;0,0269938
1705,7290;0,0272286
1706,6932;0,0273845
1707,6575;0,0276242
1708,6217;0,0280428
1709,5859;0,0286258
1710,5502;0,029294
1711,5144;0,029968
1712,4786;0,0305991
1713,4429;0,0311662
1714,4071;0,0316492
1715,3713;0,0319855
1716,3356;0,0320809
1717,2998;0,0319839
1718,2640;0,0319884
1719,2283;0,0323387
1720,1925;0,0329862
1721,1567;0,0337208
1722,1210;0,0343663
1723,0852;0,0348546
1724,0494;0,0352156
1725,0137;0,0355389
1725,9779;0,0359191
1726,9421;0,0364016
1727,9064;0,036952
1728,8706;0,0374658
1729,8348;0,0378063
1730,7991;0,037845
1731,7633;0,0374934
1732,7275;0,0367643
1733,6918;0,0358769
1734,6560;0,035203
1735,6202;0,0349337
1736,5845;0,0349128
1737,5487;0,0348426
1738,5129;0,0345191
1739,4772;0,033915
1740,4414;0,0331492
1741,4056;0,0323896
1742,3699;0,0317365
1743,3341;0,0311711
1744,2983;0,0306037
1745,2626;0,0299467
1746,2268;0,0291377
1747,1910;0,0281122
1748,1553;0,0267878
1749,1195;0,0251396
1750,0837;0,0233291
1751,0480;0,0216733
1752,0122;0,0204041
1752,9764;0,0195137
1753,9407;0,0188348
1754,9049;0,0181938
1755,8691;0,0175014
1756,8334;0,0167598
1757,7976;0,0160143
1758,7618;0,0152915
1759,7261;0,0145771
1760,6903;0,013849
1761,6545;0,0131275
1762,6188;0,0124828
1763,5830;0,0119799
1764,5472;0,0116209
1765,5115;0,0113481
1766,4757;0,0110922
1767,4399;0,0108125
1768,4042;0,0105013
1769,3684;0,010161
1770,3326;0,00977839
1771,2969;0,00933506
1772,2611;0,00886584
1773,2253;0,00848565
1774,1896;0,00829889
1775,1538;0,0082962
1776,1180;0,00837363
1777,0823;0,00842297
1778,0465;0,00838987
1779,0107;0,00827537
1779,9750;0,00810624
1780,9392;0,00790587
1781,9034;0,00768564
1782,8677;0,0074587
1783,8319;0,00725876
1784,7961;0,00713805
1785,7604;0,00713561
1786,7246;0,0072425
1787,6888;0,00740147
1788,6531;0,00754303
1789,6173;0,00762155
1790,5815;0,00762026
1791,5458;0,00754105
1792,5100;0,00742037
1793,4742;0,00733669
1794,4385;0,00734174
1795,4027;0,00740217
1796,3669;0,00743982
1797,3312;0,0074022
1798,2954;0,00728876
1799,2596;0,00713308
1800,2239;0,00697406
1801,1881;0,00684086
1802,1523;0,00675115
1803,1166;0,0067109
1804,0808;0,00671531
1805,0450;0,00675334
1806,0093;0,00681137
1806,9735;0,00687284
1807,9377;0,00691602
1808,9020;0,0069156
1809,8662;0,00685347
1810,8304;0,00673438
1811,7947;0,00658881
1812,7589;0,00645331
1813,7231;0,00634766
1814,6874;0,00627191
1815,6516;0,00621932
1816,6158;0,00618798
1817,5801;0,00618313
1818,5443;0,00621183
1819,5085;0,00627398
1820,4728;0,00635685
1821,4370;0,00643942
1822,4012;0,00650327
1823,3655;0,00654158
1824,3297;0,00656231
1825,2939;0,00658233
1826,2582;0,00661041
1827,2224;0,00663046
1828,1866;0,00660243
1829,1509;0,00648949
1830,1151;0,00630089
1831,0793;0,00610545
1832,0436;0,00598011
1833,0078;0,00594815
1833,9720;0,00597951
1834,9363;0,006035
1835,9005;0,0060966
1836,8647;0,0061664
1837,8290;0,00624674
1838,7932;0,00632206
1839,7574;0,00636036
1840,7217;0,00633776
1841,6859;0,00626393
1842,6501;0,00617956
1843,6144;0,00612569
1844,5786;0,00611838
1845,5428;0,00614783
1846,5071;0,00618155
1847,4713;0,00617307
1848,4355;0,00609128
1849,3998;0,00594643
1850,3640;0,00578634
1851,3282;0,00566677
1852,2925;0,00561905
1853,2567;0,00563949
1854,2209;0,00570307
1855,1852;0,00578444
1856,1494;0,00586777
1857,1136;0,00594383
1858,0779;0,00600193
1859,0421;0,00603059
1860,0063;0,00602811
1860,9706;0,00601188
1861,9348;0,00601392
1862,8990;0,00606341
1863,8633;0,00617061
1864,8275;0,00632341
1865,7917;0,00649008
1866,7560;0,00661826
1867,7202;0,00664443
1868,6844;0,00653941
1869,6487;0,00635303
1870,6129;0,00617767
1871,5771;0,00606542
1872,5414;0,0060043
1873,5056;0,00595654
1874,4698;0,00589828
1875,4341;0,00583093
1876,3983;0,0057731
1877,3625;0,00574449
1878,3268;0,00575464
1879,2910;0,00579904
1880,2552;0,00586459
1881,2195;0,00593741
1882,1837;0,00600792
1883,1479;0,00607118
1884,1122;0,00612429
1885,0764;0,00616376
1886,0406;0,00618533
1887,0049;0,00618557
1887,9691;0,0061644
1888,9333;0,00612894
1889,8976;0,00609704
1890,8618;0,00609178
1891,8260;0,00612634
1892,7903;0,00619242
1893,7545;0,00626235
1894,7188;0,00630138
1895,6830;0,00628413
1896,6472;0,00620919
1897,6115;0,00610195
1898,5757;0,00600161
1899,5399;0,00594219
1900,5042;0,00594031
1901,4684;0,00599313
1902,4326;0,00608375
1903,3969;0,00619059
1904,3611;0,00629583
1905,3253;0,00638837
1906,2896;0,00646152
1907,2538;0,00650959
1908,2180;0,00652749
1909,1823;0,00651444
1910,1465;0,00647769
1911,1107;0,00642949
1912,0750;0,00637778
1913,0392;0,00632196
1914,0034;0,00626039
1914,9677;0,0062025
1915,9319;0,0061717
1916,8961;0,00619376
1917,8604;0,00627825
1918,8246;0,00640639
1919,7888;0,00653401
1920,7531;0,00660889
1921,7173;0,00659451
1922,6815;0,00648964
1923,6458;0,00633359
1924,6100;0,00619059
1925,5742;0,00611852
1926,5385;0,00614189
1927,5027;0,00624657
1928,4669;0,00639295
1929,4312;0,00653425
1930,3954;0,0066343
1931,3596;0,00668129
1932,3239;0,00668939
1933,2881;0,00668735
1934,2523;0,00670035
1935,2166;0,00673623
1936,1808;0,00678451
1937,1450;0,00682868
1938,1093;0,00686277
1939,0735;0,00690036
1940,0377;0,00696792
1941,0020;0,00708392
1941,9662;0,00723731
1942,9304;0,00738639
1943,8947;0,00748399
1944,8589;0,00750672
1945,8231;0,00746501
1946,7874;0,0073938
1947,7516;0,007336
1948,7158;0,00732521
1949,6801;0,00737154
1950,6443;0,00745623
1951,6085;0,00754011
1952,5728;0,00758371
1953,5370;0,00756959
1954,5012;0,0075145
1955,4655;0,0074621
1956,4297;0,00745725
1957,3939;0,00751565
1958,3582;0,00760887
1959,3224;0,00767845
1960,2866;0,00767443
1961,2509;0,00759424
1962,2151;0,00749192
1963,1793;0,00744911
1964,1436;0,00752837
1965,1078;0,00773824
1966,0720;0,00802741
1967,0363;0,00831046
1968,0005;0,00851083
1968,9647;0,00859407
1969,9290;0,00857343
1970,8932;0,0084966
1971,8574;0,00843161
1972,8217;0,00845506
1973,7859;0,00863054
1974,7501;0,00897093
1975,7144;0,00940614
1976,6786;0,00978825
1977,6428;0,00995608
1978,6071;0,00982771
1979,5713;0,00945209
1980,5355;0,00898065
1981,4998;0,00858618
1982,4640;0,00838526
1983,4282;0,00839793
1984,3925;0,00855165
1985,3567;0,00872237
1986,3209;0,00879514
1987,2852;0,00871616
1988,2494;0,00851168
1989,2136;0,0082684
1990,1779;0,00808827
1991,1421;0,00803871
1992,1063;0,00812221
1993,0706;0,00828252
1994,0348;0,00844198
1994,9990;0,00854301
1995,9633;0,0085698
1996,9275;0,00854505
1997,8917;0,00851024
1998,8560;0,00850139
1999,8202;0,00853189
2000,7844;0,0085911
2001,7487;0,00865922
2002,7129;0,00872871
2003,6771;0,00881776
2004,6414;0,008964
2005,6056;0,00919579
2006,5698;0,00949562
2007,5341;0,00978269
2008,4983;0,00993987
2009,4625;0,00987846
2010,4268;0,00960053
2011,3910;0,00921615
2012,3552;0,00890129
2013,3195;0,00881751
2014,2837;0,00903269
2015,2479;0,00948303
2016,2122;0,0100026
2017,1764;0,010412
2018,1406;0,0106146
2019,1049;0,010635
2020,0691;0,0105815
2021,0333;0,010568
2021,9976;0,0106529
2022,9618;0,0108209
2023,9260;0,0110062
2024,8903;0,0111329
2025,8545;0,0111505
2026,8187;0,0110496
2027,7830;0,0108608
2028,7472;0,0106432
2029,7114;0,0104665
2030,6757;0,0103891
2031,6399;0,0104359
2032,6041;0,0105874
2033,5684;0,0107904
2034,5326;0,0109888
2035,4968;0,0111525
2036,4611;0,0112822
2037,4253;0,0113888
2038,3895;0,011464
2039,3538;0,0114673
2040,3180;0,0113436
2041,2822;0,0110618
2042,2465;0,0106499
2043,2107;0,0101996
2044,1749;0,00983335
2045,1392;0,00964978
2046,1034;0,00967483
2047,0676;0,00984358
2048,0320;0,0100283
2048,9961;0,0101041
2049,9604;0,0100123
2050,9246;0,00977918
2051,8889;0,0094878
2052,8530;0,00922955
2053,8174;0,00906408
2054,7815;0,00900121
2055,7458;0,00901114
2056,7100;0,00905264
2057,6743;0,0091012
2058,6384;0,00915773
2059,6028;0,00923463
2060,5669;0,00933356
2061,5313;0,00943399
2062,4954;0,00950104
2063,4597;0,00950574
2064,4238;0,00944209
2065,3882;0,0093287
2066,3523;0,00919635
2067,3167;0,00907341
2068,2808;0,0089804
2069,2451;0,00893321
2070,2092;0,00894573
2071,1736;0,00902401
2072,1377;0,00915397
2073,1021;0,00929614
2074,0662;0,00939583
2075,0305;0,00940766
2075,9946;0,00931968
2076,9590;0,00916126
2077,9231;0,00898827
2078,8875;0,00885483
2079,8516;0,00878919
2080,8159;0,00878735
2081,7800;0,00882478
2082,7444;0,0088753
2083,7085;0,00892325
2084,6729;0,00896279
2085,6370;0,00898944
2086,6013;0,00899271
2087,5654;0,00895805
2088,5298;0,00887672
2089,4939;0,00875606
2090,4583;0,00862139
2091,4224;0,0085067
2092,3867;0,00843947
2093,3508;0,00842875
2094,3152;0,00846346
2095,2793;0,00852159
2096,2437;0,00858407
2097,2078;0,00864366
2098,1721;0,0087036
2099,1362;0,00876829
2100,1006;0,00883659
2101,0647;0,00889484
2102,0291;0,00893402
2102,9932;0,00894987
2103,9575;0,00894606
2104,9216;0,00892814
2105,8860;0,00889609
2106,8501;0,00884366
2107,8145;0,00876687
2108,7786;0,00867556
2109,7429;0,00859687
2110,7070;0,00856445
2111,6714;0,00859851
2112,6355;0,00869057
2113,5999;0,00880508
2114,5640;0,0088987
2115,5283;0,00894463
2116,4924;0,00894543
2117,4568;0,00892663
2118,4209;0,00891687
2119,3853;0,00892966
2120,3494;0,00895928
2121,3137;0,00899131
2122,2778;0,00901694
2123,2422;0,00903836
2124,2063;0,00906162
2125,1707;0,00908574
2126,1348;0,00910048
2127,0991;0,00909756
2128,0632;0,00908642
2129,0276;0,00909973
2129,9917;0,00917999
2130,9561;0,00935367
2131,9202;0,00960983
2132,8845;0,00989945
2133,8486;0,0101588
2134,8130;0,0103432
2135,7771;0,0104468
2136,7415;0,0104961
2137,7056;0,0105225
2138,6699;0,0105405
2139,6340;0,0105469
2140,5984;0,0105383
2141,5625;0,0105294
2142,5269;0,0105535
2143,4910;0,0106455
2144,4553;0,0108176
2145,4194;0,0110478
2146,3838;0,0112909
2147,3479;0,011504
2148,3123;0,0116695
2149,2764;0,0117996
2150,2407;0,0119201
2151,2048;0,0120471
2152,1692;0,0121772
2153,1333;0,0123003
2154,0977;0,0124278
2155,0618;0,0126139
2156,0261;0,0129445
2156,9902;0,0134802
2157,9546;0,0141739
2158,9187;0,0148364
2159,8831;0,0152176
2160,8472;0,01516
2161,8115;0,0146911
2162,7756;0,0139932
2163,7400;0,0133034
2164,7041;0,0128133
2165,6685;0,012603
2166,6326;0,0126266
2167,5969;0,012751
2168,5610;0,0128266
2169,5254;0,0127538
2170,4895;0,0125179
2171,4539;0,0121865
2172,4180;0,0118761
2173,3823;0,0117042
2174,3464;0,0117408
2175,3108;0,0119797
2176,2749;0,0123419
2177,2393;0,0127086
2178,2034;0,0129674
2179,1677;0,013048
2180,1318;0,0129347
2181,0962;0,0126579
2182,0603;0,0122719
2183,0247;0,0118336
2183,9888;0,0113899
2184,9531;0,0109783
2185,9172;0,0106337
2186,8816;0,0103914
2187,8457;0,0102808
2188,8101;0,0103138
2189,7742;0,0104745
2190,7385;0,0107194
2191,7026;0,0109872
2192,6670;0,0112142
2193,6311;0,0113457
2194,5955;0,0113413
2195,5596;0,0111786
2196,5239;0,0108601
2197,4880;0,0104246
2198,4524;0,00995303
2199,4165;0,00955489
2200,3809;0,00933233
2201,3450;0,00933445
2202,3093;0,00952845
2203,2734;0,00980907
2204,2378;0,010046
2205,2019;0,0101448
2206,1663;0,0100868
2207,1304;0,00992772
2208,0947;0,0097592
2209,0588;0,00966001
2210,0232;0,00966385
2210,9873;0,00975476
2211,9517;0,00988291
2212,9158;0,0099866
2213,8801;0,0100115
2214,8442;0,00992692
2215,8086;0,00973742
2216,7727;0,00948617
2217,7371;0,00924087
2218,7012;0,00906427
2219,6655;0,00898364
2220,6296;0,00897912
2221,5940;0,00900086
2222,5581;0,00900426
2223,5225;0,00897872
2224,4866;0,00894964
2225,4509;0,00895378
2226,4150;0,00900748
2227,3794;0,00909015
2228,3435;0,00915808
2229,3079;0,00917012
2230,2720;0,00911112
2231,2363;0,00899744
2232,2004;0,00886449
2233,1648;0,00874777
2234,1289;0,00866922
2235,0933;0,00863386
2236,0574;0,00863396
2237,0217;0,00865604
2237,9858;0,00868693
2238,9502;0,00871749
2239,9143;0,00874355
2240,8787;0,00876405
2241,8428;0,00877818
2242,8071;0,00878384
2243,7712;0,00877952
2244,7356;0,00876819
2245,6997;0,00875949
2246,6641;0,00876687
2247,6282;0,00880061
2248,5925;0,00886158
2249,5566;0,00894052
2250,5210;0,00902354
2251,4851;0,00909916
2252,4495;0,00916168
2253,4136;0,00920925
2254,3779;0,00923986
2255,3420;0,00925019
2256,3064;0,00923867
2257,2705;0,0092094
2258,2349;0,00917229
2259,1990;0,00913827
2260,1633;0,00911304
2261,1274;0,00909419
2262,0918;0,00907413
2263,0559;0,00904634
2264,0203;0,00901043
2264,9844;0,0089727
2265,9487;0,00894244
2266,9128;0,00892667
2267,8772;0,00892658
2268,8413;0,00893672
2269,8057;0,00894716
2270,7698;0,00894766
2271,7341;0,00893225
2272,6982;0,00890223
2273,6626;0,00886501
2274,6267;0,00882886
2275,5911;0,00879621
2276,5552;0,00876055
2277,5195;0,00871044
2278,4836;0,00863877
2279,4480;0,00855144
2280,4121;0,00846894
2281,3765;0,00841898
2282,3406;0,00842487
2283,3049;0,00849639
2284,2690;0,00862782
2285,2334;0,00880289
2286,1975;0,00900268
2287,1619;0,00921234
2288,1260;0,00942426
2289,0903;0,00963723
2290,0544;0,00985302
2291,0188;0,0100726
2291,9829;0,0102938
2292,9473;0,0105119
2293,9114;0,0107209
2294,8757;0,010915
2295,8398;0,011088
2296,8042;0,011231
2297,7683;0,0113305
2298,7327;0,0113713
2299,6968;0,0113439
2300,6611;0,0112549
2301,6252;0,0111336
2302,5896;0,0110283
2303,5537;0,0109944
2304,5181;0,0110719
2305,4822;0,0112637
2306,4465;0,0115229
2307,4106;0,0117584
2308,3750;0,0118627
2309,3391;0,0117542
2310,3035;0,0114137
2311,2676;0,0108988
2312,2319;0,0103211
2313,1960;0,00979785
2314,1604;0,00940113
2315,1245;0,00913621
2316,0889;0,00895726
2317,0530;0,00880659
2318,0173;0,00865137
2318,9814;0,00849994
2319,9458;0,00839507
2320,9099;0,00839389
2321,8743;0,00854406
2322,8384;0,00885839
2323,8027;0,00929185
2324,7668;0,0097386
2325,7312;0,0100638
2326,6953;0,0101588
2327,6597;0,0099912
2328,6238;0,00962392
2329,5881;0,00919701
2330,5522;0,00887376
2331,5166;0,00876783
2332,4807;0,00888834
2333,4451;0,00914303
2334,4092;0,00940264
2335,3735;0,00958314
2336,3376;0,00969256
2337,3020;0,00981783
2338,2661;0,0100625
2339,2305;0,0104681
2340,1946;0,0109564
2341,1589;0,0113194
2342,1230;0,011295
2343,0874;0,010789
2344,0515;0,010141
2345,0159;0,0100076
2345,9800;0,0107618
2346,9443;0,0121199
2347,9084;0,0134047
2348,8728;0,0140278
2349,8369;0,0137861
2350,8013;0,0129118
2351,7654;0,0119242
2352,7297;0,0113319
2353,6938;0,0113319
2354,6582;0,0117633
2355,6223;0,0123485
2356,5867;0,012897
2357,5508;0,0132912
2358,5151;0,0134243
2359,4792;0,0132405
2360,4436;0,0127931
2361,4077;0,0121937
2362,3721;0,0115017
2363,3362;0,0106947
2364,3005;0,00974408
2365,2646;0,0086903
2366,2290;0,00763289
2367,1931;0,00666222
2368,1575;0,00581482
2369,1216;0,00508648
2370,0859;0,0044705
2371,0500;0,00398033
2372,0144;0,00364766
2372,9785;0,00351047
2373,9429;0,00360293
2374,9070;0,0039463
2375,8713;0,00453692
2376,8354;0,0053343
2377,7998;0,00625753
2378,7639;0,00719603
2379,7283;0,00803285
2380,6924;0,0086724
2381,6567;0,00906207
2382,6208;0,00920073
2383,5852;0,0091325
2384,5493;0,00892933
2385,5137;0,00866914
2386,4778;0,00841674
2387,4421;0,0082132
2388,4063;0,00807516
2389,3706;0,00800136
2390,3347;0,00798087
2391,2991;0,00799892
2392,2632;0,00803916
2393,2275;0,00808484
2394,1917;0,00812114
2395,1560;0,00813913
2396,1201;0,00813887
2397,0845;0,00812895
2398,0486;0,0081239
2399,0129;0,00813279
2399,9771;0,00815634
2400,9414;0,00818866
2401,9055;0,00822009
2402,8699;0,00824432
2403,8340;0,00825999
2404,7983;0,00826909
2405,7625;0,00827305
2406,7268;0,00826984
2407,6909;0,00825711
2408,6553;0,0082373
2409,6194;0,00822012
2410,5837;0,00822275
2411,5479;0,00826221
2412,5122;0,00834593
2413,4763;0,00846494
2414,4407;0,00859494
2415,4048;0,00870499
2416,3691;0,00877046
2417,3333;0,00878328
2418,2976;0,00875408
2419,2617;0,00870575
2420,2261;0,00866202
2421,1902;0,00863726
2422,1545;0,00863529
2423,1187;0,00865281
2424,0830;0,00868587
2425,0471;0,00873296
2426,0115;0,00879332
2426,9756;0,00886283
2427,9399;0,0089321
2428,9041;0,00898938
2429,8684;0,00902659
2430,8325;0,00904394
2431,7969;0,00904961
2432,7610;0,00905445
2433,7253;0,00906555
2434,6895;0,00908324
2435,6538;0,0091031
2436,6179;0,00912127
2437,5823;0,00913857
2438,5464;0,00916066
2439,5107;0,00919424
2440,4749;0,00924216
2441,4392;0,00930103
2442,4033;0,00936263
2443,3677;0,00941823
2444,3318;0,00946267
2445,2961;0,00949597
2446,2603;0,00952165
2447,2246;0,00954348
2448,1887;0,00956296
2449,1531;0,00957936
2450,1172;0,00959195
2451,0815;0,00960243
2452,0457;0,00961556
2453,0100;0,00963706
2453,9741;0,00967012
2454,9385;0,00971272
2455,9026;0,00975759
2456,8669;0,00979469
2457,8311;0,00981503
2458,7954;0,00981419
2459,7595;0,00979424
2460,7239;0,00976387
2461,6880;0,00973647
2462,6523;0,00972633
2463,6165;0,00974368
2464,5808;0,00979048
2465,5449;0,00985916
2466,5093;0,00993564
2467,4734;0,0100052
2468,4377;0,0100579
2469,4019;0,0100911
2470,3662;0,0101069
2471,3303;0,0101086
2472,2947;0,0100986
2473,2588;0,0100794
2474,2231;0,0100559
2475,1873;0,0100369
2476,1516;0,0100329
2477,1157;0,0100507
2478,0801;0,0100908
2479,0442;0,0101469
2480,0085;0,0102103
2480,9727;0,0102744
2481,9370;0,0103371
2482,9011;0,0103989
2483,8655;0,010459
2484,8296;0,0105121
2485,7939;0,0105494
2486,7581;0,0105625
2487,7224;0,0105484
2488,6865;0,0105124
2489,6509;0,0104672
2490,6150;0,0104287
2491,5793;0,0104103
2492,5435;0,0104187
2493,5078;0,0104523
2494,4719;0,0105025
2495,4363;0,0105585
2496,4004;0,010611
2497,3647;0,0106558
2498,3289;0,0106938
2499,2932;0,0107284
2500,2573;0,010762
2501,2217;0,0107941
2502,1858;0,0108208
2503,1501;0,0108385
2504,1143;0,0108455
2505,0786;0,0108431
2506,0427;0,0108337
2507,0071;0,0108186
2507,9712;0,010798
2508,9355;0,0107735
2509,8997;0,0107517
2510,8640;0,0107433
2511,8281;0,0107589
2512,7925;0,0108014
2513,7566;0,0108617
2514,7209;0,0109211
2515,6851;0,0109604
2516,6494;0,0109692
2517,6135;0,0109505
2518,5779;0,0109182
2519,5420;0,0108895
2520,5063;0,0108777
2521,4705;0,0108889
2522,4348;0,0109227
2523,3989;0,0109745
2524,3633;0,0110375
2525,3274;0,0111022
2526,2917;0,0111577
2527,2559;0,0111939
2528,2202;0,0112059
2529,1843;0,0111961
2530,1487;0,0111748
2531,1128;0,0111553
2532,0771;0,0111485
2533,0413;0,0111577
2534,0056;0,0111776
2534,9697;0,0111974
2535,9341;0,0112057
2536,8982;0,0111969
2537,8625;0,0111727
2538,8267;0,0111419
2539,7910;0,0111157
2540,7551;0,0111037
2541,7195;0,01111
2542,6836;0,0111327
2543,6479;0,0111663
2544,6121;0,011204
2545,5764;0,011241
2546,5405;0,0112746
2547,5049;0,0113039
2548,4690;0,0113266
2549,4333;0,011339
2550,3975;0,0113365
2551,3618;0,0113179
2552,3259;0,0112884
2553,2903;0,0112598
2554,2544;0,0112461
2555,2188;0,0112567
2556,1829;0,011292
2557,1472;0,0113438
2558,1113;0,0114008
2559,0757;0,0114538
2560,0398;0,0114978
2561,0042;0,0115293
2561,9683;0,0115426
2562,9326;0,0115309
2563,8967;0,0114917
2564,8611;0,0114327
2565,8252;0,0113719
2566,7896;0,01133
2567,7537;0,0113201
2568,7180;0,0113403
2569,6821;0,0113767
2570,6465;0,0114122
2571,6106;0,011437
2572,5750;0,0114525
2573,5391;0,0114679
2574,5034;0,0114929
2575,4675;0,0115325
2576,4319;0,0115852
2577,3960;0,0116451
2578,3604;0,0117045
2579,3245;0,0117557
2580,2888;0,0117921
2581,2529;0,0118089
2582,2173;0,0118043
2583,1814;0,0117805
2584,1458;0,0117428
2585,1099;0,0116988
2586,0742;0,0116569
2587,0383;0,0116259
2588,0027;0,011613
2588,9668;0,0116227
2589,9312;0,0116543
2590,8953;0,0117014
2591,8596;0,0117534
2592,8237;0,0117997
2593,7881;0,0118331
2594,7522;0,0118519
2595,7166;0,0118597
2596,6807;0,0118631
2597,6450;0,0118697
2598,6091;0,0118863
2599,5735;0,011917
2600,5376;0,0119621
2601,5020;0,0120169
2602,4661;0,0120725
2603,4304;0,0121195
2604,3945;0,0121513
2605,3589;0,0121679
2606,3230;0,0121755
2607,2874;0,0121831
2608,2515;0,0121984
2609,2158;0,0122241
2610,1799;0,0122572
2611,1443;0,0122916
2612,1084;0,0123219
2613,0728;0,0123455
2614,0369;0,0123641
2615,0012;0,0123816
2615,9653;0,0124018
2616,9297;0,0124268
2617,8938;0,0124563
2618,8582;0,0124884
2619,8223;0,0125213
2620,7866;0,0125533
2621,7507;0,0125833
2622,7151;0,0126104
2623,6792;0,0126339
2624,6436;0,0126543
2625,6077;0,0126736
2626,5720;0,0126946
2627,5361;0,0127198
2628,5005;0,0127507
2629,4646;0,0127871
2630,4290;0,0128274
2631,3931;0,0128688
2632,3574;0,0129075
2633,3215;0,0129393
2634,2859;0,0129599
2635,2500;0,0129676
2636,2144;0,0129644
2637,1785;0,0129569
2638,1428;0,0129533
2639,1069;0,0129608
2640,0713;0,0129826
2641,0354;0,0130178
2641,9998;0,0130623
2642,9639;0,0131117
2643,9282;0,0131619
2644,8923;0,0132092
2645,8567;0,0132502
2646,8208;0,0132819
2647,7852;0,0133037
2648,7493;0,0133179
2649,7136;0,013329
2650,6777;0,0133415
2651,6421;0,0133582
2652,6062;0,0133794
2653,5706;0,0134044
2654,5347;0,0134336
2655,4990;0,0134681
2656,4631;0,0135087
2657,4275;0,0135539
2658,3916;0,0135994
2659,3560;0,0136402
2660,3201;0,0136731
2661,2844;0,0136993
2662,2485;0,0137233
2663,2129;0,0137506
2664,1770;0,0137841
2665,1414;0,0138225
2666,1055;0,0138611
2667,0698;0,0138937
2668,0339;0,0139162
2668,9983;0,0139279
2669,9624;0,0139326
2670,9268;0,0139373
2671,8909;0,0139502
2672,8552;0,0139776
2673,8193;0,0140211
2674,7837;0,0140761
2675,7478;0,0141334
2676,7122;0,0141833
2677,6763;0,0142197
2678,6406;0,0142432
2679,6047;0,0142603
2680,5691;0,0142797
2681,5332;0,014308
2682,4976;0,0143477
2683,4617;0,0143965
2684,4260;0,01445
2685,3901;0,0145036
2686,3545;0,0145533
2687,3186;0,0145968
2688,2830;0,0146335
2689,2471;0,0146648
2690,2114;0,0146943
2691,1755;0,0147264
2692,1399;0,0147641
2693,1040;0,014807
2694,0684;0,0148509
2695,0325;0,0148904
2695,9968;0,0149221
2696,9609;0,0149467
2697,9253;0,014969
2698,8894;0,0149948
2699,8538;0,0150287
2700,8179;0,015072
2701,7822;0,0151239
2702,7463;0,0151824
2703,7107;0,0152457
2704,6748;0,0153115
2705,6392;0,0153765
2706,6033;0,015436
2707,5676;0,015486
2708,5317;0,0155249
2709,4961;0,015555
2710,4602;0,0155814
2711,4246;0,01561
2712,3887;0,015645
2713,3530;0,0156879
2714,3171;0,0157385
2715,2815;0,015796
2716,2456;0,0158594
2717,2100;0,0159276
2718,1741;0,0159973
2719,1384;0,0160633
2720,1025;0,0161189
2721,0669;0,0161587
2722,0310;0,0161808
2722,9954;0,0161885
2723,9595;0,0161901
2724,9238;0,0161959
2725,8879;0,0162147
2726,8523;0,0162507
2727,8164;0,016302
2728,7808;0,0163619
2729,7449;0,0164218
2730,7092;0,0164747
2731,6733;0,0165175
2732,6377;0,0165514
2733,6018;0,01658
2734,5662;0,0166071
2735,5303;0,0166352
2736,4946;0,0166649
2737,4587;0,0166956
2738,4231;0,016727
2739,3872;0,0167598
2740,3516;0,0167957
2741,3157;0,0168365
2742,2800;0,0168824
2743,2441;0,0169313
2744,2085;0,0169784
2745,1726;0,0170186
2746,1370;0,0170482
2747,1011;0,0170667
2748,0654;0,0170772
2749,0295;0,0170852
2749,9939;0,0170967
2750,9580;0,0171166
2751,9224;0,0171484
2752,8865;0,0171931
2753,8508;0,0172492
2754,8149;0,0173124
2755,7793;0,0173763
2756,7434;0,0174342
2757,7078;0,0174823
2758,6719;0,0175214
2759,6362;0,0175567
2760,6003;0,0175947
2761,5647;0,0176394
2762,5288;0,0176901
2763,4932;0,0177419
2764,4573;0,01779
2765,4216;0,0178332
2766,3857;0,0178756
2767,3501;0,0179241
2768,3142;0,0179838
2769,2786;0,0180539
2770,2427;0,0181268
2771,2070;0,0181919
2772,1711;0,0182414
2773,1355;0,0182754
2774,0996;0,018302
2775,0640;0,0183335
2776,0281;0,0183801
2776,9924;0,018445
2777,9565;0,0185239
2778,9209;0,018609
2779,8850;0,0186933
2780,8494;0,0187747
2781,8135;0,0188548
2782,7778;0,0189358
2783,7419;0,0190175
2784,7063;0,0190964
2785,6704;0,0191686
2786,6348;0,0192331
2787,5989;0,0192943
2788,5632;0,0193607
2789,5273;0,0194408
2790,4917;0,0195384
2791,4558;0,0196498
2792,4202;0,0197657
2793,3843;0,0198754
2794,3486;0,019972
2795,3127;0,0200557
2796,2771;0,0201335
2797,2412;0,0202158
2798,2056;0,0203114
2799,1697;0,0204239
2800,1340;0,0205512
2801,0981;0,0206879
2802,0625;0,0208286
2803,0266;0,0209701
2803,9910;0,0211108
2804,9551;0,0212495
2805,9194;0,0213835
2806,8835;0,0215099
2807,8479;0,0216284
2808,8120;0,0217438
2809,7764;0,0218654
2810,7405;0,0220031
2811,7048;0,0221616
2812,6689;0,0223372
2813,6333;0,0225189
2814,5974;0,0226954
2815,5618;0,022861
2816,5259;0,0230195
2817,4902;0,0231813
2818,4543;0,0233574
2819,4187;0,0235534
2820,3828;0,0237672
2821,3472;0,0239921
2822,3113;0,0242218
2823,2756;0,0244538
2824,2397;0,0246898
2825,2041;0,0249332
2826,1682;0,0251862
2827,1326;0,0254497
2828,0967;0,0257239
2829,0610;0,0260114
2830,0251;0,0263169
2830,9895;0,0266467
2831,9536;0,027005
2832,9180;0,0273923
2833,8821;0,0278053
2834,8464;0,0282392
2835,8105;0,0286926
2836,7749;0,02917
2837,7390;0,0296837
2838,7034;0,0302511
2839,6675;0,0308926
2840,6318;0,031628
2841,5959;0,0324743
2842,5603;0,0334419
2843,5244;0,0345283
2844,4888;0,0357091
2845,4529;0,0369296
2846,4172;0,0381047
2847,3813;0,039131
2848,3457;0,0399111
2849,3098;0,0403824
2850,2742;0,0405356
2851,2383;0,0404164
2852,2026;0,0401069
2853,1667;0,0396984
2854,1311;0,0392661
2855,0952;0,0388571
2856,0596;0,0384928
2857,0237;0,03818
2857,9880;0,0379218
2858,9521;0,0377233
2859,9165;0,0375903
2860,8806;0,0375253
2861,8450;0,0375242
2862,8091;0,0375777
2863,7734;0,0376755
2864,7375;0,0378099
2865,7019;0,0379764
2866,6660;0,0381698
2867,6304;0,0383805
2868,5945;0,038592
2869,5588;0,0387846
2870,5229;0,0389424
2871,4873;0,0390593
2872,4514;0,039141
2873,4158;0,0392019
2874,3799;0,0392574
2875,3442;0,0393171
2876,3083;0,0393832
2877,2727;0,0394525
2878,2368;0,0395219
2879,2012;0,0395919
2880,1653;0,0396683
2881,1296;0,0397598
2882,0938;0,0398739
2883,0581;0,0400142
2884,0222;0,0401786
2884,9866;0,0403604
2885,9507;0,0405522
2886,9150;0,0407488
2887,8792;0,0409491
2888,8435;0,0411552
2889,8076;0,0413685
2890,7720;0,0415869
2891,7361;0,0418047
2892,7004;0,042016
2893,6646;0,0422201
2894,6289;0,0424237
2895,5930;0,0426377
2896,5574;0,04287
2897,5215;0,0431189
2898,4858;0,0433724
2899,4500;0,043614
2900,4143;0,043833
2901,3784;0,0440321
2902,3428;0,0442279
2903,3069;0,0444447
2904,2712;0,0447054
2905,2354;0,0450257
2906,1997;0,0454142
2907,1638;0,0458774
2908,1282;0,0464246
2909,0923;0,0470681
2910,0566;0,0478161
2911,0208;0,048663
2911,9851;0,0495791
2912,9492;0,0505085
2913,9136;0,0513762
2914,8777;0,0521027
2915,8420;0,0526234
2916,8062;0,0529028
2917,7705;0,0529396
2918,7346;0,0527626
2919,6990;0,052418
2920,6631;0,0519571
2921,6274;0,051426
2922,5916;0,0508607
2923,5559;0,0502842
2924,5200;0,0497073
2925,4844;0,0491294
2926,4485;0,0485439
2927,4128;0,0479453
2928,3770;0,0473365
2929,3413;0,0467306
2930,3054;0,0461467
2931,2698;0,0455995
2932,2339;0,0450914
2933,1982;0,0446109
2934,1624;0,0441391
2935,1267;0,0436601
2936,0908;0,0431687
2937,0552;0,04267
2938,0193;0,0421734
2938,9836;0,0416857
2939,9478;0,0412075
2940,9121;0,0407355
2941,8762;0,0402682
2942,8406;0,0398085
2943,8047;0,0393648
2944,7690;0,038947
2945,7332;0,0385633
2946,6975;0,0382175
2947,6616;0,0379092
2948,6260;0,0376349
2949,5901;0,0373895
2950,5544;0,0371666
2951,5186;0,036959
2952,4829;0,0367583
2953,4470;0,0365554
2954,4114;0,0363409
2955,3755;0,0361069
2956,3398;0,0358483
2957,3040;0,0355642
2958,2683;0,035258
2959,2324;0,0349358
2960,1968;0,0346044
2961,1609;0,0342679
2962,1252;0,0339278
2963,0894;0,0335831
2964,0537;0,0332324
2965,0178;0,0328755
2965,9822;0,0325132
2966,9463;0,0321472
2967,9106;0,0317785
2968,8748;0,031408
2969,8391;0,0310376
2970,8032;0,0306713
2971,7676;0,0303151
2972,7317;0,029975
2973,6960;0,0296549
2974,6602;0,0293536
2975,6245;0,0290658
2976,5886;0,0287844
2977,5530;0,0285051
2978,5171;0,0282296
2979,4814;0,027966
2980,4456;0,0277253
2981,4099;0,0275158
2982,3740;0,0273387
2983,3384;0,0271867
2984,3025;0,0270471
2985,2668;0,0269078
2986,2310;0,0267627
2987,1953;0,0266144
2988,1594;0,0264724
2989,1238;0,0263487
2990,0879;0,0262526
2991,0522;0,0261865
2992,0164;0,0261448
2992,9807;0,0261173
2993,9448;0,0260932
2994,9092;0,0260673
2995,8733;0,0260415
2996,8376;0,0260236
2997,8018;0,0260223
2998,7661;0,0260414
2999,7302;0,0260771
3000,6946;0,02612
3001,6587;0,0261608
3002,6230;0,0261956
3003,5872;0,0262286
3004,5515;0,0262694
3005,5156;0,0263266
3006,4800;0,0264034
3007,4441;0,0264946
3008,4084;0,02659
3009,3726;0,0266778
3010,3369;0,0267499
3011,3010;0,0268035
3012,2654;0,0268413
3013,2295;0,0268704
3014,1938;0,0268996
3015,1580;0,0269376
3016,1223;0,0269909
3017,0864;0,0270633
3018,0508;0,0271557
3019,0149;0,0272667
3019,9792;0,027393
3020,9434;0,0275302
3021,9077;0,0276726
3022,8718;0,0278147
3023,8362;0,0279531
3024,8003;0,0280883
3025,7646;0,0282257
3026,7288;0,0283713
3027,6931;0,0285274
3028,6572;0,0286877
3029,6216;0,0288391
3030,5857;0,0289683
3031,5500;0,0290704
3032,5142;0,0291544
3033,4785;0,0292384
3034,4426;0,0293402
3035,4070;0,0294667
3036,3711;0,0296116
3037,3354;0,029761
3038,2996;0,0299032
3039,2639;0,0300357
3040,2280;0,0301649
3041,1924;0,0303011
3042,1565;0,0304525
3043,1208;0,0306219
3044,0850;0,0308069
3045,0493;0,0310016
3046,0134;0,0311977
3046,9778;0,0313855
3047,9419;0,031557
3048,9063;0,0317096
3049,8704;0,0318497
3050,8347;0,0319909
3051,7988;0,0321472
3052,7632;0,0323257
3053,7273;0,032523
3054,6917;0,032728
3055,6558;0,0329303
3056,6201;0,033127
3057,5842;0,0333235
3058,5486;0,0335292
3059,5127;0,0337493
3060,4771;0,0339802
3061,4412;0,0342099
3062,4055;0,0344226
3063,3696;0,0346041
3064,3340;0,0347479
3065,2981;0,0348577
3066,2625;0,0349476
3067,2266;0,0350385
3068,1909;0,0351512
3069,1550;0,0352988
3070,1194;0,035482
3071,0835;0,0356892
3072,0479;0,0359026
3073,0120;0,0361066
3073,9763;0,0362945
3074,9404;0,0364695
3075,9048;0,0366403
3076,8689;0,036814
3077,8333;0,0369908
3078,7974;0,0371643
3079,7617;0,0373261
3080,7258;0,037472
3081,6902;0,0376057
3082,6543;0,037737
3083,6187;0,0378765
3084,5828;0,038029
3085,5471;0,0381915
3086,5112;0,0383559
3087,4756;0,0385155
3088,4397;0,0386712
3089,4041;0,038832
3090,3682;0,0390097
3091,3325;0,0392109
3092,2966;0,0394313
3093,2610;0,0396566
3094,2251;0,0398701
3095,1895;0,0400608
3096,1536;0,0402285
3097,1179;0,0403821
3098,0820;0,0405331
3099,0464;0,0406899
3100,0105;0,0408555
3100,9749;0,0410287
3101,9390;0,0412069
3102,9033;0,0413874
3103,8674;0,0415678
3104,8318;0,0417465
3105,7959;0,0419237
3106,7603;0,0421029
3107,7244;0,0422909
3108,6887;0,0424944
3109,6528;0,0427156
3110,6172;0,04295
3111,5813;0,0431878
3112,5457;0,0434183
3113,5098;0,0436353
3114,4741;0,0438393
3115,4382;0,0440366
3116,4026;0,0442351
3117,3667;0,0444407
3118,3311;0,0446553
3119,2952;0,0448769
3120,2595;0,0451006
3121,2236;0,0453205
3122,1880;0,0455316
3123,1521;0,0457308
3124,1165;0,0459193
3125,0806;0,0461016
3126,0449;0,0462848
3127,0090;0,0464762
3127,9734;0,0466807
3128,9375;0,046901
3129,9019;0,0471367
3130,8660;0,0473857
3131,8303;0,0476434
3132,7944;0,0479027
3133,7588;0,0481547
3134,7229;0,0483918
3135,6873;0,0486108
3136,6514;0,0488158
3137,6157;0,0490174
3138,5798;0,0492282
3139,5442;0,0494574
3140,5083;0,0497067
3141,4727;0,0499706
3142,4368;0,05024
3143,4011;0,0505079
3144,3652;0,0507719
3145,3296;0,0510337
3146,2937;0,0512953
3147,2581;0,051557
3148,2222;0,0518157
3149,1865;0,052068
3150,1506;0,0523118
3151,1150;0,0525481
3152,0791;0,0527801
3153,0435;0,0530111
3154,0076;0,0532435
3154,9719;0,0534785
3155,9360;0,0537175
3156,9004;0,0539621
3157,8645;0,0542145
3158,8289;0,0544762
3159,7930;0,0547469
3160,7573;0,0550245
3161,7214;0,055306
3162,6858;0,0555887
3163,6499;0,055871
3164,6143;0,0561522
3165,5784;0,0564308
3166,5427;0,0567037
3167,5068;0,056966
3168,4712;0,0572144
3169,4353;0,0573537
3170,3997;0,0575859
3171,3638;0,0578284
3172,3281;0,0580937
3173,2922;0,0583866
3174,2566;0,0587008
3175,2207;0,05902
3176,1851;0,0593256
3177,1492;0,059604
3178,1135;0,0598531
3179,0776;0,0600814
3180,0420;0,0603028
3181,0061;0,0605292
3181,9705;0,0607662
3182,9346;0,0610122
3183,8989;0,0612611
3184,8630;0,061507
3185,8274;0,061747
3186,7915;0,0619834
3187,7559;0,0622213
3188,7200;0,0624659
3189,6843;0,0627192
3190,6484;0,0629797
3191,6128;0,063244
3192,5769;0,0635097
3193,5413;0,0637775
3194,5054;0,064049
3195,4697;0,0643225
3196,4338;0,0645908
3197,3982;0,0648425
3198,3623;0,065068
3199,3267;0,065266
3200,2908;0,0654468
3201,2551;0,0656275
3202,2192;0,0658241
3203,1836;0,0660443
3204,1477;0,0662849
3205,1121;0,066535
3206,0762;0,066783
3207,0405;0,0670218
3208,0046;0,067251
3208,9690;0,067475
3209,9331;0,0676989
3210,8975;0,0679268
3211,8616;0,0681599
3212,8259;0,0683969
3213,7900;0,0686345
3214,7544;0,0688674
3215,7185;0,0690895
3216,6829;0,0692961
3217,6470;0,0694863
3218,6113;0,0696647
3219,5754;0,0698405
3220,5398;0,070025
3221,5039;0,070227
3222,4683;0,0704491
3223,4324;0,0706876
3224,3967;0,0709344
3225,3608;0,0711806
3226,3252;0,0714197
3227,2893;0,0716488
3228,2537;0,0718676
3229,2178;0,0720773
3230,1821;0,0722796
3231,1462;0,0724765
3232,1106;0,0726708
3233,0747;0,0728659
3234,0391;0,0730651
3235,0032;0,0732708
3235,9675;0,0734846
3236,9316;0,0737085
3237,8960;0,0739452
3238,8601;0,0741966
3239,8245;0,0744607
3240,7886;0,0747289
3241,7529;0,0749871
3242,7170;0,0752211
3243,6814;0,0754246
3244,6455;0,0756055
3245,6099;0,0757843
3246,5740;0,075985
3247,5383;0,0762229
3248,5024;0,0764969
3249,4668;0,0767922
3250,4309;0,0770888
3251,3953;0,0773727
3252,3594;0,0776412
3253,3237;0,0779009
3254,2878;0,0781609
3255,2522;0,0784255
3256,2163;0,0786926
3257,1807;0,0789564
3258,1448;0,0792119
3259,1091;0,0794583
3260,0732;0,0796986
3261,0376;0,0799369
3262,0017;0,0801763
3262,9661;0,0804179
3263,9302;0,080661
3264,8945;0,0809035
3265,8586;0,0811414
3266,8230;0,0813703
3267,7871;0,0815864
3268,7515;0,0817886
3269,7156;0,0819786
3270,6799;0,0821582
3271,6440;0,0823264
3272,6084;0,0824777
3273,5725;0,0826044
3274,5369;0,0827015
3275,5010;0,082772
3276,4653;0,0828274
3277,4294;0,082882
3278,3938;0,0829458
3279,3579;0,0830186
3280,3223;0,0830919
3281,2864;0,0831546
3282,2507;0,083201
3283,2148;0,0832342
3284,1792;0,0832638
3285,1433;0,0832992
3286,1077;0,0833438
3287,0718;0,0833927
3288,0361;0,0834362
3289,0002;0,0834648
3289,9646;0,0834743
3290,9287;0,0834674
3291,8931;0,083452
3292,8572;0,0834372
3293,8215;0,0834292
3294,7856;0,0834287
3295,7500;0,0834299
3296,7141;0,083423
3297,6785;0,0833982
3298,6426;0,0833502
3299,6069;0,0832807
3300,5710;0,0831984
3301,5354;0,0831156
3302,4995;0,0830438
3303,4639;0,0829901
3304,4280;0,0829556
3305,3923;0,0829369
3306,3564;0,0829278
3307,3208;0,0829218
3308,2849;0,0829134
3309,2493;0,0828997
3310,2134;0,0828804
3311,1777;0,0828586
3312,1418;0,082839
3313,1062;0,0828261
3314,0703;0,0828224
3315,0347;0,0828292
3315,9988;0,0828481
3316,9631;0,0828827
3317,9272;0,0829371
3318,8916;0,0830132
3319,8557;0,0831066
3320,8201;0,0832071
3321,7842;0,0833025
3322,7485;0,0833846
3323,7126;0,0834534
3324,6770;0,0835152
3325,6411;0,0835775
3326,6055;0,083644
3327,5696;0,0837137
3328,5339;0,0837838
3329,4980;0,083853
3330,4624;0,0839215
3331,4265;0,0839878
3332,3909;0,0840451
3333,3550;0,0840813
3334,3193;0,0840827
3335,2834;0,0840411
3336,2478;0,0839566
3337,2119;0,0838372
3338,1763;0,0836933
3339,1404;0,0835342
3340,1047;0,0833666
3341,0688;0,0831961
3342,0332;0,0830282
3342,9973;0,0828668
3343,9617;0,0827104
3344,9258;0,0825514
3345,8901;0,082377
3346,8542;0,0821753
3347,8186;0,0819416
3348,7827;0,0816815
3349,7471;0,0814094
3350,7112;0,0811439
3351,6755;0,0808996
3352,6396;0,0806827
3353,6040;0,0804883
3354,5681;0,0803037
3355,5325;0,0801138
3356,4966;0,0799084
3357,4609;0,0796865
3358,4250;0,0794564
3359,3894;0,0792311
3360,3535;0,0790212
3361,3179;0,0788295
3362,2820;0,078649
3363,2463;0,0784681
3364,2104;0,0782765
3365,1748;0,0780709
3366,1389;0,0778549
3367,1033;0,0776349
3368,0674;0,0774148
3369,0317;0,0771936
3369,9958;0,0769669
3370,9602;0,0767317
3371,9243;0,0764897
3372,8887;0,0762468
3373,8528;0,0760102
3374,8171;0,0757845
3375,7813;0,0755697
3376,7456;0,0753628
3377,7097;0,0751599
3378,6741;0,0749576
3379,6382;0,0747536
3380,6025;0,0745458
3381,5667;0,0743329
3382,5310;0,0741159
3383,4951;0,0738993
3384,4595;0,0736905
3385,4236;0,0734972
3386,3879;0,073324
3387,3521;0,0731694
3388,3164;0,0730258
3389,2805;0,0728819
3390,2449;0,0727267
3391,2090;0,0725533
3392,1733;0,0723612
3393,1375;0,0721567
3394,1018;0,0719487
3395,0659;0,0717443
3396,0303;0,0715446
3396,9944;0,071345
3397,9587;0,0711381
3398,9229;0,0709182
3399,8872;0,0706842
3400,8513;0,0704399
3401,8157;0,0701924
3402,7798;0,0699484
3403,7441;0,0697121
3404,7083;0,0694845
3405,6726;0,0692636
3406,6367;0,0690449
3407,6011;0,0688228
3408,5652;0,0685909
3409,5295;0,068344
3410,4937;0,0680804
3411,4580;0,0678033
3412,4221;0,0675216
3413,3865;0,067247
3414,3506;0,0669885
3415,3149;0,0667479
3416,2791;0,0665177
3417,2434;0,0662834
3418,2075;0,0660293
3419,1719;0,0657454
3420,1360;0,0654324
3421,1003;0,0651007
3422,0645;0,0647653
3423,0288;0,0644377
3423,9929;0,0641228
3424,9573;0,0638201
3425,9214;0,0635275
3426,8857;0,0632447
3427,8499;0,0629723
3428,8142;0,0627092
3429,7783;0,0624499
3430,7427;0,0621843
3431,7068;0,061902
3432,6711;0,0615974
3433,6353;0,0612738
3434,5996;0,0609439
3435,5637;0,0606238
3436,5281;0,0603256
3437,4922;0,0600514
3438,4565;0,0597937
3439,4207;0,0595407
3440,3850;0,0592835
3441,3491;0,0590204
3442,3135;0,0587538
3443,2776;0,0584844
3444,2419;0,0582068
3445,2061;0,05791
3446,1704;0,0575849
3447,1345;0,0572319
3448,0989;0,0568625
3449,0630;0,0564922
3450,0273;0,0561311
3450,9915;0,0557807
3451,9558;0,0554381
3452,9199;0,0551029
3453,8843;0,0547795
3454,8484;0,0544753
3455,8127;0,0541946
3456,7769;0,0539354
3457,7412;0,0536887
3458,7053;0,0534431
3459,6697;0,0531881
3460,6338;0,0529169
3461,5981;0,0526258
3462,5623;0,0523122
3463,5266;0,0519742
3464,4907;0,0516109
3465,4551;0,0512261
3466,4192;0,0508315
3467,3835;0,0504459
3468,3477;0,0500905
3469,3120;0,0497785
3470,2761;0,0495075
3471,2405;0,0492583
3472,2046;0,0490037
3473,1689;0,0487233
3474,1331;0,0484162
3475,0974;0,048102
3476,0615;0,0478083
3477,0259;0,0475513
3477,9900;0,0473246
3478,9543;0,047102
3479,9185;0,046852
3480,8828;0,0465578
3481,8469;0,0462266
3482,8113;0,0458831
3483,7754;0,0455504
3484,7397;0,0452341
3485,7039;0,0449219
3486,6682;0,0445962
3487,6323;0,0442496
3488,5967;0,0438935
3489,5608;0,0435526
3490,5251;0,0432504
3491,4893;0,0429952
3492,4536;0,0427755
3493,4177;0,042567
3494,3821;0,0423454
3495,3462;0,0421009
3496,3105;0,041844
3497,2747;0,0415981
3498,2390;0,0413823
3499,2031;0,0411965
3500,1675;0,0410177
3501,1316;0,0408096
3502,0959;0,0405424
3503,0601;0,0402146
3504,0244;0,0398565
3504,9885;0,0395071
3505,9529;0,0391871
3506,9170;0,0388882
3507,8813;0,0385851
3508,8455;0,0382536
3509,8098;0,0378885
3510,7739;0,0375075
3511,7383;0,0371397
3512,7024;0,0368072
3513,6667;0,0365156
3514,6309;0,0362586
3515,5952;0,0360277
3516,5593;0,0358196
3517,5237;0,0356373
3518,4878;0,0354837
3519,4521;0,0353549
3520,4163;0,0352365
3521,3806;0,0351064
3522,3447;0,0349424
3523,3091;0,0347319
3524,2732;0,0344752
3525,2375;0,0341791
3526,2017;0,0338478
3527,1660;0,0334798
3528,1301;0,0330752
3529,0945;0,0326476
3530,0586;0,0322252
3531,0229;0,0318388
3531,9871;0,0315063
3532,9514;0,0312252
3533,9155;0,0309753
3534,8799;0,030728
3535,8440;0,0304627
3536,8083;0,0301799
3537,7725;0,0299045
3538,7368;0,0296728
3539,7009;0,0295131
3540,6653;0,0294318
3541,6294;0,0294088
3542,5938;0,0293977
3543,5579;0,0293319
3544,5222;0,0291481
3545,4863;0,0288241
3546,4507;0,0283996
3547,4148;0,0279486
3548,3792;0,0275284
3549,3433;0,0271526
3550,3076;0,0268017
3551,2717;0,0264484
3552,2361;0,0260823
3553,2002;0,02572
3554,1646;0,0253936
3555,1287;0,0251268
3556,0930;0,0249213
3557,0571;0,0247651
3558,0215;0,0246489
3558,9856;0,0245759
3559,9500;0,0245584
3560,9141;0,0246026
3561,8784;0,0246929
3562,8425;0,0247858
3563,8069;0,0248079
3564,7710;0,0246561
3565,7354;0,0242263
3566,6995;0,0235108
3567,6638;0,0226752
3568,6279;0,0219526
3569,5923;0,0214552
3570,5564;0,0211409
3571,5208;0,0209103
3572,4849;0,0206906
3573,4492;0,0204591
3574,4133;0,0202271
3575,3777;0,0200132
3576,3418;0,0198258
3577,3062;0,0196631
3578,2703;0,0195256
3579,2346;0,0194251
3580,1987;0,0193791
3581,1631;0,0193927
3582,1272;0,0194452
3583,0916;0,0194937
3584,0557;0,0194867
3585,0200;0,0193738
3585,9841;0,0191198
3586,9485;0,0187495
3587,9126;0,0183842
3588,8770;0,0181699
3589,8411;0,0181492
3590,8054;0,018244
3591,7695;0,0183357
3592,7339;0,0183349
3593,6980;0,0182097
3594,6624;0,0179883
3595,6265;0,0177367
3596,5908;0,0175096
3597,5549;0,01731
3598,5193;0,0170971
3599,4834;0,0168305
3600,4478;0,0165108
3601,4119;0,0161823
3602,3762;0,0158928
3603,3403;0,0156503
3604,3047;0,0154164
3605,2688;0,0151296
3606,2332;0,0147344
3607,1973;0,0142154
3608,1616;0,0136266
3609,1257;0,0130816
3610,0901;0,0126923
3611,0542;0,0125082
3612,0186;0,0125017
3612,9827;0,0125917
3613,9470;0,0126802
3614,9111;0,0126865
3615,8755;0,0125705
3616,8396;0,0123399
3617,8040;0,012049
3618,7681;0,0117911
3619,7324;0,0116749
3620,6965;0,0117669
3621,6609;0,0120341
3622,6250;0,0123524
3623,5894;0,0125752
3624,5535;0,0125991
3625,5178;0,0123896
3626,4819;0,0119627
3627,4463;0,0113523
3628,4104;0,0106325
3629,3748;0,00996991
3630,3389;0,00951422
3631,3032;0,00923488
3632,2673;0,00897672
3633,2317;0,00861853
3634,1958;0,00814753
3635,1602;0,00763687
3636,1243;0,00717724
3637,0886;0,00681642
3638,0527;0,0065466
3639,0171;0,00633743
3639,9812;0,00617513
3640,9456;0,00607128
3641,9097;0,00603915
3642,8740;0,00606671
3643,8381;0,00611619
3644,8025;0,00614904
3645,7666;0,00613978
3646,7310;0,00603346
3647,6951;0,00567478
3648,6594;0,00492876
3649,6235;0,00400905
3650,5879;0,00333611
3651,5520;0,003034
3652,5164;0,00291574
3653,4805;0,00276209
3654,4448;0,00247351
3655,4089;0,00208204
3656,3733;0,00169971
3657,3374;0,00143514
3658,3018;0,00131812
3659,2659;0,00129498
3660,2302;0,00129497
3661,1943;0,00129326
3662,1587;0,00131571
3663,1228;0,00139439
3664,0872;0,00152272
3665,0513;0,00165876
3666,0156;0,0017661
3666,9797;0,00184813
3667,9441;0,00193116
3668,9082;0,00201413
3669,8726;0,00206101
3670,8367;0,00204097
3671,8010;0,00193864
3672,7651;0,00174882
3673,7295;0,0014908
3674,6936;0,00120982
3675,6580;0,000970142
3676,6221;0,00084969
3677,5864;0,000882279
3678,5505;0,00101187
3679,5149;0,00115428
3680,4790;0,00127626
3681,4434;0,0013996
3682,4075;0,00154897
3683,3718;0,0017072
3684,3359;0,00182177
3685,3003;0,00185538
3686,2644;0,00183354
3687,2288;0,00183923
3688,1929;0,00194255
3689,1572;0,0021384
3690,1213;0,00238064
3691,0857;0,00263704
3692,0498;0,00287967
3693,0142;0,00307925
3693,9783;0,0032242
3694,9426;0,00332259
3695,9067;0,0033844
3696,8711;0,00340852
3697,8352;0,00338892
3698,7996;0,00333278
3699,7637;0,00327145
3700,7280;0,00325208
3701,6921;0,00331429
3702,6565;0,00346728
3703,6206;0,00368028
3704,5850;0,00389334
3705,5491;0,00404402
3706,5134;0,00409045
3707,4775;0,00400989
3708,4419;0,00376605
3709,4060;0,00327915
3710,3704;0,00249129
3711,3345;0,00153538
3712,2988;0,000738374
3713,2629;0,000351867
3714,2273;0,000387044
3715,1914;0,000709304
3716,1558;0,00118094
3717,1199;0,00172224
3718,0842;0,00230416
3719,0483;0,00291505
3720,0127;0,00353387
3720,9768;0,00412419
3721,9412;0,00464327
3722,9053;0,00505214
3723,8696;0,00532313
3724,8337;0,00544994
3725,7981;0,00545414
3726,7622;0,00537298
3727,7266;0,0052363
3728,6907;0,00506015
3729,6550;0,00486246
3730,6191;0,00467594
3731,5835;0,0045325
3732,5476;0,00441534
3733,5120;0,00422337
3734,4761;0,00384478
3735,4404;0,00332697
3736,4045;0,00288232
3737,3689;0,00264913
3738,3330;0,00254812
3739,2974;0,00237559
3740,2615;0,00195953
3741,2258;0,001259
3742,1899;0,000402009
3743,1543;-0,000346637
3744,1184;-0,00071837
3745,0828;-0,000629554
3746,0469;-0,000251062
3747,0112;0,000125399
3747,9753;0,000266755
3748,9397;7,48696E-05
3749,9038;-0,000407035
3750,8682;-0,000974848
3751,8323;-0,00132661
3752,7966;-0,00131039
3753,7607;-0,00104456
3754,7251;-0,000755985
3755,6892;-0,000604375
3756,6536;-0,000634774
3757,6177;-0,000803757
3758,5820;-0,00101819
3759,5461;-0,0011768
3760,5105;-0,00122072
3761,4746;-0,00116023
3762,4390;-0,00105103
3763,4031;-0,000951263
3764,3674;-0,000898175
3765,3315;-0,000907805
3766,2959;-0,000982653
3767,2600;-0,00111607
3768,2244;-0,00129089
3769,1885;-0,00147455
3770,1528;-0,00161846
3771,1169;-0,00167576
3772,0813;-0,0016322
3773,0454;-0,00152134
3774,0098;-0,001405
3774,9739;-0,00133651
3775,9382;-0,00133529
3776,9023;-0,00138558
3777,8667;-0,00145096
3778,8308;-0,00148831
3779,7952;-0,00146224
3780,7593;-0,00136611
3781,7236;-0,00123276
3782,6877;-0,00111966
3783,6521;-0,00108067
3784,6162;-0,00114132
3785,5806;-0,00128503
3786,5447;-0,00145949
3787,5090;-0,00160328
3788,4731;-0,00167762
3789,4375;-0,0016808
3790,4016;-0,00163655
3791,3660;-0,00156684
3792,3301;-0,001469
3793,2944;-0,0013153
3794,2585;-0,00107987
3795,2229;-0,000775445
3796,1870;-0,000466305
3797,1514;-0,000240468
3798,1155;-0,000162667
3799,0798;-0,000244778
3800,0439;-0,00044743
3801,0083;-0,000700667
3801,9724;-0,000937653
3802,9368;-0,00114172
3803,9009;-0,00135929
3804,8652;-0,00164233
3805,8293;-0,00197036
3806,7937;-0,00222938
3807,7578;-0,00228115
3808,7222;-0,0020822
3809,6863;-0,00173534
3810,6506;-0,00141332
3811,6147;-0,00123637
3812,5791;-0,00120285
3813,5432;-0,00120286
3814,5076;-0,00110307
3815,4717;-0,000852342
3816,4360;-0,000523035
3817,4001;-0,000258035
3818,3645;-0,000185766
3819,3286;-0,000359468
3820,2930;-0,000720273
3821,2571;-0,00110126
3822,2214;-0,00132507
3823,1855;-0,00133716
3824,1499;-0,00122121
3825,1140;-0,00110043
3826,0784;-0,00104846
3827,0425;-0,001065
3828,0068;-0,00109958
3828,9709;-0,00109333
3829,9353;-0,0010145
3830,8994;-0,000872812
3831,8638;-0,000710988
3832,8279;-0,000581355
3833,7922;-0,000519257
3834,7563;-0,000526281
3835,7207;-0,00057488
3836,6848;-0,000634517
3837,6492;-0,000698367
3838,6133;-0,000780775
3839,5776;-0,000894445
3840,5417;-0,00104041
3841,5061;-0,00120782
3842,4702;-0,00136272
3843,4346;-0,00144167
3844,3987;-0,00137653
3845,3630;-0,00114385
3846,3271;-0,000799466
3847,2915;-0,000466895
3848,2556;-0,000287553
3849,2200;-0,000365607
3850,1841;-0,000734206
3851,1484;-0,00135763
3852,1125;-0,00214621
3853,0769;-0,00288868
3854,0410;-0,00321907
3855,0054;-0,00294873
3855,9695;-0,00229374
3856,9338;-0,00161328
3857,8979;-0,00114142
3858,8623;-0,000932557
3859,8264;-0,000910963
3860,7908;-0,000946541
3861,7549;-0,000935897
3862,7192;-0,000858855
3863,6833;-0,000767398
3864,6477;-0,000721681
3865,6118;-0,000744962
3866,5762;-0,000822845
3867,5403;-0,00092003
3868,5046;-0,00100224
3869,4688;-0,00105969
3870,4331;-0,00111154
3871,3972;-0,00117977
3872,3616;-0,00126262
3873,3257;-0,00134028
3874,2900;-0,00139792
3875,2542;-0,00143437
3876,2185;-0,00145006
3877,1826;-0,00143316
3878,1470;-0,00136208
3879,1111;-0,00122994
3880,0754;-0,00106993
3881,0396;-0,000950157
3882,0039;-0,000936098
3882,9680;-0,00105188
3883,9324;-0,00126409
3884,8965;-0,00149387
3885,8608;-0,00165833
3886,8250;-0,00172176
3887,7893;-0,00171255
3888,7534;-0,00168706
3889,7178;-0,00167791
3890,6819;-0,00167153
3891,6462;-0,00162269
3892,6104;-0,00149126
3893,5747;-0,0012828
3894,5388;-0,00105598
3895,5032;-0,000880163
3896,4673;-0,00078633
3897,4316;-0,000757943
3898,3958;-0,00076212
3899,3601;-0,00078536
3900,3242;-0,000841462
3901,2886;-0,00095292
3902,2527;-0,00113116
3903,2170;-0,00136208
3904,1812;-0,00160054
3905,1455;-0,00179126
3906,1096;-0,00190608
3907,0740;-0,00195581
3908,0381;-0,00196695
3909,0024;-0,0019547
3909,9666;-0,00191663
3910,9309;-0,00184493
3911,8950;-0,00174118
3912,8594;-0,00162108
3913,8235;-0,00150808
3914,7878;-0,00142386
3915,7520;-0,00138146
3916,7163;-0,00137871
3917,6804;-0,00139254
3918,6448;-0,00138781
3919,6089;-0,0013433
3920,5732;-0,00127063
3921,5374;-0,00120518
3922,5017;-0,00118155
3923,4658;-0,00121155
3924,4302;-0,00127435
3925,3943;-0,00132688
3926,3586;-0,00133302
3927,3228;-0,00128797
3928,2871;-0,00121844
3929,2512;-0,00116645
3930,2156;-0,00117156
3931,1797;-0,00125251
3932,1440;-0,00139161
3933,1082;-0,00154089
3934,0725;-0,00165307
3935,0366;-0,00170811
3936,0010;-0,00171343
3936,9651;-0,00168813
3937,9294;-0,00164926
3938,8936;-0,00160657
3939,8579;-0,00156369
3940,8220;-0,00152099
3941,7864;-0,00147661
3942,7505;-0,00142633
3943,7148;-0,00136618
3944,6790;-0,0012998
3945,6433;-0,00124177
3946,6074;-0,00121343
3947,5718;-0,00123404
3948,5359;-0,00131108
3949,5002;-0,00143341
3950,4644;-0,0015735
3951,4287;-0,00170077
3952,3928;-0,00179494
3953,3572;-0,00184916
3954,3213;-0,00186567
3955,2856;-0,00185182
3956,2498;-0,00181859
3957,2141;-0,00177931
3958,1782;-0,00174705
3959,1426;-0,00173143
3960,1067;-0,0017362
3961,0710;-0,0017585
3962,0352;-0,00179018
3962,9995;-0,00182115
3963,9636;-0,00184387
3964,9280;-0,00185548
3965,8921;-0,00185797
3966,8564;-0,00185546
3967,8206;-0,00185142
3968,7849;-0,00184701
3969,7490;-0,00184136
3970,7134;-0,0018333
3971,6775;-0,00182337
3972,6418;-0,00181448
3973,6060;-0,00181071
3974,5703;-0,001815
3975,5344;-0,00182768
3976,4988;-0,00184665
3977,4629;-0,00186919
3978,4272;-0,00189377
3979,3914;-0,00192079
3980,3557;-0,00195201
3981,3198;-0,00198904
3982,2842;-0,00203117
3983,2483;-0,00207357
3984,2126;-0,00210711
3985,1768;-0,00212078
3986,1411;-0,00210609
3987,1052;-0,00206179
3988,0696;-0,00199646
3989,0337;-0,00192649
3989,9980;-0,00187099
3990,9622;-0,00184473
3991,9265;-0,00185345
3992,8906;-0,00189345
3993,8550;-0,00195428
3994,8191;-0,00202249
3995,7834;-0,00208499
3996,7476;-0,00213171
3997,7119;-0,00215764
3998,6760;-0,00216348
3999,6404;-0,00215416
4000,6045;-0,00184098

##### Extended Information
[Comments]
Sample name
Comment
Username
Division
Organization;UNIVERSIDAD INDUSTRIAL DE SANTANDER

[Detailed Information]
Creation date;19/03/2025 2:37 p.m.

Data array type;Linear data array
Horizontal axis;Wavenumber [cm-1]
Vertical axis;Abs
Start;399,193 cm-1
End;4000,6 cm-1
Data interval;0,964233 cm-1
Data points;3736    

[Measurement Information]
Model name;FT/IR-4X1typeA
Serial No.;A035162111

Accessory;ATR PRO 4X
Accessory S/N;A021162126
Incident angle;45 deg

Measurement date;19/03/2025 2:36 p.m.

Light source;Standard
Detector;TGS
Accumulation;40
Resolution;4 cm-1
Zero filling;On
Apodization;Cosine
Gain;Auto (8)
Aperture;Auto (7 mm)
Scan speed;Auto (2 mm/sec)
Filter;Auto (12800 Hz)

