TITLE;
DATA TYPE;INFRARED SPECTRUM
ORIGIN;JASCO
OWNER;
DATE;25/03/19
TIME;14:46:04
SPECTROMETER/DATA SYSTEM;
LOCALE;9226
RESOLUTION;
DELTAX;0,964233
XUNITS;1/CM
YUNITS;ABSORBANCE
FIRSTX;  399,1927
LASTX; 4000,6047
NPOINTS;    3736
FIRSTY;     0,22801
MAXY;     0,26709
MINY;    -0,00681
XYDATA
399,1927;0,228011
400,1569;0,227759
401,1211;0,22585
402,0854;0,222881
403,0496;0,219582
404,0138;0,216556
404,9781;0,214206
405,9423;0,212704
406,9065;0,212021
407,8708;0,212035
408,8350;0,212642
409,7992;0,213781
410,7635;0,215344
411,7277;0,217091
412,6919;0,218712
413,6562;0,219995
414,6204;0,220964
415,5846;0,221871
416,5489;0,223098
417,5131;0,224955
418,4773;0,227309
419,4416;0,229406
420,4058;0,230438
421,3700;0,230242
422,3343;0,229168
423,2985;0,227639
424,2627;0,226005
425,2270;0,224566
426,1912;0,223577
427,1554;0,223194
428,1197;0,223411
429,0839;0,22406
430,0481;0,224862
431,0124;0,225502
431,9766;0,225723
432,9408;0,225412
433,9051;0,224619
434,8693;0,223516
435,8335;0,222298
436,7978;0,221094
437,7620;0,219934
438,7262;0,218801
439,6905;0,217715
440,6547;0,216789
441,6189;0,216192
442,5832;0,216026
443,5474;0,216191
444,5116;0,216369
445,4759;0,216185
446,4401;0,21542
447,4043;0,214107
448,3686;0,212491
449,3328;0,210912
450,2970;0,209683
451,2613;0,208993
452,2255;0,208857
453,1897;0,209129
454,1540;0,209558
455,1182;0,209856
456,0824;0,209767
457,0467;0,209162
458,0109;0,208134
458,9751;0,20698
459,9394;0,206015
460,9036;0,205384
461,8678;0,205041
462,8321;0,204847
463,7963;0,204673
464,7605;0,204458
465,7248;0,204214
466,6890;0,203998
467,6532;0,203862
468,6175;0,203816
469,5817;0,203826
470,5459;0,203831
471,5102;0,203769
472,4744;0,203621
473,4386;0,203428
474,4029;0,203282
475,3671;0,203273
476,3313;0,20345
477,2956;0,203803
478,2598;0,204262
479,2240;0,204728
480,1883;0,205106
481,1525;0,205347
482,1167;0,205456
483,0810;0,205485
484,0452;0,205507
485,0094;0,20559
485,9737;0,20578
486,9379;0,206108
487,9021;0,206587
488,8664;0,207216
489,8306;0,207964
490,7948;0,208753
491,7591;0,209469
492,7233;0,21
493,6875;0,21029
494,6518;0,210378
495,6160;0,210385
496,5802;0,210465
497,5445;0,210738
498,5087;0,211255
499,4729;0,211978
500,4372;0,212797
501,4014;0,213581
502,3656;0,214235
503,3299;0,214746
504,2941;0,215176
505,2583;0,215627
506,2226;0,216181
507,1868;0,216868
508,1510;0,217655
509,1153;0,218458
510,0795;0,219184
511,0437;0,219793
512,0080;0,220335
512,9722;0,220939
513,9365;0,221752
514,9007;0,222838
515,8649;0,224103
516,8292;0,225283
517,7934;0,226058
518,7576;0,226253
519,7219;0,22596
520,6861;0,225467
521,6503;0,225065
522,6146;0,224906
523,5788;0,224974
524,5430;0,225142
525,5073;0,225257
526,4715;0,225227
527,4357;0,22504
528,4000;0,22474
529,3642;0,224375
530,3284;0,223981
531,2927;0,223587
532,2569;0,223226
533,2211;0,222931
534,1854;0,222712
535,1496;0,222559
536,1138;0,222448
537,0781;0,222364
538,0423;0,222313
539,0065;0,222328
539,9708;0,222453
540,9350;0,222731
541,8992;0,223189
542,8635;0,223818
543,8277;0,224562
544,7919;0,225324
545,7562;0,225996
546,7204;0,226506
547,6846;0,226853
548,6489;0,227097
549,6131;0,227319
550,5773;0,227585
551,5416;0,227937
552,5058;0,228401
553,4700;0,228996
554,4343;0,229709
555,3985;0,230459
556,3627;0,231079
557,3270;0,231351
558,2912;0,231092
559,2554;0,230236
560,2197;0,228867
561,1839;0,227192
562,1481;0,225458
563,1124;0,223876
564,0766;0,222566
565,0408;0,221546
566,0051;0,220753
566,9693;0,220085
567,9335;0,219446
568,8978;0,218796
569,8620;0,218165
570,8262;0,217632
571,7905;0,217274
572,7547;0,217123
573,7189;0,217147
574,6832;0,217261
575,6474;0,217367
576,6116;0,21739
577,5759;0,217303
578,5401;0,21712
579,5043;0,216879
580,4686;0,21662
581,4328;0,216365
582,3970;0,216121
583,3613;0,215878
584,3255;0,215615
585,2897;0,215318
586,2540;0,214993
587,2182;0,214677
588,1824;0,214417
589,1467;0,21425
590,1109;0,214171
591,0751;0,214124
592,0394;0,214018
593,0036;0,213768
593,9678;0,213335
594,9321;0,212739
595,8963;0,212042
596,8605;0,211323
597,8248;0,210656
598,7890;0,210091
599,7532;0,20964
600,7175;0,209276
601,6817;0,208934
602,6459;0,208546
603,6102;0,208064
604,5744;0,207498
605,5386;0,206901
606,5029;0,20634
607,4671;0,205845
608,4313;0,205377
609,3956;0,204846
610,3598;0,204179
611,3240;0,203389
612,2883;0,202593
613,2525;0,201955
614,2167;0,201575
615,1810;0,201396
616,1452;0,201181
617,1094;0,200613
618,0737;0,199469
619,0379;0,197761
620,0021;0,195718
620,9664;0,193657
621,9306;0,191826
622,8948;0,190328
623,8591;0,189143
624,8233;0,188126
625,7875;0,187307
626,7518;0,186639
627,7160;0,186102
628,6802;0,185653
629,6445;0,185232
630,6087;0,184765
631,5729;0,184204
632,5372;0,183542
633,5014;0,182812
634,4656;0,182077
635,4299;0,181403
636,3941;0,180844
637,3583;0,18043
638,3226;0,180154
639,2868;0,179973
640,2510;0,179814
641,2153;0,179603
642,1795;0,179299
643,1437;0,17892
644,1080;0,178533
645,0722;0,178209
646,0364;0,177984
647,0007;0,177838
647,9649;0,177713
648,9291;0,177555
649,8934;0,17736
650,8576;0,177185
651,8218;0,177116
652,7861;0,177227
653,7503;0,17754
654,7145;0,178018
655,6788;0,178572
656,6430;0,179108
657,6072;0,179572
658,5715;0,179953
659,5357;0,180244
660,4999;0,180377
661,4642;0,180211
662,4284;0,17957
663,3926;0,178327
664,3569;0,176525
665,3211;0,174548
666,2853;0,17319
667,2496;0,173189
668,2138;0,174141
669,1780;0,174607
670,1423;0,17406
671,1065;0,172918
672,0707;0,171379
673,0350;0,169423
673,9992;0,167144
674,9634;0,164788
675,9277;0,1626
676,8919;0,160687
677,8561;0,15901
678,8204;0,157484
679,7846;0,156067
680,7488;0,154764
681,7131;0,153595
682,6773;0,152541
683,6415;0,151559
684,6058;0,15061
685,5700;0,149693
686,5342;0,148837
687,4985;0,148077
688,4627;0,147435
689,4269;0,146886
690,3912;0,146392
691,3554;0,145922
692,3196;0,145459
693,2839;0,145004
694,2481;0,144555
695,2123;0,144107
696,1766;0,14364
697,1408;0,143128
698,1050;0,142552
699,0693;0,141917
700,0335;0,141248
700,9977;0,140581
701,9620;0,139938
702,9262;0,139314
703,8904;0,138661
704,8547;0,137945
705,8189;0,137147
706,7831;0,136271
707,7474;0,135344
708,7116;0,134401
709,6758;0,133466
710,6401;0,132538
711,6043;0,131599
712,5685;0,130624
713,5328;0,129615
714,4970;0,128615
715,4612;0,126512
716,4255;0,125983
717,3897;0,125671
718,3539;0,125392
719,3182;0,124862
720,2824;0,123839
721,2466;0,122269
722,2109;0,120324
723,1751;0,118297
724,1393;0,116449
725,1036;0,114896
726,0678;0,113618
727,0320;0,112512
727,9963;0,111482
728,9605;0,110482
729,9247;0,109517
730,8890;0,10861
731,8532;0,107776
732,8174;0,10701
733,7817;0,106299
734,7459;0,10563
735,7101;0,104997
736,6744;0,104393
737,6386;0,103813
738,6028;0,103254
739,5671;0,102722
740,5313;0,102222
741,4955;0,101748
742,4598;0,101284
743,4240;0,100803
744,3882;0,100282
745,3525;0,0997148
746,3167;0,0991135
747,2809;0,0984981
748,2452;0,0978843
749,2094;0,0972776
750,1736;0,0966766
751,1379;0,0960816
752,1021;0,0954983
753,0663;0,0949348
754,0306;0,0943935
754,9948;0,0938665
755,9590;0,0933391
756,9233;0,0928002
757,8875;0,0922512
758,8517;0,091707
759,8160;0,0911883
760,7802;0,0907106
761,7444;0,0902752
762,7087;0,0898693
763,6729;0,0894713
764,6371;0,0890596
765,6014;0,0886217
766,5656;0,0881583
767,5298;0,0876849
768,4941;0,0872265
769,4583;0,0868074
770,4225;0,086439
771,3868;0,0861114
772,3510;0,0857954
773,3152;0,0854562
774,2795;0,0850719
775,2437;0,0846454
776,2079;0,0842033
777,1722;0,0837794
778,1364;0,0833962
779,1006;0,0830538
780,0649;0,0827341
781,0291;0,0824136
781,9933;0,0820755
782,9576;0,0817127
783,9218;0,0813223
784,8860;0,0809015
785,8503;0,0804492
786,8145;0,079974
787,7787;0,0794999
788,7430;0,0790609
789,7072;0,0786868
790,6714;0,0783871
791,6357;0,0781458
792,5999;0,0779294
793,5641;0,0777047
794,5284;0,0774535
795,4926;0,0771761
796,4568;0,0768847
797,4211;0,076593
798,3853;0,0763096
799,3495;0,0760369
800,3138;0,0757743
801,2780;0,0755197
802,2422;0,0752696
803,2065;0,0750192
804,1707;0,0747645
805,1349;0,0745045
806,0992;0,0742431
807,0634;0,0739871
808,0276;0,0737423
808,9919;0,073511
809,9561;0,0732916
810,9203;0,0730825
811,8846;0,0728841
812,8488;0,0726991
813,8130;0,072529
814,7773;0,072371
815,7415;0,0722181
816,7057;0,0720634
817,6700;0,0719053
818,6342;0,0717505
819,5984;0,0716099
820,5627;0,071491
821,5269;0,0713907
822,4911;0,0712946
823,4554;0,0711837
824,4196;0,0710465
825,3839;0,070886
826,3481;0,0707185
827,3123;0,0705621
828,2766;0,0704239
829,2408;0,0702919
830,2050;0,0701413
831,1693;0,0699483
832,1335;0,069705
833,0977;0,0694248
834,0620;0,0691342
835,0262;0,0688572
835,9904;0,068601
836,9547;0,0683531
837,9189;0,0680906
838,8831;0,0677946
839,8474;0,0674619
840,8116;0,0671062
841,7758;0,0667513
842,7401;0,0664205
843,7043;0,0661294
844,6685;0,0658838
845,6328;0,0656814
846,5970;0,0655139
847,5612;0,0653688
848,5255;0,0652304
849,4897;0,0650841
850,4539;0,0649214
851,4182;0,0647455
852,3824;0,0645705
853,3466;0,0644161
854,3109;0,064297
855,2751;0,0642158
856,2393;0,0641623
857,2036;0,0641197
858,1678;0,0640745
859,1320;0,064022
860,0963;0,063966
861,0605;0,0639132
862,0247;0,063868
862,9890;0,0638318
863,9532;0,0638066
864,9174;0,0638006
865,8817;0,0638284
866,8459;0,0639066
867,8101;0,0640454
868,7744;0,0642433
869,7386;0,064487
870,7028;0,0647556
871,6671;0,0650269
872,6313;0,0652804
873,5955;0,0654994
874,5598;0,0656729
875,5240;0,0658005
876,4882;0,0658966
877,4525;0,0659906
878,4167;0,0661203
879,3809;0,0663203
880,3452;0,066611
881,3094;0,0669966
882,2736;0,0674715
883,2379;0,06803
884,2021;0,0686726
885,1663;0,0694058
886,1306;0,0702347
887,0948;0,0711569
888,0590;0,072159
889,0233;0,073217
889,9875;0,0742983
890,9517;0,0753635
891,9160;0,07637
892,8802;0,0772774
893,8444;0,0780541
894,8087;0,078681
895,7729;0,0791492
896,7371;0,0794535
897,7014;0,0795873
898,6656;0,0795441
899,6298;0,0793257
900,5941;0,0789499
901,5583;0,0784517
902,5225;0,0778758
903,4868;0,0772662
904,4510;0,0766588
905,4152;0,0760807
906,3795;0,0755535
907,3437;0,0750936
908,3079;0,0747109
909,2722;0,0744055
910,2364;0,07417
911,2007;0,0739957
912,1649;0,0738791
913,1292;0,0738216
914,0934;0,0738243
915,0576;0,0738821
916,0219;0,0739843
916,9861;0,0741221
917,9503;0,0742976
918,9146;0,0745223
919,8788;0,0748076
920,8430;0,0751502
921,8073;0,0755255
922,7715;0,0758957
923,7357;0,0762267
924,7000;0,0765027
925,6642;0,0767299
926,6284;0,0769259
927,5927;0,077105
928,5569;0,0772692
929,5211;0,077411
930,4854;0,0775244
931,4496;0,0776148
932,4138;0,0777014
933,3781;0,0778109
934,3423;0,0779677
935,3065;0,0781869
936,2708;0,0784743
937,2350;0,0788311
938,1992;0,0792585
939,1635;0,0797592
940,1277;0,0803347
941,0919;0,0809839
942,0562;0,0817037
943,0204;0,0824934
943,9846;0,0833591
944,9489;0,0843122
945,9131;0,085363
946,8773;0,0865123
947,8416;0,0877471
948,8058;0,089045
949,7700;0,0903855
950,7343;0,091761
951,6985;0,0931816
952,6627;0,0946696
953,6270;0,0962481
954,5912;0,0979305
955,5554;0,0997155
956,5197;0,10159
957,4839;0,103535
958,4481;0,105536
959,4124;0,107585
960,3766;0,109682
961,3408;0,111829
962,3051;0,114023
963,2693;0,116258
964,2335;0,118523
965,1978;0,120809
966,1620;0,123118
967,1262;0,125464
968,0905;0,127878
969,0547;0,130398
970,0189;0,133062
970,9832;0,135906
971,9474;0,138961
972,9116;0,142254
973,8759;0,145807
974,8401;0,149637
975,8043;0,153752
976,7686;0,158137
977,7328;0,162752
978,6970;0,167521
979,6613;0,172328
980,6255;0,177032
981,5897;0,181479
982,5540;0,185533
983,5182;0,189108
984,4824;0,192187
985,4467;0,194817
986,4109;0,197093
987,3751;0,199126
988,3394;0,201017
989,3036;0,202833
990,2678;0,204608
991,2321;0,206344
992,1963;0,20802
993,1605;0,209608
994,1248;0,211083
995,0890;0,21243
996,0532;0,213644
997,0175;0,214728
997,9817;0,215685
998,9459;0,216522
999,9102;0,21725
1000,8744;0,217904
1001,8386;0,218544
1002,8029;0,219253
1003,7671;0,220115
1004,7313;0,221198
1005,6956;0,222542
1006,6598;0,224152
1007,6240;0,22602
1008,5883;0,228132
1009,5525;0,230472
1010,5167;0,233013
1011,4810;0,235707
1012,4452;0,238481
1013,4094;0,241243
1014,3737;0,243904
1015,3379;0,246395
1016,3021;0,248676
1017,2664;0,250737
1018,2306;0,25259
1019,1948;0,254262
1020,1591;0,25579
1021,1233;0,257216
1022,0875;0,258579
1023,0518;0,259908
1024,0160;0,261214
1024,9802;0,262488
1025,9445;0,263705
1026,9087;0,264831
1027,8729;0,265817
1028,8372;0,266594
1029,8014;0,267064
1030,7656;0,26709
1031,7299;0,266525
1032,6941;0,265243
1033,6583;0,26319
1034,6226;0,260419
1035,5868;0,257101
1036,5510;0,253491
1037,5153;0,249881
1038,4795;0,246543
1039,4437;0,24368
1040,4080;0,24141
1041,3722;0,239757
1042,3364;0,238674
1043,3007;0,238057
1044,2649;0,237783
1045,2291;0,237727
1046,1934;0,237781
1047,1576;0,237853
1048,1218;0,237864
1049,0861;0,237734
1050,0503;0,237387
1051,0145;0,236755
1051,9788;0,235794
1052,9430;0,234492
1053,9072;0,232865
1054,8715;0,230926
1055,8357;0,228667
1056,7999;0,226038
1057,7642;0,22296
1058,7284;0,219358
1059,6926;0,21521
1060,6569;0,210579
1061,6211;0,205621
1062,5853;0,200554
1063,5496;0,195603
1064,5138;0,190952
1065,4780;0,186708
1066,4423;0,182897
1067,4065;0,179485
1068,3707;0,176408
1069,3350;0,173595
1070,2992;0,170978
1071,2634;0,168493
1072,2277;0,166077
1073,1919;0,163664
1074,1561;0,161197
1075,1204;0,158635
1076,0846;0,155969
1077,0488;0,153227
1078,0131;0,150474
1078,9773;0,147796
1079,9415;0,145285
1080,9058;0,143021
1081,8700;0,141057
1082,8342;0,139412
1083,7985;0,138076
1084,7627;0,137015
1085,7269;0,136186
1086,6912;0,135549
1087,6554;0,135074
1088,6196;0,134747
1089,5839;0,13457
1090,5481;0,134552
1091,5123;0,134696
1092,4766;0,134997
1093,4408;0,135434
1094,4050;0,135982
1095,3693;0,136613
1096,3335;0,137306
1097,2977;0,138046
1098,2620;0,138812
1099,2262;0,139574
1100,1904;0,140289
1101,1547;0,140902
1102,1189;0,141363
1103,0831;0,141637
1104,0474;0,141723
1105,0116;0,141645
1105,9758;0,14145
1106,9401;0,141181
1107,9043;0,140847
1108,8685;0,140405
1109,8328;0,139762
1110,7970;0,138797
1111,7612;0,137412
1112,7255;0,135573
1113,6897;0,133341
1114,6539;0,130859
1115,6182;0,128318
1116,5824;0,125893
1117,5466;0,123702
1118,5109;0,121783
1119,4751;0,120094
1120,4393;0,11854
1121,4036;0,117
1122,3678;0,115359
1123,3320;0,113531
1124,2963;0,111475
1125,2605;0,109202
1126,2247;0,106758
1127,1890;0,104215
1128,1532;0,101648
1129,1174;0,0991142
1130,0817;0,0966523
1131,0459;0,0942815
1132,0101;0,0920109
1132,9744;0,0898502
1133,9386;0,0878174
1134,9028;0,0859444
1135,8671;0,0842766
1136,8313;0,0828671
1137,7955;0,0817656
1138,7598;0,0810051
1139,7240;0,0805916
1140,6882;0,0805015
1141,6525;0,0806879
1142,6167;0,0810917
1143,5809;0,0816541
1144,5452;0,082325
1145,5094;0,0830682
1146,4736;0,083863
1147,4379;0,0847037
1148,4021;0,0855971
1149,3663;0,0865555
1150,3306;0,0875865
1151,2948;0,0886817
1152,2590;0,0898125
1153,2233;0,0909325
1154,1875;0,0919885
1155,1517;0,0929296
1156,1160;0,0937096
1157,0802;0,0942795
1158,0444;0,0945733
1159,0087;0,0945001
1159,9729;0,0939495
1160,9371;0,0928137
1161,9014;0,0910198
1162,8656;0,0885584
1163,8298;0,0854957
1164,7941;0,0819652
1165,7583;0,0781419
1166,7225;0,0742117
1167,6868;0,0703452
1168,6510;0,0666794
1169,6152;0,06331
1170,5795;0,0602904
1171,5437;0,0576355
1172,5079;0,0553298
1173,4722;0,0533386
1174,4364;0,0516188
1175,4006;0,0501293
1176,3649;0,0488358
1177,3291;0,0477125
1178,2933;0,0467399
1179,2576;0,0459023
1180,2218;0,0451867
1181,1860;0,0445821
1182,1503;0,0440792
1183,1145;0,0436715
1184,0787;0,0433548
1185,0430;0,0431282
1186,0072;0,0429955
1186,9714;0,042964
1187,9357;0,0430435
1188,8999;0,0432418
1189,8641;0,0435612
1190,8284;0,0439961
1191,7926;0,0445342
1192,7568;0,0451606
1193,7211;0,0458619
1194,6853;0,0466279
1195,6495;0,0474498
1196,6138;0,0483155
1197,5780;0,0492062
1198,5422;0,0500965
1199,5065;0,0507047
1200,4707;0,0515444
1201,4349;0,0523178
1202,3992;0,0530158
1203,3634;0,0536336
1204,3276;0,0541663
1205,2919;0,0546084
1206,2561;0,0549579
1207,2203;0,0552228
1208,1846;0,0554267
1209,1488;0,0556089
1210,1130;0,0558185
1211,0773;0,0561046
1212,0415;0,0565058
1213,0057;0,0570437
1213,9700;0,0577199
1214,9342;0,05852
1215,8984;0,0594186
1216,8627;0,0603839
1217,8269;0,0613831
1218,7911;0,0623901
1219,7554;0,0633873
1220,7196;0,064366
1221,6838;0,0653237
1222,6481;0,0662595
1223,6123;0,0671701
1224,5765;0,0680493
1225,5408;0,0688902
1226,5050;0,0696886
1227,4692;0,0704456
1228,4335;0,0711651
1229,3977;0,0718497
1230,3619;0,0724949
1231,3262;0,0730885
1232,2904;0,0736134
1233,2546;0,0740551
1234,2189;0,0744083
1235,1831;0,0746803
1236,1473;0,074889
1237,1116;0,0750567
1238,0758;0,0752023
1239,0400;0,0753356
1240,0043;0,0754559
1240,9685;0,0755532
1241,9327;0,0756134
1242,8970;0,0756218
1243,8612;0,075567
1244,8254;0,0754427
1245,7897;0,0752489
1246,7539;0,0749921
1247,7181;0,0746848
1248,6824;0,0743433
1249,6466;0,073985
1250,6108;0,0736246
1251,5751;0,0732735
1252,5393;0,0729408
1253,5035;0,0726346
1254,4678;0,0723613
1255,4320;0,072122
1256,3962;0,0719076
1257,3605;0,0716973
1258,3247;0,0714632
1259,2889;0,0711798
1260,2532;0,0708332
1261,2174;0,0704258
1262,1816;0,0699714
1263,1459;0,0694868
1264,1101;0,0689848
1265,0743;0,0684728
1266,0386;0,0679543
1267,0028;0,0674321
1267,9670;0,0669069
1268,9313;0,0663757
1269,8955;0,065831
1270,8597;0,0652638
1271,8240;0,0646691
1272,7882;0,0640516
1273,7524;0,063426
1274,7167;0,062813
1275,6809;0,0622305
1276,6451;0,061686
1277,6094;0,0611717
1278,5736;0,0606663
1279,5378;0,0601434
1280,5021;0,0595842
1281,4663;0,0589873
1282,4305;0,0583702
1283,3948;0,0577623
1284,3590;0,0571925
1285,3232;0,0566801
1286,2875;0,0562311
1287,2517;0,0558416
1288,2159;0,0555033
1289,1802;0,0552094
1290,1444;0,054957
1291,1086;0,054748
1292,0729;0,0545895
1293,0371;0,0544946
1294,0013;0,0544815
1294,9656;0,0545688
1295,9298;0,0547706
1296,8940;0,0550912
1297,8583;0,0555253
1298,8225;0,0560616
1299,7867;0,0566874
1300,7510;0,057391
1301,7152;0,0581657
1302,6794;0,0590046
1303,6437;0,0599016
1304,6079;0,060853
1305,5721;0,0618565
1306,5364;0,0629096
1307,5006;0,064008
1308,4648;0,0651421
1309,4291;0,0662946
1310,3933;0,0674374
1311,3575;0,0685318
1312,3218;0,069532
1313,2860;0,0703921
1314,2502;0,0710718
1315,2145;0,0715364
1316,1787;0,0717535
1317,1429;0,0716966
1318,1072;0,0713601
1319,0714;0,0707784
1320,0356;0,0700316
1320,9999;0,069224
1321,9641;0,0684502
1322,9283;0,0677715
1323,8926;0,067215
1324,8568;0,0667857
1325,8210;0,0664799
1326,7853;0,0662906
1327,7495;0,0662051
1328,7137;0,0662024
1329,6780;0,0662504
1330,6422;0,0663117
1331,6064;0,0663531
1332,5707;0,0663535
1333,5349;0,0663097
1334,4991;0,0662267
1335,4634;0,0660998
1336,4276;0,0658948
1337,3918;0,0655394
1338,3561;0,0649476
1339,3203;0,0640858
1340,2845;0,0630284
1341,2488;0,0619284
1342,2130;0,0609255
1343,1772;0,0600885
1344,1415;0,0594246
1345,1057;0,0589156
1346,0699;0,0585449
1347,0342;0,0583054
1347,9984;0,0582004
1348,9626;0,0582362
1349,9269;0,0584121
1350,8911;0,0587125
1351,8553;0,0591058
1352,8196;0,0595533
1353,7838;0,060023
1354,7480;0,060502
1355,7123;0,0610003
1356,6765;0,0615412
1357,6407;0,0621452
1358,6050;0,0628183
1359,5692;0,0635445
1360,5334;0,0642745
1361,4977;0,0649255
1362,4619;0,0654272
1363,4261;0,0657882
1364,3904;0,0660911
1365,3546;0,0664148
1366,3188;0,0667811
1367,2831;0,0671613
1368,2473;0,067506
1369,2115;0,0677707
1370,1758;0,0679265
1371,1400;0,0679555
1372,1042;0,0678367
1373,0685;0,0675407
1374,0327;0,0670496
1374,9969;0,0663882
1375,9612;0,0656191
1376,9254;0,0647864
1377,8896;0,0638789
1378,8539;0,0628607
1379,8181;0,0617317
1380,7823;0,0605573
1381,7466;0,0594363
1382,7108;0,0584332
1383,6750;0,0575386
1384,6393;0,0566846
1385,6035;0,0557961
1386,5677;0,0548539
1387,5320;0,0539392
1388,4962;0,0531947
1389,4604;0,0527064
1390,4247;0,0524477
1391,3889;0,0523384
1392,3531;0,0523244
1393,3174;0,0523929
1394,2816;0,0525331
1395,2458;0,0526994
1396,2101;0,0528255
1397,1743;0,0528758
1398,1385;0,0528778
1399,1028;0,0529062
1400,0670;0,0530347
1401,0313;0,053293
1401,9955;0,0536588
1402,9597;0,0540818
1403,9240;0,0545157
1404,8882;0,0549417
1405,8524;0,0553767
1406,8167;0,055857
1407,7809;0,0564042
1408,7451;0,0570102
1409,7094;0,0576567
1410,6736;0,0583384
1411,6378;0,0590649
1412,6021;0,0598393
1413,5663;0,0606375
1414,5305;0,0614116
1415,4948;0,0621177
1416,4590;0,062729
1417,4232;0,0632172
1418,3875;0,0635598
1419,3517;0,0638101
1420,3159;0,0640858
1421,2802;0,0644185
1422,2444;0,0646991
1423,2086;0,0647854
1424,1729;0,0646148
1425,1371;0,0642279
1426,1013;0,0637124
1427,0656;0,0631302
1428,0298;0,062488
1428,9940;0,0617683
1429,9583;0,0609801
1430,9225;0,0601685
1431,8867;0,0593574
1432,8510;0,0585012
1433,8152;0,0575082
1434,7794;0,0563148
1435,7437;0,0549657
1436,7079;0,0536774
1437,6721;0,0527611
1438,6364;0,0523725
1439,6006;0,0523906
1440,5648;0,0525775
1441,5291;0,0527699
1442,4933;0,0529345
1443,4575;0,053118
1444,4218;0,0533695
1445,3860;0,0536921
1446,3502;0,0540499
1447,3145;0,0544119
1448,2787;0,0547919
1449,2429;0,0552382
1450,2072;0,0557682
1451,1714;0,056316
1452,1356;0,0567592
1453,0999;0,0570027
1454,0641;0,0570478
1455,0283;0,0569626
1455,9926;0,0567094
1456,9568;0,0561013
1457,9210;0,0552934
1458,8853;0,0548331
1459,8495;0,0548671
1460,8137;0,0550681
1461,7780;0,0550822
1462,7422;0,054727
1463,7064;0,0539785
1464,6707;0,0529426
1465,6349;0,0518392
1466,5991;0,0508685
1467,5634;0,0500371
1468,5276;0,0491817
1469,4918;0,0481241
1470,4561;0,0467544
1471,4203;0,0450059
1472,3845;0,0428502
1473,3488;0,0404484
1474,3130;0,0382036
1475,2772;0,0364351
1476,2415;0,0351492
1477,2057;0,0341773
1478,1699;0,0333598
1479,1342;0,0326019
1480,0984;0,0318642
1481,0626;0,0311522
1482,0269;0,0305103
1482,9911;0,0300015
1483,9553;0,0296733
1484,9196;0,0295398
1485,8838;0,0295875
1486,8480;0,0297692
1487,8123;0,0299631
1488,7765;0,0299916
1489,7407;0,02982
1490,7050;0,0296625
1491,6692;0,0297276
1492,6334;0,0300221
1493,5977;0,0304537
1494,5619;0,030978
1495,5261;0,0316245
1496,4904;0,0324226
1497,4546;0,0333451
1498,4188;0,0343583
1499,3831;0,0354443
1500,3473;0,0365096
1501,3115;0,0373751
1502,2758;0,0378943
1503,2400;0,038085
1504,2042;0,0382062
1505,1685;0,038678
1506,1327;0,0396125
1507,0969;0,0403443
1508,0612;0,0403634
1509,0254;0,0401251
1509,9896;0,0400308
1510,9539;0,040039
1511,9181;0,0400249
1512,8823;0,039957
1513,8466;0,0398655
1514,8108;0,0397589
1515,7750;0,0395824
1516,7393;0,039258
1517,7035;0,0387576
1518,6677;0,0381361
1519,6320;0,0375056
1520,5962;0,0369837
1521,5604;0,0366505
1522,5247;0,0365243
1523,4889;0,0365571
1524,4531;0,0366679
1525,4174;0,0368031
1526,3816;0,0369663
1527,3458;0,0371884
1528,3101;0,037476
1529,2743;0,0378068
1530,2385;0,0381827
1531,2028;0,0386717
1532,1670;0,0393654
1533,1312;0,0402673
1534,0955;0,0412422
1535,0597;0,042099
1536,0239;0,0427096
1536,9882;0,0431
1537,9524;0,0435005
1538,9166;0,0442357
1539,8809;0,0452563
1540,8451;0,0458095
1541,8093;0,0454505
1542,7736;0,0447097
1543,7378;0,04407
1544,7020;0,0435906
1545,6663;0,0432249
1546,6305;0,0429609
1547,5947;0,0427857
1548,5590;0,0426488
1549,5232;0,0424835
1550,4874;0,0422564
1551,4517;0,0419924
1552,4159;0,0417408
1553,3801;0,0415062
1554,3444;0,0412217
1555,3086;0,0407987
1556,2728;0,0401675
1557,2371;0,0391879
1558,2013;0,0376439
1559,1655;0,0359826
1560,1298;0,0353679
1561,0940;0,0360476
1562,0582;0,0373302
1563,0225;0,0385657
1563,9867;0,0394565
1564,9509;0,0399707
1565,9152;0,0402173
1566,8794;0,0403562
1567,8436;0,040532
1568,8079;0,0408347
1569,7721;0,0412951
1570,7363;0,0418843
1571,7006;0,0425108
1572,6648;0,0430702
1573,6290;0,0435234
1574,5933;0,0439068
1575,5575;0,0442539
1576,5217;0,0445591
1577,4860;0,0448709
1578,4502;0,0452683
1579,4144;0,045722
1580,3787;0,0461269
1581,3429;0,0464255
1582,3071;0,0466504
1583,2714;0,0468877
1584,2356;0,0472152
1585,1998;0,0476648
1586,1641;0,0482219
1587,1283;0,048848
1588,0925;0,0495017
1589,0568;0,0501462
1590,0210;0,0507487
1590,9852;0,0512785
1591,9495;0,0517043
1592,9137;0,0519932
1593,8779;0,0521185
1594,8422;0,052076
1595,8064;0,0518984
1596,7706;0,0516495
1597,7349;0,051398
1598,6991;0,0511902
1599,6633;0,051038
1600,6276;0,0509259
1601,5918;0,0508323
1602,5560;0,0507508
1603,5203;0,0506968
1604,4845;0,0506907
1605,4487;0,0507353
1606,4130;0,0508127
1607,3772;0,0509032
1608,3414;0,0510101
1609,3057;0,0511656
1610,2699;0,0513984
1611,2341;0,0516884
1612,1984;0,0519679
1613,1626;0,0521818
1614,1268;0,0523475
1615,0911;0,0525485
1616,0553;0,05287
1617,0195;0,0533657
1617,9838;0,0540534
1618,9480;0,0548703
1619,9122;0,0556904
1620,8765;0,0564252
1621,8407;0,0570704
1622,8049;0,0576625
1623,7692;0,058223
1624,7334;0,0587571
1625,6976;0,0592762
1626,6619;0,0598006
1627,6261;0,0603496
1628,5903;0,0609226
1629,5546;0,0614759
1630,5188;0,0619254
1631,4830;0,0621981
1632,4473;0,0623081
1633,4115;0,0623928
1634,3757;0,0626196
1635,3400;0,0629888
1636,3042;0,0633579
1637,2684;0,0637314
1638,2327;0,0642003
1639,1969;0,0647241
1640,1611;0,0651799
1641,1254;0,0654779
1642,0896;0,0656025
1643,0538;0,0656209
1644,0181;0,065671
1644,9823;0,0658753
1645,9465;0,0661886
1646,9108;0,0664087
1647,8750;0,0663972
1648,8392;0,0661048
1649,8035;0,0654658
1650,7677;0,0644465
1651,7319;0,0630862
1652,6962;0,061443
1653,6604;0,0598299
1654,6246;0,0589442
1655,5889;0,0589442
1656,5531;0,0592715
1657,5173;0,0593764
1658,4816;0,0590226
1659,4458;0,0582166
1660,4100;0,057077
1661,3743;0,0557524
1662,3385;0,0544197
1663,3027;0,053269
1664,2670;0,0523922
1665,2312;0,0517163
1666,1954;0,0510798
1667,1597;0,050331
1668,1239;0,049367
1669,0881;0,0481627
1670,0524;0,0468262
1671,0166;0,0455409
1671,9808;0,044372
1672,9451;0,0432239
1673,9093;0,0420069
1674,8735;0,0407975
1675,8378;0,039834
1676,8020;0,0393218
1677,7662;0,0392246
1678,7305;0,0392745
1679,6947;0,0391553
1680,6589;0,0386424
1681,6232;0,0376204
1682,5874;0,0360445
1683,5516;0,0340493
1684,5159;0,0321784
1685,4801;0,0310404
1686,4443;0,0306547
1687,4086;0,0305864
1688,3728;0,0304334
1689,3370;0,0300242
1690,3013;0,0293803
1691,2655;0,0286147
1692,2297;0,0278524
1693,1940;0,0271945
1694,1582;0,026701
1695,1224;0,0263573
1696,0867;0,0260374
1697,0509;0,0255348
1698,0151;0,0247129
1698,9794;0,0236939
1699,9436;0,0228634
1700,9078;0,0225864
1701,8721;0,0229108
1702,8363;0,0235769
1703,8005;0,0242437
1704,7648;0,0246804
1705,7290;0,024845
1706,6932;0,0248663
1707,6575;0,0249403
1708,6217;0,0251932
1709,5859;0,0256228
1710,5502;0,0261476
1711,5144;0,0266849
1712,4786;0,0271884
1713,4429;0,0276397
1714,4071;0,0280048
1715,3713;0,028171
1716,3356;0,0279756
1717,2998;0,0274671
1718,2640;0,0270522
1719,2283;0,0270872
1720,1925;0,0275367
1721,1567;0,0281404
1722,1210;0,0286698
1723,0852;0,0290284
1724,0494;0,0292451
1725,0137;0,0294261
1725,9779;0,0296877
1726,9421;0,0300888
1727,9064;0,0305964
1728,8706;0,0311003
1729,8348;0,0314595
1730,7991;0,0315463
1731,7633;0,0312704
1732,7275;0,0306232
1733,6918;0,0297878
1734,6560;0,0291268
1735,6202;0,0288612
1736,5845;0,0288672
1737,5487;0,0288615
1738,5129;0,0286447
1739,4772;0,0281882
1740,4414;0,0275984
1741,4056;0,0270205
1742,3699;0,0265347
1743,3341;0,0261169
1744,2983;0,0256831
1745,2626;0,0251545
1746,2268;0,0244736
1747,1910;0,0235716
1748,1553;0,0223503
1749,1195;0,0207623
1750,0837;0,0189612
1751,0480;0,0172868
1752,0122;0,0160088
1752,9764;0,0151468
1753,9407;0,0145417
1754,9049;0,0140147
1755,8691;0,0134615
1756,8334;0,0128625
1757,7976;0,01224
1758,7618;0,0116062
1759,7261;0,0109461
1760,6903;0,0102475
1761,6545;0,00954712
1762,6188;0,00893175
1763,5830;0,00847861
1764,5472;0,00819432
1765,5115;0,00801805
1766,4757;0,0078727
1767,4399;0,00770715
1768,4042;0,00750215
1769,3684;0,00724773
1770,3326;0,00691943
1771,2969;0,00649326
1772,2611;0,00601271
1773,2253;0,00561736
1774,1896;0,00543672
1775,1538;0,00546895
1776,1180;0,00560005
1777,0823;0,00570512
1778,0465;0,00571481
1779,0107;0,0056201
1779,9750;0,00544502
1780,9392;0,00521909
1781,9034;0,00496612
1782,8677;0,00471171
1783,8319;0,00449779
1784,7961;0,00438
1785,7604;0,00439627
1786,7246;0,00453183
1787,6888;0,00471978
1788,6531;0,00488043
1789,6173;0,00496124
1790,5815;0,00494447
1791,5458;0,00483913
1792,5100;0,00469842
1793,4742;0,00461951
1794,4385;0,00465887
1795,4027;0,00476994
1796,3669;0,00485618
1797,3312;0,0048535
1798,2954;0,00475805
1799,2596;0,00460292
1800,2239;0,00442456
1801,1881;0,00425006
1802,1523;0,00410164
1803,1166;0,00399814
1804,0808;0,00395143
1805,0450;0,00396442
1806,0093;0,0040298
1806,9735;0,00412678
1807,9377;0,00421854
1808,9020;0,00425742
1809,8662;0,00420444
1810,8304;0,00405631
1811,7947;0,00385337
1812,7589;0,00365292
1813,7231;0,00349419
1814,6874;0,00338791
1815,6516;0,00332862
1816,6158;0,00330822
1817,5801;0,0033213
1818,5443;0,0033647
1819,5085;0,00343346
1820,4728;0,00351698
1821,4370;0,0036011
1822,4012;0,0036747
1823,3655;0,00373424
1824,3297;0,00378397
1825,2939;0,0038307
1826,2582;0,00387073
1827,2224;0,00387751
1828,1866;0,00380684
1829,1509;0,00362929
1830,1151;0,00337548
1831,0793;0,00314139
1832,0436;0,00301947
1833,0078;0,00302725
1833,9720;0,00311362
1834,9363;0,00321529
1835,9005;0,00329717
1836,8647;0,0033581
1837,8290;0,00341189
1838,7932;0,00346098
1839,7574;0,00348611
1840,7217;0,00346617
1841,6859;0,00340603
1842,6501;0,00333751
1843,6144;0,0032922
1844,5786;0,00328307
1845,5428;0,00330665
1846,5071;0,00333708
1847,4713;0,00332503
1848,4355;0,00322969
1849,3998;0,00305426
1850,3640;0,00284813
1851,3282;0,00267688
1852,2925;0,00258448
1853,2567;0,00257643
1854,2209;0,00263021
1855,1852;0,00271745
1856,1494;0,0028172
1857,1136;0,00291604
1858,0779;0,00300046
1859,0421;0,00305639
1860,0063;0,00307841
1860,9706;0,00307958
1861,9348;0,00308899
1862,8990;0,00313665
1863,8633;0,00323812
1864,8275;0,00339014
1865,7917;0,00356974
1866,7560;0,00372625
1867,7202;0,00378306
1868,6844;0,00368596
1869,6487;0,00346498
1870,6129;0,0032119
1871,5771;0,00299315
1872,5414;0,00281568
1873,5056;0,00266137
1874,4698;0,00252568
1875,4341;0,00242474
1876,3983;0,00238063
1877,3625;0,0024022
1878,3268;0,00247871
1879,2910;0,00258521
1880,2552;0,00269503
1881,2195;0,00278899
1882,1837;0,00285828
1883,1479;0,00290259
1884,1122;0,00292663
1885,0764;0,00293722
1886,0406;0,0029416
1887,0049;0,00294522
1887,9691;0,00294865
1888,9333;0,00294847
1889,8976;0,00294459
1890,8618;0,00294463
1891,8260;0,002956
1892,7903;0,00297429
1893,7545;0,00298144
1894,7188;0,00295546
1895,6830;0,00288608
1896,6472;0,00278729
1897,6115;0,00269474
1898,5757;0,0026456
1899,5399;0,00265603
1900,5042;0,00271258
1901,4684;0,00278187
1902,4326;0,00283223
1903,3969;0,00285459
1904,3611;0,00286775
1905,3253;0,00290316
1906,2896;0,0029806
1907,2538;0,00309138
1908,2180;0,00319976
1909,1823;0,00326398
1910,1465;0,00326389
1911,1107;0,00321166
1912,0750;0,00313588
1913,0392;0,00305799
1914,0034;0,00298484
1914,9677;0,00291815
1915,9319;0,00286555
1916,8961;0,00284373
1917,8604;0,00287275
1918,8246;0,00296288
1919,7888;0,0030994
1920,7531;0,00323842
1921,7173;0,00332104
1922,6815;0,00329948
1923,6458;0,00316298
1924,6100;0,00294866
1925,5742;0,00272543
1926,5385;0,00255937
1927,5027;0,00248599
1928,4669;0,00250241
1929,4312;0,00257462
1930,3954;0,00265581
1931,3596;0,00271082
1932,3239;0,0027321
1933,2881;0,00273777
1934,2523;0,00275301
1935,2166;0,00278938
1936,1808;0,0028381
1937,1450;0,00288206
1938,1093;0,0029163
1939,0735;0,00295912
1940,0377;0,00304186
1941,0020;0,00317951
1941,9662;0,00334345
1942,9304;0,00346665
1943,8947;0,0034871
1944,8589;0,00339173
1945,8231;0,00322253
1946,7874;0,00304792
1947,7516;0,0029246
1948,7158;0,00286923
1949,6801;0,00285217
1950,6443;0,00281889
1951,6085;0,00272894
1952,5728;0,00258779
1953,5370;0,00244943
1954,5012;0,00238678
1955,4655;0,00244726
1956,4297;0,00262036
1957,3939;0,0028371
1958,3582;0,0030011
1959,3224;0,00303406
1960,2866;0,00291141
1961,2509;0,0026698
1962,2151;0,0023851
1963,1793;0,00213917
1964,1436;0,00199623
1965,1078;0,00199299
1966,0720;0,00213243
1967,0363;0,0023776
1968,0005;0,00265505
1968,9647;0,00287848
1969,9290;0,00298614
1970,8932;0,00297148
1971,8574;0,00288947
1972,8217;0,0028328
1973,7859;0,0028843
1974,7501;0,0030643
1975,7144;0,00330893
1976,6786;0,00350016
1977,6428;0,00354013
1978,6071;0,00341856
1979,5713;0,00322067
1980,5355;0,00307318
1981,4998;0,00307373
1982,4640;0,00324794
1983,4282;0,00354653
1984,3925;0,00387387
1985,3567;0,00413187
1986,3209;0,00425933
1987,2852;0,00424878
1988,2494;0,00413621
1989,2136;0,00397572
1990,1779;0,00381595
1991,1421;0,00368855
1992,1063;0,00360932
1993,0706;0,00358447
1994,0348;0,00361318
1994,9990;0,00368489
1995,9633;0,00377592
1996,9275;0,00385049
1997,8917;0,00386832
1998,8560;0,00379959
1999,8202;0,00364341
2000,7844;0,00343944
2001,7487;0,00326331
2002,7129;0,00320478
2003,6771;0,00333643
2004,6414;0,00368265
2005,6056;0,00419881
2006,5698;0,00477349
2007,5341;0,00525911
2008,4983;0,00552332
2009,4625;0,00549925
2010,4268;0,00521277
2011,3910;0,00477814
2012,3552;0,00436335
2013,3195;0,00413305
2014,2837;0,0041826
2015,2479;0,00448924
2016,2122;0,00491383
2017,1764;0,00526957
2018,1406;0,00542519
2019,1049;0,00537251
2020,0691;0,0052111
2021,0333;0,00507044
2021,9976;0,00503203
2022,9618;0,00510023
2023,9260;0,00522785
2024,8903;0,00536369
2025,8545;0,0054793
2026,8187;0,00555761
2027,7830;0,00556608
2028,7472;0,00545304
2029,7114;0,00518254
2030,6757;0,00478303
2031,6399;0,00436557
2032,6041;0,00408577
2033,5684;0,00406823
2034,5326;0,00434165
2035,4968;0,00482746
2036,4611;0,00538122
2037,4253;0,00585462
2038,3895;0,00613929
2039,3538;0,00618641
2040,3180;0,00601173
2041,2822;0,00569099
2042,2465;0,00533914
2043,2107;0,00507074
2044,1749;0,00495667
2045,1392;0,00499954
2046,1034;0,00514129
2047,0676;0,00529832
2048,0320;0,00540463
2048,9961;0,00543669
2049,9604;0,0054069
2050,9246;0,00533833
2051,8889;0,00524561
2052,8530;0,00513367
2053,8174;0,00500845
2054,7815;0,00488554
2055,7458;0,00479063
2056,7100;0,00474933
2057,6743;0,00477545
2058,6384;0,00486614
2059,6028;0,00500553
2060,5669;0,00517191
2061,5313;0,00534255
2062,4954;0,0054939
2063,4597;0,0056007
2064,4238;0,00563885
2065,3882;0,00559443
2066,3523;0,00547513
2067,3167;0,00531641
2068,2808;0,00517626
2069,2451;0,00511796
2070,2092;0,00518591
2071,1736;0,00538361
2072,1377;0,00566376
2073,1021;0,00594073
2074,0662;0,00612182
2075,0305;0,00614506
2075,9946;0,00600485
2076,9590;0,0057528
2077,9231;0,00547368
2078,8875;0,00524945
2079,8516;0,00512968
2080,8159;0,00512124
2081,7800;0,00519765
2082,7444;0,00531785
2083,7085;0,00544249
2084,6729;0,00554105
2085,6370;0,00559315
2086,6013;0,00558858
2087,5654;0,00553002
2088,5298;0,00543547
2089,4939;0,00533531
2090,4583;0,00526182
2091,4224;0,00523569
2092,3867;0,00525726
2093,3508;0,00530819
2094,3152;0,00536249
2095,2793;0,00540038
2096,2437;0,00541651
2097,2078;0,00541775
2098,1721;0,00541392
2099,1362;0,00540871
2100,1006;0,00539966
2101,0647;0,0053769
2102,0291;0,0053432
2102,9932;0,00530987
2103,9575;0,00529459
2104,9216;0,0053105
2105,8860;0,00535582
2106,8501;0,00541183
2107,8145;0,00545252
2108,7786;0,00546063
2109,7429;0,00543945
2110,7070;0,0054114
2111,6714;0,00540381
2112,6355;0,00543167
2113,5999;0,00548972
2114,5640;0,00555877
2115,5283;0,00562016
2116,4924;0,0056665
2117,4568;0,00570117
2118,4209;0,00572944
2119,3853;0,005751
2120,3494;0,00576186
2121,3137;0,0057637
2122,2778;0,00577061
2123,2422;0,00580397
2124,2063;0,00587666
2125,1707;0,00597873
2126,1348;0,00607831
2127,0991;0,00614052
2128,0632;0,00615266
2129,0276;0,00613691
2129,9917;0,00613984
2130,9561;0,00620324
2131,9202;0,00633477
2132,8845;0,00649728
2133,8486;0,00662561
2134,8130;0,00666237
2135,7771;0,00659059
2136,7415;0,00644219
2137,7056;0,0062795
2138,6699;0,00616593
2139,6340;0,00614533
2140,5984;0,00623654
2141,5625;0,00643613
2142,5269;0,00672009
2143,4910;0,00704296
2144,4553;0,00734177
2145,4194;0,00755278
2146,3838;0,00763826
2147,3479;0,00760787
2148,3123;0,00751623
2149,2764;0,00743292
2150,2407;0,00740307
2151,2048;0,00742623
2152,1692;0,00746995
2153,1333;0,00750847
2154,0977;0,00755706
2155,0618;0,00767384
2156,0261;0,00792047
2156,9902;0,00830046
2157,9546;0,00872025
2158,9187;0,00902344
2159,8831;0,00909133
2160,8472;0,00892099
2161,8115;0,00860962
2162,7756;0,00827866
2163,7400;0,00801118
2164,7041;0,00783275
2165,6685;0,00772523
2166,6326;0,0076535
2167,5969;0,00758962
2168,5610;0,00752556
2169,5254;0,00747284
2170,4895;0,0074525
2171,4539;0,00748076
2172,4180;0,00755653
2173,3823;0,0076582
2174,3464;0,00775396
2175,3108;0,00782159
2176,2749;0,00786335
2177,2393;0,00790209
2178,2034;0,00795808
2179,1677;0,00802271
2180,1318;0,00805006
2181,0962;0,00797701
2182,0603;0,00776222
2183,0247;0,00741803
2183,9888;0,00701046
2184,9531;0,00662665
2185,9172;0,00633408
2186,8816;0,00615948
2187,8457;0,00609608
2188,8101;0,00612622
2189,7742;0,00623786
2190,7385;0,00642263
2191,7026;0,00665985
2192,6670;0,00690366
2193,6311;0,00708822
2194,5955;0,00715252
2195,5596;0,00707079
2196,5239;0,00686935
2197,4880;0,00661807
2198,4524;0,00639967
2199,4165;0,00627231
2200,3809;0,00624454
2201,3450;0,00627439
2202,3093;0,00629233
2203,2734;0,006236
2204,2378;0,00607981
2205,2019;0,00584602
2206,1663;0,00559357
2207,1304;0,00539162
2208,0947;0,00529139
2209,0588;0,00530898
2210,0232;0,00542474
2210,9873;0,00559557
2211,9517;0,00577171
2212,9158;0,00591039
2213,8801;0,0059837
2214,8442;0,00598184
2215,8086;0,00591321
2216,7727;0,00580127
2217,7371;0,00567743
2218,7012;0,00557118
2219,6655;0,00550109
2220,6296;0,00547045
2221,5940;0,00546876
2222,5581;0,00547757
2223,5225;0,00547792
2224,4866;0,00545769
2225,4509;0,00541773
2226,4150;0,00537398
2227,3794;0,00535136
2228,3435;0,00537373
2229,3079;0,00544646
2230,2720;0,00554754
2231,2363;0,00563419
2232,2004;0,00566405
2233,1648;0,00561927
2234,1289;0,00551796
2235,0933;0,00540496
2236,0574;0,0053277
2237,0217;0,0053121
2237,9858;0,00535242
2238,9502;0,00541857
2239,9143;0,0054736
2240,8787;0,00549038
2241,8428;0,0054605
2242,8071;0,00539469
2243,7712;0,00531772
2244,7356;0,00526044
2245,6997;0,00525033
2246,6641;0,00530235
2247,6282;0,00541316
2248,5925;0,00556193
2249,5566;0,00571768
2250,5210;0,00584957
2251,4851;0,00593517
2252,4495;0,00596472
2253,4136;0,00594197
2254,3779;0,00588355
2255,3420;0,00581611
2256,3064;0,00576945
2257,2705;0,00576553
2258,2349;0,0058081
2259,1990;0,00587955
2260,1633;0,00594863
2261,1274;0,0059856
2262,0918;0,00597598
2263,0559;0,00592494
2264,0203;0,00585093
2264,9844;0,00577466
2265,9487;0,00571148
2266,9128;0,00567037
2267,8772;0,00565624
2268,8413;0,00567009
2269,8057;0,00570614
2270,7698;0,0057495
2271,7341;0,00577906
2272,6982;0,00577569
2273,6626;0,00573031
2274,6267;0,00564645
2275,5911;0,0055363
2276,5552;0,00541498
2277,5195;0,00529817
2278,4836;0,00520355
2279,4480;0,00515166
2280,4121;0,00516176
2281,3765;0,00524331
2282,3406;0,00538931
2283,3049;0,00557746
2284,2690;0,00577959
2285,2334;0,00597425
2286,1975;0,00615511
2287,1619;0,00633154
2288,1260;0,00652225
2289,0903;0,0067462
2290,0544;0,00701492
2291,0188;0,00732818
2291,9829;0,00767351
2292,9473;0,00802899
2293,9114;0,00836894
2294,8757;0,00867078
2295,8398;0,00892042
2296,8042;0,00911318
2297,7683;0,00925008
2298,7327;0,00933307
2299,6968;0,00936416
2300,6611;0,00935116
2301,6252;0,0093166
2302,5896;0,00930115
2303,5537;0,00935622
2304,5181;0,00952267
2305,4822;0,00980428
2306,4465;0,0101502
2307,4106;0,0104605
2308,3750;0,0106192
2309,3391;0,0105432
2310,3035;0,0102223
2311,2676;0,00972783
2312,2319;0,00918222
2313,1960;0,00870289
2314,1604;0,0083529
2315,1245;0,00812559
2316,0889;0,00796796
2317,0530;0,007823
2318,0173;0,00766471
2318,9814;0,00750956
2319,9458;0,0074047
2320,9099;0,00740471
2321,8743;0,00754872
2322,8384;0,00783989
2323,8027;0,0082285
2324,7668;0,0086122
2325,7312;0,00886674
2326,6953;0,00889669
2327,6597;0,00867795
2328,6238;0,00827068
2329,5881;0,00779891
2330,5522;0,00740447
2331,5166;0,00718958
2332,4807;0,00717337
2333,4451;0,00729223
2334,4092;0,00745002
2335,3735;0,00758519
2336,3376;0,00771063
2337,3020;0,00790263
2338,2661;0,00824683
2339,2305;0,00876792
2340,1946;0,00937373
2341,1589;0,00984087
2342,1230;0,00988682
2343,0874;0,00939815
2344,0515;0,0087144
2345,0159;0,00851837
2345,9800;0,00921764
2346,9443;0,0105513
2347,9084;0,0118482
2348,8728;0,0125162
2349,8369;0,0123435
2350,8013;0,0115481
2351,7654;0,0106284
2352,7297;0,0100652
2353,6938;0,0100333
2354,6582;0,0103749
2355,6223;0,0108479
2356,5867;0,0113102
2357,5508;0,0116716
2358,5151;0,0118137
2359,4792;0,0116389
2360,4436;0,0111622
2361,4077;0,0104944
2362,3721;0,00973691
2363,3362;0,00892255
2364,3005;0,00805236
2365,2646;0,00715025
2366,2290;0,00626614
2367,1931;0,00544068
2368,1575;0,00468633
2369,1216;0,0040026
2370,0859;0,00339886
2371,0500;0,0029003
2372,0144;0,00254047
2372,9785;0,00235507
2373,9429;0,00238008
2374,9070;0,0026451
2375,8713;0,00315672
2376,8354;0,00387977
2377,7998;0,00473074
2378,7639;0,0055912
2379,7283;0,00633704
2380,6924;0,00687042
2381,6567;0,00714155
2382,6208;0,00715405
2383,5852;0,00695559
2384,5493;0,00661993
2385,5137;0,00622719
2386,4778;0,00584768
2387,4421;0,00553182
2388,4063;0,00530674
2389,3706;0,00517793
2390,3347;0,00513369
2391,2991;0,00515096
2392,2632;0,00520156
2393,2275;0,00525851
2394,1917;0,0053018
2395,1560;0,00532213
2396,1201;0,00532165
2397,0845;0,00531106
2398,0486;0,00530624
2399,0129;0,00531737
2399,9771;0,00534612
2400,9414;0,00538682
2401,9055;0,00542834
2402,8699;0,00546169
2403,8340;0,00548362
2404,7983;0,00549727
2405,7625;0,00550867
2406,7268;0,00552129
2407,6909;0,00553468
2408,6553;0,00554625
2409,6194;0,00555389
2410,5837;0,00556031
2411,5479;0,00557177
2412,5122;0,0055942
2413,4763;0,00562866
2414,4407;0,00567029
2415,4048;0,00571066
2416,3691;0,0057425
2417,3333;0,00576326
2418,2976;0,00577537
2419,2617;0,00578428
2420,2261;0,00579567
2421,1902;0,00581338
2422,1545;0,0058407
2423,1187;0,00587967
2424,0830;0,00592982
2425,0471;0,0059864
2426,0115;0,00604033
2426,9756;0,00608145
2427,9399;0,00610387
2428,9041;0,00611001
2429,8684;0,00611008
2430,8325;0,0061166
2431,7969;0,00613719
2432,7610;0,00617012
2433,7253;0,00620587
2434,6895;0,00623357
2435,6538;0,00624829
2436,6179;0,0062542
2437,5823;0,0062619
2438,5464;0,00628167
2439,5107;0,00631749
2440,4749;0,00636552
2441,4392;0,00641776
2442,4033;0,00646758
2443,3677;0,00651298
2444,3318;0,00655569
2445,2961;0,00659725
2446,2603;0,00663611
2447,2246;0,00666805
2448,1887;0,00668968
2449,1531;0,00670166
2450,1172;0,006709
2451,0815;0,00671815
2452,0457;0,00673366
2453,0100;0,00675708
2453,9741;0,00678852
2454,9385;0,0068285
2455,9026;0,0068775
2456,8669;0,00693315
2457,8311;0,00698797
2458,7954;0,00703086
2459,7595;0,0070529
2460,7239;0,00705383
2461,6880;0,00704431
2462,6523;0,0070414
2463,6165;0,00705945
2464,5808;0,00710209
2465,5449;0,00716031
2466,5093;0,0072176
2467,4734;0,00725849
2468,4377;0,0072754
2469,4019;0,00727046
2470,3662;0,00725279
2471,3303;0,00723383
2472,2947;0,00722361
2473,2588;0,0072288
2474,2231;0,00725196
2475,1873;0,00729136
2476,1516;0,0073411
2477,1157;0,00739246
2478,0801;0,00743666
2479,0442;0,00746852
2480,0085;0,00748909
2480,9727;0,00750581
2481,9370;0,00752936
2482,9011;0,00756857
2483,8655;0,00762526
2484,8296;0,00769194
2485,7939;0,00775374
2486,7581;0,00779436
2487,7224;0,00780352
2488,6865;0,00778247
2489,6509;0,0077444
2490,6150;0,00770938
2491,5793;0,00769602
2492,5435;0,00771406
2493,5078;0,00776124
2494,4719;0,00782553
2495,4363;0,00789091
2496,4004;0,00794363
2497,3647;0,00797648
2498,3289;0,00798982
2499,2932;0,00799005
2500,2573;0,00798654
2501,2217;0,00798808
2502,1858;0,00799979
2503,1501;0,00802155
2504,1143;0,00804853
2505,0786;0,00807349
2506,0427;0,00809011
2507,0071;0,00809565
2507,9712;0,0080921
2508,9355;0,00808568
2509,8997;0,00808514
2510,8640;0,00809938
2511,8281;0,0081344
2512,7925;0,00819039
2513,7566;0,00826001
2514,7209;0,00832962
2515,6851;0,00838405
2516,6494;0,00841316
2517,6135;0,00841677
2518,5779;0,00840477
2519,5420;0,0083919
2520,5063;0,00839016
2521,4705;0,00840343
2522,4348;0,00842736
2523,3989;0,00845389
2524,3633;0,00847688
2525,3274;0,00849478
2526,2917;0,0085092
2527,2559;0,0085214
2528,2202;0,00853017
2529,1843;0,00853302
2530,1487;0,00852963
2531,1128;0,00852422
2532,0771;0,00852435
2533,0413;0,00853642
2534,0056;0,00856084
2534,9697;0,00859062
2535,9341;0,00861474
2536,8982;0,00862447
2537,8625;0,00861838
2538,8267;0,0086029
2539,7910;0,00858805
2540,7551;0,0085813
2541,7195;0,00858354
2542,6836;0,00858967
2543,6479;0,00859332
2544,6121;0,00859217
2545,5764;0,00859042
2546,5405;0,00859636
2547,5049;0,00861672
2548,4690;0,00865127
2549,4333;0,00869159
2550,3975;0,00872529
2551,3618;0,0087435
2552,3259;0,0087468
2553,2903;0,00874566
2554,2544;0,0087545
2555,2188;0,00878289
2556,1829;0,00882946
2557,1472;0,00888219
2558,1113;0,00892488
2559,0757;0,00894541
2560,0398;0,00894094
2561,0042;0,00891771
2561,9683;0,0088869
2562,9326;0,00885973
2563,8967;0,00884418
2564,8611;0,00884375
2565,8252;0,00885721
2566,7896;0,0088793
2567,7537;0,00890268
2568,7180;0,00892145
2569,6821;0,0089345
2570,6465;0,00894629
2571,6106;0,0089635
2572,5750;0,00898958
2573,5391;0,00902119
2574,5034;0,00904986
2575,4675;0,00906802
2576,4319;0,00907489
2577,3960;0,00907762
2578,3604;0,00908662
2579,3245;0,00910878
2580,2888;0,0091435
2581,2529;0,0091841
2582,2173;0,00922251
2583,1814;0,00925328
2584,1458;0,0092744
2585,1099;0,00928567
2586,0742;0,0092875
2587,0383;0,00928186
2588,0027;0,00927406
2588,9668;0,00927284
2589,9312;0,00928712
2590,8953;0,00932103
2591,8596;0,00937044
2592,8237;0,00942356
2593,7881;0,00946572
2594,7522;0,00948567
2595,7166;0,00948062
2596,6807;0,00945807
2597,6450;0,00943389
2598,6091;0,00942718
2599,5735;0,00945326
2600,5376;0,00951683
2601,5020;0,00960849
2602,4661;0,00970712
2603,4304;0,00978811
2604,3945;0,00983419
2605,3589;0,00984315
2606,3230;0,0098283
2607,2874;0,00981115
2608,2515;0,00981057
2609,2158;0,00983443
2610,1799;0,0098778
2611,1443;0,00992794
2612,1084;0,00997226
2613,0728;0,0100047
2614,0369;0,0100277
2615,0012;0,0100486
2615,9653;0,0100751
2616,9297;0,0101106
2617,8938;0,0101527
2618,8582;0,0101956
2619,8223;0,0102335
2620,7866;0,0102636
2621,7507;0,0102872
2622,7151;0,0103082
2623,6792;0,0103301
2624,6436;0,0103549
2625,6077;0,0103827
2626,5720;0,0104139
2627,5361;0,0104494
2628,5005;0,0104913
2629,4646;0,0105403
2630,4290;0,0105939
2631,3931;0,0106467
2632,3574;0,0106916
2633,3215;0,0107231
2634,2859;0,0107399
2635,2500;0,0107458
2636,2144;0,0107473
2637,1785;0,0107517
2638,1428;0,0107636
2639,1069;0,010785
2640,0713;0,0108153
2641,0354;0,0108534
2641,9998;0,0108985
2642,9639;0,0109499
2643,9282;0,0110053
2644,8923;0,0110599
2645,8567;0,0111068
2646,8208;0,0111401
2647,7852;0,0111585
2648,7493;0,0111666
2649,7136;0,0111733
2650,6777;0,0111873
2651,6421;0,0112131
2652,6062;0,0112494
2653,5706;0,0112914
2654,5347;0,0113347
2655,4990;0,0113775
2656,4631;0,0114207
2657,4275;0,0114652
2658,3916;0,0115098
2659,3560;0,0115518
2660,3201;0,0115886
2661,2844;0,0116199
2662,2485;0,0116483
2663,2129;0,0116769
2664,1770;0,0117076
2665,1414;0,0117394
2666,1055;0,0117704
2667,0698;0,0117989
2668,0339;0,0118251
2668,9983;0,0118508
2669,9624;0,0118779
2670,9268;0,0119083
2671,8909;0,0119425
2672,8552;0,0119808
2673,8193;0,0120227
2674,7837;0,0120662
2675,7478;0,0121085
2676,7122;0,0121465
2677,6763;0,0121789
2678,6406;0,0122076
2679,6047;0,0122372
2680,5691;0,0122725
2681,5332;0,0123163
2682,4976;0,0123674
2683,4617;0,0124219
2684,4260;0,0124751
2685,3901;0,0125238
2686,3545;0,0125674
2687,3186;0,0126069
2688,2830;0,0126445
2689,2471;0,012682
2690,2114;0,0127206
2691,1755;0,0127601
2692,1399;0,0127992
2693,1040;0,0128362
2694,0684;0,0128699
2695,0325;0,0129015
2695,9968;0,0129338
2696,9609;0,0129702
2697,9253;0,0130122
2698,8894;0,0130587
2699,8538;0,0131071
2700,8179;0,0131562
2701,7822;0,0132073
2702,7463;0,013264
2703,7107;0,0133282
2704,6748;0,0133973
2705,6392;0,0134638
2706,6033;0,0135189
2707,5676;0,0135579
2708,5317;0,0135828
2709,4961;0,0136024
2710,4602;0,0136271
2711,4246;0,0136643
2712,3887;0,0137151
2713,3530;0,0137751
2714,3171;0,0138373
2715,2815;0,0138959
2716,2456;0,0139483
2717,2100;0,0139959
2718,1741;0,014042
2719,1384;0,0140894
2720,1025;0,0141385
2721,0669;0,0141862
2722,0310;0,0142281
2722,9954;0,0142615
2723,9595;0,0142884
2724,9238;0,014316
2725,8879;0,0143531
2726,8523;0,0144059
2727,8164;0,0144738
2728,7808;0,0145491
2729,7449;0,0146211
2730,7092;0,0146803
2731,6733;0,0147224
2732,6377;0,0147483
2733,6018;0,0147627
2734,5662;0,0147718
2735,5303;0,0147813
2736,4946;0,014796
2737,4587;0,0148189
2738,4231;0,0148509
2739,3872;0,0148896
2740,3516;0,0149312
2741,3157;0,0149716
2742,2800;0,0150093
2743,2441;0,0150455
2744,2085;0,0150824
2745,1726;0,0151206
2746,1370;0,0151579
2747,1011;0,0151894
2748,0654;0,0152118
2749,0295;0,0152263
2749,9939;0,0152397
2750,9580;0,0152619
2751,9224;0,0153006
2752,8865;0,0153571
2753,8508;0,0154252
2754,8149;0,0154942
2755,7793;0,0155539
2756,7434;0,0155999
2757,7078;0,0156344
2758,6719;0,0156644
2759,6362;0,0156973
2760,6003;0,0157381
2761,5647;0,0157881
2762,5288;0,0158454
2763,4932;0,0159073
2764,4573;0,0159713
2765,4216;0,0160351
2766,3857;0,0160976
2767,3501;0,0161584
2768,3142;0,0162179
2769,2786;0,0162771
2770,2427;0,0163359
2771,2070;0,0163925
2772,1711;0,0164443
2773,1355;0,0164899
2774,0996;0,0165314
2775,0640;0,0165745
2776,0281;0,0166266
2776,9924;0,0166925
2777,9565;0,0167725
2778,9209;0,0168622
2779,8850;0,0169563
2780,8494;0,0170518
2781,8135;0,0171484
2782,7778;0,0172471
2783,7419;0,0173463
2784,7063;0,017441
2785,6704;0,0175244
2786,6348;0,0175932
2787,5989;0,0176512
2788,5632;0,0177089
2789,5273;0,0177794
2790,4917;0,0178719
2791,4558;0,0179864
2792,4202;0,0181144
2793,3843;0,0182429
2794,3486;0,0183613
2795,3127;0,0184661
2796,2771;0,0185624
2797,2412;0,0186601
2798,2056;0,0187686
2799,1697;0,0188935
2800,1340;0,0190342
2801,0981;0,0191866
2802,0625;0,0193451
2803,0266;0,0195049
2803,9910;0,0196625
2804,9551;0,019815
2805,9194;0,0199595
2806,8835;0,0200947
2807,8479;0,0202222
2808,8120;0,0203484
2809,7764;0,0204827
2810,7405;0,0206344
2811,7048;0,0208087
2812,6689;0,0210037
2813,6333;0,0212117
2814,5974;0,021422
2815,5618;0,0216265
2816,5259;0,0218227
2817,4902;0,0220143
2818,4543;0,0222094
2819,4187;0,0224157
2820,3828;0,022638
2821,3472;0,0228763
2822,3113;0,0231274
2823,2756;0,0233878
2824,2397;0,0236562
2825,2041;0,0239346
2826,1682;0,0242268
2827,1326;0,0245365
2828,0967;0,0248651
2829,0610;0,0252126
2830,0251;0,025579
2830,9895;0,0259666
2831,9536;0,0263795
2832,9180;0,0268224
2833,8821;0,0272987
2834,8464;0,0278108
2835,8105;0,028362
2836,7749;0,0289611
2837,7390;0,0296237
2838,7034;0,0303724
2839,6675;0,0312341
2840,6318;0,0322367
2841,5959;0,0334057
2842,5603;0,0347583
2843,5244;0,0362919
2844,4888;0,0379702
2845,4529;0,0397114
2846,4172;0,0413885
2847,3813;0,0428495
2848,3457;0,0439542
2849,3098;0,0446144
2850,2742;0,0448198
2851,2383;0,0446362
2852,2026;0,0441776
2853,1667;0,0435669
2854,1311;0,0429023
2855,0952;0,0422436
2856,0596;0,041617
2857,0237;0,0410314
2857,9880;0,0404945
2858,9521;0,0400189
2859,9165;0,0396208
2860,8806;0,0393125
2861,8450;0,0390981
2862,8091;0,038973
2863,7734;0,0389285
2864,7375;0,0389555
2865,7019;0,0390451
2866,6660;0,0391857
2867,6304;0,0393596
2868,5945;0,0395419
2869,5588;0,0397061
2870,5229;0,0398316
2871,4873;0,0399102
2872,4514;0,0399478
2873,4158;0,0399597
2874,3799;0,0399632
2875,3442;0,0399713
2876,3083;0,0399907
2877,2727;0,040024
2878,2368;0,0400739
2879,2012;0,0401454
2880,1653;0,0402455
2881,1296;0,0403812
2882,0938;0,0405565
2883,0581;0,0407714
2884,0222;0,0410214
2884,9866;0,041299
2885,9507;0,0415955
2886,9150;0,0419024
2887,8792;0,0422129
2888,8435;0,0425228
2889,8076;0,0428301
2890,7720;0,0431355
2891,7361;0,0434423
2892,7004;0,0437558
2893,6646;0,0440825
2894,6289;0,0444272
2895,5930;0,0447908
2896,5574;0,0451679
2897,5215;0,0455477
2898,4858;0,0459177
2899,4500;0,0462684
2900,4143;0,0465981
2901,3784;0,0469145
2902,3428;0,0472329
2903,3069;0,0475729
2904,2712;0,0479548
2905,2354;0,0483976
2906,1997;0,0489199
2907,1638;0,0495417
2908,1282;0,0502849
2909,0923;0,0511694
2910,0566;0,052204
2911,0208;0,0533755
2911,9851;0,0546385
2912,9492;0,0559144
2913,9136;0,057101
2914,8777;0,0580942
2915,8420;0,0588114
2916,8062;0,0592102
2917,7705;0,0592942
2918,7346;0,0591038
2919,6990;0,0586989
2920,6631;0,0581405
2921,6274;0,0574779
2922,5916;0,0567437
2923,5559;0,0559555
2924,5200;0,0551211
2925,4844;0,0542456
2926,4485;0,0533365
2927,4128;0,0524078
2928,3770;0,0514788
2929,3413;0,050569
2930,3054;0,0496911
2931,2698;0,0488462
2932,2339;0,0480244
2933,1982;0,0472122
2934,1624;0,0464011
2935,1267;0,0455934
2936,0908;0,0448004
2937,0552;0,0440352
2938,0193;0,0433062
2938,9836;0,0426134
2939,9478;0,0419522
2940,9121;0,0413187
2941,8762;0,0407148
2942,8406;0,040148
2943,8047;0,0396274
2944,7690;0,0391597
2945,7332;0,0387459
2946,6975;0,0383823
2947,6616;0,0380635
2948,6260;0,0377839
2949,5901;0,0375384
2950,5544;0,0373212
2951,5186;0,0371232
2952,4829;0,0369316
2953,4470;0,0367309
2954,4114;0,0365056
2955,3755;0,0362444
2956,3398;0,0359423
2957,3040;0,0356019
2958,2683;0,0352307
2959,2324;0,0348372
2960,1968;0,0344271
2961,1609;0,0340017
2962,1252;0,0335596
2963,0894;0,0331001
2964,0537;0,0326261
2965,0178;0,0321446
2965,9822;0,0316633
2966,9463;0,0311868
2967,9106;0,0307142
2968,8748;0,0302408
2969,8391;0,0297627
2970,8032;0,0292816
2971,7676;0,0288069
2972,7317;0,0283529
2973,6960;0,0279327
2974,6602;0,0275526
2975,6245;0,0272096
2976,5886;0,0268931
2977,5530;0,0265915
2978,5171;0,026297
2979,4814;0,0260101
2980,4456;0,0257377
2981,4099;0,0254897
2982,3740;0,0252734
2983,3384;0,0250887
2984,3025;0,0249279
2985,2668;0,0247786
2986,2310;0,0246294
2987,1953;0,0244764
2988,1594;0,0243252
2989,1238;0,0241889
2990,0879;0,0240806
2991,0522;0,0240066
2992,0164;0,0239624
2992,9807;0,0239352
2993,9448;0,0239116
2994,9092;0,0238841
2995,8733;0,0238552
2996,8376;0,0238339
2997,8018;0,0238297
2998,7661;0,0238469
2999,7302;0,0238825
3000,6946;0,0239288
3001,6587;0,0239783
3002,6230;0,0240274
3003,5872;0,0240784
3004,5515;0,0241373
3005,5156;0,0242108
3006,4800;0,0243026
3007,4441;0,0244103
3008,4084;0,0245257
3009,3726;0,0246358
3010,3369;0,0247279
3011,3010;0,0247943
3012,2654;0,0248362
3013,2295;0,0248629
3014,1938;0,0248886
3015,1580;0,0249261
3016,1223;0,0249835
3017,0864;0,0250628
3018,0508;0,0251625
3019,0149;0,0252798
3019,9792;0,0254117
3020,9434;0,0255548
3021,9077;0,0257038
3022,8718;0,025853
3023,8362;0,0259985
3024,8003;0,0261413
3025,7646;0,0262874
3026,7288;0,0264442
3027,6931;0,0266147
3028,6572;0,0267933
3029,6216;0,0269668
3030,5857;0,0271202
3031,5500;0,0272459
3032,5142;0,027348
3033,4785;0,0274412
3034,4426;0,0275424
3035,4070;0,0276623
3036,3711;0,0278018
3037,3354;0,027953
3038,2996;0,0281056
3039,2639;0,0282525
3040,2280;0,0283934
3041,1924;0,0285347
3042,1565;0,0286872
3043,1208;0,0288614
3044,0850;0,0290625
3045,0493;0,0292865
3046,0134;0,0295192
3046,9778;0,0297411
3047,9419;0,0299358
3048,9063;0,0300989
3049,8704;0,0302411
3050,8347;0,0303831
3051,7988;0,0305443
3052,7632;0,0307329
3053,7273;0,0309426
3054,6917;0,0311579
3055,6558;0,0313647
3056,6201;0,0315581
3057,5842;0,0317451
3058,5486;0,0319389
3059,5127;0,0321499
3060,4771;0,03238
3061,4412;0,03262
3062,4055;0,0328535
3063,3696;0,0330631
3064,3340;0,0332372
3065,2981;0,0333757
3066,2625;0,0334905
3067,2266;0,0336016
3068,1909;0,0337288
3069,1550;0,0338837
3070,1194;0,034066
3071,0835;0,0342656
3072,0479;0,0344684
3073,0120;0,0346644
3073,9763;0,0348511
3074,9404;0,035033
3075,9048;0,0352158
3076,8689;0,0354015
3077,8333;0,0355862
3078,7974;0,0357623
3079,7617;0,0359237
3080,7258;0,0360697
3081,6902;0,0362064
3082,6543;0,0363433
3083,6187;0,0364886
3084,5828;0,0366456
3085,5471;0,0368121
3086,5112;0,0369832
3087,4756;0,0371558
3088,4397;0,0373317
3089,4041;0,0375172
3090,3682;0,037719
3091,3325;0,037939
3092,2966;0,0381706
3093,2610;0,0384
3094,2251;0,0386124
3095,1895;0,0387993
3096,1536;0,0389631
3097,1179;0,0391159
3098,0820;0,0392726
3099,0464;0,0394436
3100,0105;0,0396301
3100,9749;0,0398252
3101,9390;0,0400188
3102,9033;0,0402033
3103,8674;0,0403768
3104,8318;0,040543
3105,7959;0,0407088
3106,7603;0,0408815
3107,7244;0,0410675
3108,6887;0,041271
3109,6528;0,0414934
3110,6172;0,0417329
3111,5813;0,0419841
3112,5457;0,0422387
3113,5098;0,0424878
3114,4741;0,0427242
3115,4382;0,0429452
3116,4026;0,0431536
3117,3667;0,0433565
3118,3311;0,0435626
3119,2952;0,0437781
3120,2595;0,0440043
3121,2236;0,0442369
3122,1880;0,0444681
3123,1521;0,0446902
3124,1165;0,0448995
3125,0806;0,0450985
3126,0449;0,0452959
3127,0090;0,0455028
3127,9734;0,045729
3128,9375;0,0459782
3129,9019;0,0462469
3130,8660;0,0465244
3131,8303;0,0467968
3132,7944;0,0470521
3133,7588;0,0472841
3134,7229;0,0474951
3135,6873;0,0476949
3136,6514;0,0478968
3137,6157;0,0481138
3138,5798;0,0483538
3139,5442;0,0486175
3140,5083;0,0488983
3141,4727;0,0491854
3142,4368;0,0494681
3143,4011;0,0497403
3144,3652;0,0500024
3145,3296;0,05026
3146,2937;0,0505192
3147,2581;0,0507835
3148,2222;0,0510516
3149,1865;0,0513189
3150,1506;0,051581
3151,1150;0,0518368
3152,0791;0,0520889
3153,0435;0,0523426
3154,0076;0,0526025
3154,9719;0,0528715
3155,9360;0,0531497
3156,9004;0,0534354
3157,8645;0,0537263
3158,8289;0,0540194
3159,7930;0,0543117
3160,7573;0,0546
3161,7214;0,0548818
3162,6858;0,0551564
3163,6499;0,0554254
3164,6143;0,055693
3165,5784;0,0559642
3166,5427;0,0562429
3167,5068;0,0565295
3168,4712;0,05682
3169,4353;0,0569657
3170,3997;0,0572503
3171,3638;0,0575326
3172,3281;0,0578185
3173,2922;0,0581156
3174,2566;0,058427
3175,2207;0,0587476
3176,1851;0,0590648
3177,1492;0,0593645
3178,1135;0,0596388
3179,0776;0,0598914
3180,0420;0,0601356
3181,0061;0,060387
3181,9705;0,0606556
3182,9346;0,0609412
3183,8989;0,061235
3184,8630;0,0615254
3185,8274;0,0618035
3186,7915;0,0620668
3187,7559;0,0623184
3188,7200;0,0625643
3189,6843;0,0628112
3190,6484;0,0630651
3191,6128;0,0633307
3192,5769;0,0636111
3193,5413;0,0639062
3194,5054;0,0642114
3195,4697;0,0645177
3196,4338;0,0648139
3197,3982;0,0650897
3198,3623;0,0653404
3199,3267;0,0655686
3200,2908;0,065784
3201,2551;0,065999
3202,2192;0,066225
3203,1836;0,0664684
3204,1477;0,0667294
3205,1121;0,0670033
3206,0762;0,0672831
3207,0405;0,0675623
3208,0046;0,0678366
3208,9690;0,0681038
3209,9331;0,0683637
3210,8975;0,0686174
3211,8616;0,0688674
3212,8259;0,0691162
3213,7900;0,0693659
3214,7544;0,069616
3215,7185;0,0698637
3216,6829;0,0701039
3217,6470;0,0703321
3218,6113;0,0705474
3219,5754;0,0707547
3220,5398;0,0709637
3221,5039;0,0711858
3222,4683;0,0714292
3223,4324;0,0716947
3224,3967;0,0719753
3225,3608;0,0722588
3226,3252;0,0725331
3227,2893;0,0727907
3228,2537;0,0730314
3229,2178;0,073261
3230,1821;0,0734873
3231,1462;0,0737168
3232,1106;0,0739528
3233,0747;0,0741961
3234,0391;0,0744468
3235,0032;0,0747054
3235,9675;0,0749736
3236,9316;0,0752537
3237,8960;0,0755472
3238,8601;0,0758536
3239,8245;0,0761682
3240,7886;0,0764819
3241,7529;0,0767826
3242,7170;0,0770603
3243,6814;0,0773128
3244,6455;0,0775499
3245,6099;0,0777903
3246,5740;0,0780542
3247,5383;0,0783523
3248,5024;0,0786812
3249,4668;0,0790266
3250,4309;0,0793727
3251,3953;0,0797096
3252,3594;0,0800367
3253,3237;0,0803592
3254,2878;0,0806821
3255,2522;0,0810063
3256,2163;0,0813297
3257,1807;0,0816508
3258,1448;0,0819707
3259,1091;0,0822931
3260,0732;0,0826208
3261,0376;0,0829529
3262,0017;0,0832845
3262,9661;0,0836088
3263,9302;0,0839196
3264,8945;0,0842132
3265,8586;0,0844893
3266,8230;0,0847508
3267,7871;0,0850036
3268,7515;0,0852545
3269,7156;0,0855077
3270,6799;0,0857611
3271,6440;0,0860052
3272,6084;0,0862254
3273,5725;0,0864083
3274,5369;0,0865477
3275,5010;0,0866479
3276,4653;0,0867206
3277,4294;0,0867794
3278,3938;0,086834
3279,3579;0,0868885
3280,3223;0,0869424
3281,2864;0,0869936
3282,2507;0,0870406
3283,2148;0,0870828
3284,1792;0,0871209
3285,1433;0,0871566
3286,1077;0,087192
3287,0718;0,0872284
3288,0361;0,0872643
3289,0002;0,0872946
3289,9646;0,0873112
3290,9287;0,0873077
3291,8931;0,0872833
3292,8572;0,0872443
3293,8215;0,087201
3294,7856;0,0871616
3295,7500;0,0871267
3296,7141;0,0870893
3297,6785;0,0870391
3298,6426;0,0869688
3299,6069;0,0868779
3300,5710;0,0867727
3301,5354;0,0866625
3302,4995;0,0865556
3303,4639;0,0864575
3304,4280;0,086371
3305,3923;0,0862975
3306,3564;0,086237
3307,3208;0,0861873
3308,2849;0,0861432
3309,2493;0,0860981
3310,2134;0,0860465
3311,1777;0,0859867
3312,1418;0,0859217
3313,1062;0,0858583
3314,0703;0,0858044
3315,0347;0,0857683
3315,9988;0,085758
3316,9631;0,0857815
3317,9272;0,0858446
3318,8916;0,0859476
3319,8557;0,0860833
3320,8201;0,0862362
3321,7842;0,0863878
3322,7485;0,0865224
3323,7126;0,0866326
3324,6770;0,0867202
3325,6411;0,0867931
3326,6055;0,0868609
3327,5696;0,0869317
3328,5339;0,0870124
3329,4980;0,0871084
3330,4624;0,0872216
3331,4265;0,0873471
3332,3909;0,0874696
3333,3550;0,0875653
3334,3193;0,0876077
3335,2834;0,0875783
3336,2478;0,0874741
3337,2119;0,0873092
3338,1763;0,0871081
3339,1404;0,0868957
3340,1047;0,0866882
3341,0688;0,0864905
3342,0332;0,086298
3342,9973;0,0861015
3343,9617;0,0858911
3344,9258;0,0856589
3345,8901;0,0854001
3346,8542;0,0851137
3347,8186;0,0848025
3348,7827;0,0844731
3349,7471;0,0841354
3350,7112;0,0838003
3351,6755;0,0834767
3352,6396;0,0831692
3353,6040;0,0828772
3354,5681;0,0825952
3355,5325;0,0823152
3356,4966;0,0820302
3357,4609;0,0817367
3358,4250;0,0814367
3359,3894;0,0811371
3360,3535;0,080847
3361,3179;0,0805737
3362,2820;0,0803186
3363,2463;0,0800759
3364,2104;0,0798353
3365,1748;0,0795867
3366,1389;0,0793253
3367,1033;0,0790529
3368,0674;0,0787753
3369,0317;0,0784966
3369,9958;0,0782164
3370,9602;0,0779311
3371,9243;0,0776383
3372,8887;0,0773408
3373,8528;0,0770469
3374,8171;0,0767664
3375,7813;0,0765052
3376,7456;0,0762616
3377,7097;0,0760283
3378,6741;0,0757965
3379,6382;0,0755598
3380,6025;0,0753166
3381,5667;0,0750676
3382,5310;0,0748146
3383,4951;0,07456
3384,4595;0,0743079
3385,4236;0,0740654
3386,3879;0,0738417
3387,3521;0,0736434
3388,3164;0,0734704
3389,2805;0,0733139
3390,2449;0,0731591
3391,2090;0,0729898
3392,1733;0,0727956
3393,1375;0,0725752
3394,1018;0,0723357
3395,0659;0,0720878
3396,0303;0,0718407
3396,9944;0,0715988
3397,9587;0,0713615
3398,9229;0,0711239
3399,8872;0,0708794
3400,8513;0,0706232
3401,8157;0,070355
3402,7798;0,0700799
3403,7441;0,0698066
3404,7083;0,069542
3405,6726;0,0692872
3406,6367;0,0690374
3407,6011;0,0687847
3408,5652;0,0685238
3409,5295;0,0682531
3410,4937;0,0679733
3411,4580;0,0676838
3412,4221;0,0673823
3413,3865;0,0670679
3414,3506;0,0667451
3415,3149;0,0664241
3416,2791;0,0661163
3417,2434;0,0658251
3418,2075;0,0655412
3419,1719;0,0652455
3420,1360;0,0649195
3421,1003;0,0645572
3422,0645;0,0641688
3423,0288;0,0637743
3423,9929;0,0633921
3424,9573;0,0630308
3425,9214;0,062689
3426,8857;0,0623596
3427,8499;0,0620347
3428,8142;0,0617086
3429,7783;0,0613776
3430,7427;0,0610392
3431,7068;0,0606918
3432,6711;0,0603355
3433,6353;0,0599751
3434,5996;0,0596194
3435,5637;0,0592787
3436,5281;0,0589591
3437,4922;0,0586591
3438,4565;0,0583702
3439,4207;0,0580828
3440,3850;0,0577928
3441,3491;0,0575045
3442,3135;0,0572252
3443,2776;0,0569568
3444,2419;0,0566876
3445,2061;0,0563943
3446,1704;0,0560526
3447,1345;0,055654
3448,0989;0,0552141
3449,0630;0,0547642
3450,0273;0,0543345
3450,9915;0,0539404
3451,9558;0,0535809
3452,9199;0,0532461
3453,8843;0,0529259
3454,8484;0,0526154
3455,8127;0,0523146
3456,7769;0,0520246
3457,7412;0,0517415
3458,7053;0,0514559
3459,6697;0,0511558
3460,6338;0,0508329
3461,5981;0,0504876
3462,5623;0,0501284
3463,5266;0,0497653
3464,4907;0,0494026
3465,4551;0,0490373
3466,4192;0,0486643
3467,3835;0,0482849
3468,3477;0,0479114
3469,3120;0,0475612
3470,2761;0,0472439
3471,2405;0,0469515
3472,2046;0,0466603
3473,1689;0,0463467
3474,1331;0,0460065
3475,0974;0,0456622
3476,0615;0,0453504
3477,0259;0,0450956
3477,9900;0,0448902
3478,9543;0,0446946
3479,9185;0,0444579
3480,8828;0,0441491
3481,8469;0,043778
3482,8113;0,0433872
3483,7754;0,0430206
3484,7397;0,0426941
3485,7039;0,0423882
3486,6682;0,042067
3487,6323;0,0417056
3488,5967;0,0413105
3489,5608;0,0409171
3490,5251;0,0405672
3491,4893;0,0402822
3492,4536;0,0400511
3493,4177;0,0398387
3494,3821;0,0396079
3495,3462;0,0393445
3496,3105;0,0390685
3497,2747;0,0388205
3498,2390;0,0386308
3499,2031;0,0384942
3500,1675;0,0383646
3501,1316;0,0381746
3502,0959;0,0378735
3503,0601;0,0374666
3504,0244;0,0370186
3504,9885;0,0366096
3505,9529;0,0362818
3506,9170;0,0360192
3507,8813;0,0357648
3508,8455;0,035458
3509,8098;0,0350711
3510,7739;0,0346269
3511,7383;0,0341809
3512,7024;0,0337847
3513,6667;0,0334597
3514,6309;0,0331973
3515,5952;0,0329756
3516,5593;0,0327783
3517,5237;0,0326043
3518,4878;0,032463
3519,4521;0,0323621
3520,4163;0,032294
3521,3806;0,0322316
3522,3447;0,032136
3523,3091;0,031973
3524,2732;0,0317265
3525,2375;0,0313996
3526,2017;0,0310048
3527,1660;0,0305563
3528,1301;0,0300715
3529,0945;0,0295786
3530,0586;0,0291164
3531,0229;0,0287189
3531,9871;0,0284006
3532,9514;0,0281479
3533,9155;0,0279238
3534,8799;0,0276833
3535,8440;0,0273961
3536,8083;0,0270681
3537,7725;0,026744
3538,7368;0,0264845
3539,7009;0,0263349
3540,6653;0,0263039
3541,6294;0,0263594
3542,5938;0,0264325
3543,5579;0,0264292
3544,5222;0,0262646
3545,4863;0,0259136
3546,4507;0,0254351
3547,4148;0,0249332
3548,3792;0,0244866
3549,3433;0,0241118
3550,3076;0,0237765
3551,2717;0,0234335
3552,2361;0,023056
3553,2002;0,0226585
3554,1646;0,0222855
3555,1287;0,0219781
3556,0930;0,0217497
3557,0571;0,02159
3558,0215;0,0214852
3558,9856;0,0214347
3559,9500;0,0214521
3560,9141;0,0215503
3561,8784;0,02172
3562,8425;0,0219161
3563,8069;0,0220487
3564,7710;0,0219767
3565,7354;0,0215439
3566,6995;0,0207158
3567,6638;0,0197019
3568,6279;0,018822
3569,5923;0,0182449
3570,5564;0,0179273
3571,5208;0,0177368
3572,4849;0,0175655
3573,4492;0,017367
3574,4133;0,0171436
3575,3777;0,0169184
3576,3418;0,0167118
3577,3062;0,0165331
3578,2703;0,0163883
3579,2346;0,0162891
3580,1987;0,0162508
3581,1631;0,0162775
3582,1272;0,0163484
3583,0916;0,0164191
3584,0557;0,0164331
3585,0200;0,016327
3585,9841;0,0160452
3586,9485;0,0156027
3587,9126;0,0151479
3588,8770;0,0148775
3589,8411;0,0148627
3590,8054;0,0150141
3591,7695;0,0151807
3592,7339;0,0152424
3593,6980;0,0151496
3594,6624;0,0149308
3595,6265;0,0146673
3596,5908;0,0144293
3597,5549;0,0142206
3598,5193;0,0139861
3599,4834;0,0136714
3600,4478;0,0132798
3601,4119;0,012878
3602,3762;0,0125408
3603,3403;0,0122914
3604,3047;0,0120891
3605,2688;0,0118574
3606,2332;0,0115188
3607,1973;0,0110359
3608,1616;0,0104522
3609,1257;0,00988989
3610,0901;0,00948211
3611,0542;0,00929686
3612,0186;0,0093142
3612,9827;0,00945006
3613,9470;0,00959658
3614,9111;0,00965924
3615,8755;0,00958008
3616,8396;0,00934667
3617,8040;0,00899621
3618,7681;0,00862421
3619,7324;0,0083758
3620,6965;0,00837416
3621,6609;0,00862133
3622,6250;0,00898458
3623,5894;0,00928137
3624,5535;0,00937185
3625,5178;0,00919649
3626,4819;0,00875349
3627,4463;0,00805996
3628,4104;0,00719925
3629,3748;0,00640708
3630,3389;0,0059135
3631,3032;0,00569834
3632,2673;0,00555524
3633,2317;0,00530596
3634,1958;0,00490632
3635,1602;0,00442644
3636,1243;0,00397157
3637,0886;0,00360741
3638,0527;0,00333743
3639,0171;0,0031349
3639,9812;0,00298704
3640,9456;0,00290759
3641,9097;0,00291165
3642,8740;0,00298406
3643,8381;0,00307743
3644,8025;0,0031402
3645,7666;0,00313288
3646,7310;0,00297917
3647,6951;0,00249244
3648,6594;0,00154352
3649,6235;0,000448885
3650,5879;-0,000259729
3651,5520;-0,000462703
3652,5164;-0,000430588
3653,4805;-0,000459378
3654,4448;-0,000684592
3655,4089;-0,0010712
3656,3733;-0,00147821
3657,3374;-0,00176232
3658,3018;-0,0018766
3659,2659;-0,0018829
3660,2302;-0,00187061
3661,1943;-0,00187423
3662,1587;-0,00186261
3663,1228;-0,00179249
3664,0872;-0,00166719
3665,0513;-0,00153736
3666,0156;-0,00145279
3666,9797;-0,00141751
3667,9441;-0,00140271
3668,9082;-0,0013975
3669,8726;-0,0014164
3670,8367;-0,00146832
3671,8010;-0,00156363
3672,7651;-0,00171886
3673,7295;-0,00192988
3674,6936;-0,0021683
3675,6580;-0,00238465
3676,6221;-0,00249611
3677,5864;-0,00245036
3678,5505;-0,00229975
3679,5149;-0,00213975
3680,4790;-0,00201053
3681,4434;-0,00188612
3682,4075;-0,00173464
3683,3718;-0,00157287
3684,3359;-0,00145978
3685,3003;-0,00143699
3686,2644;-0,00147307
3687,2288;-0,00147311
3688,1929;-0,00136415
3689,1572;-0,00115996
3690,1213;-0,000905633
3691,0857;-0,000619289
3692,0498;-0,000325206
3693,0142;-6,56683E-05
3693,9783;0,000131017
3694,9426;0,000261881
3695,9067;0,000332527
3696,8711;0,000341789
3697,8352;0,000285809
3698,7996;0,000174759
3699,7637;4,36174E-05
3700,7280;-5,41559E-05
3701,6921;-6,57336E-05
3702,6565;3,75455E-05
3703,6206;0,000239995
3704,5850;0,000480989
3705,5491;0,000682304
3706,5134;0,000780856
3707,4775;0,000734711
3708,4419;0,000491094
3709,4060;-4,37654E-05
3710,3704;-0,000926031
3711,3345;-0,00198446
3712,2988;-0,00283472
3713,2629;-0,00320182
3714,2273;-0,00309951
3715,1914;-0,00270371
3716,1558;-0,00217994
3717,1199;-0,00161413
3718,0842;-0,0010271
3719,0483;-0,000420906
3720,0127;0,000184544
3720,9768;0,000746234
3721,9412;0,00121762
3722,9053;0,00156972
3723,8696;0,00179872
3724,8337;0,00192287
3725,7981;0,00197101
3726,7622;0,00196361
3727,7266;0,00190016
3728,6907;0,00177127
3729,6550;0,001587
3730,6191;0,00139148
3731,5835;0,00123757
3732,5476;0,0011202
3733,5120;0,000923813
3734,4761;0,000508543
3735,4404;-7,40159E-05
3736,4045;-0,000563055
3737,3689;-0,000782961
3738,3330;-0,000827297
3739,2974;-0,00094731
3740,2615;-0,00135937
3741,2258;-0,00212281
3742,1899;-0,003095
3743,1543;-0,00396875
3744,1184;-0,00442291
3745,0828;-0,00434007
3746,0469;-0,00390089
3747,0112;-0,00344124
3747,9753;-0,0032378
3748,9397;-0,0034106
3749,9038;-0,00391713
3750,8682;-0,00453056
3751,8323;-0,00490275
3752,7966;-0,0048498
3753,7607;-0,00450329
3754,7251;-0,00412589
3755,6892;-0,00390347
3756,6536;-0,00389001
3757,6177;-0,00404212
3758,5820;-0,00426385
3759,5461;-0,0044463
3760,5105;-0,00451868
3761,4746;-0,00448235
3762,4390;-0,0043908
3763,4031;-0,00430366
3764,3674;-0,00425995
3765,3315;-0,00427701
3766,2959;-0,00435893
3767,2600;-0,00450133
3768,2244;-0,00468969
3769,1885;-0,00489261
3770,1528;-0,00505793
3771,1169;-0,00512996
3772,0813;-0,00508565
3773,0454;-0,00495646
3774,0098;-0,00480966
3774,9739;-0,00470725
3775,9382;-0,00467695
3776,9023;-0,00471043
3777,8667;-0,00477706
3778,8308;-0,00483185
3779,7952;-0,00482612
3780,7593;-0,00473633
3781,7236;-0,0045876
3782,6877;-0,0044429
3783,6521;-0,0043699
3784,6162;-0,00440844
3785,5806;-0,00454979
3786,5447;-0,00473966
3787,5090;-0,00490732
3788,4731;-0,00500377
3789,4375;-0,00502141
3790,4016;-0,00498341
3791,3660;-0,0049137
3792,3301;-0,00481064
3793,2944;-0,00464559
3794,2585;-0,00439194
3795,2229;-0,00406479
3796,1870;-0,0037345
3797,1514;-0,00349614
3798,1155;-0,00341891
3799,0798;-0,00351514
3800,0439;-0,00374274
3801,0083;-0,00402528
3801,9724;-0,00428554
3802,9368;-0,00450052
3803,9009;-0,00472312
3804,8652;-0,00501916
3805,8293;-0,00537485
3806,7937;-0,00566644
3807,7578;-0,00573381
3808,7222;-0,00551815
3809,6863;-0,0051303
3810,6506;-0,00476955
3811,6147;-0,0045807
3812,5791;-0,00456891
3813,5432;-0,00461119
3814,5076;-0,00455076
3815,4717;-0,00431653
3816,4360;-0,00397458
3817,4001;-0,00367705
3818,3645;-0,00357018
3819,3286;-0,00372327
3820,2930;-0,00408232
3821,2571;-0,00446845
3822,2214;-0,00468387
3823,1855;-0,00466591
3824,1499;-0,00451065
3825,1140;-0,00436149
3826,0784;-0,00430464
3827,0425;-0,00433892
3828,0068;-0,00440238
3828,9709;-0,00442174
3829,9353;-0,00435554
3830,8994;-0,00421197
3831,8638;-0,00403869
3832,8279;-0,00389462
3833,7922;-0,00381849
3834,7563;-0,00381022
3835,7207;-0,00383811
3836,6848;-0,0038706
3837,6492;-0,00390629
3838,6133;-0,0039672
3839,5776;-0,00407009
3840,5417;-0,0042175
3841,5061;-0,00440095
3842,4702;-0,00458648
3843,4346;-0,00470197
3844,3987;-0,00466218
3845,3630;-0,00442794
3846,3271;-0,00405307
3847,2915;-0,00367653
3848,2556;-0,00346532
3849,2200;-0,0035469
3850,1841;-0,0039657
3851,1484;-0,00468291
3852,1125;-0,00559353
3853,0769;-0,00644788
3854,0410;-0,0068145
3855,0054;-0,00647322
3855,9695;-0,00568143
3856,9338;-0,00486253
3857,8979;-0,00428987
3858,8623;-0,00402544
3859,8264;-0,0039817
3860,7908;-0,00401259
3861,7549;-0,00400605
3862,7192;-0,00394182
3863,6833;-0,00387099
3864,6477;-0,00384585
3865,6118;-0,00388112
3866,5762;-0,00396113
3867,5403;-0,00405614
3868,5046;-0,00413947
3869,4688;-0,00420711
3870,4331;-0,00427942
3871,3972;-0,00437411
3872,3616;-0,00448234
3873,3257;-0,00457834
3874,2900;-0,00464386
3875,2542;-0,00467556
3876,2185;-0,00467182
3877,1826;-0,00461937
3878,1470;-0,00449874
3879,1111;-0,00431224
3880,0754;-0,0041088
3881,0396;-0,00397229
3882,0039;-0,00397711
3882,9680;-0,00414804
3883,9324;-0,00444379
3884,8965;-0,00476713
3885,8608;-0,0050081
3886,8250;-0,00510657
3887,7893;-0,00508174
3888,7534;-0,00499835
3889,7178;-0,0049096
3890,6819;-0,00482842
3891,6462;-0,00473183
3892,6104;-0,00458416
3893,5747;-0,00437787
3894,5388;-0,00415712
3895,5032;-0,00398531
3896,4673;-0,00389269
3897,4316;-0,00386251
3898,3958;-0,00386252
3899,3601;-0,00388161
3900,3242;-0,00393614
3901,2886;-0,00404996
3902,2527;-0,00423663
3903,2170;-0,00448516
3904,1812;-0,00474995
3905,1455;-0,00496994
3906,1096;-0,00511104
3907,0740;-0,00518307
3908,0381;-0,00521536
3909,0024;-0,00522518
3909,9666;-0,00520809
3910,9309;-0,00514995
3911,8950;-0,00504432
3912,8594;-0,00490133
3913,8235;-0,00474555
3914,7878;-0,00460904
3915,7520;-0,0045228
3916,7163;-0,00450153
3917,6804;-0,00452475
3918,6448;-0,00454088
3919,6089;-0,00450508
3920,5732;-0,00441603
3921,5374;-0,00431466
3922,5017;-0,00425519
3923,4658;-0,004271
3924,4302;-0,00435007
3925,3943;-0,00443782
3926,3586;-0,00447427
3927,3228;-0,00443516
3928,2871;-0,0043436
3929,2512;-0,00425561
3930,2156;-0,00423623
3931,1797;-0,00432815
3932,1440;-0,00452063
3933,1082;-0,00474997
3934,0725;-0,00494128
3935,0366;-0,00505056
3936,0010;-0,00507254
3936,9651;-0,00502441
3937,9294;-0,00492978
3938,8936;-0,00481251
3939,8579;-0,00469676
3940,8220;-0,00460528
3941,7864;-0,00455059
3942,7505;-0,00452498
3943,7148;-0,00450309
3944,6790;-0,00446205
3945,6433;-0,00440092
3946,6074;-0,00434484
3947,5718;-0,00433344
3948,5359;-0,00439925
3949,5002;-0,00454481
3950,4644;-0,0047362
3951,4287;-0,00492243
3952,3928;-0,00506367
3953,3572;-0,00514502
3954,3213;-0,00517246
3955,2856;-0,00516206
3956,2498;-0,00513062
3957,2141;-0,00509105
3958,1782;-0,00505285
3959,1426;-0,00502515
3960,1067;-0,00501794
3961,0710;-0,00503858
3962,0352;-0,00508575
3962,9995;-0,00514654
3963,9636;-0,00520145
3964,9280;-0,00523347
3965,8921;-0,00523657
3966,8564;-0,00521681
3967,8206;-0,00518721
3968,7849;-0,00515944
3969,7490;-0,00513804
3970,7134;-0,0051207
3971,6775;-0,00510426
3972,6418;-0,00509084
3973,6060;-0,00508867
3974,5703;-0,00510654
3975,5344;-0,00514621
3976,4988;-0,00519919
3977,4629;-0,00525096
3978,4272;-0,00528942
3979,3914;-0,00531189
3980,3557;-0,00532598
3981,3198;-0,00534378
3982,2842;-0,00537272
3983,2483;-0,00540908
3984,2126;-0,00543915
3985,1768;-0,00544738
3986,1411;-0,00542637
3987,1052;-0,00538204
3988,0696;-0,005331
3989,0337;-0,00529103
3989,9980;-0,00527212
3990,9622;-0,00527285
3991,9265;-0,00528522
3992,8906;-0,00530346
3993,8550;-0,00532938
3994,8191;-0,00536989
3995,7834;-0,00542866
3996,7476;-0,00549925
3997,7119;-0,0055655
3998,6760;-0,00560938
3999,6404;-0,0056205
4000,6045;-0,00526428

##### Extended Information
[Comments]
Sample name
Comment
Username
Division
Organization;UNIVERSIDAD INDUSTRIAL DE SANTANDER

[Detailed Information]
Creation date;19/03/2025 2:46 p.m.

Data array type;Linear data array
Horizontal axis;Wavenumber [cm-1]
Vertical axis;Abs
Start;399,193 cm-1
End;4000,6 cm-1
Data interval;0,964233 cm-1
Data points;3736    

[Measurement Information]
Model name;FT/IR-4X1typeA
Serial No.;A035162111

Accessory;ATR PRO 4X
Accessory S/N;A021162126
Incident angle;45 deg

Measurement date;19/03/2025 2:45 p.m.

Light source;Standard
Detector;TGS
Accumulation;40
Resolution;4 cm-1
Zero filling;On
Apodization;Cosine
Gain;Auto (8)
Aperture;Auto (7 mm)
Scan speed;Auto (2 mm/sec)
Filter;Auto (12800 Hz)

