TITLE;
DATA TYPE;INFRARED SPECTRUM
ORIGIN;JASCO
OWNER;
DATE;25/01/29
TIME;11:36:05
SPECTROMETER/DATA SYSTEM;
LOCALE;9226
RESOLUTION;
DELTAX;0,964233
XUNITS;1/CM
YUNITS;ABSORBANCE
FIRSTX;  399,1927
LASTX; 4000,6047
NPOINTS;    3736
FIRSTY;     0,09396
MAXY;     0,12276
MINY;     0,00828
XYDATA
399,1927;0,0939594
400,1569;0,094678
401,1211;0,0951315
402,0854;0,09534
403,0496;0,0953551
404,0138;0,0952028
404,9781;0,0948972
405,9423;0,094484
406,9065;0,0940649
407,8708;0,0937667
408,8350;0,0936735
409,7992;0,0937784
410,7635;0,0939917
411,7277;0,0942051
412,6919;0,0943638
413,6562;0,0944857
414,6204;0,0946182
415,5846;0,0947783
416,5489;0,0949162
417,5131;0,0949257
418,4773;0,0947419
419,4416;0,0944851
420,4058;0,094406
421,3700;0,0946449
422,3343;0,0951522
423,2985;0,0957771
424,2627;0,0963483
425,2270;0,0967334
426,1912;0,0968988
427,1554;0,096938
428,1197;0,0970309
429,0839;0,0973537
430,0481;0,0979922
431,0124;0,0988969
431,9766;0,0999023
432,9408;0,100804
433,9051;0,101453
434,8693;0,101812
435,8335;0,10195
436,7978;0,101992
437,7620;0,102055
438,7262;0,102216
439,6905;0,10251
440,6547;0,102929
441,6189;0,103418
442,5832;0,103862
443,5474;0,104118
444,5116;0,1041
445,4759;0,103843
446,4401;0,103486
447,4043;0,103189
448,3686;0,103051
449,3328;0,10307
450,2970;0,103166
451,2613;0,103239
452,2255;0,103228
453,1897;0,103135
454,1540;0,103011
455,1182;0,102919
456,0824;0,102924
457,0467;0,103071
458,0109;0,103369
458,9751;0,103762
459,9394;0,104141
460,9036;0,104397
461,8678;0,104474
462,8321;0,10438
463,7963;0,104183
464,7605;0,103977
465,7248;0,103843
466,6890;0,103804
467,6532;0,103818
468,6175;0,103802
469,5817;0,103682
470,5459;0,103439
471,5102;0,103132
472,4744;0,102895
473,4386;0,10287
474,4029;0,103126
475,3671;0,103615
476,3313;0,104191
477,2956;0,104675
478,2598;0,104913
479,2240;0,104838
480,1883;0,104496
481,1525;0,104023
482,1167;0,103589
483,0810;0,103325
484,0452;0,103287
485,0094;0,103441
485,9737;0,103698
486,9379;0,103954
487,9021;0,104125
488,8664;0,104166
489,8306;0,104079
490,7948;0,103917
491,7591;0,10377
492,7233;0,103721
493,6875;0,103797
494,6518;0,103946
495,6160;0,104076
496,5802;0,104105
497,5445;0,104008
498,5087;0,103817
499,4729;0,103599
500,4372;0,103417
501,4014;0,103303
502,3656;0,103249
503,3299;0,103228
504,2941;0,103218
505,2583;0,103217
506,2226;0,103239
507,1868;0,103299
508,1510;0,103405
509,1153;0,103557
510,0795;0,103745
511,0437;0,103958
512,0080;0,104183
512,9722;0,104405
513,9365;0,104607
514,9007;0,10477
515,8649;0,10488
516,8292;0,104933
517,7934;0,10494
518,7576;0,104919
519,7219;0,104885
520,6861;0,104835
521,6503;0,104756
522,6146;0,104633
523,5788;0,104467
524,5430;0,104275
525,5073;0,104089
526,4715;0,103933
527,4357;0,103811
528,4000;0,103705
529,3642;0,1036
530,3284;0,10349
531,2927;0,103381
532,2569;0,103275
533,2211;0,103164
534,1854;0,10303
535,1496;0,102861
536,1138;0,102665
537,0781;0,102471
538,0423;0,102315
539,0065;0,102215
539,9708;0,102173
540,9350;0,102178
541,8992;0,102228
542,8635;0,102333
543,8277;0,102502
544,7919;0,10273
545,7562;0,102992
546,7204;0,103252
547,6846;0,103492
548,6489;0,103719
549,6131;0,103964
550,5773;0,104256
551,5416;0,1046
552,5058;0,104966
553,4700;0,1053
554,4343;0,105543
555,3985;0,105653
556,3627;0,105606
557,3270;0,105398
558,2912;0,105033
559,2554;0,104519
560,2197;0,103863
561,1839;0,103083
562,1481;0,102212
563,1124;0,101299
564,0766;0,100397
565,0408;0,0995486
566,0051;0,0987753
566,9693;0,0980812
567,9335;0,0974618
568,8978;0,0969174
569,8620;0,096458
570,8262;0,096097
571,7905;0,0958384
572,7547;0,0956669
573,7189;0,0955461
574,6832;0,0954291
575,6474;0,0952764
576,6116;0,095075
577,5759;0,0948457
578,5401;0,0946322
579,5043;0,0944779
580,4686;0,0944048
581,4328;0,0944034
582,3970;0,0944385
583,3613;0,0944678
584,3255;0,0944611
585,2897;0,0944121
586,2540;0,0943358
587,2182;0,0942568
588,1824;0,0941969
589,1467;0,0941672
590,1109;0,0941651
591,0751;0,0941765
592,0394;0,0941789
593,0036;0,0941486
593,9678;0,0940686
594,9321;0,0939342
595,8963;0,0937537
596,8605;0,0935453
597,8248;0,0933307
598,7890;0,0931292
599,7532;0,0929511
600,7175;0,0927949
601,6817;0,0926485
602,6459;0,0924963
603,6102;0,0923267
604,5744;0,0921374
605,5386;0,0919354
606,5029;0,0917306
607,4671;0,0915266
608,4313;0,091315
609,3956;0,0910787
610,3598;0,0908033
611,3240;0,0904894
612,2883;0,0901553
613,2525;0,0898262
614,2167;0,0895167
615,1810;0,0892179
616,1452;0,0888985
617,1094;0,088522
618,0737;0,0880701
619,0379;0,0875532
620,0021;0,0869997
620,9664;0,0864352
621,9306;0,0858708
622,8948;0,0853075
623,8591;0,0847496
624,8233;0,0842152
625,7875;0,0837325
626,7518;0,0833248
627,7160;0,0829944
628,6802;0,0827195
629,6445;0,0824645
630,6087;0,0821965
631,5729;0,0818976
632,5372;0,081569
633,5014;0,0812258
634,4656;0,0808889
635,4299;0,0805781
636,3941;0,0803073
637,3583;0,0800831
638,3226;0,0799035
639,2868;0,079757
640,2510;0,0796242
641,2153;0,0794816
642,1795;0,0793089
643,1437;0,0790953
644,1080;0,0788431
645,0722;0,078566
646,0364;0,0782846
647,0007;0,0780217
647,9649;0,0777979
648,9291;0,0776278
649,8934;0,0775172
650,8576;0,0774634
651,8218;0,0774592
652,7861;0,0774994
653,7503;0,077585
654,7145;0,0777211
655,6788;0,077909
656,6430;0,0781362
657,6072;0,0783706
658,5715;0,0785632
659,5357;0,0786615
660,4999;0,0786349
661,4642;0,0784989
662,4284;0,0783119
663,3926;0,0781427
664,3569;0,0780384
665,3211;0,0780084
666,2853;0,0780084
667,2496;0,0779113
668,2138;0,0775383
669,1780;0,0768492
670,1423;0,0760232
671,1065;0,0752167
672,0707;0,0744388
673,0350;0,0736342
673,9992;0,0727615
674,9634;0,0718272
675,9277;0,070885
676,8919;0,0700031
677,8561;0,0692204
678,8204;0,0685342
679,7846;0,0679233
680,7488;0,0673724
681,7131;0,0668775
682,6773;0,0664362
683,6415;0,0660408
684,6058;0,0656829
685,5700;0,0653608
686,5342;0,0650817
687,4985;0,0648532
688,4627;0,0646729
689,4269;0,0645237
690,3912;0,0643799
691,3554;0,0642179
692,3196;0,0640266
693,2839;0,063811
694,2481;0,0635892
695,2123;0,0633829
696,1766;0,0632071
697,1408;0,0630611
698,1050;0,0629268
699,0693;0,0627764
700,0335;0,0625848
700,9977;0,062342
701,9620;0,0620574
702,9262;0,0617554
703,8904;0,061463
704,8547;0,0611969
705,8189;0,0609551
706,7831;0,0607193
707,7474;0,0604649
708,7116;0,0601728
709,6758;0,0598374
710,6401;0,0594651
711,6043;0,059069
712,5685;0,0586637
713,5328;0,0582626
714,4970;0,0578772
715,4612;0,0575137
716,4255;0,0571706
717,3897;0,0568298
718,3539;0,0564599
719,3182;0,0560275
720,2824;0,055516
721,2466;0,0549405
722,2109;0,0543429
723,1751;0,0537698
724,1393;0,0532498
725,1036;0,0527848
726,0678;0,052356
727,0320;0,0519392
727,9963;0,0515195
728,9605;0,0510984
729,9247;0,0506908
730,8890;0,0503141
731,8532;0,0499783
732,8174;0,0496818
733,7817;0,0494146
734,7459;0,0491661
735,7101;0,0489307
736,6744;0,0487091
737,6386;0,0485035
738,6028;0,0483118
739,5671;0,0481252
740,5313;0,0479311
741,4955;0,0477194
742,4598;0,0474872
743,4240;0,0472388
744,3882;0,0469815
745,3525;0,0467215
746,3167;0,0464626
747,2809;0,0462074
748,2452;0,0459597
749,2094;0,0457223
750,1736;0,0454954
751,1379;0,0452736
752,1021;0,0450492
753,0663;0,0448168
754,0306;0,0445785
754,9948;0,0443429
755,9590;0,0441202
756,9233;0,0439144
757,8875;0,0437203
758,8517;0,0435262
759,8160;0,0433216
760,7802;0,0431038
761,7444;0,0428792
762,7087;0,0426589
763,6729;0,0424512
764,6371;0,0422575
765,6014;0,0420731
766,5656;0,0418922
767,5298;0,0417133
768,4941;0,0415407
769,4583;0,0413813
770,4225;0,0412398
771,3868;0,0411144
772,3510;0,0409967
773,3152;0,0408749
774,2795;0,0407386
775,2437;0,0405827
776,2079;0,0404094
777,1722;0,0402273
778,1364;0,0400487
779,1006;0,0398849
780,0649;0,039741
781,0291;0,0396131
781,9933;0,0394882
782,9576;0,0393499
783,9218;0,0391858
784,8860;0,0389961
785,8503;0,0387946
786,8145;0,0386041
787,7787;0,038445
788,7430;0,0383254
789,7072;0,0382371
790,6714;0,0381613
791,6357;0,0380803
792,5999;0,0379872
793,5641;0,0378876
794,5284;0,0377931
795,4926;0,0377106
796,4568;0,0376364
797,4211;0,0375591
798,3853;0,0374682
799,3495;0,0373627
800,3138;0,0372518
801,2780;0,0371486
802,2422;0,0370609
803,2065;0,0369873
804,1707;0,0369197
805,1349;0,0368494
806,0992;0,0367723
807,0634;0,0366898
808,0276;0,0366053
808,9919;0,0365224
809,9561;0,0364444
810,9203;0,0363758
811,8846;0,0363223
812,8488;0,0362873
813,8130;0,0362682
814,7773;0,0362554
815,7415;0,0362368
816,7057;0,0362045
817,6700;0,0361604
818,6342;0,0361154
819,5984;0,0360824
820,5627;0,0360673
821,5269;0,0360656
822,4911;0,0360648
823,4554;0,0360524
824,4196;0,0360236
825,3839;0,0359834
826,3481;0,0359432
827,3123;0,0359139
828,2766;0,035899
829,2408;0,0358929
830,2050;0,0358835
831,1693;0,0358573
832,1335;0,0358053
833,0977;0,0357257
834,0620;0,0356234
835,0262;0,0355066
835,9904;0,0353824
836,9547;0,0352548
837,9189;0,0351248
838,8831;0,0349928
839,8474;0,034861
840,8116;0,0347337
841,7758;0,0346158
842,7401;0,0345102
843,7043;0,0344174
844,6685;0,0343365
845,6328;0,0342672
846,5970;0,034211
847,5612;0,0341697
848,5255;0,0341421
849,4897;0,0341232
850,4539;0,0341044
851,4182;0,034077
852,3824;0,034036
853,3466;0,0339817
854,3109;0,0339192
855,2751;0,033856
856,2393;0,0338001
857,2036;0,0337586
858,1678;0,0337368
859,1320;0,0337382
860,0963;0,0337632
861,0605;0,0338092
862,0247;0,0338705
862,9890;0,03394
863,9532;0,0340111
864,9174;0,0340808
865,8817;0,034151
866,8459;0,0342281
867,8101;0,0343205
868,7744;0,0344341
869,7386;0,0345687
870,7028;0,034717
871,6671;0,0348686
872,6313;0,0350144
873,5955;0,0351514
874,5598;0,0352816
875,5240;0,0354088
876,4882;0,0355349
877,4525;0,0356602
878,4167;0,0357876
879,3809;0,0359268
880,3452;0,0360941
881,3094;0,0363067
882,2736;0,0365746
883,2379;0,0368963
884,2021;0,0372615
885,1663;0,037659
886,1306;0,0380826
887,0948;0,0385322
888,0590;0,0390085
889,0233;0,0395062
889,9875;0,0400114
890,9517;0,0405044
891,9160;0,0409655
892,8802;0,0413787
893,8444;0,0417321
894,8087;0,0420165
895,7729;0,0422234
896,7371;0,0423466
897,7014;0,0423845
898,6656;0,0423421
899,6298;0,0422303
900,5941;0,0420639
901,5583;0,0418586
902,5225;0,0416289
903,4868;0,0413875
904,4510;0,0411445
905,4152;0,0409081
906,3795;0,0406846
907,3437;0,0404802
908,3079;0,0403019
909,2722;0,0401573
910,2364;0,0400532
911,2007;0,0399932
912,1649;0,0399768
913,1292;0,0400008
914,0934;0,0400608
915,0576;0,0401538
916,0219;0,0402782
916,9861;0,0404329
917,9503;0,0406159
918,9146;0,0408229
919,8788;0,0410481
920,8430;0,0412847
921,8073;0,0415251
922,7715;0,0417613
923,7357;0,0419859
924,7000;0,0421922
925,6642;0,0423765
926,6284;0,0425383
927,5927;0,0426805
928,5569;0,0428085
929,5211;0,0429295
930,4854;0,0430513
931,4496;0,0431826
932,4138;0,0433314
933,3781;0,0435038
934,3423;0,0437034
935,3065;0,0439304
936,2708;0,0441835
937,2350;0,0444613
938,1992;0,0447653
939,1635;0,0450996
940,1277;0,0454699
941,0919;0,045881
942,0562;0,0463344
943,0204;0,0468284
943,9846;0,0473596
944,9489;0,0479256
945,9131;0,0485272
946,8773;0,049168
947,8416;0,0498514
948,8058;0,0505777
949,7700;0,0513434
950,7343;0,0521429
951,6985;0,0529719
952,6627;0,0538299
953,6270;0,0547192
954,5912;0,0556417
955,5554;0,0565956
956,5197;0,0575755
957,4839;0,0585758
958,4481;0,0595952
959,4124;0,0606383
960,3766;0,0617134
961,3408;0,0628267
962,3051;0,0639775
963,2693;0,0651582
964,2335;0,0663564
965,1978;0,0675612
966,1620;0,0687666
967,1262;0,0699742
968,0905;0,0711933
969,0547;0,0724397
970,0189;0,0737334
970,9832;0,0750952
971,9474;0,0765427
972,9116;0,0780875
973,8759;0,079735
974,8401;0,0814859
975,8043;0,0833378
976,7686;0,0852823
977,7328;0,0872996
978,6970;0,0893518
979,6613;0,0913818
980,6255;0,0933197
981,5897;0,095097
982,5540;0,0966625
983,5182;0,0979937
984,4824;0,0990985
985,4467;0,100008
986,4109;0,100765
987,3751;0,101413
988,3394;0,101988
989,3036;0,102517
990,2678;0,103014
991,2321;0,103484
992,1963;0,103925
993,1605;0,10433
994,1248;0,104695
995,0890;0,105024
996,0532;0,105323
997,0175;0,105602
997,9817;0,105864
998,9459;0,106106
999,9102;0,106321
1000,8744;0,106514
1001,8386;0,1067
1002,8029;0,106912
1003,7671;0,107186
1004,7313;0,107551
1005,6956;0,108027
1006,6598;0,108616
1007,6240;0,109314
1008,5883;0,110106
1009,5525;0,110974
1010,5167;0,111891
1011,4810;0,112826
1012,4452;0,113747
1013,4094;0,114632
1014,3737;0,11547
1015,3379;0,11626
1016,3021;0,117
1017,2664;0,117685
1018,2306;0,118309
1019,1948;0,118867
1020,1591;0,119366
1021,1233;0,119818
1022,0875;0,120241
1023,0518;0,120649
1024,0160;0,121048
1024,9802;0,121435
1025,9445;0,121799
1026,9087;0,12213
1027,8729;0,122412
1028,8372;0,122629
1029,8014;0,122756
1030,7656;0,122763
1031,7299;0,122612
1032,6941;0,122268
1033,6583;0,121707
1034,6226;0,120931
1035,5868;0,119978
1036,5510;0,118918
1037,5153;0,117841
1038,4795;0,116841
1039,4437;0,115992
1040,4080;0,115341
1041,3722;0,114901
1042,3364;0,114659
1043,3007;0,114588
1044,2649;0,114648
1045,2291;0,114799
1046,1934;0,114998
1047,1576;0,115204
1048,1218;0,115381
1049,0861;0,115497
1050,0503;0,115526
1051,0145;0,115443
1051,9788;0,115231
1052,9430;0,114878
1053,9072;0,114382
1054,8715;0,113744
1055,8357;0,112967
1056,7999;0,112045
1057,7642;0,110962
1058,7284;0,109699
1059,6926;0,108245
1060,6569;0,106613
1061,6211;0,104847
1062,5853;0,103009
1063,5496;0,101175
1064,5138;0,0994091
1065,4780;0,0977584
1066,4423;0,0962441
1067,4065;0,0948664
1068,3707;0,0936105
1069,3350;0,0924535
1070,2992;0,091369
1071,2634;0,0903294
1072,2277;0,0893065
1073,1919;0,0882729
1074,1561;0,0872042
1075,1204;0,086084
1076,0846;0,0849087
1077,0488;0,0836914
1078,0131;0,0824607
1078,9773;0,0812544
1079,9415;0,0801118
1080,9058;0,0790647
1081,8700;0,0781338
1082,8342;0,0773281
1083,7985;0,0766471
1084,7627;0,0760837
1085,7269;0,075626
1086,6912;0,0752592
1087,6554;0,0749675
1088,6196;0,0747374
1089,5839;0,0745603
1090,5481;0,0744338
1091,5123;0,0743604
1092,4766;0,074345
1093,4408;0,0743904
1094,4050;0,0744941
1095,3693;0,074647
1096,3335;0,0748346
1097,2977;0,0750398
1098,2620;0,0752462
1099,2262;0,0754403
1100,1904;0,0756096
1101,1547;0,0757405
1102,1189;0,0758167
1103,0831;0,075822
1104,0474;0,0757464
1105,0116;0,0755928
1105,9758;0,0753777
1106,9401;0,0751228
1107,9043;0,0748411
1108,8685;0,0745237
1109,8328;0,0741364
1110,7970;0,0736302
1111,7612;0,0729619
1112,7255;0,0721148
1113,6897;0,07111
1114,6539;0,0700025
1115,6182;0,0688655
1116,5824;0,0677692
1117,5466;0,0667631
1118,5109;0,0658661
1119,4751;0,0650659
1120,4393;0,0643249
1121,4036;0,0635915
1122,3678;0,0628137
1123,3320;0,0619518
1124,2963;0,0609875
1125,2605;0,0599253
1126,2247;0,0587869
1127,1890;0,0576013
1128,1532;0,0563959
1129,1174;0,0551908
1130,0817;0,0539994
1131,0459;0,0528321
1132,0101;0,0517002
1132,9744;0,0506181
1133,9386;0,0496037
1134,9028;0,0486774
1135,8671;0,04786
1136,8313;0,0471698
1137,7955;0,046619
1138,7598;0,0462116
1139,7240;0,0459418
1140,6882;0,0457961
1141,6525;0,0457573
1142,6167;0,0458085
1143,5809;0,0459356
1144,5452;0,0461268
1145,5094;0,0463712
1146,4736;0,0466569
1147,4379;0,0469729
1148,4021;0,0473108
1149,3663;0,047667
1150,3306;0,0480418
1151,2948;0,0484351
1152,2590;0,048842
1153,2233;0,049249
1154,1875;0,0496345
1155,1517;0,0499721
1156,1160;0,0502332
1157,0802;0,0503887
1158,0444;0,0504072
1159,0087;0,0502531
1159,9729;0,0498879
1160,9371;0,0492762
1161,9014;0,0483949
1162,8656;0,0472428
1163,8298;0,0458455
1164,7941;0,044253
1165,7583;0,0425318
1166,7225;0,0407537
1167,6868;0,0389864
1168,6510;0,0372861
1169,6152;0,035695
1170,5795;0,0342403
1171,5437;0,0329365
1172,5079;0,0317869
1173,4722;0,0307863
1174,4364;0,0299233
1175,4006;0,0291824
1176,3649;0,0285472
1177,3291;0,028002
1178,2933;0,0275341
1179,2576;0,0271337
1180,2218;0,0267934
1181,1860;0,0265079
1182,1503;0,026273
1183,1145;0,026086
1184,0787;0,0259457
1185,0430;0,0258521
1186,0072;0,0258052
1186,9714;0,0258044
1187,9357;0,0258486
1188,8999;0,0259376
1189,8641;0,0260729
1190,8284;0,0262574
1191,7926;0,0264937
1192,7568;0,0267811
1193,7211;0,0271135
1194,6853;0,0274799
1195,6495;0,027867
1196,6138;0,0282615
1197,5780;0,0286535
1198,5422;0,0290367
1199,5065;0,0293936
1200,4707;0,0297528
1201,4349;0,0300961
1202,3992;0,0304188
1203,3634;0,0307137
1204,3276;0,030972
1205,2919;0,031186
1206,2561;0,0313531
1207,2203;0,0314793
1208,1846;0,0315802
1209,1488;0,0316791
1210,1130;0,031802
1211,0773;0,0319713
1212,0415;0,0322001
1213,0057;0,0324903
1213,9700;0,032834
1214,9342;0,0332184
1215,8984;0,0336303
1216,8627;0,0340592
1217,8269;0,0344971
1218,7911;0,0349376
1219,7554;0,0353744
1220,7196;0,0358018
1221,6838;0,0362154
1222,6481;0,0366131
1223,6123;0,0369946
1224,5765;0,0373599
1225,5408;0,0377078
1226,5050;0,038036
1227,4692;0,0383427
1228,4335;0,0386274
1229,3977;0,0388916
1230,3619;0,0391359
1231,3262;0,0393582
1232,2904;0,0395522
1233,2546;0,0397099
1234,2189;0,0398254
1235,1831;0,0398994
1236,1473;0,0399391
1237,1116;0,0399555
1238,0758;0,0399587
1239,0400;0,0399538
1240,0043;0,0399406
1240,9685;0,0399158
1241,9327;0,0398764
1242,8970;0,0398205
1243,8612;0,0397471
1244,8254;0,0396546
1245,7897;0,0395404
1246,7539;0,0394032
1247,7181;0,0392443
1248,6824;0,039069
1249,6466;0,0388852
1250,6108;0,0387001
1251,5751;0,0385189
1252,5393;0,0383445
1253,5035;0,0381779
1254,4678;0,0380197
1255,4320;0,0378688
1256,3962;0,0377223
1257,3605;0,037575
1258,3247;0,037421
1259,2889;0,037256
1260,2532;0,0370786
1261,2174;0,0368898
1262,1816;0,0366912
1263,1459;0,0364828
1264,1101;0,0362628
1265,0743;0,036028
1266,0386;0,0357763
1267,0028;0,0355071
1267,9670;0,035222
1268,9313;0,0349245
1269,8955;0,0346198
1270,8597;0,0343125
1271,8240;0,0340059
1272,7882;0,0337005
1273,7524;0,0333953
1274,7167;0,0330898
1275,6809;0,0327861
1276,6451;0,0324888
1277,6094;0,032202
1278,5736;0,031926
1279,5378;0,0316559
1280,5021;0,0313844
1281,4663;0,0311064
1282,4305;0,0308229
1283,3948;0,0305411
1284,3590;0,0302706
1285,3232;0,0300198
1286,2875;0,0297939
1287,2517;0,0295967
1288,2159;0,0294317
1289,1802;0,0293024
1290,1444;0,0292104
1291,1086;0,0291536
1292,0729;0,0291274
1293,0371;0,0291277
1294,0013;0,0291544
1294,9656;0,0292122
1295,9298;0,0293083
1296,8940;0,0294484
1297,8583;0,0296339
1298,8225;0,0298617
1299,7867;0,0301268
1300,7510;0,0304239
1301,7152;0,0307495
1302,6794;0,0311013
1303,6437;0,0314781
1304,6079;0,0318781
1305,5721;0,032299
1306,5364;0,0327368
1307,5006;0,0331857
1308,4648;0,0336391
1309,4291;0,0340894
1310,3933;0,0345283
1311,3575;0,0349458
1312,3218;0,0353289
1313,2860;0,0356621
1314,2502;0,0359289
1315,2145;0,0361135
1316,1787;0,0362036
1317,1429;0,0361944
1318,1072;0,036093
1319,0714;0,0359204
1320,0356;0,0357079
1320,9999;0,0354863
1321,9641;0,035277
1322,9283;0,0350893
1323,8926;0,0349253
1324,8568;0,0347856
1325,8210;0,0346733
1326,7853;0,0345918
1327,7495;0,0345417
1328,7137;0,034517
1329,6780;0,0345056
1330,6422;0,0344929
1331,6064;0,0344664
1332,5707;0,0344175
1333,5349;0,0343406
1334,4991;0,034229
1335,4634;0,0340711
1336,4276;0,0338516
1337,3918;0,0335589
1338,3561;0,0331989
1339,3203;0,0328038
1340,2845;0,032421
1341,2488;0,0320882
1342,2130;0,0318159
1343,1772;0,0315933
1344,1415;0,0314038
1345,1057;0,0312376
1346,0699;0,0310956
1347,0342;0,0309886
1347,9984;0,0309303
1348,9626;0,0309313
1349,9269;0,0309926
1350,8911;0,0311044
1351,8553;0,0312502
1352,8196;0,0314138
1353,7838;0,0315875
1354,7480;0,0317751
1355,7123;0,0319872
1356,6765;0,0322304
1357,6407;0,0324992
1358,6050;0,032775
1359,5692;0,0330334
1360,5334;0,0332532
1361,4977;0,0334275
1362,4619;0,03357
1363,4261;0,033707
1364,3904;0,0338586
1365,3546;0,034026
1366,3188;0,034195
1367,2831;0,0343467
1368,2473;0,0344646
1369,2115;0,0345365
1370,1758;0,0345523
1371,1400;0,0345006
1372,1042;0,0343693
1373,0685;0,0341531
1374,0327;0,0338654
1374,9969;0,0335384
1375,9612;0,0332029
1376,9254;0,0328658
1377,8896;0,0325091
1378,8539;0,0321112
1379,8181;0,03167
1380,7823;0,0312095
1381,7466;0,0307644
1382,7108;0,0303528
1383,6750;0,0299625
1384,6393;0,0295606
1385,6035;0,0291234
1386,5677;0,0286676
1387,5320;0,0282549
1388,4962;0,0279499
1389,4604;0,027771
1390,4247;0,0276879
1391,3889;0,0276534
1392,3531;0,0276297
1393,3174;0,0275978
1394,2816;0,0275553
1395,2458;0,0275104
1396,2101;0,0274748
1397,1743;0,0274597
1398,1385;0,0274757
1399,1028;0,0275311
1400,0670;0,0276273
1401,0313;0,0277554
1401,9955;0,0278991
1402,9597;0,0280425
1403,9240;0,0281787
1404,8882;0,0283144
1405,8524;0,0284648
1406,8167;0,0286416
1407,7809;0,0288456
1408,7451;0,02907
1409,7094;0,0293111
1410,6736;0,0295738
1411,6378;0,029868
1412,6021;0,0301968
1413,5663;0,0305495
1414,5305;0,0309039
1415,4948;0,031234
1416,4590;0,0315171
1417,4232;0,0317408
1418,3875;0,0319123
1419,3517;0,0320565
1420,3159;0,0321905
1421,2802;0,0323038
1422,2444;0,0323693
1423,2086;0,0323668
1424,1729;0,0322964
1425,1371;0,0321726
1426,1013;0,0320057
1427,0656;0,0317874
1428,0298;0,0314981
1428,9940;0,0311346
1429,9583;0,0307334
1430,9225;0,0303555
1431,8867;0,0300378
1432,8510;0,0297601
1433,8152;0,0294544
1434,7794;0,0290475
1435,7437;0,0285242
1436,7079;0,0279763
1437,6721;0,0275514
1438,6364;0,0273251
1439,6006;0,0272626
1440,5648;0,0272892
1441,5291;0,0273512
1442,4933;0,0274292
1443,4575;0,0275243
1444,4218;0,0276394
1445,3860;0,0277672
1446,3502;0,0278917
1447,3145;0,0280014
1448,2787;0,0281023
1449,2429;0,0282169
1450,2072;0,0283663
1451,1714;0,0285533
1452,1356;0,0287595
1453,0999;0,0289483
1454,0641;0,029063
1455,0283;0,029019
1455,9926;0,0287322
1456,9568;0,0282467
1457,9210;0,0278075
1458,8853;0,0276109
1459,8495;0,0276183
1460,8137;0,0276901
1461,7780;0,0277032
1462,7422;0,0275674
1463,7064;0,0272345
1464,6707;0,0267365
1465,6349;0,0261938
1466,5991;0,0257267
1467,5634;0,0253618
1468,5276;0,0250379
1469,4918;0,0246571
1470,4561;0,0241183
1471,4203;0,0233509
1472,3845;0,0223846
1473,3488;0,0213943
1474,3130;0,0205815
1475,2772;0,0200063
1476,2415;0,0196037
1477,2057;0,0192919
1478,1699;0,0190208
1479,1342;0,018769
1480,0984;0,0185311
1481,0626;0,0183125
1482,0269;0,0181267
1482,9911;0,0179895
1483,9553;0,0179089
1484,9196;0,0178772
1485,8838;0,0178708
1486,8480;0,0178575
1487,8123;0,0178129
1488,7765;0,0177485
1489,7407;0,0177199
1490,7050;0,0177816
1491,6692;0,0179404
1492,6334;0,018167
1493,5977;0,0184284
1494,5619;0,0187
1495,5261;0,0189659
1496,4904;0,0192205
1497,4546;0,0194772
1498,4188;0,0197658
1499,3831;0,0201069
1500,3473;0,0204929
1501,3115;0,0208972
1502,2758;0,0212886
1503,2400;0,0216338
1504,2042;0,0218847
1505,1685;0,0219578
1506,1327;0,0217521
1507,0969;0,0213038
1508,0612;0,0208771
1509,0254;0,020658
1509,9896;0,0206013
1510,9539;0,0206012
1511,9181;0,020587
1512,8823;0,0205202
1513,8466;0,020381
1514,8108;0,0201662
1515,7750;0,0198922
1516,7393;0,0195887
1517,7035;0,0192784
1518,6677;0,0189635
1519,6320;0,0186354
1520,5962;0,0183011
1521,5604;0,0179955
1522,5247;0,0177565
1523,4889;0,0175909
1524,4531;0,0174773
1525,4174;0,0173962
1526,3816;0,0173502
1527,3458;0,0173552
1528,3101;0,0174178
1529,2743;0,0175245
1530,2385;0,0176502
1531,2028;0,0177746
1532,1670;0,0178988
1533,1312;0,0180474
1534,0955;0,0182496
1535,0597;0,0185088
1536,0239;0,0187995
1536,9882;0,0190812
1537,9524;0,0193021
1538,9166;0,019387
1539,8809;0,019255
1540,8451;0,0189358
1541,8093;0,0186244
1542,7736;0,018459
1543,7378;0,0184158
1544,7020;0,01843
1545,6663;0,0184674
1546,6305;0,0185183
1547,5947;0,0185771
1548,5590;0,0186337
1549,5232;0,0186783
1550,4874;0,0187126
1551,4517;0,0187565
1552,4159;0,0188374
1553,3801;0,0189696
1554,3444;0,0191386
1555,3086;0,0192956
1556,2728;0,0193492
1557,2371;0,0191694
1558,2013;0,018713
1559,1655;0,0182347
1560,1298;0,0180476
1561,0940;0,018148
1562,0582;0,0183853
1563,0225;0,0186565
1563,9867;0,0189162
1564,9509;0,0191453
1565,9152;0,0193332
1566,8794;0,019475
1567,8436;0,0195819
1568,8079;0,0196888
1569,7721;0,0198397
1570,7363;0,0200537
1571,7006;0,0203125
1572,6648;0,0205796
1573,6290;0,0208195
1574,5933;0,0210091
1575,5575;0,0211506
1576,5217;0,0212845
1577,4860;0,0214656
1578,4502;0,0217142
1579,4144;0,0220114
1580,3787;0,0223289
1581,3429;0,022648
1582,3071;0,0229623
1583,2714;0,0232758
1584,2356;0,0235982
1585,1998;0,0239379
1586,1641;0,0242952
1587,1283;0,0246602
1588,0925;0,0250153
1589,0568;0,0253413
1590,0210;0,0256224
1590,9852;0,0258483
1591,9495;0,026012
1592,9137;0,0261086
1593,8779;0,026138
1594,8422;0,0261087
1595,8064;0,0260377
1596,7706;0,0259441
1597,7349;0,0258416
1598,6991;0,0257345
1599,6633;0,0256217
1600,6276;0,0255017
1601,5918;0,025379
1602,5560;0,0252644
1603,5203;0,0251696
1604,4845;0,0250987
1605,4487;0,0250429
1606,4130;0,0249856
1607,3772;0,0249159
1608,3414;0,0248436
1609,3057;0,024801
1610,2699;0,0248217
1611,2341;0,0249128
1612,1984;0,025047
1613,1626;0,0251734
1614,1268;0,0252368
1615,0911;0,0252063
1616,0553;0,0251148
1617,0195;0,0250599
1617,9838;0,0251188
1618,9480;0,0252807
1619,9122;0,0254807
1620,8765;0,0256561
1621,8407;0,0257717
1622,8049;0,0258286
1623,7692;0,0258586
1624,7334;0,0258991
1625,6976;0,0259656
1626,6619;0,0260541
1627,6261;0,0261636
1628,5903;0,0263054
1629,5546;0,026492
1630,5188;0,0267184
1631,4830;0,0269563
1632,4473;0,0271565
1633,4115;0,0272517
1634,3757;0,0271769
1635,3400;0,0269383
1636,3042;0,0266726
1637,2684;0,0265376
1638,2327;0,0265636
1639,1969;0,0266926
1640,1611;0,0268686
1641,1254;0,0270606
1642,0896;0,0272469
1643,0538;0,0273954
1644,0181;0,0274541
1644,9823;0,0273713
1645,9465;0,0271619
1646,9108;0,026956
1647,8750;0,0268956
1648,8392;0,0269941
1649,8035;0,0271462
1650,7677;0,0271872
1651,7319;0,0269163
1652,6962;0,0262258
1653,6604;0,02539
1654,6246;0,0248728
1655,5889;0,0247493
1656,5531;0,0248173
1657,5173;0,0249068
1658,4816;0,0249263
1659,4458;0,024824
1660,4100;0,0245732
1661,3743;0,0241954
1662,3385;0,0237817
1663,3027;0,0234463
1664,2670;0,0232406
1665,2312;0,0231292
1666,1954;0,0230267
1667,1597;0,0228387
1668,1239;0,0225003
1669,0881;0,0220305
1670,0524;0,021546
1671,0166;0,0211654
1671,9808;0,0209
1672,9451;0,0206695
1673,9093;0,0203889
1674,8735;0,0200383
1675,8378;0,0196822
1676,8020;0,0194177
1677,7662;0,0192939
1678,7305;0,0192854
1679,6947;0,0193224
1680,6589;0,0193136
1681,6232;0,0191498
1682,5874;0,018733
1683,5516;0,0180895
1684,5159;0,0174417
1685,4801;0,0170021
1686,4443;0,0167765
1687,4086;0,0166599
1688,3728;0,0165704
1689,3370;0,0164808
1690,3013;0,0163993
1691,2655;0,016342
1692,2297;0,0163138
1693,1940;0,0163029
1694,1582;0,0162857
1695,1224;0,0162368
1696,0867;0,0161368
1697,0509;0,0159773
1698,0151;0,0157655
1698,9794;0,0155343
1699,9436;0,0153414
1700,9078;0,0152389
1701,8721;0,0152376
1702,8363;0,0153076
1703,8005;0,0154045
1704,7648;0,0154948
1705,7290;0,015571
1706,6932;0,0156521
1707,6575;0,0157688
1708,6217;0,0159414
1709,5859;0,0161714
1710,5502;0,016448
1711,5144;0,0167548
1712,4786;0,0170712
1713,4429;0,0173679
1714,4071;0,0176043
1715,3713;0,0177386
1716,3356;0,0177651
1717,2998;0,017752
1718,2640;0,0177971
1719,2283;0,0179383
1720,1925;0,0181496
1721,1567;0,0183894
1722,1210;0,0186277
1723,0852;0,018849
1724,0494;0,0190508
1725,0137;0,0192413
1725,9779;0,0194354
1726,9421;0,0196466
1727,9064;0,019879
1728,8706;0,0201204
1729,8348;0,0203385
1730,7991;0,0204779
1731,7633;0,0204717
1732,7275;0,0202878
1733,6918;0,019992
1734,6560;0,0197241
1735,6202;0,0195691
1736,5845;0,0195034
1737,5487;0,0194524
1738,5129;0,0193497
1739,4772;0,0191637
1740,4414;0,0189062
1741,4056;0,0186214
1742,3699;0,0183524
1743,3341;0,0181145
1744,2983;0,017896
1745,2626;0,017673
1746,2268;0,0174143
1747,1910;0,0170787
1748,1553;0,0166249
1749,1195;0,01605
1750,0837;0,0154266
1751,0480;0,0148681
1752,0122;0,0144435
1752,9764;0,014142
1753,9407;0,0139064
1754,9049;0,0136798
1755,8691;0,0134321
1756,8334;0,0131646
1757,7976;0,0128922
1758,7618;0,0126203
1759,7261;0,0123381
1760,6903;0,0120367
1761,6545;0,0117333
1762,6188;0,0114701
1763,5830;0,0112838
1764,5472;0,0111794
1765,5115;0,0111317
1766,4757;0,0111045
1767,4399;0,0110673
1768,4042;0,0109989
1769,3684;0,0108828
1770,3326;0,0107052
1771,2969;0,0104687
1772,2611;0,0102122
1773,2253;0,0100012
1774,1896;0,00988215
1775,1538;0,00985341
1776,1180;0,00987969
1777,0823;0,00991939
1778,0465;0,00994252
1779,0107;0,00993796
1779,9750;0,00991146
1780,9392;0,00987439
1781,9034;0,00983163
1782,8677;0,00978154
1783,8319;0,00972795
1784,7961;0,00968894
1785,7604;0,0096899
1786,7246;0,00974512
1787,6888;0,00984405
1788,6531;0,0099511
1789,6173;0,0100158
1790,5815;0,00999298
1791,5458;0,00987565
1792,5100;0,00971763
1793,4742;0,00960015
1794,4385;0,0095663
1795,4027;0,00960233
1796,3669;0,00966672
1797,3312;0,00971867
1798,2954;0,0097315
1799,2596;0,00969917
1800,2239;0,0096377
1801,1881;0,00957582
1802,1523;0,00953774
1803,1166;0,00953186
1804,0808;0,00955268
1805,0450;0,00958826
1806,0093;0,00962539
1806,9735;0,00965163
1807,9377;0,00965685
1808,9020;0,00963666
1809,8662;0,00959625
1810,8304;0,00954994
1811,7947;0,00951361
1812,7589;0,0094948
1813,7231;0,00948954
1814,6874;0,00948757
1815,6516;0,00948137
1816,6158;0,00947327
1817,5801;0,00947566
1818,5443;0,00950208
1819,5085;0,00955489
1820,4728;0,00962042
1821,4370;0,00967591
1822,4012;0,00970294
1823,3655;0,00969927
1824,3297;0,00968077
1825,2939;0,00966846
1826,2582;0,00966892
1827,2224;0,00966616
1828,1866;0,00963377
1829,1509;0,00955989
1830,1151;0,00946496
1831,0793;0,00939073
1832,0436;0,00936673
1833,0078;0,00939025
1833,9720;0,00943498
1834,9363;0,00947218
1835,9005;0,00948857
1836,8647;0,00949391
1837,8290;0,00951254
1838,7932;0,00956264
1839,7574;0,00964083
1840,7217;0,00972229
1841,6859;0,00977168
1842,6501;0,00975972
1843,6144;0,00968401
1844,5786;0,00957913
1845,5428;0,0094945
1846,5071;0,0094574
1847,4713;0,00946221
1848,4355;0,00948651
1849,3998;0,00950833
1850,3640;0,0095143
1851,3282;0,00950102
1852,2925;0,00947306
1853,2567;0,00943944
1854,2209;0,00941029
1855,1852;0,00939429
1856,1494;0,00939643
1857,1136;0,00941569
1858,0779;0,00944435
1859,0421;0,00947074
1860,0063;0,00948556
1860,9706;0,0094882
1861,9348;0,00948822
1862,8990;0,00949961
1863,8633;0,0095313
1864,8275;0,00957952
1865,7917;0,00962618
1866,7560;0,00964564
1867,7202;0,00962148
1868,6844;0,00956487
1869,6487;0,00951177
1870,6129;0,00949458
1871,5771;0,00951904
1872,5414;0,00956627
1873,5056;0,00960794
1874,4698;0,00962079
1875,4341;0,00959642
1876,3983;0,00954394
1877,3625;0,00948343
1878,3268;0,00943386
1879,2910;0,0094051
1880,2552;0,00939921
1881,2195;0,00941671
1882,1837;0,00945989
1883,1479;0,00952933
1884,1122;0,00961718
1885,0764;0,00970411
1886,0406;0,00976383
1887,0049;0,00977376
1887,9691;0,00972757
1888,9333;0,00964238
1889,8976;0,00955243
1890,8618;0,00949016
1891,8260;0,00946945
1892,7903;0,0094835
1893,7545;0,00951428
1894,7188;0,00954341
1895,6830;0,00955854
1896,6472;0,00955486
1897,6115;0,00953347
1898,5757;0,00949957
1899,5399;0,00946206
1900,5042;0,00943338
1901,4684;0,0094267
1902,4326;0,00944955
1903,3969;0,00949718
1904,3611;0,00955164
1905,3253;0,00958869
1906,2896;0,00958911
1907,2538;0,00954813
1908,2180;0,00947897
1909,1823;0,00940806
1910,1465;0,00936319
1911,1107;0,00936138
1912,0750;0,00940424
1913,0392;0,00948167
1914,0034;0,00957756
1914,9677;0,00967252
1915,9319;0,00974539
1916,8961;0,009778
1917,8604;0,00976413
1918,8246;0,00971598
1919,7888;0,00966015
1920,7531;0,00962509
1921,7173;0,00962846
1922,6815;0,00966945
1923,6458;0,00972826
1924,6100;0,00977483
1925,5742;0,00978419
1926,5385;0,00974955
1927,5027;0,00968533
1928,4669;0,00962025
1929,4312;0,00958432
1930,3954;0,00959423
1931,3596;0,00964417
1932,3239;0,00970916
1933,2881;0,00976014
1934,2523;0,00978076
1935,2166;0,00977444
1936,1808;0,00975724
1937,1450;0,00974234
1938,1093;0,00972842
1939,0735;0,00970124
1940,0377;0,00964757
1941,0020;0,00957238
1941,9662;0,00950512
1942,9304;0,00948386
1943,8947;0,00952486
1944,8589;0,00960496
1945,8231;0,00967414
1946,7874;0,00968649
1947,7516;0,00962688
1948,7158;0,00951962
1949,6801;0,00941554
1950,6443;0,00936395
1951,6085;0,00938574
1952,5728;0,00946465
1953,5370;0,00956116
1954,5012;0,00963749
1955,4655;0,00967648
1956,4297;0,00968305
1957,3939;0,00967035
1958,3582;0,0096437
1959,3224;0,0095962
1960,2866;0,00951905
1961,2509;0,00941668
1962,2151;0,00931048
1963,1793;0,00922508
1964,1436;0,00916793
1965,1078;0,00911964
1966,0720;0,00904606
1967,0363;0,00892667
1968,0005;0,00877702
1968,9647;0,00864216
1969,9290;0,0085645
1970,8932;0,00855513
1971,8574;0,00859346
1972,8217;0,00865311
1973,7859;0,00873032
1974,7501;0,00884727
1975,7144;0,00902082
1976,6786;0,00922196
1977,6428;0,00937166
1978,6071;0,00939091
1979,5713;0,00926457
1980,5355;0,00905993
1981,4998;0,00888596
1982,4640;0,00882994
1983,4282;0,00891585
1984,3925;0,00910506
1985,3567;0,00933238
1986,3209;0,00954972
1987,2852;0,00974578
1988,2494;0,00993082
1989,2136;0,0101045
1990,1779;0,0102383
1991,1421;0,01029
1992,1063;0,0102394
1993,0706;0,0101121
1994,0348;0,00996508
1994,9990;0,009849
1995,9633;0,00977823
1996,9275;0,00973086
1997,8917;0,00967322
1998,8560;0,00958896
1999,8202;0,00949167
2000,7844;0,00941237
2001,7487;0,00937336
2002,7129;0,00937059
2003,6771;0,00937775
2004,6414;0,00936787
2005,6056;0,009335
2006,5698;0,00929881
2007,5341;0,0092877
2008,4983;0,00931515
2009,4625;0,00937109
2010,4268;0,00943521
2011,3910;0,0094987
2012,3552;0,00957412
2013,3195;0,00968468
2014,2837;0,00984091
2015,2479;0,0100227
2016,2122;0,010183
2017,1764;0,0102751
2018,1406;0,0102841
2019,1049;0,0102352
2020,0691;0,0101722
2021,0333;0,0101226
2021,9976;0,0100795
2022,9618;0,0100146
2023,9260;0,00991114
2024,8903;0,00979193
2025,8545;0,00971628
2026,8187;0,0097428
2027,7830;0,00988459
2028,7472;0,010092
2029,7114;0,0102788
2030,6757;0,0103756
2031,6399;0,0103704
2032,6041;0,0103069
2033,5684;0,0102407
2034,5326;0,0101918
2035,4968;0,0101345
2036,4611;0,0100332
2037,4253;0,00989077
2038,3895;0,00976585
2039,3538;0,00974203
2040,3180;0,00986991
2041,2822;0,0101226
2042,2465;0,0104012
2043,2107;0,0105907
2044,1749;0,0106273
2045,1392;0,0105299
2046,1034;0,0103783
2047,0676;0,0102548
2048,0320;0,0101928
2048,9961;0,0101679
2049,9604;0,0101362
2050,9246;0,0100794
2051,8889;0,0100203
2052,8530;0,0100021
2053,8174;0,0100523
2054,7815;0,0101583
2055,7458;0,0102715
2056,7100;0,0103382
2057,6743;0,0103345
2058,6384;0,0102794
2059,6028;0,0102166
2060,5669;0,010182
2061,5313;0,0101823
2062,4954;0,0101976
2063,4597;0,0102035
2064,4238;0,0101933
2065,3882;0,0101808
2066,3523;0,0101844
2067,3167;0,0102086
2068,2808;0,0102407
2069,2451;0,0102635
2070,2092;0,0102725
2071,1736;0,0102798
2072,1377;0,0103033
2073,1021;0,0103489
2074,0662;0,0104033
2075,0305;0,0104434
2075,9946;0,0104544
2076,9590;0,0104415
2077,9231;0,0104253
2078,8875;0,0104249
2079,8516;0,0104434
2080,8159;0,0104653
2081,7800;0,0104684
2082,7444;0,0104394
2083,7085;0,0103829
2084,6729;0,0103184
2085,6370;0,0102702
2086,6013;0,0102552
2087,5654;0,0102767
2088,5298;0,0103237
2089,4939;0,0103766
2090,4583;0,0104154
2091,4224;0,0104284
2092,3867;0,0104172
2093,3508;0,0103961
2094,3152;0,0103844
2095,2793;0,0103962
2096,2437;0,010433
2097,2078;0,0104857
2098,1721;0,010543
2099,1362;0,0106001
2100,1006;0,0106589
2101,0647;0,010722
2102,0291;0,0107843
2102,9932;0,0108331
2103,9575;0,0108562
2104,9216;0,0108523
2105,8860;0,0108352
2106,8501;0,0108261
2107,8145;0,0108387
2108,7786;0,0108681
2109,7429;0,0108921
2110,7070;0,0108842
2111,6714;0,0108304
2112,6355;0,0107379
2113,5999;0,0106319
2114,5640;0,0105404
2115,5283;0,0104811
2116,4924;0,0104541
2117,4568;0,0104462
2118,4209;0,010441
2119,3853;0,0104279
2120,3494;0,0104069
2121,3137;0,0103861
2122,2778;0,0103762
2123,2422;0,0103859
2124,2063;0,0104181
2125,1707;0,0104704
2126,1348;0,0105352
2127,0991;0,0106008
2128,0632;0,0106548
2129,0276;0,0106878
2129,9917;0,0106993
2130,9561;0,010701
2131,9202;0,010714
2132,8845;0,0107597
2133,8486;0,0108462
2134,8130;0,0109584
2135,7771;0,0110601
2136,7415;0,0111097
2137,7056;0,0110821
2138,6699;0,0109849
2139,6340;0,0108577
2140,5984;0,0107569
2141,5625;0,0107317
2142,5269;0,0108013
2143,4910;0,0109455
2144,4553;0,0111119
2145,4194;0,0112409
2146,3838;0,011294
2147,3479;0,0112732
2148,3123;0,0112168
2149,2764;0,0111758
2150,2407;0,011182
2151,2048;0,0112314
2152,1692;0,0112909
2153,1333;0,0113252
2154,0977;0,011326
2155,0618;0,0113237
2156,0261;0,0113705
2156,9902;0,0114998
2157,9546;0,0116856
2158,9187;0,0118395
2159,8831;0,0118682
2160,8472;0,0117441
2161,8115;0,0115272
2162,7756;0,0113245
2163,7400;0,0112288
2164,7041;0,0112714
2165,6685;0,0114092
2166,6326;0,0115513
2167,5969;0,0116127
2168,5610;0,011563
2169,5254;0,0114399
2170,4895;0,0113224
2171,4539;0,0112811
2172,4180;0,0113365
2173,3823;0,0114489
2174,3464;0,011545
2175,3108;0,0115619
2176,2749;0,0114789
2177,2393;0,011317
2178,2034;0,0111162
2179,1677;0,0109126
2180,1318;0,010735
2181,0962;0,0106161
2182,0603;0,0105967
2183,0247;0,0107114
2183,9888;0,0109592
2184,9531;0,0112862
2185,9172;0,0115964
2186,8816;0,0117918
2187,8457;0,0118161
2188,8101;0,0116776
2189,7742;0,011439
2190,7385;0,0111825
2191,7026;0,0109726
2192,6670;0,0108361
2193,6311;0,0107677
2194,5955;0,0107496
2195,5596;0,0107686
2196,5239;0,0108215
2197,4880;0,0109079
2198,4524;0,0110203
2199,4165;0,0111412
2200,3809;0,0112484
2201,3450;0,0113251
2202,3093;0,0113658
2203,2734;0,0113772
2204,2378;0,0113723
2205,2019;0,0113656
2206,1663;0,0113677
2207,1304;0,0113821
2208,0947;0,0114021
2209,0588;0,0114122
2210,0232;0,0113938
2210,9873;0,0113362
2211,9517;0,0112471
2212,9158;0,0111531
2213,8801;0,0110889
2214,8442;0,0110772
2215,8086;0,0111142
2216,7727;0,0111688
2217,7371;0,0111991
2218,7012;0,0111765
2219,6655;0,0111022
2220,6296;0,011008
2221,5940;0,0109387
2222,5581;0,0109286
2223,5225;0,0109838
2224,4866;0,0110806
2225,4509;0,0111803
2226,4150;0,0112491
2227,3794;0,0112739
2228,3435;0,0112626
2229,3079;0,0112327
2230,2720;0,0111957
2231,2363;0,0111515
2232,2004;0,0110945
2233,1648;0,0110265
2234,1289;0,0109627
2235,0933;0,0109255
2236,0574;0,0109278
2237,0217;0,010962
2237,9858;0,0110029
2238,9502;0,0110248
2239,9143;0,0110195
2240,8787;0,0110022
2241,8428;0,0109998
2242,8071;0,0110306
2243,7712;0,0110926
2244,7356;0,0111653
2245,6997;0,0112247
2246,6641;0,011257
2247,6282;0,0112635
2248,5925;0,0112543
2249,5566;0,0112385
2250,5210;0,0112195
2251,4851;0,0111966
2252,4495;0,0111691
2253,4136;0,0111389
2254,3779;0,0111089
2255,3420;0,0110809
2256,3064;0,0110554
2257,2705;0,0110332
2258,2349;0,0110175
2259,1990;0,0110135
2260,1633;0,0110246
2261,1274;0,0110503
2262,0918;0,0110851
2263,0559;0,0111206
2264,0203;0,0111496
2264,9844;0,0111694
2265,9487;0,0111824
2266,9128;0,0111935
2267,8772;0,011206
2268,8413;0,0112175
2269,8057;0,0112199
2270,7698;0,0112027
2271,7341;0,0111593
2272,6982;0,0110932
2273,6626;0,0110177
2274,6267;0,0109518
2275,5911;0,0109121
2276,5552;0,0109071
2277,5195;0,0109356
2278,4836;0,0109895
2279,4480;0,0110583
2280,4121;0,011132
2281,3765;0,0112025
2282,3406;0,0112645
2283,3049;0,011316
2284,2690;0,0113581
2285,2334;0,0113943
2286,1975;0,0114269
2287,1619;0,011456
2288,1260;0,0114789
2289,0903;0,011493
2290,0544;0,0114985
2291,0188;0,011499
2291,9829;0,0114995
2292,9473;0,0115032
2293,9114;0,011511
2294,8757;0,0115222
2295,8398;0,0115369
2296,8042;0,0115571
2297,7683;0,0115843
2298,7327;0,0116162
2299,6968;0,0116464
2300,6611;0,0116662
2301,6252;0,0116715
2302,5896;0,0116661
2303,5537;0,011662
2304,5181;0,0116731
2305,4822;0,0117071
2306,4465;0,0117588
2307,4106;0,0118104
2308,3750;0,011839
2309,3391;0,0118286
2310,3035;0,0117801
2311,2676;0,0117119
2312,2319;0,0116517
2313,1960;0,0116211
2314,1604;0,011626
2315,1245;0,0116554
2316,0889;0,0116904
2317,0530;0,0117152
2318,0173;0,0117248
2318,9814;0,0117244
2319,9458;0,0117245
2320,9099;0,0117337
2321,8743;0,0117548
2322,8384;0,0117847
2323,8027;0,011816
2324,7668;0,0118383
2325,7312;0,0118402
2326,6953;0,0118137
2327,6597;0,0117583
2328,6238;0,0116833
2329,5881;0,0116072
2330,5522;0,0115521
2331,5166;0,0115361
2332,4807;0,0115649
2333,4451;0,0116294
2334,4092;0,0117105
2335,3735;0,0117886
2336,3376;0,0118516
2337,3020;0,0118973
2338,2661;0,0119288
2339,2305;0,0119435
2340,1946;0,0119211
2341,1589;0,0118221
2342,1230;0,0116129
2343,0874;0,0113184
2344,0515;0,0110588
2345,0159;0,0109884
2345,9800;0,0111702
2346,9443;0,0115341
2347,9084;0,0119449
2348,8728;0,0122841
2349,8369;0,0124879
2350,8013;0,01255
2351,7654;0,0125057
2352,7297;0,0124081
2353,6938;0,0123064
2354,6582;0,0122353
2355,6223;0,0122105
2356,5867;0,0122214
2357,5508;0,0122321
2358,5151;0,0122043
2359,4792;0,012128
2360,4436;0,0120285
2361,4077;0,0119374
2362,3721;0,0118578
2363,3362;0,011761
2364,3005;0,0116155
2365,2646;0,0114171
2366,2290;0,0111934
2367,1931;0,0109818
2368,1575;0,0108052
2369,1216;0,0106646
2370,0859;0,0105493
2371,0500;0,0104528
2372,0144;0,0103814
2372,9785;0,0103496
2373,9429;0,0103694
2374,9070;0,0104409
2375,8713;0,0105513
2376,8354;0,0106814
2377,7998;0,0108154
2378,7639;0,0109455
2379,7283;0,0110709
2380,6924;0,011192
2381,6567;0,0113056
2382,6208;0,0114045
2383,5852;0,0114807
2384,5493;0,0115298
2385,5137;0,0115531
2386,4778;0,0115573
2387,4421;0,0115513
2388,4063;0,0115434
2389,3706;0,0115396
2390,3347;0,0115425
2391,2991;0,0115522
2392,2632;0,0115657
2393,2275;0,0115784
2394,1917;0,0115853
2395,1560;0,0115841
2396,1201;0,0115764
2397,0845;0,0115683
2398,0486;0,0115676
2399,0129;0,0115799
2399,9771;0,0116064
2400,9414;0,0116434
2401,9055;0,0116843
2402,8699;0,0117221
2403,8340;0,011751
2404,7983;0,0117679
2405,7625;0,0117724
2406,7268;0,0117677
2407,6909;0,0117595
2408,6553;0,0117544
2409,6194;0,0117575
2410,5837;0,0117699
2411,5479;0,0117897
2412,5122;0,0118128
2413,4763;0,0118357
2414,4407;0,0118561
2415,4048;0,0118721
2416,3691;0,0118815
2417,3333;0,0118812
2418,2976;0,0118692
2419,2617;0,0118471
2420,2261;0,0118217
2421,1902;0,0118037
2422,1545;0,0118038
2423,1187;0,0118279
2424,0830;0,0118735
2425,0471;0,0119299
2426,0115;0,011982
2426,9756;0,0120171
2427,9399;0,0120309
2428,9041;0,0120287
2429,8684;0,0120227
2430,8325;0,0120245
2431,7969;0,0120394
2432,7610;0,0120634
2433,7253;0,0120867
2434,6895;0,0120995
2435,6538;0,0120972
2436,6179;0,0120824
2437,5823;0,0120625
2438,5464;0,0120462
2439,5107;0,0120406
2440,4749;0,0120496
2441,4392;0,0120737
2442,4033;0,0121096
2443,3677;0,0121499
2444,3318;0,0121851
2445,2961;0,0122063
2446,2603;0,0122096
2447,2246;0,0121987
2448,1887;0,0121838
2449,1531;0,0121767
2450,1172;0,0121848
2451,0815;0,0122068
2452,0457;0,012234
2453,0100;0,012255
2453,9741;0,0122631
2454,9385;0,01226
2455,9026;0,0122551
2456,8669;0,0122597
2457,8311;0,0122805
2458,7954;0,0123154
2459,7595;0,0123548
2460,7239;0,0123865
2461,6880;0,0124018
2462,6523;0,0123995
2463,6165;0,0123854
2464,5808;0,0123691
2465,5449;0,0123593
2466,5093;0,0123608
2467,4734;0,0123733
2468,4377;0,0123931
2469,4019;0,012415
2470,3662;0,0124349
2471,3303;0,0124507
2472,2947;0,0124621
2473,2588;0,0124691
2474,2231;0,0124714
2475,1873;0,0124689
2476,1516;0,012463
2477,1157;0,012457
2478,0801;0,0124552
2479,0442;0,0124601
2480,0085;0,0124702
2480,9727;0,0124804
2481,9370;0,0124848
2482,9011;0,0124812
2483,8655;0,0124726
2484,8296;0,0124661
2485,7939;0,0124686
2486,7581;0,0124835
2487,7224;0,012509
2488,6865;0,0125399
2489,6509;0,0125702
2490,6150;0,0125952
2491,5793;0,0126117
2492,5435;0,0126182
2493,5078;0,0126148
2494,4719;0,0126037
2495,4363;0,0125891
2496,4004;0,0125766
2497,3647;0,0125707
2498,3289;0,0125746
2499,2932;0,0125889
2500,2573;0,0126123
2501,2217;0,0126413
2502,1858;0,0126706
2503,1501;0,0126943
2504,1143;0,0127075
2505,0786;0,0127093
2506,0427;0,0127036
2507,0071;0,0126979
2507,9712;0,0127
2508,9355;0,0127133
2509,8997;0,0127362
2510,8640;0,0127627
2511,8281;0,0127868
2512,7925;0,0128049
2513,7566;0,0128172
2514,7209;0,0128262
2515,6851;0,0128344
2516,6494;0,0128431
2517,6135;0,0128519
2518,5779;0,0128595
2519,5420;0,0128637
2520,5063;0,0128621
2521,4705;0,0128525
2522,4348;0,0128343
2523,3989;0,0128097
2524,3633;0,0127851
2525,3274;0,0127687
2526,2917;0,0127677
2527,2559;0,0127845
2528,2202;0,0128149
2529,1843;0,0128498
2530,1487;0,0128798
2531,1128;0,0128994
2532,0771;0,0129088
2533,0413;0,0129123
2534,0056;0,0129146
2534,9697;0,0129175
2535,9341;0,0129201
2536,8982;0,01292
2537,8625;0,0129163
2538,8267;0,0129101
2539,7910;0,0129032
2540,7551;0,0128966
2541,7195;0,0128895
2542,6836;0,0128801
2543,6479;0,0128672
2544,6121;0,0128515
2545,5764;0,0128351
2546,5405;0,0128213
2547,5049;0,0128137
2548,4690;0,0128156
2549,4333;0,0128295
2550,3975;0,0128558
2551,3618;0,0128909
2552,3259;0,0129273
2553,2903;0,0129552
2554,2544;0,0129663
2555,2188;0,0129588
2556,1829;0,0129379
2557,1472;0,0129144
2558,1113;0,0128988
2559,0757;0,0128968
2560,0398;0,0129073
2561,0042;0,0129246
2561,9683;0,0129429
2562,9326;0,0129597
2563,8967;0,0129751
2564,8611;0,0129889
2565,8252;0,0129985
2566,7896;0,012999
2567,7537;0,0129879
2568,7180;0,0129681
2569,6821;0,0129489
2570,6465;0,0129405
2571,6106;0,0129485
2572,5750;0,0129695
2573,5391;0,0129934
2574,5034;0,013009
2575,4675;0,0130106
2576,4319;0,0129996
2577,3960;0,0129833
2578,3604;0,01297
2579,3245;0,0129663
2580,2888;0,0129749
2581,2529;0,0129949
2582,2173;0,0130217
2583,1814;0,0130485
2584,1458;0,0130686
2585,1099;0,0130781
2586,0742;0,013079
2587,0383;0,0130773
2588,0027;0,0130791
2588,9668;0,0130854
2589,9312;0,0130911
2590,8953;0,0130891
2591,8596;0,0130763
2592,8237;0,0130583
2593,7881;0,0130483
2594,7522;0,0130592
2595,7166;0,0130964
2596,6807;0,0131532
2597,6450;0,0132139
2598,6091;0,0132608
2599,5735;0,0132825
2600,5376;0,0132781
2601,5020;0,0132566
2602,4661;0,0132312
2603,4304;0,013214
2604,3945;0,0132109
2605,3589;0,0132211
2606,3230;0,0132392
2607,2874;0,0132594
2608,2515;0,0132781
2609,2158;0,0132955
2610,1799;0,0133135
2611,1443;0,0133336
2612,1084;0,0133555
2613,0728;0,0133767
2614,0369;0,0133943
2615,0012;0,0134059
2615,9653;0,0134106
2616,9297;0,0134083
2617,8938;0,0134002
2618,8582;0,0133896
2619,8223;0,0133813
2620,7866;0,0133807
2621,7507;0,0133907
2622,7151;0,0134094
2623,6792;0,01343
2624,6436;0,0134453
2625,6077;0,0134518
2626,5720;0,0134528
2627,5361;0,0134562
2628,5005;0,0134694
2629,4646;0,0134943
2630,4290;0,0135261
2631,3931;0,0135562
2632,3574;0,0135776
2633,3215;0,0135885
2634,2859;0,0135917
2635,2500;0,0135925
2636,2144;0,0135953
2637,1785;0,0136027
2638,1428;0,0136157
2639,1069;0,0136341
2640,0713;0,0136563
2641,0354;0,0136794
2641,9998;0,0136993
2642,9639;0,0137131
2643,9282;0,0137208
2644,8923;0,0137254
2645,8567;0,0137315
2646,8208;0,0137423
2647,7852;0,0137582
2648,7493;0,0137768
2649,7136;0,0137954
2650,6777;0,0138124
2651,6421;0,0138275
2652,6062;0,0138412
2653,5706;0,0138531
2654,5347;0,0138618
2655,4990;0,0138664
2656,4631;0,0138678
2657,4275;0,013869
2658,3916;0,0138747
2659,3560;0,013888
2660,3201;0,0139086
2661,2844;0,0139323
2662,2485;0,0139525
2663,2129;0,0139638
2664,1770;0,0139653
2665,1414;0,0139613
2666,1055;0,0139589
2667,0698;0,0139641
2668,0339;0,0139787
2668,9983;0,0139996
2669,9624;0,0140217
2670,9268;0,0140413
2671,8909;0,0140584
2672,8552;0,0140757
2673,8193;0,0140953
2674,7837;0,0141169
2675,7478;0,0141377
2676,7122;0,0141542
2677,6763;0,0141651
2678,6406;0,0141723
2679,6047;0,0141797
2680,5691;0,0141904
2681,5332;0,0142058
2682,4976;0,0142251
2683,4617;0,0142464
2684,4260;0,014268
2685,3901;0,014289
2686,3545;0,0143086
2687,3186;0,0143256
2688,2830;0,0143387
2689,2471;0,0143474
2690,2114;0,0143527
2691,1755;0,0143579
2692,1399;0,014367
2693,1040;0,0143828
2694,0684;0,0144055
2695,0325;0,0144324
2695,9968;0,0144585
2696,9609;0,0144795
2697,9253;0,0144929
2698,8894;0,0144994
2699,8538;0,0145018
2700,8179;0,0145042
2701,7822;0,0145106
2702,7463;0,0145242
2703,7107;0,0145469
2704,6748;0,014578
2705,6392;0,0146146
2706,6033;0,0146517
2707,5676;0,0146836
2708,5317;0,014707
2709,4961;0,0147219
2710,4602;0,0147323
2711,4246;0,0147432
2712,3887;0,0147585
2713,3530;0,0147784
2714,3171;0,0147998
2715,2815;0,0148182
2716,2456;0,0148308
2717,2100;0,014838
2718,1741;0,0148438
2719,1384;0,0148539
2720,1025;0,014872
2721,0669;0,014898
2722,0310;0,0149276
2722,9954;0,0149537
2723,9595;0,0149702
2724,9238;0,0149756
2725,8879;0,0149741
2726,8523;0,0149738
2727,8164;0,014983
2728,7808;0,0150055
2729,7449;0,0150395
2730,7092;0,0150781
2731,6733;0,0151137
2732,6377;0,0151409
2733,6018;0,0151587
2734,5662;0,0151696
2735,5303;0,0151772
2736,4946;0,0151845
2737,4587;0,015193
2738,4231;0,0152028
2739,3872;0,0152137
2740,3516;0,0152258
2741,3157;0,0152399
2742,2800;0,0152563
2743,2441;0,0152745
2744,2085;0,0152924
2745,1726;0,0153069
2746,1370;0,0153149
2747,1011;0,0153154
2748,0654;0,0153106
2749,0295;0,0153058
2749,9939;0,0153075
2750,9580;0,0153209
2751,9224;0,0153473
2752,8865;0,0153835
2753,8508;0,0154231
2754,8149;0,0154589
2755,7793;0,015486
2756,7434;0,0155029
2757,7078;0,0155122
2758,6719;0,0155191
2759,6362;0,0155293
2760,6003;0,0155463
2761,5647;0,0155701
2762,5288;0,0155974
2763,4932;0,0156233
2764,4573;0,0156442
2765,4216;0,0156596
2766,3857;0,0156724
2767,3501;0,0156873
2768,3142;0,0157078
2769,2786;0,0157346
2770,2427;0,0157654
2771,2070;0,0157967
2772,1711;0,0158259
2773,1355;0,0158521
2774,0996;0,0158764
2775,0640;0,0159004
2776,0281;0,0159252
2776,9924;0,0159511
2777,9565;0,0159775
2778,9209;0,016004
2779,8850;0,0160305
2780,8494;0,0160574
2781,8135;0,0160854
2782,7778;0,0161148
2783,7419;0,0161456
2784,7063;0,0161774
2785,6704;0,0162092
2786,6348;0,0162406
2787,5989;0,0162718
2788,5632;0,016304
2789,5273;0,0163393
2790,4917;0,0163795
2791,4558;0,0164252
2792,4202;0,0164753
2793,3843;0,0165269
2794,3486;0,0165763
2795,3127;0,0166206
2796,2771;0,0166586
2797,2412;0,0166915
2798,2056;0,0167224
2799,1697;0,0167553
2800,1340;0,0167938
2801,0981;0,0168398
2802,0625;0,0168939
2803,0266;0,0169545
2803,9910;0,017019
2804,9551;0,0170844
2805,9194;0,0171478
2806,8835;0,0172077
2807,8479;0,0172642
2808,8120;0,0173195
2809,7764;0,0173765
2810,7405;0,0174379
2811,7048;0,0175045
2812,6689;0,0175751
2813,6333;0,017647
2814,5974;0,017718
2815,5618;0,0177877
2816,5259;0,0178577
2817,4902;0,0179306
2818,4543;0,0180086
2819,4187;0,0180925
2820,3828;0,0181818
2821,3472;0,0182751
2822,3113;0,0183709
2823,2756;0,0184682
2824,2397;0,018566
2825,2041;0,0186636
2826,1682;0,0187613
2827,1326;0,018861
2828,0967;0,0189666
2829,0610;0,0190825
2830,0251;0,0192115
2830,9895;0,0193534
2831,9536;0,0195042
2832,9180;0,0196582
2833,8821;0,0198105
2834,8464;0,0199594
2835,8105;0,0201076
2836,7749;0,0202613
2837,7390;0,0204281
2838,7034;0,0206153
2839,6675;0,0208284
2840,6318;0,0210703
2841,5959;0,0213415
2842,5603;0,0216396
2843,5244;0,0219588
2844,4888;0,0222898
2845,4529;0,0226192
2846,4172;0,0229303
2847,3813;0,0232053
2848,3457;0,0234284
2849,3098;0,0235895
2850,2742;0,0236871
2851,2383;0,0237282
2852,2026;0,0237268
2853,1667;0,0236989
2854,1311;0,0236589
2855,0952;0,0236164
2856,0596;0,0235764
2857,0237;0,023541
2857,9880;0,0235123
2858,9521;0,0234943
2859,9165;0,0234919
2860,8806;0,0235091
2861,8450;0,0235466
2862,8091;0,0236012
2863,7734;0,0236678
2864,7375;0,0237423
2865,7019;0,0238232
2866,6660;0,0239108
2867,6304;0,0240047
2868,5945;0,0241014
2869,5588;0,0241941
2870,5229;0,0242746
2871,4873;0,0243369
2872,4514;0,0243797
2873,4158;0,0244061
2874,3799;0,0244225
2875,3442;0,0244365
2876,3083;0,0244554
2877,2727;0,0244852
2878,2368;0,0245294
2879,2012;0,024588
2880,1653;0,0246568
2881,1296;0,0247287
2882,0938;0,0247973
2883,0581;0,0248596
2884,0222;0,0249178
2884,9866;0,0249777
2885,9507;0,0250449
2886,9150;0,0251219
2887,8792;0,025206
2888,8435;0,0252914
2889,8076;0,0253716
2890,7720;0,0254426
2891,7361;0,0255036
2892,7004;0,0255572
2893,6646;0,0256081
2894,6289;0,0256615
2895,5930;0,0257214
2896,5574;0,0257898
2897,5215;0,0258652
2898,4858;0,0259431
2899,4500;0,0260174
2900,4143;0,0260829
2901,3784;0,0261376
2902,3428;0,0261835
2903,3069;0,0262257
2904,2712;0,0262706
2905,2354;0,0263239
2906,1997;0,0263898
2907,1638;0,026471
2908,1282;0,0265697
2909,0923;0,0266877
2910,0566;0,026826
2911,0208;0,0269835
2911,9851;0,0271551
2912,9492;0,027331
2913,9136;0,0274973
2914,8777;0,027638
2915,8420;0,0277391
2916,8062;0,027791
2917,7705;0,0277909
2918,7346;0,0277422
2919,6990;0,0276528
2920,6631;0,0275323
2921,6274;0,0273907
2922,5916;0,027237
2923,5559;0,0270779
2924,5200;0,0269173
2925,4844;0,0267554
2926,4485;0,0265896
2927,4128;0,026417
2928,3770;0,0262366
2929,3413;0,0260508
2930,3054;0,0258647
2931,2698;0,0256836
2932,2339;0,0255101
2933,1982;0,0253435
2934,1624;0,025181
2935,1267;0,0250202
2936,0908;0,0248597
2937,0552;0,0247
2938,0193;0,0245414
2938,9836;0,0243829
2939,9478;0,0242225
2940,9121;0,0240575
2941,8762;0,0238871
2942,8406;0,0237128
2943,8047;0,0235394
2944,7690;0,0233733
2945,7332;0,0232205
2946,6975;0,0230841
2947,6616;0,0229633
2948,6260;0,0228536
2949,5901;0,0227485
2950,5544;0,0226428
2951,5186;0,022534
2952,4829;0,0224235
2953,4470;0,0223145
2954,4114;0,0222102
2955,3755;0,0221118
2956,3398;0,0220174
2957,3040;0,0219234
2958,2683;0,0218261
2959,2324;0,0217233
2960,1968;0,0216152
2961,1609;0,0215046
2962,1252;0,0213945
2963,0894;0,0212869
2964,0537;0,0211807
2965,0178;0,0210721
2965,9822;0,0209566
2966,9463;0,020831
2967,9106;0,0206958
2968,8748;0,0205549
2969,8391;0,0204134
2970,8032;0,0202758
2971,7676;0,0201443
2972,7317;0,0200195
2973,6960;0,0199016
2974,6602;0,0197913
2975,6245;0,0196898
2976,5886;0,0195978
2977,5530;0,0195142
2978,5171;0,0194368
2979,4814;0,0193632
2980,4456;0,0192924
2981,4099;0,0192251
2982,3740;0,0191629
2983,3384;0,0191075
2984,3025;0,0190595
2985,2668;0,0190182
2986,2310;0,0189825
2987,1953;0,0189508
2988,1594;0,0189219
2989,1238;0,0188948
2990,0879;0,0188693
2991,0522;0,0188457
2992,0164;0,0188254
2992,9807;0,01881
2993,9448;0,0188013
2994,9092;0,0188006
2995,8733;0,0188081
2996,8376;0,0188229
2997,8018;0,0188433
2998,7661;0,0188667
2999,7302;0,0188908
3000,6946;0,0189141
3001,6587;0,0189367
3002,6230;0,0189597
3003,5872;0,0189847
3004,5515;0,0190125
3005,5156;0,0190418
3006,4800;0,0190696
3007,4441;0,0190922
3008,4084;0,019107
3009,3726;0,0191141
3010,3369;0,0191167
3011,3010;0,0191204
3012,2654;0,019131
3013,2295;0,0191526
3014,1938;0,0191857
3015,1580;0,0192279
3016,1223;0,019275
3017,0864;0,0193237
3018,0508;0,0193719
3019,0149;0,0194182
3019,9792;0,0194614
3020,9434;0,0194997
3021,9077;0,0195315
3022,8718;0,0195574
3023,8362;0,0195813
3024,8003;0,019609
3025,7646;0,0196461
3026,7288;0,0196941
3027,6931;0,0197497
3028,6572;0,0198063
3029,6216;0,0198574
3030,5857;0,0198998
3031,5500;0,0199357
3032,5142;0,0199711
3033,4785;0,0200129
3034,4426;0,0200657
3035,4070;0,0201293
3036,3711;0,0201994
3037,3354;0,0202695
3038,2996;0,0203338
3039,2639;0,0203898
3040,2280;0,0204397
3041,1924;0,0204886
3042,1565;0,0205419
3043,1208;0,0206024
3044,0850;0,0206684
3045,0493;0,0207355
3046,0134;0,0207991
3046,9778;0,0208581
3047,9419;0,0209153
3048,9063;0,020976
3049,8704;0,0210442
3050,8347;0,0211199
3051,7988;0,0211987
3052,7632;0,0212748
3053,7273;0,0213443
3054,6917;0,0214077
3055,6558;0,0214688
3056,6201;0,0215329
3057,5842;0,0216027
3058,5486;0,021678
3059,5127;0,0217557
3060,4771;0,0218321
3061,4412;0,0219044
3062,4055;0,0219711
3063,3696;0,0220311
3064,3340;0,0220846
3065,2981;0,0221327
3066,2625;0,0221783
3067,2266;0,0222255
3068,1909;0,0222782
3069,1550;0,0223391
3070,1194;0,022409
3071,0835;0,0224878
3072,0479;0,0225747
3073,0120;0,0226675
3073,9763;0,0227621
3074,9404;0,0228514
3075,9048;0,022928
3076,8689;0,022987
3077,8333;0,0230304
3078,7974;0,0230664
3079,7617;0,0231068
3080,7258;0,0231605
3081,6902;0,0232296
3082,6543;0,0233085
3083,6187;0,0233885
3084,5828;0,0234625
3085,5471;0,0235291
3086,5112;0,0235921
3087,4756;0,0236579
3088,4397;0,0237311
3089,4041;0,0238125
3090,3682;0,0238984
3091,3325;0,0239825
3092,2966;0,0240591
3093,2610;0,0241252
3094,2251;0,0241818
3095,1895;0,0242334
3096,1536;0,0242856
3097,1179;0,0243428
3098,0820;0,0244071
3099,0464;0,0244778
3100,0105;0,0245531
3100,9749;0,0246306
3101,9390;0,024709
3102,9033;0,0247876
3103,8674;0,0248658
3104,8318;0,0249433
3105,7959;0,0250199
3106,7603;0,025096
3107,7244;0,0251727
3108,6887;0,0252514
3109,6528;0,0253329
3110,6172;0,0254164
3111,5813;0,0254997
3112,5457;0,02558
3113,5098;0,0256552
3114,4741;0,025726
3115,4382;0,0257957
3116,4026;0,0258687
3117,3667;0,0259477
3118,3311;0,0260316
3119,2952;0,0261154
3120,2595;0,0261928
3121,2236;0,0262598
3122,1880;0,0263171
3123,1521;0,0263709
3124,1165;0,0264298
3125,0806;0,0265021
3126,0449;0,0265912
3127,0090;0,0266952
3127,9734;0,0268068
3128,9375;0,026917
3129,9019;0,0270183
3130,8660;0,0271083
3131,8303;0,0271906
3132,7944;0,0272727
3133,7588;0,0273615
3134,7229;0,0274587
3135,6873;0,02756
3136,6514;0,027657
3137,6157;0,0277429
3138,5798;0,0278165
3139,5442;0,0278838
3140,5083;0,0279547
3141,4727;0,0280382
3142,4368;0,0281379
3143,4011;0,0282511
3144,3652;0,0283713
3145,3296;0,0284911
3146,2937;0,028605
3147,2581;0,0287101
3148,2222;0,0288054
3149,1865;0,028892
3150,1506;0,0289726
3151,1150;0,0290515
3152,0791;0,0291334
3153,0435;0,0292214
3154,0076;0,0293147
3154,9719;0,0294091
3155,9360;0,0294992
3156,9004;0,0295819
3157,8645;0,0296587
3158,8289;0,0297358
3159,7930;0,0298206
3160,7573;0,029918
3161,7214;0,0300283
3162,6858;0,0301473
3163,6499;0,0302689
3164,6143;0,0303874
3165,5784;0,0304987
3166,5427;0,0306006
3167,5068;0,0306924
3168,4712;0,0307755
3169,4353;0,030842
3170,3997;0,0309233
3171,3638;0,0310137
3172,3281;0,0311158
3173,2922;0,0312259
3174,2566;0,0313351
3175,2207;0,0314336
3176,1851;0,0315166
3177,1492;0,0315876
3178,1135;0,0316575
3179,0776;0,0317385
3180,0420;0,031838
3181,0061;0,0319543
3181,9705;0,0320781
3182,9346;0,0321979
3183,8989;0,0323056
3184,8630;0,0323998
3185,8274;0,0324856
3186,7915;0,0325702
3187,7559;0,0326592
3188,7200;0,0327542
3189,6843;0,0328538
3190,6484;0,0329551
3191,6128;0,0330562
3192,5769;0,0331559
3193,5413;0,0332534
3194,5054;0,0333474
3195,4697;0,033436
3196,4338;0,0335173
3197,3982;0,0335901
3198,3623;0,0336554
3199,3267;0,0337171
3200,2908;0,0337818
3201,2551;0,0338573
3202,2192;0,0339501
3203,1836;0,0340617
3204,1477;0,0341868
3205,1121;0,0343151
3206,0762;0,0344352
3207,0405;0,0345401
3208,0046;0,0346295
3208,9690;0,0347093
3209,9331;0,0347867
3210,8975;0,0348669
3211,8616;0,0349507
3212,8259;0,0350365
3213,7900;0,035122
3214,7544;0,035206
3215,7185;0,0352883
3216,6829;0,0353692
3217,6470;0,0354496
3218,6113;0,0355319
3219,5754;0,0356196
3220,5398;0,0357158
3221,5039;0,0358209
3222,4683;0,0359307
3223,4324;0,0360383
3224,3967;0,0361371
3225,3608;0,036225
3226,3252;0,0363049
3227,2893;0,0363828
3228,2537;0,0364642
3229,2178;0,0365508
3230,1821;0,0366398
3231,1462;0,0367263
3232,1106;0,0368067
3233,0747;0,0368808
3234,0391;0,0369519
3235,0032;0,0370258
3235,9675;0,037108
3236,9316;0,0372014
3237,8960;0,037305
3238,8601;0,0374139
3239,8245;0,037521
3240,7886;0,0376199
3241,7529;0,0377075
3242,7170;0,0377849
3243,6814;0,0378573
3244,6455;0,0379319
3245,6099;0,0380151
3246,5740;0,038111
3247,5383;0,0382201
3248,5024;0,0383401
3249,4668;0,0384666
3250,4309;0,0385941
3251,3953;0,0387167
3252,3594;0,0388294
3253,3237;0,0389286
3254,2878;0,0390143
3255,2522;0,0390901
3256,2163;0,0391628
3257,1807;0,039241
3258,1448;0,0393318
3259,1091;0,0394384
3260,0732;0,0395588
3261,0376;0,0396861
3262,0017;0,0398123
3262,9661;0,0399318
3263,9302;0,0400436
3264,8945;0,0401511
3265,8586;0,0402587
3266,8230;0,0403676
3267,7871;0,0404738
3268,7515;0,0405694
3269,7156;0,0406462
3270,6799;0,0406998
3271,6440;0,0407324
3272,6084;0,0407524
3273,5725;0,0407708
3274,5369;0,0407976
3275,5010;0,040838
3276,4653;0,0408911
3277,4294;0,0409511
3278,3938;0,0410097
3279,3579;0,0410595
3280,3223;0,041096
3281,2864;0,0411181
3282,2507;0,0411284
3283,2148;0,0411315
3284,1792;0,041133
3285,1433;0,0411386
3286,1077;0,0411528
3287,0718;0,0411784
3288,0361;0,0412147
3289,0002;0,0412571
3289,9646;0,0412974
3290,9287;0,0413268
3291,8931;0,0413398
3292,8572;0,0413363
3293,8215;0,041322
3294,7856;0,0413047
3295,7500;0,0412903
3296,7141;0,0412801
3297,6785;0,0412713
3298,6426;0,0412604
3299,6069;0,0412467
3300,5710;0,0412337
3301,5354;0,0412265
3302,4995;0,0412279
3303,4639;0,041235
3304,4280;0,04124
3305,3923;0,0412336
3306,3564;0,0412111
3307,3208;0,041175
3308,2849;0,0411348
3309,2493;0,0411027
3310,2134;0,0410879
3311,1777;0,0410936
3312,1418;0,0411165
3313,1062;0,0411497
3314,0703;0,0411865
3315,0347;0,0412229
3315,9988;0,0412587
3316,9631;0,0412962
3317,9272;0,0413387
3318,8916;0,0413875
3319,8557;0,0414415
3320,8201;0,0414971
3321,7842;0,0415506
3322,7485;0,0415993
3323,7126;0,0416429
3324,6770;0,0416831
3325,6411;0,041722
3326,6055;0,0417617
3327,5696;0,0418039
3328,5339;0,0418497
3329,4980;0,0418994
3330,4624;0,0419508
3331,4265;0,0419989
3332,3909;0,0420366
3333,3550;0,0420577
3334,3193;0,0420595
3335,2834;0,0420448
3336,2478;0,0420194
3337,2119;0,0419883
3338,1763;0,0419522
3339,1404;0,0419082
3340,1047;0,0418528
3341,0688;0,0417855
3342,0332;0,0417097
3342,9973;0,0416301
3343,9617;0,0415493
3344,9258;0,0414659
3345,8901;0,0413774
3346,8542;0,0412835
3347,8186;0,0411878
3348,7827;0,0410957
3349,7471;0,0410098
3350,7112;0,0409268
3351,6755;0,0408386
3352,6396;0,0407381
3353,6040;0,040624
3354,5681;0,0405027
3355,5325;0,0403844
3356,4966;0,0402777
3357,4609;0,0401853
3358,4250;0,0401045
3359,3894;0,0400305
3360,3535;0,0399606
3361,3179;0,0398947
3362,2820;0,0398333
3363,2463;0,0397743
3364,2104;0,039712
3365,1748;0,0396391
3366,1389;0,0395501
3367,1033;0,0394453
3368,0674;0,0393313
3369,0317;0,0392184
3369,9958;0,0391157
3370,9602;0,0390276
3371,9243;0,038952
3372,8887;0,0388824
3373,8528;0,038811
3374,8171;0,038733
3375,7813;0,0386485
3376,7456;0,0385616
3377,7097;0,038477
3378,6741;0,0383968
3379,6382;0,0383183
3380,6025;0,038236
3381,5667;0,038145
3382,5310;0,0380454
3383,4951;0,0379435
3384,4595;0,0378493
3385,4236;0,0377711
3386,3879;0,0377106
3387,3521;0,0376624
3388,3164;0,037617
3389,2805;0,0375657
3390,2449;0,0375039
3391,2090;0,0374317
3392,1733;0,0373515
3393,1375;0,0372663
3394,1018;0,0371791
3395,0659;0,0370935
3396,0303;0,0370134
3396,9944;0,0369414
3397,9587;0,0368761
3398,9229;0,0368119
3399,8872;0,0367408
3400,8513;0,0366575
3401,8157;0,0365618
3402,7798;0,036459
3403,7441;0,0363554
3404,7083;0,0362548
3405,6726;0,0361572
3406,6367;0,0360597
3407,6011;0,0359598
3408,5652;0,035857
3409,5295;0,0357526
3410,4937;0,0356489
3411,4580;0,0355479
3412,4221;0,035451
3413,3865;0,0353585
3414,3506;0,0352679
3415,3149;0,035174
3416,2791;0,0350698
3417,2434;0,0349497
3418,2075;0,0348131
3419,1719;0,0346664
3420,1360;0,034521
3421,1003;0,0343888
3422,0645;0,034276
3423,0288;0,0341809
3423,9929;0,0340948
3424,9573;0,0340066
3425,9214;0,0339065
3426,8857;0,0337895
3427,8499;0,033657
3428,8142;0,0335156
3429,7783;0,0333746
3430,7427;0,0332412
3431,7068;0,033118
3432,6711;0,0330028
3433,6353;0,0328913
3434,5996;0,0327796
3435,5637;0,0326658
3436,5281;0,0325493
3437,4922;0,0324304
3438,4565;0,0323099
3439,4207;0,0321905
3440,3850;0,0320753
3441,3491;0,0319662
3442,3135;0,03186
3443,2776;0,0317479
3444,2419;0,0316202
3445,2061;0,0314737
3446,1704;0,0313165
3447,1345;0,031166
3448,0989;0,0310379
3449,0630;0,0309353
3450,0273;0,0308465
3450,9915;0,030752
3451,9558;0,0306363
3452,9199;0,0304954
3453,8843;0,030338
3454,8484;0,0301793
3455,8127;0,0300321
3456,7769;0,0299013
3457,7412;0,0297838
3458,7053;0,0296726
3459,6697;0,0295614
3460,6338;0,0294463
3461,5981;0,0293253
3462,5623;0,0291969
3463,5266;0,0290604
3464,4907;0,0289166
3465,4551;0,0287688
3466,4192;0,0286233
3467,3835;0,0284867
3468,3477;0,0283626
3469,3120;0,0282493
3470,2761;0,0281402
3471,2405;0,028028
3472,2046;0,0279093
3473,1689;0,027788
3474,1331;0,0276719
3475,0974;0,0275669
3476,0615;0,0274703
3477,0259;0,0273707
3477,9900;0,0272552
3478,9543;0,0271178
3479,9185;0,0269659
3480,8828;0,0268165
3481,8469;0,0266855
3482,8113;0,026576
3483,7754;0,0264763
3484,7397;0,026368
3485,7039;0,0262391
3486,6682;0,0260916
3487,6323;0,0259405
3488,5967;0,0258037
3489,5608;0,0256904
3490,5251;0,0255949
3491,4893;0,0255012
3492,4536;0,0253934
3493,4177;0,0252662
3494,3821;0,025129
3495,3462;0,0250014
3496,3105;0,0248997
3497,2747;0,0248249
3498,2390;0,0247591
3499,2031;0,0246746
3500,1675;0,0245498
3501,1316;0,0243846
3502,0959;0,024204
3503,0601;0,0240454
3504,0244;0,0239327
3504,9885;0,0238593
3505,9529;0,0237941
3506,9170;0,0237023
3507,8813;0,0235662
3508,8455;0,0233949
3509,8098;0,0232173
3510,7739;0,0230629
3511,7383;0,0229432
3512,7024;0,0228494
3513,6667;0,022764
3514,6309;0,0226758
3515,5952;0,022586
3516,5593;0,0225027
3517,5237;0,0224315
3518,4878;0,0223674
3519,4521;0,0222973
3520,4163;0,0222082
3521,3806;0,0220958
3522,3447;0,0219665
3523,3091;0,0218312
3524,2732;0,0216966
3525,2375;0,0215609
3526,2017;0,021418
3527,1660;0,0212675
3528,1301;0,0211193
3529,0945;0,020989
3530,0586;0,0208866
3531,0229;0,020808
3531,9871;0,0207363
3532,9514;0,0206506
3533,9155;0,020537
3534,8799;0,0203971
3535,8440;0,0202493
3536,8083;0,0201216
3537,7725;0,0200373
3538,7368;0,0200029
3539,7009;0,0200033
3540,6653;0,0200065
3541,6294;0,0199738
3542,5938;0,0198737
3543,5579;0,0196983
3544,5222;0,0194753
3545,4863;0,0192588
3546,4507;0,0190961
3547,4148;0,0189965
3548,3792;0,0189287
3549,3433;0,0188461
3550,3076;0,0187165
3551,2717;0,0185414
3552,2361;0,0183562
3553,2002;0,0182081
3554,1646;0,0181237
3555,1287;0,0180926
3556,0930;0,0180798
3557,0571;0,0180519
3558,0215;0,0179997
3558,9856;0,0179433
3559,9500;0,0179173
3560,9141;0,0179411
3561,8784;0,0179962
3562,8425;0,0180253
3563,8069;0,0179507
3564,7710;0,0177116
3565,7354;0,0173168
3566,6995;0,0168755
3567,6638;0,0165352
3568,6279;0,0163652
3569,5923;0,0163263
3570,5564;0,016336
3571,5208;0,0163291
3572,4849;0,0162785
3573,4492;0,0161901
3574,4133;0,0160877
3575,3777;0,0159928
3576,3418;0,0159123
3577,3062;0,0158428
3578,2703;0,0157851
3579,2346;0,0157536
3580,1987;0,0157681
3581,1631;0,0158334
3582,1272;0,0159241
3583,0916;0,0159845
3584,0557;0,0159455
3585,0200;0,0157565
3585,9841;0,015432
3586,9485;0,01508
3587,9126;0,014844
3588,8770;0,0147874
3589,8411;0,0148596
3590,8054;0,0149598
3591,7695;0,0150036
3592,7339;0,0149519
3593,6980;0,014818
3594,6624;0,014654
3595,6265;0,0145119
3596,5908;0,0144057
3597,5549;0,0143116
3598,5193;0,0142014
3599,4834;0,0140757
3600,4478;0,0139676
3601,4119;0,0139148
3602,3762;0,0139252
3603,3403;0,0139694
3604,3047;0,0139991
3605,2688;0,0139733
3606,2332;0,0138786
3607,1973;0,0137351
3608,1616;0,0135798
3609,1257;0,0134382
3610,0901;0,0133111
3611,0542;0,0131912
3612,0186;0,0130846
3612,9827;0,0130115
3613,9470;0,0129848
3614,9111;0,0129867
3615,8755;0,0129667
3616,8396;0,0128666
3617,8040;0,0126648
3618,7681;0,0124144
3619,7324;0,0122295
3620,6965;0,0122064
3621,6609;0,0123581
3622,6250;0,0126252
3623,5894;0,0129203
3624,5535;0,0131509
3625,5178;0,0132201
3626,4819;0,0130393
3627,4463;0,012592
3628,4104;0,012018
3629,3748;0,0115524
3630,3389;0,0113166
3631,3032;0,0112566
3632,2673;0,0112613
3633,2317;0,0112545
3634,1958;0,0112119
3635,1602;0,0111441
3636,1243;0,0110726
3637,0886;0,0110108
3638,0527;0,0109598
3639,0171;0,0109198
3639,9812;0,010904
3640,9456;0,0109384
3641,9097;0,0110467
3642,8740;0,0112297
3643,8381;0,0114533
3644,8025;0,0116428
3645,7666;0,011682
3646,7310;0,0114358
3647,6951;0,0108538
3648,6594;0,0101338
3649,6235;0,00963922
3650,5879;0,00952707
3651,5520;0,00966705
3652,5164;0,00986068
3653,4805;0,00996873
3654,4448;0,00992762
3655,4089;0,00975207
3656,3733;0,00952853
3657,3374;0,00936229
3658,3018;0,00930313
3659,2659;0,00932802
3660,2302;0,00938754
3661,1943;0,00945556
3662,1587;0,00954396
3663,1228;0,00968117
3664,0872;0,00987576
3665,0513;0,0100947
3666,0156;0,0102708
3666,9797;0,0103329
3667,9441;0,0102549
3668,9082;0,0101009
3669,8726;0,00999664
3670,8367;0,0100115
3671,8010;0,0100891
3672,7651;0,0100973
3673,7295;0,00992118
3674,6936;0,00955222
3675,6580;0,00913386
3676,6221;0,00885664
3677,5864;0,00878428
3678,5505;0,0088467
3679,5149;0,00895532
3680,4790;0,00907108
3681,4434;0,0092035
3682,4075;0,00937966
3683,3718;0,0096095
3684,3359;0,00986483
3685,3003;0,0100784
3686,2644;0,01016
3687,2288;0,0100338
3688,1929;0,00970759
3689,1572;0,00931841
3690,1213;0,00904778
3691,0857;0,00896951
3692,0498;0,0090347
3693,0142;0,00916493
3693,9783;0,00931091
3694,9426;0,00945467
3695,9067;0,00959022
3696,8711;0,00970552
3697,8352;0,00977597
3698,7996;0,00977345
3699,7637;0,00968854
3700,7280;0,00955348
3701,6921;0,00944117
3702,6565;0,00942582
3703,6206;0,00953559
3704,5850;0,00974266
3705,5491;0,00998628
3706,5134;0,0101937
3707,4775;0,0102864
3708,4419;0,0101889
3709,4060;0,00986777
3710,3704;0,0093979
3711,3345;0,00896391
3712,2988;0,0087285
3713,2629;0,00871924
3714,2273;0,00886508
3715,1914;0,00908089
3716,1558;0,00930542
3717,1199;0,0095037
3718,0842;0,00966149
3719,0483;0,0097796
3720,0127;0,00986538
3720,9768;0,0099217
3721,9412;0,00994201
3722,9053;0,00991917
3723,8696;0,00986303
3724,8337;0,00980933
3725,7981;0,00980571
3726,7622;0,00988387
3727,7266;0,0100436
3728,6907;0,0102575
3729,6550;0,0104824
3730,6191;0,0106633
3731,5835;0,0107321
3732,5476;0,0106163
3733,5120;0,010282
3734,4761;0,00980628
3735,4404;0,00938103
3736,4045;0,00918112
3737,3689;0,00924493
3738,3330;0,00949847
3739,2974;0,00983198
3740,2615;0,0101362
3741,2258;0,0103081
3742,1899;0,0102715
3743,1543;0,0100417
3744,1184;0,00977509
3745,0828;0,00966828
3746,0469;0,00976924
3747,0112;0,00995213
3747,9753;0,0100284
3748,9397;0,00984784
3749,9038;0,00940101
3750,8682;0,00889204
3751,8323;0,00859453
3752,7966;0,00859452
3753,7607;0,00877984
3754,7251;0,00899459
3755,6892;0,00912446
3756,6536;0,00911504
3757,6177;0,00898307
3758,5820;0,00881366
3759,5461;0,00870944
3760,5105;0,00872044
3761,4746;0,0088256
3762,4390;0,00896837
3763,4031;0,00909526
3764,3674;0,00917297
3765,3315;0,00918867
3766,2959;0,00914163
3767,2600;0,00903499
3768,2244;0,00887773
3769,1885;0,00869726
3770,1528;0,00854517
3771,1169;0,0084783
3772,0813;0,00852556
3773,0454;0,00867112
3774,0098;0,00886382
3774,9739;0,0090378
3775,9382;0,00913312
3776,9023;0,00911809
3777,8667;0,00901008
3778,8308;0,00887196
3779,7952;0,00877025
3780,7593;0,00872965
3781,7236;0,00872935
3782,6877;0,00873299
3783,6521;0,00871703
3784,6162;0,00868101
3785,5806;0,00864155
3786,5447;0,00861928
3787,5090;0,00862869
3788,4731;0,00867543
3789,4375;0,00875716
3790,4016;0,00886391
3791,3660;0,00897915
3792,3301;0,00908539
3793,2944;0,00917452
3794,2585;0,00925582
3795,2229;0,00935059
3796,1870;0,00946976
3797,1514;0,00959043
3798,1155;0,00965481
3799,0798;0,00960227
3800,0439;0,00942354
3801,0083;0,00919314
3801,9724;0,00902034
3802,9368;0,00894986
3803,9009;0,00893006
3804,8652;0,00887225
3805,8293;0,00873021
3806,7937;0,00854859
3807,7578;0,0084412
3808,7222;0,00849855
3809,6863;0,00871807
3810,6506;0,00902302
3811,6147;0,00931753
3812,5791;0,00952373
3813,5432;0,00960644
3814,5076;0,00959324
3815,4717;0,00955883
3816,4360;0,00955536
3817,4001;0,00955538
3818,3645;0,00947683
3819,3286;0,00926401
3820,2930;0,00895758
3821,2571;0,0086855
3822,2214;0,0085587
3823,1855;0,00858735
3824,1499;0,00870651
3825,1140;0,00884376
3826,0784;0,00895586
3827,0425;0,00903297
3828,0068;0,0090887
3828,9709;0,00914573
3829,9353;0,00922399
3830,8994;0,00933453
3831,8638;0,00947634
3832,8279;0,00963238
3833,7922;0,00976638
3834,7563;0,0098277
3835,7207;0,00977025
3836,6848;0,00958371
3837,6492;0,00931709
3838,6133;0,00905927
3839,5776;0,00887698
3840,5417;0,00877471
3841,5061;0,00871707
3842,4702;0,00867667
3843,4346;0,00866111
3844,3987;0,00870756
3845,3630;0,00885644
3846,3271;0,00912545
3847,2915;0,00949881
3848,2556;0,00992717
3849,2200;0,0103232
3850,1841;0,010549
3851,1484;0,0104275
3852,1125;0,00986382
3853,0769;0,00906577
3854,0410;0,00846632
3855,0054;0,00827824
3855,9695;0,00840444
3856,9338;0,00868081
3857,8979;0,00899367
3858,8623;0,0092706
3859,8264;0,00945764
3860,7908;0,0095198
3861,7549;0,00946277
3862,7192;0,0093492
3863,6833;0,00927119
3864,6477;0,00928638
3865,6118;0,00938268
3866,5762;0,00949891
3867,5403;0,0095649
3868,5046;0,00953183
3869,4688;0,00939153
3870,4331;0,00918232
3871,3972;0,00897219
3872,3616;0,00882551
3873,3257;0,0087771
3874,2900;0,00882646
3875,2542;0,00894539
3876,2185;0,00909001
3877,1826;0,00921482
3878,1470;0,00928896
3879,1111;0,00930988
3880,0754;0,00930114
3881,0396;0,00928706
3882,0039;0,00926649
3882,9680;0,00921835
3883,9324;0,00913588
3884,8965;0,00905046
3885,8608;0,00901276
3886,8250;0,00904472
3887,7893;0,0091129
3888,7534;0,00914844
3889,7178;0,00909567
3890,6819;0,0089626
3891,6462;0,00883561
3892,6104;0,00882127
3893,5747;0,00895962
3894,5388;0,00920566
3895,5032;0,00947682
3896,4673;0,00969795
3897,4316;0,00982183
3898,3958;0,00983634
3899,3601;0,00975893
3900,3242;0,00961432
3901,2886;0,0094149
3902,2527;0,00917061
3903,2170;0,00891498
3904,1812;0,00870435
3905,1455;0,0085828
3906,1096;0,00855471
3907,0740;0,00859267
3908,0381;0,00866285
3909,0024;0,0087435
3909,9666;0,00882959
3910,9309;0,00892611
3911,8950;0,00903523
3912,8594;0,00914511
3913,8235;0,0092289
3914,7878;0,00925664
3915,7520;0,00921615
3916,7163;0,00912942
3917,6804;0,00904563
3918,6448;0,00900809
3919,6089;0,00902409
3920,5732;0,00906495
3921,5374;0,00908993
3922,5017;0,0090735
3923,4658;0,00902243
3924,4302;0,00897205
3925,3943;0,00896001
3926,3586;0,0089974
3927,3228;0,00906177
3928,2871;0,00911254
3929,2512;0,00911411
3930,2156;0,00905546
3931,1797;0,00895824
3932,1440;0,00886453
3933,1082;0,00881064
3934,0725;0,00880951
3935,0366;0,00885321
3936,0010;0,00892425
3936,9651;0,00900283
3937,9294;0,00906925
3938,8936;0,00910646
3939,8579;0,00910632
3940,8220;0,00907666
3941,7864;0,00904114
3942,7505;0,0090263
3943,7148;0,00904299
3944,6790;0,00907856
3945,6433;0,00910598
3946,6074;0,00910156
3947,5718;0,00905951
3948,5359;0,00899538
3949,5002;0,00893545
3950,4644;0,00889905
3951,4287;0,00888848
3952,3928;0,00889404
3953,3572;0,00890581
3954,3213;0,00892091
3955,2856;0,00894202
3956,2498;0,0089705
3957,2141;0,00900074
3958,1782;0,00902122
3959,1426;0,00902156
3960,1067;0,00900035
3961,0710;0,00896746
3962,0352;0,00893887
3962,9995;0,00892735
3963,9636;0,00893564
3964,9280;0,00895632
3965,8921;0,00897746
3966,8564;0,00898931
3967,8206;0,00898852
3968,7849;0,00897828
3969,7490;0,00896507
3970,7134;0,00895452
3971,6775;0,00894897
3972,6418;0,00894774
3973,6060;0,00894895
3974,5703;0,00895113
3975,5344;0,00895334
3976,4988;0,00895452
3977,4629;0,00895298
3978,4272;0,0089471
3979,3914;0,00893675
3980,3557;0,00892435
3981,3198;0,00891426
3982,2842;0,00891066
3983,2483;0,00891503
3984,2126;0,00892514
3985,1768;0,00893644
3986,1411;0,00894498
3987,1052;0,00894989
3988,0696;0,00895367
3989,0337;0,00895992
3989,9980;0,00897001
3990,9622;0,00898115
3991,9265;0,00898746
3992,8906;0,00898391
3993,8550;0,00897019
3994,8191;0,00895149
3995,7834;0,00893557
3996,7476;0,00892784
3997,7119;0,00892832
3998,6760;0,00893272
3999,6404;0,0089367
4000,6045;0,00888692

##### Extended Information
[Comments]
Sample name
Comment
Username
Division
Organization;UNIVERSIDAD INDUSTRIAL DE SANTANDER

[Detailed Information]
Creation date;29/01/2025 11:36 a.m.

Data array type;Linear data array
Horizontal axis;Wavenumber [cm-1]
Vertical axis;Abs
Start;399,193 cm-1
End;4000,6 cm-1
Data interval;0,964233 cm-1
Data points;3736    

[Measurement Information]
Model name;FT/IR-4X1typeA
Serial No.;A035162111

Accessory;ATR PRO 4X
Accessory S/N;A021162126
Incident angle;45 deg

Measurement date;29/01/2025 11:36 a.m.

Light source;Standard
Detector;TGS
Accumulation;Auto (73)
Resolution;4 cm-1
Zero filling;On
Apodization;Cosine
Gain;Auto (8)
Aperture;Auto (7 mm)
Scan speed;Auto (2 mm/sec)
Filter;Auto (12800 Hz)

