TITLE;
DATA TYPE;INFRARED SPECTRUM
ORIGIN;JASCO
OWNER;
DATE;25/03/19
TIME;14:36:04
SPECTROMETER/DATA SYSTEM;
LOCALE;9226
RESOLUTION;
DELTAX;0,964233
XUNITS;1/CM
YUNITS;ABSORBANCE
FIRSTX;  399,1927
LASTX; 4000,6047
NPOINTS;    3736
FIRSTY;     0,26537
MAXY;     0,32392
MINY;    -0,00340
XYDATA
399,1927;0,265366
400,1569;0,263854
401,1211;0,261941
402,0854;0,260164
403,0496;0,258728
404,0138;0,257639
404,9781;0,256861
405,9423;0,256429
406,9065;0,256473
407,8708;0,257126
408,8350;0,258396
409,7992;0,260075
410,7635;0,261768
411,7277;0,26306
412,6919;0,263747
413,6562;0,26395
414,6204;0,264026
415,5846;0,264407
416,5489;0,265482
417,5131;0,267432
418,4773;0,26996
419,4416;0,272274
420,4058;0,273732
421,3700;0,274368
422,3343;0,274578
423,2985;0,274648
424,2627;0,274629
425,2270;0,274434
426,1912;0,273996
427,1554;0,273386
428,1197;0,272832
429,0839;0,27261
430,0481;0,272894
431,0124;0,273649
431,9766;0,274612
432,9408;0,275405
433,9051;0,275719
434,8693;0,27546
435,8335;0,274765
436,7978;0,27387
437,7620;0,272955
438,7262;0,272072
439,6905;0,271224
440,6547;0,270476
441,6189;0,269984
442,5832;0,269895
443,5474;0,270172
444,5116;0,270528
445,4759;0,270589
446,4401;0,270148
447,4043;0,269286
448,3686;0,268289
449,3328;0,267467
450,2970;0,266988
451,2613;0,266832
452,2255;0,266861
453,1897;0,266941
454,1540;0,267001
455,1182;0,267014
456,0824;0,26695
457,0467;0,266773
458,0109;0,266505
458,9751;0,266265
459,9394;0,266205
460,9036;0,266385
461,8678;0,266709
462,8321;0,266981
463,7963;0,266991
464,7605;0,266614
465,7248;0,265865
466,6890;0,264888
467,6532;0,263879
468,6175;0,263019
469,5817;0,262456
470,5459;0,262303
471,5102;0,262607
472,4744;0,263279
473,4386;0,264077
474,4029;0,264724
475,3671;0,265054
476,3313;0,265073
477,2956;0,264905
478,2598;0,264693
479,2240;0,264519
480,1883;0,264383
481,1525;0,264228
482,1167;0,264013
483,0810;0,263755
484,0452;0,263543
485,0094;0,26348
485,9737;0,263632
486,9379;0,263994
487,9021;0,264507
488,8664;0,265097
489,8306;0,265681
490,7948;0,266173
491,7591;0,266485
492,7233;0,266553
493,6875;0,266379
494,6518;0,266055
495,6160;0,265743
496,5802;0,265615
497,5445;0,265783
498,5087;0,266246
499,4729;0,266887
500,4372;0,267516
501,4014;0,267962
502,3656;0,268159
503,3299;0,268183
504,2941;0,268188
505,2583;0,268305
506,2226;0,268587
507,1868;0,269011
508,1510;0,269529
509,1153;0,270105
510,0795;0,270734
511,0437;0,271426
512,0080;0,272187
512,9722;0,273008
513,9365;0,273862
514,9007;0,274713
515,8649;0,275491
516,8292;0,276095
517,7934;0,276408
518,7576;0,276361
519,7219;0,275994
520,6861;0,275455
521,6503;0,274935
522,6146;0,274596
523,5788;0,27452
524,5430;0,274681
525,5073;0,274949
526,4715;0,275137
527,4357;0,275093
528,4000;0,274773
529,3642;0,274241
530,3284;0,273612
531,2927;0,272993
532,2569;0,272445
533,2211;0,27198
534,1854;0,271581
535,1496;0,271229
536,1138;0,270916
537,0781;0,270637
538,0423;0,270375
539,0065;0,2701
539,9708;0,269798
540,9350;0,269503
541,8992;0,269299
542,8635;0,269294
543,8277;0,26956
544,7919;0,270089
545,7562;0,270782
546,7204;0,271505
547,6846;0,272147
548,6489;0,272673
549,6131;0,27311
550,5773;0,273508
551,5416;0,273902
552,5058;0,274296
553,4700;0,274673
554,4343;0,275012
555,3985;0,275281
556,3627;0,27542
557,3270;0,27533
558,2912;0,274882
559,2554;0,273959
560,2197;0,272523
561,1839;0,270653
562,1481;0,268546
563,1124;0,266464
564,0766;0,264638
565,0408;0,263189
566,0051;0,262102
566,9693;0,26126
567,9335;0,260515
568,8978;0,259765
569,8620;0,258997
570,8262;0,258262
571,7905;0,257624
572,7547;0,257112
573,7189;0,256708
574,6832;0,256355
575,6474;0,255999
576,6116;0,255608
577,5759;0,255189
578,5401;0,254769
579,5043;0,25438
580,4686;0,254029
581,4328;0,253694
582,3970;0,253331
583,3613;0,252903
584,3255;0,252404
585,2897;0,251881
586,2540;0,251422
587,2182;0,251118
588,1824;0,251019
589,1467;0,251105
590,1109;0,251283
591,0751;0,251418
592,0394;0,251382
593,0036;0,251109
593,9678;0,250609
594,9321;0,249953
595,8963;0,24923
596,8605;0,248517
597,8248;0,247864
598,7890;0,247294
599,7532;0,246801
600,7175;0,24636
601,6817;0,245926
602,6459;0,245459
603,6102;0,244935
604,5744;0,244355
605,5386;0,243747
606,5029;0,243131
607,4671;0,242497
608,4313;0,241791
609,3956;0,240938
610,3598;0,239904
611,3240;0,238745
612,2883;0,237612
613,2525;0,236687
614,2167;0,236074
615,1810;0,23571
616,1452;0,235348
617,1094;0,234655
618,0737;0,233389
619,0379;0,231539
620,0021;0,229326
620,9664;0,22707
621,9306;0,225034
622,8948;0,223347
623,8591;0,222007
624,8233;0,220869
625,7875;0,219957
626,7518;0,219188
627,7160;0,218497
628,6802;0,217817
629,6445;0,217096
630,6087;0,216305
631,5729;0,215463
632,5372;0,214623
633,5014;0,213841
634,4656;0,213147
635,4299;0,212536
636,3941;0,211981
637,3583;0,211456
638,3226;0,210951
639,2868;0,21046
640,2510;0,20997
641,2153;0,209462
642,1795;0,208928
643,1437;0,208387
644,1080;0,207879
645,0722;0,207447
646,0364;0,207102
647,0007;0,206823
647,9649;0,206565
648,9291;0,206293
649,8934;0,206011
650,8576;0,205755
651,8218;0,205585
652,7861;0,205552
653,7503;0,205687
654,7145;0,205985
655,6788;0,20639
656,6430;0,206819
657,6072;0,207193
658,5715;0,207471
659,5357;0,207633
660,4999;0,207633
661,4642;0,207352
662,4284;0,206596
663,3926;0,205162
664,3569;0,202982
665,3211;0,200348
666,2853;0,198043
667,2496;0,196983
668,2138;0,197189
669,1780;0,197606
670,1423;0,197579
671,1065;0,197078
672,0707;0,195997
673,0350;0,194232
673,9992;0,191929
674,9634;0,189436
675,9277;0,187089
676,8919;0,185029
677,8561;0,183196
678,8204;0,181458
679,7846;0,179759
680,7488;0,178136
681,7131;0,176669
682,6773;0,1754
683,6415;0,174314
684,6058;0,173364
685,5700;0,172513
686,5342;0,171739
687,4985;0,171032
688,4627;0,170392
689,4269;0,1698
690,3912;0,169242
691,3554;0,168707
692,3196;0,168183
693,2839;0,167656
694,2481;0,167118
695,2123;0,166572
696,1766;0,166031
697,1408;0,1655
698,1050;0,16497
699,0693;0,164413
700,0335;0,163797
700,9977;0,163109
701,9620;0,162359
702,9262;0,161576
703,8904;0,160768
704,8547;0,159961
705,8189;0,159155
706,7831;0,158337
707,7474;0,157484
708,7116;0,156579
709,6758;0,155609
710,6401;0,154572
711,6043;0,153477
712,5685;0,152343
713,5328;0,151208
714,4970;0,150125
715,4612;0,147855
716,4255;0,147278
717,3897;0,146891
718,3539;0,14651
719,3182;0,145881
720,2824;0,144799
721,2466;0,143228
722,2109;0,141322
723,1751;0,139338
724,1393;0,1375
725,1036;0,135921
726,0678;0,134588
727,0320;0,13342
727,9963;0,13232
728,9605;0,13123
729,9247;0,130138
730,8890;0,129067
731,8532;0,128053
732,8174;0,127125
733,7817;0,126294
734,7459;0,125558
735,7101;0,124905
736,6744;0,124317
737,6386;0,123783
738,6028;0,12329
739,5671;0,122824
740,5313;0,12236
741,4955;0,121867
742,4598;0,121314
743,4240;0,12069
744,3882;0,120007
745,3525;0,1193
746,3167;0,118607
747,2809;0,117955
748,2452;0,117345
749,2094;0,116762
750,1736;0,116183
751,1379;0,115593
752,1021;0,114988
753,0663;0,114374
754,0306;0,113758
754,9948;0,113142
755,9590;0,112526
756,9233;0,111908
757,8875;0,111296
758,8517;0,110697
759,8160;0,11012
760,7802;0,109572
761,7444;0,10905
762,7087;0,108548
763,6729;0,108052
764,6371;0,107549
765,6014;0,107028
766,5656;0,106486
767,5298;0,105932
768,4941;0,105378
769,4583;0,10484
770,4225;0,104323
771,3868;0,10382
772,3510;0,103316
773,3152;0,102801
774,2795;0,10228
775,2437;0,101771
776,2079;0,101298
777,1722;0,100875
778,1364;0,100491
779,1006;0,100116
780,0649;0,0997123
781,0291;0,0992554
781,9933;0,0987452
782,9576;0,0982037
783,9218;0,0976629
784,8860;0,0971501
785,8503;0,0966789
786,8145;0,0962482
787,7787;0,095848
788,7430;0,0954662
789,7072;0,0950927
790,6714;0,0947216
791,6357;0,0943505
792,5999;0,0939805
793,5641;0,0936143
794,5284;0,0932537
795,4926;0,0928983
796,4568;0,0925448
797,4211;0,09219
798,3853;0,0918348
799,3495;0,0914865
800,3138;0,0911566
801,2780;0,090856
802,2422;0,0905877
803,2065;0,0903443
804,1707;0,0901093
805,1349;0,0898636
806,0992;0,0895937
807,0634;0,0892962
808,0276;0,0889797
808,9919;0,0886599
809,9561;0,0883546
810,9203;0,0880773
811,8846;0,0878346
812,8488;0,0876269
813,8130;0,0874499
814,7773;0,0872963
815,7415;0,0871571
816,7057;0,0870221
817,6700;0,0868831
818,6342;0,0867368
819,5984;0,0865875
820,5627;0,0864445
821,5269;0,0863156
822,4911;0,0862013
823,4554;0,0860926
824,4196;0,0859765
825,3839;0,0858436
826,3481;0,0856927
827,3123;0,0855278
828,2766;0,0853508
829,2408;0,0851559
830,2050;0,0849323
831,1693;0,0846725
832,1335;0,0843804
833,0977;0,0840707
834,0620;0,0837601
835,0262;0,0834566
835,9904;0,0831553
836,9547;0,0828446
837,9189;0,0825173
838,8831;0,0821769
839,8474;0,0818354
840,8116;0,0815037
841,7758;0,0811848
842,7401;0,0808739
843,7043;0,0805661
844,6685;0,0802648
845,6328;0,0799827
846,5970;0,0797358
847,5612;0,0795337
848,5255;0,0793743
849,4897;0,0792452
850,4539;0,079131
851,4182;0,0790196
852,3824;0,0789059
853,3466;0,0787897
854,3109;0,0786723
855,2751;0,0785542
856,2393;0,0784356
857,2036;0,0783199
858,1678;0,078216
859,1320;0,0781375
860,0963;0,0780976
861,0605;0,078101
862,0247;0,0781399
862,9890;0,0781969
863,9532;0,0782561
864,9174;0,0783141
865,8817;0,0783844
866,8459;0,0784897
867,8101;0,0786473
868,7744;0,0788566
869,7386;0,0790989
870,7028;0,0793482
871,6671;0,0795854
872,6313;0,0798044
873,5955;0,0800084
874,5598;0,0802002
875,5240;0,0803785
876,4882;0,0805423
877,4525;0,0807012
878,4167;0,0808792
879,3809;0,0811091
880,3452;0,0814209
881,3094;0,081832
882,2736;0,0823486
883,2379;0,0829739
884,2021;0,0837159
885,1663;0,0845865
886,1306;0,085592
887,0948;0,0867231
888,0590;0,0879493
889,0233;0,0892243
889,9875;0,0904952
890,9517;0,0917126
891,9160;0,0928363
892,8802;0,0938369
893,8444;0,0946959
894,8087;0,0954022
895,7729;0,0959488
896,7371;0,0963268
897,7014;0,0965241
898,6656;0,0965281
899,6298;0,0963347
900,5941;0,0959559
901,5583;0,0954218
902,5225;0,0947749
903,4868;0,0940609
904,4510;0,0933224
905,4152;0,0925971
906,3795;0,0919214
907,3437;0,0913292
908,3079;0,0908483
909,2722;0,090493
910,2364;0,0902605
911,2007;0,0901349
912,1649;0,0900962
913,1292;0,0901288
914,0934;0,0902256
915,0576;0,0903853
916,0219;0,0906079
916,9861;0,0908915
917,9503;0,091232
918,9146;0,0916241
919,8788;0,0920605
920,8430;0,0925304
921,8073;0,093018
922,7715;0,0935031
923,7357;0,0939655
924,7000;0,0943904
925,6642;0,0947723
926,6284;0,0951146
927,5927;0,095426
928,5569;0,0957158
929,5211;0,0959892
930,4854;0,0962482
931,4496;0,0964949
932,4138;0,0967371
933,3781;0,0969913
934,3423;0,0972805
935,3065;0,0976281
936,2708;0,0980509
937,2350;0,0985557
938,1992;0,0991412
939,1635;0,0998044
940,1277;0,100547
941,0919;0,101375
942,0562;0,102301
943,0204;0,103335
943,9846;0,104483
944,9489;0,105748
945,9131;0,107128
946,8773;0,108615
947,8416;0,1102
948,8058;0,111872
949,7700;0,113621
950,7343;0,115442
951,6985;0,117337
952,6627;0,119314
953,6270;0,121383
954,5912;0,123552
955,5554;0,125825
956,5197;0,128201
957,4839;0,130675
958,4481;0,133239
959,4124;0,13588
960,3766;0,138583
961,3408;0,14133
962,3051;0,144101
963,2693;0,146881
964,2335;0,149664
965,1978;0,152459
966,1620;0,155288
967,1262;0,158185
968,0905;0,161188
969,0547;0,164331
970,0189;0,167638
970,9832;0,171129
971,9474;0,174822
972,9116;0,178745
973,8759;0,18293
974,8401;0,187411
975,8043;0,192211
976,7686;0,197326
977,7328;0,202718
978,6970;0,208307
979,6613;0,213977
980,6255;0,219582
981,5897;0,224967
982,5540;0,229985
983,5182;0,234529
984,4824;0,23855
985,4467;0,242064
986,4109;0,245144
987,3751;0,247891
988,3394;0,250403
989,3036;0,252747
990,2678;0,254951
991,2321;0,257011
992,1963;0,258905
993,1605;0,260613
994,1248;0,262133
995,0890;0,263475
996,0532;0,264662
997,0175;0,265719
997,9817;0,266668
998,9459;0,267528
999,9102;0,268329
1000,8744;0,269116
1001,8386;0,269955
1002,8029;0,27093
1003,7671;0,272122
1004,7313;0,273599
1005,6956;0,275401
1006,6598;0,277539
1007,6240;0,280003
1008,5883;0,282768
1009,5525;0,285799
1010,5167;0,289045
1011,4810;0,292435
1012,4452;0,295874
1013,4094;0,299253
1014,3737;0,302463
1015,3379;0,305416
1016,3021;0,308054
1017,2664;0,310353
1018,2306;0,312322
1019,1948;0,313995
1020,1591;0,315427
1021,1233;0,316682
1022,0875;0,317825
1023,0518;0,318905
1024,0160;0,319945
1024,9802;0,320941
1025,9445;0,321867
1026,9087;0,322681
1027,8729;0,323338
1028,8372;0,323777
1029,8014;0,323916
1030,7656;0,323637
1031,7299;0,322802
1032,6941;0,32129
1033,6583;0,319041
1034,6226;0,316102
1035,5868;0,312641
1036,5510;0,308916
1037,5153;0,305222
1038,4795;0,301828
1039,4437;0,298934
1040,4080;0,296648
1041,3722;0,294991
1042,3364;0,293906
1043,3007;0,293288
1044,2649;0,293002
1045,2291;0,292906
1046,1934;0,29287
1047,1576;0,292783
1048,1218;0,29255
1049,0861;0,292086
1050,0503;0,291311
1051,0145;0,29016
1051,9788;0,288599
1052,9430;0,286635
1053,9072;0,284316
1054,8715;0,281694
1055,8357;0,278794
1056,7999;0,27558
1057,7642;0,271965
1058,7284;0,26786
1059,6926;0,263224
1060,6569;0,258119
1061,6211;0,252708
1062,5853;0,247224
1063,5496;0,241908
1064,5138;0,236949
1065,4780;0,232458
1066,4423;0,228457
1067,4065;0,2249
1068,3707;0,221699
1069,3350;0,218754
1070,2992;0,215964
1071,2634;0,213239
1072,2277;0,210506
1073,1919;0,207703
1074,1561;0,204787
1075,1204;0,201737
1076,0846;0,198555
1077,0488;0,195275
1078,0131;0,191958
1078,9773;0,18869
1079,9415;0,185568
1080,9058;0,182681
1081,8700;0,180095
1082,8342;0,177844
1083,7985;0,175929
1084,7627;0,174321
1085,7269;0,172981
1086,6912;0,171865
1087,6554;0,17094
1088,6196;0,170184
1089,5839;0,16959
1090,5481;0,169163
1091,5123;0,168906
1092,4766;0,16882
1093,4408;0,168894
1094,4050;0,169104
1095,3693;0,169419
1096,3335;0,169803
1097,2977;0,170226
1098,2620;0,170665
1099,2262;0,1711
1100,1904;0,171505
1101,1547;0,171851
1102,1189;0,172097
1103,0831;0,172203
1104,0474;0,172143
1105,0116;0,171917
1105,9758;0,171554
1106,9401;0,171089
1107,9043;0,170544
1108,8685;0,169894
1109,8328;0,169067
1110,7970;0,167955
1111,7612;0,166463
1112,7255;0,164557
1113,6897;0,162292
1114,6539;0,159805
1115,6182;0,157274
1116,5824;0,15486
1117,5466;0,15266
1118,5109;0,15069
1119,4751;0,148889
1120,4393;0,147159
1121,4036;0,145388
1122,3678;0,143479
1123,3320;0,141362
1124,2963;0,139002
1125,2605;0,136401
1126,2247;0,133595
1127,1890;0,130647
1128,1532;0,12763
1129,1174;0,124616
1130,0817;0,121656
1131,0459;0,118784
1132,0101;0,116019
1132,9744;0,113384
1133,9386;0,110908
1134,9028;0,10864
1135,8671;0,106638
1136,8313;0,104957
1137,7955;0,103642
1138,7598;0,102712
1139,7240;0,102159
1140,6882;0,101953
1141,6525;0,102045
1142,6167;0,102382
1143,5809;0,102909
1144,5452;0,103581
1145,5094;0,104358
1146,4736;0,105216
1147,4379;0,10614
1148,4021;0,107123
1149,3663;0,108158
1150,3306;0,109232
1151,2948;0,110314
1152,2590;0,111356
1153,2233;0,112304
1154,1875;0,113102
1155,1517;0,113704
1156,1160;0,114066
1157,0802;0,114145
1158,0444;0,11388
1159,0087;0,113193
1159,9729;0,11199
1160,9371;0,110184
1161,9014;0,107722
1162,8656;0,104611
1163,8298;0,10093
1164,7941;0,0968235
1165,7583;0,0924798
1166,7225;0,0880953
1167,6868;0,0838443
1168,6510;0,0798568
1169,6152;0,076211
1170,5795;0,0729387
1171,5437;0,0700375
1172,5079;0,0674849
1173,4722;0,0652496
1174,4364;0,0632987
1175,4006;0,0616012
1176,3649;0,0601291
1177,3291;0,058857
1178,2933;0,0577617
1179,2576;0,0568224
1180,2218;0,0560204
1181,1860;0,0553408
1182,1503;0,0547731
1183,1145;0,054312
1184,0787;0,0539569
1185,0430;0,0537101
1186,0072;0,0535748
1186,9714;0,0535536
1187,9357;0,0536484
1188,8999;0,0538609
1189,8641;0,0541924
1190,8284;0,0546444
1191,7926;0,0552163
1192,7568;0,0559037
1193,7211;0,056696
1194,6853;0,0575758
1195,6495;0,0585203
1196,6138;0,0595035
1197,5780;0,0605004
1198,5422;0,0614898
1199,5065;0,0622381
1200,4707;0,0631985
1201,4349;0,0641218
1202,3992;0,0650012
1203,3634;0,065828
1204,3276;0,0665911
1205,2919;0,0672805
1206,2561;0,0678928
1207,2203;0,0684372
1208,1846;0,0689392
1209,1488;0,0694392
1210,1130;0,0699851
1211,0773;0,0706216
1212,0415;0,0713795
1213,0057;0,07227
1213,9700;0,0732851
1214,9342;0,0744035
1215,8984;0,0755986
1216,8627;0,0768418
1217,8269;0,0781056
1218,7911;0,079367
1219,7554;0,0806083
1220,7196;0,0818176
1221,6838;0,0829896
1222,6481;0,0841226
1223,6123;0,085216
1224,5765;0,0862676
1225,5408;0,0872734
1226,5050;0,088229
1227,4692;0,0891303
1228,4335;0,0899738
1229,3977;0,0907547
1230,3619;0,0914661
1231,3262;0,0920999
1232,2904;0,0926493
1233,2546;0,0931123
1234,2189;0,0934927
1235,1831;0,0937989
1236,1473;0,0940414
1237,1116;0,0942293
1238,0758;0,094369
1239,0400;0,0944629
1240,0043;0,0945106
1240,9685;0,0945088
1241,9327;0,0944528
1242,8970;0,0943363
1243,8612;0,094152
1244,8254;0,0938939
1245,7897;0,0935599
1246,7539;0,093156
1247,7181;0,0926971
1248,6824;0,0922054
1249,6466;0,091704
1250,6108;0,0912103
1251,5751;0,0907326
1252,5393;0,0902719
1253,5035;0,0898267
1254,4678;0,0893968
1255,4320;0,0889819
1256,3962;0,0885769
1257,3605;0,0881673
1258,3247;0,0877313
1259,2889;0,087247
1260,2532;0,0867016
1261,2174;0,0860961
1262,1816;0,0854422
1263,1459;0,084754
1264,1101;0,0840414
1265,0743;0,0833077
1266,0386;0,0825525
1267,0028;0,0817744
1267,9670;0,0809727
1268,9313;0,0801471
1269,8955;0,0792977
1270,8597;0,0784263
1271,8240;0,0775383
1272,7882;0,0766438
1273,7524;0,0757571
1274,7167;0,0748944
1275,6809;0,0740695
1276,6451;0,0732898
1277,6094;0,0725517
1278,5736;0,0718403
1279,5378;0,0711334
1280,5021;0,0704112
1281,4663;0,0696657
1282,4305;0,0689061
1283,3948;0,0681554
1284,3590;0,0674414
1285,3232;0,0667876
1286,2875;0,0662081
1287,2517;0,0657078
1288,2159;0,0652849
1289,1802;0,0649348
1290,1444;0,0646522
1291,1086;0,0644333
1292,0729;0,0642782
1293,0371;0,0641932
1294,0013;0,0641899
1294,9656;0,0642818
1295,9298;0,0644782
1296,8940;0,06478
1297,8583;0,0651801
1298,8225;0,0656673
1299,7867;0,0662311
1300,7510;0,0668638
1301,7152;0,0675631
1302,6794;0,0683263
1303,6437;0,0691494
1304,6079;0,0700276
1305,5721;0,0709548
1306,5364;0,0719233
1307,5006;0,0729254
1308,4648;0,0739539
1309,4291;0,0750006
1310,3933;0,076052
1311,3575;0,0770841
1312,3218;0,0780596
1313,2860;0,0789318
1314,2502;0,0796529
1315,2145;0,080182
1316,1787;0,0804896
1317,1429;0,0805618
1318,1072;0,0804068
1319,0714;0,0800617
1320,0356;0,0795901
1320,9999;0,0790649
1321,9641;0,0785477
1322,9283;0,0780773
1323,8926;0,0776728
1324,8568;0,0773434
1325,8210;0,077094
1326,7853;0,0769254
1327,7495;0,0768298
1328,7137;0,0767889
1329,6780;0,0767746
1330,6422;0,0767548
1331,6064;0,0767012
1332,5707;0,0765933
1333,5349;0,0764214
1334,4991;0,0761801
1335,4634;0,0758596
1336,4276;0,0754372
1337,3918;0,0748774
1338,3561;0,07415
1339,3203;0,0732683
1340,2845;0,0723102
1341,2488;0,0713845
1342,2130;0,0705709
1343,1772;0,0698947
1344,1415;0,0693462
1345,1057;0,0689103
1346,0699;0,0685827
1347,0342;0,0683709
1347,9984;0,0682891
1348,9626;0,0683495
1349,9269;0,0685524
1350,8911;0,0688807
1351,8553;0,069302
1352,8196;0,0697794
1353,7838;0,0702859
1354,7480;0,0708128
1355,7123;0,0713689
1356,6765;0,0719687
1357,6407;0,0726213
1358,6050;0,0733279
1359,5692;0,0740822
1360,5334;0,0748611
1361,4977;0,075614
1362,4619;0,0762833
1363,4261;0,0768512
1364,3904;0,0773522
1365,3546;0,0778308
1366,3188;0,0783039
1367,2831;0,0787577
1368,2473;0,0791606
1369,2115;0,079476
1370,1758;0,0796721
1371,1400;0,0797236
1372,1042;0,079608
1373,0685;0,0793045
1374,0327;0,078809
1374,9969;0,0781538
1375,9612;0,0773953
1376,9254;0,0765648
1377,8896;0,0756438
1378,8539;0,0745954
1379,8181;0,0734192
1380,7823;0,0721754
1381,7466;0,0709529
1382,7108;0,0698089
1383,6750;0,0687346
1384,6393;0,0676752
1385,6035;0,0665836
1386,5677;0,0654766
1387,5320;0,0644575
1388,4962;0,0636561
1389,4604;0,0631236
1390,4247;0,0628037
1391,3889;0,0626044
1392,3531;0,0624716
1393,3174;0,0624021
1394,2816;0,0624058
1395,2458;0,0624672
1396,2101;0,0625476
1397,1743;0,0626207
1398,1385;0,0626998
1399,1028;0,0628283
1400,0670;0,0630455
1401,0313;0,0633588
1401,9955;0,0637448
1402,9597;0,0641716
1403,9240;0,0646203
1404,8882;0,0650923
1405,8524;0,0656021
1406,8167;0,0661628
1407,7809;0,0667722
1408,7451;0,0674191
1409,7094;0,0681019
1410,6736;0,0688372
1411,6378;0,0696408
1412,6021;0,0704991
1413,5663;0,0713587
1414,5305;0,07215
1415,4948;0,0728256
1416,4590;0,0733785
1417,4232;0,0738253
1418,3875;0,0741899
1419,3517;0,0745234
1420,3159;0,0748818
1421,2802;0,0752378
1422,2444;0,0754718
1423,2086;0,0754657
1424,1729;0,075184
1425,1371;0,0746796
1426,1013;0,0740357
1427,0656;0,073303
1428,0298;0,0724852
1428,9940;0,0715786
1429,9583;0,0706188
1430,9225;0,0696717
1431,8867;0,0687628
1432,8510;0,0678317
1433,8152;0,0667703
1434,7794;0,0655095
1435,7437;0,0641119
1436,7079;0,0628204
1437,6721;0,0619432
1438,6364;0,0616002
1439,6006;0,0616438
1440,5648;0,061836
1441,5291;0,0620235
1442,4933;0,0621784
1443,4575;0,0623473
1444,4218;0,0625807
1445,3860;0,0628917
1446,3502;0,0632613
1447,3145;0,0636714
1448,2787;0,0641312
1449,2429;0,0646633
1450,2072;0,0652552
1451,1714;0,0658281
1452,1356;0,0662634
1453,0999;0,06647
1454,0641;0,0664361
1455,0283;0,0662121
1455,9926;0,0657992
1456,9568;0,0651438
1457,9210;0,0644663
1458,8853;0,0641872
1459,8495;0,0643335
1460,8137;0,0645735
1461,7780;0,0645874
1462,7422;0,0642086
1463,7064;0,0634082
1464,6707;0,0622877
1465,6349;0,0610695
1466,5991;0,0599578
1467,5634;0,0589628
1468,5276;0,0579208
1469,4918;0,0566382
1470,4561;0,0549768
1471,4203;0,0528614
1472,3845;0,050324
1473,3488;0,0476338
1474,3130;0,0452345
1475,2772;0,0433885
1476,2415;0,0420362
1477,2057;0,0409866
1478,1699;0,0400884
1479,1342;0,0392644
1480,0984;0,0384908
1481,0626;0,0377792
1482,0269;0,0371656
1482,9911;0,0366928
1483,9553;0,0363844
1484,9196;0,0362379
1485,8838;0,0362393
1486,8480;0,0363702
1487,8123;0,0365792
1488,7765;0,0367718
1489,7407;0,036915
1490,7050;0,0371105
1491,6692;0,0374559
1492,6334;0,0379342
1493,5977;0,0384883
1494,5619;0,0391216
1495,5261;0,0399077
1496,4904;0,0409151
1497,4546;0,0421262
1498,4188;0,0434566
1499,3831;0,0448128
1500,3473;0,0460735
1501,3115;0,0470861
1502,2758;0,0477381
1503,2400;0,0480476
1504,2042;0,048222
1505,1685;0,0486007
1506,1327;0,0493009
1507,0969;0,0498568
1508,0612;0,0499045
1509,0254;0,049772
1509,9896;0,0497273
1510,9539;0,0497129
1511,9181;0,0496235
1512,8823;0,0494341
1513,8466;0,0491716
1514,8108;0,0488509
1515,7750;0,0484437
1516,7393;0,0479055
1517,7035;0,0472255
1518,6677;0,0464476
1519,6320;0,0456584
1520,5962;0,0449592
1521,5604;0,0444354
1522,5247;0,0441235
1523,4889;0,0439929
1524,4531;0,0439768
1525,4174;0,0440312
1526,3816;0,0441596
1527,3458;0,0443792
1528,3101;0,0446762
1529,2743;0,0450102
1530,2385;0,0453689
1531,2028;0,0458111
1532,1670;0,0464309
1533,1312;0,047254
1534,0955;0,0481732
1535,0597;0,0490088
1536,0239;0,0496251
1536,9882;0,0500196
1537,9524;0,0503616
1538,9166;0,0508987
1539,8809;0,0515919
1540,8451;0,0518828
1541,8093;0,051482
1542,7736;0,0508277
1543,7378;0,0502774
1544,7020;0,0498548
1545,6663;0,0495124
1546,6305;0,0492371
1547,5947;0,0490171
1548,5590;0,048814
1549,5232;0,0485825
1550,4874;0,0483102
1551,4517;0,0480323
1552,4159;0,0477938
1553,3801;0,0475877
1554,3444;0,0473373
1555,3086;0,0469418
1556,2728;0,0463144
1557,2371;0,0453291
1558,2013;0,0438707
1559,1655;0,0424248
1560,1298;0,0419596
1561,0940;0,0425941
1562,0582;0,0437066
1563,0225;0,0447514
1563,9867;0,0454866
1564,9509;0,04589
1565,9152;0,0460587
1566,8794;0,0461405
1567,8436;0,0462827
1568,8079;0,0465866
1569,7721;0,0470785
1570,7363;0,0477032
1571,7006;0,0483478
1572,6648;0,0489084
1573,6290;0,0493584
1574,5933;0,0497555
1575,5575;0,0501688
1576,5217;0,0506193
1577,4860;0,0511229
1578,4502;0,0516963
1579,4144;0,0522921
1580,3787;0,0528311
1581,3429;0,0532842
1582,3071;0,0536929
1583,2714;0,0541326
1584,2356;0,0546642
1585,1998;0,0553086
1586,1641;0,0560509
1587,1283;0,0568593
1588,0925;0,0576964
1589,0568;0,0585229
1590,0210;0,059298
1590,9852;0,0599814
1591,9495;0,0605345
1592,9137;0,0609219
1593,8779;0,061118
1594,8422;0,0611237
1595,8064;0,0609763
1596,7706;0,060742
1597,7349;0,0604895
1598,6991;0,0602653
1599,6633;0,0600862
1600,6276;0,0599468
1601,5918;0,0598373
1602,5560;0,0597584
1603,5203;0,0597227
1604,4845;0,0597406
1605,4487;0,0598059
1606,4130;0,0599012
1607,3772;0,0600182
1608,3414;0,0601756
1609,3057;0,0604117
1610,2699;0,0607444
1611,2341;0,0611347
1612,1984;0,0615018
1613,1626;0,0617876
1614,1268;0,0620154
1615,0911;0,0622899
1616,0553;0,0627291
1617,0195;0,0633875
1617,9838;0,0642294
1618,9480;0,0651418
1619,9122;0,0659974
1620,8765;0,0667346
1621,8407;0,0673778
1622,8049;0,0679865
1623,7692;0,0685952
1624,7334;0,0692045
1625,6976;0,0698116
1626,6619;0,0704288
1627,6261;0,0710765
1628,5903;0,0717555
1629,5546;0,0724196
1630,5188;0,0729825
1631,4830;0,0733685
1632,4473;0,0735779
1633,4115;0,0737154
1634,3757;0,0739212
1635,3400;0,0742252
1636,3042;0,0745563
1637,2684;0,0749322
1638,2327;0,0754046
1639,1969;0,0759169
1640,1611;0,0763581
1641,1254;0,0766488
1642,0896;0,0767668
1643,0538;0,0767506
1644,0181;0,0766932
1644,9823;0,0766932
1645,9465;0,076763
1646,9108;0,0768237
1647,8750;0,0767982
1648,8392;0,0765938
1649,8035;0,0760651
1650,7677;0,0750847
1651,7319;0,0735948
1652,6962;0,0716698
1653,6604;0,0698224
1654,6246;0,0688409
1655,5889;0,0687746
1656,5531;0,0690114
1657,5173;0,0690242
1658,4816;0,0685959
1659,4458;0,0677257
1660,4100;0,0665129
1661,3743;0,0651015
1662,3385;0,0636816
1663,3027;0,062452
1664,2670;0,0614974
1665,2312;0,0607321
1666,1954;0,05998
1667,1597;0,0590738
1668,1239;0,0579095
1669,0881;0,0564999
1670,0524;0,055013
1671,0166;0,0536555
1671,9808;0,0524638
1672,9451;0,0512992
1673,9093;0,0500367
1674,8735;0,0487271
1675,8378;0,0475977
1676,8020;0,0468649
1677,7662;0,0465247
1678,7305;0,0463506
1679,6947;0,0460554
1680,6589;0,0454166
1681,6232;0,0442945
1682,5874;0,0426246
1683,5516;0,0405572
1684,5159;0,0386448
1685,4801;0,0374462
1686,4443;0,0369442
1687,4086;0,0367279
1688,3728;0,0364381
1689,3370;0,0359294
1690,3013;0,0352256
1691,2655;0,0344256
1692,2297;0,0336311
1693,1940;0,032919
1694,1582;0,0323343
1695,1224;0,0318724
1696,0867;0,0314497
1697,0509;0,0309128
1698,0151;0,0301403
1698,9794;0,029199
1699,9436;0,0283799
1700,9078;0,0279921
1701,8721;0,028106
1702,8363;0,028535
1703,8005;0,0290111
1704,7648;0,0293478
1705,7290;0,0295095
1706,6932;0,0295972
1707,6575;0,0297619
1708,6217;0,0300952
1709,5859;0,0305854
1710,5502;0,0311604
1711,5144;0,0317476
1712,4786;0,0323029
1713,4429;0,0328068
1714,4071;0,033236
1715,3713;0,0335231
1716,3356;0,0335725
1717,2998;0,033431
1718,2640;0,0333812
1719,2283;0,0336589
1720,1925;0,0342228
1721,1567;0,0348786
1722,1210;0,035461
1723,0852;0,035902
1724,0494;0,0362236
1725,0137;0,0365034
1725,9779;0,0368268
1726,9421;0,0372372
1727,9064;0,0377081
1728,8706;0,0381503
1729,8348;0,0384458
1730,7991;0,0384821
1731,7633;0,0381792
1732,7275;0,03754
1733,6918;0,0367447
1734,6560;0,0361128
1735,6202;0,0358147
1736,5845;0,0357192
1737,5487;0,0355671
1738,5129;0,0351792
1739,4772;0,0345323
1740,4414;0,033735
1741,4056;0,0329419
1742,3699;0,032246
1743,3341;0,0316319
1744,2983;0,0310183
1745,2626;0,0303247
1746,2268;0,0294917
1747,1910;0,0284563
1748,1553;0,0271402
1749,1195;0,0255229
1750,0837;0,0237597
1751,0480;0,0221477
1752,0122;0,0209004
1752,9764;0,020009
1753,9407;0,019318
1754,9049;0,0186692
1755,8691;0,0179832
1756,8334;0,0172634
1757,7976;0,0165485
1758,7618;0,0158547
1759,7261;0,0151588
1760,6903;0,0144348
1761,6545;0,013705
1762,6188;0,013045
1763,5830;0,0125263
1764,5472;0,0121572
1765,5115;0,0118846
1766,4757;0,0116414
1767,4399;0,0113849
1768,4042;0,0111019
1769,3684;0,0107863
1770,3326;0,0104166
1771,2969;0,00997099
1772,2611;0,00948634
1773,2253;0,00908167
1774,1896;0,00886479
1775,1538;0,0088309
1776,1180;0,00888159
1777,0823;0,0089115
1778,0465;0,00886521
1779,0107;0,00874172
1779,9750;0,00856874
1780,9392;0,00837371
1781,9034;0,00817069
1782,8677;0,0079696
1783,8319;0,0077945
1784,7961;0,00768563
1785,7604;0,00767437
1786,7246;0,00775296
1787,6888;0,00787257
1788,6531;0,00797353
1789,6173;0,00801702
1790,5815;0,00799084
1791,5458;0,00790121
1792,5100;0,00778416
1793,4742;0,00770801
1794,4385;0,00771376
1795,4027;0,00776855
1796,3669;0,00780297
1797,3312;0,0077714
1798,2954;0,00767246
1799,2596;0,00753189
1800,2239;0,0073779
1801,1881;0,0072317
1802,1523;0,00711007
1803,1166;0,00702595
1804,0808;0,00698628
1805,0450;0,00699181
1806,0093;0,0070372
1806,9735;0,00710834
1807,9377;0,00717912
1808,9020;0,0072135
1809,8662;0,00717929
1810,8304;0,00706947
1811,7947;0,00691068
1812,7589;0,00674497
1813,7231;0,00660327
1814,6874;0,00649671
1815,6516;0,00642568
1816,6158;0,00638996
1817,5801;0,00639125
1818,5443;0,00642938
1819,5085;0,00649678
1820,4728;0,00657674
1821,4370;0,0066494
1822,4012;0,0067012
1823,3655;0,00673062
1824,3297;0,00674698
1825,2939;0,00676168
1826,2582;0,00677397
1827,2224;0,00676177
1828,1866;0,00668995
1829,1509;0,00653856
1830,1151;0,00633598
1831,0793;0,00615754
1832,0436;0,00607018
1833,0078;0,00608133
1833,9720;0,00614863
1834,9363;0,0062247
1835,9005;0,00628631
1836,8647;0,00633507
1837,8290;0,00638013
1838,7932;0,00641891
1839,7574;0,00643285
1840,7217;0,0064053
1841,6859;0,0063425
1842,6501;0,00627228
1843,6144;0,00622086
1844,5786;0,00619755
1845,5428;0,0061986
1846,5071;0,00620608
1847,4713;0,00618718
1848,4355;0,00611521
1849,3998;0,00599314
1850,3640;0,00585433
1851,3282;0,00574189
1852,2925;0,00568424
1853,2567;0,00568565
1854,2209;0,00573376
1855,1852;0,00581219
1856,1494;0,00590559
1857,1136;0,00599767
1858,0779;0,00606848
1859,0421;0,00610066
1860,0063;0,00609233
1860,9706;0,00606519
1861,9348;0,00605668
1862,8990;0,00609999
1863,8633;0,00620712
1864,8275;0,00636579
1865,7917;0,00654298
1866,7560;0,00668506
1867,7202;0,00672688
1868,6844;0,00663367
1869,6487;0,00644364
1870,6129;0,00623876
1871,5771;0,00607123
1872,5414;0,00593982
1873,5056;0,00582115
1874,4698;0,0057035
1875,4341;0,00559572
1876,3983;0,00551882
1877,3625;0,00549113
1878,3268;0,00551927
1879,2910;0,00559585
1880,2552;0,00570368
1881,2195;0,00582099
1882,1837;0,0059258
1883,1479;0,00600034
1884,1122;0,00603534
1885,0764;0,00603205
1886,0406;0,00600068
1887,0049;0,00595595
1887,9691;0,00591138
1888,9333;0,00587651
1889,8976;0,00585854
1890,8618;0,0058628
1891,8260;0,00588733
1892,7903;0,00591733
1893,7545;0,00592818
1894,7188;0,00589719
1895,6830;0,00581914
1896,6472;0,0057159
1897,6115;0,00562918
1898,5757;0,00559715
1899,5399;0,00563211
1900,5042;0,0057146
1901,4684;0,00580601
1902,4326;0,00587139
1903,3969;0,00589896
1904,3611;0,00590269
1905,3253;0,00590646
1906,2896;0,00592315
1907,2538;0,0059446
1908,2180;0,00594874
1909,1823;0,00591863
1910,1465;0,0058579
1911,1107;0,005787
1912,0750;0,00572315
1913,0392;0,00566593
1914,0034;0,00560313
1914,9677;0,00552953
1915,9319;0,00546093
1916,8961;0,00543134
1917,8604;0,00547281
1918,8246;0,00558931
1919,7888;0,00574473
1920,7531;0,00587633
1921,7173;0,00592504
1922,6815;0,00586494
1923,6458;0,00571769
1924,6100;0,00554271
1925,5742;0,00540599
1926,5385;0,00534782
1927,5027;0,00537018
1928,4669;0,00544399
1929,4312;0,00552399
1930,3954;0,00556632
1931,3596;0,00554737
1932,3239;0,00547542
1933,2881;0,00538808
1934,2523;0,00533334
1935,2166;0,00534205
1936,1808;0,00540786
1937,1450;0,0054897
1938,1093;0,00553807
1939,0735;0,00552855
1940,0377;0,0054797
1941,0020;0,00544151
1941,9662;0,00545764
1942,9304;0,00552697
1943,8947;0,00559938
1944,8589;0,00561416
1945,8231;0,00554802
1946,7874;0,00543461
1947,7516;0,00534427
1948,7158;0,00533812
1949,6801;0,00542382
1950,6443;0,00554285
1951,6085;0,00560209
1952,5728;0,00553118
1953,5370;0,00532751
1954,5012;0,00505969
1955,4655;0,00482767
1956,4297;0,0047052
1957,3939;0,00470047
1958,3582;0,00475724
1959,3224;0,0047933
1960,2866;0,00475139
1961,2509;0,00463075
1962,2151;0,00447999
1963,1793;0,00436066
1964,1436;0,00431036
1965,1078;0,00432727
1966,0720;0,00437796
1967,0363;0,00441792
1968,0005;0,00441
1968,9647;0,00433107
1969,9290;0,00417066
1970,8932;0,00393496
1971,8574;0,00366154
1972,8217;0,00343219
1973,7859;0,00336236
1974,7501;0,0035532
1975,7144;0,00402447
1976,6786;0,00467035
1977,6428;0,00528828
1978,6071;0,0056799
1979,5713;0,00575632
1980,5355;0,00557176
1981,4998;0,00527416
1982,4640;0,00502139
1983,4282;0,00491354
1984,3925;0,00496549
1985,3567;0,0051218
1986,3209;0,00530041
1987,2852;0,00543859
1988,2494;0,00551556
1989,2136;0,00554494
1990,1779;0,00555116
1991,1421;0,00555144
1992,1063;0,0055549
1993,0706;0,00557224
1994,0348;0,00561851
1994,9990;0,00570121
1995,9633;0,00580326
1996,9275;0,00587672
1997,8917;0,00585675
1998,8560;0,0056941
1999,8202;0,00539065
2000,7844;0,0050149
2001,7487;0,00468444
2002,7129;0,00452469
2003,6771;0,00462414
2004,6414;0,00500087
2005,6056;0,00558717
2006,5698;0,00623967
2007,5341;0,00677811
2008,4983;0,00704497
2009,4625;0,00696262
2010,4268;0,0065629
2011,3910;0,00597828
2012,3552;0,0053988
2013,3195;0,00500892
2014,2837;0,00492232
2015,2479;0,00513805
2016,2122;0,00554317
2017,1764;0,00597139
2018,1406;0,00628981
2019,1049;0,00645763
2020,0691;0,00651999
2021,0333;0,00655215
2021,9976;0,00660237
2022,9618;0,00667133
2023,9260;0,00673249
2024,8903;0,00676773
2025,8545;0,00678463
2026,8187;0,00680185
2027,7830;0,00681993
2028,7472;0,0068087
2029,7114;0,00672599
2030,6757;0,00655425
2031,6399;0,00632587
2032,6041;0,00611762
2033,5684;0,00601932
2034,5326;0,00609733
2035,4968;0,0063718
2036,4611;0,00680941
2037,4253;0,00732678
2038,3895;0,00779943
2039,3538;0,00808607
2040,3180;0,00807503
2041,2822;0,00774066
2042,2465;0,00717466
2043,2107;0,00656146
2044,1749;0,00610459
2045,1392;0,00594445
2046,1034;0,00610736
2047,0676;0,00650459
2048,0320;0,00697982
2048,9961;0,00738198
2049,9604;0,00762266
2050,9246;0,00768995
2051,8889;0,00762614
2052,8530;0,0074957
2053,8174;0,00736081
2054,7815;0,00726618
2055,7458;0,00723323
2056,7100;0,00726128
2057,6743;0,00733566
2058,6384;0,00743744
2059,6028;0,00754944
2060,5669;0,00765692
2061,5313;0,00774637
2062,4954;0,00780637
2063,4597;0,00783127
2064,4238;0,00782482
2065,3882;0,00780015
2066,3523;0,00777571
2067,3167;0,00777
2068,2808;0,00779803
2069,2451;0,00786898
2070,2092;0,00798308
2071,1736;0,00812755
2072,1377;0,00827476
2073,1021;0,00838842
2074,0662;0,0084362
2075,0305;0,00840325
2075,9946;0,00829854
2076,9590;0,00815089
2077,9231;0,0079975
2078,8875;0,00787177
2079,8516;0,00779549
2080,8159;0,00777645
2081,7800;0,0078093
2082,7444;0,00787812
2083,7085;0,00796068
2084,6729;0,00803428
2085,6370;0,00808239
2086,6013;0,0080981
2087,5654;0,00808329
2088,5298;0,00804415
2089,4939;0,00798731
2090,4583;0,00791955
2091,4224;0,00785061
2092,3867;0,00779565
2093,3508;0,00777337
2094,3152;0,00779925
2095,2793;0,00787707
2096,2437;0,00799401
2097,2078;0,00812266
2098,1721;0,00822954
2099,1362;0,00828603
2100,1006;0,00827952
2101,0647;0,00821504
2102,0291;0,00812373
2102,9932;0,00804875
2103,9575;0,00802955
2104,9216;0,00808239
2105,8860;0,00818934
2106,8501;0,00830491
2107,8145;0,00837905
2108,7786;0,00838439
2109,7429;0,00833113
2110,7070;0,00826004
2111,6714;0,008218
2112,6355;0,00823221
2113,5999;0,00829857
2114,5640;0,00838919
2115,5283;0,00847075
2116,4924;0,00852022
2117,4568;0,00852937
2118,4209;0,00850003
2119,3853;0,00843827
2120,3494;0,00835421
2121,3137;0,00826628
2122,2778;0,00820259
2123,2422;0,00819283
2124,2063;0,00825265
2125,1707;0,00837026
2126,1348;0,00850673
2127,0991;0,00861304
2128,0632;0,00865536
2129,0276;0,00863316
2129,9917;0,00857852
2130,9561;0,00853679
2131,9202;0,00853971
2132,8845;0,00858699
2133,8486;0,00864726
2134,8130;0,00867891
2135,7771;0,00865803
2136,7415;0,00859501
2137,7056;0,00852876
2138,6699;0,00850352
2139,6340;0,00854411
2140,5984;0,00864353
2141,5625;0,00876733
2142,5269;0,00887011
2143,4910;0,00891493
2144,4553;0,00888757
2145,4194;0,00880113
2146,3838;0,00869053
2147,3479;0,00859824
2148,3123;0,00855533
2149,2764;0,00856518
2150,2407;0,00859977
2151,2048;0,00861554
2152,1692;0,00858525
2153,1333;0,00852997
2154,0977;0,00852944
2155,0618;0,00869633
2156,0261;0,00911479
2156,9902;0,00976508
2157,9546;0,0104848
2158,9187;0,0110282
2159,8831;0,0112118
2160,8472;0,0110273
2161,8115;0,0106211
2162,7756;0,0101871
2163,7400;0,00987132
2164,7041;0,00973173
2165,6685;0,00974359
2166,6326;0,00983042
2167,5969;0,00990476
2168,5610;0,00990378
2169,5254;0,00980835
2170,4895;0,0096424
2171,4539;0,00945599
2172,4180;0,00930099
2173,3823;0,00921091
2174,3464;0,00919472
2175,3108;0,00924614
2176,2749;0,00935734
2177,2393;0,00952205
2178,2034;0,00972313
2179,1677;0,0099171
2180,1318;0,0100353
2181,0962;0,0100112
2182,0603;0,00982105
2183,0247;0,00950718
2183,9888;0,00916129
2184,9531;0,00887571
2185,9172;0,00869822
2186,8816;0,0086212
2187,8457;0,00860756
2188,8101;0,00862918
2189,7742;0,0086878
2190,7385;0,00880489
2191,7026;0,00899089
2192,6670;0,00921891
2193,6311;0,00942275
2194,5955;0,0095218
2195,5596;0,00945864
2196,5239;0,00922875
2197,4880;0,00888782
2198,4524;0,00853289
2199,4165;0,00826451
2200,3809;0,00814498
2201,3450;0,00817064
2202,3093;0,00827293
2203,2734;0,00835091
2204,2378;0,00832168
2205,2019;0,00816314
2206,1663;0,00792557
2207,1304;0,00770489
2208,0947;0,00759323
2209,0588;0,00763497
2210,0232;0,00781148
2210,9873;0,00805845
2211,9517;0,00830085
2212,9158;0,00848374
2213,8801;0,00858494
2214,8442;0,00860957
2215,8086;0,00857582
2216,7727;0,00850221
2217,7371;0,00840158
2218,7012;0,00828194
2219,6655;0,00815113
2220,6296;0,00802172
2221,5940;0,00791211
2222,5581;0,00784184
2223,5225;0,00782274
2224,4866;0,00785226
2225,4509;0,00791494
2226,4150;0,00799247
2227,3794;0,00807385
2228,3435;0,00816038
2229,3079;0,00825389
2230,2720;0,00834177
2231,2363;0,00839232
2232,2004;0,00836883
2233,1648;0,00825556
2234,1289;0,00807674
2235,0933;0,00789203
2236,0574;0,00776806
2237,0217;0,00774391
2237,9858;0,0078131
2238,9502;0,0079326
2239,9143;0,0080507
2240,8787;0,00813345
2241,8428;0,00817362
2242,8071;0,00818103
2243,7712;0,00816659
2244,7356;0,00813408
2245,6997;0,00808441
2246,6641;0,00802566
2247,6282;0,00797767
2248,5925;0,00796595
2249,5566;0,00800904
2250,5210;0,00810832
2251,4851;0,00824672
2252,4495;0,00839622
2253,4136;0,00852882
2254,3779;0,00862549
2255,3420;0,00868031
2256,3064;0,00869983
2257,2705;0,00869871
2258,2349;0,00869326
2259,1990;0,00869462
2260,1633;0,00870426
2261,1274;0,00871457
2262,0918;0,00871492
2263,0559;0,00869995
2264,0203;0,0086748
2264,9844;0,00865329
2265,9487;0,00864988
2266,9128;0,00867068
2267,8772;0,00870947
2268,8413;0,00875091
2269,8057;0,00877861
2270,7698;0,00878288
2271,7341;0,00876396
2272,6982;0,00872999
2273,6626;0,00869108
2274,6267;0,00865337
2275,5911;0,00861606
2276,5552;0,00857327
2277,5195;0,00852009
2278,4836;0,0084592
2279,4480;0,00840387
2280,4121;0,00837437
2281,3765;0,00838946
2282,3406;0,00845779
2283,3049;0,00857456
2284,2690;0,00872497
2285,2334;0,00889211
2286,1975;0,00906435
2287,1619;0,00923855
2288,1260;0,00941845
2289,0903;0,00960984
2290,0544;0,00981583
2291,0188;0,0100344
2291,9829;0,010259
2292,9473;0,010482
2293,9114;0,0106975
2294,8757;0,0109029
2295,8398;0,0110965
2296,8042;0,011273
2297,7683;0,0114188
2298,7327;0,0115129
2299,6968;0,0115356
2300,6611;0,011482
2301,6252;0,0113744
2302,5896;0,0112635
2303,5537;0,0112141
2304,5181;0,0112786
2305,4822;0,0114679
2306,4465;0,0117337
2307,4106;0,0119771
2308,3750;0,0120825
2309,3391;0,0119684
2310,3035;0,011627
2311,2676;0,0111325
2312,2319;0,0106078
2313,1960;0,0101668
2314,1604;0,00986376
2315,1245;0,00967941
2316,0889;0,00954779
2317,0530;0,00940377
2318,0173;0,0092225
2318,9814;0,00903259
2319,9458;0,00890094
2320,9099;0,00890094
2321,8743;0,00907965
2322,8384;0,00943353
2323,8027;0,0098973
2324,7668;0,010354
2325,7312;0,0106716
2326,6953;0,0107537
2327,6597;0,0105806
2328,6238;0,010221
2329,5881;0,00981002
2330,5522;0,00949752
2331,5166;0,00938346
2332,4807;0,00947231
2333,4451;0,00968012
2334,4092;0,00989551
2335,3735;0,0100546
2336,3376;0,0101806
2337,3020;0,0103645
2338,2661;0,0106987
2339,2305;0,0111998
2340,1946;0,0117586
2341,1589;0,0121432
2342,1230;0,0120885
2343,0874;0,011519
2344,0515;0,0107986
2345,0159;0,0105931
2345,9800;0,0112753
2346,9443;0,0125717
2347,9084;0,013828
2348,8728;0,0144768
2349,8369;0,0143208
2350,8013;0,0135744
2351,7654;0,0127155
2352,7297;0,0121976
2353,6938;0,0121729
2354,6582;0,0124745
2355,6223;0,0128671
2356,5867;0,0132298
2357,5508;0,0135022
2358,5151;0,013591
2359,4792;0,0134046
2360,4436;0,0129416
2361,4077;0,0122892
2362,3721;0,0115331
2363,3362;0,0107045
2364,3005;0,00981063
2365,2646;0,00888492
2366,2290;0,00798844
2367,1931;0,0071722
2368,1575;0,00645324
2369,1216;0,0058264
2370,0859;0,00529021
2371,0500;0,00486046
2372,0144;0,00456767
2372,9785;0,00444859
2373,9429;0,00453766
2374,9070;0,0048567
2375,8713;0,00540199
2376,8354;0,00613378
2377,7998;0,0069758
2378,7639;0,00782761
2379,7283;0,00858584
2380,6924;0,00916686
2381,6567;0,00952333
2382,6208;0,0096507
2383,5852;0,00958304
2384,5493;0,00938055
2385,5137;0,00911291
2386,4778;0,00884336
2387,4421;0,00861784
2388,4063;0,00846107
2389,3706;0,00837848
2390,3347;0,00836106
2391,2991;0,00839078
2392,2632;0,00844538
2393,2275;0,00850338
2394,1917;0,008549
2395,1560;0,00857569
2396,1201;0,00858631
2397,0845;0,00858942
2398,0486;0,00859566
2399,0129;0,00860869
2399,9771;0,00862599
2400,9414;0,00864326
2401,9055;0,00865706
2402,8699;0,00866875
2403,8340;0,00868254
2404,7983;0,00870201
2405,7625;0,00872684
2406,7268;0,00875189
2407,6909;0,0087715
2408,6553;0,00878423
2409,6194;0,0087943
2410,5837;0,00881163
2411,5479;0,00884623
2412,5122;0,00890211
2413,4763;0,00897349
2414,4407;0,00904631
2415,4048;0,00910431
2416,3691;0,00913697
2417,3333;0,00914476
2418,2976;0,00913818
2419,2617;0,00913171
2420,2261;0,00913577
2421,1902;0,00915172
2422,1545;0,0091749
2423,1187;0,00919981
2424,0830;0,00922503
2425,0471;0,00925318
2426,0115;0,00928657
2426,9756;0,00932298
2427,9399;0,00935592
2428,9041;0,00937954
2429,8684;0,00939411
2430,8325;0,00940695
2431,7969;0,00942716
2432,7610;0,00945835
2433,7253;0,00949528
2434,6895;0,00952784
2435,6538;0,00954947
2436,6179;0,0095633
2437,5823;0,00958069
2438,5464;0,00961296
2439,5107;0,00966269
2440,4749;0,00972137
2441,4392;0,00977534
2442,4033;0,00981535
2443,3677;0,00984238
2444,3318;0,00986545
2445,2961;0,00989355
2446,2603;0,00992819
2447,2246;0,00996227
2448,1887;0,00998591
2449,1531;0,00999438
2450,1172;0,00999217
2451,0815;0,00999047
2452,0457;0,0100003
2453,0100;0,0100263
2453,9741;0,0100652
2454,9385;0,0101094
2455,9026;0,0101517
2456,8669;0,0101881
2457,8311;0,0102174
2458,7954;0,0102388
2459,7595;0,010251
2460,7239;0,010254
2461,6880;0,0102516
2462,6523;0,0102521
2463,6165;0,0102656
2464,5808;0,0102979
2465,5449;0,0103464
2466,5093;0,0104009
2467,4734;0,0104483
2468,4377;0,0104804
2469,4019;0,0104975
2470,3662;0,0105062
2471,3303;0,0105144
2472,2947;0,0105259
2473,2588;0,0105399
2474,2231;0,0105544
2475,1873;0,0105703
2476,1516;0,010592
2477,1157;0,0106243
2478,0801;0,010668
2479,0442;0,0107186
2480,0085;0,0107682
2480,9727;0,0108107
2481,9370;0,0108445
2482,9011;0,0108725
2483,8655;0,0108983
2484,8296;0,0109223
2485,7939;0,0109408
2486,7581;0,0109483
2487,7224;0,0109413
2488,6865;0,0109217
2489,6509;0,0108967
2490,6150;0,0108768
2491,5793;0,0108721
2492,5435;0,0108883
2493,5078;0,0109243
2494,4719;0,0109728
2495,4363;0,0110226
2496,4004;0,0110641
2497,3647;0,0110932
2498,3289;0,011113
2499,2932;0,0111311
2500,2573;0,0111539
2501,2217;0,0111823
2502,1858;0,0112111
2503,1501;0,0112332
2504,1143;0,0112447
2505,0786;0,0112478
2506,0427;0,0112488
2507,0071;0,0112534
2507,9712;0,011262
2508,9355;0,0112705
2509,8997;0,011275
2510,8640;0,0112762
2511,8281;0,0112804
2512,7925;0,0112965
2513,7566;0,0113292
2514,7209;0,0113762
2515,6851;0,0114291
2516,6494;0,0114785
2517,6135;0,0115188
2518,5779;0,0115498
2519,5420;0,0115748
2520,5063;0,0115967
2521,4705;0,0116151
2522,4348;0,0116274
2523,3989;0,0116302
2524,3633;0,0116233
2525,3274;0,0116108
2526,2917;0,011601
2527,2559;0,0116036
2528,2202;0,0116256
2529,1843;0,011668
2530,1487;0,0117246
2531,1128;0,0117841
2532,0771;0,0118342
2533,0413;0,011866
2534,0056;0,0118761
2534,9697;0,0118667
2535,9341;0,0118432
2536,8982;0,0118134
2537,8625;0,0117855
2538,8267;0,011767
2539,7910;0,0117629
2540,7551;0,0117735
2541,7195;0,0117942
2542,6836;0,0118173
2543,6479;0,0118359
2544,6121;0,0118478
2545,5764;0,0118562
2546,5405;0,0118674
2547,5049;0,0118854
2548,4690;0,0119094
2549,4333;0,0119337
2550,3975;0,011951
2551,3618;0,0119581
2552,3259;0,0119573
2553,2903;0,0119558
2554,2544;0,0119606
2555,2188;0,0119743
2556,1829;0,0119936
2557,1472;0,012013
2558,1113;0,0120292
2559,0757;0,0120445
2560,0398;0,0120647
2561,0042;0,012094
2561,9683;0,01213
2562,9326;0,0121634
2563,8967;0,0121833
2564,8611;0,0121839
2565,8252;0,0121678
2566,7896;0,0121439
2567,7537;0,012122
2568,7180;0,0121074
2569,6821;0,0121006
2570,6465;0,0120998
2571,6106;0,0121045
2572,5750;0,0121159
2573,5391;0,0121357
2574,5034;0,0121638
2575,4675;0,0121984
2576,4319;0,0122373
2577,3960;0,0122788
2578,3604;0,0123218
2579,3245;0,0123641
2580,2888;0,0124025
2581,2529;0,0124338
2582,2173;0,0124562
2583,1814;0,0124708
2584,1458;0,0124794
2585,1099;0,0124829
2586,0742;0,0124814
2587,0383;0,0124759
2588,0027;0,0124707
2588,9668;0,0124736
2589,9312;0,0124927
2590,8953;0,0125311
2591,8596;0,0125845
2592,8237;0,0126414
2593,7881;0,0126883
2594,7522;0,0127153
2595,7166;0,0127201
2596,6807;0,0127094
2597,6450;0,0126964
2598,6091;0,0126956
2599,5735;0,0127184
2600,5376;0,0127681
2601,5020;0,0128389
2602,4661;0,0129183
2603,4304;0,0129915
2604,3945;0,0130472
2605,3589;0,013081
2606,3230;0,0130957
2607,2874;0,0130987
2608,2515;0,0130991
2609,2158;0,0131048
2610,1799;0,0131211
2611,1443;0,0131504
2612,1084;0,0131918
2613,0728;0,0132415
2614,0369;0,0132934
2615,0012;0,0133408
2615,9653;0,0133797
2616,9297;0,0134098
2617,8938;0,0134353
2618,8582;0,0134634
2619,8223;0,0135004
2620,7866;0,0135487
2621,7507;0,0136044
2622,7151;0,0136586
2623,6792;0,0137011
2624,6436;0,0137259
2625,6077;0,0137352
2626,5720;0,0137386
2627,5361;0,0137496
2628,5005;0,0137791
2629,4646;0,0138303
2630,4290;0,0138975
2631,3931;0,0139688
2632,3574;0,014031
2633,3215;0,0140743
2634,2859;0,0140956
2635,2500;0,0140997
2636,2144;0,0140969
2637,1785;0,0141001
2638,1428;0,0141195
2639,1069;0,0141594
2640,0713;0,0142168
2641,0354;0,0142835
2641,9998;0,0143506
2642,9639;0,0144122
2643,9282;0,0144658
2644,8923;0,0145112
2645,8567;0,0145487
2646,8208;0,0145777
2647,7852;0,0145988
2648,7493;0,0146148
2649,7136;0,0146314
2650,6777;0,0146541
2651,6421;0,0146863
2652,6062;0,0147277
2653,5706;0,0147757
2654,5347;0,0148271
2655,4990;0,0148799
2656,4631;0,014933
2657,4275;0,0149848
2658,3916;0,0150327
2659,3560;0,015074
2660,3201;0,0151073
2661,2844;0,0151343
2662,2485;0,0151588
2663,2129;0,015185
2664,1770;0,0152149
2665,1414;0,015248
2666,1055;0,0152819
2667,0698;0,0153139
2668,0339;0,0153426
2668,9983;0,0153687
2669,9624;0,015394
2670,9268;0,0154215
2671,8909;0,0154535
2672,8552;0,0154919
2673,8193;0,0155365
2674,7837;0,0155854
2675,7478;0,0156352
2676,7122;0,0156824
2677,6763;0,0157249
2678,6406;0,0157631
2679,6047;0,0157993
2680,5691;0,0158369
2681,5332;0,0158787
2682,4976;0,0159254
2683,4617;0,0159757
2684,4260;0,0160273
2685,3901;0,0160777
2686,3545;0,0161253
2687,3186;0,0161697
2688,2830;0,0162119
2689,2471;0,0162532
2690,2114;0,0162951
2691,1755;0,0163385
2692,1399;0,0163827
2693,1040;0,0164258
2694,0684;0,016466
2695,0325;0,0165027
2695,9968;0,0165377
2696,9609;0,016575
2697,9253;0,0166183
2698,8894;0,0166693
2699,8538;0,0167269
2700,8179;0,0167888
2701,7822;0,0168531
2702,7463;0,0169197
2703,7107;0,0169884
2704,6748;0,0170574
2705,6392;0,0171219
2706,6033;0,0171765
2707,5676;0,0172182
2708,5317;0,0172491
2709,4961;0,0172756
2710,4602;0,017305
2711,4246;0,0173417
2712,3887;0,0173859
2713,3530;0,0174351
2714,3171;0,0174872
2715,2815;0,0175421
2716,2456;0,0176015
2717,2100;0,0176663
2718,1741;0,0177345
2719,1384;0,017801
2720,1025;0,0178587
2721,0669;0,0179011
2722,0310;0,0179254
2722,9954;0,0179343
2723,9595;0,0179365
2724,9238;0,0179446
2725,8879;0,0179709
2726,8523;0,0180226
2727,8164;0,0180985
2728,7808;0,0181896
2729,7449;0,0182823
2730,7092;0,018364
2731,6733;0,018427
2732,6377;0,0184701
2733,6018;0,0184973
2734,5662;0,018515
2735,5303;0,0185293
2736,4946;0,0185442
2737,4587;0,0185617
2738,4231;0,0185825
2739,3872;0,0186079
2740,3516;0,0186406
2741,3157;0,0186837
2742,2800;0,0187387
2743,2441;0,0188029
2744,2085;0,0188684
2745,1726;0,018925
2746,1370;0,018965
2747,1011;0,0189873
2748,0654;0,0189985
2749,0295;0,01901
2749,9939;0,0190322
2750,9580;0,0190699
2751,9224;0,0191213
2752,8865;0,0191798
2753,8508;0,0192383
2754,8149;0,019292
2755,7793;0,0193399
2756,7434;0,0193841
2757,7078;0,0194283
2758,6719;0,0194761
2759,6362;0,0195299
2760,6003;0,0195902
2761,5647;0,0196545
2762,5288;0,0197187
2763,4932;0,0197785
2764,4573;0,0198313
2765,4216;0,0198785
2766,3857;0,0199245
2767,3501;0,0199758
2768,3142;0,0200369
2769,2786;0,0201087
2770,2427;0,020187
2771,2070;0,0202649
2772,1711;0,0203359
2773,1355;0,0203972
2774,0996;0,0204514
2775,0640;0,0205051
2776,0281;0,0205658
2776,9924;0,020638
2777,9565;0,0207217
2778,9209;0,0208125
2779,8850;0,0209049
2780,8494;0,0209951
2781,8135;0,0210826
2782,7778;0,0211693
2783,7419;0,0212571
2784,7063;0,0213456
2785,6704;0,0214323
2786,6348;0,0215142
2787,5989;0,0215921
2788,5632;0,0216712
2789,5273;0,0217602
2790,4917;0,0218664
2791,4558;0,0219908
2792,4202;0,022126
2793,3843;0,0222589
2794,3486;0,0223774
2795,3127;0,0224774
2796,2771;0,0225648
2797,2412;0,0226533
2798,2056;0,0227564
2799,1697;0,0228816
2800,1340;0,0230272
2801,0981;0,0231853
2802,0625;0,0233474
2803,0266;0,0235083
2803,9910;0,0236665
2804,9551;0,023822
2805,9194;0,0239734
2806,8835;0,0241181
2807,8479;0,024255
2808,8120;0,0243878
2809,7764;0,0245255
2810,7405;0,0246783
2811,7048;0,0248524
2812,6689;0,0250462
2813,6333;0,0252514
2814,5974;0,0254573
2815,5618;0,025658
2816,5259;0,0258551
2817,4902;0,0260564
2818,4543;0,0262704
2819,4187;0,0265014
2820,3828;0,026747
2821,3472;0,0270004
2822,3113;0,0272549
2823,2756;0,0275086
2824,2397;0,0277651
2825,2041;0,0280313
2826,1682;0,0283137
2827,1326;0,0286154
2828,0967;0,0289364
2829,0610;0,0292758
2830,0251;0,029635
2830,9895;0,0300185
2831,9536;0,030432
2832,9180;0,030879
2833,8821;0,031359
2834,8464;0,0318683
2835,8105;0,0324045
2836,7749;0,0329721
2837,7390;0,0335853
2838,7034;0,0342678
2839,6675;0,0350483
2840,6318;0,0359564
2841,5959;0,0370178
2842,5603;0,0382481
2843,5244;0,039644
2844,4888;0,04117
2845,4529;0,0427484
2846,4172;0,0442595
2847,3813;0,0455598
2848,3457;0,0465178
2849,3098;0,0470526
2850,2742;0,0471609
2851,2383;0,0469145
2852,2026;0,0464335
2853,1667;0,0458442
2854,1311;0,0452448
2855,0952;0,0446906
2856,0596;0,0442003
2857,0237;0,0437746
2857,9880;0,0434136
2858,9521;0,0431246
2859,9165;0,0429178
2860,8806;0,0427987
2861,8450;0,0427628
2862,8091;0,0427971
2863,7734;0,0428875
2864,7375;0,0430243
2865,7019;0,0432031
2866,6660;0,0434195
2867,6304;0,0436623
2868,5945;0,0439106
2869,5588;0,0441385
2870,5229;0,044324
2871,4873;0,0444586
2872,4514;0,0445496
2873,4158;0,0446157
2874,3799;0,0446767
2875,3442;0,0447456
2876,3083;0,0448247
2877,2727;0,0449098
2878,2368;0,0449961
2879,2012;0,045084
2880,1653;0,0451807
2881,1296;0,0452971
2882,0938;0,045443
2883,0581;0,0456224
2884,0222;0,0458318
2884,9866;0,0460612
2885,9507;0,0462989
2886,9150;0,0465365
2887,8792;0,0467715
2888,8435;0,0470077
2889,8076;0,0472515
2890,7720;0,0475076
2891,7361;0,0477759
2892,7004;0,048052
2893,6646;0,0483305
2894,6289;0,0486086
2895,5930;0,048888
2896,5574;0,0491729
2897,5215;0,0494662
2898,4858;0,0497664
2899,4500;0,0500671
2900,4143;0,0503611
2901,3784;0,0506461
2902,3428;0,0509292
2903,3069;0,0512272
2904,2712;0,0515634
2905,2354;0,0519617
2906,1997;0,0524433
2907,1638;0,0530258
2908,1282;0,0537257
2909,0923;0,0545584
2910,0566;0,0555333
2911,0208;0,0566416
2911,9851;0,0578442
2912,9492;0,0590657
2913,9136;0,0602021
2914,8777;0,0611423
2915,8420;0,0617968
2916,8062;0,0621194
2917,7705;0,0621162
2918,7346;0,0618355
2919,6990;0,0613476
2920,6631;0,060723
2921,6274;0,0600178
2922,5916;0,0592688
2923,5559;0,0584958
2924,5200;0,057708
2925,4844;0,0569099
2926,4485;0,0561061
2927,4128;0,055305
2928,3770;0,0545184
2929,3413;0,0537594
2930,3054;0,0530373
2931,2698;0,0523534
2932,2339;0,0517003
2933,1982;0,0510654
2934,1624;0,0504369
2935,1267;0,0498094
2936,0908;0,0491844
2937,0552;0,0485681
2938,0193;0,0479668
2938,9836;0,0473838
2939,9478;0,0468191
2940,9121;0,0462708
2941,8762;0,0457378
2942,8406;0,0452215
2943,8047;0,0447266
2944,7690;0,0442606
2945,7332;0,043832
2946,6975;0,0434478
2947,6616;0,0431098
2948,6260;0,0428135
2949,5901;0,0425486
2950,5544;0,0423025
2951,5186;0,0420638
2952,4829;0,0418242
2953,4470;0,0415785
2954,4114;0,0413223
2955,3755;0,0410503
2956,3398;0,0407563
2957,3040;0,0404356
2958,2683;0,0400875
2959,2324;0,0397159
2960,1968;0,0393286
2961,1609;0,0389335
2962,1252;0,0385361
2963,0894;0,0381373
2964,0537;0,0377344
2965,0178;0,0373231
2965,9822;0,0368998
2966,9463;0,0364643
2967,9106;0,0360191
2968,8748;0,0355695
2969,8391;0,0351218
2970,8032;0,0346829
2971,7676;0,0342598
2972,7317;0,0338586
2973,6960;0,0334834
2974,6602;0,0331336
2975,6245;0,0328037
2976,5886;0,032485
2977,5530;0,03217
2978,5171;0,0318576
2979,4814;0,0315549
2980,4456;0,0312751
2981,4099;0,0310303
2982,3740;0,030825
2983,3384;0,0306533
2984,3025;0,0305012
2985,2668;0,0303537
2986,2310;0,0302014
2987,1953;0,0300439
2988,1594;0,0298899
2989,1238;0,0297515
2990,0879;0,0296393
2991,0522;0,029557
2992,0164;0,0295009
2992,9807;0,0294616
2993,9448;0,0294291
2994,9092;0,0293981
2995,8733;0,0293709
2996,8376;0,0293557
2997,8018;0,0293613
2998,7661;0,0293908
2999,7302;0,029439
3000,6946;0,029495
3001,6587;0,0295482
3002,6230;0,0295945
3003,5872;0,029639
3004,5515;0,0296922
3005,5156;0,0297634
3006,4800;0,029855
3007,4441;0,0299611
3008,4084;0,0300702
3009,3726;0,0301713
3010,3369;0,0302585
3011,3010;0,0303324
3012,2654;0,0303988
3013,2295;0,0304645
3014,1938;0,030535
3015,1580;0,0306135
3016,1223;0,030702
3017,0864;0,0308027
3018,0508;0,0309179
3019,0149;0,0310491
3019,9792;0,0311951
3020,9434;0,0313516
3021,9077;0,0315124
3022,8718;0,0316721
3023,8362;0,0318287
3024,8003;0,0319848
3025,7646;0,0321451
3026,7288;0,0323137
3027,6931;0,0324894
3028,6572;0,0326659
3029,6216;0,0328338
3030,5857;0,0329858
3031,5500;0,033122
3032,5142;0,0332508
3033,4785;0,0333847
3034,4426;0,0335337
3035,4070;0,0336994
3036,3711;0,0338752
3037,3354;0,0340505
3038,2996;0,0342174
3039,2639;0,0343753
3040,2280;0,0345301
3041,1924;0,0346911
3042,1565;0,0348665
3043,1208;0,0350603
3044,0850;0,0352718
3045,0493;0,0354956
3046,0134;0,035722
3046,9778;0,03594
3047,9419;0,0361408
3048,9063;0,0363231
3049,8704;0,0364952
3050,8347;0,0366721
3051,7988;0,0368674
3052,7632;0,0370863
3053,7273;0,0373223
3054,6917;0,0375619
3055,6558;0,0377935
3056,6201;0,0380138
3057,5842;0,0382288
3058,5486;0,0384485
3059,5127;0,03868
3060,4771;0,0389222
3061,4412;0,0391671
3062,4055;0,039403
3063,3696;0,039619
3064,3340;0,0398085
3065,2981;0,0399719
3066,2625;0,040117
3067,2266;0,0402581
3068,1909;0,0404116
3069,1550;0,0405902
3070,1194;0,0407971
3071,0835;0,0410252
3072,0479;0,04126
3073,0120;0,041487
3073,9763;0,041698
3074,9404;0,0418938
3075,9048;0,0420814
3076,8689;0,0422685
3077,8333;0,0424586
3078,7974;0,04265
3079,7617;0,0428382
3080,7258;0,0430198
3081,6902;0,0431944
3082,6543;0,0433648
3083,6187;0,0435345
3084,5828;0,0437057
3085,5471;0,0438795
3086,5112;0,0440567
3087,4756;0,0442395
3088,4397;0,0444322
3089,4041;0,0446399
3090,3682;0,0448658
3091,3325;0,0451087
3092,2966;0,0453621
3093,2610;0,0456152
3094,2251;0,0458562
3095,1895;0,046077
3096,1536;0,046277
3097,1179;0,046463
3098,0820;0,0466463
3099,0464;0,0468373
3100,0105;0,0470401
3100,9749;0,0472515
3101,9390;0,0474629
3102,9033;0,0476659
3103,8674;0,0478567
3104,8318;0,0480387
3105,7959;0,0482206
3106,7603;0,0484128
3107,7244;0,0486235
3108,6887;0,0488564
3109,6528;0,04911
3110,6172;0,0493788
3111,5813;0,0496551
3112,5457;0,0499307
3113,5098;0,0501986
3114,4741;0,0504541
3115,4382;0,0506961
3116,4026;0,0509277
3117,3667;0,0511551
3118,3311;0,051386
3119,2952;0,0516267
3120,2595;0,0518791
3121,2236;0,0521406
3122,1880;0,052405
3123,1521;0,0526654
3124,1165;0,0529174
3125,0806;0,0531608
3126,0449;0,0533989
3127,0090;0,053637
3127,9734;0,05388
3128,9375;0,0541319
3129,9019;0,0543949
3130,8660;0,0546692
3131,8303;0,0549522
3132,7944;0,0552384
3133,7588;0,0555198
3134,7229;0,0557898
3135,6873;0,0560463
3136,6514;0,0562944
3137,6157;0,0565443
3138,5798;0,0568073
3139,5442;0,05709
3140,5083;0,0573911
3141,4727;0,0577036
3142,4368;0,058019
3143,4011;0,0583327
3144,3652;0,0586454
3145,3296;0,0589603
3146,2937;0,0592786
3147,2581;0,0595965
3148,2222;0,0599064
3149,1865;0,0602014
3150,1506;0,0604804
3151,1150;0,0607489
3152,0791;0,0610169
3153,0435;0,0612937
3154,0076;0,061584
3154,9719;0,0618871
3155,9360;0,0621988
3156,9004;0,0625148
3157,8645;0,062832
3158,8289;0,0631492
3159,7930;0,0634656
3160,7573;0,0637812
3161,7214;0,0640967
3162,6858;0,0644135
3163,6499;0,0647338
3164,6143;0,0650583
3165,5784;0,0653858
3166,5427;0,0657122
3167,5068;0,0660327
3168,4712;0,0663447
3169,4353;0,0665635
3170,3997;0,0668665
3171,3638;0,0671754
3172,3281;0,0674949
3173,2922;0,0678246
3174,2566;0,0681589
3175,2207;0,0684894
3176,1851;0,0688087
3177,1492;0,0691137
3178,1135;0,0694067
3179,0776;0,0696942
3180,0420;0,0699845
3181,0061;0,0702843
3181,9705;0,0705971
3182,9346;0,0709211
3183,8989;0,0712501
3184,8630;0,0715736
3185,8274;0,071881
3186,7915;0,0721658
3187,7559;0,072429
3188,7200;0,0726801
3189,6843;0,0729338
3190,6484;0,0732039
3191,6128;0,0734981
3192,5769;0,073815
3193,5413;0,0741452
3194,5054;0,0744756
3195,4697;0,0747941
3196,4338;0,0750938
3197,3982;0,0753745
3198,3623;0,0756425
3199,3267;0,0759067
3200,2908;0,0761746
3201,2551;0,0764488
3202,2192;0,0767264
3203,1836;0,0770019
3204,1477;0,0772717
3205,1121;0,077537
3206,0762;0,0778036
3207,0405;0,078078
3208,0046;0,0783626
3208,9690;0,0786538
3209,9331;0,078944
3210,8975;0,079226
3211,8616;0,0794979
3212,8259;0,0797622
3213,7900;0,0800236
3214,7544;0,0802839
3215,7185;0,0805412
3216,6829;0,0807918
3217,6470;0,0810345
3218,6113;0,0812733
3219,5754;0,0815165
3220,5398;0,0817727
3221,5039;0,0820453
3222,4683;0,0823308
3223,4324;0,0826206
3224,3967;0,0829062
3225,3608;0,083183
3226,3252;0,0834513
3227,2893;0,0837138
3228,2537;0,0839717
3229,2178;0,0842238
3230,1821;0,0844674
3231,1462;0,0847028
3232,1106;0,0849342
3233,0747;0,0851687
3234,0391;0,0854116
3235,0032;0,0856637
3235,9675;0,085922
3236,9316;0,0861849
3237,8960;0,0864558
3238,8601;0,0867422
3239,8245;0,0870489
3240,7886;0,0873711
3241,7529;0,0876922
3242,7170;0,0879916
3243,6814;0,0882563
3244,6455;0,0884915
3245,6099;0,0887191
3246,5740;0,0889668
3247,5383;0,0892519
3248,5024;0,0895733
3249,4668;0,0899148
3250,4309;0,0902558
3251,3953;0,0905828
3252,3594;0,0908944
3253,3237;0,0911984
3254,2878;0,091504
3255,2522;0,0918162
3256,2163;0,092134
3257,1807;0,0924515
3258,1448;0,0927627
3259,1091;0,0930635
3260,0732;0,0933541
3261,0376;0,093639
3262,0017;0,0939256
3262,9661;0,09422
3263,9302;0,0945228
3264,8945;0,0948261
3265,8586;0,0951166
3266,8230;0,0953816
3267,7871;0,0956178
3268,7515;0,0958331
3269,7156;0,0960418
3270,6799;0,0962548
3271,6440;0,0964707
3272,6084;0,0966743
3273,5725;0,0968445
3274,5369;0,0969666
3275,5010;0,0970411
3276,4653;0,0970838
3277,4294;0,0971179
3278,3938;0,0971621
3279,3579;0,0972237
3280,3223;0,0972981
3281,2864;0,0973737
3282,2507;0,0974397
3283,2148;0,097491
3284,1792;0,0975292
3285,1433;0,0975599
3286,1077;0,0975877
3287,0718;0,0976132
3288,0361;0,0976326
3289,0002;0,0976401
3289,9646;0,0976312
3290,9287;0,0976068
3291,8931;0,097573
3292,8572;0,0975384
3293,8215;0,0975103
3294,7856;0,0974898
3295,7500;0,0974717
3296,7141;0,0974474
3297,6785;0,0974105
3298,6426;0,0973601
3299,6069;0,0973018
3300,5710;0,0972439
3301,5354;0,0971923
3302,4995;0,0971473
3303,4639;0,097104
3304,4280;0,0970555
3305,3923;0,0969971
3306,3564;0,096929
3307,3208;0,096856
3308,2849;0,0967859
3309,2493;0,0967271
3310,2134;0,0966866
3311,1777;0,096668
3312,1418;0,0966706
3313,1062;0,0966882
3314,0703;0,0967119
3315,0347;0,0967348
3315,9988;0,0967568
3316,9631;0,0967866
3317,9272;0,0968375
3318,8916;0,0969188
3319,8557;0,0970288
3320,8201;0,0971541
3321,7842;0,0972762
3322,7485;0,0973814
3323,7126;0,0974672
3324,6770;0,0975417
3325,6411;0,0976159
3326,6055;0,0976969
3327,5696;0,097785
3328,5339;0,0978773
3329,4980;0,0979707
3330,4624;0,0980633
3331,4265;0,0981509
3332,3909;0,0982231
3333,3550;0,0982643
3334,3193;0,0982584
3335,2834;0,0981961
3336,2478;0,0980793
3337,2119;0,0979192
3338,1763;0,0977302
3339,1404;0,0975245
3340,1047;0,0973102
3341,0688;0,0970927
3342,0332;0,0968769
3342,9973;0,0966661
3343,9617;0,0964598
3344,9258;0,0962509
3345,8901;0,0960272
3346,8542;0,0957761
3347,8186;0,0954906
3348,7827;0,0951741
3349,7471;0,0948399
3350,7112;0,0945068
3351,6755;0,0941927
3352,6396;0,0939077
3353,6040;0,0936514
3354,5681;0,0934139
3355,5325;0,0931805
3356,4966;0,0929393
3357,4609;0,0926857
3358,4250;0,0924243
3359,3894;0,092165
3360,3535;0,0919172
3361,3179;0,091684
3362,2820;0,0914608
3363,2463;0,0912375
3364,2104;0,0910042
3365,1748;0,0907557
3366,1389;0,0904934
3367,1033;0,0902236
3368,0674;0,0899532
3369,0317;0,0896874
3369,9958;0,0894276
3370,9602;0,0891721
3371,9243;0,0889177
3372,8887;0,0886611
3373,8528;0,0884004
3374,8171;0,0881355
3375,7813;0,0878687
3376,7456;0,0876034
3377,7097;0,0873427
3378,6741;0,0870875
3379,6382;0,0868365
3380,6025;0,086587
3381,5667;0,086338
3382,5310;0,0860913
3383,4951;0,0858514
3384,4595;0,0856233
3385,4236;0,0854091
3386,3879;0,0852074
3387,3521;0,0850134
3388,3164;0,0848208
3389,2805;0,0846243
3390,2449;0,0844197
3391,2090;0,0842046
3392,1733;0,0839781
3393,1375;0,0837413
3394,1018;0,0834981
3395,0659;0,0832544
3396,0303;0,083017
3396,9944;0,0827906
3397,9587;0,082575
3398,9229;0,082363
3399,8872;0,0821419
3400,8513;0,0818982
3401,8157;0,081624
3402,7798;0,0813222
3403,7441;0,081006
3404,7083;0,0806935
3405,6726;0,0803991
3406,6367;0,0801268
3407,6011;0,0798694
3408,5652;0,0796128
3409,5295;0,0793431
3410,4937;0,079053
3411,4580;0,0787437
3412,4221;0,078424
3413,3865;0,0781054
3414,3506;0,0777972
3415,3149;0,077502
3416,2791;0,0772151
3417,2434;0,0769258
3418,2075;0,0766219
3419,1719;0,0762948
3420,1360;0,0759439
3421,1003;0,0755767
3422,0645;0,0752043
3423,0288;0,0748361
3423,9929;0,0744762
3424,9573;0,0741244
3425,9214;0,0737798
3426,8857;0,0734425
3427,8499;0,0731133
3428,8142;0,0727913
3429,7783;0,072472
3430,7427;0,0721478
3431,7068;0,071811
3432,6711;0,0714574
3433,6353;0,0710895
3434,5996;0,0707155
3435,5637;0,0703463
3436,5281;0,0699906
3437,4922;0,0696525
3438,4565;0,0693316
3439,4207;0,0690251
3440,3850;0,0687303
3441,3491;0,0684443
3442,3135;0,0681617
3443,2776;0,0678725
3444,2419;0,0675623
3445,2061;0,0672173
3446,1704;0,0668305
3447,1345;0,0664073
3448,0989;0,0659638
3449,0630;0,0655198
3450,0273;0,0650906
3450,9915;0,0646838
3451,9558;0,0643024
3452,9199;0,0639463
3453,8843;0,0636131
3454,8484;0,0632966
3455,8127;0,0629876
3456,7769;0,0626773
3457,7412;0,0623598
3458,7053;0,0620341
3459,6697;0,0617015
3460,6338;0,0613623
3461,5981;0,061014
3462,5623;0,0606522
3463,5266;0,0602737
3464,4907;0,0598789
3465,4551;0,0594724
3466,4192;0,0590615
3467,3835;0,0586556
3468,3477;0,0582637
3469,3120;0,0578919
3470,2761;0,0575409
3471,2405;0,0572042
3472,2046;0,0568709
3473,1689;0,0565317
3474,1331;0,0561866
3475,0974;0,0558468
3476,0615;0,0555281
3477,0259;0,0552397
3477,9900;0,0549743
3478,9543;0,0547093
3479,9185;0,0544165
3480,8828;0,0540778
3481,8469;0,0536965
3482,8113;0,0532944
3483,7754;0,0528962
3484,7397;0,0525142
3485,7039;0,0521442
3486,6682;0,0517733
3487,6323;0,0513931
3488,5967;0,0510085
3489,5608;0,0506364
3490,5251;0,0502953
3491,4893;0,0499936
3492,4536;0,0497244
3493,4177;0,0494684
3494,3821;0,0492044
3495,3462;0,0489218
3496,3105;0,0486271
3497,2747;0,0483393
3498,2390;0,0480744
3499,2031;0,0478312
3500,1675;0,0475868
3501,1316;0,0473057
3502,0959;0,0469611
3503,0601;0,0465569
3504,0244;0,0461306
3504,9885;0,0457277
3505,9529;0,0453709
3506,9170;0,0450487
3507,8813;0,0447272
3508,8455;0,0443727
3509,8098;0,0439732
3510,7739;0,0435463
3511,7383;0,0431263
3512,7024;0,0427418
3513,6667;0,0424017
3514,6309;0,0420982
3515,5952;0,0418184
3516,5593;0,0415554
3517,5237;0,0413115
3518,4878;0,0410944
3519,4521;0,0409084
3520,4163;0,0407476
3521,3806;0,0405935
3522,3447;0,0404196
3523,3091;0,0402001
3524,2732;0,039919
3525,2375;0,0395726
3526,2017;0,0391674
3527,1660;0,0387173
3528,1301;0,038243
3529,0945;0,0377716
3530,0586;0,0373306
3531,0229;0,0369375
3531,9871;0,0365924
3532,9514;0,0362798
3533,9155;0,0359754
3534,8799;0,0356576
3535,8440;0,035319
3536,8083;0,0349757
3537,7725;0,0346626
3538,7368;0,034416
3539,7009;0,0342534
3540,6653;0,0341633
3541,6294;0,0341064
3542,5938;0,0340239
3543,5579;0,0338517
3544,5222;0,0335478
3545,4863;0,0331207
3546,4507;0,0326316
3547,4148;0,0321557
3548,3792;0,0317348
3549,3433;0,031364
3550,3076;0,0310103
3551,2717;0,0306407
3552,2361;0,0302445
3553,2002;0,0298408
3554,1646;0,0294657
3555,1287;0,0291473
3556,0930;0,0288921
3557,0571;0,0286906
3558,0215;0,028532
3558,9856;0,0284139
3559,9500;0,0283424
3560,9141;0,028322
3561,8784;0,0283426
3562,8425;0,0283692
3563,8069;0,028335
3564,7710;0,0281382
3565,7354;0,0276706
3566,6995;0,0269179
3567,6638;0,026041
3568,6279;0,0252734
3569,5923;0,0247339
3570,5564;0,0243873
3571,5208;0,0241355
3572,4849;0,0238986
3573,4492;0,0236433
3574,4133;0,023373
3575,3777;0,0231074
3576,3418;0,0228641
3577,3062;0,0226526
3578,2703;0,02248
3579,2346;0,0223569
3580,1987;0,0222932
3581,1631;0,0222851
3582,1272;0,022305
3583,0916;0,022305
3584,0557;0,02223
3585,0200;0,0220302
3585,9841;0,0216809
3586,9485;0,0212287
3587,9126;0,0208126
3588,8770;0,0205759
3589,8411;0,0205452
3590,8054;0,0206269
3591,7695;0,0206924
3592,7339;0,0206475
3593,6980;0,0204624
3594,6624;0,0201742
3595,6265;0,0198595
3596,5908;0,0195786
3597,5549;0,0193336
3598,5193;0,0190801
3599,4834;0,0187764
3600,4478;0,0184252
3601,4119;0,0180736
3602,3762;0,0177696
3603,3403;0,0175186
3604,3047;0,0172777
3605,2688;0,0169807
3606,2332;0,0165697
3607,1973;0,0160293
3608,1616;0,0154144
3609,1257;0,0148362
3610,0901;0,0144029
3611,0542;0,0141647
3612,0186;0,014102
3612,9827;0,0141461
3613,9470;0,0142082
3614,9111;0,0142064
3615,8755;0,0140877
3616,8396;0,0138417
3617,8040;0,0135095
3618,7681;0,013187
3619,7324;0,0130005
3620,6965;0,0130358
3621,6609;0,0132692
3622,6250;0,0135763
3623,5894;0,0138037
3624,5535;0,0138347
3625,5178;0,0136133
3626,4819;0,0131329
3627,4463;0,0124251
3628,4104;0,0116003
3629,3748;0,0108724
3630,3389;0,0104025
3631,3032;0,0101393
3632,2673;0,00990505
3633,2317;0,00956337
3634,1958;0,00909082
3635,1602;0,00855461
3636,1243;0,00804655
3637,0886;0,00762263
3638,0527;0,00728691
3639,0171;0,00702022
3639,9812;0,00681674
3640,9456;0,00669214
3641,9097;0,00665991
3642,8740;0,00670449
3643,8381;0,00678007
3644,8025;0,00683357
3645,7666;0,00681798
3646,7310;0,00665882
3647,6951;0,00620955
3648,6594;0,005387
3649,6235;0,00444703
3650,5879;0,00379126
3651,5520;0,00350566
3652,5164;0,00338818
3653,4805;0,00322126
3654,4448;0,00291078
3655,4089;0,00249605
3656,3733;0,00209823
3657,3374;0,00183142
3658,3018;0,00172197
3659,2659;0,00170641
3660,2302;0,00170369
3661,1943;0,00168189
3662,1587;0,00166566
3663,1228;0,00169288
3664,0872;0,00176712
3665,0513;0,00185467
3666,0156;0,00192112
3666,9797;0,00196728
3667,9441;0,00202055
3668,9082;0,00209086
3669,8726;0,0021533
3670,8367;0,00217193
3671,8010;0,00211218
3672,7651;0,0019491
3673,7295;0,0016892
3674,6936;0,00137749
3675,6580;0,00109142
3676,6221;0,000921062
3677,5864;0,000900538
3678,5505;0,00097218
3679,5149;0,00105694
3680,4790;0,00113118
3681,4434;0,00122641
3682,4075;0,00137421
3683,3718;0,00155878
3684,3359;0,00172103
3685,3003;0,00180778
3686,2644;0,00182045
3687,2288;0,00181836
3688,1929;0,00186735
3689,1572;0,0019902
3690,1213;0,0021793
3691,0857;0,00241767
3692,0498;0,00266872
3693,0142;0,00288894
3693,9783;0,00305588
3694,9426;0,00317113
3695,9067;0,00324232
3696,8711;0,00326871
3697,8352;0,00324433
3698,7996;0,00317301
3699,7637;0,00308036
3700,7280;0,00301158
3701,6921;0,0030152
3702,6565;0,00311919
3703,6206;0,00331123
3704,5850;0,00353945
3705,5491;0,00373564
3706,5134;0,00383944
3707,4775;0,00380029
3708,4419;0,00355411
3709,4060;0,00301262
3710,3704;0,00214616
3711,3345;0,00113499
3712,2988;0,000325603
3713,2629;-4,91891E-05
3714,2273;-2,95762E-06
3715,1914;0,000320201
3716,1558;0,000786597
3717,1199;0,00132567
3718,0842;0,00191548
3719,0483;0,00254375
3720,0127;0,0031782
3720,9768;0,00376478
3721,9412;0,00424853
3722,9053;0,00459597
3723,8696;0,00480483
3724,8337;0,00490172
3725,7981;0,00492798
3726,7622;0,00491601
3727,7266;0,00487264
3728,6907;0,00478674
3729,6550;0,00465275
3730,6191;0,00448444
3731,5835;0,00430002
3732,5476;0,00408109
3733,5120;0,00374944
3734,4761;0,00324237
3735,4404;0,00265447
3736,4045;0,00220942
3737,3689;0,00202813
3738,3330;0,00201408
3739,2974;0,00195505
3740,2615;0,00166867
3741,2258;0,00109036
3742,1899;0,000310315
3743,1543;-0,000438884
3744,1184;-0,000881512
3745,0828;-0,000883379
3746,0469;-0,000565143
3747,0112;-0,000202049
3747,9753;-3,956E-05
3748,9397;-0,000199552
3749,9038;-0,000656496
3750,8682;-0,00120813
3751,8323;-0,00154805
3752,7966;-0,00152363
3753,7607;-0,001251
3754,7251;-0,000952231
3755,6892;-0,000786036
3756,6536;-0,00080212
3757,6177;-0,000962599
3758,5820;-0,00117523
3759,5461;-0,00133483
3760,5105;-0,00137783
3761,4746;-0,00131206
3762,4390;-0,00119411
3763,4031;-0,00108645
3764,3674;-0,00103239
3765,3315;-0,00105213
3766,2959;-0,00114701
3767,2600;-0,00130366
3768,2244;-0,00149658
3769,1885;-0,00168825
3770,1528;-0,00183099
3771,1169;-0,00188203
3772,0813;-0,00182938
3773,0454;-0,00170481
3774,0098;-0,00156729
3774,9739;-0,00147141
3775,9382;-0,00144484
3776,9023;-0,00148457
3777,8667;-0,00156371
3778,8308;-0,0016378
3779,7952;-0,00165934
3780,7593;-0,00160658
3781,7236;-0,00150162
3782,6877;-0,00139748
3783,6521;-0,00134866
3784,6162;-0,00138522
3785,5806;-0,00149819
3786,5447;-0,00164403
3787,5090;-0,0017681
3788,4731;-0,0018335
3789,4375;-0,00183534
3790,4016;-0,00179201
3791,3660;-0,00172185
3792,3301;-0,00162228
3793,2944;-0,00146788
3794,2585;-0,00123325
3795,2229;-0,000927073
3796,1870;-0,000607802
3797,1514;-0,000362745
3798,1155;-0,000265745
3799,0798;-0,000343777
3800,0439;-0,000565451
3801,0083;-0,000849247
3801,9724;-0,00110277
3802,9368;-0,00129138
3803,9009;-0,0014642
3804,8652;-0,00169308
3805,8293;-0,00198424
3806,7937;-0,00224315
3807,7578;-0,00233032
3808,7222;-0,00218022
3809,6863;-0,00186841
3810,6506;-0,00155143
3811,6147;-0,00135119
3812,5791;-0,00128452
3813,5432;-0,00126849
3814,5076;-0,00118921
3815,4717;-0,000992553
3816,4360;-0,000728379
3817,4001;-0,000517122
3818,3645;-0,000478123
3819,3286;-0,000666145
3820,2930;-0,00102604
3821,2571;-0,0013941
3822,2214;-0,0015978
3823,1855;-0,0015871
3824,1499;-0,00144648
3825,1140;-0,00129768
3826,0784;-0,00121448
3827,0425;-0,00119986
3828,0068;-0,00120846
3828,9709;-0,00118592
3829,9353;-0,00110217
3830,8994;-0,000964478
3831,8638;-0,0008095
3832,8279;-0,000683062
3833,7922;-0,000618465
3834,7563;-0,000623458
3835,7207;-0,000683317
3836,6848;-0,000778082
3837,6492;-0,000897426
3838,6133;-0,0010358
3839,5776;-0,00118311
3840,5417;-0,00133057
3841,5061;-0,00147353
3842,4702;-0,00159319
3843,4346;-0,00164162
3844,3987;-0,00155945
3845,3630;-0,00132126
3846,3271;-0,00097153
3847,2915;-0,000619221
3848,2556;-0,000396374
3849,2200;-0,000410868
3850,1841;-0,000718401
3851,1484;-0,00132131
3852,1125;-0,00215643
3853,0769;-0,00298857
3854,0410;-0,00339643
3855,0054;-0,00316568
3855,9695;-0,00251387
3856,9338;-0,00180293
3857,8979;-0,00127131
3858,8623;-0,000986689
3859,8264;-0,00089643
3860,7908;-0,000896424
3861,7549;-0,000898299
3862,7192;-0,000872754
3863,6833;-0,000841671
3864,6477;-0,000836462
3865,6118;-0,000872214
3866,5762;-0,000946543
3867,5403;-0,00104382
3868,5046;-0,00114354
3869,4688;-0,00123438
3870,4331;-0,00131917
3871,3972;-0,0014016
3872,3616;-0,00147367
3873,3257;-0,00152244
3874,2900;-0,0015441
3875,2542;-0,00154569
3876,2185;-0,00153291
3877,1826;-0,00149866
3878,1470;-0,00142599
3879,1111;-0,00130919
3880,0754;-0,0011757
3881,0396;-0,00108264
3882,0039;-0,00108599
3882,9680;-0,00120689
3883,9324;-0,00141465
3884,8965;-0,00163482
3885,8608;-0,00178726
3886,8250;-0,00183671
3887,7893;-0,00181139
3888,7534;-0,00176947
3889,7178;-0,00174856
3890,6819;-0,00174066
3891,6462;-0,00170208
3892,6104;-0,00158902
3893,5747;-0,00140085
3894,5388;-0,00119053
3895,5032;-0,00102446
3896,4673;-0,000934814
3897,4316;-0,000909086
3898,3958;-0,000917536
3899,3601;-0,00094671
3900,3242;-0,00100891
3901,2886;-0,00112575
3902,2527;-0,00130701
3903,2170;-0,0015349
3904,1812;-0,00176131
3905,1455;-0,0019327
3906,1096;-0,0020265
3907,0740;-0,00205931
3908,0381;-0,00206157
3909,0024;-0,00205021
3909,9666;-0,00202169
3910,9309;-0,00196366
3911,8950;-0,0018711
3912,8594;-0,00175455
3913,8235;-0,00163725
3914,7878;-0,0015463
3915,7520;-0,00150232
3916,7163;-0,00150705
3917,6804;-0,00153399
3918,6448;-0,00153962
3919,6089;-0,00149573
3920,5732;-0,00141276
3921,5374;-0,00133114
3922,5017;-0,00129348
3923,4658;-0,00131742
3924,4302;-0,00138186
3925,3943;-0,00143792
3926,3586;-0,00144303
3927,3228;-0,00139019
3928,2871;-0,0013097
3929,2512;-0,00125079
3930,2156;-0,00125898
3931,1797;-0,00135295
3932,1440;-0,00150854
3933,1082;-0,0016695
3934,0725;-0,0017837
3935,0366;-0,00183082
3936,0010;-0,00182079
3936,9651;-0,00177585
3937,9294;-0,00171577
3938,8936;-0,00165306
3939,8579;-0,00159515
3940,8220;-0,00154747
3941,7864;-0,00151251
3942,7505;-0,00148637
3943,7148;-0,0014592
3944,6790;-0,00142398
3945,6433;-0,00138441
3946,6074;-0,00135551
3947,5718;-0,00135733
3948,5359;-0,00140476
3949,5002;-0,00149686
3950,4644;-0,00161406
3951,4287;-0,00172838
3952,3928;-0,00181791
3953,3572;-0,0018731
3954,3213;-0,00189479
3955,2856;-0,00188989
3956,2498;-0,00186825
3957,2141;-0,00184056
3958,1782;-0,00181678
3959,1426;-0,00180516
3960,1067;-0,00181129
3961,0710;-0,00183666
3962,0352;-0,00187734
3962,9995;-0,00192436
3963,9636;-0,00196685
3964,9280;-0,00199559
3965,8921;-0,00200596
3966,8564;-0,00199821
3967,8206;-0,0019764
3968,7849;-0,00194666
3969,7490;-0,00191561
3970,7134;-0,0018892
3971,6775;-0,0018721
3972,6418;-0,00186727
3973,6060;-0,00187522
3974,5703;-0,00189347
3975,5344;-0,00191719
3976,4988;-0,00194103
3977,4629;-0,0019616
3978,4272;-0,00197896
3979,3914;-0,00199643
3980,3557;-0,00201874
3981,3198;-0,0020493
3982,2842;-0,00208733
3983,2483;-0,0021265
3984,2126;-0,00215623
3985,1768;-0,00216568
3986,1411;-0,00214869
3987,1052;-0,00210712
3988,0696;-0,00205109
3989,0337;-0,00199491
3989,9980;-0,00195202
3990,9622;-0,00193047
3991,9265;-0,00193199
3992,8906;-0,00195388
3993,8550;-0,00199148
3994,8191;-0,00203897
3995,7834;-0,0020891
3996,7476;-0,00213363
3997,7119;-0,00216543
3998,6760;-0,00218136
3999,6404;-0,00218322
4000,6045;-0,00191489

##### Extended Information
[Comments]
Sample name
Comment
Username
Division
Organization;UNIVERSIDAD INDUSTRIAL DE SANTANDER

[Detailed Information]
Creation date;19/03/2025 2:36 p.m.

Data array type;Linear data array
Horizontal axis;Wavenumber [cm-1]
Vertical axis;Abs
Start;399,193 cm-1
End;4000,6 cm-1
Data interval;0,964233 cm-1
Data points;3736    

[Measurement Information]
Model name;FT/IR-4X1typeA
Serial No.;A035162111

Accessory;ATR PRO 4X
Accessory S/N;A021162126
Incident angle;45 deg

Measurement date;19/03/2025 2:35 p.m.

Light source;Standard
Detector;TGS
Accumulation;40
Resolution;4 cm-1
Zero filling;On
Apodization;Cosine
Gain;Auto (8)
Aperture;Auto (7 mm)
Scan speed;Auto (2 mm/sec)
Filter;Auto (12800 Hz)

