TITLE;
DATA TYPE;INFRARED SPECTRUM
ORIGIN;JASCO
OWNER;
DATE;25/03/19
TIME;14:40:10
SPECTROMETER/DATA SYSTEM;
LOCALE;9226
RESOLUTION;
DELTAX;0,964233
XUNITS;1/CM
YUNITS;ABSORBANCE
FIRSTX;  399,1927
LASTX; 4000,6047
NPOINTS;    3736
FIRSTY;     0,24766
MAXY;     0,30941
MINY;    -0,00398
XYDATA
399,1927;0,247657
400,1569;0,246232
401,1211;0,2449
402,0854;0,243724
403,0496;0,24281
404,0138;0,242268
404,9781;0,242155
405,9423;0,24242
406,9065;0,242904
407,8708;0,243404
408,8350;0,243764
409,7992;0,243936
410,7635;0,243997
411,7277;0,244115
412,6919;0,244472
413,6562;0,245171
414,6204;0,246172
415,5846;0,247266
416,5489;0,248083
417,5131;0,248198
418,4773;0,247504
419,4416;0,246607
420,4058;0,246423
421,3700;0,247294
422,3343;0,248867
423,2985;0,250533
424,2627;0,251778
425,2270;0,252357
426,1912;0,252356
427,1554;0,252079
428,1197;0,251802
429,0839;0,251588
430,0481;0,251297
431,0124;0,250749
431,9766;0,249918
432,9408;0,249
433,9051;0,248315
434,8693;0,248092
435,8335;0,24829
436,7978;0,248586
437,7620;0,248566
438,7262;0,247968
439,6905;0,246821
440,6547;0,245405
441,6189;0,244102
442,5832;0,243198
443,5474;0,242737
444,5116;0,242535
445,4759;0,242355
446,4401;0,242079
447,4043;0,241737
448,3686;0,24142
449,3328;0,24118
450,2970;0,24102
451,2613;0,240943
452,2255;0,241
453,1897;0,241267
454,1540;0,241752
455,1182;0,242312
456,0824;0,242659
457,0467;0,242491
458,0109;0,241726
458,9751;0,240614
459,9394;0,239559
460,9036;0,238817
461,8678;0,238388
462,8321;0,238131
463,7963;0,237925
464,7605;0,237754
465,7248;0,237685
466,6890;0,23777
467,6532;0,237969
468,6175;0,238153
469,5817;0,23819
470,5459;0,238038
471,5102;0,237779
472,4744;0,237576
473,4386;0,237561
474,4029;0,237748
475,3671;0,238058
476,3313;0,238379
477,2956;0,238623
478,2598;0,238726
479,2240;0,238651
480,1883;0,238397
481,1525;0,238009
482,1167;0,237595
483,0810;0,237302
484,0452;0,237263
485,0094;0,237537
485,9737;0,238072
486,9379;0,238741
487,9021;0,239408
488,8664;0,239984
489,8306;0,240433
490,7948;0,240758
491,7591;0,240968
492,7233;0,241063
493,6875;0,241034
494,6518;0,240891
495,6160;0,240688
496,5802;0,240531
497,5445;0,240549
498,5087;0,240836
499,4729;0,241404
500,4372;0,242149
501,4014;0,242875
502,3656;0,243388
503,3299;0,243604
504,2941;0,243595
505,2583;0,243533
506,2226;0,243589
507,1868;0,243855
508,1510;0,244323
509,1153;0,244913
510,0795;0,245544
511,0437;0,246175
512,0080;0,246814
512,9722;0,247491
513,9365;0,248226
514,9007;0,249004
515,8649;0,249771
516,8292;0,250438
517,7934;0,250903
518,7576;0,251099
519,7219;0,251024
520,6861;0,250753
521,6503;0,250408
522,6146;0,250112
523,5788;0,249962
524,5430;0,249993
525,5073;0,250158
526,4715;0,250341
527,4357;0,250424
528,4000;0,250353
529,3642;0,250153
530,3284;0,24989
531,2927;0,249608
532,2569;0,249283
533,2211;0,248836
534,1854;0,248182
535,1496;0,247311
536,1138;0,246321
537,0781;0,245389
538,0423;0,244693
539,0065;0,244327
539,9708;0,244275
540,9350;0,244439
541,8992;0,244714
542,8635;0,245031
543,8277;0,245367
544,7919;0,245715
545,7562;0,246053
546,7204;0,246346
547,6846;0,24657
548,6489;0,246744
549,6131;0,246926
550,5773;0,247178
551,5416;0,247533
552,5058;0,247967
553,4700;0,248419
554,4343;0,248812
555,3985;0,249076
556,3627;0,249159
557,3270;0,249018
558,2912;0,248626
559,2554;0,247977
560,2197;0,247095
561,1839;0,24604
562,1481;0,2449
563,1124;0,243768
564,0766;0,242721
565,0408;0,241801
566,0051;0,241015
566,9693;0,240341
567,9335;0,239749
568,8978;0,239212
569,8620;0,238713
570,8262;0,23825
571,7905;0,237821
572,7547;0,237427
573,7189;0,237064
574,6832;0,236725
575,6474;0,236406
576,6116;0,236098
577,5759;0,235796
578,5401;0,23549
579,5043;0,23517
580,4686;0,234826
581,4328;0,234448
582,3970;0,234026
583,3613;0,233556
584,3255;0,233052
585,2897;0,232551
586,2540;0,232115
587,2182;0,231807
588,1824;0,23167
589,1467;0,231694
590,1109;0,231813
591,0751;0,231915
592,0394;0,231886
593,0036;0,231657
593,9678;0,231233
594,9321;0,230677
595,8963;0,230071
596,8605;0,229479
597,8248;0,228936
598,7890;0,22844
599,7532;0,227976
600,7175;0,227519
601,6817;0,227048
602,6459;0,226546
603,6102;0,226004
604,5744;0,22543
605,5386;0,224843
606,5029;0,224259
607,4671;0,223673
608,4313;0,223047
609,3956;0,222322
610,3598;0,221466
611,3240;0,220515
612,2883;0,219585
613,2525;0,218822
614,2167;0,218312
615,1810;0,218002
616,1452;0,217675
617,1094;0,21703
618,0737;0,215845
619,0379;0,214115
620,0021;0,212065
620,9664;0,210024
621,9306;0,208274
622,8948;0,206946
623,8591;0,206002
624,8233;0,20522
625,7875;0,204527
626,7518;0,203791
627,7160;0,202973
628,6802;0,202103
629,6445;0,201248
630,6087;0,200456
631,5729;0,199748
632,5372;0,199112
633,5014;0,198518
634,4656;0,197943
635,4299;0,197383
636,3941;0,19686
637,3583;0,196405
638,3226;0,196035
639,2868;0,195734
640,2510;0,195461
641,2153;0,195166
642,1795;0,194824
643,1437;0,194458
644,1080;0,194121
645,0722;0,193863
646,0364;0,193694
647,0007;0,193565
647,9649;0,1934
648,9291;0,193141
649,8934;0,192791
650,8576;0,19242
651,8218;0,192135
652,7861;0,192023
653,7503;0,192117
654,7145;0,192376
655,6788;0,192708
656,6430;0,193006
657,6072;0,193207
658,5715;0,193299
659,5357;0,193294
660,4999;0,193164
661,4642;0,192799
662,4284;0,192021
663,3926;0,190656
664,3569;0,188677
665,3211;0,186411
666,2853;0,184644
667,2496;0,184222
668,2138;0,184981
669,1780;0,185678
670,1423;0,185678
671,1065;0,185143
672,0707;0,184121
673,0350;0,182555
673,9992;0,180566
674,9634;0,178432
675,9277;0,176418
676,8919;0,17462
677,8561;0,172981
678,8204;0,171397
679,7846;0,169834
680,7488;0,168334
681,7131;0,166968
682,6773;0,165764
683,6415;0,164706
684,6058;0,163748
685,5700;0,162855
686,5342;0,162013
687,4985;0,161224
688,4627;0,160506
689,4269;0,159854
690,3912;0,159259
691,3554;0,158703
692,3196;0,158156
693,2839;0,157587
694,2481;0,156982
695,2123;0,156349
696,1766;0,15572
697,1408;0,155124
698,1050;0,154569
699,0693;0,154031
700,0335;0,153478
700,9977;0,152884
701,9620;0,152249
702,9262;0,151592
703,8904;0,150908
704,8547;0,150205
705,8189;0,149472
706,7831;0,148697
707,7474;0,14788
708,7116;0,147042
709,6758;0,146205
710,6401;0,145376
711,6043;0,144534
712,5685;0,143644
713,5328;0,142695
714,4970;0,14173
715,4612;0,139598
716,4255;0,139107
717,3897;0,13886
718,3539;0,138675
719,3182;0,138255
720,2824;0,137348
721,2466;0,135898
722,2109;0,13409
723,1751;0,132229
724,1393;0,130575
725,1036;0,129232
726,0678;0,128146
727,0320;0,127183
727,9963;0,126227
728,9605;0,125239
729,9247;0,124251
730,8890;0,123321
731,8532;0,12249
732,8174;0,121763
733,7817;0,121115
734,7459;0,120518
735,7101;0,119953
736,6744;0,119416
737,6386;0,118913
738,6028;0,118448
739,5671;0,118021
740,5313;0,117615
741,4955;0,117201
742,4598;0,116746
743,4240;0,116226
744,3882;0,115643
745,3525;0,115022
746,3167;0,114398
747,2809;0,113793
748,2452;0,113211
749,2094;0,112638
750,1736;0,112059
751,1379;0,11147
752,1021;0,110886
753,0663;0,110321
754,0306;0,109781
754,9948;0,109251
755,9590;0,108707
756,9233;0,108132
757,8875;0,107532
758,8517;0,106936
759,8160;0,106376
760,7802;0,10587
761,7444;0,105409
762,7087;0,104959
763,6729;0,104485
764,6371;0,103966
765,6014;0,103409
766,5656;0,102844
767,5298;0,102302
768,4941;0,101804
769,4583;0,101345
770,4225;0,100902
771,3868;0,100446
772,3510;0,0999578
773,3152;0,0994348
774,2795;0,0988901
775,2437;0,0983452
776,2079;0,0978191
777,1722;0,097322
778,1364;0,0968531
779,1006;0,0964034
780,0649;0,0959603
781,0291;0,0955124
781,9933;0,0950524
782,9576;0,0945788
783,9218;0,0940967
784,8860;0,0936178
785,8503;0,0931586
786,8145;0,092736
787,7787;0,0923605
788,7430;0,0920308
789,7072;0,0917331
790,6714;0,0914469
791,6357;0,0911543
792,5999;0,0908483
793,5641;0,0905336
794,5284;0,0902208
795,4926;0,0899177
796,4568;0,0896247
797,4211;0,0893367
798,3853;0,0890489
799,3495;0,0887618
800,3138;0,0884805
801,2780;0,0882105
802,2422;0,0879535
803,2065;0,0877066
804,1707;0,0874658
805,1349;0,0872286
806,0992;0,0869955
807,0634;0,0867687
808,0276;0,0865502
808,9919;0,0863428
809,9561;0,0861505
810,9203;0,0859777
811,8846;0,0858258
812,8488;0,0856894
813,8130;0,0855569
814,7773;0,0854154
815,7415;0,0852587
816,7057;0,0850922
817,6700;0,0849312
818,6342;0,0847926
819,5984;0,0846851
820,5627;0,084605
821,5269;0,0845386
822,4911;0,0844713
823,4554;0,0843969
824,4196;0,0843207
825,3839;0,0842555
826,3481;0,0842113
827,3123;0,0841862
828,2766;0,0841638
829,2408;0,0841186
830,2050;0,0840282
831,1693;0,0838825
832,1335;0,0836869
833,0977;0,0834564
834,0620;0,0832052
835,0262;0,0829397
835,9904;0,0826589
836,9547;0,0823609
837,9189;0,0820499
838,8831;0,0817375
839,8474;0,0814383
840,8116;0,0811623
841,7758;0,0809116
842,7401;0,0806831
843,7043;0,0804742
844,6685;0,0802862
845,6328;0,0801233
846,5970;0,079987
847,5612;0,0798715
848,5255;0,0797649
849,4897;0,0796542
850,4539;0,0795328
851,4182;0,0794036
852,3824;0,0792777
853,3466;0,079169
854,3109;0,0790878
855,2751;0,0790371
856,2393;0,0790113
857,2036;0,0789993
858,1678;0,0789889
859,1320;0,0789711
860,0963;0,078943
861,0605;0,078907
862,0247;0,0788669
862,9890;0,0788253
863,9532;0,078783
864,9174;0,0787422
865,8817;0,0787107
866,8459;0,0787021
867,8101;0,0787312
868,7744;0,0788062
869,7386;0,0789223
870,7028;0,0790619
871,6671;0,0792003
872,6313;0,079314
873,5955;0,0793888
874,5598;0,0794233
875,5240;0,0794295
876,4882;0,0794306
877,4525;0,0794552
878,4167;0,0795313
879,3809;0,079679
880,3452;0,0799086
881,3094;0,0802226
882,2736;0,0806233
883,2379;0,0811175
884,2021;0,0817175
885,1663;0,0824348
886,1306;0,0832729
887,0948;0,084223
888,0590;0,0852649
889,0233;0,0863717
889,9875;0,0875121
890,9517;0,0886504
891,9160;0,0897471
892,8802;0,0907607
893,8444;0,0916542
894,8087;0,0924011
895,7729;0,0929862
896,7371;0,0934014
897,7014;0,0936394
898,6656;0,0936916
899,6298;0,0935533
900,5941;0,0932317
901,5583;0,0927537
902,5225;0,0921649
903,4868;0,0915222
904,4510;0,0908819
905,4152;0,0902907
906,3795;0,0897803
907,3437;0,0893677
908,3079;0,089058
909,2722;0,0888492
910,2364;0,0887369
911,2007;0,0887166
912,1649;0,0887852
913,1292;0,08894
914,0934;0,089178
915,0576;0,0894941
916,0219;0,0898815
916,9861;0,0903301
917,9503;0,0908258
918,9146;0,0913508
919,8788;0,0918844
920,8430;0,0924065
921,8073;0,0929007
922,7715;0,0933563
923,7357;0,0937667
924,7000;0,0941284
925,6642;0,0944395
926,6284;0,0947004
927,5927;0,0949151
928,5569;0,09509
929,5211;0,0952333
930,4854;0,0953527
931,4496;0,0954568
932,4138;0,0955574
933,3781;0,095671
934,3423;0,0958166
935,3065;0,0960113
936,2708;0,0962651
937,2350;0,0965803
938,1992;0,0969548
939,1635;0,0973884
940,1277;0,0978876
941,0919;0,0984661
942,0562;0,0991417
943,0204;0,0999312
943,9846;0,100846
944,9489;0,101887
945,9131;0,103046
946,8773;0,104307
947,8416;0,10565
948,8058;0,107061
949,7700;0,108539
950,7343;0,110095
951,6985;0,111748
952,6627;0,113521
953,6270;0,115427
954,5912;0,117469
955,5554;0,119637
956,5197;0,12191
957,4839;0,124261
958,4481;0,126659
959,4124;0,129083
960,3766;0,131524
961,3408;0,133989
962,3051;0,136492
963,2693;0,139047
964,2335;0,141659
965,1978;0,144318
966,1620;0,147018
967,1262;0,149757
968,0905;0,152556
969,0547;0,155449
970,0189;0,15848
970,9832;0,161689
971,9474;0,16511
972,9116;0,168771
973,8759;0,172693
974,8401;0,176901
975,8043;0,18141
976,7686;0,186221
977,7328;0,191309
978,6970;0,196614
979,6613;0,202044
980,6255;0,207473
981,5897;0,212763
982,5540;0,217778
983,5182;0,22241
984,4824;0,226593
985,4467;0,230309
986,4109;0,233584
987,3751;0,236469
988,3394;0,239024
989,3036;0,2413
990,2678;0,24333
991,2321;0,245132
992,1963;0,246715
993,1605;0,248089
994,1248;0,24927
995,0890;0,250288
996,0532;0,251175
997,0175;0,251962
997,9817;0,252673
998,9459;0,253325
999,9102;0,253938
1000,8744;0,254549
1001,8386;0,255218
1002,8029;0,256027
1003,7671;0,257062
1004,7313;0,25839
1005,6956;0,260047
1006,6598;0,262034
1007,6240;0,264327
1008,5883;0,266895
1009,5525;0,26971
1010,5167;0,272743
1011,4810;0,275952
1012,4452;0,279266
1013,4094;0,28259
1014,3737;0,285807
1015,3379;0,288812
1016,3021;0,291529
1017,2664;0,293926
1018,2306;0,296012
1019,1948;0,297825
1020,1591;0,299422
1021,1233;0,30086
1022,0875;0,30219
1023,0518;0,303447
1024,0160;0,304648
1024,9802;0,305785
1025,9445;0,306836
1026,9087;0,307768
1027,8729;0,308542
1028,8372;0,309111
1029,8014;0,309412
1030,7656;0,309358
1031,7299;0,308848
1032,6941;0,307788
1033,6583;0,306132
1034,6226;0,303912
1035,5868;0,301248
1036,5510;0,298327
1037,5153;0,295368
1038,4795;0,292571
1039,4437;0,290093
1040,4080;0,288029
1041,3722;0,286413
1042,3364;0,285221
1043,3007;0,284379
1044,2649;0,283775
1045,2291;0,283275
1046,1934;0,282753
1047,1576;0,282105
1048,1218;0,281254
1049,0861;0,28015
1050,0503;0,278749
1051,0145;0,277022
1051,9788;0,274954
1052,9430;0,27256
1053,9072;0,269884
1054,8715;0,266977
1055,8357;0,263866
1056,7999;0,260536
1057,7642;0,256931
1058,7284;0,252986
1059,6926;0,24867
1060,6569;0,244019
1061,6211;0,239143
1062,5853;0,234207
1063,5496;0,229395
1064,5138;0,224872
1065,4780;0,220757
1066,4423;0,217102
1067,4065;0,213892
1068,3707;0,211055
1069,3350;0,208481
1070,2992;0,206052
1071,2634;0,203665
1072,2277;0,201245
1073,1919;0,198748
1074,1561;0,19615
1075,1204;0,193439
1076,0846;0,190612
1077,0488;0,187682
1078,0131;0,184687
1078,9773;0,181694
1079,9415;0,178788
1080,9058;0,176055
1081,8700;0,173561
1082,8342;0,171334
1083,7985;0,16937
1084,7627;0,167642
1085,7269;0,166123
1086,6912;0,164796
1087,6554;0,163656
1088,6196;0,162705
1089,5839;0,161942
1090,5481;0,161357
1091,5123;0,160936
1092,4766;0,160665
1093,4408;0,160537
1094,4050;0,160549
1095,3693;0,160698
1096,3335;0,160974
1097,2977;0,161356
1098,2620;0,161811
1099,2262;0,162296
1100,1904;0,162769
1101,1547;0,163184
1102,1189;0,1635
1103,0831;0,163679
1104,0474;0,163698
1105,0116;0,163554
1105,9758;0,163264
1106,9401;0,162859
1107,9043;0,162366
1108,8685;0,161783
1109,8328;0,161073
1110,7970;0,16017
1111,7612;0,159008
1112,7255;0,157561
1113,6897;0,155861
1114,6539;0,154006
1115,6182;0,152122
1116,5824;0,150326
1117,5466;0,148688
1118,5109;0,147215
1119,4751;0,145859
1120,4393;0,144536
1121,4036;0,14315
1122,3678;0,141615
1123,3320;0,139861
1124,2963;0,137847
1125,2605;0,13556
1126,2247;0,133024
1127,1890;0,13029
1128,1532;0,127427
1129,1174;0,124507
1130,0817;0,121593
1131,0459;0,118736
1132,0101;0,115975
1132,9744;0,113346
1133,9386;0,110885
1134,9028;0,108634
1135,8671;0,106638
1136,8313;0,104933
1137,7955;0,10355
1138,7598;0,102499
1139,7240;0,101774
1140,6882;0,10135
1141,6525;0,101187
1142,6167;0,101239
1143,5809;0,10146
1144,5452;0,10181
1145,5094;0,102261
1146,4736;0,102794
1147,4379;0,1034
1148,4021;0,104074
1149,3663;0,104807
1150,3306;0,105583
1151,2948;0,106371
1152,2590;0,107131
1153,2233;0,107818
1154,1875;0,108379
1155,1517;0,108766
1156,1160;0,108925
1157,0802;0,108799
1158,0444;0,108327
1159,0087;0,107443
1159,9729;0,106083
1160,9371;0,104199
1161,9014;0,101766
1162,8656;0,0988039
1163,8298;0,0953775
1164,7941;0,0915995
1165,7583;0,0876164
1166,7225;0,0835882
1167,6868;0,0796651
1168,6510;0,0759677
1169,6152;0,0725765
1170,5795;0,06953
1171,5437;0,0668323
1172,5079;0,0644646
1173,4722;0,0623974
1174,4364;0,0606003
1175,4006;0,0590461
1176,3649;0,0577117
1177,3291;0,0565758
1178,2933;0,0556162
1179,2576;0,05481
1180,2218;0,0541349
1181,1860;0,0535734
1182,1503;0,0531143
1183,1145;0,0527525
1184,0787;0,0524872
1185,0430;0,0523192
1186,0072;0,0522495
1186,9714;0,0522803
1187,9357;0,0524148
1188,8999;0,0526568
1189,8641;0,0530088
1190,8284;0,0534703
1191,7926;0,0540383
1192,7568;0,0547078
1193,7211;0,0554738
1194,6853;0,0563302
1195,6495;0,0572674
1196,6138;0,0582694
1197,5780;0,0593151
1198,5422;0,0603812
1199,5065;0,0612046
1200,4707;0,0622885
1201,4349;0,0633562
1202,3992;0,0644038
1203,3634;0,0654269
1204,3276;0,0664195
1205,2919;0,0673754
1206,2561;0,0682932
1207,2203;0,0691803
1208,1846;0,0700547
1209,1488;0,0709442
1210,1130;0,0718812
1211,0773;0,0728955
1212,0415;0,0740072
1213,0057;0,0752214
1213,9700;0,0765272
1214,9342;0,0779019
1215,8984;0,0793177
1216,8627;0,0807459
1217,8269;0,0821601
1218,7911;0,0835405
1219,7554;0,0848728
1220,7196;0,0861473
1221,6838;0,0873589
1222,6481;0,0885054
1223,6123;0,0895858
1224,5765;0,0905993
1225,5408;0,0915445
1226,5050;0,0924207
1227,4692;0,093229
1228,4335;0,0939725
1229,3977;0,0946538
1230,3619;0,0952725
1231,3262;0,0958233
1232,2904;0,096298
1233,2546;0,0966891
1234,2189;0,096995
1235,1831;0,0972227
1236,1473;0,0973858
1237,1116;0,0975001
1238,0758;0,0975774
1239,0400;0,0976216
1240,0043;0,0976292
1240,9685;0,097592
1241,9327;0,0975005
1242,8970;0,0973463
1243,8612;0,0971223
1244,8254;0,0968222
1245,7897;0,0964429
1246,7539;0,0959879
1247,7181;0,0954704
1248,6824;0,0949125
1249,6466;0,0943398
1250,6108;0,093774
1251,5751;0,0932278
1252,5393;0,0927043
1253,5035;0,0922012
1254,4678;0,0917141
1255,4320;0,0912373
1256,3962;0,0907607
1257,3605;0,0902682
1258,3247;0,0897392
1259,2889;0,0891561
1260,2532;0,0885104
1261,2174;0,0878052
1262,1816;0,0870507
1263,1459;0,086257
1264,1101;0,0854302
1265,0743;0,0845725
1266,0386;0,083685
1267,0028;0,0827691
1267,9670;0,0818244
1268,9313;0,080846
1269,8955;0,0798256
1270,8597;0,078757
1271,8240;0,0776429
1272,7882;0,0765001
1273,7524;0,0753567
1274,7167;0,0742441
1275,6809;0,0731873
1276,6451;0,0721969
1277,6094;0,0712661
1278,5736;0,0703744
1279,5378;0,0694964
1280,5021;0,0686135
1281,4663;0,0677239
1282,4305;0,0668431
1283,3948;0,0659974
1284,3590;0,0652127
1285,3232;0,0645056
1286,2875;0,0638803
1287,2517;0,0633328
1288,2159;0,0628568
1289,1802;0,0624489
1290,1444;0,0621101
1291,1086;0,061844
1292,0729;0,0616558
1293,0371;0,0615511
1294,0013;0,0615359
1294,9656;0,0616145
1295,9298;0,0617875
1296,8940;0,0620505
1297,8583;0,0623963
1298,8225;0,0628189
1299,7867;0,0633163
1300,7510;0,0638897
1301,7152;0,0645426
1302,6794;0,0652726
1303,6437;0,06607
1304,6079;0,0669211
1305,5721;0,0678117
1306,5364;0,0687312
1307,5006;0,0696745
1308,4648;0,0706404
1309,4291;0,0716263
1310,3933;0,0726227
1311,3575;0,0736087
1312,3218;0,0745532
1313,2860;0,0754196
1314,2502;0,0761728
1315,2145;0,0767819
1316,1787;0,0772198
1317,1429;0,077465
1318,1072;0,0775111
1319,0714;0,0773787
1320,0356;0,0771187
1320,9999;0,0767979
1321,9641;0,0764755
1322,9283;0,0761869
1323,8926;0,0759435
1324,8568;0,075744
1325,8210;0,0755838
1326,7853;0,0754595
1327,7495;0,0753651
1328,7137;0,075288
1329,6780;0,0752066
1330,6422;0,0750968
1331,6064;0,0749408
1332,5707;0,074733
1333,5349;0,0744805
1334,4991;0,0741923
1335,4634;0,0738643
1336,4276;0,0734687
1337,3918;0,0729532
1338,3561;0,072265
1339,3203;0,0714002
1340,2845;0,0704365
1341,2488;0,0694982
1342,2130;0,0686829
1343,1772;0,0680253
1344,1415;0,0675153
1345,1057;0,0671307
1346,0699;0,0668576
1347,0342;0,0666937
1347,9984;0,0666464
1348,9626;0,0667243
1349,9269;0,0669292
1350,8911;0,0672488
1351,8553;0,0676585
1352,8196;0,0681303
1353,7838;0,0686437
1354,7480;0,0691929
1355,7123;0,0697842
1356,6765;0,0704265
1357,6407;0,0711232
1358,6050;0,0718725
1359,5692;0,0726678
1360,5334;0,0734858
1361,4977;0,0742727
1362,4619;0,0749659
1363,4261;0,0755445
1364,3904;0,0760431
1365,3546;0,0765056
1366,3188;0,076947
1367,2831;0,0773533
1368,2473;0,0776985
1369,2115;0,0779585
1370,1758;0,0781164
1371,1400;0,0781575
1372,1042;0,078061
1373,0685;0,0777967
1374,0327;0,0773437
1374,9969;0,0767183
1375,9612;0,0759702
1376,9254;0,0751328
1377,8896;0,0741921
1378,8539;0,0731147
1379,8181;0,071904
1380,7823;0,0706263
1381,7466;0,069378
1382,7108;0,0682202
1383,6750;0,0671415
1384,6393;0,0660777
1385,6035;0,0649674
1386,5677;0,0638163
1387,5320;0,0627295
1388,4962;0,0618546
1389,4604;0,0612619
1390,4247;0,0609028
1391,3889;0,0606821
1392,3531;0,0605397
1393,3174;0,0604668
1394,2816;0,0604666
1395,2458;0,0605147
1396,2101;0,0605636
1397,1743;0,0605849
1398,1385;0,0605984
1399,1028;0,060661
1400,0670;0,0608258
1401,0313;0,0611085
1401,9955;0,0614848
1402,9597;0,0619153
1403,9240;0,0623714
1404,8882;0,062848
1405,8524;0,0633611
1406,8167;0,0639318
1407,7809;0,0645669
1408,7451;0,0652584
1409,7094;0,0660023
1410,6736;0,0668086
1411,6378;0,0676863
1412,6021;0,0686172
1413,5663;0,069546
1414,5305;0,070403
1415,4948;0,0711404
1416,4590;0,0717476
1417,4232;0,0722294
1418,3875;0,0725955
1419,3517;0,0728986
1420,3159;0,0732172
1421,2802;0,0735429
1422,2444;0,0737548
1423,2086;0,0737219
1424,1729;0,073398
1425,1371;0,0728328
1426,1013;0,0721099
1427,0656;0,0712787
1428,0298;0,0703387
1428,9940;0,0692855
1429,9583;0,0681651
1430,9225;0,0670628
1431,8867;0,0660204
1432,8510;0,0649816
1433,8152;0,0638328
1434,7794;0,0624993
1435,7437;0,0610424
1436,7079;0,0597104
1437,6721;0,0588239
1438,6364;0,0585099
1439,6006;0,0586141
1440,5648;0,0588845
1441,5291;0,0591588
1442,4933;0,0594083
1443,4575;0,0596844
1444,4218;0,0600423
1445,3860;0,0604959
1446,3502;0,0610212
1447,3145;0,0615899
1448,2787;0,0621985
1449,2429;0,0628599
1450,2072;0,063557
1451,1714;0,0642091
1452,1356;0,0646977
1453,0999;0,0649371
1454,0641;0,0649331
1455,0283;0,0647637
1455,9926;0,0644412
1456,9568;0,0638708
1457,9210;0,0632261
1458,8853;0,0629468
1459,8495;0,0630928
1460,8137;0,0633305
1461,7780;0,0633253
1462,7422;0,0629014
1463,7064;0,0620286
1464,6707;0,0608113
1465,6349;0,0594823
1466,5991;0,0582591
1467,5634;0,0571551
1468,5276;0,0559993
1469,4918;0,0545933
1470,4561;0,0528063
1471,4203;0,05058
1472,3845;0,0479592
1473,3488;0,0452133
1474,3130;0,0427831
1475,2772;0,0409301
1476,2415;0,0395922
1477,2057;0,0385752
1478,1699;0,0377262
1479,1342;0,0369687
1480,0984;0,036279
1481,0626;0,0356655
1482,0269;0,0351588
1482,9911;0,0347948
1483,9553;0,0345922
1484,9196;0,0345458
1485,8838;0,0346423
1486,8480;0,0348644
1487,8123;0,0351545
1488,7765;0,0354049
1489,7407;0,0355807
1490,7050;0,0358051
1491,6692;0,0361968
1492,6334;0,0367407
1493,5977;0,0373724
1494,5619;0,0380918
1495,5261;0,0389746
1496,4904;0,0400876
1497,4546;0,0414028
1498,4188;0,0428288
1499,3831;0,0442746
1500,3473;0,0456178
1501,3115;0,0466921
1502,2758;0,0473686
1503,2400;0,047658
1504,2042;0,0477735
1505,1685;0,0480593
1506,1327;0,0486007
1507,0969;0,0488765
1508,0612;0,0485679
1509,0254;0,048113
1509,9896;0,0478027
1510,9539;0,0475389
1511,9181;0,0471796
1512,8823;0,0466824
1513,8466;0,0460705
1514,8108;0,045364
1515,7750;0,044552
1516,7393;0,0436166
1517,7035;0,0425695
1518,6677;0,0414575
1519,6320;0,0403486
1520,5962;0,039324
1521,5604;0,0384747
1522,5247;0,0378677
1523,4889;0,0374926
1524,4531;0,0372668
1525,4174;0,0371101
1526,3816;0,0370024
1527,3458;0,0369681
1528,3101;0,037017
1529,2743;0,0371227
1530,2385;0,0372641
1531,2028;0,0374727
1532,1670;0,0378158
1533,1312;0,038319
1534,0955;0,0389132
1535,0597;0,039463
1536,0239;0,0398438
1536,9882;0,0400382
1537,9524;0,0402074
1538,9166;0,0406196
1539,8809;0,0412778
1540,8451;0,0416466
1541,8093;0,0414135
1542,7736;0,0409742
1543,7378;0,040653
1544,7020;0,0404581
1545,6663;0,0403421
1546,6305;0,0402983
1547,5947;0,0403194
1548,5590;0,0403669
1549,5232;0,0403916
1550,4874;0,040375
1551,4517;0,0403435
1552,4159;0,0403304
1553,3801;0,0403173
1554,3444;0,0402223
1555,3086;0,0399541
1556,2728;0,0394592
1557,2371;0,0386589
1558,2013;0,0374425
1559,1655;0,0362367
1560,1298;0,035994
1561,0940;0,0368586
1562,0582;0,0382017
1563,0225;0,0394545
1563,9867;0,0403613
1564,9509;0,0408976
1565,9152;0,0411645
1566,8794;0,041316
1567,8436;0,0415054
1568,8079;0,0418409
1569,7721;0,0423598
1570,7363;0,0430169
1571,7006;0,0437018
1572,6648;0,0443095
1573,6290;0,044823
1574,5933;0,0453245
1575,5575;0,045908
1576,5217;0,0465931
1577,4860;0,0473699
1578,4502;0,0482344
1579,4144;0,0491347
1580,3787;0,049996
1581,3429;0,0507932
1582,3071;0,0515645
1583,2714;0,0523716
1584,2356;0,0532576
1585,1998;0,0542326
1586,1641;0,0552809
1587,1283;0,0563712
1588,0925;0,0574607
1589,0568;0,0584978
1590,0210;0,0594286
1590,9852;0,0602048
1591,9495;0,0607857
1592,9137;0,0611366
1593,8779;0,0612377
1594,8422;0,0611007
1595,8064;0,0607801
1596,7706;0,060359
1597,7349;0,0599168
1598,6991;0,0595031
1599,6633;0,059132
1600,6276;0,0587954
1601,5918;0,0584831
1602,5560;0,0581993
1603,5203;0,0579614
1604,4845;0,0577825
1605,4487;0,0576542
1606,4130;0,0575496
1607,3772;0,057448
1608,3414;0,0573607
1609,3057;0,0573329
1610,2699;0,0574028
1611,2341;0,0575502
1612,1984;0,0576988
1613,1626;0,0577798
1614,1268;0,0577972
1615,0911;0,0578366
1616,0553;0,0580126
1617,0195;0,0584107
1617,9838;0,0590407
1618,9480;0,0598001
1619,9122;0,0605308
1620,8765;0,0611302
1621,8407;0,0615951
1622,8049;0,0619825
1623,7692;0,0623491
1624,7334;0,0627262
1625,6976;0,063125
1626,6619;0,0635502
1627,6261;0,0640114
1628,5903;0,064511
1629,5546;0,0650129
1630,5188;0,0654353
1631,4830;0,0656949
1632,4473;0,0657784
1633,4115;0,0657784
1634,3757;0,0658237
1635,3400;0,0659349
1636,3042;0,0660592
1637,2684;0,0662618
1638,2327;0,0666183
1639,1969;0,0670566
1640,1611;0,0674414
1641,1254;0,0676791
1642,0896;0,0677453
1643,0538;0,0676835
1644,0181;0,0675957
1644,9823;0,0675838
1645,9465;0,0676462
1646,9108;0,067684
1647,8750;0,0676207
1648,8392;0,0673791
1649,8035;0,0668305
1650,7677;0,0658799
1651,7319;0,0645238
1652,6962;0,0628556
1653,6604;0,0613043
1654,6246;0,0605794
1655,5889;0,0607449
1656,5531;0,0612085
1657,5173;0,0614392
1658,4816;0,0612165
1659,4458;0,0605463
1660,4100;0,0595399
1661,3743;0,0583453
1662,3385;0,0571427
1663,3027;0,0561165
1664,2670;0,0553438
1665,2312;0,0547404
1666,1954;0,0541393
1667,1597;0,0533883
1668,1239;0,0523943
1669,0881;0,0511623
1670,0524;0,0498354
1671,0166;0,0486048
1671,9808;0,0475145
1672,9451;0,0464435
1673,9093;0,0452836
1674,8735;0,0440986
1675,8378;0,0431205
1676,8020;0,0425602
1677,7662;0,0423979
1678,7305;0,0423871
1679,6947;0,0422261
1680,6589;0,0416916
1681,6232;0,0406597
1682,5874;0,0390874
1683,5516;0,0371333
1684,5159;0,0353469
1685,4801;0,0342923
1686,4443;0,0339536
1687,4086;0,0339058
1688,3728;0,0337722
1689,3370;0,0333959
1690,3013;0,032799
1691,2655;0,0320875
1692,2297;0,0313799
1693,1940;0,0307751
1694,1582;0,0303373
1695,1224;0,0300627
1696,0867;0,0298401
1697,0509;0,0294719
1698,0151;0,0288126
1698,9794;0,0279537
1699,9436;0,0272413
1700,9078;0,0270173
1701,8721;0,0273401
1702,8363;0,0279875
1703,8005;0,0286632
1704,7648;0,0291703
1705,7290;0,0294775
1706,6932;0,0296971
1707,6575;0,0299914
1708,6217;0,0304597
1709,5859;0,0310934
1710,5502;0,0318192
1711,5144;0,0325625
1712,4786;0,0332789
1713,4429;0,0339522
1714,4071;0,0345655
1715,3713;0,03505
1716,3356;0,0352868
1717,2998;0,03529
1718,2640;0,0353443
1719,2283;0,035719
1720,1925;0,0363939
1721,1567;0,037172
1722,1210;0,037875
1723,0852;0,0384227
1724,0494;0,0388316
1725,0137;0,039182
1725,9779;0,0395695
1726,9421;0,0400483
1727,9064;0,0405954
1728,8706;0,0411154
1729,8348;0,0414785
1730,7991;0,0415621
1731,7633;0,0412797
1732,7275;0,0406327
1733,6918;0,0398111
1734,6560;0,0391583
1735,6202;0,0388622
1736,5845;0,0387847
1737,5487;0,0386485
1738,5129;0,0382638
1739,4772;0,0376116
1740,4414;0,0368127
1741,4056;0,0360308
1742,3699;0,0353575
1743,3341;0,0347668
1744,2983;0,0341663
1745,2626;0,0334699
1746,2268;0,0326169
1747,1910;0,0315404
1748,1553;0,03015
1749,1195;0,0284113
1750,0837;0,0264843
1751,0480;0,0246977
1752,0122;0,0232988
1752,9764;0,02229
1753,9407;0,0215056
1754,9049;0,0207695
1755,8691;0,0199885
1756,8334;0,01916
1757,7976;0,0183219
1758,7618;0,0174906
1759,7261;0,016642
1760,6903;0,0157512
1761,6545;0,0148498
1762,6188;0,0140304
1763,5830;0,0133798
1764,5472;0,0129105
1765,5115;0,0125632
1766,4757;0,0122601
1767,4399;0,0119498
1768,4042;0,0116127
1769,3684;0,0112372
1770,3326;0,0107965
1771,2969;0,010267
1772,2611;0,00969665
1773,2253;0,0092261
1774,1896;0,00897869
1775,1538;0,00894585
1776,1180;0,00901182
1777,0823;0,00905376
1778,0465;0,00900611
1779,0107;0,00886549
1779,9750;0,00866196
1780,9392;0,00842704
1781,9034;0,0081791
1782,8677;0,00793346
1783,8319;0,00772248
1784,7961;0,00759709
1785,7604;0,00759697
1786,7246;0,00771449
1787,6888;0,00789168
1788,6531;0,00805435
1789,6173;0,00814765
1790,5815;0,00814362
1791,5458;0,00803785
1792,5100;0,00787325
1793,4742;0,00774541
1794,4385;0,00772158
1795,4027;0,00777512
1796,3669;0,00782787
1797,3312;0,00782343
1798,2954;0,00775269
1799,2596;0,00763438
1800,2239;0,00748884
1801,1881;0,0073324
1802,1523;0,00718485
1803,1166;0,00706882
1804,0808;0,0070015
1805,0450;0,00698929
1806,0093;0,00702641
1806,9735;0,00709376
1807,9377;0,00715898
1808,9020;0,00718263
1809,8662;0,00713464
1810,8304;0,00701472
1811,7947;0,00685592
1812,7589;0,00670126
1813,7231;0,00657647
1814,6874;0,00648496
1815,6516;0,00642114
1816,6158;0,00638294
1817,5801;0,00637481
1818,5443;0,00640291
1819,5085;0,0064671
1820,4728;0,00655647
1821,4370;0,00665356
1822,4012;0,00674323
1823,3655;0,00681811
1824,3297;0,00687878
1825,2939;0,00692864
1826,2582;0,00696279
1827,2224;0,00695817
1828,1866;0,00687902
1829,1509;0,00670446
1830,1151;0,0064651
1831,0793;0,00624431
1832,0436;0,00611914
1833,0078;0,00610258
1833,9720;0,00615277
1834,9363;0,00622227
1835,9005;0,00628972
1836,8647;0,00635875
1837,8290;0,00643663
1838,7932;0,00651338
1839,7574;0,00656054
1840,7217;0,00655445
1841,6859;0,00650152
1842,6501;0,00643683
1843,6144;0,00639619
1844,5786;0,00639418
1845,5428;0,00642366
1846,5071;0,00645538
1847,4713;0,00644282
1848,4355;0,00635067
1849,3998;0,00618359
1850,3640;0,00598728
1851,3282;0,00582307
1852,2925;0,00573515
1853,2567;0,00573366
1854,2209;0,00579959
1855,1852;0,00590125
1856,1494;0,00600724
1857,1136;0,00609339
1858,0779;0,00614462
1859,0421;0,00615882
1860,0063;0,00615077
1860,9706;0,00614955
1861,9348;0,00618572
1862,8990;0,00627545
1863,8633;0,00641347
1864,8275;0,00657841
1865,7917;0,00673886
1866,7560;0,00684983
1867,7202;0,00685535
1868,6844;0,00672652
1869,6487;0,00650567
1870,6129;0,00627936
1871,5771;0,00610409
1872,5414;0,00598129
1873,5056;0,00588858
1874,4698;0,00581229
1875,4341;0,00575402
1876,3983;0,00572169
1877,3625;0,00571851
1878,3268;0,00574089
1879,2910;0,00578158
1880,2552;0,00583522
1881,2195;0,00589997
1882,1837;0,00597405
1883,1479;0,00605076
1884,1122;0,00611699
1885,0764;0,00615776
1886,0406;0,00616393
1887,0049;0,00613784
1887,9691;0,00609276
1888,9333;0,00604714
1889,8976;0,0060172
1890,8618;0,00600952
1891,8260;0,00601681
1892,7903;0,00602183
1893,7545;0,0060085
1894,7188;0,00597166
1895,6830;0,00591951
1896,6472;0,0058683
1897,6115;0,00583267
1898,5757;0,00581818
1899,5399;0,00582155
1900,5042;0,00583745
1901,4684;0,00586487
1902,4326;0,00590769
1903,3969;0,00596978
1904,3611;0,00604875
1905,3253;0,00613375
1906,2896;0,00620939
1907,2538;0,00626299
1908,2180;0,00629053
1909,1823;0,00629795
1910,1465;0,00629655
1911,1107;0,00629414
1912,0750;0,00628834
1913,0392;0,00626931
1914,0034;0,00623148
1914,9677;0,00618395
1915,9319;0,00614906
1916,8961;0,00614904
1917,8604;0,00619143
1918,8246;0,00626387
1919,7888;0,00633924
1920,7531;0,00638603
1921,7173;0,00637954
1922,6815;0,00631124
1923,6458;0,00619382
1924,6100;0,00605917
1925,5742;0,00594669
1926,5385;0,00588645
1927,5027;0,005887
1928,4669;0,00593221
1929,4312;0,00598596
1930,3954;0,00600778
1931,3596;0,00597749
1932,3239;0,00591193
1933,2881;0,00585926
1934,2523;0,00586909
1935,2166;0,0059568
1936,1808;0,00608812
1937,1450;0,00619835
1938,1093;0,00623514
1939,0735;0,00619469
1940,0377;0,00612738
1941,0020;0,00610692
1941,9662;0,00617894
1942,9304;0,00632455
1943,8947;0,00647192
1944,8589;0,00654767
1945,8231;0,00652342
1946,7874;0,0064262
1947,7516;0,00631672
1948,7158;0,00625416
1949,6801;0,00626584
1950,6443;0,00633612
1951,6085;0,00641948
1952,5728;0,0064687
1953,5370;0,00646089
1954,5012;0,00640735
1955,4655;0,0063434
1956,4297;0,00630521
1957,3939;0,00630782
1958,3582;0,00633789
1959,3224;0,00636585
1960,2866;0,00636963
1961,2509;0,00635273
1962,2151;0,0063418
1963,1793;0,00636474
1964,1436;0,00642645
1965,1078;0,00649929
1966,0720;0,00653474
1967,0363;0,00648993
1968,0005;0,00635207
1968,9647;0,00614343
1969,9290;0,00590796
1970,8932;0,00569797
1971,8574;0,00557186
1972,8217;0,00559361
1973,7859;0,0058162
1974,7501;0,00624394
1975,7144;0,0067985
1976,6786;0,00732329
1977,6428;0,00764855
1978,6071;0,00768529
1979,5713;0,00747825
1980,5355;0,00717774
1981,4998;0,00695677
1982,4640;0,00692986
1983,4282;0,0071091
1984,3925;0,00740688
1985,3567;0,00768076
1986,3209;0,00780209
1987,2852;0,00771575
1988,2494;0,00746221
1989,2136;0,00715485
1990,1779;0,00692725
1991,1421;0,00687398
1992,1063;0,00701132
1993,0706;0,00727814
1994,0348;0,00757334
1994,9990;0,00780173
1995,9633;0,00790207
1996,9275;0,00785318
1997,8917;0,00766817
1998,8560;0,00738592
1999,8202;0,00706163
2000,7844;0,00675605
2001,7487;0,00652529
2002,7129;0,00641496
2003,6771;0,00645794
2004,6414;0,00666941
2005,6056;0,00703257
2006,5698;0,00748071
2007,5341;0,00789315
2008,4983;0,00812566
2009,4625;0,00807386
2010,4268;0,00773794
2011,3910;0,00724789
2012,3552;0,00682608
2013,3195;0,0066969
2014,2837;0,00697894
2015,2479;0,00761156
2016,2122;0,00836588
2017,1764;0,00895478
2018,1406;0,00918663
2019,1049;0,00906068
2020,0691;0,008742
2021,0333;0,00844696
2021,9976;0,00832389
2022,9618;0,00839598
2023,9260;0,00858325
2024,8903;0,00877519
2025,8545;0,00890169
2026,8187;0,00895855
2027,7830;0,00898142
2028,7472;0,00899918
2029,7114;0,00900618
2030,6757;0,00897125
2031,6399;0,00887196
2032,6041;0,00872508
2033,5684;0,00859029
2034,5326;0,00854188
2035,4968;0,00862761
2036,4611;0,00883984
2037,4253;0,00911681
2038,3895;0,00936645
2039,3538;0,00949962
2040,3180;0,00946024
2041,2822;0,00924349
2042,2465;0,00889692
2043,2107;0,00850456
2044,1749;0,00816345
2045,1392;0,00796157
2046,1034;0,00795848
2047,0676;0,00816544
2048,0320;0,00853137
2048,9961;0,00895064
2049,9604;0,00929837
2050,9246;0,0094756
2051,8889;0,00944058
2052,8530;0,0092168
2053,8174;0,00888081
2054,7815;0,00853384
2055,7458;0,00826684
2056,7100;0,00813041
2057,6743;0,00812523
2058,6384;0,00821544
2059,6028;0,00835336
2060,5669;0,00849927
2061,5313;0,00862791
2062,4954;0,00872444
2063,4597;0,00877818
2064,4238;0,00878126
2065,3882;0,00873289
2066,3523;0,00864432
2067,3167;0,00853899
2068,2808;0,00844693
2069,2451;0,00839638
2070,2092;0,00840602
2071,1736;0,00847944
2072,1377;0,00860134
2073,1021;0,00873875
2074,0662;0,00884774
2075,0305;0,0088867
2075,9946;0,00883235
2076,9590;0,00869171
2077,9231;0,00850259
2078,8875;0,00832051
2079,8516;0,00819752
2080,8159;0,00816344
2081,7800;0,00821818
2082,7444;0,00833661
2083,7085;0,00848087
2084,6729;0,00861213
2085,6370;0,00869846
2086,6013;0,00871857
2087,5654;0,00866501
2088,5298;0,00854766
2089,4939;0,0083947
2090,4583;0,00824748
2091,4224;0,00814846
2092,3867;0,00812665
2093,3508;0,00818702
2094,3152;0,00830895
2095,2793;0,00845462
2096,2437;0,00858387
2097,2078;0,00866825
2098,1721;0,00869839
2099,1362;0,00868264
2100,1006;0,00864175
2101,0647;0,0085953
2102,0291;0,00856416
2102,9932;0,00855885
2103,9575;0,00857832
2104,9216;0,00861075
2105,8860;0,00863848
2106,8501;0,00864633
2107,8145;0,00862973
2108,7786;0,00859821
2109,7429;0,0085714
2110,7070;0,00856861
2111,6714;0,00859735
2112,6355;0,00864755
2113,5999;0,00869578
2114,5640;0,00871794
2115,5283;0,00870311
2116,4924;0,00866046
2117,4568;0,00861483
2118,4209;0,00859385
2119,3853;0,00861426
2120,3494;0,0086754
2121,3137;0,0087629
2122,2778;0,00885841
2123,2422;0,00894811
2124,2063;0,00902429
2125,1707;0,00908137
2126,1348;0,00911222
2127,0991;0,00911069
2128,0632;0,00908015
2129,0276;0,00904105
2129,9917;0,00902908
2130,9561;0,00908015
2131,9202;0,00920766
2132,8845;0,00938542
2133,8486;0,0095504
2134,8130;0,00963091
2135,7771;0,00958782
2136,7415;0,00944275
2137,7056;0,00927239
2138,6699;0,00917136
2139,6340;0,009207
2140,5984;0,00939148
2141,5625;0,00968202
2142,5269;0,0100038
2143,4910;0,0102798
2144,4553;0,0104549
2145,4194;0,0105072
2146,3838;0,0104489
2147,3479;0,0103204
2148,3123;0,0101747
2149,2764;0,0100584
2150,2407;0,00999327
2151,2048;0,00997269
2152,1692;0,00997725
2153,1333;0,0100021
2154,0977;0,0100766
2155,0618;0,0102591
2156,0261;0,010602
2156,9902;0,0111023
2157,9546;0,0116725
2158,9187;0,0121685
2159,8831;0,0124697
2160,8472;0,0125405
2161,8115;0,0124235
2162,7756;0,0121898
2163,7400;0,0119032
2164,7041;0,0116129
2165,6685;0,0113558
2166,6326;0,0111543
2167,5969;0,0110095
2168,5610;0,0109023
2169,5254;0,0108084
2170,4895;0,010717
2171,4539;0,0106387
2172,4180;0,0105963
2173,3823;0,010605
2174,3464;0,0106592
2175,3108;0,0107395
2176,2749;0,0108302
2177,2393;0,0109309
2178,2034;0,0110454
2179,1677;0,0111573
2180,1318;0,0112171
2181,0962;0,011157
2182,0603;0,0109318
2183,0247;0,0105545
2183,9888;0,0100975
2184,9531;0,00965695
2185,9172;0,00930664
2186,8816;0,00907745
2187,8457;0,00896848
2188,8101;0,00897242
2189,7742;0,00908848
2190,7385;0,00931154
2191,7026;0,00960909
2192,6670;0,00991023
2193,6311;0,0101221
2194,5955;0,0101678
2195,5596;0,0100227
2196,5239;0,00972664
2197,4880;0,00936561
2198,4524;0,00903612
2199,4165;0,00881115
2200,3809;0,00872219
2201,3450;0,00875883
2202,3093;0,00887972
2203,2734;0,0090278
2204,2378;0,00914633
2205,2019;0,00919401
2206,1663;0,00915648
2207,1304;0,00905007
2208,0947;0,00891479
2209,0588;0,00879833
2210,0232;0,00873727
2210,9873;0,00874366
2211,9517;0,00880209
2212,9158;0,0088783
2213,8801;0,00893559
2214,8442;0,00895158
2215,8086;0,00892697
2216,7727;0,00888122
2217,7371;0,00883735
2218,7012;0,00880571
2219,6655;0,00877814
2220,6296;0,00873715
2221,5940;0,00867303
2222,5581;0,00859517
2223,5225;0,00852787
2224,4866;0,00849374
2225,4509;0,00849796
2226,4150;0,0085257
2227,3794;0,0085529
2228,3435;0,00856507
2229,3079;0,00856262
2230,2720;0,00855467
2231,2363;0,00854791
2232,2004;0,00854139
2233,1648;0,00853152
2234,1289;0,00852024
2235,0933;0,0085168
2236,0574;0,00852997
2237,0217;0,00855804
2237,9858;0,00858658
2238,9502;0,00859777
2239,9143;0,00858418
2240,8787;0,00855543
2241,8428;0,00853168
2242,8071;0,00852886
2243,7712;0,00854723
2244,7356;0,00857244
2245,6997;0,00858831
2246,6641;0,00859151
2247,6282;0,00859696
2248,5925;0,0086296
2249,5566;0,00870795
2250,5210;0,00883042
2251,4851;0,00897286
2252,4495;0,00909909
2253,4136;0,00917831
2254,3779;0,00919946
2255,3420;0,00917455
2256,3064;0,00912958
2257,2705;0,00908917
2258,2349;0,00906481
2259,1990;0,00905307
2260,1633;0,00904331
2261,1274;0,00902846
2262,0918;0,00901099
2263,0559;0,00900031
2264,0203;0,00900397
2264,9844;0,00901993
2265,9487;0,00903626
2266,9128;0,00903915
2267,8772;0,0090234
2268,8413;0,00899737
2269,8057;0,00897817
2270,7698;0,00897986
2271,7341;0,00900242
2272,6982;0,009029
2273,6626;0,00903345
2274,6267;0,00899405
2275,5911;0,00890564
2276,5552;0,00878355
2277,5195;0,00865785
2278,4836;0,00856139
2279,4480;0,0085179
2280,4121;0,00853554
2281,3765;0,00860768
2282,3406;0,00871945
2283,3049;0,00885535
2284,2690;0,00900454
2285,2334;0,00916175
2286,1975;0,00932544
2287,1619;0,00949548
2288,1260;0,00967275
2289,0903;0,00986004
2290,0544;0,0100623
2291,0188;0,0102841
2291,9829;0,0105259
2292,9473;0,0107804
2293,9114;0,011034
2294,8757;0,011271
2295,8398;0,0114791
2296,8042;0,011651
2297,7683;0,0117805
2298,7327;0,011859
2299,6968;0,011876
2300,6611;0,0118287
2301,6252;0,0117344
2302,5896;0,0116359
2303,5537;0,0115928
2304,5181;0,0116562
2305,4822;0,0118375
2306,4465;0,0120892
2307,4106;0,0123111
2308,3750;0,0123878
2309,3391;0,01224
2310,3035;0,0118646
2311,2676;0,0113397
2312,2319;0,0107884
2313,1960;0,0103205
2314,1604;0,00998539
2315,1245;0,00976271
2316,0889;0,00959086
2317,0530;0,00941223
2318,0173;0,00920805
2318,9814;0,00900788
2319,9458;0,00887419
2320,9099;0,00887419
2321,8743;0,0090513
2322,8384;0,00940111
2323,8027;0,00985573
2324,7668;0,0102899
2325,7312;0,0105597
2326,6953;0,0105602
2327,6597;0,0102737
2328,6238;0,00978456
2329,5881;0,00925366
2330,5522;0,00885717
2331,5166;0,00871116
2332,4807;0,00881939
2333,4451;0,00908144
2334,4092;0,00936031
2335,3735;0,0095657
2336,3376;0,00970198
2337,3020;0,00985693
2338,2661;0,0101402
2339,2305;0,0106012
2340,1946;0,011164
2341,1589;0,0116094
2342,1230;0,0116519
2343,0874;0,011174
2344,0515;0,0105147
2345,0159;0,0103578
2345,9800;0,011105
2346,9443;0,0124807
2347,9084;0,0137964
2348,8728;0,014447
2349,8369;0,0142154
2350,8013;0,0133208
2351,7654;0,0122652
2352,7297;0,0115328
2353,6938;0,0113051
2354,6582;0,0114472
2355,6223;0,0117633
2356,5867;0,012166
2357,5508;0,0125979
2358,5151;0,0129247
2359,4792;0,0129793
2360,4436;0,0126851
2361,4077;0,0120872
2362,3721;0,0112766
2363,3362;0,0103264
2364,3005;0,00930252
2365,2646;0,00828783
2366,2290;0,00736258
2367,1931;0,00656265
2368,1575;0,0058705
2369,1216;0,00525044
2370,0859;0,00469129
2371,0500;0,00422164
2372,0144;0,00389593
2372,9785;0,00377111
2373,9429;0,00388894
2374,9070;0,0042658
2375,8713;0,0048862
2376,8354;0,0057001
2377,7998;0,00662639
2378,7639;0,00756389
2379,7283;0,00840812
2380,6924;0,00907013
2381,6567;0,00949304
2382,6208;0,0096626
2383,5852;0,00960858
2384,5493;0,0093957
2385,5137;0,00910586
2386,4778;0,00881674
2387,4421;0,00858363
2388,4063;0,00843059
2389,3706;0,00835305
2390,3347;0,00832879
2391,2991;0,00833155
2392,2632;0,00834119
2393,2275;0,00834776
2394,1917;0,00835012
2395,1560;0,00835197
2396,1201;0,00835797
2397,0845;0,0083715
2398,0486;0,00839622
2399,0129;0,00843146
2399,9771;0,00847417
2400,9414;0,00852076
2401,9055;0,00856564
2402,8699;0,00860369
2403,8340;0,00863057
2404,7983;0,00864428
2405,7625;0,00864632
2406,7268;0,00864139
2407,6909;0,00863761
2408,6553;0,00864426
2409,6194;0,00866756
2410,5837;0,00870978
2411,5479;0,00876812
2412,5122;0,00883583
2413,4763;0,00890389
2414,4407;0,00896298
2415,4048;0,00900494
2416,3691;0,00902454
2417,3333;0,00902163
2418,2976;0,00900239
2419,2617;0,00897891
2420,2261;0,00896528
2421,1902;0,00897135
2422,1545;0,00899987
2423,1187;0,00904536
2424,0830;0,00909769
2425,0471;0,00914726
2426,0115;0,00918879
2426,9756;0,00922213
2427,9399;0,00925079
2428,9041;0,00927963
2429,8684;0,00931307
2430,8325;0,00935355
2431,7969;0,00939974
2432,7610;0,00944543
2433,7253;0,00948063
2434,6895;0,00949621
2435,6538;0,0094901
2436,6179;0,00947098
2437,5823;0,00945579
2438,5464;0,00946143
2439,5107;0,00949567
2440,4749;0,00955366
2441,4392;0,00962239
2442,4033;0,00968964
2443,3677;0,00975058
2444,3318;0,00980714
2445,2961;0,00986179
2446,2603;0,00991178
2447,2246;0,00994946
2448,1887;0,00996875
2449,1531;0,0099721
2450,1172;0,00997161
2451,0815;0,00998245
2452,0457;0,0100131
2453,0100;0,0100598
2453,9741;0,0101089
2454,9385;0,0101464
2455,9026;0,0101664
2456,8669;0,0101739
2457,8311;0,0101798
2458,7954;0,0101925
2459,7595;0,0102125
2460,7239;0,0102329
2461,6880;0,0102461
2462,6523;0,0102509
2463,6165;0,010254
2464,5808;0,0102666
2465,5449;0,0102956
2466,5093;0,0103385
2467,4734;0,0103841
2468,4377;0,010419
2469,4019;0,0104368
2470,3662;0,0104414
2471,3303;0,0104444
2472,2947;0,0104572
2473,2588;0,0104841
2474,2231;0,0105216
2475,1873;0,0105626
2476,1516;0,0106012
2477,1157;0,0106363
2478,0801;0,0106692
2479,0442;0,0107008
2480,0085;0,0107306
2480,9727;0,0107577
2481,9370;0,0107833
2482,9011;0,0108107
2483,8655;0,0108421
2484,8296;0,0108763
2485,7939;0,0109072
2486,7581;0,0109273
2487,7224;0,0109326
2488,6865;0,010925
2489,6509;0,0109121
2490,6150;0,0109031
2491,5793;0,0109056
2492,5435;0,0109232
2493,5078;0,010955
2494,4719;0,0109971
2495,4363;0,0110435
2496,4004;0,0110879
2497,3647;0,0111255
2498,3289;0,0111544
2499,2932;0,0111754
2500,2573;0,0111905
2501,2217;0,0112013
2502,1858;0,0112087
2503,1501;0,0112149
2504,1143;0,0112241
2505,0786;0,0112417
2506,0427;0,0112701
2507,0071;0,0113046
2507,9712;0,0113331
2508,9355;0,0113423
2509,8997;0,0113264
2510,8640;0,0112936
2511,8281;0,0112626
2512,7925;0,0112535
2513,7566;0,011276
2514,7209;0,0113244
2515,6851;0,0113819
2516,6494;0,0114318
2517,6135;0,0114656
2518,5779;0,011486
2519,5420;0,0115008
2520,5063;0,0115161
2521,4705;0,0115326
2522,4348;0,0115472
2523,3989;0,011557
2524,3633;0,0115626
2525,3274;0,0115675
2526,2917;0,0115746
2527,2559;0,0115856
2528,2202;0,0116007
2529,1843;0,0116206
2530,1487;0,0116467
2531,1128;0,0116793
2532,0771;0,0117151
2533,0413;0,0117466
2534,0056;0,0117647
2534,9697;0,0117632
2535,9341;0,0117427
2536,8982;0,0117104
2537,8625;0,0116774
2538,8267;0,0116546
2539,7910;0,0116491
2540,7551;0,0116624
2541,7195;0,0116906
2542,6836;0,011726
2543,6479;0,0117602
2544,6121;0,0117875
2545,5764;0,0118081
2546,5405;0,0118269
2547,5049;0,0118502
2548,4690;0,0118795
2549,4333;0,0119098
2550,3975;0,0119315
2551,3618;0,0119373
2552,3259;0,0119284
2553,2903;0,0119144
2554,2544;0,0119083
2555,2188;0,0119186
2556,1829;0,0119445
2557,1472;0,0119778
2558,1113;0,012009
2559,0757;0,0120321
2560,0398;0,0120461
2561,0042;0,0120518
2561,9683;0,0120497
2562,9326;0,0120407
2563,8967;0,012028
2564,8611;0,0120188
2565,8252;0,0120212
2566,7896;0,0120392
2567,7537;0,0120687
2568,7180;0,0120991
2569,6821;0,0121193
2570,6465;0,0121247
2571,6106;0,0121195
2572,5750;0,0121137
2573,5391;0,012117
2574,5034;0,0121341
2575,4675;0,0121633
2576,4319;0,0121999
2577,3960;0,0122393
2578,3604;0,0122779
2579,3245;0,0123136
2580,2888;0,0123438
2581,2529;0,0123657
2582,2173;0,0123774
2583,1814;0,0123792
2584,1458;0,0123753
2585,1099;0,0123725
2586,0742;0,0123791
2587,0383;0,0124011
2588,0027;0,0124396
2588,9668;0,0124894
2589,9312;0,0125401
2590,8953;0,01258
2591,8596;0,0126007
2592,8237;0,0126007
2593,7881;0,0125852
2594,7522;0,0125633
2595,7166;0,0125441
2596,6807;0,0125347
2597,6450;0,0125396
2598,6091;0,0125617
2599,5735;0,0126029
2600,5376;0,0126626
2601,5020;0,0127359
2602,4661;0,0128138
2603,4304;0,0128846
2604,3945;0,0129385
2605,3589;0,0129705
2606,3230;0,0129821
2607,2874;0,0129803
2608,2515;0,012975
2609,2158;0,0129765
2610,1799;0,0129935
2611,1443;0,0130305
2612,1084;0,0130857
2613,0728;0,0131507
2614,0369;0,0132129
2615,0012;0,0132607
2615,9653;0,0132894
2616,9297;0,0133045
2617,8938;0,0133195
2618,8582;0,0133479
2619,8223;0,013396
2620,7866;0,0134579
2621,7507;0,0135194
2622,7151;0,0135652
2623,6792;0,0135878
2624,6436;0,013591
2625,6077;0,0135873
2626,5720;0,0135913
2627,5361;0,0136124
2628,5005;0,0136523
2629,4646;0,0137057
2630,4290;0,0137647
2631,3931;0,0138219
2632,3574;0,0138725
2633,3215;0,013914
2634,2859;0,0139466
2635,2500;0,0139722
2636,2144;0,0139943
2637,1785;0,0140173
2638,1428;0,0140442
2639,1069;0,0140761
2640,0713;0,0141115
2641,0354;0,0141492
2641,9998;0,0141893
2642,9639;0,0142342
2643,9282;0,014286
2644,8923;0,0143435
2645,8567;0,014401
2646,8208;0,0144501
2647,7852;0,0144841
2648,7493;0,0145021
2649,7136;0,014509
2650,6777;0,0145137
2651,6421;0,0145239
2652,6062;0,0145437
2653,5706;0,0145741
2654,5347;0,0146144
2655,4990;0,0146638
2656,4631;0,014721
2657,4275;0,0147824
2658,3916;0,0148419
2659,3560;0,0148927
2660,3201;0,0149304
2661,2844;0,0149564
2662,2485;0,0149764
2663,2129;0,0149979
2664,1770;0,0150259
2665,1414;0,0150606
2666,1055;0,0150978
2667,0698;0,0151325
2668,0339;0,0151613
2668,9983;0,0151843
2669,9624;0,0152051
2670,9268;0,0152284
2671,8909;0,0152582
2672,8552;0,015296
2673,8193;0,0153407
2674,7837;0,0153883
2675,7478;0,0154347
2676,7122;0,0154774
2677,6763;0,0155168
2678,6406;0,0155562
2679,6047;0,0156
2680,5691;0,0156506
2681,5332;0,0157071
2682,4976;0,0157655
2683,4617;0,0158207
2684,4260;0,0158693
2685,3901;0,0159105
2686,3545;0,015946
2687,3186;0,0159788
2688,2830;0,0160113
2689,2471;0,0160454
2690,2114;0,0160827
2691,1755;0,0161236
2692,1399;0,0161677
2693,1040;0,0162133
2694,0684;0,0162578
2695,0325;0,0162997
2695,9968;0,0163398
2696,9609;0,016381
2697,9253;0,0164266
2698,8894;0,0164777
2699,8538;0,016533
2700,8179;0,0165894
2701,7822;0,0166451
2702,7463;0,0167001
2703,7107;0,0167562
2704,6748;0,0168141
2705,6392;0,016872
2706,6033;0,0169262
2707,5676;0,0169742
2708,5317;0,0170161
2709,4961;0,017055
2710,4602;0,0170947
2711,4246;0,0171363
2712,3887;0,0171782
2713,3530;0,0172179
2714,3171;0,0172552
2715,2815;0,0172944
2716,2456;0,0173423
2717,2100;0,0174047
2718,1741;0,0174818
2719,1384;0,0175664
2720,1025;0,0176468
2721,0669;0,0177108
2722,0310;0,0177518
2722,9954;0,0177716
2723,9595;0,0177801
2724,9238;0,0177912
2725,8879;0,0178177
2726,8523;0,0178662
2727,8164;0,0179354
2728,7808;0,0180164
2729,7449;0,0180967
2730,7092;0,0181647
2731,6733;0,0182134
2732,6377;0,0182426
2733,6018;0,0182582
2734,5662;0,0182692
2735,5303;0,0182837
2736,4946;0,0183061
2737,4587;0,018336
2738,4231;0,0183701
2739,3872;0,0184054
2740,3516;0,0184414
2741,3157;0,0184807
2742,2800;0,018526
2743,2441;0,0185778
2744,2085;0,0186326
2745,1726;0,0186846
2746,1370;0,0187281
2747,1011;0,0187603
2748,0654;0,0187827
2749,0295;0,0188
2749,9939;0,0188183
2750,9580;0,0188434
2751,9224;0,0188792
2752,8865;0,0189266
2753,8508;0,0189836
2754,8149;0,0190464
2755,7793;0,0191101
2756,7434;0,019171
2757,7078;0,0192272
2758,6719;0,0192784
2759,6362;0,019326
2760,6003;0,0193712
2761,5647;0,0194153
2762,5288;0,0194592
2763,4932;0,019504
2764,4573;0,0195508
2765,4216;0,019601
2766,3857;0,0196557
2767,3501;0,019716
2768,3142;0,0197818
2769,2786;0,0198514
2770,2427;0,0199211
2771,2070;0,0199857
2772,1711;0,0200406
2773,1355;0,0200849
2774,0996;0,0201228
2775,0640;0,0201619
2776,0281;0,0202105
2776,9924;0,0202731
2777,9565;0,0203489
2778,9209;0,020434
2779,8850;0,0205242
2780,8494;0,0206183
2781,8135;0,0207171
2782,7778;0,0208207
2783,7419;0,0209256
2784,7063;0,021024
2785,6704;0,0211074
2786,6348;0,0211724
2787,5989;0,0212241
2788,5632;0,0212754
2789,5273;0,021342
2790,4917;0,0214345
2791,4558;0,0215534
2792,4202;0,0216891
2793,3843;0,0218261
2794,3486;0,021951
2795,3127;0,0220588
2796,2771;0,0221541
2797,2412;0,0222479
2798,2056;0,0223513
2799,1697;0,0224698
2800,1340;0,0226023
2801,0981;0,0227438
2802,0625;0,0228893
2803,0266;0,0230364
2803,9910;0,0231843
2804,9551;0,0233312
2805,9194;0,0234731
2806,8835;0,0236056
2807,8479;0,0237283
2808,8120;0,0238484
2809,7764;0,0239784
2810,7405;0,0241305
2811,7048;0,0243094
2812,6689;0,0245093
2813,6333;0,0247172
2814,5974;0,0249202
2815,5618;0,0251119
2816,5259;0,0252951
2817,4902;0,0254786
2818,4543;0,025672
2819,4187;0,025881
2820,3828;0,0261062
2821,3472;0,0263446
2822,3113;0,0265922
2823,2756;0,0268466
2824,2397;0,0271076
2825,2041;0,0273775
2826,1682;0,0276593
2827,1326;0,0279555
2828,0967;0,0282672
2829,0610;0,0285941
2830,0251;0,028936
2830,9895;0,0292941
2831,9536;0,0296711
2832,9180;0,0300696
2833,8821;0,030491
2834,8464;0,0309351
2835,8105;0,0314021
2836,7749;0,0318952
2837,7390;0,0324227
2838,7034;0,0329974
2839,6675;0,033635
2840,6318;0,0343518
2841,5959;0,0351628
2842,5603;0,0360784
2843,5244;0,0370983
2844,4888;0,0382018
2845,4529;0,03934
2846,4172;0,0404357
2847,3813;0,0413961
2848,3457;0,0421362
2849,3098;0,0426036
2850,2742;0,0427945
2851,2383;0,0427512
2852,2026;0,0425451
2853,1667;0,0422521
2854,1311;0,0419333
2855,0952;0,0416268
2856,0596;0,0413515
2857,0237;0,0411165
2857,9880;0,0409295
2858,9521;0,0407997
2859,9165;0,0407352
2860,8806;0,0407383
2861,8450;0,0408037
2862,8091;0,0409198
2863,7734;0,0410743
2864,7375;0,0412591
2865,7019;0,0414707
2866,6660;0,0417067
2867,6304;0,0419605
2868,5945;0,0422177
2869,5588;0,0424583
2870,5229;0,0426631
2871,4873;0,0428221
2872,4514;0,0429382
2873,4158;0,0430258
2874,3799;0,0431035
2875,3442;0,043186
2876,3083;0,0432795
2877,2727;0,0433821
2878,2368;0,043488
2879,2012;0,0435932
2880,1653;0,0436986
2881,1296;0,0438098
2882,0938;0,0439334
2883,0581;0,044074
2884,0222;0,0442317
2884,9866;0,0444024
2885,9507;0,0445804
2886,9150;0,044761
2887,8792;0,0449425
2888,8435;0,0451256
2889,8076;0,0453122
2890,7720;0,0455035
2891,7361;0,0456995
2892,7004;0,0458992
2893,6646;0,0461026
2894,6289;0,0463106
2895,5930;0,046525
2896,5574;0,0467464
2897,5215;0,0469725
2898,4858;0,0471978
2899,4500;0,0474158
2900,4143;0,0476217
2901,3784;0,0478167
2902,3428;0,0480091
2903,3069;0,0482134
2904,2712;0,048447
2905,2354;0,0487269
2906,1997;0,0490676
2907,1638;0,0494809
2908,1282;0,0499779
2909,0923;0,0505675
2910,0566;0,051253
2911,0208;0,0520253
2911,9851;0,0528559
2912,9492;0,0536955
2913,9136;0,0544793
2914,8777;0,0551398
2915,8420;0,0556219
2916,8062;0,0558946
2917,7705;0,0559554
2918,7346;0,0558267
2919,6990;0,0555464
2920,6631;0,0551574
2921,6274;0,0546984
2922,5916;0,0541985
2923,5559;0,0536752
2924,5200;0,053136
2925,4844;0,0525832
2926,4485;0,0520198
2927,4128;0,0514534
2928,3770;0,0508969
2929,3413;0,0503637
2930,3054;0,0498609
2931,2698;0,0493854
2932,2339;0,0489242
2933,1982;0,0484612
2934,1624;0,0479854
2935,1267;0,0474955
2936,0908;0,0469987
2937,0552;0,0465053
2938,0193;0,0460225
2938,9836;0,0455502
2939,9478;0,0450823
2940,9121;0,0446114
2941,8762;0,0441335
2942,8406;0,0436513
2943,8047;0,0431742
2944,7690;0,042715
2945,7332;0,0422853
2946,6975;0,041892
2947,6616;0,0415357
2948,6260;0,0412117
2949,5901;0,0409132
2950,5544;0,0406336
2951,5186;0,0403675
2952,4829;0,0401101
2953,4470;0,039856
2954,4114;0,0395986
2955,3755;0,0393311
2956,3398;0,0390485
2957,3040;0,0387488
2958,2683;0,0384338
2959,2324;0,0381075
2960,1968;0,0377747
2961,1609;0,0374385
2962,1252;0,0370989
2963,0894;0,0367533
2964,0537;0,0363984
2965,0178;0,0360331
2965,9822;0,0356602
2966,9463;0,0352857
2967,9106;0,0349158
2968,8748;0,0345535
2969,8391;0,0341976
2970,8032;0,0338451
2971,7676;0,0334946
2972,7317;0,0331495
2973,6960;0,032816
2974,6602;0,0324993
2975,6245;0,0321997
2976,5886;0,031913
2977,5530;0,0316342
2978,5171;0,0313624
2979,4814;0,0311024
2980,4456;0,0308621
2981,4099;0,0306473
2982,3740;0,0304577
2983,3384;0,0302878
2984,3025;0,0301306
2985,2668;0,0299817
2986,2310;0,0298407
2987,1953;0,0297096
2988,1594;0,0295905
2989,1238;0,0294842
2990,0879;0,0293907
2991,0522;0,0293104
2992,0164;0,0292437
2992,9807;0,0291902
2993,9448;0,0291482
2994,9092;0,0291157
2995,8733;0,0290928
2996,8376;0,0290828
2997,8018;0,0290906
2998,7661;0,029119
2999,7302;0,0291654
3000,6946;0,0292215
3001,6587;0,0292776
3002,6230;0,0293277
3003,5872;0,0293727
3004,5515;0,0294196
3005,5156;0,0294761
3006,4800;0,0295464
3007,4441;0,0296283
3008,4084;0,0297152
3009,3726;0,0297995
3010,3369;0,0298764
3011,3010;0,0299445
3012,2654;0,0300057
3013,2295;0,030063
3014,1938;0,0301199
3015,1580;0,0301799
3016,1223;0,0302468
3017,0864;0,0303248
3018,0508;0,0304178
3019,0149;0,0305279
3019,9792;0,0306547
3020,9434;0,0307942
3021,9077;0,0309404
3022,8718;0,0310878
3023,8362;0,0312334
3024,8003;0,031379
3025,7646;0,0315298
3026,7288;0,0316903
3027,6931;0,0318606
3028,6572;0,0320339
3029,6216;0,0321986
3030,5857;0,032344
3031,5500;0,0324667
3032,5142;0,0325735
3033,4785;0,0326778
3034,4426;0,032793
3035,4070;0,0329258
3036,3711;0,0330745
3037,3354;0,033232
3038,2996;0,0333915
3039,2639;0,0335497
3040,2280;0,0337083
3041,1924;0,0338713
3042,1565;0,0340438
3043,1208;0,0342295
3044,0850;0,0344301
3045,0493;0,034644
3046,0134;0,0348644
3046,9778;0,0350803
3047,9419;0,0352806
3048,9063;0,0354602
3049,8704;0,0356245
3050,8347;0,0357884
3051,7988;0,0359684
3052,7632;0,0361738
3053,7273;0,0364006
3054,6917;0,0366351
3055,6558;0,0368612
3056,6201;0,037071
3057,5842;0,0372682
3058,5486;0,0374649
3059,5127;0,037674
3060,4771;0,0379013
3061,4412;0,0381428
3062,4055;0,0383867
3063,3696;0,0386188
3064,3340;0,0388276
3065,2981;0,039009
3066,2625;0,0391684
3067,2266;0,0393182
3068,1909;0,0394739
3069,1550;0,0396479
3070,1194;0,0398445
3071,0835;0,0400592
3072,0479;0,0402821
3073,0120;0,0405035
3073,9763;0,0407192
3074,9404;0,0409317
3075,9048;0,0411465
3076,8689;0,0413663
3077,8333;0,0415868
3078,7974;0,0417971
3079,7617;0,0419856
3080,7258;0,0421477
3081,6902;0,0422896
3082,6543;0,0424266
3083,6187;0,0425756
3084,5828;0,0427466
3085,5471;0,0429388
3086,5112;0,0431424
3087,4756;0,0433456
3088,4397;0,0435424
3089,4041;0,0437363
3090,3682;0,0439373
3091,3325;0,0441544
3092,2966;0,0443895
3093,2610;0,0446355
3094,2251;0,0448802
3095,1895;0,0451134
3096,1536;0,0453318
3097,1179;0,0455394
3098,0820;0,0457436
3099,0464;0,0459499
3100,0105;0,0461594
3100,9749;0,0463689
3101,9390;0,0465739
3102,9033;0,0467717
3103,8674;0,0469631
3104,8318;0,0471526
3105,7959;0,0473474
3106,7603;0,0475557
3107,7244;0,0477841
3108,6887;0,048035
3109,6528;0,0483052
3110,6172;0,0485868
3111,5813;0,0488699
3112,5457;0,0491463
3113,5098;0,0494116
3114,4741;0,0496649
3115,4382;0,0499079
3116,4026;0,0501438
3117,3667;0,0503766
3118,3311;0,0506104
3119,2952;0,0508484
3120,2595;0,0510912
3121,2236;0,0513363
3122,1880;0,051579
3123,1521;0,0518148
3124,1165;0,0520424
3125,0806;0,0522645
3126,0449;0,0524869
3127,0090;0,052716
3127,9734;0,0529571
3128,9375;0,0532132
3129,9019;0,053485
3130,8660;0,0537703
3131,8303;0,0540634
3132,7944;0,0543552
3133,7588;0,0546358
3134,7229;0,0548982
3135,6873;0,0551424
3136,6514;0,0553764
3137,6157;0,0556131
3138,5798;0,0558649
3139,5442;0,0561377
3140,5083;0,0564291
3141,4727;0,0567312
3142,4368;0,0570367
3143,4011;0,0573431
3144,3652;0,0576527
3145,3296;0,0579681
3146,2937;0,0582868
3147,2581;0,0585996
3148,2222;0,058895
3149,1865;0,0591664
3150,1506;0,0594169
3151,1150;0,0596591
3152,0791;0,0599082
3153,0435;0,0601748
3154,0076;0,0604603
3154,9719;0,0607591
3155,9360;0,0610637
3156,9004;0,0613689
3157,8645;0,0616732
3158,8289;0,0619772
3159,7930;0,0622811
3160,7573;0,0625839
3161,7214;0,0628844
3162,6858;0,0631828
3163,6499;0,0634809
3164,6143;0,0637813
3165,5784;0,0640859
3166,5427;0,0643948
3167,5068;0,0647063
3168,4712;0,0650177
3169,4353;0,0652385
3170,3997;0,0655469
3171,3638;0,0658569
3172,3281;0,0661716
3173,2922;0,0664923
3174,2566;0,066817
3175,2207;0,0671397
3176,1851;0,0674529
3177,1492;0,0677508
3178,1135;0,068033
3179,0776;0,0683048
3180,0420;0,068575
3181,0061;0,0688513
3181,9705;0,069137
3182,9346;0,0694291
3183,8989;0,0697199
3184,8630;0,0700003
3185,8274;0,070265
3186,7915;0,0705153
3187,7559;0,07076
3188,7200;0,0710124
3189,6843;0,0712846
3190,6484;0,0715823
3191,6128;0,0719018
3192,5769;0,0722318
3193,5413;0,0725586
3194,5054;0,0728704
3195,4697;0,0731611
3196,4338;0,0734303
3197,3982;0,0736813
3198,3623;0,0739199
3199,3267;0,0741529
3200,2908;0,0743876
3201,2551;0,0746304
3202,2192;0,074885
3203,1836;0,0751513
3204,1477;0,0754261
3205,1121;0,0757049
3206,0762;0,0759838
3207,0405;0,0762605
3208,0046;0,0765334
3208,9690;0,0768008
3209,9331;0,077061
3210,8975;0,0773136
3211,8616;0,0775613
3212,8259;0,0778097
3213,7900;0,0780642
3214,7544;0,0783262
3215,7185;0,0785911
3216,6829;0,0788494
3217,6470;0,0790916
3218,6113;0,079314
3219,5754;0,0795216
3220,5398;0,0797259
3221,5039;0,07994
3222,4683;0,080173
3223,4324;0,0804268
3224,3967;0,0806977
3225,3608;0,0809783
3226,3252;0,0812609
3227,2893;0,0815379
3228,2537;0,0818019
3229,2178;0,0820472
3230,1821;0,0822718
3231,1462;0,0824801
3232,1106;0,0826818
3233,0747;0,082889
3234,0391;0,0831098
3235,0032;0,083346
3235,9675;0,0835929
3236,9316;0,0838447
3237,8960;0,0840987
3238,8601;0,0843563
3239,8245;0,08462
3240,7886;0,0848886
3241,7529;0,085155
3242,7170;0,0854095
3243,6814;0,0856456
3244,6455;0,0858665
3245,6099;0,0860856
3246,5740;0,0863206
3247,5383;0,0865849
3248,5024;0,0868803
3249,4668;0,0871962
3250,4309;0,0875155
3251,3953;0,0878215
3252,3594;0,0881055
3253,3237;0,0883689
3254,2878;0,0886206
3255,2522;0,0888711
3256,2163;0,0891269
3257,1807;0,089388
3258,1448;0,0896512
3259,1091;0,089914
3260,0732;0,0901784
3261,0376;0,0904498
3262,0017;0,0907326
3262,9661;0,0910252
3263,9302;0,0913182
3264,8945;0,0915978
3265,8586;0,0918528
3266,8230;0,0920813
3267,7871;0,0922919
3268,7515;0,0924986
3269,7156;0,0927117
3270,6799;0,0929309
3271,6440;0,0931436
3272,6084;0,0933316
3273,5725;0,0934813
3274,5369;0,0935915
3275,5010;0,0936742
3276,4653;0,0937472
3277,4294;0,0938245
3278,3938;0,0939099
3279,3579;0,0939982
3280,3223;0,0940811
3281,2864;0,0941541
3282,2507;0,0942186
3283,2148;0,0942795
3284,1792;0,0943402
3285,1433;0,0943999
3286,1077;0,0944546
3287,0718;0,094501
3288,0361;0,0945386
3289,0002;0,0945697
3289,9646;0,0945967
3290,9287;0,0946201
3291,8931;0,0946387
3292,8572;0,0946518
3293,8215;0,0946606
3294,7856;0,0946676
3295,7500;0,0946733
3296,7141;0,0946754
3297,6785;0,094669
3298,6426;0,0946502
3299,6069;0,0946187
3300,5710;0,0945795
3301,5354;0,0945402
3302,4995;0,0945081
3303,4639;0,0944869
3304,4280;0,0944762
3305,3923;0,0944721
3306,3564;0,0944694
3307,3208;0,0944632
3308,2849;0,0944509
3309,2493;0,0944327
3310,2134;0,0944117
3311,1777;0,0943924
3312,1418;0,0943797
3313,1062;0,0943767
3314,0703;0,0943846
3315,0347;0,0944047
3315,9988;0,0944402
3316,9631;0,0944971
3317,9272;0,0945816
3318,8916;0,0946956
3319,8557;0,0948321
3320,8201;0,0949762
3321,7842;0,0951098
3322,7485;0,0952201
3323,7126;0,0953059
3324,6770;0,0953765
3325,6411;0,0954463
3326,6055;0,0955261
3327,5696;0,0956183
3328,5339;0,0957175
3329,4980;0,0958159
3330,4624;0,0959067
3331,4265;0,0959859
3332,3909;0,0960498
3333,3550;0,0960923
3334,3193;0,0961049
3335,2834;0,0960797
3336,2478;0,0960128
3337,2119;0,0959065
3338,1763;0,0957678
3339,1404;0,0956059
3340,1047;0,0954297
3341,0688;0,0952468
3342,0332;0,0950637
3342,9973;0,0948848
3343,9617;0,0947108
3344,9258;0,0945381
3345,8901;0,0943593
3346,8542;0,0941667
3347,8186;0,0939557
3348,7827;0,0937279
3349,7471;0,0934903
3350,7112;0,0932521
3351,6755;0,0930205
3352,6396;0,092798
3353,6040;0,0925825
3354,5681;0,092369
3355,5325;0,0921526
3356,4966;0,0919309
3357,4609;0,0917046
3358,4250;0,0914771
3359,3894;0,0912537
3360,3535;0,0910398
3361,3179;0,0908383
3362,2820;0,0906483
3363,2463;0,0904636
3364,2104;0,0902745
3365,1748;0,0900712
3366,1389;0,0898475
3367,1033;0,0896031
3368,0674;0,0893425
3369,0317;0,0890726
3369,9958;0,0888001
3370,9602;0,0885299
3371,9243;0,0882653
3372,8887;0,0880078
3373,8528;0,0877575
3374,8171;0,0875124
3375,7813;0,0872705
3376,7456;0,0870308
3377,7097;0,0867949
3378,6741;0,086566
3379,6382;0,0863461
3380,6025;0,0861335
3381,5667;0,0859225
3382,5310;0,0857069
3383,4951;0,0854835
3384,4595;0,0852555
3385,4236;0,0850315
3386,3879;0,0848215
3387,3521;0,0846316
3388,3164;0,0844601
3389,2805;0,0842976
3390,2449;0,0841293
3391,2090;0,0839413
3392,1733;0,0837259
3393,1375;0,0834863
3394,1018;0,0832341
3395,0659;0,0829834
3396,0303;0,0827435
3396,9944;0,0825142
3397,9587;0,0822874
3398,9229;0,0820519
3399,8872;0,0817991
3400,8513;0,0815264
3401,8157;0,0812375
3402,7798;0,0809403
3403,7441;0,0806436
3404,7083;0,0803559
3405,6726;0,0800825
3406,6367;0,0798241
3407,6011;0,0795761
3408,5652;0,0793289
3409,5295;0,079071
3410,4937;0,0787932
3411,4580;0,0784929
3412,4221;0,0781762
3413,3865;0,0778553
3414,3506;0,0775432
3415,3149;0,0772478
3416,2791;0,0769686
3417,2434;0,0766961
3418,2075;0,0764156
3419,1719;0,0761144
3420,1360;0,0757872
3421,1003;0,0754391
3422,0645;0,0750816
3423,0288;0,0747251
3423,9929;0,0743736
3424,9573;0,074025
3425,9214;0,0736753
3426,8857;0,0733246
3427,8499;0,0729778
3428,8142;0,0726416
3429,7783;0,0723185
3430,7427;0,0720032
3431,7068;0,071684
3432,6711;0,0713498
3433,6353;0,0709966
3434,5996;0,070631
3435,5637;0,070266
3436,5281;0,0699139
3437,4922;0,0695794
3438,4565;0,0692592
3439,4207;0,0689465
3440,3850;0,0686366
3441,3491;0,0683305
3442,3135;0,0680308
3443,2776;0,0677363
3444,2419;0,0674367
3445,2061;0,0671149
3446,1704;0,0667542
3447,1345;0,0663494
3448,0989;0,065911
3449,0630;0,0654603
3450,0273;0,0650186
3450,9915;0,0645996
3451,9558;0,064208
3452,9199;0,0638427
3453,8843;0,0634996
3454,8484;0,0631728
3455,8127;0,0628563
3456,7769;0,0625442
3457,7412;0,0622315
3458,7053;0,061914
3459,6697;0,0615881
3460,6338;0,0612509
3461,5981;0,0609005
3462,5623;0,0605364
3463,5266;0,0601592
3464,4907;0,0597711
3465,4551;0,0593762
3466,4192;0,058981
3467,3835;0,058594
3468,3477;0,0582233
3469,3120;0,0578719
3470,2761;0,0575345
3471,2405;0,0571983
3472,2046;0,0568495
3473,1689;0,056483
3474,1331;0,0561083
3475,0974;0,0557458
3476,0615;0,0554154
3477,0259;0,0551225
3477,9900;0,054853
3478,9543;0,0545799
3479,9185;0,0542778
3480,8828;0,0539371
3481,8469;0,0535687
3482,8113;0,0531955
3483,7754;0,0528347
3484,7397;0,0524872
3485,7039;0,0521384
3486,6682;0,0517712
3487,6323;0,0513784
3488,5967;0,05097
3489,5608;0,0505691
3490,5251;0,0501988
3491,4893;0,0498703
3492,4536;0,0495776
3493,4177;0,0493018
3494,3821;0,0490229
3495,3462;0,0487329
3496,3105;0,0484429
3497,2747;0,0481766
3498,2390;0,0479515
3499,2031;0,0477614
3500,1675;0,0475719
3501,1316;0,0473319
3502,0959;0,0470021
3503,0601;0,046585
3504,0244;0,0461296
3504,9885;0,0456986
3505,9529;0,0453265
3506,9170;0,0450029
3507,8813;0,0446853
3508,8455;0,0443294
3509,8098;0,0439171
3510,7739;0,0434687
3511,7383;0,0430271
3512,7024;0,0426284
3513,6667;0,0422831
3514,6309;0,0419797
3515,5952;0,0417006
3516,5593;0,0414377
3517,5237;0,0411963
3518,4878;0,0409881
3519,4521;0,040818
3520,4163;0,040675
3521,3806;0,0405332
3522,3447;0,0403621
3523,3091;0,0401394
3524,2732;0,0398578
3525,2375;0,0395209
3526,2017;0,0391323
3527,1660;0,0386929
3528,1301;0,0382082
3529,0945;0,0376996
3530,0586;0,0372048
3531,0229;0,0367616
3531,9871;0,0363906
3532,9514;0,0360851
3533,9155;0,0358146
3534,8799;0,0355381
3535,8440;0,0352254
3536,8083;0,0348767
3537,7725;0,0345267
3538,7368;0,0342271
3539,7009;0,0340178
3540,6653;0,0339082
3541,6294;0,0338708
3542,5938;0,0338455
3543,5579;0,0337521
3544,5222;0,033522
3545,4863;0,0331401
3546,4507;0,0326611
3547,4148;0,0321718
3548,3792;0,0317328
3549,3433;0,0313505
3550,3076;0,0309911
3551,2717;0,0306117
3552,2361;0,0301913
3553,2002;0,0297473
3554,1646;0,0293245
3555,1287;0,0289648
3556,0930;0,028685
3557,0571;0,0284796
3558,0215;0,0283353
3558,9856;0,0282445
3559,9500;0,0282074
3560,9141;0,0282241
3561,8784;0,0282819
3562,8425;0,0283446
3563,8069;0,0283446
3564,7710;0,0281764
3565,7354;0,0277243
3566,6995;0,0269669
3567,6638;0,0260676
3568,6279;0,0252712
3569,5923;0,0247051
3570,5564;0,0243344
3571,5208;0,0240581
3572,4849;0,0237969
3573,4492;0,0235212
3574,4133;0,0232395
3575,3777;0,0229728
3576,3418;0,0227335
3577,3062;0,0225226
3578,2703;0,0223396
3579,2346;0,022195
3580,1987;0,0221071
3581,1631;0,0220853
3582,1272;0,0221137
3583,0916;0,0221499
3584,0557;0,0221353
3585,0200;0,0220056
3585,9841;0,0217106
3586,9485;0,0212724
3587,9126;0,020829
3588,8770;0,0205502
3589,8411;0,0204922
3590,8054;0,0205742
3591,7695;0,0206642
3592,7339;0,0206564
3593,6980;0,0205058
3594,6624;0,0202379
3595,6265;0,0199264
3596,5908;0,0196379
3597,5549;0,0193824
3598,5193;0,0191181
3599,4834;0,0188007
3600,4478;0,0184295
3601,4119;0,018053
3602,3762;0,0177242
3603,3403;0,0174535
3604,3047;0,0171993
3605,2688;0,0168919
3606,2332;0,016467
3607,1973;0,0159044
3608,1616;0,0152605
3609,1257;0,0146566
3610,0901;0,014212
3611,0542;0,0139806
3612,0186;0,0139368
3612,9827;0,0139995
3613,9470;0,0140689
3614,9111;0,0140597
3615,8755;0,0139237
3616,8396;0,0136596
3617,8040;0,0133167
3618,7681;0,0129933
3619,7324;0,0128131
3620,6965;0,0128587
3621,6609;0,0131046
3622,6250;0,0134246
3623,5894;0,0136646
3624,5535;0,0137107
3625,5178;0,0135122
3626,4819;0,0130629
3627,4463;0,0123769
3628,4104;0,0115347
3629,3748;0,010746
3630,3389;0,0102053
3631,3032;0,00989341
3632,2673;0,00963937
3633,2317;0,00929755
3634,1958;0,00883344
3635,1602;0,00830674
3636,1243;0,00780641
3637,0886;0,00738949
3638,0527;0,00706313
3639,0171;0,00681088
3639,9812;0,00662715
3640,9456;0,00652417
3641,9097;0,00650895
3642,8740;0,00655871
3643,8381;0,00662307
3644,8025;0,00665022
3645,7666;0,0066012
3646,7310;0,00641122
3647,6951;0,00593259
3648,6594;0,00506874
3649,6235;0,0040779
3650,5879;0,00338625
3651,5520;0,00309181
3652,5164;0,00298316
3653,4805;0,00282922
3654,4448;0,00252798
3655,4089;0,00211497
3656,3733;0,00170877
3657,3374;0,00142333
3658,3018;0,00128906
3659,2659;0,00124936
3660,2302;0,00123094
3661,1943;0,00120959
3662,1587;0,00121467
3663,1228;0,00128173
3664,0872;0,00140438
3665,0513;0,00153674
3666,0156;0,00163675
3666,9797;0,00170479
3667,9441;0,00177107
3668,9082;0,00184557
3669,8726;0,00190146
3670,8367;0,00190431
3671,8010;0,00182373
3672,7651;0,00163893
3673,7295;0,00136075
3674,6936;0,00103703
3675,6580;0,00074478
3676,6221;0,000574477
3677,5864;0,000562089
3678,5505;0,000647779
3679,5149;0,000747938
3680,4790;0,000837643
3681,4434;0,000950608
3682,4075;0,00111939
3683,3718;0,00132423
3684,3359;0,00149882
3685,3003;0,00158467
3686,2644;0,00158423
3687,2288;0,00156317
3688,1929;0,00159369
3689,1572;0,00170282
3690,1213;0,00188903
3691,0857;0,00214053
3692,0498;0,00241747
3693,0142;0,00266636
3693,9783;0,00285521
3694,9426;0,00298045
3695,9067;0,00304917
3696,8711;0,00306398
3697,8352;0,0030256
3698,7996;0,00294692
3699,7637;0,00286194
3700,7280;0,00281872
3701,6921;0,00285991
3702,6565;0,00300139
3703,6206;0,00321949
3704,5850;0,00345635
3705,5491;0,00364399
3706,5134;0,00372823
3707,4775;0,00366935
3708,4419;0,00341427
3709,4060;0,00287721
3710,3704;0,00201802
3711,3345;0,00100665
3712,2988;0,000195854
3713,2629;-0,000167413
3714,2273;-9,2801E-05
3715,1914;0,00026792
3716,1558;0,000770143
3717,1199;0,00133496
3718,0842;0,00193622
3719,0483;0,00256168
3720,0127;0,00318351
3720,9768;0,00375605
3721,9412;0,00423384
3722,9053;0,00458948
3723,8696;0,0048197
3724,8337;0,00494292
3725,7981;0,00498952
3726,7622;0,00498404
3727,7266;0,00493137
3728,6907;0,00482428
3729,6550;0,00466593
3730,6191;0,00448229
3731,5835;0,00430341
3732,5476;0,00411471
3733,5120;0,00382585
3734,4761;0,00335036
3735,4404;0,00276909
3736,4045;0,00231364
3737,3689;0,00211523
3738,3330;0,00207182
3739,2974;0,00195594
3740,2615;0,00157706
3741,2258;0,000882625
3742,1899;-7,37982E-07
3743,1543;-0,000793056
3744,1184;-0,00119605
3745,0828;-0,00110451
3746,0469;-0,000697191
3747,0112;-0,000293851
3747,9753;-0,000153983
3748,9397;-0,000387417
3749,9038;-0,000938973
3750,8682;-0,00156881
3751,8323;-0,00194185
3752,7966;-0,00190422
3753,7607;-0,00159487
3754,7251;-0,0012606
3755,6892;-0,00107208
3756,6536;-0,00107817
3757,6177;-0,00123494
3758,5820;-0,00144572
3759,5461;-0,0016044
3760,5105;-0,00164877
3761,4746;-0,00158924
3762,4390;-0,0014842
3763,4031;-0,00139421
3764,3674;-0,00135581
3765,3315;-0,00137988
3766,2959;-0,00146124
3767,2600;-0,00158837
3768,2244;-0,00174712
3769,1885;-0,00191541
3770,1528;-0,00205518
3771,1169;-0,00212158
3772,0813;-0,00209253
3773,0454;-0,00199058
3774,0098;-0,00187062
3774,9739;-0,00178622
3775,9382;-0,00176368
3776,9023;-0,00179811
3777,8667;-0,00186289
3778,8308;-0,00191706
3779,7952;-0,00191736
3780,7593;-0,00184483
3781,7236;-0,00172386
3782,6877;-0,00161088
3783,6521;-0,00156492
3784,6162;-0,0016194
3785,5806;-0,00176423
3786,5447;-0,00194856
3787,5090;-0,00210649
3788,4731;-0,00219163
3789,4375;-0,00219582
3790,4016;-0,00214071
3791,3660;-0,00205076
3792,3301;-0,001928
3793,2944;-0,00174842
3794,2585;-0,001487
3795,2229;-0,00115553
3796,1870;-0,000819148
3797,1514;-0,000571893
3798,1155;-0,000489212
3799,0798;-0,000592742
3800,0439;-0,00084267
3801,0083;-0,00115246
3801,9724;-0,00143099
3802,9368;-0,00164878
3803,9009;-0,00185897
3804,8652;-0,00213014
3805,8293;-0,00245508
3806,7937;-0,00272159
3807,7578;-0,00278237
3808,7222;-0,00258344
3809,6863;-0,00222524
3810,6506;-0,00188645
3811,6147;-0,00169529
3812,5791;-0,00165489
3813,5432;-0,0016549
3814,5076;-0,00155768
3815,4717;-0,00130871
3816,4360;-0,000982856
3817,4001;-0,000730947
3818,3645;-0,000687667
3819,3286;-0,000902478
3820,2930;-0,00129961
3821,2571;-0,00169107
3822,2214;-0,00189117
3823,1855;-0,00185605
3824,1499;-0,00168894
3825,1140;-0,00152967
3826,0784;-0,00146061
3827,0425;-0,0014819
3828,0068;-0,00153667
3828,9709;-0,00155572
3829,9353;-0,00149716
3830,8994;-0,00136402
3831,8638;-0,00119723
3832,8279;-0,00105199
3833,7922;-0,000970124
3834,7563;-0,000961881
3835,7207;-0,00100861
3836,6848;-0,00108561
3837,6492;-0,00118442
3838,6133;-0,0013085
3839,5776;-0,00145634
3840,5417;-0,00162063
3841,5061;-0,00179094
3842,4702;-0,00193794
3843,4346;-0,00200178
3844,3987;-0,00191503
3845,3630;-0,00165425
3846,3271;-0,00127814
3847,2915;-0,000917707
3848,2556;-0,000725926
3849,2200;-0,000820254
3850,1841;-0,00124489
3851,1484;-0,00196394
3852,1125;-0,00286062
3853,0769;-0,00366842
3854,0410;-0,00398461
3855,0054;-0,0036407
3855,9695;-0,00289471
3856,9338;-0,00213083
3857,8979;-0,00159002
3858,8623;-0,00132666
3859,8264;-0,00126628
3860,7908;-0,00128399
3861,7549;-0,00128248
3862,7192;-0,00124026
3863,6833;-0,00119543
3864,6477;-0,00118872
3865,6118;-0,001232
3866,5762;-0,00131327
3867,5403;-0,00140854
3868,5046;-0,00149546
3869,4688;-0,00156943
3870,4331;-0,00164446
3871,3972;-0,00173032
3872,3616;-0,00181476
3873,3257;-0,0018755
3874,2900;-0,00190271
3875,2542;-0,00190312
3876,2185;-0,0018843
3877,1826;-0,0018392
3878,1470;-0,00174853
3879,1111;-0,0016059
3880,0754;-0,00144452
3881,0396;-0,00133358
3882,0039;-0,001341
3882,9680;-0,00149209
3883,9324;-0,00174871
3884,8965;-0,00201916
3885,8608;-0,00220454
3886,8250;-0,00225989
3887,7893;-0,00221688
3888,7534;-0,00214475
3889,7178;-0,00209175
3890,6819;-0,00205638
3891,6462;-0,0019968
3892,6104;-0,00186671
3893,5747;-0,00166202
3894,5388;-0,00143571
3895,5032;-0,00125652
3896,4673;-0,00115651
3897,4316;-0,00111974
3898,3958;-0,00111464
3899,3601;-0,00113227
3900,3242;-0,00119398
3901,2886;-0,00132779
3902,2527;-0,00154215
3903,2170;-0,00181015
3904,1812;-0,00207105
3905,1455;-0,00226183
3906,1096;-0,00235876
3907,0740;-0,00238445
3908,0381;-0,00237691
3909,0024;-0,00235753
3909,9666;-0,00232328
3910,9309;-0,00226015
3911,8950;-0,00216138
3912,8594;-0,00203654
3913,8235;-0,00190844
3914,7878;-0,00180433
3915,7520;-0,00174652
3916,7163;-0,00174048
3917,6804;-0,00176348
3918,6448;-0,00177282
3919,6089;-0,00173759
3920,5732;-0,00166451
3921,5374;-0,00159081
3922,5017;-0,00155703
3923,4658;-0,00158059
3924,4302;-0,00164238
3925,3943;-0,00169685
3926,3586;-0,00170451
3927,3228;-0,00165995
3928,2871;-0,00159267
3929,2512;-0,00154846
3930,2156;-0,0015682
3931,1797;-0,00166729
3932,1440;-0,00182131
3933,1082;-0,00197663
3934,0725;-0,00208541
3935,0366;-0,00213182
3936,0010;-0,00212892
3936,9651;-0,00209956
3937,9294;-0,00206115
3938,8936;-0,00202119
3939,8579;-0,00198056
3940,8220;-0,00193868
3941,7864;-0,00189536
3942,7505;-0,00184902
3943,7148;-0,00179644
3944,6790;-0,00173851
3945,6433;-0,00168469
3946,6074;-0,0016517
3947,5718;-0,00165744
3948,5359;-0,00171265
3949,5002;-0,00181243
3950,4644;-0,00193508
3951,4287;-0,00205284
3952,3928;-0,00214574
3953,3572;-0,00220646
3954,3213;-0,00223668
3955,2856;-0,00224157
3956,2498;-0,00222638
3957,2141;-0,00219547
3958,1782;-0,00215386
3959,1426;-0,0021098
3960,1067;-0,0020759
3961,0710;-0,00206587
3962,0352;-0,00208745
3962,9995;-0,00213652
3963,9636;-0,00219803
3964,9280;-0,002253
3965,8921;-0,00228806
3966,8564;-0,00230024
3967,8206;-0,00229592
3968,7849;-0,00228491
3969,7490;-0,0022738
3970,7134;-0,00226318
3971,6775;-0,00225031
3972,6418;-0,00223423
3973,6060;-0,00221881
3974,5703;-0,00221108
3975,5344;-0,00221636
3976,4988;-0,00223438
3977,4629;-0,00225951
3978,4272;-0,00228469
3979,3914;-0,00230605
3980,3557;-0,00232512
3981,3198;-0,00234719
3982,2842;-0,00237656
3983,2483;-0,00241182
3984,2126;-0,00244453
3985,1768;-0,00246269
3986,1411;-0,00245695
3987,1052;-0,0024259
3988,0696;-0,00237743
3989,0337;-0,00232467
3989,9980;-0,0022805
3990,9622;-0,00225281
3991,9265;-0,0022443
3992,8906;-0,00225555
3993,8550;-0,00228736
3994,8191;-0,0023394
3995,7834;-0,00240625
3996,7476;-0,0024751
3997,7119;-0,002529
3998,6760;-0,00255468
3999,6404;-0,00254969
4000,6045;-0,00221724

##### Extended Information
[Comments]
Sample name
Comment
Username
Division
Organization;UNIVERSIDAD INDUSTRIAL DE SANTANDER

[Detailed Information]
Creation date;19/03/2025 2:40 p.m.

Data array type;Linear data array
Horizontal axis;Wavenumber [cm-1]
Vertical axis;Abs
Start;399,193 cm-1
End;4000,6 cm-1
Data interval;0,964233 cm-1
Data points;3736    

[Measurement Information]
Model name;FT/IR-4X1typeA
Serial No.;A035162111

Accessory;ATR PRO 4X
Accessory S/N;A021162126
Incident angle;45 deg

Measurement date;19/03/2025 2:38 p.m.

Light source;Standard
Detector;TGS
Accumulation;40
Resolution;4 cm-1
Zero filling;On
Apodization;Cosine
Gain;Auto (8)
Aperture;Auto (7 mm)
Scan speed;Auto (2 mm/sec)
Filter;Auto (12800 Hz)

