TITLE;
DATA TYPE;INFRARED SPECTRUM
ORIGIN;JASCO
OWNER;
DATE;25/03/19
TIME;14:49:27
SPECTROMETER/DATA SYSTEM;
LOCALE;9226
RESOLUTION;
DELTAX;0,964233
XUNITS;1/CM
YUNITS;ABSORBANCE
FIRSTX;  399,1927
LASTX; 4000,6047
NPOINTS;    3736
FIRSTY;     0,25050
MAXY;     0,30373
MINY;    -0,00665
XYDATA
399,1927;0,250496
400,1569;0,249609
401,1211;0,248287
402,0854;0,246534
403,0496;0,244551
404,0138;0,242717
404,9781;0,241503
405,9423;0,241298
406,9065;0,24217
407,8708;0,243739
408,8350;0,245309
409,7992;0,246191
410,7635;0,246057
411,7277;0,245144
412,6919;0,244122
413,6562;0,243715
414,6204;0,244379
415,5846;0,246242
416,5489;0,24914
417,5131;0,252567
418,4773;0,255631
419,4416;0,257491
420,4058;0,258066
421,3700;0,257901
422,3343;0,25745
423,2985;0,256808
424,2627;0,2559
425,2270;0,254711
426,1912;0,253385
427,1554;0,252177
428,1197;0,251322
429,0839;0,250933
430,0481;0,250989
431,0124;0,251347
431,9766;0,251771
432,9408;0,251977
433,9051;0,251721
434,8693;0,250913
435,8335;0,249706
436,7978;0,248444
437,7620;0,247476
438,7262;0,246965
439,6905;0,246837
440,6547;0,246869
441,6189;0,24684
442,5832;0,246651
443,5474;0,246347
444,5116;0,246022
445,4759;0,245714
446,4401;0,245382
447,4043;0,244967
448,3686;0,244469
449,3328;0,243959
450,2970;0,243546
451,2613;0,243309
452,2255;0,243265
453,1897;0,243352
454,1540;0,243449
455,1182;0,243389
456,0824;0,242995
457,0467;0,242167
458,0109;0,241002
458,9751;0,239811
459,9394;0,238944
460,9036;0,238579
461,8678;0,238667
462,8321;0,239024
463,7963;0,239439
464,7605;0,23976
465,7248;0,239926
466,6890;0,239948
467,6532;0,239862
468,6175;0,239686
469,5817;0,239422
470,5459;0,23908
471,5102;0,238698
472,4744;0,238336
473,4386;0,238047
474,4029;0,237854
475,3671;0,237772
476,3313;0,237815
477,2956;0,237995
478,2598;0,238285
479,2240;0,238599
480,1883;0,23881
481,1525;0,238813
482,1167;0,238579
483,0810;0,238198
484,0452;0,23784
485,0094;0,237682
485,9737;0,237815
486,9379;0,238209
487,9021;0,238757
488,8664;0,239336
489,8306;0,239872
490,7948;0,240361
491,7591;0,240856
492,7233;0,241409
493,6875;0,242011
494,6518;0,242571
495,6160;0,242963
496,5802;0,243123
497,5445;0,243106
498,5087;0,243089
499,4729;0,243286
500,4372;0,243835
501,4014;0,2447
502,3656;0,245677
503,3299;0,246507
504,2941;0,247028
505,2583;0,247252
506,2226;0,247317
507,1868;0,247388
508,1510;0,247581
509,1153;0,247931
510,0795;0,248419
511,0437;0,249011
512,0080;0,249696
512,9722;0,250484
513,9365;0,25139
514,9007;0,2524
515,8649;0,253437
516,8292;0,254352
517,7934;0,254956
518,7576;0,255119
519,7219;0,254859
520,6861;0,254357
521,6503;0,253866
522,6146;0,253605
523,5788;0,253679
524,5430;0,254039
525,5073;0,254499
526,4715;0,25482
527,4357;0,254838
528,4000;0,254532
529,3642;0,253996
530,3284;0,253347
531,2927;0,252674
532,2569;0,25203
533,2211;0,251471
534,1854;0,251068
535,1496;0,250898
536,1138;0,250986
537,0781;0,251268
538,0423;0,251597
539,0065;0,251817
539,9708;0,25185
540,9350;0,251747
541,8992;0,251657
542,8635;0,251735
543,8277;0,252051
544,7919;0,252545
545,7562;0,253077
546,7204;0,253513
547,6846;0,253804
548,6489;0,254004
549,6131;0,254209
550,5773;0,254486
551,5416;0,25484
552,5058;0,255227
553,4700;0,255606
554,4343;0,255957
555,3985;0,256264
556,3627;0,256476
557,3270;0,25648
558,2912;0,256123
559,2554;0,255285
560,2197;0,253953
561,1839;0,252247
562,1481;0,250393
563,1124;0,248632
564,0766;0,247133
565,0408;0,24595
566,0051;0,245032
566,9693;0,244286
567,9335;0,243629
568,8978;0,243029
569,8620;0,242497
570,8262;0,242054
571,7905;0,2417
572,7547;0,241408
573,7189;0,241139
574,6832;0,240866
575,6474;0,240589
576,6116;0,240333
577,5759;0,240123
578,5401;0,239962
579,5043;0,239821
580,4686;0,239654
581,4328;0,239419
582,3970;0,239096
583,3613;0,238694
584,3255;0,238248
585,2897;0,237809
586,2540;0,237433
587,2182;0,237165
588,1824;0,23703
589,1467;0,237012
590,1109;0,237041
591,0751;0,237011
592,0394;0,236818
593,0036;0,236419
593,9678;0,235848
594,9321;0,235194
595,8963;0,234543
596,8605;0,233936
597,8248;0,233369
598,7890;0,232817
599,7532;0,232266
600,7175;0,231724
601,6817;0,231203
602,6459;0,230693
603,6102;0,230163
604,5744;0,229585
605,5386;0,228967
606,5029;0,22835
607,4671;0,227772
608,4313;0,227224
609,3956;0,226639
610,3598;0,225939
611,3240;0,225104
612,2883;0,224217
613,2525;0,223419
614,2167;0,222819
615,1810;0,222385
616,1452;0,221919
617,1094;0,221142
618,0737;0,219858
619,0379;0,218084
620,0021;0,216042
620,9664;0,214024
621,9306;0,212257
622,8948;0,210825
623,8591;0,209697
624,8233;0,208717
625,7875;0,207921
626,7518;0,207254
627,7160;0,206677
628,6802;0,206134
629,6445;0,205556
630,6087;0,204885
631,5729;0,204102
632,5372;0,203243
633,5014;0,202375
634,4656;0,201571
635,4299;0,200882
636,3941;0,200327
637,3583;0,199904
638,3226;0,199596
639,2868;0,199367
640,2510;0,19916
641,2153;0,198905
642,1795;0,198545
643,1437;0,198067
644,1080;0,197515
645,0722;0,196964
646,0364;0,196489
647,0007;0,196129
647,9649;0,195878
648,9291;0,195707
649,8934;0,195588
650,8576;0,195521
651,8218;0,19553
652,7861;0,195649
653,7503;0,195888
654,7145;0,196223
655,6788;0,196591
656,6430;0,196921
657,6072;0,197172
658,5715;0,197346
659,5357;0,197455
660,4999;0,197455
661,4642;0,197214
662,4284;0,196528
663,3926;0,195207
664,3569;0,193215
665,3211;0,190883
666,2853;0,18901
667,2496;0,188451
668,2138;0,189038
669,1780;0,189534
670,1423;0,18934
671,1065;0,18862
672,0707;0,187381
673,0350;0,185534
673,9992;0,183197
674,9634;0,180692
675,9277;0,178347
676,8919;0,176323
677,8561;0,174587
678,8204;0,173015
679,7846;0,171525
680,7488;0,170106
681,7131;0,16879
682,6773;0,167596
683,6415;0,166517
684,6058;0,165536
685,5700;0,164639
686,5342;0,163814
687,4985;0,163047
688,4627;0,16233
689,4269;0,161654
690,3912;0,16103
691,3554;0,160475
692,3196;0,159996
693,2839;0,159567
694,2481;0,159146
695,2123;0,158693
696,1766;0,158191
697,1408;0,15764
698,1050;0,157045
699,0693;0,156404
700,0335;0,155717
700,9977;0,154991
701,9620;0,154252
702,9262;0,153531
703,8904;0,152826
704,8547;0,15213
705,8189;0,151408
706,7831;0,150617
707,7474;0,149734
708,7116;0,148768
709,6758;0,147753
710,6401;0,14673
711,6043;0,145722
712,5685;0,144736
713,5328;0,143778
714,4970;0,142867
715,4612;0,140754
716,4255;0,14029
717,3897;0,139981
718,3539;0,139635
719,3182;0,138993
720,2824;0,137854
721,2466;0,136213
722,2109;0,134272
723,1751;0,13233
724,1393;0,130625
725,1036;0,129242
726,0678;0,128115
727,0320;0,127103
727,9963;0,12608
728,9605;0,124994
729,9247;0,123876
730,8890;0,122792
731,8532;0,121798
732,8174;0,120909
733,7817;0,120112
734,7459;0,119381
735,7101;0,118697
736,6744;0,118055
737,6386;0,117461
738,6028;0,116918
739,5671;0,116418
740,5313;0,115945
741,4955;0,115471
742,4598;0,114964
743,4240;0,1144
744,3882;0,11377
745,3525;0,113084
746,3167;0,112371
747,2809;0,111664
748,2452;0,110986
749,2094;0,110344
750,1736;0,10973
751,1379;0,109125
752,1021;0,10852
753,0663;0,107914
754,0306;0,107314
754,9948;0,106723
755,9590;0,106136
756,9233;0,105542
757,8875;0,104931
758,8517;0,104308
759,8160;0,103689
760,7802;0,103101
761,7444;0,10256
762,7087;0,102067
763,6729;0,101605
764,6371;0,10115
765,6014;0,100685
766,5656;0,100209
767,5298;0,0997375
768,4941;0,0992859
769,4583;0,0988619
770,4225;0,0984572
771,3868;0,0980522
772,3510;0,097628
773,3152;0,097177
774,2795;0,0967066
775,2437;0,0962342
776,2079;0,0957767
777,1722;0,095343
778,1364;0,0949315
779,1006;0,0945331
780,0649;0,0941368
781,0291;0,0937326
781,9933;0,0933131
782,9576;0,0928734
783,9218;0,0924124
784,8860;0,0919355
785,8503;0,0914557
786,8145;0,0909905
787,7787;0,0905551
788,7430;0,090155
789,7072;0,0897842
790,6714;0,0894312
791,6357;0,0890894
792,5999;0,0887648
793,5641;0,0884719
794,5284;0,0882209
795,4926;0,0880035
796,4568;0,0877906
797,4211;0,0875461
798,3853;0,0872482
799,3495;0,0869051
800,3138;0,0865512
801,2780;0,0862269
802,2422;0,0859531
803,2065;0,0857204
804,1707;0,0854968
805,1349;0,0852499
806,0992;0,0849679
807,0634;0,0846657
808,0276;0,0843744
808,9919;0,0841222
809,9561;0,0839188
810,9203;0,0837524
811,8846;0,0835975
812,8488;0,0834304
813,8130;0,0832408
814,7773;0,083036
815,7415;0,082835
816,7057;0,082658
817,6700;0,0825156
818,6342;0,0824042
819,5984;0,0823081
820,5627;0,0822076
821,5269;0,0820878
822,4911;0,0819443
823,4554;0,0817847
824,4196;0,081624
825,3839;0,0814794
826,3481;0,0813629
827,3123;0,081277
828,2766;0,0812124
829,2408;0,0811499
830,2050;0,0810654
831,1693;0,0809359
832,1335;0,0807462
833,0977;0,0804915
834,0620;0,0801784
835,0262;0,0798228
835,9904;0,079446
836,9547;0,0790697
837,9189;0,0787103
838,8831;0,0783742
839,8474;0,0780566
840,8116;0,0777451
841,7758;0,0774276
842,7401;0,0771004
843,7043;0,0767721
844,6685;0,0764609
845,6328;0,0761868
846,5970;0,0759626
847,5612;0,075788
848,5255;0,075651
849,4897;0,075532
850,4539;0,075412
851,4182;0,0752784
852,3824;0,0751285
853,3466;0,0749695
854,3109;0,0748147
855,2751;0,0746772
856,2393;0,0745634
857,2036;0,07447
858,1678;0,0743864
859,1320;0,0743023
860,0963;0,074215
861,0605;0,0741318
862,0247;0,0740663
862,9890;0,074029
863,9532;0,074023
864,9174;0,0740443
865,8817;0,0740903
866,8459;0,0741671
867,8101;0,0742903
868,7744;0,0744768
869,7386;0,0747326
870,7028;0,0750437
871,6671;0,0753766
872,6313;0,0756876
873,5955;0,0759369
874,5598;0,0761015
875,5240;0,0761825
876,4882;0,0762063
877,4525;0,0762197
878,4167;0,0762789
879,3809;0,076434
880,3452;0,0767159
881,3094;0,0771298
882,2736;0,07766
883,2379;0,0782843
884,2021;0,0789889
885,1663;0,0797754
886,1306;0,0806548
887,0948;0,0816354
888,0590;0,0827097
889,0233;0,0838514
889,9875;0,0850202
890,9517;0,0861709
891,9160;0,0872615
892,8802;0,0882557
893,8444;0,0891234
894,8087;0,089841
895,7729;0,0903912
896,7371;0,0907636
897,7014;0,0909539
898,6656;0,0909622
899,6298;0,090794
900,5941;0,0904619
901,5583;0,0899895
902,5225;0,0894121
903,4868;0,0887738
904,4510;0,0881213
905,4152;0,0874974
906,3795;0,0869362
907,3437;0,0864614
908,3079;0,0860858
909,2722;0,0858125
910,2364;0,0856361
911,2007;0,0855463
912,1649;0,085532
913,1292;0,0855858
914,0934;0,0857054
915,0576;0,0858927
916,0219;0,0861494
916,9861;0,0864733
917,9503;0,0868553
918,9146;0,0872796
919,8788;0,0877249
920,8430;0,0881681
921,8073;0,0885879
922,7715;0,0889686
923,7357;0,0893035
924,7000;0,089595
925,6642;0,0898526
926,6284;0,0900868
927,5927;0,0903037
928,5569;0,0905016
929,5211;0,0906744
930,4854;0,0908184
931,4496;0,0909393
932,4138;0,0910552
933,3781;0,0911929
934,3423;0,0913792
935,3065;0,0916344
936,2708;0,0919689
937,2350;0,0923858
938,1992;0,0928845
939,1635;0,0934628
940,1277;0,0941177
941,0919;0,0948459
942,0562;0,0956473
943,0204;0,0965291
943,9846;0,0975069
944,9489;0,0985994
945,9131;0,0998164
946,8773;0,10115
947,8416;0,102573
948,8058;0,10405
949,7700;0,105558
950,7343;0,107094
951,6985;0,108684
952,6627;0,110365
953,6270;0,112172
954,5912;0,11412
955,5554;0,116202
956,5197;0,118397
957,4839;0,120675
958,4481;0,123016
959,4124;0,125402
960,3766;0,127825
961,3408;0,130277
962,3051;0,132753
963,2693;0,135248
964,2335;0,137766
965,1978;0,140315
966,1620;0,142916
967,1262;0,145592
968,0905;0,148372
969,0547;0,151282
970,0189;0,154346
970,9832;0,157584
971,9474;0,16102
972,9116;0,164683
973,8759;0,168604
974,8401;0,172815
975,8043;0,177337
976,7686;0,182167
977,7328;0,187271
978,6970;0,192572
979,6613;0,197952
980,6255;0,203264
981,5897;0,208343
982,5540;0,213041
983,5182;0,217246
984,4824;0,220912
985,4467;0,22406
986,4109;0,226773
987,3751;0,229159
988,3394;0,231322
989,3036;0,233334
990,2678;0,235223
991,2321;0,236991
992,1963;0,238625
993,1605;0,240123
994,1248;0,241494
995,0890;0,242761
996,0532;0,24394
997,0175;0,245034
997,9817;0,246035
998,9459;0,246931
999,9102;0,247733
1000,8744;0,248481
1001,8386;0,249252
1002,8029;0,250142
1003,7671;0,251241
1004,7313;0,252612
1005,6956;0,254276
1006,6598;0,25622
1007,6240;0,258414
1008,5883;0,260833
1009,5525;0,26346
1010,5167;0,266285
1011,4810;0,269286
1012,4452;0,272412
1013,4094;0,275579
1014,3737;0,27868
1015,3379;0,281609
1016,3021;0,284285
1017,2664;0,286668
1018,2306;0,288761
1019,1948;0,290603
1020,1591;0,292255
1021,1233;0,293778
1022,0875;0,295228
1023,0518;0,296636
1024,0160;0,298012
1024,9802;0,299339
1025,9445;0,300585
1026,9087;0,301707
1027,8729;0,302653
1028,8372;0,303357
1029,8014;0,303732
1030,7656;0,303664
1031,7299;0,303028
1032,6941;0,301718
1033,6583;0,299695
1034,6226;0,297012
1035,5868;0,293823
1036,5510;0,290358
1037,5153;0,286873
1038,4795;0,283609
1039,4437;0,280753
1040,4080;0,278422
1041,3722;0,276655
1042,3364;0,275419
1043,3007;0,274619
1044,2649;0,274121
1045,2291;0,273781
1046,1934;0,273473
1047,1576;0,273102
1048,1218;0,272603
1049,0861;0,271922
1050,0503;0,271005
1051,0145;0,269795
1051,9788;0,268249
1052,9430;0,266354
1053,9072;0,264132
1054,8715;0,261617
1055,8357;0,258826
1056,7999;0,255736
1057,7642;0,252281
1058,7284;0,248389
1059,6926;0,244029
1060,6569;0,239246
1061,6211;0,234176
1062,5853;0,229017
1063,5496;0,223978
1064,5138;0,219235
1065,4780;0,214897
1066,4423;0,210997
1067,4065;0,207502
1068,3707;0,204338
1069,3350;0,201418
1070,2992;0,198659
1071,2634;0,195996
1072,2277;0,193382
1073,1919;0,190775
1074,1561;0,188136
1075,1204;0,185424
1076,0846;0,182612
1077,0488;0,179702
1078,0131;0,176742
1078,9773;0,173816
1079,9415;0,171025
1080,9058;0,168465
1081,8700;0,166198
1082,8342;0,164247
1083,7985;0,162604
1084,7627;0,161242
1085,7269;0,160125
1086,6912;0,159222
1087,6554;0,158508
1088,6196;0,157966
1089,5839;0,157588
1090,5481;0,15737
1091,5123;0,157304
1092,4766;0,157382
1093,4408;0,157588
1094,4050;0,15791
1095,3693;0,158338
1096,3335;0,158861
1097,2977;0,159464
1098,2620;0,160115
1099,2262;0,16077
1100,1904;0,161374
1101,1547;0,161871
1102,1189;0,162217
1103,0831;0,162382
1104,0474;0,162361
1105,0116;0,16217
1105,9758;0,161842
1106,9401;0,161414
1107,9043;0,160904
1108,8685;0,160293
1109,8328;0,159517
1110,7970;0,158481
1111,7612;0,1571
1112,7255;0,15534
1113,6897;0,153242
1114,6539;0,150926
1115,6182;0,148548
1116,5824;0,146259
1117,5466;0,14416
1118,5109;0,142282
1119,4751;0,14059
1120,4393;0,139007
1121,4036;0,137432
1122,3678;0,135762
1123,3320;0,13391
1124,2963;0,131816
1125,2605;0,129461
1126,2247;0,126865
1127,1890;0,124086
1128,1532;0,121201
1129,1174;0,118285
1130,0817;0,115399
1131,0459;0,112582
1132,0101;0,109859
1132,9744;0,107256
1133,9386;0,104808
1134,9028;0,102561
1135,8671;0,100572
1136,8313;0,0988868
1137,7955;0,0975387
1138,7598;0,096536
1139,7240;0,0958648
1140,6882;0,0954938
1141,6525;0,0953824
1142,6167;0,0954868
1143,5809;0,0957652
1144,5452;0,0961802
1145,5094;0,0967013
1146,4736;0,0973073
1147,4379;0,0979886
1148,4021;0,0987456
1149,3663;0,0995834
1150,3306;0,100501
1151,2948;0,10148
1152,2590;0,102484
1153,2233;0,103459
1154,1875;0,104345
1155,1517;0,105088
1156,1160;0,105638
1157,0802;0,105946
1158,0444;0,105949
1159,0087;0,105564
1159,9729;0,104695
1160,9371;0,10325
1161,9014;0,101172
1162,8656;0,0984642
1163,8298;0,095199
1164,7941;0,0915076
1165,7583;0,0875581
1166,7225;0,0835264
1167,6868;0,0795714
1168,6510;0,0758195
1169,6152;0,0723574
1170,5795;0,069233
1171,5437;0,0664608
1172,5079;0,0640306
1173,4722;0,0619158
1174,4364;0,0600829
1175,4006;0,0584971
1176,3649;0,0571265
1177,3291;0,0559442
1178,2933;0,0549285
1179,2576;0,0540631
1180,2218;0,0533352
1181,1860;0,0527343
1182,1503;0,0522493
1183,1145;0,0518691
1184,0787;0,0515838
1185,0430;0,0513883
1186,0072;0,051285
1186,9714;0,0512827
1187,9357;0,0513926
1188,8999;0,0516225
1189,8641;0,051973
1190,8284;0,0524379
1191,7926;0,0530081
1192,7568;0,0536755
1193,7211;0,0544349
1194,6853;0,0552809
1195,6495;0,0562029
1196,6138;0,057182
1197,5780;0,0581909
1198,5422;0,0592001
1199,5065;0,0599061
1200,4707;0,0608829
1201,4349;0,0618154
1202,3992;0,0627015
1203,3634;0,0635386
1204,3276;0,0643194
1205,2919;0,065033
1206,2561;0,0656712
1207,2203;0,0662376
1208,1846;0,0667533
1209,1488;0,0672582
1210,1130;0,0678027
1211,0773;0,0684363
1212,0415;0,069194
1213,0057;0,0700895
1213,9700;0,0711142
1214,9342;0,0722444
1215,8984;0,0734493
1216,8627;0,0746959
1217,8269;0,0759522
1218,7911;0,0771925
1219,7554;0,0783981
1220,7196;0,079558
1221,6838;0,0806683
1222,6481;0,08173
1223,6123;0,0827443
1224,5765;0,0837104
1225,5408;0,0846257
1226,5050;0,085488
1227,4692;0,0862973
1228,4335;0,0870553
1229,3977;0,0877624
1230,3619;0,0884137
1231,3262;0,0889989
1232,2904;0,0895053
1233,2546;0,089924
1234,2189;0,0902545
1235,1831;0,0905066
1236,1473;0,0906965
1237,1116;0,0908414
1238,0758;0,090954
1239,0400;0,0910398
1240,0043;0,0910976
1240,9685;0,0911213
1241,9327;0,0911027
1242,8970;0,0910322
1243,8612;0,0908998
1244,8254;0,090696
1245,7897;0,0904149
1246,7539;0,0900585
1247,7181;0,0896401
1248,6824;0,0891828
1249,6466;0,0887143
1250,6108;0,0882589
1251,5751;0,0878312
1252,5393;0,0874353
1253,5035;0,0870682
1254,4678;0,0867248
1255,4320;0,0863992
1256,3962;0,0860825
1257,3605;0,0857597
1258,3247;0,0854099
1259,2889;0,0850108
1260,2532;0,0845463
1261,2174;0,0840124
1262,1816;0,0834164
1263,1459;0,0827727
1264,1101;0,0820964
1265,0743;0,0813999
1266,0386;0,0806915
1267,0028;0,0799733
1267,9670;0,0792402
1268,9313;0,0784807
1269,8955;0,0776808
1270,8597;0,0768317
1271,8240;0,0759364
1272,7882;0,0750118
1273,7524;0,0740838
1274,7167;0,0731794
1275,6809;0,0723184
1276,6451;0,0715083
1277,6094;0,0707422
1278,5736;0,0700021
1279,5378;0,0692649
1280,5021;0,0685131
1281,4663;0,0677427
1282,4305;0,0669676
1283,3948;0,0662137
1284,3590;0,0655097
1285,3232;0,0648764
1286,2875;0,0643219
1287,2517;0,0638422
1288,2159;0,0634279
1289,1802;0,0630705
1290,1444;0,0627668
1291,1086;0,0625196
1292,0729;0,0623366
1293,0371;0,0622288
1294,0013;0,0622091
1294,9656;0,0622902
1295,9298;0,0624805
1296,8940;0,0627828
1297,8583;0,0631932
1298,8225;0,0637038
1299,7867;0,0643061
1300,7510;0,0649921
1301,7152;0,0657586
1302,6794;0,0666021
1303,6437;0,0675172
1304,6079;0,0684984
1305,5721;0,069537
1306,5364;0,0706225
1307,5006;0,0717439
1308,4648;0,0728914
1309,4291;0,0740543
1310,3933;0,0752168
1311,3575;0,0763518
1312,3218;0,0774199
1313,2860;0,0783739
1314,2502;0,0791667
1315,2145;0,0797561
1316,1787;0,0801062
1317,1429;0,0801912
1318,1072;0,0800073
1319,0714;0,0795876
1320,0356;0,0790041
1320,9999;0,078349
1321,9641;0,0777037
1322,9283;0,0771196
1323,8926;0,0766192
1324,8568;0,0762087
1325,8210;0,0758887
1326,7853;0,0756581
1327,7495;0,0755082
1328,7137;0,0754189
1329,6780;0,0753582
1330,6422;0,0752913
1331,6064;0,0751937
1332,5707;0,0750578
1333,5349;0,074894
1334,4991;0,0747148
1335,4634;0,0745129
1336,4276;0,0742431
1337,3918;0,0738189
1338,3561;0,0731453
1339,3203;0,072194
1340,2845;0,0710569
1341,2488;0,0699049
1342,2130;0,0688841
1343,1772;0,0680555
1344,1415;0,0674125
1345,1057;0,0669245
1346,0699;0,0665679
1347,0342;0,0663362
1347,9984;0,0662374
1348,9626;0,0662835
1349,9269;0,0664767
1350,8911;0,0668004
1351,8553;0,0672206
1352,8196;0,0676975
1353,7838;0,0682013
1354,7480;0,0687243
1355,7123;0,069281
1356,6765;0,0698961
1357,6407;0,0705873
1358,6050;0,0713571
1359,5692;0,0721877
1360,5334;0,0730293
1361,4977;0,0737967
1362,4619;0,074413
1363,4261;0,0748786
1364,3904;0,0752703
1365,3546;0,0756643
1366,3188;0,0760819
1367,2831;0,0764963
1368,2473;0,0768632
1369,2115;0,077145
1370,1758;0,0773198
1371,1400;0,0773748
1372,1042;0,0772922
1373,0685;0,0770426
1374,0327;0,0766034
1374,9969;0,075992
1375,9612;0,0752621
1376,9254;0,07445
1377,8896;0,0735386
1378,8539;0,07249
1379,8181;0,0713075
1380,7823;0,0700647
1381,7466;0,0688687
1382,7108;0,0677876
1383,6750;0,0668091
1384,6393;0,0658603
1385,6035;0,0648661
1386,5677;0,0638167
1387,5320;0,0628106
1388,4962;0,0620037
1389,4604;0,0614809
1390,4247;0,0612016
1391,3889;0,0610712
1392,3531;0,0610298
1393,3174;0,0610687
1394,2816;0,0611847
1395,2458;0,0613358
1396,2101;0,0614532
1397,1743;0,0614975
1398,1385;0,0614966
1399,1028;0,0615312
1400,0670;0,0616808
1401,0313;0,0619762
1401,9955;0,0623915
1402,9597;0,0628722
1403,9240;0,0633702
1404,8882;0,0638677
1405,8524;0,0643829
1406,8167;0,064951
1407,7809;0,0655908
1408,7451;0,0662939
1409,7094;0,0670466
1410,6736;0,0678524
1411,6378;0,0687257
1412,6021;0,0696635
1413,5663;0,0706225
1414,5305;0,071531
1415,4948;0,0723235
1416,4590;0,0729596
1417,4232;0,0734107
1418,3875;0,0736744
1419,3517;0,0738435
1420,3159;0,0740667
1421,2802;0,074372
1422,2444;0,0746214
1423,2086;0,0746449
1424,1729;0,0743683
1425,1371;0,0738354
1426,1013;0,0731421
1427,0656;0,072356
1428,0298;0,0714902
1428,9940;0,0705426
1429,9583;0,0695489
1430,9225;0,0685755
1431,8867;0,0676446
1432,8510;0,0666833
1433,8152;0,065566
1434,7794;0,0642094
1435,7437;0,0626727
1436,7079;0,0612235
1437,6721;0,0602292
1438,6364;0,05986
1439,6006;0,0599649
1440,5648;0,060267
1441,5291;0,0605799
1442,4933;0,0608645
1443,4575;0,0611694
1444,4218;0,0615447
1445,3860;0,0619909
1446,3502;0,0624699
1447,3145;0,0629535
1448,2787;0,0634648
1449,2429;0,0640604
1450,2072;0,064756
1451,1714;0,0654695
1452,1356;0,0660536
1453,0999;0,0663884
1454,0641;0,0664552
1455,0283;0,0663101
1455,9926;0,0659202
1456,9568;0,0651526
1457,9210;0,0642715
1458,8853;0,0638799
1459,8495;0,0640697
1460,8137;0,0644259
1461,7780;0,0645337
1462,7422;0,0641819
1463,7064;0,0633419
1464,6707;0,0621425
1465,6349;0,06085
1466,5991;0,059703
1467,5634;0,0587064
1468,5276;0,0576616
1469,4918;0,0563487
1470,4561;0,0546272
1471,4203;0,052425
1472,3845;0,0497549
1473,3488;0,0468693
1474,3130;0,0442528
1475,2772;0,0422321
1476,2415;0,0407678
1477,2057;0,0396485
1478,1699;0,0386955
1479,1342;0,0378147
1480,0984;0,0369766
1481,0626;0,0361965
1482,0269;0,0355236
1482,9911;0,035017
1483,9553;0,0347137
1484,9196;0,0346156
1485,8838;0,0347032
1486,8480;0,0349359
1487,8123;0,0352083
1488,7765;0,0353563
1489,7407;0,0353428
1490,7050;0,0353638
1491,6692;0,0356063
1492,6334;0,0360624
1493,5977;0,0366381
1494,5619;0,0373045
1495,5261;0,0381221
1496,4904;0,0391549
1497,4546;0,0403887
1498,4188;0,0417658
1499,3831;0,0432219
1500,3473;0,044621
1501,3115;0,0457544
1502,2758;0,0464601
1503,2400;0,0467556
1504,2042;0,0469174
1505,1685;0,0473963
1506,1327;0,0483258
1507,0969;0,0490359
1508,0612;0,0490291
1509,0254;0,0487896
1509,9896;0,0487082
1510,9539;0,0487081
1511,9181;0,0486378
1512,8823;0,0484529
1513,8466;0,0481807
1514,8108;0,0478351
1515,7750;0,0473774
1516,7393;0,0467509
1517,7035;0,0459449
1518,6677;0,0450186
1519,6320;0,0440825
1520,5962;0,0432644
1521,5604;0,0426749
1522,5247;0,0423654
1523,4889;0,0422968
1524,4531;0,0423702
1525,4174;0,0425071
1526,3816;0,0426946
1527,3458;0,0429557
1528,3101;0,0432886
1529,2743;0,0436597
1530,2385;0,044062
1531,2028;0,044566
1532,1670;0,0452787
1533,1312;0,0462228
1534,0955;0,0472686
1535,0597;0,0482058
1536,0239;0,0488745
1536,9882;0,0492759
1537,9524;0,0496378
1538,9166;0,0503078
1539,8809;0,0512747
1540,8451;0,0518184
1541,8093;0,051507
1542,7736;0,0508549
1543,7378;0,0503114
1544,7020;0,0499128
1545,6663;0,0496078
1546,6305;0,0493882
1547,5947;0,0492433
1548,5590;0,0491209
1549,5232;0,0489546
1550,4874;0,0487194
1551,4517;0,0484552
1552,4159;0,0482207
1553,3801;0,0480118
1554,3444;0,0477352
1555,3086;0,0472674
1556,2728;0,0465071
1557,2371;0,0453011
1558,2013;0,0434889
1559,1655;0,0416819
1560,1298;0,0411527
1561,0940;0,0420724
1562,0582;0,0436231
1563,0225;0,0450804
1563,9867;0,0461211
1564,9509;0,0467143
1565,9152;0,0469844
1566,8794;0,0471188
1567,8436;0,0473015
1568,8079;0,047662
1569,7721;0,0482477
1570,7363;0,0490086
1571,7006;0,0498112
1572,6648;0,0505171
1573,6290;0,0510783
1574,5933;0,051551
1575,5575;0,0520057
1576,5217;0,0524671
1577,4860;0,0529843
1578,4502;0,0536115
1579,4144;0,0542915
1580,3787;0,0549037
1581,3429;0,055391
1582,3071;0,0557948
1583,2714;0,0562114
1584,2356;0,0567245
1585,1998;0,0573686
1586,1641;0,0581292
1587,1283;0,0589658
1588,0925;0,0598309
1589,0568;0,0606752
1590,0210;0,0614499
1590,9852;0,0621087
1591,9495;0,0626096
1592,9137;0,0629165
1593,8779;0,0630076
1594,8422;0,0628912
1595,8064;0,0626158
1596,7706;0,0622584
1597,7349;0,061895
1598,6991;0,0615727
1599,6633;0,0613026
1600,6276;0,0610712
1601,5918;0,0608636
1602,5560;0,0606835
1603,5203;0,0605532
1604,4845;0,0604903
1605,4487;0,0604852
1606,4130;0,0605044
1607,3772;0,0605214
1608,3414;0,0605502
1609,3057;0,060647
1610,2699;0,0608592
1611,2341;0,0611617
1612,1984;0,0614591
1613,1626;0,0616637
1614,1268;0,0617755
1615,0911;0,0618935
1616,0553;0,0621564
1617,0195;0,0626786
1617,9838;0,0634887
1618,9480;0,0644733
1619,9122;0,0654422
1620,8765;0,0662672
1621,8407;0,0669387
1622,8049;0,0675162
1623,7692;0,0680585
1624,7334;0,068599
1625,6976;0,0691549
1626,6619;0,0697388
1627,6261;0,0703663
1628,5903;0,0710387
1629,5546;0,0717087
1630,5188;0,0722731
1631,4830;0,0726282
1632,4473;0,0727566
1633,4115;0,0727714
1634,3757;0,0728362
1635,3400;0,0729955
1636,3042;0,0732099
1637,2684;0,0735653
1638,2327;0,0741384
1639,1969;0,0748226
1640,1611;0,0754404
1641,1254;0,0758706
1642,0896;0,0760783
1643,0538;0,0761139
1644,0181;0,0761009
1644,9823;0,0761638
1645,9465;0,0763037
1646,9108;0,0764082
1647,8750;0,0763938
1648,8392;0,0761694
1649,8035;0,0755726
1650,7677;0,0744734
1651,7319;0,0728402
1652,6962;0,0707528
1653,6604;0,0687431
1654,6246;0,0677432
1655,5889;0,0678682
1656,5531;0,0683797
1657,5173;0,0686049
1658,4816;0,0682575
1659,4458;0,067337
1660,4100;0,0659814
1661,3743;0,064387
1662,3385;0,0628006
1663,3027;0,0614682
1664,2670;0,060485
1665,2312;0,0597355
1666,1954;0,0590027
1667,1597;0,0580933
1668,1239;0,0568931
1669,0881;0,0554123
1670,0524;0,0538294
1671,0166;0,052376
1671,9808;0,0510997
1672,9451;0,0498477
1673,9093;0,0484881
1674,8735;0,0471011
1675,8378;0,0459719
1676,8020;0,0453545
1677,7662;0,0452185
1678,7305;0,0452576
1679,6947;0,0451012
1680,6589;0,0444778
1681,6232;0,0432394
1682,5874;0,041338
1683,5516;0,0389726
1684,5159;0,0368188
1685,4801;0,0355664
1686,4443;0,0351913
1687,4086;0,0351675
1688,3728;0,0350295
1689,3370;0,0345836
1690,3013;0,033857
1691,2655;0,0329809
1692,2297;0,0320989
1693,1940;0,0313268
1694,1582;0,0307341
1695,1224;0,0303092
1696,0867;0,0299204
1697,0509;0,0293478
1698,0151;0,0284449
1698,9794;0,0273412
1699,9436;0,026448
1700,9078;0,0261541
1701,8721;0,0265071
1702,8363;0,0272264
1703,8005;0,027948
1704,7648;0,0284327
1705,7290;0,0286457
1706,6932;0,0287313
1707,6575;0,0288952
1708,6217;0,0292607
1709,5859;0,0298127
1710,5502;0,0304558
1711,5144;0,0310977
1712,4786;0,0316868
1713,4429;0,0322036
1714,4071;0,032615
1715,3713;0,0328113
1716,3356;0,0326373
1717,2998;0,0321594
1718,2640;0,0318097
1719,2283;0,0319518
1720,1925;0,0325331
1721,1567;0,0332693
1722,1210;0,0339167
1723,0852;0,0343755
1724,0494;0,0346793
1725,0137;0,0349425
1725,9779;0,0352872
1726,9421;0,035772
1727,9064;0,0363552
1728,8706;0,0369114
1729,8348;0,0372829
1730,7991;0,0373309
1731,7633;0,0369671
1732,7275;0,0362073
1733,6918;0,0352795
1734,6560;0,0345819
1735,6202;0,0343274
1736,5845;0,0343477
1737,5487;0,0343154
1738,5129;0,03401
1739,4772;0,0334103
1740,4414;0,0326516
1741,4056;0,031912
1742,3699;0,0312862
1743,3341;0,0307399
1744,2983;0,0301681
1745,2626;0,0294766
1746,2268;0,0286058
1747,1910;0,0274948
1748,1553;0,0260573
1749,1195;0,0242589
1750,0837;0,0222676
1751,0480;0,0204347
1752,0122;0,0190299
1752,9764;0,0180597
1753,9407;0,0173472
1754,9049;0,0167018
1755,8691;0,0160178
1756,8334;0,0152815
1757,7976;0,0145226
1758,7618;0,0137569
1759,7261;0,0129688
1760,6903;0,0121472
1761,6545;0,0113345
1762,6188;0,0106248
1763,5830;0,010096
1764,5472;0,00974656
1765,5115;0,009503
1766,4757;0,00927862
1767,4399;0,00901982
1768,4042;0,00871157
1769,3684;0,00835236
1770,3326;0,00792828
1771,2969;0,00742685
1772,2611;0,0069017
1773,2253;0,00649525
1774,1896;0,00632709
1775,1538;0,00637617
1776,1180;0,00651076
1777,0823;0,0065991
1778,0465;0,00657845
1779,0107;0,00645499
1779,9750;0,00626606
1780,9392;0,00604275
1781,9034;0,00579782
1782,8677;0,00554244
1783,8319;0,00531152
1784,7961;0,00516461
1785,7604;0,00514965
1786,7246;0,00525975
1787,6888;0,00542976
1788,6531;0,00557821
1789,6173;0,00565141
1790,5815;0,00563116
1791,5458;0,00552327
1792,5100;0,00537575
1793,4742;0,00528505
1794,4385;0,00531138
1795,4027;0,00541035
1796,3669;0,00548527
1797,3312;0,00547256
1798,2954;0,00536947
1799,2596;0,00520723
1800,2239;0,00501648
1801,1881;0,00481965
1802,1523;0,00464174
1803,1166;0,0045112
1804,0808;0,00444976
1805,0450;0,00446447
1806,0093;0,00454462
1806,9735;0,0046603
1807,9377;0,00476433
1808,9020;0,00480318
1809,8662;0,00474073
1810,8304;0,00458388
1811,7947;0,00438278
1812,7589;0,00419636
1813,7231;0,00405656
1814,6874;0,00396432
1815,6516;0,0039086
1816,6158;0,0038828
1817,5801;0,00388757
1818,5443;0,00392479
1819,5085;0,0039893
1820,4728;0,00406567
1821,4370;0,00413508
1822,4012;0,0041864
1823,3655;0,00422138
1824,3297;0,00425178
1825,2939;0,00428976
1826,2582;0,00433303
1827,2224;0,00435434
1828,1866;0,00430878
1829,1509;0,00416501
1830,1151;0,00394775
1831,0793;0,00374326
1832,0436;0,00363468
1833,0078;0,00363475
1833,9720;0,00369426
1834,9363;0,0037587
1835,9005;0,00380587
1836,8647;0,00384533
1837,8290;0,00389311
1838,7932;0,00394473
1839,7574;0,00397104
1840,7217;0,0039453
1841,6859;0,00387377
1842,6501;0,00379334
1843,6144;0,00373857
1844,5786;0,00372181
1845,5428;0,00373998
1846,5071;0,00377059
1847,4713;0,00376727
1848,4355;0,00368932
1849,3998;0,00353712
1850,3640;0,00335492
1851,3282;0,00320196
1852,2925;0,00311688
1853,2567;0,00310333
1854,2209;0,00314092
1855,1852;0,0032058
1856,1494;0,00328148
1857,1136;0,00335789
1858,0779;0,00342414
1859,0421;0,00346919
1860,0063;0,00349134
1860,9706;0,00350654
1861,9348;0,00354372
1862,8990;0,00362884
1863,8633;0,00377102
1864,8275;0,00396042
1865,7917;0,00416817
1866,7560;0,00433719
1867,7202;0,00438419
1868,6844;0,00425374
1869,6487;0,00398676
1870,6129;0,0036936
1871,5771;0,00345509
1872,5414;0,00328281
1873,5056;0,00315505
1874,4698;0,00305801
1875,4341;0,00299423
1876,3983;0,0029713
1877,3625;0,0029888
1878,3268;0,00303742
1879,2910;0,00310429
1880,2552;0,00317996
1881,2195;0,00325996
1882,1837;0,00334132
1883,1479;0,00341835
1884,1122;0,00348244
1885,0764;0,00352601
1886,0406;0,00354738
1887,0049;0,00355164
1887,9691;0,00354663
1888,9333;0,00353941
1889,8976;0,00353756
1890,8618;0,00354934
1891,8260;0,0035764
1892,7903;0,00360685
1893,7545;0,00361812
1894,7188;0,0035882
1895,6830;0,00350923
1896,6472;0,00339639
1897,6115;0,00328339
1898,5757;0,00320486
1899,5399;0,00317892
1900,5042;0,00320191
1901,4684;0,00325516
1902,4326;0,00331695
1903,3969;0,00337281
1904,3611;0,00341815
1905,3253;0,00345339
1906,2896;0,00347766
1907,2538;0,00348722
1908,2180;0,00347958
1909,1823;0,00345961
1910,1465;0,00344079
1911,1107;0,00343687
1912,0750;0,00344936
1913,0392;0,00346488
1914,0034;0,00346695
1914,9677;0,00345137
1915,9319;0,00343119
1916,8961;0,00342904
1917,8604;0,00346443
1918,8246;0,00354229
1919,7888;0,00364509
1920,7531;0,003734
1921,7173;0,00376291
1922,6815;0,00370039
1923,6458;0,00354959
1924,6100;0,00335346
1925,5742;0,00317623
1926,5385;0,00307082
1927,5027;0,00305561
1928,4669;0,00311175
1929,4312;0,0031949
1930,3954;0,00325674
1931,3596;0,00326928
1932,3239;0,00323651
1933,2881;0,00318729
1934,2523;0,00315492
1935,2166;0,00315849
1936,1808;0,00319797
1937,1450;0,00326399
1938,1093;0,00335246
1939,0735;0,00347105
1940,0377;0,00362992
1941,0020;0,00382084
1941,9662;0,00400323
1942,9304;0,00411847
1943,8947;0,0041272
1944,8589;0,00403497
1945,8231;0,00388542
1946,7874;0,00373572
1947,7516;0,00363329
1948,7158;0,00359917
1949,6801;0,00361997
1950,6443;0,00365359
1951,6085;0,00364989
1952,5728;0,00357758
1953,5370;0,0034427
1954,5012;0,00328736
1955,4655;0,00316744
1956,4297;0,00312001
1957,3939;0,00313964
1958,3582;0,00317904
1959,3224;0,00317662
1960,2866;0,00309682
1961,2509;0,00295754
1962,2151;0,00282369
1963,1793;0,00277005
1964,1436;0,00283862
1965,1078;0,00301539
1966,0720;0,00323709
1967,0363;0,00342479
1968,0005;0,00352534
1968,9647;0,0035316
1969,9290;0,00346927
1970,8932;0,00337036
1971,8574;0,00326023
1972,8217;0,00316396
1973,7859;0,00311607
1974,7501;0,00315324
1975,7144;0,003291
1976,6786;0,00349901
1977,6428;0,00370665
1978,6071;0,00384549
1979,5713;0,00389593
1980,5355;0,00389716
1981,4998;0,00391454
1982,4640;0,00399499
1983,4282;0,00414191
1984,3925;0,00432191
1985,3567;0,00449406
1986,3209;0,00463858
1987,2852;0,00476321
1988,2494;0,00488367
1989,2136;0,00499595
1990,1779;0,00506504
1991,1421;0,00504368
1992,1063;0,00491085
1993,0706;0,00469785
1994,0348;0,00447638
1994,9990;0,00431883
1995,9633;0,0042633
1996,9275;0,00430276
1997,8917;0,00439582
1998,8560;0,00448955
1999,8202;0,00454483
2000,7844;0,00455404
2001,7487;0,00454343
2002,7129;0,00456037
2003,6771;0,00465173
2004,6414;0,00484031
2005,6056;0,00510523
2006,5698;0,00537749
2007,5341;0,00555864
2008,4983;0,00556261
2009,4625;0,00536282
2010,4268;0,00501894
2011,3910;0,00466754
2012,3552;0,00447682
2013,3195;0,00458009
2014,2837;0,00501125
2015,2479;0,0056718
2016,2122;0,0063577
2017,1764;0,00684749
2018,1406;0,00700667
2019,1049;0,00684009
2020,0691;0,00646264
2021,0333;0,00602331
2021,9976;0,00564108
2022,9618;0,00538369
2023,9260;0,00527992
2024,8903;0,00533486
2025,8545;0,00552682
2026,8187;0,00579184
2027,7830;0,00602322
2028,7472;0,0061065
2029,7114;0,00597953
2030,6757;0,00567926
2031,6399;0,00533825
2032,6041;0,00512407
2033,5684;0,00515626
2034,5326;0,00545012
2035,4968;0,00591918
2036,4611;0,00642319
2037,4253;0,00682678
2038,3895;0,00703506
2039,3538;0,00700642
2040,3180;0,00675514
2041,2822;0,00634945
2042,2465;0,00589829
2043,2107;0,00552192
2044,1749;0,00531554
2045,1392;0,00532154
2046,1034;0,00551955
2047,0676;0,00583532
2048,0320;0,00616632
2048,9961;0,00641694
2049,9604;0,00652817
2050,9246;0,00648887
2051,8889;0,00632924
2052,8530;0,00610495
2053,8174;0,00587813
2054,7815;0,00569652
2055,7458;0,00557947
2056,7100;0,00551722
2057,6743;0,00548758
2058,6384;0,00547938
2059,6028;0,00550492
2060,5669;0,00559111
2061,5313;0,00575465
2062,4954;0,00597893
2063,4597;0,00621033
2064,4238;0,00637974
2065,3882;0,00643697
2066,3523;0,00637589
2067,3167;0,00623437
2068,2808;0,00607228
2069,2451;0,00594437
2070,2092;0,00588286
2071,1736;0,00589387
2072,1377;0,00596172
2073,1021;0,00605739
2074,0662;0,0061468
2075,0305;0,00620078
2075,9946;0,00620533
2076,9590;0,00616845
2077,9231;0,00611715
2078,8875;0,00608436
2079,8516;0,00609209
2080,8159;0,00614129
2081,7800;0,00621427
2082,7444;0,0062861
2083,7085;0,0063361
2084,6729;0,00635173
2085,6370;0,00632681
2086,6013;0,00625915
2087,5654;0,00615365
2088,5298;0,00602793
2089,4939;0,00591293
2090,4583;0,00584296
2091,4224;0,005839
2092,3867;0,00589643
2093,3508;0,00598701
2094,3152;0,00607529
2095,2793;0,00613834
2096,2437;0,00617462
2097,2078;0,0061954
2098,1721;0,00620838
2099,1362;0,00620909
2100,1006;0,00619063
2101,0647;0,00615228
2102,0291;0,0061205
2102,9932;0,0061296
2103,9575;0,0061996
2104,9216;0,00631544
2105,8860;0,00642758
2106,8501;0,00647717
2107,8145;0,00643081
2108,7786;0,00630221
2109,7429;0,00614559
2110,7070;0,00602493
2111,6714;0,00597867
2112,6355;0,00600195
2113,5999;0,00605609
2114,5640;0,00609718
2115,5283;0,00610404
2116,4924;0,00608833
2117,4568;0,00608229
2118,4209;0,0061146
2119,3853;0,00619137
2120,3494;0,00629463
2121,3137;0,00639783
2122,2778;0,00648554
2123,2422;0,00656168
2124,2063;0,00664022
2125,1707;0,00672651
2126,1348;0,00680584
2127,0991;0,00685038
2128,0632;0,00684068
2129,0276;0,00678481
2129,9917;0,00671839
2130,9561;0,0066827
2131,9202;0,00669535
2132,8845;0,00673563
2133,8486;0,00675864
2134,8130;0,00673089
2135,7771;0,00666046
2136,7415;0,00659547
2137,7056;0,00659092
2138,6699;0,00667141
2139,6340;0,00682042
2140,5984;0,0070016
2141,5625;0,00719078
2142,5269;0,00738962
2143,4910;0,00760899
2144,4553;0,00783761
2145,4194;0,00802736
2146,3838;0,00811478
2147,3479;0,00806794
2148,3123;0,00792213
2149,2764;0,00777197
2150,2407;0,00771949
2151,2048;0,00781248
2152,1692;0,0080165
2153,1333;0,00824156
2154,0977;0,00840725
2155,0618;0,00850543
2156,0261;0,00861966
2156,9902;0,00887762
2157,9546;0,00934776
2158,9187;0,0099483
2159,8831;0,0104649
2160,8472;0,0106857
2161,8115;0,0105347
2162,7756;0,0101027
2163,7400;0,00958205
2164,7041;0,00916549
2165,6685;0,00895899
2166,6326;0,00894197
2167,5969;0,00899444
2168,5610;0,00897482
2169,5254;0,00880125
2170,4895;0,00849033
2171,4539;0,00813755
2172,4180;0,00785809
2173,3823;0,00772597
2174,3464;0,00774668
2175,3108;0,00787518
2176,2749;0,00805844
2177,2393;0,00826512
2178,2034;0,00848022
2179,1677;0,00867714
2180,1318;0,00880025
2181,0962;0,00878223
2182,0603;0,00858841
2183,0247;0,00825229
2183,9888;0,00786808
2184,9531;0,0075415
2185,9172;0,00733639
2186,8816;0,00725573
2187,8457;0,00726442
2188,8101;0,00732899
2189,7742;0,00744064
2190,7385;0,00760592
2191,7026;0,00781764
2192,6670;0,00803383
2193,6311;0,00818441
2194,5955;0,00820253
2195,5596;0,00805918
2196,5239;0,00777897
2197,4880;0,0074298
2198,4524;0,00709535
2199,4165;0,00684594
2200,3809;0,00671863
2201,3450;0,00671003
2202,3093;0,00678079
2203,2734;0,00687012
2204,2378;0,00691812
2205,2019;0,00688954
2206,1663;0,006789
2207,1304;0,00665857
2208,0947;0,00655729
2209,0588;0,00653215
2210,0232;0,00659611
2210,9873;0,00672362
2211,9517;0,00686418
2212,9158;0,00696472
2213,8801;0,00698939
2214,8442;0,00692957
2215,8086;0,00680298
2216,7727;0,00664511
2217,7371;0,00649695
2218,7012;0,00639267
2219,6655;0,00635006
2220,6296;0,00636646
2221,5940;0,00642155
2222,5581;0,00648597
2223,5225;0,00653241
2224,4866;0,00654458
2225,4509;0,00652122
2226,4150;0,0064739
2227,3794;0,00641922
2228,3435;0,00637311
2229,3079;0,00634286
2230,2720;0,00632488
2231,2363;0,00630814
2232,2004;0,00628149
2233,1648;0,00624145
2234,1289;0,00619588
2235,0933;0,00616146
2236,0574;0,00615601
2237,0217;0,00618954
2237,9858;0,00625816
2238,9502;0,00634306
2239,9143;0,00641464
2240,8787;0,00644052
2241,8428;0,00639639
2242,8071;0,00627724
2243,7712;0,00610508
2244,7356;0,00592741
2245,6997;0,00580325
2246,6641;0,00577981
2247,6282;0,00587053
2248,5925;0,00604748
2249,5566;0,00625448
2250,5210;0,00643478
2251,4851;0,00655699
2252,4495;0,0066235
2253,4136;0,00665748
2254,3779;0,00667943
2255,3420;0,00669137
2256,3064;0,00668007
2257,2705;0,00663451
2258,2349;0,00656139
2259,1990;0,0064853
2260,1633;0,00643352
2261,1274;0,00641822
2262,0918;0,00642988
2263,0559;0,00644646
2264,0203;0,00645031
2264,9844;0,00643986
2265,9487;0,00642825
2266,9128;0,00643196
2267,8772;0,00645892
2268,8413;0,00650374
2269,8057;0,00655103
2270,7698;0,0065819
2271,7341;0,00657978
2272,6982;0,0065345
2273,6626;0,00644547
2274,6267;0,00632417
2275,5911;0,00619328
2276,5552;0,00608077
2277,5195;0,0060103
2278,4836;0,00599269
2279,4480;0,00602365
2280,4121;0,00608918
2281,3765;0,00617515
2282,3406;0,00627502
2283,3049;0,00639143
2284,2690;0,0065316
2285,2334;0,00670048
2286,1975;0,00689651
2287,1619;0,0071128
2288,1260;0,00734278
2289,0903;0,0075857
2290,0544;0,00784733
2291,0188;0,00813448
2291,9829;0,00844718
2292,9473;0,00877457
2293,9114;0,00909817
2294,8757;0,00940037
2295,8398;0,00967145
2296,8042;0,00990901
2297,7683;0,0101106
2298,7327;0,0102667
2299,6968;0,0103629
2300,6611;0,0103932
2301,6252;0,0103768
2302,5896;0,0103626
2303,5537;0,0104167
2304,5181;0,0105923
2305,4822;0,0108977
2306,4465;0,0112793
2307,4106;0,0116334
2308,3750;0,0118436
2309,3391;0,0118285
2310,3035;0,0115761
2311,2676;0,0111483
2312,2319;0,0106534
2313,1960;0,0102007
2314,1604;0,00985936
2315,1245;0,00964231
2316,0889;0,00951803
2317,0530;0,00943851
2318,0173;0,00936637
2318,9814;0,00929079
2319,9458;0,0092311
2320,9099;0,00923109
2321,8743;0,00934191
2322,8384;0,00958992
2323,8027;0,00994104
2324,7668;0,010292
2325,7312;0,0105063
2326,6953;0,0104773
2327,6597;0,0101808
2328,6238;0,00969202
2329,5881;0,00915758
2330,5522;0,00873493
2331,5166;0,00852231
2332,4807;0,00851682
2333,4451;0,00862916
2334,4092;0,00874791
2335,3735;0,00881166
2336,3376;0,00884523
2337,3020;0,00894168
2338,2661;0,00920157
2339,2305;0,00965912
2340,1946;0,0102283
2341,1589;0,010695
2342,1230;0,0107915
2343,0874;0,010411
2344,0515;0,00986676
2345,0159;0,00978559
2345,9800;0,0105354
2346,9443;0,0118643
2347,9084;0,013142
2348,8728;0,0138126
2349,8369;0,0136744
2350,8013;0,0129272
2351,7654;0,0120368
2352,7297;0,011466
2353,6938;0,0114099
2354,6582;0,0117601
2355,6223;0,0123084
2356,5867;0,0128972
2357,5508;0,0133814
2358,5151;0,0135828
2359,4792;0,0133735
2360,4436;0,0127844
2361,4077;0,0119793
2362,3721;0,0111169
2363,3362;0,0102641
2364,3005;0,00942181
2365,2646;0,00859117
2366,2290;0,00779744
2367,1931;0,00706676
2368,1575;0,00640441
2369,1216;0,00580208
2370,0859;0,00525917
2371,0500;0,0047947
2372,0144;0,00444462
2372,9785;0,00425242
2373,9429;0,00425863
2374,9070;0,00448832
2375,8713;0,00493682
2376,8354;0,00556006
2377,7998;0,00627642
2378,7639;0,00698197
2379,7283;0,00757387
2380,6924;0,00797325
2381,6567;0,0081404
2382,6208;0,00807917
2383,5852;0,00783107
2384,5493;0,007462
2385,5137;0,00704544
2386,4778;0,00664656
2387,4421;0,00631109
2388,4063;0,0060614
2389,3706;0,00589933
2390,3347;0,00581298
2391,2991;0,0057843
2392,2632;0,00579478
2393,2275;0,00582888
2394,1917;0,00587538
2395,1560;0,00592701
2396,1201;0,00597898
2397,0845;0,00602675
2398,0486;0,00606656
2399,0129;0,00609141
2399,9771;0,00609533
2400,9414;0,00607891
2401,9055;0,00605001
2402,8699;0,00602389
2403,8340;0,00601655
2404,7983;0,00603745
2405,7625;0,00608502
2406,7268;0,00614725
2407,6909;0,00620945
2408,6553;0,00626206
2409,6194;0,00630342
2410,5837;0,00633927
2411,5479;0,00637682
2412,5122;0,00641946
2413,4763;0,00646451
2414,4407;0,00650507
2415,4048;0,00653367
2416,3691;0,0065462
2417,3333;0,00654443
2418,2976;0,00653607
2419,2617;0,00653271
2420,2261;0,00654543
2421,1902;0,00657948
2422,1545;0,00663296
2423,1187;0,00669717
2424,0830;0,00676067
2425,0471;0,00681398
2426,0115;0,00685243
2426,9756;0,00687651
2427,9399;0,00689059
2428,9041;0,00690137
2429,8684;0,00691658
2430,8325;0,00694311
2431,7969;0,00698422
2432,7610;0,00703714
2433,7253;0,00709341
2434,6895;0,00714288
2435,6538;0,00717959
2436,6179;0,00720517
2437,5823;0,00722714
2438,5464;0,00725299
2439,5107;0,00728491
2440,4749;0,0073194
2441,4392;0,00735198
2442,4033;0,0073828
2443,3677;0,00741758
2444,3318;0,00746262
2445,2961;0,00751771
2446,2603;0,00757311
2447,2246;0,00761406
2448,1887;0,00763011
2449,1531;0,00762277
2450,1172;0,00760589
2451,0815;0,00759836
2452,0457;0,00761419
2453,0100;0,00765634
2453,9741;0,0077174
2454,9385;0,00778517
2455,9026;0,00784849
2456,8669;0,00789975
2457,8311;0,00793406
2458,7954;0,00794815
2459,7595;0,00794151
2460,7239;0,00791936
2461,6880;0,00789441
2462,6523;0,00788408
2463,6165;0,00790319
2464,5808;0,00795598
2465,5449;0,00803266
2466,5093;0,00811333
2467,4734;0,0081772
2468,4377;0,00821169
2469,4019;0,00821619
2470,3662;0,00819969
2471,3303;0,00817511
2472,2947;0,00815476
2473,2588;0,00814861
2474,2231;0,00816416
2475,1873;0,00820517
2476,1516;0,00826878
2477,1157;0,00834359
2478,0801;0,0084121
2479,0442;0,00845799
2480,0085;0,00847465
2480,9727;0,0084693
2481,9370;0,00845941
2482,9011;0,00846325
2483,8655;0,0084904
2484,8296;0,00853801
2485,7939;0,00859424
2486,7581;0,00864582
2487,7224;0,0086846
2488,6865;0,00870966
2489,6509;0,00872543
2490,6150;0,00873808
2491,5793;0,00875286
2492,5435;0,00877305
2493,5078;0,00879984
2494,4719;0,00883239
2495,4363;0,00886826
2496,4004;0,00890428
2497,3647;0,00893766
2498,3289;0,00896648
2499,2932;0,00898914
2500,2573;0,00900369
2501,2217;0,00900831
2502,1858;0,00900372
2503,1501;0,00899573
2504,1143;0,00899513
2505,0786;0,00901329
2506,0427;0,00905528
2507,0071;0,00911509
2507,9712;0,00917723
2508,9355;0,00922473
2509,8997;0,00924889
2510,8640;0,00925415
2511,8281;0,00925466
2512,7925;0,00926456
2513,7566;0,0092887
2514,7209;0,00931991
2515,6851;0,00934429
2516,6494;0,00935076
2517,6135;0,00933831
2518,5779;0,00931662
2519,5420;0,0093003
2520,5063;0,00930077
2521,4705;0,00932071
2522,4348;0,00935405
2523,3989;0,0093906
2524,3633;0,00942212
2525,3274;0,00944614
2526,2917;0,00946568
2527,2559;0,00948593
2528,2202;0,00951051
2529,1843;0,00953989
2530,1487;0,00957255
2531,1128;0,0096069
2532,0771;0,00964183
2533,0413;0,009675
2534,0056;0,00970081
2534,9697;0,00971094
2535,9341;0,00969874
2536,8982;0,00966527
2537,8625;0,00962243
2538,8267;0,00958961
2539,7910;0,00958458
2540,7551;0,00961354
2541,7195;0,00966671
2542,6836;0,00972275
2543,6479;0,00976006
2544,6121;0,00976867
2545,5764;0,00975583
2546,5405;0,00974176
2547,5049;0,00974771
2548,4690;0,00978289
2549,4333;0,00983786
2550,3975;0,00988884
2551,3618;0,0099111
2552,3259;0,00989417
2553,2903;0,00984945
2554,2544;0,00980517
2555,2188;0,00979115
2556,1829;0,00982239
2557,1472;0,00989156
2558,1113;0,00997449
2559,0757;0,0100445
2560,0398;0,0100859
2561,0042;0,0100992
2561,9683;0,0100961
2562,9326;0,0100899
2563,8967;0,0100882
2564,8611;0,0100917
2565,8252;0,0100976
2566,7896;0,0101033
2567,7537;0,0101076
2568,7180;0,0101105
2569,6821;0,0101119
2570,6465;0,0101124
2571,6106;0,0101136
2572,5750;0,0101182
2573,5391;0,0101294
2574,5034;0,0101496
2575,4675;0,0101797
2576,4319;0,0102196
2577,3960;0,0102681
2578,3604;0,0103222
2579,3245;0,0103758
2580,2888;0,0104204
2581,2529;0,0104478
2582,2173;0,0104541
2583,1814;0,0104426
2584,1458;0,0104228
2585,1099;0,0104065
2586,0742;0,0104031
2587,0383;0,0104162
2588,0027;0,0104441
2588,9668;0,0104814
2589,9312;0,0105218
2590,8953;0,0105587
2591,8596;0,0105865
2592,8237;0,0106013
2593,7881;0,0106025
2594,7522;0,0105941
2595,7166;0,0105848
2596,6807;0,0105852
2597,6450;0,0106045
2598,6091;0,0106468
2599,5735;0,0107099
2600,5376;0,0107865
2601,5020;0,0108661
2602,4661;0,0109372
2603,4304;0,01099
2604,3945;0,0110189
2605,3589;0,0110248
2606,3230;0,0110164
2607,2874;0,0110086
2608,2515;0,011017
2609,2158;0,0110512
2610,1799;0,0111103
2611,1443;0,0111834
2612,1084;0,0112551
2613,0728;0,0113128
2614,0369;0,0113517
2615,0012;0,0113754
2615,9653;0,0113924
2616,9297;0,0114113
2617,8938;0,011438
2618,8582;0,0114749
2619,8223;0,0115211
2620,7866;0,0115724
2621,7507;0,0116225
2622,7151;0,0116644
2623,6792;0,0116931
2624,6436;0,0117085
2625,6077;0,0117158
2626,5720;0,0117239
2627,5361;0,0117418
2628,5005;0,011775
2629,4646;0,0118243
2630,4290;0,0118863
2631,3931;0,0119545
2632,3574;0,0120205
2633,3215;0,0120758
2634,2859;0,0121141
2635,2500;0,0121339
2636,2144;0,0121403
2637,1785;0,0121428
2638,1428;0,0121516
2639,1069;0,0121726
2640,0713;0,0122052
2641,0354;0,0122448
2641,9998;0,0122868
2642,9639;0,0123302
2643,9282;0,012377
2644,8923;0,0124284
2645,8567;0,0124816
2646,8208;0,0125296
2647,7852;0,0125653
2648,7493;0,0125867
2649,7136;0,0125987
2650,6777;0,0126112
2651,6421;0,0126338
2652,6062;0,012671
2653,5706;0,0127208
2654,5347;0,012778
2655,4990;0,0128365
2656,4631;0,0128922
2657,4275;0,0129424
2658,3916;0,0129854
2659,3560;0,0130197
2660,3201;0,013046
2661,2844;0,0130677
2662,2485;0,0130905
2663,2129;0,0131196
2664,1770;0,0131568
2665,1414;0,0131995
2666,1055;0,013242
2667,0698;0,0132796
2668,0339;0,0133106
2668,9983;0,0133373
2669,9624;0,0133641
2670,9268;0,0133948
2671,8909;0,0134314
2672,8552;0,0134731
2673,8193;0,0135176
2674,7837;0,0135618
2675,7478;0,013603
2676,7122;0,0136401
2677,6763;0,0136737
2678,6406;0,0137069
2679,6047;0,0137434
2680,5691;0,0137859
2681,5332;0,0138346
2682,4976;0,0138871
2683,4617;0,0139404
2684,4260;0,0139923
2685,3901;0,0140431
2686,3545;0,0140937
2687,3186;0,014144
2688,2830;0,0141924
2689,2471;0,0142361
2690,2114;0,0142741
2691,1755;0,0143084
2692,1399;0,0143438
2693,1040;0,0143855
2694,0684;0,0144362
2695,0325;0,0144945
2695,9968;0,0145565
2696,9609;0,014617
2697,9253;0,0146724
2698,8894;0,0147217
2699,8538;0,0147667
2700,8179;0,0148109
2701,7822;0,0148586
2702,7463;0,014913
2703,7107;0,0149742
2704,6748;0,0150394
2705,6392;0,0151035
2706,6033;0,0151621
2707,5676;0,0152137
2708,5317;0,01526
2709,4961;0,0153046
2710,4602;0,0153501
2711,4246;0,0153972
2712,3887;0,0154449
2713,3530;0,0154932
2714,3171;0,0155435
2715,2815;0,0155984
2716,2456;0,0156597
2717,2100;0,015727
2718,1741;0,0157975
2719,1384;0,015867
2720,1025;0,0159318
2721,0669;0,0159885
2722,0310;0,0160347
2722,9954;0,0160699
2723,9595;0,0160963
2724,9238;0,0161204
2725,8879;0,0161517
2726,8523;0,0161986
2727,8164;0,0162641
2728,7808;0,0163429
2729,7449;0,0164234
2730,7092;0,0164926
2731,6733;0,0165421
2732,6377;0,0165716
2733,6018;0,0165881
2734,5662;0,016601
2735,5303;0,0166179
2736,4946;0,0166418
2737,4587;0,0166718
2738,4231;0,0167061
2739,3872;0,0167442
2740,3516;0,0167881
2741,3157;0,0168399
2742,2800;0,0168999
2743,2441;0,0169641
2744,2085;0,0170253
2745,1726;0,0170755
2746,1370;0,0171098
2747,1011;0,0171287
2748,0654;0,017138
2749,0295;0,0171466
2749,9939;0,0171635
2750,9580;0,0171951
2751,9224;0,0172436
2752,8865;0,0173067
2753,8508;0,0173787
2754,8149;0,0174519
2755,7793;0,0175192
2756,7434;0,0175759
2757,7078;0,0176221
2758,6719;0,0176622
2759,6362;0,0177033
2760,6003;0,0177525
2761,5647;0,017813
2762,5288;0,0178834
2763,4932;0,017958
2764,4573;0,0180299
2765,4216;0,018095
2766,3857;0,018154
2767,3501;0,0182116
2768,3142;0,018274
2769,2786;0,0183441
2770,2427;0,0184198
2771,2070;0,0184949
2772,1711;0,0185629
2773,1355;0,0186214
2774,0996;0,0186742
2775,0640;0,0187294
2776,0281;0,0187949
2776,9924;0,0188743
2777,9565;0,0189657
2778,9209;0,0190635
2779,8850;0,0191629
2780,8494;0,0192622
2781,8135;0,0193628
2782,7778;0,0194669
2783,7419;0,0195742
2784,7063;0,019681
2785,6704;0,0197818
2786,6348;0,0198726
2787,5989;0,0199547
2788,5632;0,0200352
2789,5273;0,0201245
2790,4917;0,0202315
2791,4558;0,0203582
2792,4202;0,0204981
2793,3843;0,020639
2794,3486;0,0207691
2795,3127;0,0208839
2796,2771;0,0209886
2797,2412;0,0210955
2798,2056;0,0212166
2799,1697;0,0213578
2800,1340;0,0215166
2801,0981;0,0216852
2802,0625;0,0218566
2803,0266;0,0220278
2803,9910;0,0221991
2804,9551;0,0223707
2805,9194;0,022539
2806,8835;0,0226985
2807,8479;0,0228465
2808,8120;0,0229878
2809,7764;0,0231342
2810,7405;0,0232994
2811,7048;0,0234913
2812,6689;0,0237074
2813,6333;0,0239366
2814,5974;0,0241658
2815,5618;0,0243871
2816,5259;0,0246009
2817,4902;0,0248145
2818,4543;0,0250365
2819,4187;0,0252736
2820,3828;0,0255279
2821,3472;0,0257983
2822,3113;0,026082
2823,2756;0,0263762
2824,2397;0,0266794
2825,2041;0,0269921
2826,1682;0,0273173
2827,1326;0,0276597
2828,0967;0,0280244
2829,0610;0,0284152
2830,0251;0,0288339
2830,9895;0,029281
2831,9536;0,0297565
2832,9180;0,0302617
2833,8821;0,030799
2834,8464;0,031373
2835,8105;0,0319908
2836,7749;0,0326633
2837,7390;0,0334062
2838,7034;0,0342402
2839,6675;0,0351904
2840,6318;0,036286
2841,5959;0,037558
2842,5603;0,0390322
2843,5244;0,0407155
2844,4888;0,0425762
2845,4529;0,0445268
2846,4172;0,0464221
2847,3813;0,0480805
2848,3457;0,0493295
2849,3098;0,0500571
2850,2742;0,0502463
2851,2383;0,0499763
2852,2026;0,0493881
2853,1667;0,0486348
2854,1311;0,047838
2855,0952;0,0470696
2856,0596;0,046359
2857,0237;0,0457136
2857,9880;0,0451385
2858,9521;0,0446446
2859,9165;0,0442453
2860,8806;0,0439489
2861,8450;0,0437537
2862,8091;0,0436507
2863,7734;0,0436291
2864,7375;0,0436813
2865,7019;0,0438022
2866,6660;0,0439836
2867,6304;0,0442084
2868,5945;0,0444488
2869,5588;0,0446716
2870,5229;0,0448482
2871,4873;0,0449631
2872,4514;0,0450187
2873,4158;0,0450317
2874,3799;0,0450257
2875,3442;0,0450223
2876,3083;0,0450364
2877,2727;0,0450748
2878,2368;0,0451396
2879,2012;0,0452315
2880,1653;0,0453518
2881,1296;0,0455038
2882,0938;0,045691
2883,0581;0,0459157
2884,0222;0,0461766
2884,9866;0,0464679
2885,9507;0,0467799
2886,9150;0,0471019
2887,8792;0,0474261
2888,8435;0,0477495
2889,8076;0,0480737
2890,7720;0,0484018
2891,7361;0,048736
2892,7004;0,0490772
2893,6646;0,0494262
2894,6289;0,0497856
2895,5930;0,0501595
2896,5574;0,0505499
2897,5215;0,0509533
2898,4858;0,0513598
2899,4500;0,0517569
2900,4143;0,0521362
2901,3784;0,0524997
2902,3428;0,0528624
2903,3069;0,0532482
2904,2712;0,0536843
2905,2354;0,054196
2906,1997;0,0548056
2907,1638;0,0555356
2908,1282;0,0564111
2909,0923;0,0574576
2910,0566;0,0586904
2911,0208;0,0600986
2911,9851;0,0616307
2912,9492;0,0631909
2913,9136;0,0646517
2914,8777;0,0658809
2915,8420;0,0667735
2916,8062;0,0672758
2917,7705;0,0673924
2918,7346;0,0671745
2919,6990;0,0666974
2920,6631;0,066038
2921,6274;0,0652593
2922,5916;0,0644054
2923,5559;0,0635029
2924,5200;0,0625655
2925,4844;0,0615996
2926,4485;0,0606098
2927,4128;0,0596031
2928,3770;0,0585923
2929,3413;0,0575944
2930,3054;0,0566251
2931,2698;0,0556934
2932,2339;0,0547985
2933,1982;0,0539316
2934,1624;0,0530818
2935,1267;0,0522422
2936,0908;0,0514124
2937,0552;0,0505973
2938,0193;0,0498037
2938,9836;0,0490376
2939,9478;0,0483027
2940,9121;0,0476015
2941,8762;0,0469359
2942,8406;0,046309
2943,8047;0,0457259
2944,7690;0,0451937
2945,7332;0,0447206
2946,6975;0,0443127
2947,6616;0,0439703
2948,6260;0,0436851
2949,5901;0,0434408
2950,5544;0,0432168
2951,5186;0,0429934
2952,4829;0,0427557
2953,4470;0,0424946
2954,4114;0,0422054
2955,3755;0,0418858
2956,3398;0,0415342
2957,3040;0,0411506
2958,2683;0,0407367
2959,2324;0,040296
2960,1968;0,0398332
2961,1609;0,0393532
2962,1252;0,0388598
2963,0894;0,0383555
2964,0537;0,0378417
2965,0178;0,0373185
2965,9822;0,036786
2966,9463;0,0362453
2967,9106;0,0356999
2968,8748;0,0351557
2969,8391;0,0346212
2970,8032;0,0341055
2971,7676;0,0336169
2972,7317;0,0331604
2973,6960;0,0327366
2974,6602;0,0323409
2975,6245;0,0319645
2976,5886;0,0315978
2977,5530;0,0312341
2978,5171;0,0308735
2979,4814;0,0305235
2980,4456;0,0301962
2981,4099;0,0299026
2982,3740;0,0296472
2983,3384;0,0294262
2984,3025;0,0292292
2985,2668;0,0290443
2986,2310;0,0288638
2987,1953;0,0286876
2988,1594;0,0285227
2989,1238;0,02838
2990,0879;0,0282683
2991,0522;0,0281885
2992,0164;0,028132
2992,9807;0,0280833
2993,9448;0,0280278
2994,9092;0,0279601
2995,8733;0,0278883
2996,8376;0,027831
2997,8018;0,0278077
2998,7661;0,0278287
2999,7302;0,0278892
3000,6946;0,0279721
3001,6587;0,028057
3002,6230;0,0281299
3003,5872;0,0281891
3004,5515;0,0282436
3005,5156;0,0283064
3006,4800;0,0283863
3007,4441;0,0284838
3008,4084;0,028591
3009,3726;0,0286957
3010,3369;0,0287863
3011,3010;0,0288568
3012,2654;0,028908
3013,2295;0,0289473
3014,1938;0,0289856
3015,1580;0,0290344
3016,1223;0,0291018
3017,0864;0,0291918
3018,0508;0,0293036
3019,0149;0,0294329
3019,9792;0,0295742
3020,9434;0,0297221
3021,9077;0,0298727
3022,8718;0,030024
3023,8362;0,0301771
3024,8003;0,0303361
3025,7646;0,0305066
3026,7288;0,030693
3027,6931;0,0308942
3028,6572;0,0311015
3029,6216;0,0312999
3030,5857;0,0314744
3031,5500;0,0316179
3032,5142;0,0317354
3033,4785;0,0318424
3034,4426;0,0319563
3035,4070;0,0320878
3036,3711;0,032237
3037,3354;0,0323966
3038,2996;0,0325587
3039,2639;0,032721
3040,2280;0,0328882
3041,1924;0,0330683
3042,1565;0,0332675
3043,1208;0,0334866
3044,0850;0,0337203
3045,0493;0,0339586
3046,0134;0,0341896
3046,9778;0,0344032
3047,9419;0,034595
3048,9063;0,0347692
3049,8704;0,0349392
3050,8347;0,0351229
3051,7988;0,0353339
3052,7632;0,0355744
3053,7273;0,0358329
3054,6917;0,0360894
3055,6558;0,0363268
3056,6201;0,0365398
3057,5842;0,0367384
3058,5486;0,0369416
3059,5127;0,0371658
3060,4771;0,0374153
3061,4412;0,0376785
3062,4055;0,0379336
3063,3696;0,038158
3064,3340;0,0383394
3065,2981;0,0384818
3066,2625;0,0386046
3067,2266;0,038734
3068,1909;0,0388918
3069,1550;0,039087
3070,1194;0,0393137
3071,0835;0,0395549
3072,0479;0,0397916
3073,0120;0,0400114
3073,9763;0,0402132
3074,9404;0,0404054
3075,9048;0,0405998
3076,8689;0,0408032
3077,8333;0,0410128
3078,7974;0,0412174
3079,7617;0,0414042
3080,7258;0,0415676
3081,6902;0,0417132
3082,6543;0,0418561
3083,6187;0,0420121
3084,5828;0,0421895
3085,5471;0,0423848
3086,5112;0,0425861
3087,4756;0,042781
3088,4397;0,0429652
3089,4041;0,0431457
3090,3682;0,0433357
3091,3325;0,0435472
3092,2966;0,0437831
3093,2610;0,0440356
3094,2251;0,0442906
3095,1895;0,044535
3096,1536;0,0447631
3097,1179;0,0449769
3098,0820;0,0451826
3099,0464;0,0453854
3100,0105;0,0455869
3100,9749;0,0457854
3101,9390;0,0459791
3102,9033;0,0461679
3103,8674;0,0463541
3104,8318;0,0465414
3105,7959;0,0467338
3106,7603;0,0469356
3107,7244;0,0471511
3108,6887;0,0473843
3109,6528;0,0476367
3110,6172;0,0479058
3111,5813;0,0481848
3112,5457;0,0484644
3113,5098;0,0487353
3114,4741;0,0489919
3115,4382;0,0492334
3116,4026;0,0494645
3117,3667;0,0496936
3118,3311;0,0499297
3119,2952;0,0501791
3120,2595;0,0504426
3121,2236;0,0507142
3122,1880;0,0509832
3123,1521;0,0512385
3124,1165;0,0514734
3125,0806;0,0516901
3126,0449;0,0518991
3127,0090;0,0521162
3127,9734;0,0523559
3128,9375;0,0526253
3129,9019;0,0529214
3130,8660;0,053231
3131,8303;0,0535365
3132,7944;0,0538224
3133,7588;0,0540824
3134,7229;0,0543214
3135,6873;0,0545525
3136,6514;0,0547906
3137,6157;0,0550449
3138,5798;0,0553161
3139,5442;0,0555977
3140,5083;0,0558816
3141,4727;0,0561635
3142,4368;0,0564461
3143,4011;0,0567369
3144,3652;0,0570433
3145,3296;0,0573667
3146,2937;0,0577008
3147,2581;0,058033
3148,2222;0,0583503
3149,1865;0,0586453
3150,1506;0,0589194
3151,1150;0,0591822
3152,0791;0,0594469
3153,0435;0,0597245
3154,0076;0,06002
3154,9719;0,0603316
3155,9360;0,0606535
3156,9004;0,0609789
3157,8645;0,0613025
3158,8289;0,0616205
3159,7930;0,061931
3160,7573;0,0622338
3161,7214;0,0625316
3162,6858;0,0628298
3163,6499;0,063136
3164,6143;0,0634559
3165,5784;0,0637904
3166,5427;0,0641335
3167,5068;0,0644744
3168,4712;0,0648025
3169,4353;0,0649708
3170,3997;0,0652701
3171,3638;0,0655701
3172,3281;0,0658828
3173,2922;0,0662141
3174,2566;0,06656
3175,2207;0,0669084
3176,1851;0,0672447
3177,1492;0,0675589
3178,1135;0,0678502
3179,0776;0,0681271
3180,0420;0,0684022
3181,0061;0,0686857
3181,9705;0,0689811
3182,9346;0,0692846
3183,8989;0,0695883
3184,8630;0,0698846
3185,8274;0,0701702
3186,7915;0,070447
3187,7559;0,0707214
3188,7200;0,0710012
3189,6843;0,071293
3190,6484;0,0716007
3191,6128;0,071924
3192,5769;0,0722583
3193,5413;0,0725951
3194,5054;0,0729234
3195,4697;0,0732327
3196,4338;0,073516
3197,3982;0,0737727
3198,3623;0,0740089
3199,3267;0,0742356
3200,2908;0,074465
3201,2551;0,0747069
3202,2192;0,0749673
3203,1836;0,0752474
3204,1477;0,0755437
3205,1121;0,0758491
3206,0762;0,0761549
3207,0405;0,0764527
3208,0046;0,0767377
3208,9690;0,0770094
3209,9331;0,0772707
3210,8975;0,0775259
3211,8616;0,0777788
3212,8259;0,0780319
3213,7900;0,078288
3214,7544;0,0785499
3215,7185;0,0788195
3216,6829;0,0790957
3217,6470;0,0793736
3218,6113;0,079646
3219,5754;0,0799073
3220,5398;0,0801568
3221,5039;0,0803992
3222,4683;0,0806417
3223,4324;0,0808908
3224,3967;0,0811498
3225,3608;0,0814197
3226,3252;0,0816996
3227,2893;0,0819872
3228,2537;0,0822776
3229,2178;0,0825635
3230,1821;0,0828377
3231,1462;0,0830962
3232,1106;0,0833414
3233,0747;0,0835807
3234,0391;0,0838227
3235,0032;0,0840731
3235,9675;0,084333
3236,9316;0,0846023
3237,8960;0,084882
3238,8601;0,0851751
3239,8245;0,0854827
3240,7886;0,0857991
3241,7529;0,0861115
3242,7170;0,0864052
3243,6814;0,0866726
3244,6455;0,0869202
3245,6099;0,0871673
3246,5740;0,0874363
3247,5383;0,0877397
3248,5024;0,088074
3249,4668;0,0884234
3250,4309;0,0887706
3251,3953;0,0891068
3252,3594;0,0894344
3253,3237;0,0897622
3254,2878;0,0900968
3255,2522;0,0904364
3256,2163;0,0907729
3257,1807;0,0910977
3258,1448;0,0914087
3259,1091;0,0917125
3260,0732;0,092021
3261,0376;0,0923444
3262,0017;0,0926852
3262,9661;0,0930356
3263,9302;0,0933807
3264,8945;0,0937046
3265,8586;0,0939973
3266,8230;0,0942585
3267,7871;0,0944977
3268,7515;0,0947279
3269,7156;0,094958
3270,6799;0,0951879
3271,6440;0,0954078
3272,6084;0,0956041
3273,5725;0,0957671
3274,5369;0,095897
3275,5010;0,096003
3276,4653;0,0960983
3277,4294;0,0961933
3278,3938;0,0962909
3279,3579;0,0963877
3280,3223;0,0964767
3281,2864;0,0965523
3282,2507;0,0966126
3283,2148;0,0966598
3284,1792;0,0966987
3285,1433;0,0967338
3286,1077;0,0967671
3287,0718;0,0967966
3288,0361;0,0968176
3289,0002;0,0968243
3289,9646;0,0968129
3290,9287;0,0967838
3291,8931;0,0967417
3292,8572;0,096694
3293,8215;0,0966482
3294,7856;0,0966094
3295,7500;0,0965787
3296,7141;0,0965532
3297,6785;0,0965266
3298,6426;0,0964908
3299,6069;0,0964376
3300,5710;0,0963613
3301,5354;0,0962614
3302,4995;0,0961445
3303,4639;0,0960229
3304,4280;0,0959109
3305,3923;0,0958193
3306,3564;0,0957508
3307,3208;0,0956994
3308,2849;0,0956544
3309,2493;0,0956067
3310,2134;0,0955548
3311,1777;0,0955042
3312,1418;0,0954636
3313,1062;0,0954379
3314,0703;0,0954258
3315,0347;0,0954222
3315,9988;0,0954241
3316,9631;0,095435
3317,9272;0,0954636
3318,8916;0,0955172
3319,8557;0,0955948
3320,8201;0,0956857
3321,7842;0,0957747
3322,7485;0,0958513
3323,7126;0,0959156
3324,6770;0,0959774
3325,6411;0,0960496
3326,6055;0,0961393
3327,5696;0,0962442
3328,5339;0,0963551
3329,4980;0,0964607
3330,4624;0,0965525
3331,4265;0,0966246
3332,3909;0,0966724
3333,3550;0,0966903
3334,3193;0,0966721
3335,2834;0,0966138
3336,2478;0,0965155
3337,2119;0,0963819
3338,1763;0,0962191
3339,1404;0,0960323
3340,1047;0,095825
3341,0688;0,0956007
3342,0332;0,0953657
3342,9973;0,0951291
3343,9617;0,0948996
3344,9258;0,0946794
3345,8901;0,0944612
3346,8542;0,0942297
3347,8186;0,093969
3348,7827;0,093672
3349,7471;0,0933452
3350,7112;0,0930072
3351,6755;0,0926804
3352,6396;0,0923814
3353,6040;0,0921148
3354,5681;0,0918735
3355,5325;0,0916441
3356,4966;0,0914129
3357,4609;0,0911711
3358,4250;0,0909158
3359,3894;0,0906495
3360,3535;0,0903784
3361,3179;0,0901096
3362,2820;0,0898476
3363,2463;0,0895923
3364,2104;0,0893384
3365,1748;0,0890786
3366,1389;0,0888076
3367,1033;0,0885254
3368,0674;0,088237
3369,0317;0,0879486
3369,9958;0,0876631
3370,9602;0,0873795
3371,9243;0,0870944
3372,8887;0,0868056
3373,8528;0,0865144
3374,8171;0,0862246
3375,7813;0,0859399
3376,7456;0,0856623
3377,7097;0,085392
3378,6741;0,085129
3379,6382;0,0848731
3380,6025;0,0846238
3381,5667;0,0843784
3382,5310;0,0841321
3383,4951;0,0838813
3384,4595;0,0836266
3385,4236;0,0833746
3386,3879;0,0831355
3387,3521;0,082917
3388,3164;0,0827196
3389,2805;0,0825363
3390,2449;0,0823549
3391,2090;0,0821638
3392,1733;0,0819553
3393,1375;0,0817284
3394,1018;0,0814862
3395,0659;0,0812339
3396,0303;0,0809767
3396,9944;0,0807185
3397,9587;0,0804608
3398,9229;0,0802021
3399,8872;0,079937
3400,8513;0,0796595
3401,8157;0,0793667
3402,7798;0,0790618
3403,7441;0,0787537
3404,7083;0,0784531
3405,6726;0,078167
3406,6367;0,0778958
3407,6011;0,0776337
3408,5652;0,077371
3409,5295;0,0770971
3410,4937;0,0768035
3411,4580;0,0764868
3412,4221;0,0761515
3413,3865;0,0758113
3414,3506;0,0754842
3415,3149;0,0751846
3416,2791;0,0749143
3417,2434;0,0746582
3418,2075;0,0743891
3419,1719;0,0740803
3420,1360;0,0737199
3421,1003;0,0733172
3422,0645;0,0728969
3423,0288;0,0724845
3423,9929;0,072093
3424,9573;0,0717215
3425,9214;0,0713608
3426,8857;0,0710031
3427,8499;0,0706464
3428,8142;0,0702932
3429,7783;0,0699457
3430,7427;0,0696005
3431,7068;0,0692494
3432,6711;0,0688837
3433,6353;0,0685016
3434,5996;0,0681107
3435,5637;0,0677257
3436,5281;0,0673607
3437,4922;0,0670223
3438,4565;0,0667076
3439,4207;0,0664086
3440,3850;0,0661183
3441,3491;0,0658343
3442,3135;0,0655562
3443,2776;0,0652788
3444,2419;0,0649868
3445,2061;0,0646577
3446,1704;0,0642719
3447,1345;0,0638263
3448,0989;0,0633404
3449,0630;0,0628473
3450,0273;0,0623775
3450,9915;0,0619472
3451,9558;0,0615569
3452,9199;0,0611973
3453,8843;0,0608559
3454,8484;0,0605232
3455,8127;0,060196
3456,7769;0,0598756
3457,7412;0,0595638
3458,7053;0,059258
3459,6697;0,0589489
3460,6338;0,0586228
3461,5981;0,0582683
3462,5623;0,057882
3463,5266;0,0574697
3464,4907;0,0570431
3465,4551;0,0566136
3466,4192;0,0561902
3467,3835;0,0557804
3468,3477;0,0553919
3469,3120;0,0550305
3470,2761;0,0546947
3471,2405;0,0543719
3472,2046;0,0540421
3473,1689;0,0536894
3474,1331;0,0533158
3475,0974;0,0529456
3476,0615;0,0526122
3477,0259;0,0523362
3477,9900;0,0521087
3478,9543;0,0518915
3479,9185;0,0516355
3480,8828;0,0513079
3481,8469;0,0509127
3482,8113;0,0504859
3483,7754;0,0500694
3484,7397;0,0496833
3485,7039;0,0493185
3486,6682;0,0489495
3487,6323;0,0485565
3488,5967;0,0481424
3489,5608;0,0477324
3490,5251;0,0473579
3491,4893;0,0470359
3492,4536;0,0467595
3493,4177;0,046504
3494,3821;0,0462429
3495,3462;0,0459661
3496,3105;0,0456881
3497,2747;0,0454367
3498,2390;0,0452295
3499,2031;0,0450552
3500,1675;0,0448708
3501,1316;0,0446189
3502,0959;0,0442612
3503,0601;0,0438091
3504,0244;0,0433247
3504,9885;0,0428796
3505,9529;0,042509
3506,9170;0,0421963
3507,8813;0,0418911
3508,8455;0,0415415
3509,8098;0,0411243
3510,7739;0,0406587
3511,7383;0,040191
3512,7024;0,039765
3513,6667;0,0394014
3514,6309;0,0390985
3515,5952;0,0388443
3516,5593;0,0386288
3517,5237;0,0384483
3518,4878;0,0383021
3519,4521;0,0381847
3520,4163;0,0380797
3521,3806;0,0379604
3522,3447;0,0377977
3523,3091;0,0375725
3524,2732;0,0372823
3525,2375;0,0369359
3526,2017;0,0365416
3527,1660;0,0361006
3528,1301;0,0356143
3529,0945;0,0350975
3530,0586;0,0345836
3531,0229;0,0341112
3531,9871;0,0337058
3532,9514;0,0333683
3533,9155;0,0330749
3534,8799;0,0327881
3535,8440;0,0324773
3536,8083;0,0321409
3537,7725;0,031813
3538,7368;0,0315464
3539,7009;0,0313824
3540,6653;0,0313295
3541,6294;0,0313554
3542,5938;0,0313889
3543,5579;0,0313325
3544,5222;0,0311012
3545,4863;0,0306763
3546,4507;0,0301293
3547,4148;0,0295756
3548,3792;0,0290968
3549,3433;0,0287034
3550,3076;0,02835
3551,2717;0,0279765
3552,2361;0,0275495
3553,2002;0,0270868
3554,1646;0,0266458
3555,1287;0,0262821
3556,0930;0,0260182
3557,0571;0,0258451
3558,0215;0,0257438
3558,9856;0,0257044
3559,9500;0,0257306
3560,9141;0,0258286
3561,8784;0,0259857
3562,8425;0,0261546
3563,8069;0,0262426
3564,7710;0,0261051
3565,7354;0,025587
3566,6995;0,0246652
3567,6638;0,0235678
3568,6279;0,0226272
3569,5923;0,0220095
3570,5564;0,0216594
3571,5208;0,021433
3572,4849;0,0212167
3573,4492;0,0209653
3574,4133;0,0206868
3575,3777;0,0204102
3576,3418;0,0201587
3577,3062;0,0199414
3578,2703;0,0197625
3579,2346;0,0196319
3580,1987;0,0195643
3581,1631;0,0195627
3582,1272;0,019605
3583,0916;0,019646
3584,0557;0,0196285
3585,0200;0,0194896
3585,9841;0,0191727
3586,9485;0,0186904
3587,9126;0,0181899
3588,8770;0,0178695
3589,8411;0,0178029
3590,8054;0,0179014
3591,7695;0,0180142
3592,7339;0,0180216
3593,6980;0,0178744
3594,6624;0,0176006
3595,6265;0,0172804
3596,5908;0,0169838
3597,5549;0,0167178
3598,5193;0,0164346
3599,4834;0,0160887
3600,4478;0,0156883
3601,4119;0,015296
3602,3762;0,0149738
3603,3403;0,0147287
3604,3047;0,0145087
3605,2688;0,0142347
3606,2332;0,0138382
3607,1973;0,0132995
3608,1616;0,012681
3609,1257;0,0121127
3610,0901;0,0117191
3611,0542;0,0115494
3612,0186;0,0115646
3612,9827;0,0116701
3613,9470;0,011759
3614,9111;0,0117468
3615,8755;0,0115896
3616,8396;0,0112879
3617,8040;0,0108879
3618,7681;0,0104872
3619,7324;0,0102251
3620,6965;0,0102144
3621,6609;0,0104462
3622,6250;0,0107795
3623,5894;0,0110262
3624,5535;0,0110447
3625,5178;0,0107793
3626,4819;0,0102404
3627,4463;0,00946619
3628,4104;0,00856221
3629,3748;0,00777094
3630,3389;0,00730703
3631,3032;0,007126
3632,2673;0,00700328
3633,2317;0,00675327
3634,1958;0,0063337
3635,1602;0,00582271
3636,1243;0,00533601
3637,0886;0,00494846
3638,0527;0,00466899
3639,0171;0,00447199
3639,9812;0,00434163
3640,9456;0,00428494
3641,9097;0,00430804
3642,8740;0,00438727
3643,8381;0,0044705
3644,8025;0,00450759
3645,7666;0,00446736
3646,7310;0,00428577
3647,6951;0,00378253
3648,6594;0,00281937
3649,6235;0,00169922
3650,5879;0,000953288
3651,5520;0,000706521
3652,5164;0,000689966
3653,4805;0,000608703
3654,4448;0,00033234
3655,4089;-9,54468E-05
3656,3733;-0,00052651
3657,3374;-0,000817148
3658,3018;-0,000927106
3659,2659;-0,000927199
3660,2302;-0,000913278
3661,1943;-0,000922458
3662,1587;-0,000923856
3663,1228;-0,000874335
3664,0872;-0,000777963
3665,0513;-0,000685072
3666,0156;-0,00064111
3666,9797;-0,00063949
3667,9441;-0,000637162
3668,9082;-0,000615445
3669,8726;-0,000597824
3670,8367;-0,000615243
3671,8010;-0,000698264
3672,7651;-0,000872809
3673,7295;-0,0011327
3674,6936;-0,00143695
3675,6580;-0,00171529
3676,6221;-0,00186619
3677,5864;-0,0018344
3678,5505;-0,00168423
3679,5149;-0,001525
3680,4790;-0,00140372
3681,4434;-0,00129367
3682,4075;-0,0011584
3683,3718;-0,00101005
3684,3359;-0,000904532
3685,3003;-0,000881283
3686,2644;-0,000907666
3687,2288;-0,000892217
3688,1929;-0,000775144
3689,1572;-0,000587024
3690,1213;-0,000374414
3691,0857;-0,000137926
3692,0498;0,000115966
3693,0142;0,000351605
3693,9783;0,000539011
3694,9426;0,00067037
3695,9067;0,00074553
3696,8711;0,000757238
3697,8352;0,000695811
3698,7996;0,000567193
3699,7637;0,000406071
3700,7280;0,000272064
3701,6921;0,000230129
3702,6565;0,000320382
3703,6206;0,000528869
3704,5850;0,000784538
3705,5491;0,0009929
3706,5134;0,00107803
3707,4775;0,00099633
3708,4419;0,000709529
3709,4060;0,000152704
3710,3704;-0,000703947
3711,3345;-0,00169146
3712,2988;-0,00245941
3713,2629;-0,00276964
3714,2273;-0,00265371
3715,1914;-0,00228716
3716,1558;-0,00182507
3717,1199;-0,001338
3718,0842;-0,000829439
3719,0483;-0,000285303
3720,0127;0,000285033
3720,9768;0,000839368
3721,9412;0,00132135
3722,9053;0,00168509
3723,8696;0,00190985
3724,8337;0,00200556
3725,7981;0,00200662
3726,7622;0,0019495
3727,7266;0,00185047
3728,6907;0,00171009
3729,6550;0,00153986
3730,6191;0,00137802
3731,5835;0,00126506
3732,5476;0,00117906
3733,5120;0,000991429
3734,4761;0,000567796
3735,4404;-1,2764E-05
3736,4045;-0,000464043
3737,3689;-0,000611796
3738,3330;-0,000572535
3739,2974;-0,000622217
3740,2615;-0,000991193
3741,2258;-0,00173904
3742,1899;-0,0027117
3743,1543;-0,00358546
3744,1184;-0,00402789
3745,0828;-0,0039224
3746,0469;-0,00345954
3747,0112;-0,00298605
3747,9753;-0,00278382
3748,9397;-0,00296996
3749,9038;-0,00349275
3750,8682;-0,00411392
3751,8323;-0,00447714
3752,7966;-0,00440065
3753,7607;-0,00402897
3754,7251;-0,00364
3755,6892;-0,00342903
3756,6536;-0,00345019
3757,6177;-0,00364979
3758,5820;-0,00391307
3759,5461;-0,00411238
3760,5105;-0,00416947
3761,4746;-0,00409307
3762,4390;-0,00395275
3763,4031;-0,00382487
3764,3674;-0,00376035
3765,3315;-0,00378045
3766,2959;-0,00388415
3767,2600;-0,0040557
3768,2244;-0,00426884
3769,1885;-0,00448564
3770,1528;-0,00465375
3771,1169;-0,00472089
3772,0813;-0,00466794
3773,0454;-0,00453015
3774,0098;-0,00437854
3774,9739;-0,00427849
3775,9382;-0,00425925
3776,9023;-0,00431092
3777,8667;-0,00439731
3778,8308;-0,00446499
3779,7952;-0,00445811
3780,7593;-0,00435227
3781,7236;-0,00417912
3782,6877;-0,00401214
3783,6521;-0,00392881
3784,6162;-0,00397434
3785,5806;-0,00413877
3786,5447;-0,00436066
3787,5090;-0,00455971
3788,4731;-0,00467931
3789,4375;-0,00470858
3790,4016;-0,00467106
3791,3660;-0,00459229
3792,3301;-0,00447136
3793,2944;-0,00427962
3794,2585;-0,0039924
3795,2229;-0,00363179
3796,1870;-0,00328001
3797,1514;-0,00304391
3798,1155;-0,00299766
3799,0798;-0,00314688
3800,0439;-0,00343105
3801,0083;-0,00375151
3801,9724;-0,00401931
3802,9368;-0,0042184
3803,9009;-0,00441959
3804,8652;-0,00470288
3805,8293;-0,00505659
3806,7937;-0,00534799
3807,7578;-0,00540572
3808,7222;-0,00516802
3809,6863;-0,0047542
3810,6506;-0,00437611
3811,6147;-0,00418509
3812,5791;-0,00418154
3813,5432;-0,00422813
3814,5076;-0,00415394
3815,4717;-0,00388736
3816,4360;-0,00351216
3817,4001;-0,00320497
3818,3645;-0,00312696
3819,3286;-0,0033424
3820,2930;-0,00377117
3821,2571;-0,00420039
3822,2214;-0,00441436
3823,1855;-0,00436031
3824,1499;-0,0041594
3825,1140;-0,00397671
3826,0784;-0,00390782
3827,0425;-0,00394858
3828,0068;-0,00402681
3828,9709;-0,0040585
3829,9353;-0,00399646
3830,8994;-0,00385024
3831,8638;-0,00367423
3832,8279;-0,00353569
3833,7922;-0,00347917
3834,7563;-0,00350461
3835,7207;-0,00357289
3836,6848;-0,00363916
3837,6492;-0,00368875
3838,6133;-0,00373876
3839,5776;-0,00381339
3840,5417;-0,00392953
3841,5061;-0,00409027
3842,4702;-0,00426441
3843,4346;-0,00437449
3844,3987;-0,00432753
3845,3630;-0,00408127
3846,3271;-0,0036947
3847,2915;-0,00331817
3848,2556;-0,00313023
3849,2200;-0,0032634
3850,1841;-0,00375469
3851,1484;-0,0045426
3852,1125;-0,00549116
3853,0769;-0,00633361
3854,0410;-0,00664964
3855,0054;-0,00624401
3855,9695;-0,00539499
3856,9338;-0,00453709
3857,8979;-0,00394426
3858,8623;-0,00367056
3859,8264;-0,00361643
3860,7908;-0,00362648
3861,7549;-0,00358989
3862,7192;-0,00350063
3863,6833;-0,00342724
3864,6477;-0,00342746
3865,6118;-0,0035053
3866,5762;-0,00362637
3867,5403;-0,00374437
3868,5046;-0,00382571
3869,4688;-0,00387342
3870,4331;-0,00392561
3871,3972;-0,00401532
3872,3616;-0,00413476
3873,3257;-0,0042469
3874,2900;-0,00432142
3875,2542;-0,00435037
3876,2185;-0,00433494
3877,1826;-0,00426828
3878,1470;-0,00413726
3879,1111;-0,00394849
3880,0754;-0,00375205
3881,0396;-0,00362901
3882,0039;-0,00364807
3882,9680;-0,00382798
3883,9324;-0,00412378
3884,8965;-0,00443861
3885,8608;-0,00466735
3886,8250;-0,00475712
3887,7893;-0,00473299
3888,7534;-0,0046605
3889,7178;-0,0045872
3890,6819;-0,00451642
3891,6462;-0,00441772
3892,6104;-0,00425586
3893,5747;-0,00403113
3894,5388;-0,00379704
3895,5032;-0,00362143
3896,4673;-0,00353147
3897,4316;-0,00350197
3898,3958;-0,00349301
3899,3601;-0,00349322
3900,3242;-0,00352696
3901,2886;-0,00362829
3902,2527;-0,00381597
3903,2170;-0,00407701
3904,1812;-0,00435938
3905,1455;-0,00459602
3906,1096;-0,00475036
3907,0740;-0,00483272
3908,0381;-0,00487305
3909,0024;-0,00488771
3909,9666;-0,00487061
3910,9309;-0,00480741
3911,8950;-0,00469404
3912,8594;-0,00454471
3913,8235;-0,00438725
3914,7878;-0,00425428
3915,7520;-0,00417445
3916,7163;-0,00415872
3917,6804;-0,00418351
3918,6448;-0,00419629
3919,6089;-0,0041536
3920,5732;-0,00405672
3921,5374;-0,00394874
3922,5017;-0,00388458
3923,4658;-0,00389711
3924,4302;-0,0039734
3925,3943;-0,00405854
3926,3586;-0,00409314
3927,3228;-0,00405422
3928,2871;-0,00396595
3929,2512;-0,00388399
3930,2156;-0,0038714
3931,1797;-0,00396784
3932,1440;-0,00415983
3933,1082;-0,0043829
3934,0725;-0,00456458
3935,0366;-0,00466589
3936,0010;-0,00468694
3936,9651;-0,00464797
3937,9294;-0,00457139
3938,8936;-0,00447535
3939,8579;-0,00437565
3940,8220;-0,00428762
3941,7864;-0,00422142
3942,7505;-0,00417387
3943,7148;-0,00412841
3944,6790;-0,00407047
3945,6433;-0,00400316
3946,6074;-0,00395073
3947,5718;-0,00394878
3948,5359;-0,00402508
3949,5002;-0,00417866
3950,4644;-0,00437399
3951,4287;-0,00456
3952,3928;-0,00469761
3953,3572;-0,00477295
3954,3213;-0,00479333
3955,2856;-0,00477643
3956,2498;-0,00474072
3957,2141;-0,00470032
3958,1782;-0,00466496
3959,1426;-0,00464293
3960,1067;-0,00464282
3961,0710;-0,00467071
3962,0352;-0,0047247
3962,9995;-0,00479215
3963,9636;-0,00485411
3964,9280;-0,00489317
3965,8921;-0,00490112
3966,8564;-0,00488048
3967,8206;-0,00484132
3968,7849;-0,00479587
3969,7490;-0,00475388
3970,7134;-0,00472117
3971,6775;-0,00470096
3972,6418;-0,00469577
3973,6060;-0,0047076
3974,5703;-0,00473621
3975,5344;-0,00477757
3976,4988;-0,00482416
3977,4629;-0,00486771
3978,4272;-0,00490261
3979,3914;-0,00492841
3980,3557;-0,00495025
3981,3198;-0,00497653
3982,2842;-0,00501384
3983,2483;-0,00506155
3984,2126;-0,00510946
3985,1768;-0,00514123
3986,1411;-0,00514217
3987,1052;-0,00510734
3988,0696;-0,0050453
3989,0337;-0,00497416
3989,9980;-0,00491368
3990,9622;-0,00487692
3991,9265;-0,00486754
3992,8906;-0,00488303
3993,8550;-0,00491954
3994,8191;-0,00497365
3995,7834;-0,00504016
3996,7476;-0,00510963
3997,7119;-0,0051692
3998,6760;-0,00520747
3999,6404;-0,00521964
4000,6045;-0,00484592

##### Extended Information
[Comments]
Sample name
Comment
Username
Division
Organization;UNIVERSIDAD INDUSTRIAL DE SANTANDER

[Detailed Information]
Creation date;19/03/2025 2:49 p.m.

Data array type;Linear data array
Horizontal axis;Wavenumber [cm-1]
Vertical axis;Abs
Start;399,193 cm-1
End;4000,6 cm-1
Data interval;0,964233 cm-1
Data points;3736    

[Measurement Information]
Model name;FT/IR-4X1typeA
Serial No.;A035162111

Accessory;ATR PRO 4X
Accessory S/N;A021162126
Incident angle;45 deg

Measurement date;19/03/2025 2:48 p.m.

Light source;Standard
Detector;TGS
Accumulation;40
Resolution;4 cm-1
Zero filling;On
Apodization;Cosine
Gain;Auto (8)
Aperture;Auto (7 mm)
Scan speed;Auto (2 mm/sec)
Filter;Auto (12800 Hz)

