TITLE;
DATA TYPE;INFRARED SPECTRUM
ORIGIN;JASCO
OWNER;
DATE;25/03/19
TIME;14:43:24
SPECTROMETER/DATA SYSTEM;
LOCALE;9226
RESOLUTION;
DELTAX;0,964233
XUNITS;1/CM
YUNITS;ABSORBANCE
FIRSTX;  399,1927
LASTX; 4000,6047
NPOINTS;    3736
FIRSTY;     0,23532
MAXY;     0,28942
MINY;    -0,00425
XYDATA
399,1927;0,235316
400,1569;0,23341
401,1211;0,231181
402,0854;0,229051
403,0496;0,22731
404,0138;0,226176
404,9781;0,225808
405,9423;0,226237
406,9065;0,227279
407,8708;0,228553
408,8350;0,229631
409,7992;0,230244
410,7635;0,230425
411,7277;0,230508
412,6919;0,230947
413,6562;0,232076
414,6204;0,233987
415,5846;0,236542
416,5489;0,239382
417,5131;0,24189
418,4773;0,243357
419,4416;0,243562
420,4058;0,243091
421,3700;0,242673
422,3343;0,24254
423,2985;0,242506
424,2627;0,242318
425,2270;0,241909
426,1912;0,241486
427,1554;0,241392
428,1197;0,241874
429,0839;0,242905
430,0481;0,244199
431,0124;0,245363
431,9766;0,24609
432,9408;0,246273
433,9051;0,245983
434,8693;0,245355
435,8335;0,244496
436,7978;0,24348
437,7620;0,24239
438,7262;0,241355
439,6905;0,240531
440,6547;0,24006
441,6189;0,239997
442,5832;0,240251
443,5474;0,240566
444,5116;0,240618
445,4759;0,240163
446,4401;0,239157
447,4043;0,237763
448,3686;0,236278
449,3328;0,235028
450,2970;0,234269
451,2613;0,234096
452,2255;0,234426
453,1897;0,235042
454,1540;0,235672
455,1182;0,236059
456,0824;0,236012
457,0467;0,235485
458,0109;0,234636
458,9751;0,23379
459,9394;0,233236
460,9036;0,233055
461,8678;0,233119
462,8321;0,233212
463,7963;0,233153
464,7605;0,232888
465,7248;0,232497
466,6890;0,232135
467,6532;0,231929
468,6175;0,23192
469,5817;0,23207
470,5459;0,232315
471,5102;0,23259
472,4744;0,232826
473,4386;0,232948
474,4029;0,232896
475,3671;0,232667
476,3313;0,232321
477,2956;0,23196
478,2598;0,231662
479,2240;0,231444
480,1883;0,231254
481,1525;0,23103
482,1167;0,230774
483,0810;0,230595
484,0452;0,230656
485,0094;0,231076
485,9737;0,23184
486,9379;0,232811
487,9021;0,233804
488,8664;0,234664
489,8306;0,235287
490,7948;0,235609
491,7591;0,235616
492,7233;0,235372
493,6875;0,23503
494,6518;0,234798
495,6160;0,234854
496,5802;0,235263
497,5445;0,235949
498,5087;0,236733
499,4729;0,237421
500,4372;0,237901
501,4014;0,238185
502,3656;0,238389
503,3299;0,23864
504,2941;0,239002
505,2583;0,239459
506,2226;0,239957
507,1868;0,240451
508,1510;0,240924
509,1153;0,241381
510,0795;0,241841
511,0437;0,242331
512,0080;0,242895
512,9722;0,243584
513,9365;0,244428
514,9007;0,2454
515,8649;0,246389
516,8292;0,247225
517,7934;0,247743
518,7576;0,247879
519,7219;0,247699
520,6861;0,247354
521,6503;0,246991
522,6146;0,24671
523,5788;0,246555
524,5430;0,246538
525,5073;0,246635
526,4715;0,246787
527,4357;0,246909
528,4000;0,246921
529,3642;0,246777
530,3284;0,246477
531,2927;0,246051
532,2569;0,245536
533,2211;0,244962
534,1854;0,24435
535,1496;0,243729
536,1138;0,243146
537,0781;0,242669
538,0423;0,242371
539,0065;0,242299
539,9708;0,242458
540,9350;0,242814
541,8992;0,243301
542,8635;0,243838
543,8277;0,244351
544,7919;0,244792
545,7562;0,24516
546,7204;0,245503
547,6846;0,245887
548,6489;0,246358
549,6131;0,246905
550,5773;0,247467
551,5416;0,247978
552,5058;0,248412
553,4700;0,248789
554,4343;0,249135
555,3985;0,249426
556,3627;0,249559
557,3270;0,249376
558,2912;0,248742
559,2554;0,247608
560,2197;0,246041
561,1839;0,244198
562,1481;0,24228
563,1124;0,240476
564,0766;0,238929
565,0408;0,237704
566,0051;0,236784
566,9693;0,236081
567,9335;0,235473
568,8978;0,234863
569,8620;0,234228
570,8262;0,233623
571,7905;0,233134
572,7547;0,23282
573,7189;0,23267
574,6832;0,232606
575,6474;0,232524
576,6116;0,232341
577,5759;0,232039
578,5401;0,231657
579,5043;0,231264
580,4686;0,230921
581,4328;0,230656
582,3970;0,230464
583,3613;0,230307
584,3255;0,230141
585,2897;0,229932
586,2540;0,229682
587,2182;0,229421
588,1824;0,229195
589,1467;0,229034
590,1109;0,228932
591,0751;0,228837
592,0394;0,228671
593,0036;0,228371
593,9678;0,227918
594,9321;0,22734
595,8963;0,226692
596,8605;0,22603
597,8248;0,225391
598,7890;0,224795
599,7532;0,22424
600,7175;0,223717
601,6817;0,223209
602,6459;0,222699
603,6102;0,222179
604,5744;0,221653
605,5386;0,221134
606,5029;0,220627
607,4671;0,220116
608,4313;0,219553
609,3956;0,218883
610,3598;0,218087
611,3240;0,217218
612,2883;0,216392
613,2525;0,215738
614,2167;0,215306
615,1810;0,215006
616,1452;0,214607
617,1094;0,213836
618,0737;0,212528
619,0379;0,210725
620,0021;0,208658
620,9664;0,206614
621,9306;0,204814
622,8948;0,203355
623,8591;0,202214
624,8233;0,201244
625,7875;0,200459
626,7518;0,199775
627,7160;0,199138
628,6802;0,198506
629,6445;0,197856
630,6087;0,197178
631,5729;0,196481
632,5372;0,195775
633,5014;0,195073
634,4656;0,194385
635,4299;0,193731
636,3941;0,193149
637,3583;0,192678
638,3226;0,192338
639,2868;0,192104
640,2510;0,191909
641,2153;0,19168
642,1795;0,191377
643,1437;0,191016
644,1080;0,190651
645,0722;0,190325
646,0364;0,190036
647,0007;0,189743
647,9649;0,189401
648,9291;0,189011
649,8934;0,188639
650,8576;0,188384
651,8218;0,188324
652,7861;0,188476
653,7503;0,188796
654,7145;0,189204
655,6788;0,189615
656,6430;0,18997
657,6072;0,190251
658,5715;0,190466
659,5357;0,190608
660,4999;0,190608
661,4642;0,19033
662,4284;0,189605
663,3926;0,188299
664,3569;0,186433
665,3211;0,184378
666,2853;0,182935
667,2496;0,182885
668,2138;0,183874
669,1780;0,184472
670,1423;0,184098
671,1065;0,183103
672,0707;0,181651
673,0350;0,17972
673,9992;0,177431
674,9634;0,175069
675,9277;0,172909
676,8919;0,171062
677,8561;0,169466
678,8204;0,167995
679,7846;0,166574
680,7488;0,16519
681,7131;0,163865
682,6773;0,162612
683,6415;0,161435
684,6058;0,160351
685,5700;0,159394
686,5342;0,15859
687,4985;0,157931
688,4627;0,157384
689,4269;0,156883
690,3912;0,156382
691,3554;0,155874
692,3196;0,155371
693,2839;0,154886
694,2481;0,15442
695,2123;0,153965
696,1766;0,153509
697,1408;0,153036
698,1050;0,15253
699,0693;0,151971
700,0335;0,15135
700,9977;0,150674
701,9620;0,149972
702,9262;0,149277
703,8904;0,148593
704,8547;0,147928
705,8189;0,147261
706,7831;0,146565
707,7474;0,145817
708,7116;0,14502
709,6758;0,144192
710,6401;0,143354
711,6043;0,142516
712,5685;0,141673
713,5328;0,140829
714,4970;0,14001
715,4612;0,138035
716,4255;0,137661
717,3897;0,137477
718,3539;0,137309
719,3182;0,136887
720,2824;0,135978
721,2466;0,134523
722,2109;0,132677
723,1751;0,130703
724,1393;0,128832
725,1036;0,127163
726,0678;0,125668
727,0320;0,124259
727,9963;0,122867
728,9605;0,121485
729,9247;0,120155
730,8890;0,118925
731,8532;0,117816
732,8174;0,116813
733,7817;0,115883
734,7459;0,114995
735,7101;0,114134
736,6744;0,113296
737,6386;0,112486
738,6028;0,111716
739,5671;0,110998
740,5313;0,110339
741,4955;0,10974
742,4598;0,109183
743,4240;0,108643
744,3882;0,108092
745,3525;0,107514
746,3167;0,106911
747,2809;0,106293
748,2452;0,105676
749,2094;0,105072
750,1736;0,104484
751,1379;0,10391
752,1021;0,103344
753,0663;0,102775
754,0306;0,102197
754,9948;0,101605
755,9590;0,100997
756,9233;0,100381
757,8875;0,0997708
758,8517;0,0991817
759,8160;0,098626
760,7802;0,0981105
761,7444;0,097637
762,7087;0,0972037
763,6729;0,0968038
764,6371;0,0964245
765,6014;0,0960466
766,5656;0,0956501
767,5298;0,0952237
768,4941;0,0947719
769,4583;0,0943139
770,4225;0,093872
771,3868;0,0934564
772,3510;0,093058
773,3152;0,0926546
774,2795;0,0922278
775,2437;0,0917781
776,2079;0,0913269
777,1722;0,0909035
778,1364;0,0905255
779,1006;0,0901871
780,0649;0,0898632
781,0291;0,089525
781,9933;0,0891569
782,9576;0,088762
783,9218;0,0883569
784,8860;0,0879594
785,8503;0,0875797
786,8145;0,0872185
787,7787;0,086871
788,7430;0,0865304
789,7072;0,0861911
790,6714;0,0858497
791,6357;0,0855071
792,5999;0,0851701
793,5641;0,0848506
794,5284;0,0845598
795,4926;0,0843005
796,4568;0,0840627
797,4211;0,0838271
798,3853;0,0835749
799,3495;0,0832977
800,3138;0,0830015
801,2780;0,0827014
802,2422;0,0824133
803,2065;0,0821459
804,1707;0,0819
805,1349;0,0816709
806,0992;0,0814528
807,0634;0,081241
808,0276;0,0810325
808,9919;0,0808262
809,9561;0,0806238
810,9203;0,0804298
811,8846;0,080249
812,8488;0,0800833
813,8130;0,0799285
814,7773;0,079775
815,7415;0,0796133
816,7057;0,0794412
817,6700;0,0792675
818,6342;0,0791092
819,5984;0,0789827
820,5627;0,0788937
821,5269;0,0788327
822,4911;0,0787795
823,4554;0,0787141
824,4196;0,0786276
825,3839;0,0785266
826,3481;0,0784271
827,3123;0,0783431
828,2766;0,0782765
829,2408;0,0782148
830,2050;0,0781368
831,1693;0,0780232
832,1335;0,0778632
833,0977;0,0776561
834,0620;0,077407
835,0262;0,0771222
835,9904;0,076808
836,9547;0,0764727
837,9189;0,0761286
838,8831;0,0757913
839,8474;0,0754754
840,8116;0,0751888
841,7758;0,0749303
842,7401;0,074692
843,7043;0,074465
844,6685;0,074244
845,6328;0,0740277
846,5970;0,0738154
847,5612;0,0736024
848,5255;0,0733802
849,4897;0,0731409
850,4539;0,072886
851,4182;0,0726312
852,3824;0,072403
853,3466;0,0722271
854,3109;0,0721148
855,2751;0,0720547
856,2393;0,0720164
857,2036;0,0719651
858,1678;0,0718785
859,1320;0,0717579
860,0963;0,0716259
861,0605;0,0715141
862,0247;0,0714487
862,9890;0,0714424
863,9532;0,0714973
864,9174;0,0716131
865,8817;0,071794
866,8459;0,0720456
867,8101;0,0723654
868,7744;0,0727336
869,7386;0,0731123
870,7028;0,0734557
871,6671;0,0737256
872,6313;0,0739022
873,5955;0,0739852
874,5598;0,0739878
875,5240;0,0739298
876,4882;0,0738361
877,4525;0,0737386
878,4167;0,0736764
879,3809;0,0736895
880,3452;0,0738087
881,3094;0,0740485
882,2736;0,0744086
883,2379;0,0748824
884,2021;0,0754653
885,1663;0,0761568
886,1306;0,0769549
887,0948;0,0778487
888,0590;0,0788163
889,0233;0,0798283
889,9875;0,0808541
890,9517;0,081865
891,9160;0,0828338
892,8802;0,0837333
893,8444;0,0845353
894,8087;0,0852139
895,7729;0,0857479
896,7371;0,0861214
897,7014;0,0863234
898,6656;0,0863491
899,6298;0,086203
900,5941;0,085903
901,5583;0,0854806
902,5225;0,084975
903,4868;0,0844261
904,4510;0,0838683
905,4152;0,0833307
906,3795;0,0828393
907,3437;0,0824185
908,3079;0,0820874
909,2722;0,0818553
910,2364;0,0817183
911,2007;0,0816629
912,1649;0,0816734
913,1292;0,0817375
914,0934;0,081849
915,0576;0,0820056
916,0219;0,0822069
916,9861;0,0824532
917,9503;0,082746
918,9146;0,0830871
919,8788;0,0834746
920,8430;0,0838986
921,8073;0,0843388
922,7715;0,0847682
923,7357;0,0851605
924,7000;0,0854971
925,6642;0,0857709
926,6284;0,0859844
927,5927;0,0861456
928,5569;0,0862653
929,5211;0,086357
930,4854;0,0864368
931,4496;0,0865227
932,4138;0,0866308
933,3781;0,0867723
934,3423;0,0869528
935,3065;0,0871758
936,2708;0,0874481
937,2350;0,0877825
938,1992;0,0881947
939,1635;0,0886968
940,1277;0,0892915
941,0919;0,0899721
942,0562;0,0907282
943,0204;0,0915541
943,9846;0,0924535
944,9489;0,0934363
945,9131;0,0945118
946,8773;0,0956814
947,8416;0,096938
948,8058;0,0982705
949,7700;0,0996712
950,7343;0,10114
951,6985;0,102683
952,6627;0,104312
953,6270;0,106037
954,5912;0,107864
955,5554;0,109797
956,5197;0,111839
957,4839;0,113983
958,4481;0,116219
959,4124;0,118531
960,3766;0,120902
961,3408;0,123317
962,3051;0,125762
963,2693;0,128229
964,2335;0,130711
965,1978;0,133203
966,1620;0,135712
967,1262;0,138258
968,0905;0,140879
969,0547;0,143618
970,0189;0,146519
970,9832;0,14961
971,9474;0,152911
972,9116;0,156431
973,8759;0,160188
974,8401;0,164209
975,8043;0,168522
976,7686;0,173138
977,7328;0,178034
978,6970;0,183133
979,6613;0,18831
980,6255;0,193401
981,5897;0,198234
982,5540;0,202661
983,5182;0,206592
984,4824;0,210009
985,4467;0,212964
986,4109;0,215545
987,3751;0,217852
988,3394;0,219959
989,3036;0,221908
990,2678;0,223712
991,2321;0,225376
992,1963;0,226904
993,1605;0,228304
994,1248;0,229585
995,0890;0,230748
996,0532;0,231793
997,0175;0,232721
997,9817;0,233542
998,9459;0,23428
999,9102;0,234973
1000,8744;0,235666
1001,8386;0,236413
1002,8029;0,237273
1003,7671;0,238303
1004,7313;0,239559
1005,6956;0,24108
1006,6598;0,242892
1007,6240;0,244998
1008,5883;0,247388
1009,5525;0,250041
1010,5167;0,252924
1011,4810;0,255989
1012,4452;0,259169
1013,4094;0,26237
1014,3737;0,26548
1015,3379;0,268387
1016,3021;0,271
1017,2664;0,273273
1018,2306;0,27521
1019,1948;0,276863
1020,1591;0,278312
1021,1233;0,279638
1022,0875;0,280905
1023,0518;0,282152
1024,0160;0,283388
1024,9802;0,284606
1025,9445;0,285788
1026,9087;0,286903
1027,8729;0,287909
1028,8372;0,288735
1029,8014;0,289282
1030,7656;0,289417
1031,7299;0,288993
1032,6941;0,287885
1033,6583;0,286032
1034,6226;0,283473
1035,5868;0,280358
1036,5510;0,27693
1037,5153;0,273474
1038,4795;0,270261
1039,4437;0,267505
1040,4080;0,265327
1041,3722;0,263758
1042,3364;0,262747
1043,3007;0,262185
1044,2649;0,261935
1045,2291;0,261861
1046,1934;0,261842
1047,1576;0,261785
1048,1218;0,26161
1049,0861;0,261246
1050,0503;0,260619
1051,0145;0,25966
1051,9788;0,258328
1052,9430;0,256621
1053,9072;0,254573
1054,8715;0,252231
1055,8357;0,249616
1056,7999;0,246695
1057,7642;0,243393
1058,7284;0,239626
1059,6926;0,235359
1060,6569;0,230648
1061,6211;0,225642
1062,5853;0,22055
1063,5496;0,215585
1064,5138;0,210916
1065,4780;0,206641
1066,4423;0,202789
1067,4065;0,199343
1068,3707;0,196252
1069,3350;0,193453
1070,2992;0,190873
1071,2634;0,188431
1072,2277;0,18604
1073,1919;0,183622
1074,1561;0,181115
1075,1204;0,178487
1076,0846;0,175738
1077,0488;0,172902
1078,0131;0,170041
1078,9773;0,16723
1079,9415;0,164551
1080,9058;0,162083
1081,8700;0,159885
1082,8342;0,15799
1083,7985;0,156398
1084,7627;0,155082
1085,7269;0,153996
1086,6912;0,153099
1087,6554;0,152363
1088,6196;0,151786
1089,5839;0,151379
1090,5481;0,151158
1091,5123;0,151124
1092,4766;0,151263
1093,4408;0,151545
1094,4050;0,151941
1095,3693;0,152428
1096,3335;0,152992
1097,2977;0,153615
1098,2620;0,15427
1099,2262;0,154917
1100,1904;0,155504
1101,1547;0,155981
1102,1189;0,156302
1103,0831;0,156443
1104,0474;0,156396
1105,0116;0,156182
1105,9758;0,155835
1106,9401;0,155395
1107,9043;0,154882
1108,8685;0,154271
1109,8328;0,15349
1110,7970;0,152439
1111,7612;0,15103
1112,7255;0,149236
1113,6897;0,147118
1114,6539;0,144811
1115,6182;0,142483
1116,5824;0,140281
1117,5466;0,138292
1118,5109;0,136525
1119,4751;0,134929
1120,4393;0,133412
1121,4036;0,131876
1122,3678;0,130224
1123,3320;0,128382
1124,2963;0,126305
1125,2605;0,123983
1126,2247;0,12144
1127,1890;0,118731
1128,1532;0,115926
1129,1174;0,113092
1130,0817;0,110286
1131,0459;0,107545
1132,0101;0,104893
1132,9744;0,102354
1133,9386;0,0999565
1134,9028;0,097741
1135,8671;0,0957589
1136,8313;0,0940618
1137,7955;0,0926885
1138,7598;0,0916564
1139,7240;0,0909572
1140,6882;0,0905615
1141,6525;0,0904275
1142,6167;0,0905092
1143,5809;0,0907624
1144,5452;0,0911475
1145,5094;0,0916314
1146,4736;0,0921904
1147,4379;0,0928131
1148,4021;0,0935006
1149,3663;0,0942606
1150,3306;0,0950969
1151,2948;0,0959975
1152,2590;0,09693
1153,2233;0,0978448
1154,1875;0,0986854
1155,1517;0,0993983
1156,1160;0,0999347
1157,0802;0,100244
1158,0444;0,100262
1159,0087;0,0999041
1159,9729;0,0990735
1160,9371;0,0976797
1161,9014;0,0956674
1162,8656;0,0930404
1163,8298;0,0898713
1164,7941;0,0862936
1165,7583;0,0824785
1166,7225;0,0786061
1167,6868;0,0748383
1168,6510;0,0712996
1169,6152;0,0680691
1170,5795;0,065182
1171,5437;0,0626395
1172,5079;0,0604209
1173,4722;0,058496
1174,4364;0,0568323
1175,4006;0,0553989
1176,3649;0,0541671
1177,3291;0,0531109
1178,2933;0,0522075
1179,2576;0,051438
1180,2218;0,0507877
1181,1860;0,0502456
1182,1503;0,0498036
1183,1145;0,0494562
1184,0787;0,0492011
1185,0430;0,049039
1186,0072;0,0489734
1186,9714;0,0490092
1187,9357;0,0491509
1188,8999;0,0494013
1189,8641;0,0497604
1190,8284;0,0502248
1191,7926;0,050788
1192,7568;0,0514418
1193,7211;0,0521783
1194,6853;0,05299
1195,6495;0,0538685
1196,6138;0,0548011
1197,5780;0,0557684
1198,5422;0,0567455
1199,5065;0,0574699
1200,4707;0,0584252
1201,4349;0,0593378
1202,3992;0,0602041
1203,3634;0,0610215
1204,3276;0,0617835
1205,2919;0,0624804
1206,2561;0,0631065
1207,2203;0,0636692
1208,1846;0,0641942
1209,1488;0,0647224
1210,1130;0,0652999
1211,0773;0,0659656
1212,0415;0,0667434
1213,0057;0,0676394
1213,9700;0,0686462
1214,9342;0,0697477
1215,8984;0,0709238
1216,8627;0,0721494
1217,8269;0,0733959
1218,7911;0,0746362
1219,7554;0,0758483
1220,7196;0,0770191
1221,6838;0,0781449
1222,6481;0,0792275
1223,6123;0,0802696
1224,5765;0,0812707
1225,5408;0,0822284
1226,5050;0,0831406
1227,4692;0,0840077
1228,4335;0,084832
1229,3977;0,0856136
1230,3619;0,0863471
1231,3262;0,0870221
1232,2904;0,0876258
1233,2546;0,0881491
1234,2189;0,088589
1235,1831;0,0889494
1236,1473;0,0892384
1237,1116;0,0894654
1238,0758;0,0896383
1239,0400;0,0897621
1240,0043;0,0898379
1240,9685;0,089862
1241,9327;0,0898276
1242,8970;0,0897262
1243,8612;0,0895511
1244,8254;0,0892998
1245,7897;0,0889757
1246,7539;0,0885878
1247,7181;0,0881491
1248,6824;0,0876743
1249,6466;0,0871776
1250,6108;0,0866709
1251,5751;0,0861644
1252,5393;0,0856675
1253,5035;0,0851901
1254,4678;0,0847416
1255,4320;0,0843259
1256,3962;0,0839365
1257,3605;0,0835539
1258,3247;0,0831492
1259,2889;0,0826935
1260,2532;0,0821681
1261,2174;0,0815711
1262,1816;0,0809146
1263,1459;0,0802166
1264,1101;0,0794929
1265,0743;0,0787525
1266,0386;0,0779984
1267,0028;0,0772295
1267,9670;0,0764425
1268,9313;0,0756335
1269,8955;0,0747994
1270,8597;0,0739396
1271,8240;0,0730582
1272,7882;0,072165
1273,7524;0,0712754
1274,7167;0,0704071
1275,6809;0,0695765
1276,6451;0,0687932
1277,6094;0,0680542
1278,5736;0,067343
1279,5378;0,0666344
1280,5021;0,0659061
1281,4663;0,0651508
1282,4305;0,064382
1283,3948;0,0636287
1284,3590;0,0629232
1285,3232;0,062288
1286,2875;0,0617296
1287,2517;0,0612403
1288,2159;0,0608067
1289,1802;0,0604184
1290,1444;0,0600729
1291,1086;0,0597761
1292,0729;0,0595394
1293,0371;0,0593767
1294,0013;0,0593016
1294,9656;0,0593244
1295,9298;0,05945
1296,8940;0,0596767
1297,8583;0,0599985
1298,8225;0,0604079
1299,7867;0,0608987
1300,7510;0,0614655
1301,7152;0,0621058
1302,6794;0,0628144
1303,6437;0,0635841
1304,6079;0,0644084
1305,5721;0,0652819
1306,5364;0,0661999
1307,5006;0,0671577
1308,4648;0,0681477
1309,4291;0,0691566
1310,3933;0,0701628
1311,3575;0,0711357
1312,3218;0,0720389
1313,2860;0,0728364
1314,2502;0,0734962
1315,2145;0,0739894
1316,1787;0,0742873
1317,1429;0,0743637
1318,1072;0,0742087
1319,0714;0,0738462
1320,0356;0,0733396
1320,9999;0,0727743
1321,9641;0,0722273
1322,9283;0,0717465
1323,8926;0,0713497
1324,8568;0,0710369
1325,8210;0,0708033
1326,7853;0,0706451
1327,7495;0,0705574
1328,7137;0,0705299
1329,6780;0,070543
1330,6422;0,0705717
1331,6064;0,0705928
1332,5707;0,070591
1333,5349;0,0705631
1334,4991;0,0705087
1335,4634;0,0704148
1336,4276;0,0702401
1337,3918;0,0699086
1338,3561;0,0693352
1339,3203;0,06849
1340,2845;0,0674482
1341,2488;0,0663596
1342,2130;0,0653594
1343,1772;0,0645133
1344,1415;0,0638278
1345,1057;0,0632863
1346,0699;0,0628743
1347,0342;0,062588
1347,9984;0,062434
1348,9626;0,0624214
1349,9269;0,0625515
1350,8911;0,0628096
1351,8553;0,063166
1352,8196;0,0635847
1353,7838;0,0640378
1354,7480;0,0645148
1355,7123;0,0650241
1356,6765;0,0655818
1357,6407;0,0662001
1358,6050;0,0668812
1359,5692;0,0676148
1360,5334;0,0683677
1361,4977;0,0690764
1362,4619;0,0696786
1363,4261;0,0701679
1364,3904;0,0705981
1365,3546;0,0710257
1366,3188;0,071466
1367,2831;0,0718954
1368,2473;0,0722743
1369,2115;0,0725661
1370,1758;0,072747
1371,1400;0,0728028
1372,1042;0,0727176
1373,0685;0,0724692
1374,0327;0,0720445
1374,9969;0,0714663
1375,9612;0,0707877
1376,9254;0,0700434
1377,8896;0,0692186
1378,8539;0,0682777
1379,8181;0,0672194
1380,7823;0,0661029
1381,7466;0,0650182
1382,7108;0,0640247
1383,6750;0,0631164
1384,6393;0,0622378
1385,6035;0,0613329
1386,5677;0,0604
1387,5320;0,0595235
1388,4962;0,0588289
1389,4604;0,0583792
1390,4247;0,0581338
1391,3889;0,0580121
1392,3531;0,057966
1393,3174;0,0579929
1394,2816;0,0580936
1395,2458;0,0582342
1396,2101;0,0583567
1397,1743;0,0584282
1398,1385;0,0584734
1399,1028;0,05856
1400,0670;0,0587525
1401,0313;0,0590732
1401,9955;0,0594986
1402,9597;0,0599828
1403,9240;0,0604858
1404,8882;0,0609891
1405,8524;0,061499
1406,8167;0,0620322
1407,7809;0,0625929
1408,7451;0,0631667
1409,7094;0,0637405
1410,6736;0,0643236
1411,6378;0,0649424
1412,6021;0,0656122
1413,5663;0,0663093
1414,5305;0,0669756
1415,4948;0,0675517
1416,4590;0,0680005
1417,4232;0,0683041
1418,3875;0,0684768
1419,3517;0,0686096
1420,3159;0,0688221
1421,2802;0,0691174
1422,2444;0,0693593
1423,2086;0,0693946
1424,1729;0,0691602
1425,1371;0,0686979
1426,1013;0,0680925
1427,0656;0,0674001
1428,0298;0,0666261
1428,9940;0,065764
1429,9583;0,0648463
1430,9225;0,0639403
1431,8867;0,0630765
1432,8510;0,0621986
1433,8152;0,0611989
1434,7794;0,0600035
1435,7437;0,0586625
1436,7079;0,057407
1437,6721;0,0565525
1438,6364;0,0562394
1439,6006;0,0563301
1440,5648;0,0565798
1441,5291;0,0568248
1442,4933;0,057032
1443,4575;0,0572486
1444,4218;0,057526
1445,3860;0,0578732
1446,3502;0,0582616
1447,3145;0,0586655
1448,2787;0,0590978
1449,2429;0,0595992
1450,2072;0,0601788
1451,1714;0,0607675
1452,1356;0,061243
1453,0999;0,0615064
1454,0641;0,0615434
1455,0283;0,0613964
1455,9926;0,0610214
1456,9568;0,060287
1457,9210;0,0594255
1458,8853;0,0589824
1459,8495;0,0590557
1460,8137;0,0592895
1461,7780;0,0593189
1462,7422;0,0589518
1463,7064;0,0581556
1464,6707;0,0570426
1465,6349;0,0558543
1466,5991;0,0548104
1467,5634;0,0539211
1468,5276;0,0530131
1469,4918;0,0518903
1470,4561;0,0504229
1471,4203;0,0485371
1472,3845;0,0462316
1473,3488;0,0437188
1474,3130;0,0414242
1475,2772;0,0396429
1476,2415;0,0383511
1477,2057;0,0373709
1478,1699;0,03655
1479,1342;0,0358075
1480,0984;0,0351158
1481,0626;0,0344834
1482,0269;0,0339466
1482,9911;0,0335514
1483,9553;0,0333279
1484,9196;0,0332797
1485,8838;0,0333948
1486,8480;0,0336437
1487,8123;0,0339391
1488,7765;0,0341368
1489,7407;0,0341942
1490,7050;0,0342705
1491,6692;0,0345274
1492,6334;0,0349657
1493,5977;0,035513
1494,5619;0,0361498
1495,5261;0,0369311
1496,4904;0,0379107
1497,4546;0,0390701
1498,4188;0,0403509
1499,3831;0,0416925
1500,3473;0,0429782
1501,3115;0,0440313
1502,2758;0,0447138
1503,2400;0,0450382
1504,2042;0,0452325
1505,1685;0,0456632
1506,1327;0,0464172
1507,0969;0,046921
1508,0612;0,0468012
1509,0254;0,0465161
1509,9896;0,0463999
1510,9539;0,0463746
1511,9181;0,0463063
1512,8823;0,046161
1513,8466;0,0459687
1514,8108;0,0457426
1515,7750;0,0454389
1516,7393;0,0449889
1517,7035;0,0443639
1518,6677;0,0436062
1519,6320;0,0428153
1520,5962;0,0421122
1521,5604;0,0416021
1522,5247;0,0413327
1523,4889;0,0412675
1524,4531;0,0413178
1525,4174;0,041414
1526,3816;0,0415462
1527,3458;0,0417368
1528,3101;0,0419868
1529,2743;0,0422672
1530,2385;0,0425673
1531,2028;0,0429383
1532,1670;0,0434629
1533,1312;0,0441612
1534,0955;0,0449374
1535,0597;0,0456327
1536,0239;0,0461237
1536,9882;0,0464165
1537,9524;0,0467099
1538,9166;0,0473086
1539,8809;0,0482056
1540,8451;0,0487638
1541,8093;0,0485766
1542,7736;0,0480761
1543,7378;0,0476648
1544,7020;0,0473878
1545,6663;0,0472028
1546,6305;0,0470989
1547,5947;0,0470619
1548,5590;0,0470443
1549,5232;0,046987
1550,4874;0,046864
1551,4517;0,0467031
1552,4159;0,0465507
1553,3801;0,0464063
1554,3444;0,0461993
1555,3086;0,0458345
1556,2728;0,0452298
1557,2371;0,0442395
1558,2013;0,0426845
1559,1655;0,0410626
1560,1298;0,0405062
1561,0940;0,0412116
1562,0582;0,0424881
1563,0225;0,0437048
1563,9867;0,044573
1564,9509;0,0450551
1565,9152;0,0452474
1566,8794;0,0453013
1567,8436;0,0453692
1568,8079;0,0455685
1569,7721;0,0459575
1570,7363;0,0465104
1571,7006;0,0471167
1572,6648;0,0476503
1573,6290;0,0480598
1574,5933;0,0483899
1575,5575;0,0487125
1576,5217;0,0490727
1577,4860;0,0495268
1578,4502;0,0501117
1579,4144;0,05076
1580,3787;0,0513578
1581,3429;0,0518533
1582,3071;0,052283
1583,2714;0,0527286
1584,2356;0,0532587
1585,1998;0,0538989
1586,1641;0,0546334
1587,1283;0,0554258
1588,0925;0,0562348
1589,0568;0,0570185
1590,0210;0,0577357
1590,9852;0,0583481
1591,9495;0,0588206
1592,9137;0,0591226
1593,8779;0,0592347
1594,8422;0,0591635
1595,8064;0,0589509
1596,7706;0,0586635
1597,7349;0,0583671
1598,6991;0,0581025
1599,6633;0,0578797
1600,6276;0,057689
1601,5918;0,0575207
1602,5560;0,0573812
1603,5203;0,057291
1604,4845;0,0572645
1605,4487;0,0572922
1606,4130;0,0573457
1607,3772;0,0574052
1608,3414;0,0574863
1609,3057;0,057637
1610,2699;0,0578921
1611,2341;0,0582217
1612,1984;0,0585377
1613,1626;0,0587638
1614,1268;0,058903
1615,0911;0,0590459
1616,0553;0,0593161
1617,0195;0,0598112
1617,9838;0,0605512
1618,9480;0,0614381
1619,9122;0,0623127
1620,8765;0,0630716
1621,8407;0,0637103
1622,8049;0,0642775
1623,7692;0,0648148
1624,7334;0,0653428
1625,6976;0,0658765
1626,6619;0,066434
1627,6261;0,0670337
1628,5903;0,0676748
1629,5546;0,0683094
1630,5188;0,0688437
1631,4830;0,0691908
1632,4473;0,0693447
1633,4115;0,0694158
1634,3757;0,0695541
1635,3400;0,0697887
1636,3042;0,070053
1637,2684;0,0703935
1638,2327;0,0708794
1639,1969;0,0714365
1640,1611;0,0719258
1641,1254;0,0722513
1642,0896;0,0723893
1643,0538;0,0723893
1644,0181;0,0723629
1644,9823;0,0724179
1645,9465;0,0725449
1646,9108;0,0726279
1647,8750;0,0725845
1648,8392;0,0723427
1649,8035;0,071775
1650,7677;0,0707769
1651,7319;0,0693211
1652,6962;0,0674678
1653,6604;0,0656654
1654,6246;0,0647201
1655,5889;0,0647444
1656,5531;0,0651111
1657,5173;0,0652439
1658,4816;0,0648981
1659,4458;0,0640742
1660,4100;0,0628891
1661,3743;0,0615049
1662,3385;0,0601236
1663,3027;0,0589515
1664,2670;0,0580745
1665,2312;0,0574014
1666,1954;0,0567512
1667,1597;0,055957
1668,1239;0,0549123
1669,0881;0,0536129
1670,0524;0,0522046
1671,0166;0,0508928
1671,9808;0,049733
1672,9451;0,0486046
1673,9093;0,0473956
1674,8735;0,04617
1675,8378;0,045165
1676,8020;0,0445955
1677,7662;0,0444376
1678,7305;0,0444335
1679,6947;0,0442687
1680,6589;0,0437116
1681,6232;0,0426327
1682,5874;0,0409835
1683,5516;0,0389254
1684,5159;0,0370374
1685,4801;0,0359232
1686,4443;0,0355724
1687,4086;0,0355348
1688,3728;0,0354068
1689,3370;0,0350182
1690,3013;0,0343911
1691,2655;0,0336405
1692,2297;0,0328947
1693,1940;0,0322582
1694,1582;0,0317929
1695,1224;0,0314852
1696,0867;0,031213
1697,0509;0,0307781
1698,0151;0,0300546
1698,9794;0,0291637
1699,9436;0,0284691
1700,9078;0,0283036
1701,8721;0,0286984
1702,8363;0,029404
1703,8005;0,0301053
1704,7648;0,0305971
1705,7290;0,0308495
1706,6932;0,0309839
1707,6575;0,0311749
1708,6217;0,0315281
1709,5859;0,0320328
1710,5502;0,0326103
1711,5144;0,0331832
1712,4786;0,0337086
1713,4429;0,0341697
1714,4071;0,0345347
1715,3713;0,0347006
1716,3356;0,0345203
1717,2998;0,0340457
1718,2640;0,0336602
1719,2283;0,0336936
1720,1925;0,0341076
1721,1567;0,0346538
1722,1210;0,0351156
1723,0852;0,0354018
1724,0494;0,0355408
1725,0137;0,0356356
1725,9779;0,0357992
1726,9421;0,0360906
1727,9064;0,0364808
1728,8706;0,0368646
1729,8348;0,0371015
1730,7991;0,0370552
1731,7633;0,0366214
1732,7275;0,0357877
1733,6918;0,034758
1734,6560;0,0339229
1735,6202;0,0335081
1736,5845;0,0333724
1737,5487;0,0332113
1738,5129;0,0328104
1739,4772;0,0321393
1740,4414;0,0313221
1741,4056;0,030535
1742,3699;0,0298828
1743,3341;0,029345
1744,2983;0,0288257
1745,2626;0,0282307
1746,2268;0,0274926
1747,1910;0,0265416
1748,1553;0,0252877
1749,1195;0,0236954
1750,0837;0,0219205
1751,0480;0,0202868
1752,0122;0,0190413
1752,9764;0,01819
1753,9407;0,017573
1754,9049;0,0170187
1755,8691;0,0164335
1756,8334;0,0158075
1757,7976;0,0151684
1758,7618;0,0145271
1759,7261;0,0138619
1760,6903;0,0131544
1761,6545;0,0124385
1762,6188;0,0118026
1763,5830;0,0113263
1764,5472;0,0110175
1765,5115;0,010815
1766,4757;0,0106401
1767,4399;0,01044
1768,4042;0,0101954
1769,3684;0,00989933
1770,3326;0,00953523
1771,2969;0,00908963
1772,2611;0,00861059
1773,2253;0,00822871
1774,1896;0,00805747
1775,1538;0,00808589
1776,1180;0,00820208
1777,0823;0,00828936
1778,0465;0,00828693
1779,0107;0,00819144
1779,9750;0,00802784
1780,9392;0,00782159
1781,9034;0,00759006
1782,8677;0,00735373
1783,8319;0,00715208
1784,7961;0,00703964
1785,7604;0,00705352
1786,7246;0,0071792
1787,6888;0,00735206
1788,6531;0,00749636
1789,6173;0,00756377
1790,5815;0,0075402
1791,5458;0,00743625
1792,5100;0,0073014
1793,4742;0,00722438
1794,4385;0,0072567
1795,4027;0,00735541
1796,3669;0,00743138
1797,3312;0,00742489
1798,2954;0,00733112
1799,2596;0,00717925
1800,2239;0,00700315
1801,1881;0,00683086
1802,1523;0,00668747
1803,1166;0,00659338
1804,0808;0,00655932
1805,0450;0,0065852
1806,0093;0,0066609
1806,9735;0,00676511
1807,9377;0,00686385
1808,9020;0,00691505
1809,8662;0,00688513
1810,8304;0,00677181
1811,7947;0,00661013
1812,7589;0,0064487
1813,7231;0,00631927
1814,6874;0,00622912
1815,6516;0,00617317
1816,6158;0,00614636
1817,5801;0,00614737
1818,5443;0,00617617
1819,5085;0,00622883
1820,4728;0,00629443
1821,4370;0,00635929
1822,4012;0,00641526
1823,3655;0,0064639
1824,3297;0,00651402
1825,2939;0,0065729
1826,2582;0,00663271
1827,2224;0,00666146
1828,1866;0,00661188
1829,1509;0,0064543
1830,1151;0,00621889
1831,0793;0,00599799
1832,0436;0,00587903
1833,0078;0,00587758
1833,9720;0,00594527
1834,9363;0,00602463
1835,9005;0,00608752
1836,8647;0,00613897
1837,8290;0,00619616
1838,7932;0,00626156
1839,7574;0,00631399
1840,7217;0,00632908
1841,6859;0,00630586
1842,6501;0,00626701
1843,6144;0,00623443
1844,5786;0,00621702
1845,5428;0,00621705
1846,5071;0,00622119
1847,4713;0,00619205
1848,4355;0,00609459
1849,3998;0,00593014
1850,3640;0,00574074
1851,3282;0,00558302
1852,2925;0,00549446
1853,2567;0,00547841
1854,2209;0,00551414
1855,1852;0,0055776
1856,1494;0,00565343
1857,1136;0,00573421
1858,0779;0,00581142
1859,0421;0,00587296
1860,0063;0,00591092
1860,9706;0,00593216
1861,9348;0,00595903
1862,8990;0,00601774
1863,8633;0,00612396
1864,8275;0,00627586
1865,7917;0,00644954
1866,7560;0,0065896
1867,7202;0,00661513
1868,6844;0,00647582
1869,6487;0,00621778
1870,6129;0,00595404
1871,5771;0,00576625
1872,5414;0,00566302
1873,5056;0,00561191
1874,4698;0,00558036
1875,4341;0,00555159
1876,3983;0,00552476
1877,3625;0,00550867
1878,3268;0,00551519
1879,2910;0,00555087
1880,2552;0,00561279
1881,2195;0,00568965
1882,1837;0,00576722
1883,1479;0,0058348
1884,1122;0,00588857
1885,0764;0,00592981
1886,0406;0,00596026
1887,0049;0,00597808
1887,9691;0,00597775
1888,9333;0,00595675
1889,8976;0,00592549
1890,8618;0,00590647
1891,8260;0,00591751
1892,7903;0,0059557
1893,7545;0,00599717
1894,7188;0,00601071
1895,6830;0,00597577
1896,6472;0,00589591
1897,6115;0,00579793
1898,5757;0,00571614
1899,5399;0,00567472
1900,5042;0,00568018
1901,4684;0,00572404
1902,4326;0,00579028
1903,3969;0,00586297
1904,3611;0,00593071
1905,3253;0,00598671
1906,2896;0,00602625
1907,2538;0,00604454
1908,2180;0,00603683
1909,1823;0,0060018
1910,1465;0,0059456
1911,1107;0,00588085
1912,0750;0,00581924
1913,0392;0,00576617
1914,0034;0,00572407
1914,9677;0,00569893
1915,9319;0,00570044
1916,8961;0,00573508
1917,8604;0,00580082
1918,8246;0,00588697
1919,7888;0,00597467
1920,7531;0,00603765
1921,7173;0,00604894
1922,6815;0,00599362
1923,6458;0,00588079
1924,6100;0,00574511
1925,5742;0,00563169
1926,5385;0,00557321
1927,5027;0,00557629
1928,4669;0,0056238
1929,4312;0,0056864
1930,3954;0,00573842
1931,3596;0,00577205
1932,3239;0,00579881
1933,2881;0,00583703
1934,2523;0,00589316
1935,2166;0,00595141
1936,1808;0,00598144
1937,1450;0,0059605
1938,1093;0,00589461
1939,0735;0,00582336
1940,0377;0,00580243
1941,0020;0,00586897
1941,9662;0,00600912
1942,9304;0,00615704
1943,8947;0,0062349
1944,8589;0,00620195
1945,8231;0,00607298
1946,7874;0,00590272
1947,7516;0,0057562
1948,7158;0,00568048
1949,6801;0,0056858
1950,6443;0,00574312
1951,6085;0,00580037
1952,5728;0,00581009
1953,5370;0,00575472
1954,5012;0,00565648
1955,4655;0,00556587
1956,4297;0,00553307
1957,3939;0,00557802
1958,3582;0,00567779
1959,3224;0,00578112
1960,2866;0,0058429
1961,2509;0,0058548
1962,2151;0,00584704
1963,1793;0,00585854
1964,1436;0,00589952
1965,1078;0,00593539
1966,0720;0,00590481
1967,0363;0,00576213
1968,0005;0,00551356
1968,9647;0,00521698
1969,9290;0,00494864
1970,8932;0,00477065
1971,8574;0,00472275
1972,8217;0,00483005
1973,7859;0,00510386
1974,7501;0,00552318
1975,7144;0,00601495
1976,6786;0,00645819
1977,6428;0,0067308
1978,6071;0,00677406
1979,5713;0,00662428
1980,5355;0,00638598
1981,4998;0,00617163
1982,4640;0,00605069
1983,4282;0,00602983
1984,3925;0,0060641
1985,3567;0,00608815
1986,3209;0,00605294
1987,2852;0,0059512
1988,2494;0,00582096
1989,2136;0,0057271
1990,1779;0,0057295
1991,1421;0,00585145
1992,1063;0,00606503
1993,0706;0,00630389
1994,0348;0,00649485
1994,9990;0,00658687
1995,9633;0,00656344
1996,9275;0,00644039
1997,8917;0,0062575
1998,8560;0,00606871
1999,8202;0,00593069
2000,7844;0,00588979
2001,7487;0,0059701
2002,7129;0,00616743
2003,6771;0,00645153
2004,6414;0,00677441
2005,6056;0,00707913
2006,5698;0,00730682
2007,5341;0,00740169
2008,4983;0,00732202
2009,4625;0,00706196
2010,4268;0,00667557
2011,3910;0,00628308
2012,3552;0,00604173
2013,3195;0,00608333
2014,2837;0,00644388
2015,2479;0,00702619
2016,2122;0,00763144
2017,1764;0,00805756
2018,1406;0,00820576
2019,1049;0,00811834
2020,0691;0,00792478
2021,0333;0,00774795
2021,9976;0,00764097
2022,9618;0,00758682
2023,9260;0,00754217
2024,8903;0,00748192
2025,8545;0,00741058
2026,8187;0,00734158
2027,7830;0,00727419
2028,7472;0,00719477
2029,7114;0,00709968
2030,6757;0,007014
2031,6399;0,00698499
2032,6041;0,00705419
2033,5684;0,00723436
2034,5326;0,00750938
2035,4968;0,00785086
2036,4611;0,00822685
2037,4253;0,00859453
2038,3895;0,00888808
2039,3538;0,00902704
2040,3180;0,00895238
2041,2822;0,00866966
2042,2465;0,00826373
2043,2107;0,0078659
2044,1749;0,00759378
2045,1392;0,00750332
2046,1034;0,00757783
2047,0676;0,00775026
2048,0320;0,00793884
2048,9961;0,00807614
2049,9604;0,00812177
2050,9246;0,00806282
2051,8889;0,00791133
2052,8530;0,007702
2053,8174;0,00748527
2054,7815;0,00731114
2055,7458;0,00721106
2056,7100;0,00718835
2057,6743;0,00722677
2058,6384;0,00731007
2059,6028;0,00743526
2060,5669;0,00760791
2061,5313;0,00782395
2062,4954;0,00805458
2063,4597;0,0082494
2064,4238;0,0083587
2065,3882;0,00836018
2066,3523;0,00827048
2067,3167;0,00813423
2068,2808;0,00800107
2069,2451;0,00790751
2070,2092;0,00787199
2071,1736;0,00789843
2072,1377;0,00797809
2073,1021;0,00808848
2074,0662;0,00819262
2075,0305;0,00824774
2075,9946;0,00822335
2076,9590;0,00811946
2077,9231;0,00797082
2078,8875;0,00783174
2079,8516;0,00774959
2080,8159;0,00774359
2081,7800;0,00780139
2082,7444;0,00789268
2083,7085;0,00798791
2084,6729;0,00806867
2085,6370;0,00812668
2086,6013;0,00815608
2087,5654;0,00814972
2088,5298;0,00810337
2089,4939;0,00802378
2090,4583;0,00793245
2091,4224;0,00785985
2092,3867;0,007833
2093,3508;0,00786391
2094,3152;0,00794564
2095,2793;0,00805712
2096,2437;0,00817287
2097,2078;0,0082708
2098,1721;0,00833511
2099,1362;0,00835584
2100,1006;0,00833122
2101,0647;0,00826472
2102,0291;0,00817922
2102,9932;0,00810593
2103,9575;0,00807439
2104,9216;0,0080968
2105,8860;0,00815906
2106,8501;0,00822633
2107,8145;0,00826197
2108,7786;0,00824844
2109,7429;0,00819614
2110,7070;0,00813433
2111,6714;0,00809077
2112,6355;0,00807521
2113,5999;0,0080783
2114,5640;0,00808486
2115,5283;0,0080896
2116,4924;0,00810217
2117,4568;0,00813836
2118,4209;0,00820576
2119,3853;0,00829663
2120,3494;0,00839393
2121,3137;0,00848498
2122,2778;0,00856997
2123,2422;0,0086567
2124,2063;0,00874515
2125,1707;0,00881566
2126,1348;0,00883343
2127,0991;0,00877038
2128,0632;0,00863067
2129,0276;0,00846158
2129,9917;0,00833919
2130,9561;0,00833415
2131,9202;0,00847472
2132,8845;0,00872756
2133,8486;0,00900871
2134,8130;0,00922222
2135,7771;0,00930642
2136,7415;0,00926041
2137,7056;0,00913605
2138,6699;0,00900523
2139,6340;0,00892631
2140,5984;0,00892761
2141,5625;0,00900907
2142,5269;0,00915171
2143,4910;0,00932517
2144,4553;0,00949178
2145,4194;0,00961352
2146,3838;0,00966626
2147,3479;0,00965581
2148,3123;0,00962215
2149,2764;0,0096225
2150,2407;0,00969982
2151,2048;0,00985727
2152,1692;0,0100579
2153,1333;0,0102516
2154,0977;0,0104116
2155,0618;0,0105555
2156,0261;0,0107341
2156,9902;0,0109904
2157,9546;0,0113118
2158,9187;0,0116147
2159,8831;0,0117887
2160,8472;0,0117657
2161,8115;0,011554
2162,7756;0,0112196
2163,7400;0,0108489
2164,7041;0,0105168
2165,6685;0,0102685
2166,6326;0,0101131
2167,5969;0,010029
2168,5610;0,00998002
2169,5254;0,00993224
2170,4895;0,00986556
2171,4539;0,0097766
2172,4180;0,00967625
2173,3823;0,00958667
2174,3464;0,00953891
2175,3108;0,0095676
2176,2749;0,00969867
2177,2393;0,00993209
2178,2034;0,010229
2179,1677;0,0105147
2180,1318;0,0107012
2181,0962;0,0107239
2182,0603;0,0105709
2183,0247;0,0102887
2183,9888;0,00995662
2184,9531;0,00964949
2185,9172;0,009413
2186,8816;0,00926438
2187,8457;0,00920805
2188,8101;0,00924736
2189,7742;0,00938083
2190,7385;0,00958783
2191,7026;0,00981978
2192,6670;0,0100092
2193,6311;0,0100956
2194,5955;0,0100517
2195,5596;0,0098952
2196,5239;0,00967712
2197,4880;0,00945787
2198,4524;0,00928502
2199,4165;0,0091834
2200,3809;0,00915658
2201,3450;0,00919114
2202,3093;0,00925814
2203,2734;0,00931393
2204,2378;0,00930785
2205,2019;0,00920096
2206,1663;0,00898947
2207,1304;0,00871834
2208,0947;0,00847221
2209,0588;0,00834251
2210,0232;0,00838483
2210,9873;0,00858887
2211,9517;0,00887832
2212,9158;0,00914298
2213,8801;0,00928804
2214,8442;0,00927519
2215,8086;0,00913409
2216,7727;0,00893936
2217,7371;0,00876824
2218,7012;0,00866418
2219,6655;0,00862593
2220,6296;0,00862344
2221,5940;0,00862491
2222,5581;0,00861478
2223,5225;0,00859279
2224,4866;0,00856097
2225,4509;0,00851389
2226,4150;0,00844202
2227,3794;0,00834388
2228,3435;0,0082387
2229,3079;0,00816007
2230,2720;0,00813764
2231,2363;0,00817809
2232,2004;0,00825934
2233,1648;0,00834243
2234,1289;0,00839275
2235,0933;0,00839736
2236,0574;0,00836866
2237,0217;0,0083341
2237,9858;0,00831961
2238,9502;0,0083359
2239,9143;0,00837407
2240,8787;0,00841161
2241,8428;0,00842553
2242,8071;0,00840625
2243,7712;0,00836475
2244,7356;0,00832826
2245,6997;0,00832592
2246,6641;0,00837241
2247,6282;0,00846009
2248,5925;0,00856486
2249,5566;0,00866172
2250,5210;0,00873885
2251,4851;0,00880017
2252,4495;0,00885597
2253,4136;0,00891013
2254,3779;0,00895509
2255,3420;0,00897865
2256,3064;0,00897597
2257,2705;0,00895581
2258,2349;0,00893531
2259,1990;0,00892789
2260,1633;0,00893448
2261,1274;0,00894443
2262,0918;0,00894451
2263,0559;0,00892798
2264,0203;0,00889741
2264,9844;0,00886104
2265,9487;0,00882771
2266,9128;0,00880464
2267,8772;0,00879756
2268,8413;0,00880959
2269,8057;0,00883762
2270,7698;0,00886921
2271,7341;0,00888515
2272,6982;0,00886827
2273,6626;0,00881311
2274,6267;0,00872907
2275,5911;0,00863407
2276,5552;0,00854393
2277,5195;0,00846615
2278,4836;0,00840255
2279,4480;0,00835725
2280,4121;0,00834158
2281,3765;0,00837066
2282,3406;0,00845421
2283,3049;0,00858928
2284,2690;0,00876111
2285,2334;0,00895139
2286,1975;0,00914821
2287,1619;0,00935073
2288,1260;0,00956645
2289,0903;0,00980318
2290,0544;0,0100618
2291,0188;0,0103341
2291,9829;0,010607
2292,9473;0,0108697
2293,9114;0,0111183
2294,8757;0,0113558
2295,8398;0,0115849
2296,8042;0,0117997
2297,7683;0,0119815
2298,7327;0,0121039
2299,6968;0,0121463
2300,6611;0,0121106
2301,6252;0,0120299
2302,5896;0,0119631
2303,5537;0,0119744
2304,5181;0,0121065
2305,4822;0,0123558
2306,4465;0,0126638
2307,4106;0,0129304
2308,3750;0,0130484
2309,3391;0,0129454
2310,3035;0,0126158
2311,2676;0,012124
2312,2319;0,0115777
2313,1960;0,0110812
2314,1604;0,0106939
2315,1245;0,0104166
2316,0889;0,0102101
2317,0530;0,0100292
2318,0173;0,00985291
2318,9814;0,00969388
2319,9458;0,00959059
2320,9099;0,00959059
2321,8743;0,00973324
2322,8384;0,0100289
2323,8027;0,0104359
2324,7668;0,0108537
2325,7312;0,0111519
2326,6953;0,0112233
2327,6597;0,011033
2328,6238;0,010637
2329,5881;0,0101656
2330,5522;0,00977588
2331,5166;0,00958617
2332,4807;0,00962302
2333,4451;0,00981641
2334,4092;0,0100519
2335,3735;0,0102446
2336,3376;0,0103865
2337,3020;0,0105435
2338,2661;0,0108057
2339,2305;0,0112158
2340,1946;0,011706
2341,1589;0,0120768
2342,1230;0,0120666
2343,0874;0,0115777
2344,0515;0,0109532
2345,0159;0,0108606
2345,9800;0,011679
2346,9443;0,0131183
2347,9084;0,0144861
2348,8728;0,015179
2349,8369;0,0149821
2350,8013;0,0141192
2351,7654;0,0131024
2352,7297;0,0124329
2353,6938;0,0123054
2354,6582;0,012573
2355,6223;0,0129954
2356,5867;0,013432
2357,5508;0,0138024
2358,5151;0,0139989
2359,4792;0,0139187
2360,4436;0,013548
2361,4077;0,0129569
2362,3721;0,0122154
2363,3362;0,0113499
2364,3005;0,0103817
2365,2646;0,00937011
2366,2290;0,00839889
2367,1931;0,0075272
2368,1575;0,00676758
2369,1216;0,00610843
2370,0859;0,00554894
2371,0500;0,005113
2372,0144;0,00483994
2372,9785;0,00476816
2373,9429;0,00492345
2374,9070;0,00531155
2375,8713;0,005912
2376,8354;0,00667458
2377,7998;0,00752209
2378,7639;0,00836096
2379,7283;0,00909724
2380,6924;0,00965355
2381,6567;0,00998303
2382,6208;0,0100772
2383,5852;0,00996591
2384,5493;0,00970867
2385,5137;0,00937931
2386,4778;0,00904799
2387,4421;0,00876641
2388,4063;0,00856072
2389,3706;0,00843328
2390,3347;0,00837045
2391,2991;0,00835183
2392,2632;0,00835727
2393,2275;0,00837085
2394,1917;0,00838261
2395,1560;0,00838936
2396,1201;0,00839443
2397,0845;0,00840576
2398,0486;0,00843397
2399,0129;0,0084828
2399,9771;0,00854762
2400,9414;0,00861773
2401,9055;0,00867913
2402,8699;0,00872199
2403,8340;0,00874339
2404,7983;0,00874712
2405,7625;0,00874047
2406,7268;0,00873026
2407,6909;0,00872303
2408,6553;0,00872606
2409,6194;0,00874648
2410,5837;0,00879054
2411,5479;0,00885878
2412,5122;0,0089427
2413,4763;0,00902509
2414,4407;0,00908577
2415,4048;0,00910971
2416,3691;0,00909375
2417,3333;0,00904814
2418,2976;0,00899217
2419,2617;0,0089468
2420,2261;0,00892735
2421,1902;0,00893901
2422,1545;0,00897871
2423,1187;0,00903767
2424,0830;0,00910516
2425,0471;0,00917086
2426,0115;0,00922624
2426,9756;0,00926587
2427,9399;0,0092891
2428,9041;0,00930115
2429,8684;0,00931193
2430,8325;0,00933174
2431,7969;0,00936551
2432,7610;0,00940903
2433,7253;0,00945037
2434,6895;0,00947665
2435,6538;0,00948237
2436,6179;0,0094738
2437,5823;0,0094662
2438,5464;0,0094754
2439,5107;0,00950918
2440,4749;0,00956412
2441,4392;0,00962924
2442,4033;0,0096932
2443,3677;0,00974955
2444,3318;0,00979706
2445,2961;0,00983648
2446,2603;0,00986763
2447,2246;0,00988962
2448,1887;0,00990331
2449,1531;0,00991298
2450,1172;0,00992458
2451,0815;0,00994189
2452,0457;0,00996383
2453,0100;0,00998591
2453,9741;0,0100048
2454,9385;0,0100221
2455,9026;0,0100437
2456,8669;0,0100746
2457,8311;0,0101132
2458,7954;0,0101504
2459,7595;0,0101746
2460,7239;0,0101804
2461,6880;0,0101734
2462,6523;0,0101682
2463,6165;0,0101801
2464,5808;0,010216
2465,5449;0,0102704
2466,5093;0,0103294
2467,4734;0,0103799
2468,4377;0,0104155
2469,4019;0,0104386
2470,3662;0,0104549
2471,3303;0,0104691
2472,2947;0,0104821
2473,2588;0,0104944
2474,2231;0,0105088
2475,1873;0,0105315
2476,1516;0,0105678
2477,1157;0,0106165
2478,0801;0,0106685
2479,0442;0,0107104
2480,0085;0,0107333
2480,9727;0,010739
2481,9370;0,0107401
2482,9011;0,0107525
2483,8655;0,0107851
2484,8296;0,0108344
2485,7939;0,0108859
2486,7581;0,0109228
2487,7224;0,0109348
2488,6865;0,0109228
2489,6509;0,0108972
2490,6150;0,010872
2491,5793;0,0108584
2492,5435;0,0108615
2493,5078;0,0108804
2494,4719;0,01091
2495,4363;0,0109444
2496,4004;0,0109784
2497,3647;0,0110103
2498,3289;0,0110408
2499,2932;0,0110722
2500,2573;0,0111055
2501,2217;0,0111391
2502,1858;0,0111693
2503,1501;0,0111942
2504,1143;0,0112156
2505,0786;0,0112381
2506,0427;0,0112633
2507,0071;0,011286
2507,9712;0,0112943
2508,9355;0,0112773
2509,8997;0,0112355
2510,8640;0,0111853
2511,8281;0,0111532
2512,7925;0,0111615
2513,7566;0,0112152
2514,7209;0,0112981
2515,6851;0,0113824
2516,6494;0,0114445
2517,6135;0,0114769
2518,5779;0,0114879
2519,5420;0,0114929
2520,5063;0,0115018
2521,4705;0,0115141
2522,4348;0,0115231
2523,3989;0,0115246
2524,3633;0,0115219
2525,3274;0,0115242
2526,2917;0,0115389
2527,2559;0,0115653
2528,2202;0,0115939
2529,1843;0,0116131
2530,1487;0,0116177
2531,1128;0,011612
2532,0771;0,0116073
2533,0413;0,0116138
2534,0056;0,0116347
2534,9697;0,0116642
2535,9341;0,0116926
2536,8982;0,0117119
2537,8625;0,0117193
2538,8267;0,0117165
2539,7910;0,0117068
2540,7551;0,0116924
2541,7195;0,011675
2542,6836;0,0116571
2543,6479;0,0116441
2544,6121;0,0116425
2545,5764;0,0116582
2546,5405;0,0116926
2547,5049;0,0117419
2548,4690;0,011797
2549,4333;0,0118471
2550,3975;0,0118824
2551,3618;0,0118982
2552,3259;0,0118958
2553,2903;0,0118819
2554,2544;0,0118657
2555,2188;0,0118548
2556,1829;0,0118531
2557,1472;0,0118604
2558,1113;0,0118743
2559,0757;0,011893
2560,0398;0,0119154
2561,0042;0,0119402
2561,9683;0,011965
2562,9326;0,0119855
2563,8967;0,0119973
2564,8611;0,0119984
2565,8252;0,01199
2566,7896;0,011977
2567,7537;0,0119652
2568,7180;0,0119597
2569,6821;0,0119621
2570,6465;0,0119712
2571,6106;0,0119835
2572,5750;0,0119963
2573,5391;0,01201
2574,5034;0,0120281
2575,4675;0,0120553
2576,4319;0,0120934
2577,3960;0,0121386
2578,3604;0,0121819
2579,3245;0,0122136
2580,2888;0,0122283
2581,2529;0,0122284
2582,2173;0,0122222
2583,1814;0,0122193
2584,1458;0,0122249
2585,1099;0,0122379
2586,0742;0,0122532
2587,0383;0,0122659
2588,0027;0,0122748
2588,9668;0,0122831
2589,9312;0,0122967
2590,8953;0,0123199
2591,8596;0,012353
2592,8237;0,0123911
2593,7881;0,0124258
2594,7522;0,0124489
2595,7166;0,0124565
2596,6807;0,0124527
2597,6450;0,0124487
2598,6091;0,0124592
2599,5735;0,012495
2600,5376;0,0125573
2601,5020;0,0126358
2602,4661;0,0127126
2603,4304;0,0127706
2604,3945;0,0128011
2605,3589;0,0128072
2606,3230;0,0128014
2607,2874;0,0127994
2608,2515;0,0128129
2609,2158;0,012846
2610,1799;0,0128947
2611,1443;0,01295
2612,1084;0,0130018
2613,0728;0,0130423
2614,0369;0,0130682
2615,0012;0,013081
2615,9653;0,0130859
2616,9297;0,0130904
2617,8938;0,013101
2618,8582;0,0131214
2619,8223;0,0131515
2620,7866;0,0131881
2621,7507;0,0132265
2622,7151;0,0132621
2623,6792;0,0132916
2624,6436;0,0133139
2625,6077;0,01333
2626,5720;0,0133434
2627,5361;0,0133593
2628,5005;0,0133832
2629,4646;0,0134194
2630,4290;0,0134682
2631,3931;0,0135253
2632,3574;0,0135823
2633,3215;0,0136298
2634,2859;0,0136613
2635,2500;0,0136764
2636,2144;0,0136815
2637,1785;0,0136866
2638,1428;0,0137003
2639,1069;0,0137256
2640,0713;0,0137596
2641,0354;0,0137959
2641,9998;0,0138304
2642,9639;0,0138634
2643,9282;0,0138988
2644,8923;0,0139401
2645,8567;0,0139867
2646,8208;0,0140335
2647,7852;0,0140745
2648,7493;0,0141063
2649,7136;0,0141302
2650,6777;0,0141503
2651,6421;0,0141705
2652,6062;0,0141929
2653,5706;0,0142181
2654,5347;0,0142472
2655,4990;0,0142818
2656,4631;0,014323
2657,4275;0,0143684
2658,3916;0,0144125
2659,3560;0,0144489
2660,3201;0,014475
2661,2844;0,0144939
2662,2485;0,0145131
2663,2129;0,0145404
2664,1770;0,0145787
2665,1414;0,0146247
2666,1055;0,0146707
2667,0698;0,0147092
2668,0339;0,0147367
2668,9983;0,0147553
2669,9624;0,0147713
2670,9268;0,0147921
2671,8909;0,014823
2672,8552;0,0148648
2673,8193;0,014914
2674,7837;0,0149637
2675,7478;0,0150069
2676,7122;0,0150391
2677,6763;0,0150608
2678,6406;0,0150774
2679,6047;0,0150973
2680,5691;0,0151286
2681,5332;0,0151754
2682,4976;0,0152361
2683,4617;0,0153045
2684,4260;0,0153719
2685,3901;0,0154313
2686,3545;0,0154794
2687,3186;0,0155175
2688,2830;0,0155496
2689,2471;0,0155798
2690,2114;0,0156104
2691,1755;0,0156415
2692,1399;0,0156723
2693,1040;0,0157029
2694,0684;0,0157346
2695,0325;0,01577
2695,9968;0,0158111
2696,9609;0,0158581
2697,9253;0,0159094
2698,8894;0,015962
2699,8538;0,0160132
2700,8179;0,0160618
2701,7822;0,016108
2702,7463;0,0161528
2703,7107;0,016197
2704,6748;0,0162405
2705,6392;0,0162828
2706,6033;0,0163235
2707,5676;0,0163634
2708,5317;0,0164042
2709,4961;0,0164478
2710,4602;0,0164948
2711,4246;0,0165442
2712,3887;0,0165932
2713,3530;0,01664
2714,3171;0,0166846
2715,2815;0,0167296
2716,2456;0,0167789
2717,2100;0,016835
2718,1741;0,016897
2719,1384;0,01696
2720,1025;0,0170159
2721,0669;0,017057
2722,0310;0,0170789
2722,9954;0,0170836
2723,9595;0,01708
2724,9238;0,0170817
2725,8879;0,0171023
2726,8523;0,0171497
2727,8164;0,0172229
2728,7808;0,0173116
2729,7449;0,017401
2730,7092;0,0174772
2731,6733;0,0175328
2732,6377;0,0175685
2733,6018;0,0175902
2734,5662;0,0176052
2735,5303;0,0176187
2736,4946;0,017633
2737,4587;0,0176492
2738,4231;0,0176697
2739,3872;0,0176975
2740,3516;0,0177357
2741,3157;0,0177842
2742,2800;0,0178393
2743,2441;0,0178944
2744,2085;0,0179435
2745,1726;0,0179835
2746,1370;0,0180148
2747,1011;0,0180401
2748,0654;0,0180625
2749,0295;0,0180846
2749,9939;0,0181084
2750,9580;0,0181362
2751,9224;0,0181706
2752,8865;0,0182138
2753,8508;0,0182661
2754,8149;0,0183255
2755,7793;0,0183879
2756,7434;0,0184482
2757,7078;0,0185028
2758,6719;0,0185508
2759,6362;0,0185939
2760,6003;0,0186358
2761,5647;0,0186806
2762,5288;0,0187303
2763,4932;0,0187846
2764,4573;0,0188411
2765,4216;0,0188967
2766,3857;0,0189501
2767,3501;0,0190024
2768,3142;0,0190559
2769,2786;0,0191121
2770,2427;0,0191702
2771,2070;0,0192267
2772,1711;0,0192783
2773,1355;0,0193243
2774,0996;0,0193681
2775,0640;0,0194164
2776,0281;0,019475
2776,9924;0,0195462
2777,9565;0,0196274
2778,9209;0,019713
2779,8850;0,0197978
2780,8494;0,01988
2781,8135;0,019961
2782,7778;0,0200435
2783,7419;0,0201288
2784,7063;0,0202149
2785,6704;0,0202979
2786,6348;0,0203748
2787,5989;0,0204463
2788,5632;0,0205176
2789,5273;0,0205958
2790,4917;0,0206865
2791,4558;0,0207902
2792,4202;0,0209021
2793,3843;0,021015
2794,3486;0,0211237
2795,3127;0,0212278
2796,2771;0,021332
2797,2412;0,0214428
2798,2056;0,0215647
2799,1697;0,0216976
2800,1340;0,0218376
2801,0981;0,0219798
2802,0625;0,0221211
2803,0266;0,0222605
2803,9910;0,0223978
2804,9551;0,0225316
2805,9194;0,0226591
2806,8835;0,0227782
2807,8479;0,0228903
2808,8120;0,0230021
2809,7764;0,0231239
2810,7405;0,0232649
2811,7048;0,0234287
2812,6689;0,0236113
2813,6333;0,0238027
2814,5974;0,0239924
2815,5618;0,0241738
2816,5259;0,0243472
2817,4902;0,0245188
2818,4543;0,0246984
2819,4187;0,0248944
2820,3828;0,0251114
2821,3472;0,0253482
2822,3113;0,0255995
2823,2756;0,0258579
2824,2397;0,0261178
2825,2041;0,0263774
2826,1682;0,0266385
2827,1326;0,0269054
2828,0967;0,0271826
2829,0610;0,0274748
2830,0251;0,0277877
2830,9895;0,0281282
2831,9536;0,0285034
2832,9180;0,0289163
2833,8821;0,0293639
2834,8464;0,0298384
2835,8105;0,0303328
2836,7749;0,0308489
2837,7390;0,0314013
2838,7034;0,0320151
2839,6675;0,0327189
2840,6318;0,0335379
2841,5959;0,0344897
2842,5603;0,0355832
2843,5244;0,0368149
2844,4888;0,0381594
2845,4529;0,0395578
2846,4172;0,0409123
2847,3813;0,0420975
2848,3457;0,0429906
2849,3098;0,0435092
2850,2742;0,0436396
2851,2383;0,0434404
2852,2026;0,0430176
2853,1667;0,0424866
2854,1311;0,0419379
2855,0952;0,0414221
2856,0596;0,040956
2857,0237;0,04054
2857,9880;0,0401761
2858,9521;0,0398741
2859,9165;0,0396484
2860,8806;0,039509
2861,8450;0,0394549
2862,8091;0,0394746
2863,7734;0,0395522
2864,7375;0,0396741
2865,7019;0,0398323
2866,6660;0,0400207
2867,6304;0,0402301
2868,5945;0,0404436
2869,5588;0,0406387
2870,5229;0,0407943
2871,4873;0,0408992
2872,4514;0,0409567
2873,4158;0,0409828
2874,3799;0,0409986
2875,3442;0,0410226
2876,3083;0,0410648
2877,2727;0,0411268
2878,2368;0,0412056
2879,2012;0,0412971
2880,1653;0,0414001
2881,1296;0,0415163
2882,0938;0,0416501
2883,0581;0,0418067
2884,0222;0,0419898
2884,9866;0,0421995
2885,9507;0,0424316
2886,9150;0,0426777
2887,8792;0,0429285
2888,8435;0,0431762
2889,8076;0,0434171
2890,7720;0,0436517
2891,7361;0,0438841
2892,7004;0,0441201
2893,6646;0,044366
2894,6289;0,0446268
2895,5930;0,0449049
2896,5574;0,0451976
2897,5215;0,0454971
2898,4858;0,0457926
2899,4500;0,0460748
2900,4143;0,0463411
2901,3784;0,0465979
2902,3428;0,046859
2903,3069;0,0471412
2904,2712;0,0474601
2905,2354;0,0478291
2906,1997;0,0482621
2907,1638;0,0487764
2908,1282;0,0493932
2909,0923;0,0501325
2910,0566;0,0510038
2911,0208;0,0519951
2911,9851;0,0530657
2912,9492;0,0541458
2913,9136;0,0551467
2914,8777;0,0559777
2915,8420;0,0565666
2916,8062;0,0568757
2917,7705;0,0569079
2918,7346;0,0567002
2919,6990;0,0563092
2920,6631;0,0557933
2921,6274;0,0551999
2922,5916;0,0545601
2923,5559;0,0538904
2924,5200;0,0531978
2925,4844;0,052486
2926,4485;0,0517599
2927,4128;0,051029
2928,3770;0,0503069
2929,3413;0,0496083
2930,3054;0,048944
2931,2698;0,0483153
2932,2339;0,0477136
2933,1982;0,0471246
2934,1624;0,0465356
2935,1267;0,0459424
2936,0908;0,04535
2937,0552;0,0447697
2938,0193;0,0442115
2938,9836;0,0436799
2939,9478;0,0431726
2940,9121;0,0426834
2941,8762;0,0422069
2942,8406;0,0417423
2943,8047;0,0412949
2944,7690;0,0408744
2945,7332;0,0404919
2946,6975;0,040155
2947,6616;0,0398657
2948,6260;0,0396189
2949,5901;0,0394053
2950,5544;0,0392137
2951,5186;0,0390339
2952,4829;0,0388566
2953,4470;0,0386723
2954,4114;0,0384708
2955,3755;0,0382428
2956,3398;0,0379822
2957,3040;0,0376898
2958,2683;0,0373724
2959,2324;0,0370406
2960,1968;0,0367033
2961,1609;0,0363643
2962,1252;0,0360218
2963,0894;0,03567
2964,0537;0,0353032
2965,0178;0,0349185
2965,9822;0,0345171
2966,9463;0,0341034
2967,9106;0,0336833
2968,8748;0,0332624
2969,8391;0,0328451
2970,8032;0,0324356
2971,7676;0,0320389
2972,7317;0,0316608
2973,6960;0,0313065
2974,6602;0,0309775
2975,6245;0,0306702
2976,5886;0,0303761
2977,5530;0,0300858
2978,5171;0,0297948
2979,4814;0,0295069
2980,4456;0,0292335
2981,4099;0,0289887
2982,3740;0,028782
2983,3384;0,0286136
2984,3025;0,0284742
2985,2668;0,0283492
2986,2310;0,0282253
2987,1953;0,0280964
2988,1594;0,0279658
2989,1238;0,0278438
2990,0879;0,0277421
2991,0522;0,0276674
2992,0164;0,0276177
2992,9807;0,027583
2993,9448;0,0275514
2994,9092;0,0275159
2995,8733;0,0274787
2996,8376;0,0274504
2997,8018;0,0274431
2998,7661;0,0274631
2999,7302;0,0275066
3000,6946;0,0275623
3001,6587;0,0276178
3002,6230;0,0276673
3003,5872;0,0277138
3004,5515;0,0277668
3005,5156;0,0278359
3006,4800;0,0279246
3007,4441;0,0280285
3008,4084;0,0281372
3009,3726;0,0282388
3010,3369;0,028324
3011,3010;0,0283888
3012,2654;0,0284351
3013,2295;0,0284702
3014,1938;0,0285049
3015,1580;0,0285502
3016,1223;0,0286155
3017,0864;0,0287051
3018,0508;0,0288182
3019,0149;0,0289496
3019,9792;0,0290924
3020,9434;0,0292402
3021,9077;0,0293884
3022,8718;0,0295348
3023,8362;0,0296792
3024,8003;0,0298236
3025,7646;0,0299715
3026,7288;0,0301266
3027,6931;0,03029
3028,6572;0,0304578
3029,6216;0,0306212
3030,5857;0,0307704
3031,5500;0,0308999
3032,5142;0,0310128
3033,4785;0,0311192
3034,4426;0,0312306
3035,4070;0,0313541
3036,3711;0,031489
3037,3354;0,03163
3038,2996;0,0317718
3039,2639;0,0319134
3040,2280;0,0320585
3041,1924;0,0322131
3042,1565;0,0323823
3043,1208;0,0325686
3044,0850;0,0327711
3045,0493;0,0329847
3046,0134;0,0332006
3046,9778;0,0334079
3047,9419;0,0335977
3048,9063;0,0337689
3049,8704;0,0339303
3050,8347;0,0340976
3051,7988;0,0342841
3052,7632;0,0344928
3053,7273;0,0347141
3054,6917;0,0349312
3055,6558;0,0351307
3056,6201;0,0353109
3057,5842;0,0354822
3058,5486;0,0356605
3059,5127;0,0358573
3060,4771;0,0360731
3061,4412;0,036298
3062,4055;0,0365166
3063,3696;0,0367142
3064,3340;0,0368823
3065,2981;0,0370215
3066,2625;0,0371414
3067,2266;0,0372572
3068,1909;0,0373852
3069,1550;0,0375362
3070,1194;0,0377124
3071,0835;0,0379071
3072,0479;0,0381082
3073,0120;0,0383049
3073,9763;0,0384919
3074,9404;0,0386709
3075,9048;0,0388471
3076,8689;0,0390237
3077,8333;0,0391987
3078,7974;0,039365
3079,7617;0,0395153
3080,7258;0,0396471
3081,6902;0,0397663
3082,6543;0,0398849
3083,6187;0,0400159
3084,5828;0,0401666
3085,5471;0,0403365
3086,5112;0,0405181
3087,4756;0,0407032
3088,4397;0,0408873
3089,4041;0,0410717
3090,3682;0,0412611
3091,3325;0,0414584
3092,2966;0,0416618
3093,2610;0,0418647
3094,2251;0,0420601
3095,1895;0,0422443
3096,1536;0,0424193
3097,1179;0,0425909
3098,0820;0,0427646
3099,0464;0,0429425
3100,0105;0,0431227
3100,9749;0,0433009
3101,9390;0,0434733
3102,9033;0,0436386
3103,8674;0,0437992
3104,8318;0,04396
3105,7959;0,044127
3106,7603;0,0443055
3107,7244;0,0444985
3108,6887;0,0447057
3109,6528;0,0449245
3110,6172;0,0451512
3111,5813;0,0453832
3112,5457;0,0456187
3113,5098;0,0458555
3114,4741;0,0460902
3115,4382;0,0463177
3116,4026;0,0465337
3117,3667;0,0467378
3118,3311;0,0469346
3119,2952;0,0471318
3120,2595;0,0473362
3121,2236;0,0475492
3122,1880;0,0477662
3123,1521;0,047979
3124,1165;0,0481807
3125,0806;0,0483708
3126,0449;0,0485563
3127,0090;0,0487491
3127,9734;0,0489604
3128,9375;0,0491958
3129,9019;0,0494525
3130,8660;0,0497207
3131,8303;0,0499879
3132,7944;0,0502431
3133,7588;0,0504808
3134,7229;0,0507018
3135,6873;0,0509118
3136,6514;0,0511192
3137,6157;0,0513328
3138,5798;0,0515596
3139,5442;0,0518038
3140,5083;0,0520656
3141,4727;0,0523417
3142,4368;0,0526272
3143,4011;0,052917
3144,3652;0,053207
3145,3296;0,0534933
3146,2937;0,0537717
3147,2581;0,0540377
3148,2222;0,0542883
3149,1865;0,0545245
3150,1506;0,0547517
3151,1150;0,0549779
3152,0791;0,05521
3153,0435;0,0554513
3154,0076;0,0557017
3154,9719;0,0559604
3155,9360;0,0562279
3156,9004;0,0565056
3157,8645;0,056794
3158,8289;0,0570902
3159,7930;0,0573882
3160,7573;0,0576821
3161,7214;0,0579681
3162,6858;0,0582466
3163,6499;0,0585198
3164,6143;0,0587897
3165,5784;0,0590566
3166,5427;0,0593199
3167,5068;0,0595797
3168,4712;0,0598384
3169,4353;0,0599869
3170,3997;0,0602584
3171,3638;0,0605441
3172,3281;0,0608451
3173,2922;0,0611585
3174,2566;0,0614777
3175,2207;0,0617925
3176,1851;0,0620919
3177,1492;0,0623678
3178,1135;0,0626189
3179,0776;0,0628519
3180,0420;0,0630792
3181,0061;0,0633129
3181,9705;0,0635595
3182,9346;0,0638178
3183,8989;0,0640811
3184,8630;0,0643421
3185,8274;0,0645973
3186,7915;0,0648489
3187,7559;0,0651027
3188,7200;0,0653633
3189,6843;0,065632
3190,6484;0,0659055
3191,6128;0,0661794
3192,5769;0,0664507
3193,5413;0,0667192
3194,5054;0,0669865
3195,4697;0,0672531
3196,4338;0,0675169
3197,3982;0,067774
3198,3623;0,0680208
3199,3267;0,0682573
3200,2908;0,068487
3201,2551;0,0687156
3202,2192;0,0689474
3203,1836;0,069184
3204,1477;0,0694238
3205,1121;0,0696643
3206,0762;0,0699039
3207,0405;0,0701429
3208,0046;0,070383
3208,9690;0,0706247
3209,9331;0,070867
3210,8975;0,0711079
3211,8616;0,071346
3212,8259;0,0715822
3213,7900;0,0718186
3214,7544;0,0720569
3215,7185;0,072295
3216,6829;0,0725281
3217,6470;0,0727507
3218,6113;0,0729613
3219,5754;0,0731639
3220,5398;0,0733669
3221,5039;0,0735778
3222,4683;0,0737997
3223,4324;0,0740301
3224,3967;0,0742642
3225,3608;0,0744988
3226,3252;0,0747345
3227,2893;0,0749734
3228,2537;0,0752164
3229,2178;0,0754607
3230,1821;0,0757009
3231,1462;0,0759328
3232,1106;0,0761553
3233,0747;0,0763717
3234,0391;0,0765873
3235,0032;0,0768082
3235,9675;0,0770397
3236,9316;0,0772865
3237,8960;0,0775514
3238,8601;0,0778325
3239,8245;0,0781208
3240,7886;0,0784015
3241,7529;0,0786587
3242,7170;0,0788841
3243,6814;0,0790829
3244,6455;0,0792746
3245,6099;0,0794846
3246,5740;0,0797332
3247,5383;0,0800255
3248,5024;0,0803501
3249,4668;0,0806854
3250,4309;0,0810098
3251,3953;0,0813098
3252,3594;0,0815838
3253,3237;0,0818402
3254,2878;0,0820924
3255,2522;0,0823532
3256,2163;0,0826298
3257,1807;0,0829227
3258,1448;0,0832266
3259,1091;0,0835332
3260,0732;0,0838351
3261,0376;0,0841283
3262,0017;0,0844118
3262,9661;0,0846857
3263,9302;0,0849491
3264,8945;0,0851989
3265,8586;0,085433
3266,8230;0,0856526
3267,7871;0,0858648
3268,7515;0,0860784
3269,7156;0,086298
3270,6799;0,0865179
3271,6440;0,0867223
3272,6084;0,0868924
3273,5725;0,0870166
3274,5369;0,0870983
3275,5010;0,0871547
3276,4653;0,0872078
3277,4294;0,0872724
3278,3938;0,0873504
3279,3579;0,0874322
3280,3223;0,0875053
3281,2864;0,0875628
3282,2507;0,0876068
3283,2148;0,0876457
3284,1792;0,0876877
3285,1433;0,0877347
3286,1077;0,0877808
3287,0718;0,0878162
3288,0361;0,0878323
3289,0002;0,0878258
3289,9646;0,0877997
3290,9287;0,0877609
3291,8931;0,0877165
3292,8572;0,0876705
3293,8215;0,0876241
3294,7856;0,0875768
3295,7500;0,0875282
3296,7141;0,087479
3297,6785;0,0874296
3298,6426;0,087379
3299,6069;0,0873238
3300,5710;0,0872599
3301,5354;0,0871854
3302,4995;0,0871027
3303,4639;0,087018
3304,4280;0,0869394
3305,3923;0,0868721
3306,3564;0,0868168
3307,3208;0,0867698
3308,2849;0,086726
3309,2493;0,0866821
3310,2134;0,0866384
3311,1777;0,0865977
3312,1418;0,0865628
3313,1062;0,0865339
3314,0703;0,0865088
3315,0347;0,086485
3315,9988;0,0864641
3316,9631;0,0864531
3317,9272;0,0864635
3318,8916;0,0865055
3319,8557;0,0865816
3320,8201;0,0866842
3321,7842;0,0867971
3322,7485;0,0869029
3323,7126;0,0869908
3324,6770;0,0870605
3325,6411;0,0871202
3326,6055;0,0871811
3327,5696;0,087251
3328,5339;0,0873319
3329,4980;0,0874203
3330,4624;0,0875081
3331,4265;0,0875845
3332,3909;0,0876366
3333,3550;0,0876516
3334,3193;0,0876202
3335,2834;0,0875402
3336,2478;0,0874191
3337,2119;0,0872706
3338,1763;0,0871089
3339,1404;0,0869427
3340,1047;0,0867736
3341,0688;0,0865977
3342,0332;0,086411
3342,9973;0,0862122
3343,9617;0,0860033
3344,9258;0,0857862
3345,8901;0,0855608
3346,8542;0,0853237
3347,8186;0,0850708
3348,7827;0,0848011
3349,7471;0,0845188
3350,7112;0,0842327
3351,6755;0,0839528
3352,6396;0,0836858
3353,6040;0,0834327
3354,5681;0,0831898
3355,5325;0,0829507
3356,4966;0,0827104
3357,4609;0,0824665
3358,4250;0,0822196
3359,3894;0,0819721
3360,3535;0,0817272
3361,3179;0,0814877
3362,2820;0,0812549
3363,2463;0,0810276
3364,2104;0,0808014
3365,1748;0,0805705
3366,1389;0,08033
3367,1033;0,0800788
3368,0674;0,0798201
3369,0317;0,0795591
3369,9958;0,0792995
3370,9602;0,0790416
3371,9243;0,0787826
3372,8887;0,0785204
3373,8528;0,0782559
3374,8171;0,0779938
3375,7813;0,0777393
3376,7456;0,0774953
3377,7097;0,0772601
3378,6741;0,0770289
3379,6382;0,0767963
3380,6025;0,0765595
3381,5667;0,0763188
3382,5310;0,0760769
3383,4951;0,0758382
3384,4595;0,0756081
3385,4236;0,0753924
3386,3879;0,0751965
3387,3521;0,0750227
3388,3164;0,0748673
3389,2805;0,0747204
3390,2449;0,0745677
3391,2090;0,0743949
3392,1733;0,0741933
3393,1375;0,0739635
3394,1018;0,0737146
3395,0659;0,0734594
3396,0303;0,0732083
3396,9944;0,0729666
3397,9587;0,0727325
3398,9229;0,0725003
3399,8872;0,0722635
3400,8513;0,0720185
3401,8157;0,071767
3402,7798;0,0715147
3403,7441;0,0712677
3404,7083;0,0710293
3405,6726;0,0707979
3406,6367;0,0705685
3407,6011;0,0703352
3408,5652;0,0700929
3409,5295;0,0698373
3410,4937;0,0695643
3411,4580;0,0692708
3412,4221;0,0689582
3413,3865;0,0686355
3414,3506;0,0683181
3415,3149;0,0680213
3416,2791;0,0677531
3417,2434;0,0675074
3418,2075;0,067267
3419,1719;0,0670114
3420,1360;0,0667275
3421,1003;0,0664151
3422,0645;0,0660834
3423,0288;0,0657426
3423,9929;0,0653974
3424,9573;0,0650479
3425,9214;0,0646951
3426,8857;0,0643452
3427,8499;0,064008
3428,8142;0,0636912
3429,7783;0,0633936
3430,7427;0,0631041
3431,7068;0,0628073
3432,6711;0,0624917
3433,6353;0,0621557
3434,5996;0,0618081
3435,5637;0,0614629
3436,5281;0,0611315
3437,4922;0,0608185
3438,4565;0,060522
3439,4207;0,0602376
3440,3850;0,0599622
3441,3491;0,0596954
3442,3135;0,0594362
3443,2776;0,059178
3444,2419;0,0589067
3445,2061;0,058603
3446,1704;0,0582514
3447,1345;0,0578511
3448,0989;0,0574195
3449,0630;0,0569852
3450,0273;0,0565744
3450,9915;0,0562011
3451,9558;0,0558651
3452,9199;0,0555573
3453,8843;0,055265
3454,8484;0,0549783
3455,8127;0,0546927
3456,7769;0,0544083
3457,7412;0,054126
3458,7053;0,0538442
3459,6697;0,0535579
3460,6338;0,0532608
3461,5981;0,0529487
3462,5623;0,0526204
3463,5266;0,0522771
3464,4907;0,0519199
3465,4551;0,0515498
3466,4192;0,0511704
3467,3835;0,0507912
3468,3477;0,0504267
3469,3120;0,0500898
3470,2761;0,0497825
3471,2405;0,0494923
3472,2046;0,0491979
3473,1689;0,0488838
3474,1331;0,0485529
3475,0974;0,048229
3476,0615;0,0479421
3477,0259;0,0477076
3477,9900;0,0475125
3478,9543;0,0473188
3479,9185;0,0470823
3480,8828;0,0467781
3481,8469;0,0464158
3482,8113;0,0460326
3483,7754;0,0456671
3484,7397;0,0453347
3485,7039;0,0450229
3486,6682;0,044705
3487,6323;0,0443629
3488,5967;0,0440019
3489,5608;0,0436488
3490,5251;0,043334
3491,4893;0,0430704
3492,4536;0,0428443
3493,4177;0,0426234
3494,3821;0,0423761
3495,3462;0,0420938
3496,3105;0,0417993
3497,2747;0,041534
3498,2390;0,0413298
3499,2031;0,0411857
3500,1675;0,0410632
3501,1316;0,0409008
3502,0959;0,0406467
3503,0601;0,040293
3504,0244;0,0398831
3504,9885;0,0394797
3505,9529;0,039122
3506,9170;0,0388071
3507,8813;0,0385012
3508,8455;0,0381664
3509,8098;0,0377871
3510,7739;0,0373805
3511,7383;0,0369848
3512,7024;0,0366327
3513,6667;0,0363352
3514,6309;0,0360827
3515,5952;0,0358577
3516,5593;0,0356483
3517,5237;0,0354545
3518,4878;0,0352848
3519,4521;0,0351464
3520,4163;0,0350353
3521,3806;0,0349329
3522,3447;0,0348105
3523,3091;0,0346412
3524,2732;0,0344101
3525,2375;0,0341153
3526,2017;0,0337616
3527,1660;0,0333555
3528,1301;0,0329088
3529,0945;0,0324444
3530,0586;0,0319965
3531,0229;0,0315972
3531,9871;0,0312621
3532,9514;0,0309837
3533,9155;0,0307346
3534,8799;0,0304793
3535,8440;0,030193
3536,8083;0,0298798
3537,7725;0,0295761
3538,7368;0,0293329
3539,7009;0,0291889
3540,6653;0,0291518
3541,6294;0,0291915
3542,5938;0,0292425
3543,5579;0,0292155
3544,5222;0,029031
3545,4863;0,0286684
3546,4507;0,0281878
3547,4148;0,0276903
3548,3792;0,0272503
3549,3433;0,0268814
3550,3076;0,0265495
3551,2717;0,0262078
3552,2361;0,0258309
3553,2002;0,0254342
3554,1646;0,0250626
3555,1287;0,0247573
3556,0930;0,024532
3557,0571;0,0243762
3558,0215;0,024275
3558,9856;0,0242243
3559,9500;0,0242336
3560,9141;0,0243127
3561,8784;0,0244521
3562,8425;0,0246098
3563,8069;0,0247028
3564,7710;0,0246025
3565,7354;0,0241696
3566,6995;0,0233785
3567,6638;0,0224219
3568,6279;0,0215886
3569,5923;0,0210288
3570,5564;0,0207033
3571,5208;0,0204937
3572,4849;0,0203049
3573,4492;0,0200968
3574,4133;0,0198727
3575,3777;0,019653
3576,3418;0,0194545
3577,3062;0,0192836
3578,2703;0,0191434
3579,2346;0,0190423
3580,1987;0,018992
3581,1631;0,0189952
3582,1272;0,019035
3583,0916;0,0190764
3584,0557;0,0190756
3585,0200;0,0189823
3585,9841;0,0187476
3586,9485;0,0183751
3587,9126;0,0179802
3588,8770;0,0177272
3589,8411;0,0176819
3590,8054;0,0177757
3591,7695;0,0178851
3592,7339;0,0179095
3593,6980;0,0178047
3594,6624;0,0175909
3595,6265;0,0173328
3596,5908;0,0170887
3597,5549;0,0168637
3598,5193;0,0166158
3599,4834;0,0163047
3600,4478;0,0159392
3601,4119;0,0155787
3602,3762;0,0152837
3603,3403;0,0150647
3604,3047;0,0148745
3605,2688;0,0146342
3606,2332;0,0142691
3607,1973;0,0137496
3608,1616;0,0131311
3609,1257;0,0125447
3610,0901;0,0121248
3611,0542;0,0119342
3612,0186;0,011944
3612,9827;0,0120619
3613,9470;0,0121769
3614,9111;0,0122003
3615,8755;0,0120888
3616,8396;0,0118504
3617,8040;0,0115393
3618,7681;0,0112509
3619,7324;0,011103
3620,6965;0,0111779
3621,6609;0,0114537
3622,6250;0,0118039
3623,5894;0,0120694
3624,5535;0,0121324
3625,5178;0,0119448
3626,4819;0,0115082
3627,4463;0,0108417
3628,4104;0,0100265
3629,3748;0,00927769
3630,3389;0,00879759
3631,3032;0,00856034
3632,2673;0,00837448
3633,2317;0,0080769
3634,1958;0,00762872
3635,1602;0,0070985
3636,1243;0,00659047
3637,0886;0,00617424
3638,0527;0,00586072
3639,0171;0,00562888
3639,9812;0,00546546
3640,9456;0,00537763
3641,9097;0,00537252
3642,8740;0,00543148
3643,8381;0,00551031
3644,8025;0,00556494
3645,7666;0,00556485
3646,7310;0,00544575
3647,6951;0,00503562
3648,6594;0,00419809
3649,6235;0,00319365
3650,5879;0,00249848
3651,5520;0,002238
3652,5164;0,00218656
3653,4805;0,00208778
3654,4448;0,00182406
3655,4089;0,00142865
3656,3733;0,00102834
3657,3374;0,0007502
3658,3018;0,000633904
3659,2659;0,000622344
3660,2302;0,000634814
3661,1943;0,000639479
3662,1587;0,000661578
3663,1228;0,000735726
3664,0872;0,000855724
3665,0513;0,000976448
3666,0156;0,00105771
3666,9797;0,00110277
3667,9441;0,0011424
3668,9082;0,00118313
3669,8726;0,00119921
3670,8367;0,00116992
3671,8010;0,00108369
3672,7651;0,000932481
3673,7295;0,000728287
3674,6936;0,000500098
3675,6580;0,000288853
3676,6221;0,000163085
3677,5864;0,000169387
3678,5505;0,000266882
3679,5149;0,000377674
3680,4790;0,000471534
3681,4434;0,000574341
3682,4075;0,000713647
3683,3718;0,000870544
3684,3359;0,000987163
3685,3003;0,00102175
3686,2644;0,000999208
3687,2288;0,00100272
3688,1929;0,00109801
3689,1572;0,00127683
3690,1213;0,00150543
3691,0857;0,00177225
3692,0498;0,00205564
3693,0142;0,00231438
3693,9783;0,00251847
3694,9426;0,00266075
3695,9067;0,00274336
3696,8711;0,00276523
3697,8352;0,00272592
3698,7996;0,00263915
3699,7637;0,00253967
3700,7280;0,00247466
3701,6921;0,00248594
3702,6565;0,00259237
3703,6206;0,00277655
3704,5850;0,00298564
3705,5491;0,00315333
3706,5134;0,00322603
3707,4775;0,0031664
3708,4419;0,00292399
3709,4060;0,00240946
3710,3704;0,00156997
3711,3345;0,000565436
3712,2988;-0,000245957
3713,2629;-0,000606491
3714,2273;-0,000524754
3715,1914;-0,000159515
3716,1558;0,000338493
3717,1199;0,000889667
3718,0842;0,00147176
3719,0483;0,00207788
3720,0127;0,0026847
3720,9768;0,00325007
3721,9412;0,00373131
3722,9053;0,00410174
3723,8696;0,00435379
3724,8337;0,00449582
3725,7981;0,00454672
3726,7622;0,00452467
3727,7266;0,00443673
3728,6907;0,00428551
3729,6550;0,00408975
3730,6191;0,00389408
3731,5835;0,00374447
3732,5476;0,00362771
3733,5120;0,003428
3734,4761;0,00301426
3735,4404;0,00244199
3736,4045;0,00196143
3737,3689;0,00173755
3738,3330;0,00168119
3739,2974;0,00155627
3740,2615;0,00115963
3741,2258;0,000434432
3742,1899;-0,000486875
3743,1543;-0,00131503
3744,1184;-0,00174549
3745,0828;-0,00166818
3746,0469;-0,00125779
3747,0112;-0,000834131
3747,9753;-0,000657709
3748,9397;-0,00083817
3749,9038;-0,00132821
3750,8682;-0,00190791
3751,8323;-0,00225399
3752,7966;-0,00220561
3753,7607;-0,00189359
3754,7251;-0,00156406
3755,6892;-0,00138703
3756,6536;-0,00140627
3757,6177;-0,00157157
3758,5820;-0,001784
3759,5461;-0,00193962
3760,5105;-0,0019794
3761,4746;-0,00191573
3762,4390;-0,00180791
3763,4031;-0,0017174
3764,3674;-0,00168294
3765,3315;-0,00171927
3766,2959;-0,00182415
3767,2600;-0,00198322
3768,2244;-0,00217138
3769,1885;-0,00235188
3770,1528;-0,00247776
3771,1169;-0,00250824
3772,0813;-0,00243617
3773,0454;-0,00230082
3774,0098;-0,00216711
3774,9739;-0,00208853
3775,9382;-0,00208241
3776,9023;-0,00213101
3777,8667;-0,00219828
3778,8308;-0,0022422
3779,7952;-0,00222561
3780,7593;-0,00213693
3781,7236;-0,00200497
3782,6877;-0,00188672
3783,6521;-0,00183886
3784,6162;-0,00189125
3785,5806;-0,00203094
3786,5447;-0,00220688
3787,5090;-0,00235653
3788,4731;-0,00243933
3789,4375;-0,00245269
3790,4016;-0,00242031
3791,3660;-0,00236344
3792,3301;-0,00227636
3793,2944;-0,00212626
3794,2585;-0,001883
3795,2229;-0,00155963
3796,1870;-0,00122673
3797,1514;-0,000981863
3798,1155;-0,000897522
3799,0798;-0,000988044
3800,0439;-0,00121028
3801,0083;-0,00148489
3801,9724;-0,00173347
3802,9368;-0,00193354
3803,9009;-0,00213649
3804,8652;-0,00240531
3805,8293;-0,00272818
3806,7937;-0,00299218
3807,7578;-0,00305253
3808,7222;-0,00285818
3809,6863;-0,00251186
3810,6506;-0,00219393
3811,6147;-0,00203114
3812,5791;-0,00201934
3813,5432;-0,00203721
3814,5076;-0,00193968
3815,4717;-0,00167384
3816,4360;-0,00132195
3817,4001;-0,00104093
3818,3645;-0,000968827
3819,3286;-0,00115981
3820,2930;-0,00154611
3821,2571;-0,00194462
3822,2214;-0,00216395
3823,1855;-0,00214826
3824,1499;-0,00199251
3825,1140;-0,00183429
3826,0784;-0,00175709
3827,0425;-0,00176412
3828,0068;-0,00180368
3828,9709;-0,00181312
3829,9353;-0,00175618
3830,8994;-0,0016387
3831,8638;-0,0015009
3832,8279;-0,00139395
3833,7922;-0,00135212
3834,7563;-0,00137393
3835,7207;-0,00142561
3836,6848;-0,00146942
3837,6492;-0,00149622
3838,6133;-0,00152785
3839,5776;-0,0015929
3840,5417;-0,00170917
3841,5061;-0,00187566
3842,4702;-0,00205647
3843,4346;-0,00217435
3844,3987;-0,00214178
3845,3630;-0,00192144
3846,3271;-0,00156982
3847,2915;-0,00122565
3848,2556;-0,00105197
3849,2200;-0,00117012
3850,1841;-0,00161647
3851,1484;-0,00233808
3852,1125;-0,0032085
3853,0769;-0,00397539
3854,0410;-0,00425496
3855,0054;-0,00387967
3855,9695;-0,0031075
3856,9338;-0,00233037
3857,8979;-0,00179417
3858,8623;-0,00154871
3859,8264;-0,00150684
3860,7908;-0,00152995
3861,7549;-0,00151564
3862,7192;-0,00145195
3863,6833;-0,00139466
3864,6477;-0,00139545
3865,6118;-0,00146278
3866,5762;-0,00157103
3867,5403;-0,00168028
3868,5046;-0,00175693
3869,4688;-0,00179634
3870,4331;-0,00182623
3871,3972;-0,00187725
3872,3616;-0,00195243
3873,3257;-0,00203193
3874,2900;-0,00209787
3875,2542;-0,00214518
3876,2185;-0,00217052
3877,1826;-0,00215878
3878,1470;-0,0020864
3879,1111;-0,00194723
3880,0754;-0,00177848
3881,0396;-0,0016539
3882,0039;-0,001644
3882,9680;-0,0017759
3883,9324;-0,00201534
3884,8965;-0,00227645
3885,8608;-0,00246366
3886,8250;-0,00252909
3887,7893;-0,00249658
3888,7534;-0,00242748
3889,7178;-0,00236666
3890,6819;-0,00231708
3891,6462;-0,00224773
3892,6104;-0,00212106
3893,5747;-0,00193286
3894,5388;-0,00172993
3895,5032;-0,00157441
3896,4673;-0,00149297
3897,4316;-0,00146543
3898,3958;-0,00145798
3899,3601;-0,00146183
3900,3242;-0,00149995
3901,2886;-0,00160333
3902,2527;-0,00178708
3903,2170;-0,00203456
3904,1812;-0,00229249
3905,1455;-0,00249609
3906,1096;-0,00261231
3907,0740;-0,00265401
3908,0381;-0,00265403
3909,0024;-0,00263405
3909,9666;-0,00259529
3910,9309;-0,00252944
3911,8950;-0,00243361
3912,8594;-0,00231718
3913,8235;-0,00219897
3914,7878;-0,00210131
3915,7520;-0,00204408
3916,7163;-0,00203397
3917,6804;-0,00205059
3918,6448;-0,0020509
3919,6089;-0,00200114
3920,5732;-0,00190656
3921,5374;-0,00180792
3922,5017;-0,0017546
3923,4658;-0,00177425
3924,4302;-0,00185219
3925,3943;-0,00193628
3926,3586;-0,00197206
3927,3228;-0,00193946
3928,2871;-0,00186096
3929,2512;-0,00178596
3930,2156;-0,00176849
3931,1797;-0,001841
3932,1440;-0,00199069
3933,1082;-0,00216346
3934,0725;-0,00230107
3935,0366;-0,00237516
3936,0010;-0,00238976
3936,9651;-0,00236361
3937,9294;-0,00231443
3938,8936;-0,00225397
3939,8579;-0,00219088
3940,8220;-0,00213395
3941,7864;-0,00208988
3942,7505;-0,00205692
3943,7148;-0,00202364
3944,6790;-0,0019794
3945,6433;-0,00192544
3946,6074;-0,00187776
3947,5718;-0,00186136
3948,5359;-0,00189838
3949,5002;-0,0019934
3950,4644;-0,00212678
3951,4287;-0,00226508
3952,3928;-0,00237899
3953,3572;-0,00245337
3954,3213;-0,00248647
3955,2856;-0,00248515
3956,2498;-0,00246052
3957,2141;-0,00242479
3958,1782;-0,00238985
3959,1426;-0,00236711
3960,1067;-0,0023667
3961,0710;-0,00239426
3962,0352;-0,00244654
3962,9995;-0,00251005
3963,9636;-0,00256616
3964,9280;-0,00259936
3965,8921;-0,00260455
3966,8564;-0,00258773
3967,8206;-0,00256114
3968,7849;-0,00253578
3969,7490;-0,0025161
3970,7134;-0,00250026
3971,6775;-0,00248546
3972,6418;-0,00247326
3973,6060;-0,00247043
3974,5703;-0,00248436
3975,5344;-0,0025169
3976,4988;-0,00256164
3977,4629;-0,00260712
3978,4272;-0,00264316
3979,3914;-0,00266614
3980,3557;-0,00267999
3981,3198;-0,00269276
3982,2842;-0,0027106
3983,2483;-0,00273298
3984,2126;-0,00275212
3985,1768;-0,00275723
3986,1411;-0,0027407
3987,1052;-0,00270276
3988,0696;-0,00265207
3989,0337;-0,00260133
3989,9980;-0,00256194
3990,9622;-0,00253977
3991,9265;-0,00253524
3992,8906;-0,00254676
3993,8550;-0,00257376
3994,8191;-0,00261629
3995,7834;-0,00267177
3996,7476;-0,00273223
3997,7119;-0,00278537
3998,6760;-0,00281952
3999,6404;-0,0028292
4000,6045;-0,00249218

##### Extended Information
[Comments]
Sample name
Comment
Username
Division
Organization;UNIVERSIDAD INDUSTRIAL DE SANTANDER

[Detailed Information]
Creation date;19/03/2025 2:43 p.m.

Data array type;Linear data array
Horizontal axis;Wavenumber [cm-1]
Vertical axis;Abs
Start;399,193 cm-1
End;4000,6 cm-1
Data interval;0,964233 cm-1
Data points;3736    

[Measurement Information]
Model name;FT/IR-4X1typeA
Serial No.;A035162111

Accessory;ATR PRO 4X
Accessory S/N;A021162126
Incident angle;45 deg

Measurement date;19/03/2025 2:42 p.m.

Light source;Standard
Detector;TGS
Accumulation;40
Resolution;4 cm-1
Zero filling;On
Apodization;Cosine
Gain;Auto (8)
Aperture;Auto (7 mm)
Scan speed;Auto (2 mm/sec)
Filter;Auto (12800 Hz)

