TITLE;
DATA TYPE;INFRARED SPECTRUM
ORIGIN;JASCO
OWNER;
DATE;25/03/19
TIME;14:23:18
SPECTROMETER/DATA SYSTEM;
LOCALE;9226
RESOLUTION;
DELTAX;0,964233
XUNITS;1/CM
YUNITS;ABSORBANCE
FIRSTX;  399,1927
LASTX; 4000,6047
NPOINTS;    3736
FIRSTY;     0,22374
MAXY;     0,25341
MINY;     0,00265
XYDATA
399,1927;0,223739
400,1569;0,225158
401,1211;0,225027
402,0854;0,223767
403,0496;0,221978
404,0138;0,220222
404,9781;0,21894
405,9423;0,21837
406,9065;0,218484
407,8708;0,219054
408,8350;0,219813
409,7992;0,220594
410,7635;0,221343
411,7277;0,222024
412,6919;0,222543
413,6562;0,222769
414,6204;0,222599
415,5846;0,222026
416,5489;0,221191
417,5131;0,220429
418,4773;0,220191
419,4416;0,220712
420,4058;0,221733
421,3700;0,222799
422,3343;0,223656
423,2985;0,224275
424,2627;0,224707
425,2270;0,224996
426,1912;0,225166
427,1554;0,225247
428,1197;0,22529
429,0839;0,22535
430,0481;0,225445
431,0124;0,225523
431,9766;0,225478
432,9408;0,225205
433,9051;0,224675
434,8693;0,223963
435,8335;0,223205
436,7978;0,222506
437,7620;0,221866
438,7262;0,2212
439,6905;0,220423
440,6547;0,219533
441,6189;0,218638
442,5832;0,217897
443,5474;0,21742
444,5116;0,217191
445,4759;0,217098
446,4401;0,217022
447,4043;0,216902
448,3686;0,216726
449,3328;0,216498
450,2970;0,21622
451,2613;0,215903
452,2255;0,215577
453,1897;0,215275
454,1540;0,214986
455,1182;0,214643
456,0824;0,214168
457,0467;0,213572
458,0109;0,213041
458,9751;0,212856
459,9394;0,213174
460,9036;0,213885
461,8678;0,21468
462,8321;0,215217
463,7963;0,215271
464,7605;0,214823
465,7248;0,214062
466,6890;0,213281
467,6532;0,212723
468,6175;0,212502
469,5817;0,212611
470,5459;0,212972
471,5102;0,213466
472,4744;0,21394
473,4386;0,214256
474,4029;0,214356
475,3671;0,214302
476,3313;0,214233
477,2956;0,214277
478,2598;0,214464
479,2240;0,214703
480,1883;0,214827
481,1525;0,2147
482,1167;0,214321
483,0810;0,213845
484,0452;0,213508
485,0094;0,213493
485,9737;0,213831
486,9379;0,21441
487,9021;0,215064
488,8664;0,215665
489,8306;0,216149
490,7948;0,21651
491,7591;0,216775
492,7233;0,216982
493,6875;0,217162
494,6518;0,217321
495,6160;0,217437
496,5802;0,217469
497,5445;0,217386
498,5087;0,2172
499,4729;0,216991
500,4372;0,216884
501,4014;0,217001
502,3656;0,217384
503,3299;0,217964
504,2941;0,218602
505,2583;0,219166
506,2226;0,219592
507,1868;0,219887
508,1510;0,220096
509,1153;0,220268
510,0795;0,220443
511,0437;0,220653
512,0080;0,220942
512,9722;0,221355
513,9365;0,221918
514,9007;0,2226
515,8649;0,223305
516,8292;0,223896
517,7934;0,224259
518,7576;0,224364
519,7219;0,224281
520,6861;0,224115
521,6503;0,223944
522,6146;0,223788
523,5788;0,223626
524,5430;0,223438
525,5073;0,223223
526,4715;0,223002
527,4357;0,222789
528,4000;0,222562
529,3642;0,222274
530,3284;0,221877
531,2927;0,221363
532,2569;0,220769
533,2211;0,220169
534,1854;0,219635
535,1496;0,219196
536,1138;0,218825
537,0781;0,21846
538,0423;0,218042
539,0065;0,217555
539,9708;0,217042
540,9350;0,216584
541,8992;0,216271
542,8635;0,216158
543,8277;0,216243
544,7919;0,216467
545,7562;0,216744
546,7204;0,216992
547,6846;0,217173
548,6489;0,217297
549,6131;0,217408
550,5773;0,217548
551,5416;0,217739
552,5058;0,217972
553,4700;0,218223
554,4343;0,218457
555,3985;0,218639
556,3627;0,218732
557,3270;0,218691
558,2912;0,218466
559,2554;0,218016
560,2197;0,217325
561,1839;0,216424
562,1481;0,215393
563,1124;0,214345
564,0766;0,213388
565,0408;0,212596
566,0051;0,211982
566,9693;0,21151
567,9335;0,211116
568,8978;0,210745
569,8620;0,210369
570,8262;0,209991
571,7905;0,20962
572,7547;0,209257
573,7189;0,208884
574,6832;0,208476
575,6474;0,20802
576,6116;0,207528
577,5759;0,207032
578,5401;0,206562
579,5043;0,206128
580,4686;0,205714
581,4328;0,205289
582,3970;0,204832
583,3613;0,204342
584,3255;0,203846
585,2897;0,203387
586,2540;0,203004
587,2182;0,202724
588,1824;0,202558
589,1467;0,202498
590,1109;0,202516
591,0751;0,202559
592,0394;0,20256
593,0036;0,202454
593,9678;0,202206
594,9321;0,201822
595,8963;0,201337
596,8605;0,200803
597,8248;0,200264
598,7890;0,199749
599,7532;0,199273
600,7175;0,198835
601,6817;0,198426
602,6459;0,198029
603,6102;0,197622
604,5744;0,197184
605,5386;0,196697
606,5029;0,196155
607,4671;0,19556
608,4313;0,194912
609,3956;0,194204
610,3598;0,193425
611,3240;0,19257
612,2883;0,191657
613,2525;0,190722
614,2167;0,189807
615,1810;0,18893
616,1452;0,188069
617,1094;0,187164
618,0737;0,186154
619,0379;0,185014
620,0021;0,183769
620,9664;0,182482
621,9306;0,181221
622,8948;0,180033
623,8591;0,178943
624,8233;0,177926
625,7875;0,17703
626,7518;0,176239
627,7160;0,175529
628,6802;0,174867
629,6445;0,174217
630,6087;0,173556
631,5729;0,172881
632,5372;0,17221
633,5014;0,171566
634,4656;0,170964
635,4299;0,170405
636,3941;0,169874
637,3583;0,169363
638,3226;0,168876
639,2868;0,168428
640,2510;0,168025
641,2153;0,167648
642,1795;0,167249
643,1437;0,166778
644,1080;0,166208
645,0722;0,165555
646,0364;0,164879
647,0007;0,164256
647,9649;0,163744
648,9291;0,163366
649,8934;0,163104
650,8576;0,16293
651,8218;0,162824
652,7861;0,162799
653,7503;0,162881
654,7145;0,16308
655,6788;0,163362
656,6430;0,16365
657,6072;0,163864
658,5715;0,163963
659,5357;0,163962
660,4999;0,163903
661,4642;0,163792
662,4284;0,163553
663,3926;0,163029
664,3569;0,162067
665,3211;0,160629
666,2853;0,15887
667,2496;0,157118
668,2138;0,155708
669,1780;0,154867
670,1423;0,154613
671,1065;0,154613
672,0707;0,154393
673,0350;0,153657
673,9992;0,15238
674,9634;0,150741
675,9277;0,148992
676,8919;0,147335
677,8561;0,145841
678,8204;0,144491
679,7846;0,143255
680,7488;0,142135
681,7131;0,141157
682,6773;0,14032
683,6415;0,139588
684,6058;0,138913
685,5700;0,138266
686,5342;0,137655
687,4985;0,137112
688,4627;0,136673
689,4269;0,136343
690,3912;0,136099
691,3554;0,135901
692,3196;0,135708
693,2839;0,135498
694,2481;0,135271
695,2123;0,135041
696,1766;0,134822
697,1408;0,134608
698,1050;0,134374
699,0693;0,134094
700,0335;0,133756
700,9977;0,133376
701,9620;0,13298
702,9262;0,132586
703,8904;0,132178
704,8547;0,131736
705,8189;0,131237
706,7831;0,130674
707,7474;0,13006
708,7116;0,129413
709,6758;0,128743
710,6401;0,128043
711,6043;0,127301
712,5685;0,126505
713,5328;0,125661
714,4970;0,124789
715,4612;0,123318
716,4255;0,122569
717,3897;0,121859
718,3539;0,121127
719,3182;0,120291
720,2824;0,119302
721,2466;0,11817
722,2109;0,116966
723,1751;0,115783
724,1393;0,114687
725,1036;0,113702
726,0678;0,112812
727,0320;0,111985
727,9963;0,111189
728,9605;0,110407
729,9247;0,109643
730,8890;0,108909
731,8532;0,108222
732,8174;0,107596
733,7817;0,107034
734,7459;0,106528
735,7101;0,106062
736,6744;0,105618
737,6386;0,105187
738,6028;0,10477
739,5671;0,104373
740,5313;0,103998
741,4955;0,103642
742,4598;0,10329
743,4240;0,102925
744,3882;0,102536
745,3525;0,102127
746,3167;0,101709
747,2809;0,101298
748,2452;0,100901
749,2094;0,100515
750,1736;0,100131
751,1379;0,0997413
752,1021;0,0993429
753,0663;0,0989434
754,0306;0,098554
754,9948;0,0981845
755,9590;0,0978376
756,9233;0,0975081
757,8875;0,0971848
758,8517;0,096854
759,8160;0,0965034
760,7802;0,0961262
761,7444;0,0957233
762,7087;0,0953033
763,6729;0,0948788
764,6371;0,0944611
765,6014;0,0940562
766,5656;0,0936638
767,5298;0,0932799
768,4941;0,0928994
769,4583;0,0925163
770,4225;0,0921224
771,3868;0,0917068
772,3510;0,0912616
773,3152;0,0907881
774,2795;0,0903016
775,2437;0,0898273
776,2079;0,0893879
777,1722;0,0889904
778,1364;0,0886197
779,1006;0,0882452
780,0649;0,0878357
781,0291;0,0873736
781,9933;0,08686
782,9576;0,0863096
783,9218;0,0857413
784,8860;0,0851711
785,8503;0,0846125
786,8145;0,0840796
787,7787;0,0835881
788,7430;0,0831505
789,7072;0,0827689
790,6714;0,0824315
791,6357;0,0821178
792,5999;0,0818094
793,5641;0,0815001
794,5284;0,0811954
795,4926;0,0809047
796,4568;0,0806307
797,4211;0,0803655
798,3853;0,0800967
799,3495;0,0798179
800,3138;0,0795344
801,2780;0,0792588
802,2422;0,0790016
803,2065;0,0787636
804,1707;0,0785379
805,1349;0,0783181
806,0992;0,0781067
807,0634;0,077914
808,0276;0,0777495
808,9919;0,077612
809,9561;0,0774885
810,9203;0,0773627
811,8846;0,0772266
812,8488;0,0770857
813,8130;0,0769535
814,7773;0,0768402
815,7415;0,0767442
816,7057;0,0766557
817,6700;0,0765669
818,6342;0,0764812
819,5984;0,0764121
820,5627;0,076371
821,5269;0,0763548
822,4911;0,0763434
823,4554;0,0763107
824,4196;0,076241
825,3839;0,0761399
826,3481;0,0760289
827,3123;0,0759291
828,2766;0,0758464
829,2408;0,0757679
830,2050;0,0756732
831,1693;0,0755507
832,1335;0,0754054
833,0977;0,0752538
834,0620;0,0751084
835,0262;0,0749666
835,9904;0,0748106
836,9547;0,0746199
837,9189;0,074386
838,8831;0,0741201
839,8474;0,073847
840,8116;0,0735932
841,7758;0,0733744
842,7401;0,0731931
843,7043;0,0730429
844,6685;0,0729162
845,6328;0,0728084
846,5970;0,0727177
847,5612;0,0726414
848,5255;0,0725754
849,4897;0,0725155
850,4539;0,0724605
851,4182;0,0724145
852,3824;0,0723852
853,3466;0,0723801
854,3109;0,0724031
855,2751;0,0724524
856,2393;0,0725206
857,2036;0,0725974
858,1678;0,0726722
859,1320;0,0727367
860,0963;0,072787
861,0605;0,0728231
862,0247;0,0728476
862,9890;0,0728639
863,9532;0,072875
864,9174;0,0728841
865,8817;0,0728953
866,8459;0,0729126
867,8101;0,0729377
868,7744;0,072967
869,7386;0,0729917
870,7028;0,0729999
871,6671;0,072982
872,6313;0,072934
873,5955;0,0728569
874,5598;0,0727555
875,5240;0,0726366
876,4882;0,0725108
877,4525;0,0723954
878,4167;0,072315
879,3809;0,0722986
880,3452;0,0723725
881,3094;0,0725547
882,2736;0,0728528
883,2379;0,0732654
884,2021;0,0737861
885,1663;0,0744049
886,1306;0,075109
887,0948;0,0758829
888,0590;0,0767098
889,0233;0,0775724
889,9875;0,0784523
890,9517;0,0793269
891,9160;0,0801679
892,8802;0,0809435
893,8444;0,0816251
894,8087;0,082194
895,7729;0,0826444
896,7371;0,0829784
897,7014;0,0831996
898,6656;0,0833082
899,6298;0,0833041
900,5941;0,083193
901,5583;0,0829918
902,5225;0,0827277
903,4868;0,0824335
904,4510;0,0821413
905,4152;0,0818804
906,3795;0,0816777
907,3437;0,0815572
908,3079;0,0815373
909,2722;0,0816256
910,2364;0,081817
911,2007;0,0820966
912,1649;0,0824466
913,1292;0,082853
914,0934;0,0833079
915,0576;0,0838067
916,0219;0,0843448
916,9861;0,0849143
917,9503;0,0855049
918,9146;0,0861045
919,8788;0,0866993
920,8430;0,0872733
921,8073;0,0878084
922,7715;0,0882875
923,7357;0,0886973
924,7000;0,0890315
925,6642;0,0892905
926,6284;0,0894782
927,5927;0,0896001
928,5569;0,0896624
929,5211;0,0896735
930,4854;0,0896461
931,4496;0,0895972
932,4138;0,0895457
933,3781;0,0895103
934,3423;0,0895082
935,3065;0,0895548
936,2708;0,0896624
937,2350;0,0898382
938,1992;0,0900806
939,1635;0,0903797
940,1277;0,0907224
941,0919;0,0911016
942,0562;0,0915243
943,0204;0,092012
943,9846;0,0925927
944,9489;0,0932883
945,9131;0,0941049
946,8773;0,0950311
947,8416;0,0960457
948,8058;0,0971284
949,7700;0,0982688
950,7343;0,0994703
951,6985;0,100749
952,6627;0,102127
953,6270;0,103631
954,5912;0,105276
955,5554;0,107065
956,5197;0,108983
957,4839;0,111002
958,4481;0,113092
959,4124;0,115233
960,3766;0,117417
961,3408;0,119642
962,3051;0,121903
963,2693;0,124187
964,2335;0,126474
965,1978;0,128756
966,1620;0,131041
967,1262;0,13336
968,0905;0,135759
969,0547;0,138284
970,0189;0,14097
970,9832;0,143839
971,9474;0,146905
972,9116;0,150176
973,8759;0,153662
974,8401;0,15737
975,8043;0,161303
976,7686;0,165452
977,7328;0,169786
978,6970;0,174247
979,6613;0,178749
980,6255;0,183187
981,5897;0,187452
982,5540;0,191453
983,5182;0,195129
984,4824;0,198454
985,4467;0,201428
986,4109;0,204065
987,3751;0,206388
988,3394;0,208422
989,3036;0,210194
990,2678;0,211734
991,2321;0,213066
992,1963;0,214215
993,1605;0,215198
994,1248;0,21603
995,0890;0,216728
996,0532;0,217313
997,0175;0,217803
997,9817;0,218215
998,9459;0,21856
999,9102;0,218853
1000,8744;0,219121
1001,8386;0,219408
1002,8029;0,21978
1003,7671;0,220308
1004,7313;0,221053
1005,6956;0,222046
1006,6598;0,223291
1007,6240;0,224774
1008,5883;0,226472
1009,5525;0,228366
1010,5167;0,230437
1011,4810;0,232654
1012,4452;0,234966
1013,4094;0,237294
1014,3737;0,239546
1015,3379;0,241636
1016,3021;0,243503
1017,2664;0,245123
1018,2306;0,246505
1019,1948;0,247684
1020,1591;0,248701
1021,1233;0,249589
1022,0875;0,250375
1023,0518;0,251072
1024,0160;0,251687
1024,9802;0,252224
1025,9445;0,25268
1026,9087;0,253046
1027,8729;0,2533
1028,8372;0,253408
1029,8014;0,253321
1030,7656;0,252979
1031,7299;0,252315
1032,6941;0,251275
1033,6583;0,249835
1034,6226;0,248019
1035,5868;0,245911
1036,5510;0,24365
1037,5153;0,241399
1038,4795;0,239315
1039,4437;0,237519
1040,4080;0,23607
1041,3722;0,234969
1042,3364;0,234168
1043,3007;0,233597
1044,2649;0,233176
1045,2291;0,232834
1046,1934;0,232509
1047,1576;0,232146
1048,1218;0,231686
1049,0861;0,231067
1050,0503;0,230228
1051,0145;0,22912
1051,9788;0,227721
1052,9430;0,226044
1053,9072;0,224131
1054,8715;0,222029
1055,8357;0,219766
1056,7999;0,217332
1057,7642;0,214674
1058,7284;0,211729
1059,6926;0,208458
1060,6569;0,204888
1061,6211;0,201123
1062,5853;0,197319
1063,5496;0,193649
1064,5138;0,190252
1065,4780;0,187208
1066,4423;0,184534
1067,4065;0,1822
1068,3707;0,180149
1069,3350;0,178314
1070,2992;0,176623
1071,2634;0,175
1072,2277;0,173369
1073,1919;0,171653
1074,1561;0,169793
1075,1204;0,167746
1076,0846;0,165504
1077,0488;0,16309
1078,0131;0,16056
1078,9773;0,157991
1079,9415;0,155467
1080,9058;0,153065
1081,8700;0,150836
1082,8342;0,148809
1083,7985;0,146992
1084,7627;0,145384
1085,7269;0,143977
1086,6912;0,142763
1087,6554;0,141729
1088,6196;0,140859
1089,5839;0,140142
1090,5481;0,139573
1091,5123;0,139156
1092,4766;0,138895
1093,4408;0,138791
1094,4050;0,138834
1095,3693;0,139002
1096,3335;0,13927
1097,2977;0,139609
1098,2620;0,139987
1099,2262;0,140367
1100,1904;0,140705
1101,1547;0,140956
1102,1189;0,141082
1103,0831;0,141058
1104,0474;0,140879
1105,0116;0,140563
1105,9758;0,14014
1106,9401;0,13964
1107,9043;0,139084
1108,8685;0,138463
1109,8328;0,137738
1110,7970;0,136847
1111,7612;0,135735
1112,7255;0,134377
1113,6897;0,132803
1114,6539;0,131099
1115,6182;0,129377
1116,5824;0,127744
1117,5466;0,12627
1118,5109;0,124969
1119,4751;0,123808
1120,4393;0,122722
1121,4036;0,121627
1122,3678;0,120442
1123,3320;0,119098
1124,2963;0,117553
1125,2605;0,115793
1126,2247;0,11384
1127,1890;0,111745
1128,1532;0,109573
1129,1174;0,10739
1130,0817;0,105249
1131,0459;0,10319
1132,0101;0,10124
1132,9744;0,0994174
1133,9386;0,0977401
1134,9028;0,0962284
1135,8671;0,0949059
1136,8313;0,0937975
1137,7955;0,0929246
1138,7598;0,0922973
1139,7240;0,0919093
1140,6882;0,0917362
1141,6525;0,0917406
1142,6167;0,0918805
1143,5809;0,0921187
1144,5452;0,0924268
1145,5094;0,0927857
1146,4736;0,0931823
1147,4379;0,0936068
1148,4021;0,094051
1149,3663;0,0945066
1150,3306;0,0949633
1151,2948;0,0954046
1152,2590;0,0958058
1153,2233;0,0961331
1154,1875;0,0963472
1155,1517;0,0964069
1156,1160;0,0962715
1157,0802;0,0959009
1158,0444;0,0952529
1159,0087;0,094282
1159,9729;0,0929415
1160,9371;0,0911901
1161,9014;0,0890047
1162,8656;0,0863933
1163,8298;0,083405
1164,7941;0,0801305
1165,7583;0,0766922
1166,7225;0,0732259
1167,6868;0,0698591
1168,6510;0,0666936
1169,6152;0,0637957
1170,5795;0,0611968
1171,5437;0,0588996
1172,5079;0,056888
1173,4722;0,0551365
1174,4364;0,0536169
1175,4006;0,0523032
1176,3649;0,051174
1177,3291;0,0502117
1178,2933;0,0494008
1179,2576;0,0487251
1180,2218;0,0481667
1181,1860;0,0477085
1182,1503;0,047338
1183,1145;0,0470505
1184,0787;0,046849
1185,0430;0,0467403
1186,0072;0,0467295
1186,9714;0,0468175
1187,9357;0,047001
1188,8999;0,0472749
1189,8641;0,0476351
1190,8284;0,0480783
1191,7926;0,0486
1192,7568;0,0491924
1193,7211;0,0498439
1194,6853;0,0505402
1195,6495;0,0512672
1196,6138;0,0520117
1197,5780;0,0527614
1198,5422;0,0535042
1199,5065;0,0541967
1200,4707;0,0549007
1201,4349;0,0555758
1202,3992;0,0562212
1203,3634;0,0568367
1204,3276;0,05742
1205,2919;0,0579664
1206,2561;0,0584721
1207,2203;0,0589403
1208,1846;0,0593861
1209,1488;0,0598373
1210,1130;0,0603283
1211,0773;0,0608917
1212,0415;0,0615487
1213,0057;0,0623053
1213,9700;0,0631537
1214,9342;0,0640777
1215,8984;0,0650581
1216,8627;0,0660753
1217,8269;0,0671094
1218,7911;0,0681411
1219,7554;0,0691535
1220,7196;0,0701354
1221,6838;0,0710829
1222,6481;0,0719979
1223,6123;0,0728834
1224,5765;0,0737389
1225,5408;0,0745598
1226,5050;0,0753391
1227,4692;0,076072
1228,4335;0,0767573
1229,3977;0,0773956
1230,3619;0,0779845
1231,3262;0,0785161
1232,2904;0,0789782
1233,2546;0,07936
1234,2189;0,0796588
1235,1831;0,0798833
1236,1473;0,080051
1237,1116;0,0801814
1238,0758;0,0802873
1239,0400;0,0803702
1240,0043;0,0804209
1240,9685;0,0804251
1241,9327;0,0803709
1242,8970;0,0802535
1243,8612;0,0800756
1244,8254;0,0798439
1245,7897;0,079565
1246,7539;0,0792437
1247,7181;0,0788839
1248,6824;0,0784916
1249,6466;0,0780762
1250,6108;0,0776492
1251,5751;0,0772211
1252,5393;0,0767984
1253,5035;0,076384
1254,4678;0,0759771
1255,4320;0,0755751
1256,3962;0,0751735
1257,3605;0,0747653
1258,3247;0,0743411
1259,2889;0,0738903
1260,2532;0,0734039
1261,2174;0,0728761
1262,1816;0,0723048
1263,1459;0,071691
1264,1101;0,0710386
1265,0743;0,0703537
1266,0386;0,0696439
1267,0028;0,0689171
1267,9670;0,0681788
1268,9313;0,0674311
1269,8955;0,0666738
1270,8597;0,0659064
1271,8240;0,0651307
1272,7882;0,064352
1273,7524;0,0635784
1274,7167;0,0628191
1275,6809;0,0620827
1276,6451;0,0613747
1277,6094;0,0606964
1278,5736;0,0600435
1279,5378;0,0594075
1280,5021;0,0587799
1281,4663;0,058157
1282,4305;0,057543
1283,3948;0,0569498
1284,3590;0,0563934
1285,3232;0,0558892
1286,2875;0,0554483
1287,2517;0,0550758
1288,2159;0,0547714
1289,1802;0,0545305
1290,1444;0,0543467
1291,1086;0,0542153
1292,0729;0,0541359
1293,0371;0,054114
1294,0013;0,0541587
1294,9656;0,0542789
1295,9298;0,0544784
1296,8940;0,0547544
1297,8583;0,0550996
1298,8225;0,0555066
1299,7867;0,0559703
1300,7510;0,0564886
1301,7152;0,0570597
1302,6794;0,0576805
1303,6437;0,0583465
1304,6079;0,0590536
1305,5721;0,0597985
1306,5364;0,0605775
1307,5006;0,0613847
1308,4648;0,0622115
1309,4291;0,0630472
1310,3933;0,063881
1311,3575;0,0647
1312,3218;0,0654875
1313,2860;0,0662188
1314,2502;0,0668611
1315,2145;0,0673767
1316,1787;0,0677299
1317,1429;0,0678984
1318,1072;0,0678844
1319,0714;0,0677212
1320,0356;0,067465
1320,9999;0,0671761
1321,9641;0,0668982
1322,9283;0,0666515
1323,8926;0,0664383
1324,8568;0,0662547
1325,8210;0,0660973
1326,7853;0,0659654
1327,7495;0,0658564
1328,7137;0,0657629
1329,6780;0,0656719
1330,6422;0,0655681
1331,6064;0,0654392
1332,5707;0,0652773
1333,5349;0,0650772
1334,4991;0,0648299
1335,4634;0,0645171
1336,4276;0,064111
1337,3918;0,063586
1338,3561;0,062942
1339,3203;0,0622235
1340,2845;0,0615107
1341,2488;0,0608781
1342,2130;0,0603592
1343,1772;0,059947
1344,1415;0,0596165
1345,1057;0,0593475
1346,0699;0,0591355
1347,0342;0,0589919
1347,9984;0,0589364
1348,9626;0,0589864
1349,9269;0,0591464
1350,8911;0,0594038
1351,8553;0,0597328
1352,8196;0,0601058
1353,7838;0,0605061
1354,7480;0,0609338
1355,7123;0,0614014
1356,6765;0,0619193
1357,6407;0,0624852
1358,6050;0,0630827
1359,5692;0,0636877
1360,5334;0,0642751
1361,4977;0,0648246
1362,4619;0,0653286
1363,4261;0,065796
1364,3904;0,0662424
1365,3546;0,0666751
1366,3188;0,0670876
1367,2831;0,0674646
1368,2473;0,0677884
1369,2115;0,0680411
1370,1758;0,0682022
1371,1400;0,068244
1372,1042;0,0681325
1373,0685;0,0678415
1374,0327;0,0673777
1374,9969;0,0667917
1375,9612;0,0661475
1376,9254;0,0654735
1377,8896;0,0647477
1378,8539;0,0639319
1379,8181;0,0630204
1380,7823;0,0620613
1381,7466;0,0611293
1382,7108;0,060271
1383,6750;0,0594687
1384,6393;0,0586547
1385,6035;0,057767
1386,5677;0,0568184
1387,5320;0,0559209
1388,4962;0,0552139
1389,4604;0,0547579
1390,4247;0,0545105
1391,3889;0,0543827
1392,3531;0,0542976
1393,3174;0,0542149
1394,2816;0,0541295
1395,2458;0,0540565
1396,2101;0,0540144
1397,1743;0,0540159
1398,1385;0,0540707
1399,1028;0,0541885
1400,0670;0,0543738
1401,0313;0,0546182
1401,9955;0,0549004
1402,9597;0,055197
1403,9240;0,0554949
1404,8882;0,0557991
1405,8524;0,0561275
1406,8167;0,0564949
1407,7809;0,0569005
1408,7451;0,0573324
1409,7094;0,0577837
1410,6736;0,058263
1411,6378;0,0587886
1412,6021;0,0593689
1413,5663;0,0599864
1414,5305;0,0605992
1415,4948;0,0611541
1416,4590;0,0616005
1417,4232;0,0619065
1418,3875;0,0620861
1419,3517;0,0622051
1420,3159;0,0623236
1421,2802;0,0624309
1422,2444;0,0624616
1423,2086;0,0623584
1424,1729;0,0621143
1425,1371;0,0617655
1426,1013;0,061348
1427,0656;0,0608599
1428,0298;0,0602666
1428,9940;0,0595527
1429,9583;0,0587707
1430,9225;0,0580234
1431,8867;0,0573793
1432,8510;0,0568086
1433,8152;0,0561983
1434,7794;0,0554256
1435,7437;0,0544661
1436,7079;0,0534772
1437,6721;0,0527157
1438,6364;0,0523158
1439,6006;0,0522144
1440,5648;0,0522718
1441,5291;0,0523874
1442,4933;0,0525276
1443,4575;0,0527006
1444,4218;0,0529188
1445,3860;0,0531748
1446,3502;0,053443
1447,3145;0,0537022
1448,2787;0,0539588
1449,2429;0,054244
1450,2072;0,0545841
1451,1714;0,0549728
1452,1356;0,055369
1453,0999;0,0557092
1454,0641;0,0559062
1455,0283;0,0558287
1455,9926;0,0553211
1456,9568;0,0544096
1457,9210;0,0535084
1458,8853;0,0530334
1459,8495;0,0529716
1460,8137;0,053066
1461,7780;0,0530673
1462,7422;0,0527919
1463,7064;0,0521369
1464,6707;0,0511469
1465,6349;0,0500386
1466,5991;0,0490454
1467,5634;0,0482289
1468,5276;0,0474767
1469,4918;0,046601
1470,4561;0,0454081
1471,4203;0,0437587
1472,3845;0,0416964
1473,3488;0,0395493
1474,3130;0,0377276
1475,2772;0,0363843
1476,2415;0,035411
1477,2057;0,0346434
1478,1699;0,0339729
1479,1342;0,0333506
1480,0984;0,0327652
1481,0626;0,0322307
1482,0269;0,0317796
1482,9911;0,0314466
1483,9553;0,0312464
1484,9196;0,0311608
1485,8838;0,0311427
1486,8480;0,031132
1487,8123;0,0310812
1488,7765;0,0309991
1489,7407;0,0309753
1490,7050;0,0311124
1491,6692;0,0314311
1492,6334;0,0318781
1493,5977;0,0323914
1494,5619;0,0329371
1495,5261;0,0335101
1496,4904;0,0341208
1497,4546;0,0347861
1498,4188;0,0355248
1499,3831;0,036337
1500,3473;0,0371861
1501,3115;0,0380103
1502,2758;0,0387513
1503,2400;0,0393683
1504,2042;0,0398284
1505,1685;0,0400649
1506,1327;0,0399443
1507,0969;0,0394354
1508,0612;0,0388591
1509,0254;0,0385461
1509,9896;0,0384845
1510,9539;0,0385141
1511,9181;0,0385106
1512,8823;0,0384079
1513,8466;0,0381764
1514,8108;0,0378123
1515,7750;0,0373396
1516,7393;0,0368025
1517,7035;0,0362383
1518,6677;0,0356548
1519,6320;0,0350415
1520,5962;0,0344114
1521,5604;0,0338274
1522,5247;0,0333667
1523,4889;0,0330573
1524,4531;0,0328719
1525,4174;0,0327766
1526,3816;0,0327665
1527,3458;0,0328546
1528,3101;0,0330376
1529,2743;0,0332835
1530,2385;0,0335512
1531,2028;0,0338215
1532,1670;0,0341141
1533,1312;0,0344775
1534,0955;0,0349482
1535,0597;0,0355125
1536,0239;0,0361156
1536,9882;0,0367006
1537,9524;0,0372209
1538,9166;0,0375983
1539,8809;0,0376702
1540,8451;0,037332
1541,8093;0,0368211
1542,7736;0,0364702
1543,7378;0,03634
1544,7020;0,0363401
1545,6663;0,0364007
1546,6305;0,0364964
1547,5947;0,0366138
1548,5590;0,0367315
1549,5232;0,0368273
1550,4874;0,0368999
1551,4517;0,0369796
1552,4159;0,0371095
1553,3801;0,0373061
1554,3444;0,0375337
1555,3086;0,0377046
1556,2728;0,0376756
1557,2371;0,0372518
1558,2013;0,0363789
1559,1655;0,0355249
1560,1298;0,0352904
1561,0940;0,0356644
1562,0582;0,0363084
1563,0225;0,0369731
1563,9867;0,0375469
1564,9509;0,0379954
1565,9152;0,0383192
1566,8794;0,0385433
1567,8436;0,0387253
1568,8079;0,0389557
1569,7721;0,0393165
1570,7363;0,0398202
1571,7006;0,0404036
1572,6648;0,0409803
1573,6290;0,0414878
1574,5933;0,0419021
1575,5575;0,0422413
1576,5217;0,0425701
1577,4860;0,0429735
1578,4502;0,0434862
1579,4144;0,0440715
1580,3787;0,0446717
1581,3429;0,0452526
1582,3071;0,0458129
1583,2714;0,0463748
1584,2356;0,0469681
1585,1998;0,0476138
1586,1641;0,0483135
1587,1283;0,0490491
1588,0925;0,0497894
1589,0568;0,050498
1590,0210;0,0511407
1590,9852;0,0516885
1591,9495;0,0521171
1592,9137;0,052408
1593,8779;0,0525553
1594,8422;0,0525749
1595,8064;0,0525047
1596,7706;0,0523907
1597,7349;0,0522683
1598,6991;0,0521534
1599,6633;0,0520454
1600,6276;0,051939
1601,5918;0,0518356
1602,5560;0,0517481
1603,5203;0,0516937
1604,4845;0,0516792
1605,4487;0,0516924
1606,4130;0,0517098
1607,3772;0,0517197
1608,3414;0,0517455
1609,3057;0,0518421
1610,2699;0,0520567
1611,2341;0,052385
1612,1984;0,0527679
1613,1626;0,0531252
1614,1268;0,0533951
1615,0911;0,0535688
1616,0553;0,0537189
1617,0195;0,0539717
1617,9838;0,0543985
1618,9480;0,0549494
1619,9122;0,0555168
1620,8765;0,0560181
1621,8407;0,0564272
1622,8049;0,0567666
1623,7692;0,0570827
1624,7334;0,0574093
1625,6976;0,0577496
1626,6619;0,0580928
1627,6261;0,0584433
1628,5903;0,0588257
1629,5546;0,0592573
1630,5188;0,05972
1631,4830;0,0601573
1632,4473;0,0604921
1633,4115;0,0606388
1634,3757;0,0605255
1635,3400;0,0601795
1636,3042;0,0598199
1637,2684;0,0597028
1638,2327;0,0598683
1639,1969;0,0601896
1640,1611;0,0605397
1641,1254;0,0608491
1642,0896;0,0610853
1643,0538;0,0612188
1644,0181;0,0612052
1644,9823;0,0610014
1645,9465;0,060643
1646,9108;0,0603088
1647,8750;0,0601855
1648,8392;0,0602598
1649,8035;0,0603313
1650,7677;0,0601161
1651,7319;0,0592958
1652,6962;0,0577351
1653,6604;0,0559867
1654,6246;0,0549344
1655,5889;0,0546866
1656,5531;0,0547862
1657,5173;0,0548513
1658,4816;0,0546941
1659,4458;0,0542373
1660,4100;0,0534641
1661,3743;0,0524408
1662,3385;0,0513514
1663,3027;0,050421
1664,2670;0,0497546
1665,2312;0,0492812
1666,1954;0,0488273
1667,1597;0,0482019
1668,1239;0,047273
1669,0881;0,0460688
1670,0524;0,044815
1671,0166;0,0437573
1671,9808;0,0429327
1672,9451;0,042186
1673,9093;0,0413499
1674,8735;0,0403939
1675,8378;0,0394572
1676,8020;0,0387328
1677,7662;0,0382962
1678,7305;0,0380614
1679,6947;0,0378588
1680,6589;0,0374995
1681,6232;0,0367867
1682,5874;0,0355628
1683,5516;0,0339188
1684,5159;0,0323413
1685,4801;0,0312895
1686,4443;0,0307545
1687,4086;0,0304619
1688,3728;0,0301893
1689,3370;0,0298527
1690,3013;0,0294663
1691,2655;0,0290766
1692,2297;0,0287154
1693,1940;0,0283841
1694,1582;0,0280628
1695,1224;0,0277229
1696,0867;0,0273333
1697,0509;0,0268627
1698,0151;0,0262994
1698,9794;0,0256964
1699,9436;0,0251884
1700,9078;0,0249125
1701,8721;0,0249012
1702,8363;0,0250719
1703,8005;0,0253021
1704,7648;0,0255053
1705,7290;0,0256672
1706,6932;0,0258402
1707,6575;0,0260978
1708,6217;0,0264789
1709,5859;0,0269718
1710,5502;0,0275363
1711,5144;0,0281287
1712,4786;0,0287096
1713,4429;0,0292373
1714,4071;0,0296598
1715,3713;0,0299227
1716,3356;0,030021
1717,2998;0,030072
1718,2640;0,030262
1719,2283;0,0306727
1720,1925;0,0312407
1721,1567;0,0318574
1722,1210;0,0324425
1723,0852;0,0329598
1724,0494;0,0334101
1725,0137;0,0338194
1725,9779;0,0342232
1726,9421;0,0346468
1727,9064;0,035088
1728,8706;0,0355101
1729,8348;0,0358434
1730,7991;0,035992
1731,7633;0,0358584
1732,7275;0,0354184
1733,6918;0,0348222
1734,6560;0,0343352
1735,6202;0,0340916
1736,5845;0,0339973
1737,5487;0,0338631
1738,5129;0,0335409
1739,4772;0,0329828
1740,4414;0,0322507
1741,4056;0,031472
1742,3699;0,0307502
1743,3341;0,0301035
1744,2983;0,0294836
1745,2626;0,0288276
1746,2268;0,0280801
1747,1910;0,0271841
1748,1553;0,0260855
1749,1195;0,0247903
1750,0837;0,023431
1751,0480;0,0222142
1752,0122;0,0212648
1752,9764;0,0205529
1753,9407;0,0199576
1754,9049;0,0193635
1755,8691;0,0187185
1756,8334;0,0180388
1757,7976;0,0173697
1758,7618;0,0167328
1759,7261;0,0161081
1760,6903;0,0154688
1761,6545;0,0148309
1762,6188;0,0142579
1763,5830;0,0138104
1764,5472;0,0134947
1765,5115;0,0132631
1766,4757;0,0130523
1767,4399;0,0128151
1768,4042;0,0125293
1769,3684;0,012186
1770,3326;0,0117796
1771,2969;0,0113216
1772,2611;0,0108715
1773,2253;0,0105268
1774,1896;0,0103506
1775,1538;0,0103222
1776,1180;0,010365
1777,0823;0,0103998
1778,0465;0,0103789
1779,0107;0,0102942
1779,9750;0,0101662
1780,9392;0,0100234
1781,9034;0,00988288
1782,8677;0,00975192
1783,8319;0,00964357
1784,7961;0,0095845
1785,7604;0,00960002
1786,7246;0,00968924
1787,6888;0,00981538
1788,6531;0,00991838
1789,6173;0,00993702
1790,5815;0,0098335
1791,5458;0,00962412
1792,5100;0,0093955
1793,4742;0,00925576
1794,4385;0,00924782
1795,4027;0,00932942
1796,3669;0,00942409
1797,3312;0,00947003
1798,2954;0,00943935
1799,2596;0,00933964
1800,2239;0,00920675
1801,1881;0,00908733
1802,1523;0,00901567
1803,1166;0,00900088
1804,0808;0,00903171
1805,0450;0,00908853
1806,0093;0,00915067
1806,9735;0,00919766
1807,9377;0,00920951
1808,9020;0,00917139
1809,8662;0,00908325
1810,8304;0,00896632
1811,7947;0,00885532
1812,7589;0,00877814
1813,7231;0,00874124
1814,6874;0,00873251
1815,6516;0,00873552
1816,6158;0,00874292
1817,5801;0,00876091
1818,5443;0,00880167
1819,5085;0,00886861
1820,4728;0,00894718
1821,4370;0,0090098
1822,4012;0,00903118
1823,3655;0,00900411
1824,3297;0,00894507
1825,2939;0,008882
1826,2582;0,00883054
1827,2224;0,00878029
1828,1866;0,0087054
1829,1509;0,00859342
1830,1151;0,00846863
1831,0793;0,00838128
1832,0436;0,0083656
1833,0078;0,00841276
1833,9720;0,00848457
1834,9363;0,00854531
1835,9005;0,00858347
1836,8647;0,00861351
1837,8290;0,00865792
1838,7932;0,00872236
1839,7574;0,00878618
1840,7217;0,00881555
1841,6859;0,00878543
1842,6501;0,00869631
1843,6144;0,00857914
1844,5786;0,00848156
1845,5428;0,00843468
1846,5071;0,00842926
1847,4713;0,00842922
1848,4355;0,00840502
1849,3998;0,00835387
1850,3640;0,00829692
1851,3282;0,0082617
1852,2925;0,00826349
1853,2567;0,00829833
1854,2209;0,00835007
1855,1852;0,00840266
1856,1494;0,00844698
1857,1136;0,00848002
1858,0779;0,00850086
1859,0421;0,00851021
1860,0063;0,00851392
1860,9706;0,00852469
1861,9348;0,00855664
1862,8990;0,00861532
1863,8633;0,00869166
1864,8275;0,00876509
1865,7917;0,00881261
1866,7560;0,00881821
1867,7202;0,00878062
1868,6844;0,00871672
1869,6487;0,00865212
1870,6129;0,00860043
1871,5771;0,00855334
1872,5414;0,00849303
1873,5056;0,00841097
1874,4698;0,0083169
1875,4341;0,00823429
1876,3983;0,00818796
1877,3625;0,00819144
1878,3268;0,00824268
1879,2910;0,00832783
1880,2552;0,00842818
1881,2195;0,00852445
1882,1837;0,00859887
1883,1479;0,00863769
1884,1122;0,00863447
1885,0764;0,00859175
1886,0406;0,0085199
1887,0049;0,00843433
1887,9691;0,00835266
1888,9333;0,00829231
1889,8976;0,00826766
1890,8618;0,00828574
1891,8260;0,00834208
1892,7903;0,00841969
1893,7545;0,00849266
1894,7188;0,00853395
1895,6830;0,00852657
1896,6472;0,00847396
1897,6115;0,00840088
1898,5757;0,00834164
1899,5399;0,00832358
1900,5042;0,00835544
1901,4684;0,00842481
1902,4326;0,008504
1903,3969;0,00856202
1904,3611;0,00857707
1905,3253;0,00854343
1906,2896;0,00847114
1907,2538;0,00838156
1908,2180;0,00830106
1909,1823;0,00825315
1910,1465;0,00824953
1911,1107;0,00828415
1912,0750;0,00833538
1913,0392;0,00837635
1914,0034;0,00838806
1914,9677;0,00836904
1915,9319;0,00833704
1916,8961;0,00831989
1917,8604;0,00833718
1918,8246;0,0083836
1919,7888;0,00842791
1920,7531;0,00842971
1921,7173;0,00836229
1922,6815;0,00822945
1923,6458;0,00806827
1924,6100;0,00793438
1925,5742;0,00787586
1926,5385;0,0079122
1927,5027;0,00802915
1928,4669;0,00818581
1929,4312;0,00832689
1930,3954;0,00839977
1931,3596;0,00837486
1932,3239;0,00825991
1933,2881;0,00809838
1934,2523;0,00795001
1935,2166;0,00786255
1936,1808;0,00784941
1937,1450;0,00788705
1938,1093;0,00793417
1939,0735;0,00795955
1940,0377;0,00796084
1941,0020;0,0079633
1941,9662;0,00799817
1942,9304;0,00807365
1943,8947;0,00816218
1944,8589;0,0082176
1945,8231;0,00820772
1946,7874;0,00813595
1947,7516;0,00803845
1948,7158;0,00796074
1949,6801;0,0079274
1950,6443;0,00792477
1951,6085;0,00791107
1952,5728;0,00784977
1953,5370;0,007743
1954,5012;0,00763925
1955,4655;0,0076058
1956,4297;0,00768156
1957,3939;0,00784174
1958,3582;0,00800045
1959,3224;0,00805456
1960,2866;0,00794492
1961,2509;0,00769563
1962,2151;0,00740276
1963,1793;0,00718091
1964,1436;0,00710503
1965,1078;0,00717868
1966,0720;0,00733635
1967,0363;0,00747422
1968,0005;0,00749655
1968,9647;0,00735735
1969,9290;0,00707893
1970,8932;0,00674501
1971,8574;0,00647687
1972,8217;0,00639704
1973,7859;0,00658247
1974,7501;0,00701947
1975,7144;0,00758955
1976,6786;0,00810965
1977,6428;0,00841791
1978,6071;0,00845242
1979,5713;0,0082686
1980,5355;0,00799264
1981,4998;0,00775563
1982,4640;0,00764814
1983,4282;0,00770142
1984,3925;0,00788552
1985,3567;0,00812083
1986,3209;0,00830588
1987,2852;0,0083583
1988,2494;0,00825312
1989,2136;0,00803867
1990,1779;0,0078181
1991,1421;0,00769965
1992,1063;0,00773963
1993,0706;0,00791519
1994,0348;0,00814639
1994,9990;0,00834621
1995,9633;0,00845917
1996,9275;0,00846996
1997,8917;0,00839133
1998,8560;0,00824989
1999,8202;0,00808076
2000,7844;0,0079287
2001,7487;0,00784577
2002,7129;0,00787874
2003,6771;0,00804916
2004,6414;0,00833613
2005,6056;0,00867298
2006,5698;0,00896366
2007,5341;0,00911428
2008,4983;0,00906659
2009,4625;0,00882098
2010,4268;0,00844365
2011,3910;0,00805662
2012,3552;0,00780771
2013,3195;0,00781995
2014,2837;0,00813267
2015,2479;0,00866365
2016,2122;0,00922868
2017,1764;0,00962814
2018,1406;0,00975532
2019,1049;0,00964935
2020,0691;0,00945369
2021,0333;0,00931741
2021,9976;0,00931308
2022,9618;0,00942006
2023,9260;0,0095703
2024,8903;0,00971124
2025,8545;0,00983312
2026,8187;0,00994245
2027,7830;0,0100143
2028,7472;0,00997765
2029,7114;0,00975896
2030,6757;0,0093564
2031,6399;0,00888351
2032,6041;0,00853653
2033,5684;0,00849478
2034,5326;0,00881719
2035,4968;0,00940676
2036,4611;0,0100634
2037,4253;0,0105822
2038,3895;0,0108333
2039,3538;0,0107908
2040,3180;0,0105178
2041,2822;0,0101289
2042,2465;0,00974915
2043,2107;0,00947952
2044,1749;0,00937728
2045,1392;0,00945079
2046,1034;0,00966388
2047,0676;0,00994748
2048,0320;0,0102201
2048,9961;0,0104147
2049,9604;0,0105003
2050,9246;0,010486
2051,8889;0,0104099
2052,8530;0,01032
2053,8174;0,0102558
2054,7815;0,010235
2055,7458;0,0102495
2056,7100;0,010275
2057,6743;0,0102887
2058,6384;0,0102851
2059,6028;0,0102786
2060,5669;0,0102934
2061,5313;0,010346
2062,4954;0,0104325
2063,4597;0,0105266
2064,4238;0,0105897
2065,3882;0,0105883
2066,3523;0,0105103
2067,3167;0,0103742
2068,2808;0,0102257
2069,2451;0,0101237
2070,2092;0,0101187
2071,1736;0,0102305
2072,1377;0,0104371
2073,1021;0,0106805
2074,0662;0,0108899
2075,0305;0,0110095
2075,9946;0,0110175
2076,9590;0,0109275
2077,9231;0,0107768
2078,8875;0,0106097
2079,8516;0,0104657
2080,8159;0,0103738
2081,7800;0,0103497
2082,7444;0,0103933
2083,7085;0,010487
2084,6729;0,010598
2085,6370;0,0106882
2086,6013;0,0107273
2087,5654;0,0107046
2088,5298;0,0106322
2089,4939;0,0105388
2090,4583;0,0104569
2091,4224;0,0104101
2092,3867;0,010405
2093,3508;0,0104319
2094,3152;0,0104718
2095,2793;0,0105089
2096,2437;0,01054
2097,2078;0,0105758
2098,1721;0,0106303
2099,1362;0,010707
2100,1006;0,0107915
2101,0647;0,0108562
2102,0291;0,0108813
2102,9932;0,0108669
2103,9575;0,010835
2104,9216;0,0108134
2105,8860;0,0108152
2106,8501;0,0108299
2107,8145;0,0108343
2108,7786;0,0108136
2109,7429;0,0107762
2110,7070;0,010749
2111,6714;0,010757
2112,6355;0,0108052
2113,5999;0,0108762
2114,5640;0,0109444
2115,5283;0,0109935
2116,4924;0,0110221
2117,4568;0,0110366
2118,4209;0,0110393
2119,3853;0,0110262
2120,3494;0,0109955
2121,3137;0,010958
2122,2778;0,0109371
2123,2422;0,0109542
2124,2063;0,0110094
2125,1707;0,0110749
2126,1348;0,0111078
2127,0991;0,011077
2128,0632;0,0109845
2129,0276;0,0108685
2129,9917;0,0107864
2130,9561;0,0107876
2131,9202;0,0108911
2132,8845;0,0110769
2133,8486;0,0112935
2134,8130;0,0114769
2135,7771;0,0115753
2136,7415;0,0115678
2137,7056;0,0114704
2138,6699;0,0113271
2139,6340;0,0111917
2140,5984;0,0111099
2141,5625;0,0111083
2142,5269;0,0111908
2143,4910;0,0113402
2144,4553;0,01152
2145,4194;0,0116796
2146,3838;0,0117662
2147,3479;0,0117455
2148,3123;0,0116209
2149,2764;0,0114381
2150,2407;0,0112672
2151,2048;0,0111695
2152,1692;0,0111733
2153,1333;0,0112731
2154,0977;0,0114519
2155,0618;0,0117065
2156,0261;0,0120499
2156,9902;0,0124805
2157,9546;0,0129425
2158,9187;0,013322
2159,8831;0,0135089
2160,8472;0,0134714
2161,8115;0,0132719
2162,7756;0,013018
2163,7400;0,0128016
2164,7041;0,012666
2165,6685;0,0126053
2166,6326;0,0125828
2167,5969;0,0125537
2168,5610;0,0124787
2169,5254;0,0123324
2170,4895;0,0121109
2171,4539;0,0118416
2172,4180;0,0115871
2173,3823;0,0114305
2174,3464;0,0114414
2175,3108;0,0116363
2176,2749;0,011963
2177,2393;0,0123204
2178,2034;0,0126052
2179,1677;0,0127523
2180,1318;0,0127488
2181,0962;0,0126204
2182,0603;0,012405
2183,0247;0,0121373
2183,9888;0,0118482
2184,9531;0,011574
2185,9172;0,0113571
2186,8816;0,0112339
2187,8457;0,0112197
2188,8101;0,0113027
2189,7742;0,0114542
2190,7385;0,011644
2191,7026;0,0118492
2192,6670;0,0120488
2193,6311;0,0122117
2194,5955;0,012295
2195,5596;0,0122597
2196,5239;0,0120981
2197,4880;0,0118515
2198,4524;0,0116019
2199,4165;0,0114362
2200,3809;0,0114016
2201,3450;0,0114789
2202,3093;0,011592
2203,2734;0,011647
2204,2378;0,011581
2205,2019;0,011392
2206,1663;0,0111366
2207,1304;0,0108997
2208,0947;0,0107566
2209,0588;0,0107453
2210,0232;0,0108599
2210,9873;0,0110613
2211,9517;0,011293
2212,9158;0,0114949
2213,8801;0,0116141
2214,8442;0,0116158
2215,8086;0,0114942
2216,7727;0,0112793
2217,7371;0,0110316
2218,7012;0,0108215
2219,6655;0,010702
2220,6296;0,0106897
2221,5940;0,010762
2222,5581;0,0108741
2223,5225;0,0109824
2224,4866;0,0110617
2225,4509;0,0111093
2226,4150;0,0111367
2227,3794;0,0111582
2228,3435;0,0111832
2229,3079;0,0112141
2230,2720;0,0112473
2231,2363;0,0112757
2232,2004;0,0112896
2233,1648;0,011279
2234,1289;0,011238
2235,0933;0,0111686
2236,0574;0,0110841
2237,0217;0,011007
2237,9858;0,0109611
2238,9502;0,0109615
2239,9143;0,0110049
2240,8787;0,0110683
2241,8428;0,0111172
2242,8071;0,0111214
2243,7712;0,0110712
2244,7356;0,0109845
2245,6997;0,0108995
2246,6641;0,0108556
2247,6282;0,0108738
2248,5925;0,0109473
2249,5566;0,0110483
2250,5210;0,0111448
2251,4851;0,0112164
2252,4495;0,0112603
2253,4136;0,0112847
2254,3779;0,0112981
2255,3420;0,0113031
2256,3064;0,011298
2257,2705;0,0112832
2258,2349;0,0112646
2259,1990;0,011251
2260,1633;0,011247
2261,1274;0,0112491
2262,0918;0,0112484
2263,0559;0,0112384
2264,0203;0,0112214
2264,9844;0,0112083
2265,9487;0,0112124
2266,9128;0,0112406
2267,8772;0,0112898
2268,8413;0,0113493
2269,8057;0,0114054
2270,7698;0,0114468
2271,7341;0,0114651
2272,6982;0,011455
2273,6626;0,0114146
2274,6267;0,0113474
2275,5911;0,0112643
2276,5552;0,0111817
2277,5195;0,011117
2278,4836;0,0110831
2279,4480;0,0110851
2280,4121;0,0111213
2281,3765;0,011186
2282,3406;0,0112718
2283,3049;0,0113694
2284,2690;0,0114665
2285,2334;0,0115482
2286,1975;0,0116022
2287,1619;0,0116248
2288,1260;0,0116252
2289,0903;0,0116229
2290,0544;0,0116388
2291,0188;0,0116846
2291,9829;0,0117562
2292,9473;0,0118368
2293,9114;0,0119066
2294,8757;0,0119536
2295,8398;0,0119797
2296,8042;0,0119965
2297,7683;0,0120164
2298,7327;0,012043
2299,6968;0,0120695
2300,6611;0,0120842
2301,6252;0,0120811
2302,5896;0,0120658
2303,5537;0,0120558
2304,5181;0,0120706
2305,4822;0,0121202
2306,4465;0,0121959
2307,4106;0,0122708
2308,3750;0,0123099
2309,3391;0,0122864
2310,3035;0,0121957
2311,2676;0,012059
2312,2319;0,0119141
2313,1960;0,0117973
2314,1604;0,011727
2315,1245;0,0116991
2316,0889;0,0116951
2317,0530;0,0116964
2318,0173;0,0116946
2318,9814;0,0116939
2319,9458;0,0117047
2320,9099;0,0117355
2321,8743;0,0117895
2322,8384;0,0118641
2323,8027;0,0119488
2324,7668;0,012023
2325,7312;0,0120584
2326,6953;0,0120301
2327,6597;0,0119311
2328,6238;0,0117815
2329,5881;0,0116296
2330,5522;0,0115377
2331,5166;0,0115537
2332,4807;0,0116835
2333,4451;0,0118832
2334,4092;0,0120807
2335,3735;0,012212
2336,3376;0,0122501
2337,3020;0,0122128
2338,2661;0,0121456
2339,2305;0,0120874
2340,1946;0,0120392
2341,1589;0,0119588
2342,1230;0,0117948
2343,0874;0,0115592
2344,0515;0,0113869
2345,0159;0,0114705
2345,9800;0,0118846
2346,9443;0,0125031
2347,9084;0,0130938
2348,8728;0,0134613
2349,8369;0,0135281
2350,8013;0,0133463
2351,7654;0,0130581
2352,7297;0,0128202
2353,6938;0,0127259
2354,6582;0,0127807
2355,6223;0,0129405
2356,5867;0,0131492
2357,5508;0,0133431
2358,5151;0,0134546
2359,4792;0,0134349
2360,4436;0,0132741
2361,4077;0,012987
2362,3721;0,012587
2363,3362;0,0120855
2364,3005;0,0115172
2365,2646;0,0109542
2366,2290;0,0104814
2367,1931;0,0101528
2368,1575;0,00996646
2369,1216;0,00987429
2370,0859;0,00981578
2371,0500;0,0097506
2372,0144;0,00967389
2372,9785;0,00961162
2373,9429;0,00960335
2374,9070;0,00968259
2375,8713;0,00986254
2376,8354;0,0101314
2377,7998;0,0104573
2378,7639;0,0107985
2379,7283;0,0111147
2380,6924;0,0113759
2381,6567;0,0115654
2382,6208;0,0116805
2383,5852;0,0117296
2384,5493;0,0117296
2385,5137;0,0117018
2386,4778;0,0116681
2387,4421;0,0116466
2388,4063;0,0116479
2389,3706;0,0116726
2390,3347;0,011713
2391,2991;0,0117562
2392,2632;0,0117905
2393,2275;0,01181
2394,1917;0,0118158
2395,1560;0,0118143
2396,1201;0,0118138
2397,0845;0,0118206
2398,0486;0,0118388
2399,0129;0,0118691
2399,9771;0,0119098
2400,9414;0,0119584
2401,9055;0,012011
2402,8699;0,0120632
2403,8340;0,0121103
2404,7983;0,012148
2405,7625;0,0121723
2406,7268;0,0121811
2407,6909;0,0121749
2408,6553;0,0121594
2409,6194;0,0121444
2410,5837;0,0121416
2411,5479;0,0121601
2412,5122;0,012201
2413,4763;0,0122561
2414,4407;0,0123105
2415,4048;0,0123496
2416,3691;0,0123659
2417,3333;0,0123622
2418,2976;0,0123494
2419,2617;0,01234
2420,2261;0,012342
2421,1902;0,0123565
2422,1545;0,0123798
2423,1187;0,0124078
2424,0830;0,0124392
2425,0471;0,0124746
2426,0115;0,0125136
2426,9756;0,0125527
2427,9399;0,012586
2428,9041;0,0126092
2429,8684;0,0126234
2430,8325;0,0126347
2431,7969;0,0126511
2432,7610;0,0126766
2433,7253;0,0127087
2434,6895;0,012741
2435,6538;0,0127676
2436,6179;0,0127874
2437,5823;0,0128055
2438,5464;0,0128296
2439,5107;0,0128666
2440,4749;0,0129184
2441,4392;0,0129813
2442,4033;0,0130469
2443,3677;0,0131038
2444,3318;0,0131422
2445,2961;0,0131575
2446,2603;0,0131535
2447,2246;0,0131417
2448,1887;0,0131362
2449,1531;0,0131468
2450,1172;0,013174
2451,0815;0,013209
2452,0457;0,0132396
2453,0100;0,0132579
2453,9741;0,0132651
2454,9385;0,01327
2455,9026;0,0132834
2456,8669;0,0133111
2457,8311;0,01335
2458,7954;0,0133902
2459,7595;0,0134199
2460,7239;0,0134323
2461,6880;0,0134297
2462,6523;0,0134225
2463,6165;0,0134243
2464,5808;0,0134446
2465,5449;0,0134834
2466,5093;0,0135312
2467,4734;0,0135733
2468,4377;0,013598
2469,4019;0,0136014
2470,3662;0,0135885
2471,3303;0,0135703
2472,2947;0,0135592
2473,2588;0,0135654
2474,2231;0,0135959
2475,1873;0,0136522
2476,1516;0,0137291
2477,1157;0,0138139
2478,0801;0,0138892
2479,0442;0,0139397
2480,0085;0,0139597
2480,9727;0,0139562
2481,9370;0,0139444
2482,9011;0,0139383
2483,8655;0,0139431
2484,8296;0,0139547
2485,7939;0,0139656
2486,7581;0,013973
2487,7224;0,0139816
2488,6865;0,0139986
2489,6509;0,0140273
2490,6150;0,0140631
2491,5793;0,0140966
2492,5435;0,0141198
2493,5078;0,0141311
2494,4719;0,0141345
2495,4363;0,0141352
2496,4004;0,0141364
2497,3647;0,0141389
2498,3289;0,0141443
2499,2932;0,0141556
2500,2573;0,0141752
2501,2217;0,0142015
2502,1858;0,014228
2503,1501;0,0142479
2504,1143;0,0142593
2505,0786;0,0142679
2506,0427;0,0142826
2507,0071;0,0143077
2507,9712;0,0143375
2508,9355;0,0143595
2509,8997;0,0143633
2510,8640;0,0143494
2511,8281;0,0143304
2512,7925;0,0143235
2513,7566;0,0143392
2514,7209;0,0143747
2515,6851;0,0144169
2516,6494;0,0144525
2517,6135;0,0144769
2518,5779;0,0144971
2519,5420;0,0145247
2520,5063;0,0145663
2521,4705;0,0146177
2522,4348;0,0146658
2523,3989;0,0146977
2524,3633;0,0147087
2525,3274;0,0147053
2526,2917;0,0147001
2527,2559;0,0147042
2528,2202;0,0147206
2529,1843;0,014745
2530,1487;0,0147699
2531,1128;0,0147899
2532,0771;0,0148035
2533,0413;0,0148114
2534,0056;0,014814
2534,9697;0,0148106
2535,9341;0,0148011
2536,8982;0,0147882
2537,8625;0,0147763
2538,8267;0,0147695
2539,7910;0,0147677
2540,7551;0,0147667
2541,7195;0,0147612
2542,6836;0,0147493
2543,6479;0,0147352
2544,6121;0,0147279
2545,5764;0,0147375
2546,5405;0,0147693
2547,5049;0,0148215
2548,4690;0,0148848
2549,4333;0,0149451
2550,3975;0,0149881
2551,3618;0,0150052
2552,3259;0,0149968
2553,2903;0,0149732
2554,2544;0,0149503
2555,2188;0,0149417
2556,1829;0,0149526
2557,1472;0,0149777
2558,1113;0,0150055
2559,0757;0,0150256
2560,0398;0,0150352
2561,0042;0,0150396
2561,9683;0,0150475
2562,9326;0,0150648
2563,8967;0,0150907
2564,8611;0,0151182
2565,8252;0,0151391
2566,7896;0,0151491
2567,7537;0,0151497
2568,7180;0,0151474
2569,6821;0,0151486
2570,6465;0,0151556
2571,6106;0,0151649
2572,5750;0,0151698
2573,5391;0,0151656
2574,5034;0,0151548
2575,4675;0,0151484
2576,4319;0,0151609
2577,3960;0,0152024
2578,3604;0,0152711
2579,3245;0,0153516
2580,2888;0,015421
2581,2529;0,01546
2582,2173;0,0154616
2583,1814;0,0154352
2584,1458;0,0154008
2585,1099;0,0153794
2586,0742;0,0153837
2587,0383;0,0154145
2588,0027;0,0154631
2588,9668;0,015517
2589,9312;0,0155659
2590,8953;0,0156042
2591,8596;0,0156299
2592,8237;0,0156427
2593,7881;0,0156427
2594,7522;0,0156312
2595,7166;0,0156124
2596,6807;0,0155944
2597,6450;0,0155877
2598,6091;0,0156018
2599,5735;0,0156412
2600,5376;0,0157027
2601,5020;0,0157768
2602,4661;0,015851
2603,4304;0,0159142
2604,3945;0,0159604
2605,3589;0,0159898
2606,3230;0,0160071
2607,2874;0,0160194
2608,2515;0,0160335
2609,2158;0,0160535
2610,1799;0,0160809
2611,1443;0,0161141
2612,1084;0,0161498
2613,0728;0,0161839
2614,0369;0,0162132
2615,0012;0,0162361
2615,9653;0,016254
2616,9297;0,0162713
2617,8938;0,0162935
2618,8582;0,0163248
2619,8223;0,016366
2620,7866;0,0164131
2621,7507;0,0164588
2622,7151;0,0164961
2623,6792;0,0165217
2624,6436;0,0165376
2625,6077;0,0165501
2626,5720;0,0165669
2627,5361;0,0165937
2628,5005;0,0166325
2629,4646;0,0166817
2630,4290;0,016737
2631,3931;0,0167933
2632,3574;0,0168453
2633,3215;0,016889
2634,2859;0,0169226
2635,2500;0,016947
2636,2144;0,0169659
2637,1785;0,0169839
2638,1428;0,0170053
2639,1069;0,0170319
2640,0713;0,0170636
2641,0354;0,0170987
2641,9998;0,0171362
2642,9639;0,0171759
2643,9282;0,0172185
2644,8923;0,0172639
2645,8567;0,0173108
2646,8208;0,0173563
2647,7852;0,0173975
2648,7493;0,0174327
2649,7136;0,0174624
2650,6777;0,0174888
2651,6421;0,0175148
2652,6062;0,0175426
2653,5706;0,0175733
2654,5347;0,0176072
2655,4990;0,0176445
2656,4631;0,0176851
2657,4275;0,017728
2658,3916;0,0177711
2659,3560;0,0178116
2660,3201;0,0178467
2661,2844;0,0178753
2662,2485;0,0178984
2663,2129;0,0179189
2664,1770;0,0179396
2665,1414;0,0179625
2666,1055;0,017988
2667,0698;0,0180153
2668,0339;0,018044
2668,9983;0,0180736
2669,9624;0,0181047
2670,9268;0,0181375
2671,8909;0,0181725
2672,8552;0,0182098
2673,8193;0,0182495
2674,7837;0,0182909
2675,7478;0,0183329
2676,7122;0,0183733
2677,6763;0,0184106
2678,6406;0,0184447
2679,6047;0,0184775
2680,5691;0,0185126
2681,5332;0,0185531
2682,4976;0,0186
2683,4617;0,0186516
2684,4260;0,0187042
2685,3901;0,0187535
2686,3545;0,0187965
2687,3186;0,0188321
2688,2830;0,0188617
2689,2471;0,0188885
2690,2114;0,0189166
2691,1755;0,0189498
2692,1399;0,0189896
2693,1040;0,019035
2694,0684;0,0190826
2695,0325;0,0191282
2695,9968;0,0191696
2696,9609;0,019207
2697,9253;0,0192424
2698,8894;0,0192781
2699,8538;0,0193158
2700,8179;0,0193568
2701,7822;0,0194028
2702,7463;0,0194559
2703,7107;0,0195175
2704,6748;0,0195854
2705,6392;0,0196532
2706,6033;0,0197122
2707,5676;0,0197562
2708,5317;0,0197851
2709,4961;0,0198055
2710,4602;0,0198273
2711,4246;0,0198583
2712,3887;0,0199002
2713,3530;0,0199485
2714,3171;0,019997
2715,2815;0,0200418
2716,2456;0,0200846
2717,2100;0,0201306
2718,1741;0,0201847
2719,1384;0,0202468
2720,1025;0,0203107
2721,0669;0,0203665
2722,0310;0,0204059
2722,9954;0,0204272
2723,9595;0,0204369
2724,9238;0,0204474
2725,8879;0,0204707
2726,8523;0,0205136
2727,8164;0,0205742
2728,7808;0,0206441
2729,7449;0,020712
2730,7092;0,0207689
2731,6733;0,0208106
2732,6377;0,0208386
2733,6018;0,0208574
2734,5662;0,0208726
2735,5303;0,020889
2736,4946;0,020909
2737,4587;0,0209333
2738,4231;0,0209613
2739,3872;0,0209921
2740,3516;0,0210257
2741,3157;0,0210628
2742,2800;0,0211041
2743,2441;0,0211492
2744,2085;0,0211954
2745,1726;0,0212383
2746,1370;0,0212732
2747,1011;0,0212971
2748,0654;0,021311
2749,0295;0,0213198
2749,9939;0,0213314
2750,9580;0,0213537
2751,9224;0,0213921
2752,8865;0,0214475
2753,8508;0,0215158
2754,8149;0,0215894
2755,7793;0,0216591
2756,7434;0,0217179
2757,7078;0,0217628
2758,6719;0,0217961
2759,6362;0,0218245
2760,6003;0,0218561
2761,5647;0,0218971
2762,5288;0,0219493
2763,4932;0,0220096
2764,4573;0,0220716
2765,4216;0,0221295
2766,3857;0,0221808
2767,3501;0,0222281
2768,3142;0,0222762
2769,2786;0,0223291
2770,2427;0,0223865
2771,2070;0,0224434
2772,1711;0,0224935
2773,1355;0,0225337
2774,0996;0,0225668
2775,0640;0,0226013
2776,0281;0,0226467
2776,9924;0,0227088
2777,9565;0,0227864
2778,9209;0,0228725
2779,8850;0,022959
2780,8494;0,023041
2781,8135;0,0231189
2782,7778;0,0231962
2783,7419;0,0232755
2784,7063;0,0233555
2785,6704;0,023431
2786,6348;0,023497
2787,5989;0,0235526
2788,5632;0,0236039
2789,5273;0,0236617
2790,4917;0,0237355
2791,4558;0,0238285
2792,4202;0,0239351
2793,3843;0,0240438
2794,3486;0,024144
2795,3127;0,0242318
2796,2771;0,0243121
2797,2412;0,0243953
2798,2056;0,0244908
2799,1697;0,0246016
2800,1340;0,0247234
2801,0981;0,0248484
2802,0625;0,0249705
2803,0266;0,025089
2803,9910;0,0252073
2804,9551;0,0253288
2805,9194;0,0254534
2806,8835;0,0255774
2807,8479;0,0256964
2808,8120;0,0258102
2809,7764;0,0259234
2810,7405;0,0260437
2811,7048;0,0261767
2812,6689;0,0263227
2813,6333;0,0264775
2814,5974;0,0266355
2815,5618;0,0267941
2816,5259;0,0269545
2817,4902;0,0271208
2818,4543;0,0272965
2819,4187;0,0274826
2820,3828;0,0276776
2821,3472;0,0278787
2822,3113;0,0280833
2823,2756;0,02829
2824,2397;0,0284984
2825,2041;0,0287088
2826,1682;0,0289222
2827,1326;0,0291401
2828,0967;0,0293645
2829,0610;0,029598
2830,0251;0,0298441
2830,9895;0,0301076
2831,9536;0,0303939
2832,9180;0,0307072
2833,8821;0,0310485
2834,8464;0,0314148
2835,8105;0,0318012
2836,7749;0,0322046
2837,7390;0,0326274
2838,7034;0,0330796
2839,6675;0,0335769
2840,6318;0,0341365
2841,5959;0,0347734
2842,5603;0,0354965
2843,5244;0,0363053
2844,4888;0,0371844
2845,4529;0,0380984
2846,4172;0,0389901
2847,3813;0,0397871
2848,3457;0,040417
2849,3098;0,0408292
2850,2742;0,0410106
2851,2383;0,0409897
2852,2026;0,0408251
2853,1667;0,0405852
2854,1311;0,0403275
2855,0952;0,0400879
2856,0596;0,039882
2857,0237;0,0397135
2857,9880;0,0395842
2858,9521;0,0394984
2859,9165;0,0394616
2860,8806;0,0394752
2861,8450;0,0395338
2862,8091;0,0396271
2863,7734;0,0397453
2864,7375;0,0398841
2865,7019;0,0400455
2866,6660;0,0402324
2867,6304;0,0404418
2868,5945;0,0406606
2869,5588;0,0408689
2870,5229;0,0410484
2871,4873;0,0411916
2872,4514;0,0413053
2873,4158;0,0414052
2874,3799;0,0415072
2875,3442;0,0416188
2876,3083;0,0417377
2877,2727;0,0418562
2878,2368;0,0419678
2879,2012;0,0420713
2880,1653;0,0421709
2881,1296;0,0422732
2882,0938;0,0423844
2883,0581;0,0425093
2884,0222;0,04265
2884,9866;0,0428061
2885,9507;0,0429739
2886,9150;0,0431473
2887,8792;0,0433194
2888,8435;0,0434862
2889,8076;0,0436471
2890,7720;0,0438049
2891,7361;0,043963
2892,7004;0,0441236
2893,6646;0,0442877
2894,6289;0,0444564
2895,5930;0,0446315
2896,5574;0,0448135
2897,5215;0,0449997
2898,4858;0,0451832
2899,4500;0,0453555
2900,4143;0,0455123
2901,3784;0,045657
2902,3428;0,0458019
2903,3069;0,045963
2904,2712;0,0461545
2905,2354;0,0463843
2906,1997;0,0466554
2907,1638;0,0469704
2908,1282;0,0473365
2909,0923;0,0477667
2910,0566;0,0482744
2911,0208;0,0488639
2911,9851;0,0495205
2912,9492;0,0502061
2913,9136;0,0508632
2914,8777;0,0514276
2915,8420;0,0518446
2916,8062;0,0520818
2917,7705;0,0521354
2918,7346;0,0520271
2919,6990;0,0517942
2920,6631;0,0514786
2921,6274;0,0511169
2922,5916;0,0507341
2923,5559;0,050342
2924,5200;0,0499407
2925,4844;0,049524
2926,4485;0,0490864
2927,4128;0,0486295
2928,3770;0,0481632
2929,3413;0,0477027
2930,3054;0,0472616
2931,2698;0,0468453
2932,2339;0,0464502
2933,1982;0,0460666
2934,1624;0,0456848
2935,1267;0,0452984
2936,0908;0,0449052
2937,0552;0,0445046
2938,0193;0,0440967
2938,9836;0,043682
2939,9478;0,0432634
2940,9121;0,0428465
2941,8762;0,0424385
2942,8406;0,0420462
2943,8047;0,0416737
2944,7690;0,0413226
2945,7332;0,0409931
2946,6975;0,0406853
2947,6616;0,0403988
2948,6260;0,0401329
2949,5901;0,0398857
2950,5544;0,0396542
2951,5186;0,0394352
2952,4829;0,0392246
2953,4470;0,0390176
2954,4114;0,0388088
2955,3755;0,0385928
2956,3398;0,0383665
2957,3040;0,0381293
2958,2683;0,0378826
2959,2324;0,0376278
2960,1968;0,0373647
2961,1609;0,0370919
2962,1252;0,0368088
2963,0894;0,0365177
2964,0537;0,0362238
2965,0178;0,0359329
2965,9822;0,0356488
2966,9463;0,0353715
2967,9106;0,0350975
2968,8748;0,0348225
2969,8391;0,0345436
2970,8032;0,0342612
2971,7676;0,0339789
2972,7317;0,0337028
2973,6960;0,0334394
2974,6602;0,0331935
2975,6245;0,0329663
2976,5886;0,0327554
2977,5530;0,0325568
2978,5171;0,0323681
2979,4814;0,0321897
2980,4456;0,0320246
2981,4099;0,031875
2982,3740;0,0317399
2983,3384;0,0316155
2984,3025;0,0314973
2985,2668;0,0313842
2986,2310;0,0312788
2987,1953;0,0311857
2988,1594;0,0311073
2989,1238;0,0310424
2990,0879;0,0309866
2991,0522;0,0309358
2992,0164;0,0308884
2992,9807;0,0308461
2993,9448;0,0308121
2994,9092;0,0307901
2995,8733;0,0307838
2996,8376;0,030797
2997,8018;0,0308324
2998,7661;0,0308889
2999,7302;0,0309596
3000,6946;0,0310323
3001,6587;0,0310946
3002,6230;0,0311406
3003,5872;0,0311751
3004,5515;0,031212
3005,5156;0,0312657
3006,4800;0,0313429
3007,4441;0,0314376
3008,4084;0,0315342
3009,3726;0,0316161
3010,3369;0,0316745
3011,3010;0,0317132
3012,2654;0,0317454
3013,2295;0,0317869
3014,1938;0,0318479
3015,1580;0,0319301
3016,1223;0,0320285
3017,0864;0,0321367
3018,0508;0,032251
3019,0149;0,0323714
3019,9792;0,0324993
3020,9434;0,0326347
3021,9077;0,0327746
3022,8718;0,0329146
3023,8362;0,0330514
3024,8003;0,0331847
3025,7646;0,0333175
3026,7288;0,0334527
3027,6931;0,033591
3028,6572;0,0337293
3029,6216;0,0338617
3030,5857;0,0339835
3031,5500;0,0340939
3032,5142;0,0341976
3033,4785;0,0343033
3034,4426;0,0344196
3035,4070;0,0345518
3036,3711;0,0346999
3037,3354;0,0348597
3038,2996;0,0350251
3039,2639;0,0351908
3040,2280;0,0353543
3041,1924;0,0355164
3042,1565;0,0356798
3043,1208;0,0358475
3044,0850;0,0360205
3045,0493;0,0361967
3046,0134;0,0363715
3046,9778;0,0365402
3047,9419;0,0367012
3048,9063;0,0368574
3049,8704;0,0370156
3050,8347;0,0371826
3051,7988;0,0373604
3052,7632;0,0375453
3053,7273;0,0377289
3054,6917;0,0379048
3055,6558;0,0380723
3056,6201;0,0382383
3057,5842;0,0384127
3058,5486;0,0386023
3059,5127;0,0388062
3060,4771;0,0390155
3061,4412;0,0392182
3062,4055;0,039405
3063,3696;0,0395729
3064,3340;0,0397264
3065,2981;0,0398743
3066,2625;0,0400264
3067,2266;0,0401899
3068,1909;0,0403676
3069,1550;0,0405579
3070,1194;0,0407559
3071,0835;0,0409551
3072,0479;0,0411492
3073,0120;0,0413345
3073,9763;0,0415103
3074,9404;0,0416787
3075,9048;0,0418432
3076,8689;0,0420065
3077,8333;0,0421695
3078,7974;0,0423308
3079,7617;0,0424887
3080,7258;0,0426433
3081,6902;0,0427974
3082,6543;0,0429565
3083,6187;0,0431255
3084,5828;0,0433069
3085,5471;0,0434979
3086,5112;0,0436918
3087,4756;0,0438811
3088,4397;0,0440615
3089,4041;0,0442342
3090,3682;0,0444056
3091,3325;0,0445833
3092,2966;0,0447718
3093,2610;0,0449692
3094,2251;0,0451678
3095,1895;0,0453579
3096,1536;0,0455322
3097,1179;0,0456897
3098,0820;0,0458364
3099,0464;0,0459827
3100,0105;0,0461395
3100,9749;0,0463137
3101,9390;0,0465057
3102,9033;0,0467095
3103,8674;0,0469157
3104,8318;0,0471157
3105,7959;0,0473059
3106,7603;0,0474895
3107,7244;0,0476749
3108,6887;0,0478713
3109,6528;0,0480829
3110,6172;0,048307
3111,5813;0,0485349
3112,5457;0,0487572
3113,5098;0,0489687
3114,4741;0,0491698
3115,4382;0,0493651
3116,4026;0,0495595
3117,3667;0,0497556
3118,3311;0,0499543
3119,2952;0,0501558
3120,2595;0,0503616
3121,2236;0,0505723
3122,1880;0,050786
3123,1521;0,0509982
3124,1165;0,0512042
3125,0806;0,051404
3126,0449;0,0516036
3127,0090;0,0518123
3127,9734;0,052037
3128,9375;0,0522772
3129,9019;0,0525254
3130,8660;0,0527715
3131,8303;0,0530097
3132,7944;0,0532401
3133,7588;0,0534671
3134,7229;0,0536939
3135,6873;0,0539195
3136,6514;0,0541404
3137,6157;0,054355
3138,5798;0,0545662
3139,5442;0,0547811
3140,5083;0,0550068
3141,4727;0,0552456
3142,4368;0,055495
3143,4011;0,0557494
3144,3652;0,0560044
3145,3296;0,0562581
3146,2937;0,05651
3147,2581;0,0567586
3148,2222;0,0570006
3149,1865;0,0572325
3150,1506;0,0574534
3151,1150;0,0576665
3152,0791;0,057878
3153,0435;0,0580938
3154,0076;0,0583174
3154,9719;0,0585485
3155,9360;0,0587858
3156,9004;0,0590281
3157,8645;0,0592763
3158,8289;0,0595315
3159,7930;0,0597931
3160,7573;0,060058
3161,7214;0,0603208
3162,6858;0,0605766
3163,6499;0,0608232
3164,6143;0,0610626
3165,5784;0,0612992
3166,5427;0,0615371
3167,5068;0,0617784
3168,4712;0,062022
3169,4353;0,06226
3170,3997;0,0625035
3171,3638;0,0627483
3172,3281;0,0629977
3173,2922;0,0632539
3174,2566;0,0635156
3175,2207;0,0637771
3176,1851;0,0640305
3177,1492;0,0642696
3178,1135;0,0644931
3179,0776;0,0647051
3180,0420;0,0649129
3181,0061;0,0651231
3181,9705;0,0653388
3182,9346;0,0655586
3183,8989;0,065778
3184,8630;0,0659927
3185,8274;0,0662014
3186,7915;0,0664069
3187,7559;0,0666158
3188,7200;0,0668359
3189,6843;0,0670725
3190,6484;0,067325
3191,6128;0,0675865
3192,5769;0,0678457
3193,5413;0,068091
3194,5054;0,0683152
3195,4697;0,0685182
3196,4338;0,0687062
3197,3982;0,068889
3198,3623;0,0690756
3199,3267;0,0692719
3200,2908;0,0694788
3201,2551;0,0696937
3202,2192;0,069912
3203,1836;0,0701292
3204,1477;0,0703419
3205,1121;0,0705486
3206,0762;0,0707494
3207,0405;0,0709453
3208,0046;0,0711372
3208,9690;0,0713258
3209,9331;0,0715116
3210,8975;0,0716964
3211,8616;0,0718839
3212,8259;0,0720788
3213,7900;0,072284
3214,7544;0,072498
3215,7185;0,0727141
3216,6829;0,0729226
3217,6470;0,0731161
3218,6113;0,0732942
3219,5754;0,0734647
3220,5398;0,0736399
3221,5039;0,07383
3222,4683;0,0740367
3223,4324;0,0742528
3224,3967;0,0744662
3225,3608;0,0746671
3226,3252;0,0748532
3227,2893;0,0750294
3228,2537;0,0752034
3229,2178;0,0753797
3230,1821;0,0755574
3231,1462;0,0757314
3232,1106;0,0758975
3233,0747;0,076057
3234,0391;0,0762164
3235,0032;0,0763846
3235,9675;0,0765683
3236,9316;0,0767689
3237,8960;0,0769833
3238,8601;0,0772057
3239,8245;0,0774299
3240,7886;0,0776495
3241,7529;0,0778578
3242,7170;0,0780483
3243,6814;0,0782178
3244,6455;0,0783709
3245,6099;0,078521
3246,5740;0,0786868
3247,5383;0,0788843
3248,5024;0,0791177
3249,4668;0,0793768
3250,4309;0,0796408
3251,3953;0,0798878
3252,3594;0,0801045
3253,3237;0,0802913
3254,2878;0,08046
3255,2522;0,0806263
3256,2163;0,080802
3257,1807;0,080991
3258,1448;0,0811914
3259,1091;0,0813988
3260,0732;0,0816106
3261,0376;0,0818259
3262,0017;0,0820442
3262,9661;0,0822632
3263,9302;0,0824784
3264,8945;0,0826847
3265,8586;0,0828794
3266,8230;0,0830626
3267,7871;0,0832364
3268,7515;0,0834019
3269,7156;0,0835566
3270,6799;0,083695
3271,6440;0,0838109
3272,6084;0,0839027
3273,5725;0,0839758
3274,5369;0,0840417
3275,5010;0,0841128
3276,4653;0,0841968
3277,4294;0,0842926
3278,3938;0,0843908
3279,3579;0,0844783
3280,3223;0,0845437
3281,2864;0,0845823
3282,2507;0,0845987
3283,2148;0,0846051
3284,1792;0,0846173
3285,1433;0,084647
3286,1077;0,0846964
3287,0718;0,0847567
3288,0361;0,0848117
3289,0002;0,0848464
3289,9646;0,0848543
3290,9287;0,0848404
3291,8931;0,0848172
3292,8572;0,0847965
3293,8215;0,0847826
3294,7856;0,0847719
3295,7500;0,0847573
3296,7141;0,0847345
3297,6785;0,0847049
3298,6426;0,0846741
3299,6069;0,0846472
3300,5710;0,0846257
3301,5354;0,0846074
3302,4995;0,0845887
3303,4639;0,0845672
3304,4280;0,0845422
3305,3923;0,0845139
3306,3564;0,0844827
3307,3208;0,0844489
3308,2849;0,0844131
3309,2493;0,084377
3310,2134;0,0843431
3311,1777;0,0843139
3312,1418;0,0842918
3313,1062;0,0842789
3314,0703;0,0842781
3315,0347;0,0842925
3315,9988;0,0843256
3316,9631;0,0843791
3317,9272;0,0844521
3318,8916;0,0845397
3319,8557;0,0846335
3320,8201;0,0847237
3321,7842;0,0848019
3322,7485;0,0848642
3323,7126;0,0849117
3324,6770;0,08495
3325,6411;0,0849862
3326,6055;0,0850267
3327,5696;0,0850756
3328,5339;0,0851348
3329,4980;0,0852042
3330,4624;0,0852809
3331,4265;0,0853577
3332,3909;0,0854234
3333,3550;0,0854642
3334,3193;0,0854691
3335,2834;0,085434
3336,2478;0,0853638
3337,2119;0,0852693
3338,1763;0,0851624
3339,1404;0,0850497
3340,1047;0,0849314
3341,0688;0,0848037
3342,0332;0,0846628
3342,9973;0,0845091
3343,9617;0,0843468
3344,9258;0,0841816
3345,8901;0,0840162
3346,8542;0,0838481
3347,8186;0,0836707
3348,7827;0,0834778
3349,7471;0,0832685
3350,7112;0,0830493
3351,6755;0,0828325
3352,6396;0,0826301
3353,6040;0,0824475
3354,5681;0,0822802
3355,5325;0,0821165
3356,4966;0,0819429
3357,4609;0,081752
3358,4250;0,0815456
3359,3894;0,0813337
3360,3535;0,081129
3361,3179;0,0809407
3362,2820;0,080771
3363,2463;0,0806147
3364,2104;0,0804615
3365,1748;0,0803006
3366,1389;0,0801238
3367,1033;0,0799276
3368,0674;0,0797138
3369,0317;0,0794887
3369,9958;0,0792606
3370,9602;0,0790381
3371,9243;0,0788271
3372,8887;0,0786292
3373,8528;0,0784414
3374,8171;0,0782579
3375,7813;0,0780725
3376,7456;0,0778813
3377,7097;0,0776836
3378,6741;0,0774806
3379,6382;0,0772726
3380,6025;0,0770588
3381,5667;0,0768384
3382,5310;0,0766141
3383,4951;0,0763941
3384,4595;0,0761904
3385,4236;0,0760126
3386,3879;0,0758613
3387,3521;0,0757256
3388,3164;0,0755871
3389,2805;0,0754283
3390,2449;0,0752406
3391,2090;0,0750286
3392,1733;0,0748065
3393,1375;0,0745911
3394,1018;0,0743943
3395,0659;0,074219
3396,0303;0,0740597
3396,9944;0,0739048
3397,9587;0,0737395
3398,9229;0,0735492
3399,8872;0,0733241
3400,8513;0,0730646
3401,8157;0,0727835
3402,7798;0,0725034
3403,7441;0,0722479
3404,7083;0,0720311
3405,6726;0,0718508
3406,6367;0,0716893
3407,6011;0,071522
3408,5652;0,0713277
3409,5295;0,0710962
3410,4937;0,0708303
3411,4580;0,0705429
3412,4221;0,0702518
3413,3865;0,069973
3414,3506;0,0697145
3415,3149;0,0694732
3416,2791;0,0692352
3417,2434;0,0689828
3418,2075;0,0687035
3419,1719;0,0683984
3420,1360;0,0680834
3421,1003;0,0677808
3422,0645;0,0675057
3423,0288;0,0672573
3423,9929;0,0670202
3424,9573;0,0667752
3425,9214;0,0665106
3426,8857;0,0662282
3427,8499;0,0659408
3428,8142;0,0656628
3429,7783;0,0654007
3430,7427;0,0651486
3431,7068;0,064892
3432,6711;0,0646155
3433,6353;0,064312
3434,5996;0,0639854
3435,5637;0,0636492
3436,5281;0,0633191
3437,4922;0,0630076
3438,4565;0,0627207
3439,4207;0,0624574
3440,3850;0,0622113
3441,3491;0,061971
3442,3135;0,0617211
3443,2776;0,0614455
3444,2419;0,0611335
3445,2061;0,0607864
3446,1704;0,0604206
3447,1345;0,0600612
3448,0989;0,0597285
3449,0630;0,059427
3450,0273;0,0591448
3450,9915;0,0588644
3451,9558;0,0585751
3452,9199;0,058279
3453,8843;0,0579872
3454,8484;0,0577099
3455,8127;0,0574474
3456,7769;0,0571895
3457,7412;0,0569217
3458,7053;0,0566343
3459,6697;0,0563268
3460,6338;0,0560063
3461,5981;0,0556818
3462,5623;0,0553591
3463,5266;0,0550387
3464,4907;0,0547175
3465,4551;0,0543926
3466,4192;0,0540646
3467,3835;0,0537384
3468,3477;0,0534213
3469,3120;0,0531192
3470,2761;0,0528322
3471,2405;0,0525544
3472,2046;0,0522781
3473,1689;0,0519994
3474,1331;0,0517221
3475,0974;0,051454
3476,0615;0,0511988
3477,0259;0,0509487
3477,9900;0,0506859
3478,9543;0,0503924
3479,9185;0,0500635
3480,8828;0,0497137
3481,8469;0,04937
3482,8113;0,0490547
3483,7754;0,0487703
3484,7397;0,0484992
3485,7039;0,0482175
3486,6682;0,0479113
3487,6323;0,0475869
3488,5967;0,0472661
3489,5608;0,0469717
3490,5251;0,0467122
3491,4893;0,0464764
3492,4536;0,0462407
3493,4177;0,0459835
3494,3821;0,0456995
3495,3462;0,045404
3496,3105;0,0451235
3497,2747;0,0448767
3498,2390;0,0446587
3499,2031;0,0444399
3500,1675;0,0441817
3501,1316;0,0438606
3502,0959;0,0434887
3503,0601;0,0431113
3504,0244;0,0427783
3504,9885;0,0425089
3505,9529;0,0422793
3506,9170;0,042041
3507,8813;0,0417525
3508,8455;0,0414047
3509,8098;0,0410268
3510,7739;0,0406662
3511,7383;0,0403575
3512,7024;0,0401033
3513,6667;0,0398816
3514,6309;0,039666
3515,5952;0,0394435
3516,5593;0,0392177
3517,5237;0,0389991
3518,4878;0,0387918
3519,4521;0,0385865
3520,4163;0,0383662
3521,3806;0,0381176
3522,3447;0,0378405
3523,3091;0,0375468
3524,2732;0,0372492
3525,2375;0,0369499
3526,2017;0,0366395
3527,1660;0,0363085
3528,1301;0,0359606
3529,0945;0,0356166
3530,0586;0,035303
3531,0229;0,035034
3531,9871;0,0348015
3532,9514;0,0345799
3533,9155;0,0343397
3534,8799;0,0340639
3535,8440;0,0337594
3536,8083;0,0334556
3537,7725;0,0331903
3538,7368;0,0329891
3539,7009;0,0328523
3540,6653;0,0327523
3541,6294;0,0326408
3542,5938;0,0324643
3543,5579;0,0321856
3544,5222;0,0318089
3545,4863;0,0313866
3546,4507;0,030991
3547,4148;0,0306666
3548,3792;0,0304042
3549,3433;0,0301551
3550,3076;0,0298675
3551,2717;0,0295221
3552,2361;0,0291477
3553,2002;0,0288045
3554,1646;0,0285421
3555,1287;0,0283646
3556,0930;0,0282332
3557,0571;0,0280969
3558,0215;0,0279289
3558,9856;0,027746
3559,9500;0,027597
3560,9141;0,027523
3561,8784;0,0275158
3562,8425;0,0275028
3563,8069;0,0273649
3564,7710;0,0269846
3565,7354;0,0263316
3566,6995;0,0255362
3567,6638;0,0248354
3568,6279;0,0243907
3569,5923;0,0241898
3570,5564;0,0241136
3571,5208;0,0240402
3572,4849;0,0238983
3573,4492;0,0236767
3574,4133;0,0234082
3575,3777;0,0231374
3576,3418;0,0228911
3577,3062;0,0226718
3578,2703;0,0224751
3579,2346;0,0223117
3580,1987;0,022207
3581,1631;0,0221786
3582,1272;0,0222085
3583,0916;0,0222334
3584,0557;0,0221581
3585,0200;0,0218916
3585,9841;0,0214116
3586,9485;0,020825
3587,9126;0,0203299
3588,8770;0,0200656
3589,8411;0,0200165
3590,8054;0,0200622
3591,7695;0,0200697
3592,7339;0,0199526
3593,6980;0,0196978
3594,6624;0,0193631
3595,6265;0,0190328
3596,5908;0,0187542
3597,5549;0,018515
3598,5193;0,018276
3599,4834;0,018023
3600,4478;0,0177888
3601,4119;0,0176259
3602,3762;0,0175568
3603,3403;0,0175476
3604,3047;0,0175237
3605,2688;0,0174068
3606,2332;0,0171535
3607,1973;0,0167819
3608,1616;0,0163645
3609,1257;0,015982
3610,0901;0,0156765
3611,0542;0,0154489
3612,0186;0,015287
3612,9827;0,0151845
3613,9470;0,0151311
3614,9111;0,0150915
3615,8755;0,0150005
3616,8396;0,0147874
3617,8040;0,0144266
3618,7681;0,0139884
3619,7324;0,0136275
3620,6965;0,0134836
3621,6609;0,0135852
3622,6250;0,0138529
3623,5894;0,0141612
3624,5535;0,0143794
3625,5178;0,0143794
3626,4819;0,014048
3627,4463;0,0133601
3628,4104;0,0124886
3629,3748;0,0117491
3630,3389;0,0113269
3631,3032;0,0111581
3632,2673;0,0110753
3633,2317;0,010954
3634,1958;0,0107545
3635,1602;0,0105049
3636,1243;0,0102583
3637,0886;0,0100515
3638,0527;0,00988894
3639,0171;0,00975988
3639,9812;0,00966691
3640,9456;0,00963713
3641,9097;0,00970499
3642,8740;0,00988162
3643,8381;0,010133
3644,8025;0,0103723
3645,7666;0,010457
3646,7310;0,0102016
3647,6951;0,00948121
3648,6594;0,00845908
3649,6235;0,00759807
3650,5879;0,0072101
3651,5520;0,0072139
3652,5164;0,00735825
3653,4805;0,0074328
3654,4448;0,00732757
3655,4089;0,00704354
3656,3733;0,0066827
3657,3374;0,00638157
3658,3018;0,00621328
3659,2659;0,00615581
3660,2302;0,0061465
3661,1943;0,00614932
3662,1587;0,00617831
3663,1228;0,00627195
3664,0872;0,00644592
3665,0513;0,00666594
3666,0156;0,00685805
3666,9797;0,0069447
3667,9441;0,00689294
3668,9082;0,00675629
3669,8726;0,00665214
3670,8367;0,00665172
3671,8010;0,00670168
3672,7651;0,0066641
3673,7295;0,00641216
3674,6936;0,00593022
3675,6580;0,00537429
3676,6221;0,00497278
3677,5864;0,00482323
3678,5505;0,00485622
3679,5149;0,00496283
3680,4790;0,00508787
3681,4434;0,00523651
3682,4075;0,0054356
3683,3718;0,00569026
3684,3359;0,00596283
3685,3003;0,0061802
3686,2644;0,0062578
3687,2288;0,00613588
3688,1929;0,00583377
3689,1572;0,00548414
3690,1213;0,00525649
3691,0857;0,00521833
3692,0498;0,00531765
3693,0142;0,0054724
3693,9783;0,00563237
3694,9426;0,00578283
3695,9067;0,00592232
3696,8711;0,00604088
3697,8352;0,00611198
3698,7996;0,0061026
3699,7637;0,00599831
3700,7280;0,00583083
3701,6921;0,00568221
3702,6565;0,00564463
3703,6206;0,00576213
3704,5850;0,00600867
3705,5491;0,00630997
3706,5134;0,00657086
3707,4775;0,00668516
3708,4419;0,00654271
3709,4060;0,00607296
3710,3704;0,00534241
3711,3345;0,00459865
3712,2988;0,0041157
3713,2629;0,00399316
3714,2273;0,0041554
3715,1914;0,00447118
3716,1558;0,00483231
3717,1199;0,0051722
3718,0842;0,00545986
3719,0483;0,00568926
3720,0127;0,00586689
3720,9768;0,00599841
3721,9412;0,00608121
3722,9053;0,0061108
3723,8696;0,00609727
3724,8337;0,00607556
3725,7981;0,0060932
3726,7622;0,00618187
3727,7266;0,00633916
3728,6907;0,00653366
3729,6550;0,00671976
3730,6191;0,00684467
3731,5835;0,0068447
3732,5476;0,00664698
3733,5120;0,00620888
3734,4761;0,00560238
3735,4404;0,00504279
3736,4045;0,00475159
3737,3689;0,00479114
3738,3330;0,00506385
3739,2974;0,00541029
3740,2615;0,00567873
3741,2258;0,00575144
3742,1899;0,00557243
3743,1543;0,00520552
3744,1184;0,00486117
3745,0828;0,0047607
3746,0469;0,00492876
3747,0112;0,00518514
3747,9753;0,00529141
3748,9397;0,00507382
3749,9038;0,00453281
3750,8682;0,00391903
3751,8323;0,00357105
3752,7966;0,00360368
3753,7607;0,00387362
3754,7251;0,00417078
3755,6892;0,00434311
3756,6536;0,00432699
3757,6177;0,00415367
3758,5820;0,00393593
3759,5461;0,00380333
3760,5105;0,00381777
3761,4746;0,00395088
3762,4390;0,00412881
3763,4031;0,00428293
3764,3674;0,0043724
3765,3315;0,00438321
3766,2959;0,00431626
3767,2600;0,004177
3768,2244;0,00397797
3769,1885;0,00375379
3770,1528;0,00356792
3771,1169;0,0034893
3772,0813;0,00355088
3773,0454;0,00372842
3774,0098;0,00395409
3774,9739;0,00414612
3775,9382;0,00423682
3776,9023;0,00419793
3777,8667;0,00406051
3778,8308;0,00390709
3779,7952;0,00382016
3780,7593;0,00382529
3781,7236;0,00388463
3782,6877;0,00393576
3783,6521;0,00393325
3784,6162;0,00386946
3785,5806;0,00377243
3786,5447;0,00368683
3787,5090;0,00365066
3788,4731;0,00368064
3789,4375;0,00377038
3790,4016;0,00389713
3791,3660;0,00403318
3792,3301;0,00415929
3793,2944;0,00427623
3794,2585;0,00440623
3795,2229;0,00457639
3796,1870;0,004788
3797,1514;0,00499428
3798,1155;0,00510866
3799,0798;0,00504819
3800,0439;0,00479875
3801,0083;0,00445698
3801,9724;0,00417528
3802,9368;0,00403162
3803,9009;0,00397327
3804,8652;0,00388731
3805,8293;0,00370888
3806,7937;0,00348782
3807,7578;0,00336346
3808,7222;0,00344768
3809,6863;0,00373164
3810,6506;0,00410881
3811,6147;0,00445491
3812,5791;0,00468487
3813,5432;0,00477922
3814,5076;0,00478975
3815,4717;0,00480437
3816,4360;0,00486723
3817,4001;0,00492552
3818,3645;0,00486703
3819,3286;0,00461568
3820,2930;0,00421654
3821,2571;0,00383313
3822,2214;0,00362269
3823,1855;0,00361591
3824,1499;0,00373354
3825,1140;0,00387777
3826,0784;0,00399267
3827,0425;0,0040742
3828,0068;0,00415046
3828,9709;0,00425278
3829,9353;0,00439488
3830,8994;0,00456906
3831,8638;0,0047538
3832,8279;0,00492101
3833,7922;0,0050379
3834,7563;0,00506774
3835,7207;0,00497805
3836,6848;0,0047609
3837,6492;0,00445465
3838,6133;0,00413776
3839,5776;0,00388143
3840,5417;0,00370744
3841,5061;0,00359831
3842,4702;0,00354036
3843,4346;0,0035516
3844,3987;0,00367346
3845,3630;0,00393711
3846,3271;0,00433336
3847,2915;0,00480652
3848,2556;0,00526566
3849,2200;0,0055924
3850,1841;0,0056383
3851,1484;0,00524463
3852,1125;0,0043748
3853,0769;0,00334282
3854,0410;0,0026924
3855,0054;0,00264879
3855,9695;0,00301829
3856,9338;0,00352568
3857,8979;0,00399433
3858,8623;0,004341
3859,8264;0,0045358
3860,7908;0,00458212
3861,7549;0,00451707
3862,7192;0,00441225
3863,6833;0,00434768
3864,6477;0,00436383
3865,6118;0,0044385
3866,5762;0,00450927
3867,5403;0,00451205
3868,5046;0,0044098
3869,4688;0,00420857
3870,4331;0,00395947
3871,3972;0,00373886
3872,3616;0,00361303
3873,3257;0,00361138
3874,2900;0,00372226
3875,2542;0,00390458
3876,2185;0,00410428
3877,1826;0,00427055
3878,1470;0,0043709
3879,1111;0,00440144
3880,0754;0,00438345
3881,0396;0,00434101
3882,0039;0,00427758
3882,9680;0,00418051
3883,9324;0,00405326
3884,8965;0,00393784
3885,8608;0,00389279
3886,8250;0,00393956
3887,7893;0,00403372
3888,7534;0,00409087
3889,7178;0,00404494
3890,6819;0,00390411
3891,6462;0,00376557
3892,6104;0,00375202
3893,5747;0,00391297
3894,5388;0,00419728
3895,5032;0,00450768
3896,4673;0,00475976
3897,4316;0,00490668
3898,3958;0,00493794
3899,3601;0,00486395
3900,3242;0,00469511
3901,2886;0,00443483
3902,2527;0,00410088
3903,2170;0,00375291
3904,1812;0,00348098
3905,1455;0,00335115
3906,1096;0,00336479
3907,0740;0,00347121
3908,0381;0,00360978
3909,0024;0,00374201
3909,9666;0,00386
3910,9309;0,0039753
3911,8950;0,00409848
3912,8594;0,00422194
3913,8235;0,00431745
3914,7878;0,00435034
3915,7520;0,00430392
3916,7163;0,00419951
3917,6804;0,00409185
3918,6448;0,00403397
3919,6089;0,00403976
3920,5732;0,00407904
3921,5374;0,00410447
3922,5017;0,00408593
3923,4658;0,00403184
3924,4302;0,00398507
3925,3943;0,00399162
3926,3586;0,00406476
3927,3228;0,0041742
3928,2871;0,0042645
3929,2512;0,00428473
3930,2156;0,0042145
3931,1797;0,00407711
3932,1440;0,00392891
3933,1082;0,00382678
3934,0725;0,00379895
3935,0366;0,00384084
3936,0010;0,00392933
3936,9651;0,00403646
3937,9294;0,00413523
3938,8936;0,00420175
3939,8579;0,00422012
3940,8220;0,00419071
3941,7864;0,00413496
3942,7505;0,00408696
3943,7148;0,00407276
3944,6790;0,00409317
3945,6433;0,00412486
3946,6074;0,00413738
3947,5718;0,0041132
3948,5359;0,00405856
3949,5002;0,00399827
3950,4644;0,00395741
3951,4287;0,0039449
3952,3928;0,00395234
3953,3572;0,00396547
3954,3213;0,00397583
3955,2856;0,00398372
3956,2498;0,00399264
3957,2141;0,0040019
3958,1782;0,00400464
3959,1426;0,00399308
3960,1067;0,00396635
3961,0710;0,003934
3962,0352;0,00391147
3962,9995;0,00391046
3963,9636;0,00393143
3964,9280;0,00396362
3965,8921;0,00399182
3966,8564;0,00400483
3967,8206;0,00400069
3968,7849;0,00398624
3969,7490;0,00397195
3970,7134;0,00396559
3971,6775;0,00396862
3972,6418;0,00397727
3973,6060;0,00398652
3974,5703;0,00399395
3975,5344;0,00400061
3976,4988;0,00400881
3977,4629;0,00401895
3978,4272;0,00402805
3979,3914;0,00403105
3980,3557;0,00402393
3981,3198;0,00400646
3982,2842;0,00398302
3983,2483;0,00396087
3984,2126;0,00394715
3985,1768;0,00394623
3986,1411;0,00395846
3987,1052;0,00398043
3988,0696;0,00400623
3989,0337;0,00402937
3989,9980;0,00404468
3990,9622;0,00404978
3991,9265;0,00404539
3992,8906;0,00403446
3993,8550;0,00402068
3994,8191;0,00400718
3995,7834;0,00399607
3996,7476;0,00398855
3997,7119;0,00398527
3998,6760;0,00398649
3999,6404;0,00399193
4000,6045;0,00404085

##### Extended Information
[Comments]
Sample name
Comment
Username
Division
Organization;UNIVERSIDAD INDUSTRIAL DE SANTANDER

[Detailed Information]
Creation date;19/03/2025 2:23 p.m.

Data array type;Linear data array
Horizontal axis;Wavenumber [cm-1]
Vertical axis;Abs
Start;399,193 cm-1
End;4000,6 cm-1
Data interval;0,964233 cm-1
Data points;3736    

[Measurement Information]
Model name;FT/IR-4X1typeA
Serial No.;A035162111

Accessory;ATR PRO 4X
Accessory S/N;A021162126
Incident angle;45 deg

Measurement date;19/03/2025 2:22 p.m.

Light source;Standard
Detector;TGS
Accumulation;40
Resolution;4 cm-1
Zero filling;On
Apodization;Cosine
Gain;Auto (8)
Aperture;Auto (7 mm)
Scan speed;Auto (2 mm/sec)
Filter;Auto (12800 Hz)

