TITLE;
DATA TYPE;INFRARED SPECTRUM
ORIGIN;JASCO
OWNER;
DATE;25/03/14
TIME;09:22:35
SPECTROMETER/DATA SYSTEM;
LOCALE;9226
RESOLUTION;
DELTAX;0,964233
XUNITS;1/CM
YUNITS;ABSORBANCE
FIRSTX;  399,1927
LASTX; 4000,6047
NPOINTS;    3736
FIRSTY;     0,20056
MAXY;     0,25034
MINY;     0,01200
XYDATA
399,1927;0,200559
400,1569;0,198151
401,1211;0,195823
402,0854;0,193676
403,0496;0,191745
404,0138;0,190163
404,9781;0,189152
405,9423;0,188876
406,9065;0,189264
407,8708;0,189967
408,8350;0,190506
409,7992;0,190526
410,7635;0,189986
411,7277;0,189176
412,6919;0,188532
413,6562;0,188379
414,6204;0,188804
415,5846;0,189701
416,5489;0,19084
417,5131;0,191921
418,4773;0,192666
419,4416;0,19303
420,4058;0,193261
421,3700;0,193603
422,3343;0,19407
423,2985;0,194511
424,2627;0,194743
425,2270;0,194673
426,1912;0,194359
427,1554;0,193991
428,1197;0,193783
429,0839;0,193857
430,0481;0,194188
431,0124;0,194623
431,9766;0,194968
432,9408;0,195094
433,9051;0,195016
434,8693;0,194898
435,8335;0,194973
436,7978;0,195404
437,7620;0,196182
438,7262;0,197116
439,6905;0,197908
440,6547;0,198261
441,6189;0,197983
442,5832;0,197091
443,5474;0,195849
444,5116;0,194675
445,4759;0,193934
446,4401;0,19378
447,4043;0,19412
448,3686;0,1947
449,3328;0,195213
450,2970;0,195425
451,2613;0,195267
452,2255;0,194854
453,1897;0,19441
454,1540;0,194142
455,1182;0,194147
456,0824;0,194376
457,0467;0,194646
458,0109;0,19474
458,9751;0,194534
459,9394;0,194078
460,9036;0,193544
461,8678;0,193117
462,8321;0,192935
463,7963;0,193048
464,7605;0,193408
465,7248;0,193861
466,6890;0,194199
467,6532;0,19425
468,6175;0,193944
469,5817;0,193329
470,5459;0,192537
471,5102;0,191746
472,4744;0,191122
473,4386;0,19076
474,4029;0,190666
475,3671;0,190785
476,3313;0,191047
477,2956;0,191381
478,2598;0,191721
479,2240;0,192002
480,1883;0,192165
481,1525;0,192179
482,1167;0,192052
483,0810;0,191849
484,0452;0,191678
485,0094;0,191659
485,9737;0,191876
486,9379;0,192341
487,9021;0,192996
488,8664;0,193736
489,8306;0,194434
490,7948;0,194968
491,7591;0,19525
492,7233;0,19526
493,6875;0,195055
494,6518;0,194754
495,6160;0,194498
496,5802;0,194407
497,5445;0,194552
498,5087;0,194933
499,4729;0,195487
500,4372;0,196087
501,4014;0,196589
502,3656;0,196885
503,3299;0,196952
504,2941;0,196865
505,2583;0,196746
506,2226;0,196704
507,1868;0,196796
508,1510;0,197021
509,1153;0,197336
510,0795;0,197696
511,0437;0,198087
512,0080;0,198532
512,9722;0,199081
513,9365;0,199779
514,9007;0,200635
515,8649;0,201583
516,8292;0,202473
517,7934;0,203109
518,7576;0,203344
519,7219;0,203179
520,6861;0,202764
521,6503;0,202317
522,6146;0,202014
523,5788;0,20193
524,5430;0,202012
525,5073;0,20212
526,4715;0,202108
527,4357;0,201919
528,4000;0,201608
529,3642;0,201289
530,3284;0,201046
531,2927;0,200894
532,2569;0,200775
533,2211;0,200601
534,1854;0,200297
535,1496;0,199845
536,1138;0,199284
537,0781;0,198697
538,0423;0,198188
539,0065;0,197852
539,9708;0,197749
540,9350;0,197886
541,8992;0,19822
542,8635;0,198664
543,8277;0,199124
544,7919;0,199521
545,7562;0,199815
546,7204;0,20001
547,6846;0,200145
548,6489;0,200281
549,6131;0,200484
550,5773;0,20081
551,5416;0,201289
552,5058;0,201903
553,4700;0,202582
554,4343;0,20321
555,3985;0,203656
556,3627;0,203813
557,3270;0,203617
558,2912;0,203061
559,2554;0,202179
560,2197;0,201032
561,1839;0,199709
562,1481;0,19831
563,1124;0,19694
564,0766;0,195668
565,0408;0,194518
566,0051;0,193465
566,9693;0,192476
567,9335;0,191542
568,8978;0,190698
569,8620;0,189992
570,8262;0,189446
571,7905;0,189033
572,7547;0,188694
573,7189;0,188375
574,6832;0,188062
575,6474;0,187775
576,6116;0,187546
577,5759;0,187387
578,5401;0,187278
579,5043;0,187193
580,4686;0,187119
581,4328;0,187063
582,3970;0,187028
583,3613;0,186992
584,3255;0,186908
585,2897;0,186733
586,2540;0,186468
587,2182;0,186167
588,1824;0,185921
589,1467;0,185806
590,1109;0,185848
591,0751;0,185997
592,0394;0,186151
593,0036;0,186201
593,9678;0,186075
594,9321;0,185766
595,8963;0,185312
596,8605;0,184773
597,8248;0,184206
598,7890;0,183653
599,7532;0,183134
600,7175;0,182653
601,6817;0,182207
602,6459;0,181793
603,6102;0,181415
604,5744;0,181072
605,5386;0,180756
606,5029;0,180439
607,4671;0,180075
608,4313;0,179616
609,3956;0,179038
610,3598;0,178368
611,3240;0,177687
612,2883;0,177111
613,2525;0,176726
614,2167;0,176543
615,1810;0,176458
616,1452;0,176275
617,1094;0,17578
618,0737;0,17485
619,0379;0,173517
620,0021;0,171944
620,9664;0,170336
621,9306;0,168858
622,8948;0,167604
623,8591;0,166594
624,8233;0,165766
625,7875;0,165126
626,7518;0,164599
627,7160;0,164114
628,6802;0,163613
629,6445;0,163066
630,6087;0,162469
631,5729;0,161836
632,5372;0,161192
633,5014;0,160565
634,4656;0,159988
635,4299;0,159501
636,3941;0,159135
637,3583;0,158896
638,3226;0,158748
639,2868;0,158623
640,2510;0,15844
641,2153;0,158154
642,1795;0,157774
643,1437;0,157371
644,1080;0,157031
645,0722;0,156812
646,0364;0,156708
647,0007;0,156649
647,9649;0,156545
648,9291;0,156336
649,8934;0,156035
650,8576;0,155723
651,8218;0,155506
652,7861;0,155456
653,7503;0,155583
654,7145;0,155831
655,6788;0,156107
656,6430;0,156326
657,6072;0,156457
658,5715;0,156521
659,5357;0,156554
660,4999;0,156554
661,4642;0,156441
662,4284;0,156078
663,3926;0,155327
664,3569;0,154144
665,3211;0,152703
666,2853;0,15145
667,2496;0,150871
668,2138;0,150871
669,1780;0,150769
670,1423;0,150314
671,1065;0,149657
672,0707;0,148774
673,0350;0,147564
673,9992;0,146059
674,9634;0,144422
675,9277;0,14282
676,8919;0,14133
677,8561;0,139925
678,8204;0,138558
679,7846;0,137223
680,7488;0,135969
681,7131;0,134859
682,6773;0,133921
683,6415;0,133134
684,6058;0,13246
685,5700;0,131867
686,5342;0,131333
687,4985;0,130838
688,4627;0,130365
689,4269;0,129886
690,3912;0,129395
691,3554;0,12891
692,3196;0,128461
693,2839;0,128067
694,2481;0,127724
695,2123;0,127407
696,1766;0,127078
697,1408;0,126709
698,1050;0,126291
699,0693;0,125835
700,0335;0,12536
700,9977;0,124889
701,9620;0,124431
702,9262;0,123986
703,8904;0,123532
704,8547;0,123057
705,8189;0,122548
706,7831;0,121999
707,7474;0,121407
708,7116;0,120778
709,6758;0,120116
710,6401;0,119423
711,6043;0,118695
712,5685;0,117935
713,5328;0,117167
714,4970;0,11644
715,4612;0,115063
716,4255;0,114707
717,3897;0,114483
718,3539;0,114225
719,3182;0,113715
720,2824;0,1128
721,2466;0,111492
722,2109;0,109974
723,1751;0,108494
724,1393;0,107239
725,1036;0,106265
726,0678;0,10551
727,0320;0,104857
727,9963;0,104201
728,9605;0,103498
729,9247;0,102758
730,8890;0,102023
731,8532;0,101334
732,8174;0,100709
733,7817;0,100147
734,7459;0,0996355
735,7101;0,099156
736,6744;0,0986938
737,6386;0,0982386
738,6028;0,0977857
739,5671;0,0973341
740,5313;0,0968833
741,4955;0,0964315
742,4598;0,0959759
743,4240;0,0955143
744,3882;0,0950465
745,3525;0,0945745
746,3167;0,0941008
747,2809;0,0936283
748,2452;0,0931605
749,2094;0,0927014
750,1736;0,0922547
751,1379;0,0918215
752,1021;0,0913983
753,0663;0,0909782
754,0306;0,0905545
754,9948;0,090124
755,9590;0,0896893
756,9233;0,089257
757,8875;0,0888343
758,8517;0,0884266
759,8160;0,0880362
760,7802;0,0876623
761,7444;0,0873019
762,7087;0,0869504
763,6729;0,0866041
764,6371;0,0862622
765,6014;0,0859286
766,5656;0,0856102
767,5298;0,0853124
768,4941;0,0850356
769,4583;0,0847738
770,4225;0,0845189
771,3868;0,0842659
772,3510;0,084016
773,3152;0,0837734
774,2795;0,0835394
775,2437;0,0833092
776,2079;0,083074
777,1722;0,0828281
778,1364;0,0825735
779,1006;0,0823174
780,0649;0,0820635
781,0291;0,0818048
781,9933;0,0815247
782,9576;0,0812064
783,9218;0,0808461
784,8860;0,0804591
785,8503;0,0800732
786,8145;0,079715
787,7787;0,079396
788,7430;0,0791098
789,7072;0,0788407
790,6714;0,0785784
791,6357;0,078328
792,5999;0,0781078
793,5641;0,0779364
794,5284;0,077817
795,4926;0,0777292
796,4568;0,0776366
797,4211;0,0775052
798,3853;0,0773232
799,3495;0,0771087
800,3138;0,0768999
801,2780;0,0767333
802,2422;0,076623
803,2065;0,0765538
804,1707;0,076491
805,1349;0,0764004
806,0992;0,0762659
807,0634;0,0760952
808,0276;0,0759127
808,9919;0,0757443
809,9561;0,0756058
810,9203;0,0754972
811,8846;0,0754071
812,8488;0,0753209
813,8130;0,0752295
814,7773;0,0751331
815,7415;0,0750385
816,7057;0,074952
817,6700;0,0748722
818,6342;0,0747891
819,5984;0,0746898
820,5627;0,0745693
821,5269;0,0744376
822,4911;0,074317
823,4554;0,0742312
824,4196;0,0741911
825,3839;0,0741881
826,3481;0,0741975
827,3123;0,0741901
828,2766;0,0741439
829,2408;0,07405
830,2050;0,0739118
831,1693;0,07374
832,1335;0,0735476
833,0977;0,0733455
834,0620;0,0731389
835,0262;0,0729262
835,9904;0,0727
836,9547;0,0724526
837,9189;0,0721836
838,8831;0,0719038
839,8474;0,0716325
840,8116;0,0713888
841,7758;0,0711817
842,7401;0,0710076
843,7043;0,0708532
844,6685;0,0707039
845,6328;0,07055
846,5970;0,0703894
847,5612;0,0702265
848,5255;0,0700715
849,4897;0,0699388
850,4539;0,0698431
851,4182;0,069793
852,3824;0,0697849
853,3466;0,0698008
854,3109;0,0698157
855,2751;0,0698088
856,2393;0,0697732
857,2036;0,0697178
858,1678;0,0696604
859,1320;0,0696184
860,0963;0,0696035
861,0605;0,0696206
862,0247;0,0696709
862,9890;0,0697535
863,9532;0,0698658
864,9174;0,0700046
865,8817;0,0701703
866,8459;0,0703707
867,8101;0,0706205
868,7744;0,070933
869,7386;0,0713084
870,7028;0,0717248
871,6671;0,0721417
872,6313;0,0725141
873,5955;0,0728107
874,5598;0,0730263
875,5240;0,0731822
876,4882;0,0733156
877,4525;0,0734643
878,4167;0,0736555
879,3809;0,0739019
880,3452;0,0742042
881,3094;0,074559
882,2736;0,0749651
883,2379;0,0754262
884,2021;0,0759497
885,1663;0,0765429
886,1306;0,077209
887,0948;0,0779464
888,0590;0,0787499
889,0233;0,0796113
889,9875;0,0805175
890,9517;0,0814453
891,9160;0,0823577
892,8802;0,0832055
893,8444;0,0839362
894,8087;0,0845067
895,7729;0,0848936
896,7371;0,085095
897,7014;0,0851242
898,6656;0,085
899,6298;0,0847395
900,5941;0,0843573
901,5583;0,0838694
902,5225;0,0832978
903,4868;0,0826729
904,4510;0,0820303
905,4152;0,0814066
906,3795;0,0808336
907,3437;0,0803362
908,3079;0,0799303
909,2722;0,0796235
910,2364;0,0794153
911,2007;0,0792977
912,1649;0,0792575
913,1292;0,0792795
914,0934;0,0793505
915,0576;0,0794625
916,0219;0,079613
916,9861;0,0798021
917,9503;0,0800282
918,9146;0,0802851
919,8788;0,0805622
920,8430;0,0808478
921,8073;0,0811334
922,7715;0,0814161
923,7357;0,0816982
924,7000;0,0819834
925,6642;0,0822743
926,6284;0,0825704
927,5927;0,0828694
928,5569;0,0831688
929,5211;0,0834671
930,4854;0,0837645
931,4496;0,0840616
932,4138;0,0843603
933,3781;0,0846644
934,3423;0,0849815
935,3065;0,0853236
936,2708;0,0857057
937,2350;0,0861423
938,1992;0,086643
939,1635;0,0872106
940,1277;0,0878415
941,0919;0,0885301
942,0562;0,0892737
943,0204;0,0900766
943,9846;0,0909503
944,9489;0,091908
945,9131;0,0929589
946,8773;0,0941019
947,8416;0,0953241
948,8058;0,0966037
949,7700;0,0979173
950,7343;0,0992486
951,6985;0,100594
952,6627;0,101967
953,6270;0,103393
954,5912;0,104902
955,5554;0,106518
956,5197;0,108251
957,4839;0,110088
958,4481;0,112004
959,4124;0,113966
960,3766;0,115949
961,3408;0,117944
962,3051;0,119954
963,2693;0,121989
964,2335;0,124056
965,1978;0,126157
966,1620;0,128289
967,1262;0,13045
968,0905;0,132645
969,0547;0,134891
970,0189;0,137212
970,9832;0,139643
971,9474;0,142223
972,9116;0,144996
973,8759;0,147997
974,8401;0,151249
975,8043;0,154752
976,7686;0,158482
977,7328;0,162393
978,6970;0,166417
979,6613;0,170464
980,6255;0,174419
981,5897;0,178153
982,5540;0,181541
983,5182;0,184492
984,4824;0,186978
985,4467;0,189038
986,4109;0,190758
987,3751;0,192245
988,3394;0,193587
989,3036;0,194837
990,2678;0,196019
991,2321;0,197141
992,1963;0,198207
993,1605;0,199226
994,1248;0,200208
995,0890;0,201163
996,0532;0,202089
997,0175;0,202977
997,9817;0,203818
998,9459;0,204605
999,9102;0,205346
1000,8744;0,206067
1001,8386;0,206803
1002,8029;0,207598
1003,7671;0,208488
1004,7313;0,209504
1005,6956;0,210673
1006,6598;0,212021
1007,6240;0,213576
1008,5883;0,215357
1009,5525;0,217368
1010,5167;0,219585
1011,4810;0,221953
1012,4452;0,2244
1013,4094;0,226846
1014,3737;0,229215
1015,3379;0,231452
1016,3021;0,233516
1017,2664;0,235392
1018,2306;0,237084
1019,1948;0,238614
1020,1591;0,240008
1021,1233;0,241299
1022,0875;0,242516
1023,0518;0,243683
1024,0160;0,244819
1024,9802;0,245934
1025,9445;0,247019
1026,9087;0,248044
1027,8729;0,248959
1028,8372;0,249698
1029,8014;0,250184
1030,7656;0,250337
1031,7299;0,250079
1032,6941;0,249344
1033,6583;0,248097
1034,6226;0,246357
1035,5868;0,244216
1036,5510;0,24183
1037,5153;0,239396
1038,4795;0,237109
1039,4437;0,235123
1040,4080;0,233529
1041,3722;0,232352
1042,3364;0,231569
1043,3007;0,231117
1044,2649;0,230914
1045,2291;0,230865
1046,1934;0,230872
1047,1576;0,230845
1048,1218;0,230708
1049,0861;0,230407
1050,0503;0,229906
1051,0145;0,229178
1051,9788;0,228211
1052,9430;0,227002
1053,9072;0,225557
1054,8715;0,22388
1055,8357;0,221965
1056,7999;0,219779
1057,7642;0,21727
1058,7284;0,21439
1059,6926;0,21112
1060,6569;0,2075
1061,6211;0,203629
1062,5853;0,19965
1063,5496;0,195713
1064,5138;0,191952
1065,4780;0,188464
1066,4423;0,185298
1067,4065;0,18246
1068,3707;0,179916
1069,3350;0,177604
1070,2992;0,175455
1071,2634;0,173404
1072,2277;0,171403
1073,1919;0,169421
1074,1561;0,167438
1075,1204;0,165433
1076,0846;0,163393
1077,0488;0,16132
1078,0131;0,15924
1078,9773;0,157205
1079,9415;0,155283
1080,9058;0,153538
1081,8700;0,152014
1082,8342;0,150722
1083,7985;0,149645
1084,7627;0,148749
1085,7269;0,147997
1086,6912;0,14736
1087,6554;0,146822
1088,6196;0,146375
1089,5839;0,146019
1090,5481;0,145756
1091,5123;0,145588
1092,4766;0,145515
1093,4408;0,145534
1094,4050;0,145643
1095,3693;0,145837
1096,3335;0,146108
1097,2977;0,146443
1098,2620;0,146822
1099,2262;0,147217
1100,1904;0,147595
1101,1547;0,147918
1102,1189;0,148149
1103,0831;0,148259
1104,0474;0,148235
1105,0116;0,148082
1105,9758;0,147823
1106,9401;0,147482
1107,9043;0,147071
1108,8685;0,146563
1109,8328;0,1459
1110,7970;0,145001
1111,7612;0,143799
1112,7255;0,142275
1113,6897;0,140479
1114,6539;0,138519
1115,6182;0,13653
1116,5824;0,134634
1117,5466;0,132907
1118,5109;0,131365
1119,4751;0,129972
1120,4393;0,128653
1121,4036;0,127317
1122,3678;0,125877
1123,3320;0,124265
1124,2963;0,122443
1125,2605;0,120407
1126,2247;0,11819
1127,1890;0,115842
1128,1532;0,113422
1129,1174;0,110978
1130,0817;0,108545
1131,0459;0,106148
1132,0101;0,103809
1132,9744;0,101557
1133,9386;0,0994333
1134,9028;0,0974867
1135,8671;0,0957675
1136,8313;0,0943172
1137,7955;0,0931604
1138,7598;0,0923006
1139,7240;0,091721
1140,6882;0,0913886
1141,6525;0,0912613
1142,6167;0,0912952
1143,5809;0,0914514
1144,5452;0,0917016
1145,5094;0,0920302
1146,4736;0,0924345
1147,4379;0,0929195
1148,4021;0,0934909
1149,3663;0,0941471
1150,3306;0,094874
1151,2948;0,0956444
1152,2590;0,0964226
1153,2233;0,097172
1154,1875;0,0978593
1155,1517;0,0984556
1156,1160;0,0989302
1157,0802;0,0992426
1158,0444;0,0993357
1159,0087;0,0991359
1159,9729;0,0985615
1160,9371;0,0975377
1161,9014;0,0960144
1162,8656;0,0939814
1163,8298;0,091476
1164,7941;0,088582
1165,7583;0,0854194
1166,7225;0,0821283
1167,6868;0,0788494
1168,6510;0,0757051
1169,6152;0,0727853
1170,5795;0,0701405
1171,5437;0,0677847
1172,5079;0,0657048
1173,4722;0,0638749
1174,4364;0,0622675
1175,4006;0,0608603
1176,3649;0,0596369
1177,3291;0,0585845
1178,2933;0,0576904
1179,2576;0,0569402
1180,2218;0,0563179
1181,1860;0,0558073
1182,1503;0,0553929
1183,1145;0,0550624
1184,0787;0,0548077
1185,0430;0,054626
1186,0072;0,0545191
1186,9714;0,0544919
1187,9357;0,0545486
1188,8999;0,0546909
1189,8641;0,054917
1190,8284;0,0552236
1191,7926;0,0556084
1192,7568;0,056071
1193,7211;0,0566115
1194,6853;0,0572279
1195,6495;0,0579118
1196,6138;0,0586472
1197,5780;0,0594122
1198,5422;0,060183
1199,5065;0,0609325
1200,4707;0,0616598
1201,4349;0,0623516
1202,3992;0,0630071
1203,3634;0,0636263
1204,3276;0,0642073
1205,2919;0,064744
1206,2561;0,0652301
1207,2203;0,0656644
1208,1846;0,0660576
1209,1488;0,066435
1210,1130;0,0668339
1211,0773;0,0672939
1212,0415;0,0678458
1213,0057;0,0685023
1213,9700;0,0692548
1214,9342;0,0700785
1215,8984;0,0709409
1216,8627;0,0718112
1217,8269;0,0726668
1218,7911;0,0734949
1219,7554;0,0742907
1220,7196;0,0750531
1221,6838;0,075781
1222,6481;0,0764717
1223,6123;0,0771209
1224,5765;0,0777255
1225,5408;0,078285
1226,5050;0,0788024
1227,4692;0,0792824
1228,4335;0,0797289
1229,3977;0,0801426
1230,3619;0,0805202
1231,3262;0,0808547
1232,2904;0,0811366
1233,2546;0,0813568
1234,2189;0,0815105
1235,1831;0,0816007
1236,1473;0,08164
1237,1116;0,0816475
1238,0758;0,0816424
1239,0400;0,0816362
1240,0043;0,0816276
1240,9685;0,0816039
1241,9327;0,0815471
1242,8970;0,081442
1243,8612;0,0812814
1244,8254;0,0810663
1245,7897;0,0808027
1246,7539;0,0804976
1247,7181;0,0801578
1248,6824;0,0797901
1249,6466;0,0794033
1250,6108;0,0790089
1251,5751;0,0786207
1252,5393;0,0782524
1253,5035;0,0779148
1254,4678;0,0776118
1255,4320;0,0773386
1256,3962;0,0770816
1257,3605;0,076822
1258,3247;0,0765422
1259,2889;0,0762311
1260,2532;0,0758872
1261,2174;0,0755155
1262,1816;0,0751215
1263,1459;0,0747063
1264,1101;0,0742653
1265,0743;0,073792
1266,0386;0,0732818
1267,0028;0,0727344
1267,9670;0,0721529
1268,9313;0,0715412
1269,8955;0,0709019
1270,8597;0,0702372
1271,8240;0,0695502
1272,7882;0,0688472
1273,7524;0,0681382
1274,7167;0,0674366
1275,6809;0,0667557
1276,6451;0,0661055
1277,6094;0,0654876
1278,5736;0,0648929
1279,5378;0,0643038
1280,5021;0,0637029
1281,4663;0,0630819
1282,4305;0,0624483
1283,3948;0,0618234
1284,3590;0,0612335
1285,3232;0,0607001
1286,2875;0,0602335
1287,2517;0,0598342
1288,2159;0,0594981
1289,1802;0,059223
1290,1444;0,0590108
1291,1086;0,0588667
1292,0729;0,0587963
1293,0371;0,0588041
1294,0013;0,058893
1294,9656;0,059065
1295,9298;0,0593202
1296,8940;0,0596559
1297,8583;0,0600661
1298,8225;0,0605433
1299,7867;0,0610809
1300,7510;0,061675
1301,7152;0,0623258
1302,6794;0,0630352
1303,6437;0,0638045
1304,6079;0,0646316
1305,5721;0,0655101
1306,5364;0,0664294
1307,5006;0,067378
1308,4648;0,0683451
1309,4291;0,069321
1310,3933;0,0702928
1311,3575;0,0712404
1312,3218;0,072135
1313,2860;0,0729421
1314,2502;0,0736271
1315,2145;0,0741584
1316,1787;0,0745076
1317,1429;0,0746523
1318,1072;0,0745845
1319,0714;0,074323
1320,0356;0,0739174
1320,9999;0,0734358
1321,9641;0,0729443
1322,9283;0,0724902
1323,8926;0,0720998
1324,8568;0,0717839
1325,8210;0,0715447
1326,7853;0,0713781
1327,7495;0,0712718
1328,7137;0,0712036
1329,6780;0,071142
1330,6422;0,0710542
1331,6064;0,0709176
1332,5707;0,0707296
1333,5349;0,0705061
1334,4991;0,0702677
1335,4634;0,0700186
1336,4276;0,0697298
1337,3918;0,0693385
1338,3561;0,0687777
1339,3203;0,0680273
1340,2845;0,0671473
1341,2488;0,0662498
1342,2130;0,065436
1343,1772;0,0647586
1344,1415;0,0642248
1345,1057;0,0638184
1346,0699;0,0635195
1347,0342;0,0633154
1347,9984;0,0632041
1348,9626;0,0631912
1349,9269;0,0632811
1350,8911;0,063469
1351,8553;0,0637372
1352,8196;0,064059
1353,7838;0,0644094
1354,7480;0,0647767
1355,7123;0,0651687
1356,6765;0,0656074
1357,6407;0,0661144
1358,6050;0,066695
1359,5692;0,0673271
1360,5334;0,0679553
1361,4977;0,0685028
1362,4619;0,0689111
1363,4261;0,069183
1364,3904;0,0693795
1365,3546;0,0695695
1366,3188;0,0697881
1367,2831;0,0700294
1368,2473;0,0702621
1369,2115;0,0704481
1370,1758;0,0705558
1371,1400;0,0705596
1372,1042;0,0704346
1373,0685;0,0701597
1374,0327;0,0697357
1374,9969;0,069199
1375,9612;0,0686021
1376,9254;0,0679709
1377,8896;0,0672869
1378,8539;0,0665124
1379,8181;0,0656358
1380,7823;0,0647011
1381,7466;0,0637925
1382,7108;0,0629832
1383,6750;0,06229
1384,6393;0,0616665
1385,6035;0,0610355
1386,5677;0,0603467
1387,5320;0,0596275
1388,4962;0,0589702
1389,4604;0,0584595
1390,4247;0,0581238
1391,3889;0,0579463
1392,3531;0,0578953
1393,3174;0,0579378
1394,2816;0,0580373
1395,2458;0,0581503
1396,2101;0,0582355
1397,1743;0,058275
1398,1385;0,0582867
1399,1028;0,0583155
1400,0670;0,058408
1401,0313;0,0585908
1401,9955;0,0588624
1402,9597;0,0591994
1403,9240;0,0595699
1404,8882;0,0599488
1405,8524;0,0603306
1406,8167;0,0607298
1407,7809;0,0611666
1408,7451;0,061654
1409,7094;0,0621942
1410,6736;0,0627836
1411,6378;0,0634181
1412,6021;0,0640966
1413,5663;0,0648195
1414,5305;0,0655825
1415,4948;0,0663669
1416,4590;0,0671251
1417,4232;0,0677744
1418,3875;0,0682323
1419,3517;0,0684887
1420,3159;0,0686147
1421,2802;0,0686752
1422,2444;0,0686715
1423,2086;0,0685657
1424,1729;0,0683315
1425,1371;0,0679759
1426,1013;0,0675192
1427,0656;0,0669603
1428,0298;0,06627
1428,9940;0,0654323
1429,9583;0,0644976
1430,9225;0,0635799
1431,8867;0,0627767
1432,8510;0,0620944
1433,8152;0,0614422
1434,7794;0,0606897
1435,7437;0,0597674
1436,7079;0,0587706
1437,6721;0,0579234
1438,6364;0,0573854
1439,6006;0,0571512
1440,5648;0,0571291
1441,5291;0,057237
1442,4933;0,0574331
1443,4575;0,0577057
1444,4218;0,0580502
1445,3860;0,0584532
1446,3502;0,0588877
1447,3145;0,0593208
1448,2787;0,0597286
1449,2429;0,060107
1450,2072;0,0604687
1451,1714;0,0608271
1452,1356;0,0611832
1453,0999;0,0615207
1454,0641;0,0617963
1455,0283;0,0619159
1455,9926;0,0617328
1456,9568;0,0611882
1457,9210;0,0605156
1458,8853;0,060035
1459,8495;0,059807
1460,8137;0,0596979
1461,7780;0,0595401
1462,7422;0,0591792
1463,7064;0,0584991
1464,6707;0,0575002
1465,6349;0,0563495
1466,5991;0,055263
1467,5634;0,0543306
1468,5276;0,0534893
1469,4918;0,0525977
1470,4561;0,0514913
1471,4203;0,0500333
1472,3845;0,0482238
1473,3488;0,0462999
1474,3130;0,044594
1475,2772;0,0432577
1476,2415;0,0422402
1477,2057;0,0414393
1478,1699;0,040783
1479,1342;0,0402304
1480,0984;0,0397553
1481,0626;0,0393437
1482,0269;0,0389995
1482,9911;0,0387435
1483,9553;0,0385993
1484,9196;0,0385778
1485,8838;0,0386705
1486,8480;0,0388481
1487,8123;0,0390605
1488,7765;0,0392535
1489,7407;0,0394146
1490,7050;0,0395916
1491,6692;0,0398433
1492,6334;0,0401982
1493,5977;0,0406645
1494,5619;0,0412513
1495,5261;0,0419704
1496,4904;0,0428169
1497,4546;0,0437429
1498,4188;0,0446673
1499,3831;0,0455243
1500,3473;0,0462853
1501,3115;0,0469424
1502,2758;0,0474973
1503,2400;0,0479644
1504,2042;0,0483769
1505,1685;0,0487666
1506,1327;0,0490852
1507,0969;0,0491532
1508,0612;0,0488842
1509,0254;0,0484363
1509,9896;0,0479672
1510,9539;0,0475201
1511,9181;0,0470816
1512,8823;0,0466217
1513,8466;0,0461034
1514,8108;0,0454949
1515,7750;0,0447896
1516,7393;0,0440134
1517,7035;0,0432
1518,6677;0,0423598
1519,6320;0,0414864
1520,5962;0,0406066
1521,5604;0,0398139
1522,5247;0,039217
1523,4889;0,0388482
1524,4531;0,0386457
1525,4174;0,0385169
1526,3816;0,0384051
1527,3458;0,0383096
1528,3101;0,0382583
1529,2743;0,0382688
1530,2385;0,0383333
1531,2028;0,0384248
1532,1670;0,0385136
1533,1312;0,0385862
1534,0955;0,0386527
1535,0597;0,038726
1536,0239;0,0387958
1536,9882;0,0388294
1537,9524;0,038792
1538,9166;0,0386762
1539,8809;0,0385507
1540,8451;0,0385733
1541,8093;0,0388314
1542,7736;0,0392149
1543,7378;0,0395752
1544,7020;0,0398521
1545,6663;0,0400581
1546,6305;0,0402284
1547,5947;0,0403853
1548,5590;0,0405231
1549,5232;0,0406158
1550,4874;0,0406427
1551,4517;0,0406121
1552,4159;0,0405627
1553,3801;0,0405336
1554,3444;0,0405336
1555,3086;0,040531
1556,2728;0,0404576
1557,2371;0,0402264
1558,2013;0,0398356
1559,1655;0,0395221
1560,1298;0,0395354
1561,0940;0,0398312
1562,0582;0,0402437
1563,0225;0,0406628
1563,9867;0,0410398
1564,9509;0,0413567
1565,9152;0,041612
1566,8794;0,041822
1567,8436;0,0420284
1568,8079;0,042288
1569,7721;0,0426349
1570,7363;0,0430511
1571,7006;0,0434868
1572,6648;0,0439052
1573,6290;0,0443089
1574,5933;0,0447423
1575,5575;0,0452686
1576,5217;0,0459178
1577,4860;0,0466565
1578,4502;0,0474297
1579,4144;0,0482119
1580,3787;0,0490075
1581,3429;0,0498282
1582,3071;0,0506764
1583,2714;0,0515422
1584,2356;0,0524137
1585,1998;0,0532888
1586,1641;0,0541721
1587,1283;0,0550596
1588,0925;0,055927
1589,0568;0,0567336
1590,0210;0,057438
1590,9852;0,0580093
1591,9495;0,0584275
1592,9137;0,0586786
1593,8779;0,0587573
1594,8422;0,0586771
1595,8064;0,0584741
1596,7706;0,0581968
1597,7349;0,0578871
1598,6991;0,05757
1599,6633;0,0572566
1600,6276;0,0569534
1601,5918;0,0566706
1602,5560;0,0564234
1603,5203;0,0562251
1604,4845;0,0560774
1605,4487;0,0559663
1606,4130;0,055867
1607,3772;0,0557586
1608,3414;0,0556414
1609,3057;0,0555418
1610,2699;0,055493
1611,2341;0,0555053
1612,1984;0,0555542
1613,1626;0,0555956
1614,1268;0,0555915
1615,0911;0,0555408
1616,0553;0,0555051
1617,0195;0,0555816
1617,9838;0,0558132
1618,9480;0,0561502
1619,9122;0,0565072
1620,8765;0,0568216
1621,8407;0,0570689
1622,8049;0,0572587
1623,7692;0,0574219
1624,7334;0,0575894
1625,6976;0,057774
1626,6619;0,057974
1627,6261;0,0581889
1628,5903;0,058425
1629,5546;0,0586844
1630,5188;0,0589511
1631,4830;0,0591902
1632,4473;0,0593545
1633,4115;0,0593928
1634,3757;0,0592721
1635,3400;0,0590403
1636,3042;0,0588605
1637,2684;0,0588753
1638,2327;0,0590661
1639,1969;0,0593257
1640,1611;0,0595685
1641,1254;0,0597549
1642,0896;0,0598705
1643,0538;0,0598993
1644,0181;0,0598048
1644,9823;0,0595409
1645,9465;0,0591207
1646,9108;0,0586861
1647,8750;0,0584113
1648,8392;0,0583257
1649,8035;0,0583136
1650,7677;0,0582
1651,7319;0,0577891
1652,6962;0,0569756
1653,6604;0,0560261
1654,6246;0,0554159
1655,5889;0,0552221
1656,5531;0,0552105
1657,5173;0,0551759
1658,4816;0,0550073
1659,4458;0,0546455
1660,4100;0,0540632
1661,3743;0,0532944
1662,3385;0,0524692
1663,3027;0,0517565
1664,2670;0,0512365
1665,2312;0,0508568
1666,1954;0,050485
1667,1597;0,0499746
1668,1239;0,0492268
1669,0881;0,0482749
1670,0524;0,0473104
1671,0166;0,0465317
1671,9808;0,0459648
1672,9451;0,0454846
1673,9093;0,0449556
1674,8735;0,0443384
1675,8378;0,0437147
1676,8020;0,0432111
1677,7662;0,0428834
1678,7305;0,042682
1679,6947;0,0424961
1680,6589;0,0421926
1681,6232;0,0416261
1682,5874;0,0406892
1683,5516;0,0394798
1684,5159;0,0383797
1685,4801;0,0376962
1686,4443;0,0373698
1687,4086;0,037171
1688,3728;0,0369339
1689,3370;0,0366082
1690,3013;0,036225
1691,2655;0,035841
1692,2297;0,0354945
1693,1940;0,0351859
1694,1582;0,0348857
1695,1224;0,0345563
1696,0867;0,0341777
1697,0509;0,0337641
1698,0151;0,0333613
1698,9794;0,033028
1699,9436;0,0328149
1700,9078;0,0327442
1701,8721;0,0327993
1702,8363;0,0329358
1703,8005;0,0331065
1704,7648;0,0332811
1705,7290;0,033454
1706,6932;0,033641
1707,6575;0,0338655
1708,6217;0,0341416
1709,5859;0,0344679
1710,5502;0,0348334
1711,5144;0,0352228
1712,4786;0,0356173
1713,4429;0,0359896
1714,4071;0,0363004
1715,3713;0,0365047
1716,3356;0,0365898
1717,2998;0,0366308
1718,2640;0,0367558
1719,2283;0,0370248
1720,1925;0,0373994
1721,1567;0,0378075
1722,1210;0,0381916
1723,0852;0,0385215
1724,0494;0,0387952
1725,0137;0,0390344
1725,9779;0,0392721
1726,9421;0,0395341
1727,9064;0,0398229
1728,8706;0,0401132
1729,8348;0,0403535
1730,7991;0,0404698
1731,7633;0,0403776
1732,7275;0,0400338
1733,6918;0,0395225
1734,6560;0,0390373
1735,6202;0,0387075
1736,5845;0,0385082
1737,5487;0,0383394
1738,5129;0,0381198
1739,4772;0,0378224
1740,4414;0,0374698
1741,4056;0,0370995
1742,3699;0,0367231
1743,3341;0,0363167
1744,2983;0,0358503
1745,2626;0,0353143
1746,2268;0,0347175
1747,1910;0,0340609
1748,1553;0,0333176
1749,1195;0,0324578
1750,0837;0,0315136
1751,0480;0,0305943
1752,0122;0,0298048
1752,9764;0,0291717
1753,9407;0,028651
1754,9049;0,0281784
1755,8691;0,0277086
1756,8334;0,0272285
1757,7976;0,026743
1758,7618;0,0262499
1759,7261;0,0257306
1760,6903;0,0251727
1761,6545;0,0246022
1762,6188;0,0240836
1763,5830;0,0236777
1764,5472;0,0233975
1765,5115;0,0232046
1766,4757;0,023037
1767,4399;0,0228383
1768,4042;0,0225734
1769,3684;0,0222336
1770,3326;0,0218379
1771,2969;0,0214365
1772,2611;0,0211053
1773,2253;0,0209108
1774,1896;0,0208666
1775,1538;0,0209282
1776,1180;0,021028
1777,0823;0,0211072
1778,0465;0,0211321
1779,0107;0,021098
1779,9750;0,0210254
1780,9392;0,0209442
1781,9034;0,0208714
1782,8677;0,0208043
1783,8319;0,0207327
1784,7961;0,0206588
1785,7604;0,0206011
1786,7246;0,0205795
1787,6888;0,0205973
1788,6531;0,0206357
1789,6173;0,0206603
1790,5815;0,0206357
1791,5458;0,0205487
1792,5100;0,0204289
1793,4742;0,0203324
1794,4385;0,0202907
1795,4027;0,0202908
1796,3669;0,0203017
1797,3312;0,0203042
1798,2954;0,0202998
1799,2596;0,0203005
1800,2239;0,0203112
1801,1881;0,02032
1802,1523;0,0203093
1803,1166;0,0202723
1804,0808;0,0202194
1805,0450;0,0201698
1806,0093;0,0201384
1806,9735;0,0201276
1807,9377;0,0201263
1808,9020;0,0201161
1809,8662;0,0200843
1810,8304;0,0200339
1811,7947;0,0199832
1812,7589;0,0199525
1813,7231;0,0199511
1814,6874;0,0199742
1815,6516;0,0200073
1816,6158;0,0200346
1817,5801;0,0200473
1818,5443;0,0200491
1819,5085;0,020054
1820,4728;0,0200758
1821,4370;0,0201186
1822,4012;0,0201721
1823,3655;0,0202157
1824,3297;0,0202282
1825,2939;0,0201988
1826,2582;0,0201307
1827,2224;0,0200356
1828,1866;0,0199289
1829,1509;0,0198299
1830,1151;0,0197635
1831,0793;0,0197507
1832,0436;0,0197945
1833,0078;0,0198759
1833,9720;0,0199649
1834,9363;0,0200355
1835,9005;0,0200755
1836,8647;0,0200912
1837,8290;0,0201018
1838,7932;0,0201248
1839,7574;0,0201636
1840,7217;0,0202072
1841,6859;0,020238
1842,6501;0,0202412
1843,6144;0,0202136
1844,5786;0,0201703
1845,5428;0,0201347
1846,5071;0,0201166
1847,4713;0,0201037
1848,4355;0,0200757
1849,3998;0,0200236
1850,3640;0,0199568
1851,3282;0,0198982
1852,2925;0,0198691
1853,2567;0,0198769
1854,2209;0,0199126
1855,1852;0,0199591
1856,1494;0,020003
1857,1136;0,0200405
1858,0779;0,0200745
1859,0421;0,0201074
1860,0063;0,0201358
1860,9706;0,0201534
1861,9348;0,0201585
1862,8990;0,0201583
1863,8633;0,0201679
1864,8275;0,0202027
1865,7917;0,0202695
1866,7560;0,0203567
1867,7202;0,0204302
1868,6844;0,0204504
1869,6487;0,0204036
1870,6129;0,0203111
1871,5771;0,0202061
1872,5414;0,0201111
1873,5056;0,0200342
1874,4698;0,0199753
1875,4341;0,0199305
1876,3983;0,0198958
1877,3625;0,0198702
1878,3268;0,0198579
1879,2910;0,0198668
1880,2552;0,0199035
1881,2195;0,0199686
1882,1837;0,0200536
1883,1479;0,020144
1884,1122;0,0202253
1885,0764;0,0202884
1886,0406;0,0203287
1887,0049;0,0203434
1887,9691;0,0203289
1888,9333;0,0202845
1889,8976;0,0202195
1890,8618;0,0201546
1891,8260;0,0201129
1892,7903;0,0201081
1893,7545;0,0201375
1894,7188;0,0201843
1895,6830;0,0202259
1896,6472;0,0202451
1897,6115;0,0202372
1898,5757;0,0202081
1899,5399;0,0201673
1900,5042;0,0201226
1901,4684;0,0200806
1902,4326;0,0200499
1903,3969;0,0200406
1904,3611;0,0200612
1905,3253;0,0201128
1906,2896;0,020188
1907,2538;0,0202728
1908,2180;0,0203527
1909,1823;0,0204169
1910,1465;0,0204612
1911,1107;0,0204858
1912,0750;0,0204921
1913,0392;0,0204805
1914,0034;0,0204528
1914,9677;0,0204164
1915,9319;0,0203869
1916,8961;0,0203869
1917,8604;0,0204375
1918,8246;0,0205462
1919,7888;0,0206972
1920,7531;0,0208526
1921,7173;0,0209624
1922,6815;0,0209828
1923,6458;0,0208988
1924,6100;0,0207372
1925,5742;0,0205559
1926,5385;0,0204144
1927,5027;0,0203472
1928,4669;0,0203563
1929,4312;0,0204199
1930,3954;0,0205097
1931,3596;0,0206054
1932,3239;0,0206992
1933,2881;0,0207896
1934,2523;0,0208744
1935,2166;0,0209504
1936,1808;0,0210209
1937,1450;0,0210993
1938,1093;0,0212027
1939,0735;0,0213356
1940,0377;0,0214758
1941,0020;0,0215747
1941,9662;0,0215798
1942,9304;0,0214737
1943,8947;0,0212952
1944,8589;0,0211195
1945,8231;0,0210128
1946,7874;0,0210001
1947,7516;0,0210611
1948,7158;0,0211487
1949,6801;0,0212158
1950,6443;0,021239
1951,6085;0,021228
1952,5728;0,0212161
1953,5370;0,021239
1954,5012;0,0213127
1955,4655;0,0214234
1956,4297;0,0215347
1957,3939;0,0216088
1958,3582;0,0216304
1959,3224;0,0216199
1960,2866;0,0216257
1961,2509;0,0216991
1962,2151;0,0218672
1963,1793;0,022121
1964,1436;0,0224212
1965,1078;0,0227128
1966,0720;0,0229359
1967,0363;0,0230361
1968,0005;0,0229782
1968,9647;0,0227629
1969,9290;0,0224365
1970,8932;0,0220841
1971,8574;0,0218045
1972,8217;0,0216727
1973,7859;0,0217062
1974,7501;0,021855
1975,7144;0,0220296
1976,6786;0,0221553
1977,6428;0,0222125
1978,6071;0,0222324
1979,5713;0,0222559
1980,5355;0,0222973
1981,4998;0,0223408
1982,4640;0,0223622
1983,4282;0,0223516
1984,3925;0,0223228
1985,3567;0,0223042
1986,3209;0,0223229
1987,2852;0,0223907
1988,2494;0,0224984
1989,2136;0,022617
1990,1779;0,022706
1991,1421;0,0227282
1992,1063;0,0226714
1993,0706;0,022562
1994,0348;0,0224559
1994,9990;0,0224078
1995,9633;0,0224388
1996,9275;0,0225252
1997,8917;0,0226138
1998,8560;0,0226588
1999,8202;0,0226555
2000,7844;0,0226445
2001,7487;0,0226786
2002,7129;0,022778
2003,6771;0,0229093
2004,6414;0,0230064
2005,6056;0,0230211
2006,5698;0,0229645
2007,5341;0,0228991
2008,4983;0,0228834
2009,4625;0,0229156
2010,4268;0,0229313
2011,3910;0,0228572
2012,3552;0,0226795
2013,3195;0,0224753
2014,2837;0,0223832
2015,2479;0,0225284
2016,2122;0,0229421
2017,1764;0,0235283
2018,1406;0,0241041
2019,1049;0,0244892
2020,0691;0,0245863
2021,0333;0,0244099
2021,9976;0,0240661
2022,9618;0,0237053
2023,9260;0,0234698
2024,8903;0,0234494
2025,8545;0,0236547
2026,8187;0,0240181
2027,7830;0,024419
2028,7472;0,0247264
2029,7114;0,0248445
2030,6757;0,0247454
2031,6399;0,0244797
2032,6041;0,0241582
2033,5684;0,0239109
2034,5326;0,0238368
2035,4968;0,0239646
2036,4611;0,0242424
2037,4253;0,0245605
2038,3895;0,0247966
2039,3538;0,0248634
2040,3180;0,0247407
2041,2822;0,0244789
2042,2465;0,0241691
2043,2107;0,0238965
2044,1749;0,0237029
2045,1392;0,0235799
2046,1034;0,0234899
2047,0676;0,0233977
2048,0320;0,0232913
2048,9961;0,0231822
2049,9604;0,0230894
2050,9246;0,0230254
2051,8889;0,022991
2052,8530;0,0229799
2053,8174;0,0229837
2054,7815;0,0229948
2055,7458;0,0230089
2056,7100;0,0230259
2057,6743;0,02305
2058,6384;0,0230851
2059,6028;0,0231274
2060,5669;0,0231619
2061,5313;0,0231673
2062,4954;0,0231313
2063,4597;0,0230657
2064,4238;0,0230087
2065,3882;0,0230073
2066,3523;0,0230878
2067,3167;0,0232355
2068,2808;0,0233978
2069,2451;0,0235102
2070,2092;0,0235263
2071,1736;0,0234356
2072,1377;0,023261
2073,1021;0,0230422
2074,0662;0,022819
2075,0305;0,0226235
2075,9946;0,0224826
2076,9590;0,0224197
2077,9231;0,0224493
2078,8875;0,0225656
2079,8516;0,0227362
2080,8159;0,0229078
2081,7800;0,0230256
2082,7444;0,0230555
2083,7085;0,0229964
2084,6729;0,0228768
2085,6370;0,0227381
2086,6013;0,0226145
2087,5654;0,0225223
2088,5298;0,0224603
2089,4939;0,0224207
2090,4583;0,0223996
2091,4224;0,0224019
2092,3867;0,022436
2093,3508;0,0225058
2094,3152;0,0226033
2095,2793;0,0227087
2096,2437;0,0227974
2097,2078;0,0228486
2098,1721;0,0228513
2099,1362;0,0228058
2100,1006;0,0227247
2101,0647;0,0226318
2102,0291;0,0225621
2102,9932;0,0225517
2103,9575;0,0226214
2104,9216;0,0227613
2105,8860;0,0229286
2106,8501;0,0230633
2107,8145;0,0231188
2108,7786;0,0230858
2109,7429;0,022996
2110,7070;0,0229007
2111,6714;0,022839
2112,6355;0,0228193
2113,5999;0,0228239
2114,5640;0,0228306
2115,5283;0,0228325
2116,4924;0,0228409
2117,4568;0,0228699
2118,4209;0,0229198
2119,3853;0,0229741
2120,3494;0,0230127
2121,3137;0,0230308
2122,2778;0,0230462
2123,2422;0,0230873
2124,2063;0,023171
2125,1707;0,023288
2126,1348;0,023407
2127,0991;0,0234952
2128,0632;0,0235396
2129,0276;0,0235549
2129,9917;0,0235738
2130,9561;0,0236289
2131,9202;0,0237368
2132,8845;0,0238922
2133,8486;0,0240734
2134,8130;0,0242546
2135,7771;0,0244185
2136,7415;0,0245648
2137,7056;0,0247082
2138,6699;0,0248662
2139,6340;0,0250426
2140,5984;0,0252183
2141,5625;0,0253569
2142,5269;0,0254268
2143,4910;0,0254273
2144,4553;0,0254021
2145,4194;0,0254266
2146,3838;0,0255752
2147,3479;0,0258836
2148,3123;0,0263291
2149,2764;0,026837
2150,2407;0,0273091
2151,2048;0,0276579
2152,1692;0,0278364
2153,1333;0,0278541
2154,0977;0,0277775
2155,0618;0,0277136
2156,0261;0,0277771
2156,9902;0,0280402
2157,9546;0,0284802
2158,9187;0,0289652
2159,8831;0,029311
2160,8472;0,029382
2161,8115;0,0291551
2162,7756;0,0287132
2163,7400;0,0281961
2164,7041;0,0277437
2165,6685;0,0274468
2166,6326;0,0273192
2167,5969;0,0273048
2168,5610;0,027317
2169,5254;0,0272858
2170,4895;0,027186
2171,4539;0,0270336
2172,4180;0,02686
2173,3823;0,0266849
2174,3464;0,0265075
2175,3108;0,0263166
2176,2749;0,0261108
2177,2393;0,0259078
2178,2034;0,0257406
2179,1677;0,0256419
2180,1318;0,0256288
2181,0962;0,025691
2182,0603;0,0257869
2183,0247;0,0258518
2183,9888;0,0258216
2184,9531;0,0256657
2185,9172;0,02541
2186,8816;0,0251317
2187,8457;0,0249246
2188,8101;0,0248484
2189,7742;0,0248965
2190,7385;0,0250012
2191,7026;0,0250769
2192,6670;0,0250704
2193,6311;0,0249875
2194,5955;0,024881
2195,5596;0,0248136
2196,5239;0,024822
2197,4880;0,0249035
2198,4524;0,0250246
2199,4165;0,025139
2200,3809;0,0252019
2201,3450;0,0251797
2202,3093;0,0250587
2203,2734;0,0248564
2204,2378;0,0246263
2205,2019;0,0244457
2206,1663;0,0243836
2207,1304;0,0244651
2208,0947;0,0246524
2209,0588;0,02486
2210,0232;0,0249963
2210,9873;0,0250091
2211,9517;0,024907
2212,9158;0,0247469
2213,8801;0,0245962
2214,8442;0,0244972
2215,8086;0,0244518
2216,7727;0,024433
2217,7371;0,0244094
2218,7012;0,0243656
2219,6655;0,0243061
2220,6296;0,0242466
2221,5940;0,0242016
2222,5581;0,0241769
2223,5225;0,0241697
2224,4866;0,0241719
2225,4509;0,0241741
2226,4150;0,0241674
2227,3794;0,0241454
2228,3435;0,0241087
2229,3079;0,0240638
2230,2720;0,0240207
2231,2363;0,0239861
2232,2004;0,0239581
2233,1648;0,0239268
2234,1289;0,0238806
2235,0933;0,0238152
2236,0574;0,0237394
2237,0217;0,0236723
2237,9858;0,023634
2238,9502;0,0236337
2239,9143;0,0236632
2240,8787;0,0237001
2241,8428;0,0237192
2242,8071;0,0237064
2243,7712;0,0236658
2244,7356;0,0236149
2245,6997;0,0235722
2246,6641;0,023545
2247,6282;0,0235272
2248,5925;0,0235103
2249,5566;0,0234963
2250,5210;0,0235027
2251,4851;0,0235509
2252,4495;0,0236462
2253,4136;0,0237644
2254,3779;0,023859
2255,3420;0,0238865
2256,3064;0,0238339
2257,2705;0,0237268
2258,2349;0,0236124
2259,1990;0,0235303
2260,1633;0,0234926
2261,1274;0,0234844
2262,0918;0,0234827
2263,0559;0,0234753
2264,0203;0,0234662
2264,9844;0,0234664
2265,9487;0,0234787
2266,9128;0,0234931
2267,8772;0,0234938
2268,8413;0,0234729
2269,8057;0,0234367
2270,7698;0,023401
2271,7341;0,0233795
2272,6982;0,0233739
2273,6626;0,0233734
2274,6267;0,0233616
2275,5911;0,0233252
2276,5552;0,0232589
2277,5195;0,0231668
2278,4836;0,0230599
2279,4480;0,0229555
2280,4121;0,0228757
2281,3765;0,0228438
2282,3406;0,022878
2283,3049;0,0229834
2284,2690;0,0231474
2285,2334;0,0233428
2286,1975;0,0235369
2287,1619;0,0237059
2288,1260;0,0238442
2289,0903;0,0239648
2290,0544;0,0240895
2291,0188;0,0242355
2291,9829;0,0244063
2292,9473;0,0245924
2293,9114;0,0247798
2294,8757;0,024958
2295,8398;0,0251228
2296,8042;0,0252712
2297,7683;0,0253967
2298,7327;0,0254883
2299,6968;0,0255386
2300,6611;0,0255535
2301,6252;0,0255563
2302,5896;0,0255812
2303,5537;0,0256591
2304,5181;0,025803
2305,4822;0,0259991
2306,4465;0,0262071
2307,4106;0,0263695
2308,3750;0,0264296
2309,3391;0,0263508
2310,3035;0,0261333
2311,2676;0,025819
2312,2319;0,0254779
2313,1960;0,0251806
2314,1604;0,0249672
2315,1245;0,0248335
2316,0889;0,0247412
2317,0530;0,024646
2318,0173;0,0245258
2318,9814;0,0243956
2319,9458;0,0243002
2320,9099;0,0242916
2321,8743;0,0244012
2322,8384;0,0246204
2323,8027;0,0248981
2324,7668;0,0251543
2325,7312;0,025308
2326,6953;0,025308
2327,6597;0,0251523
2328,6238;0,0248889
2329,5881;0,024598
2330,5522;0,0243628
2331,5166;0,0242356
2332,4807;0,024215
2333,4451;0,0242497
2334,4092;0,0242739
2335,3735;0,0242534
2336,3376;0,024214
2337,3020;0,0242338
2338,2661;0,0243993
2339,2305;0,0247435
2340,1946;0,0251966
2341,1589;0,0255749
2342,1230;0,0256427
2343,0874;0,0252947
2344,0515;0,0247724
2345,0159;0,0245753
2345,9800;0,0250035
2346,9443;0,0258851
2347,9084;0,0267668
2348,8728;0,0272465
2349,8369;0,0271681
2350,8013;0,0266551
2351,7654;0,0260227
2352,7297;0,0256004
2353,6938;0,0255471
2354,6582;0,0258103
2355,6223;0,0262516
2356,5867;0,0267523
2357,5508;0,0272012
2358,5151;0,0274755
2359,4792;0,0274952
2360,4436;0,0272811
2361,4077;0,0269169
2362,3721;0,0264591
2363,3362;0,0259078
2364,3005;0,0252589
2365,2646;0,0245571
2366,2290;0,0238851
2367,1931;0,0233086
2368,1575;0,0228424
2369,1216;0,0224626
2370,0859;0,0221426
2371,0500;0,0218764
2372,0144;0,021679
2372,9785;0,0215734
2373,9429;0,0215788
2374,9070;0,0217036
2375,8713;0,0219425
2376,8354;0,022276
2377,7998;0,0226705
2378,7639;0,0230802
2379,7283;0,0234528
2380,6924;0,0237381
2381,6567;0,0238988
2382,6208;0,0239197
2383,5852;0,023811
2384,5493;0,0236051
2385,5137;0,023347
2386,4778;0,0230821
2387,4421;0,0228467
2388,4063;0,0226628
2389,3706;0,0225382
2390,3347;0,0224696
2391,2991;0,0224463
2392,2632;0,0224544
2393,2275;0,0224796
2394,1917;0,0225104
2395,1560;0,02254
2396,1201;0,0225662
2397,0845;0,0225892
2398,0486;0,0226106
2399,0129;0,0226295
2399,9771;0,0226434
2400,9414;0,0226514
2401,9055;0,0226544
2402,8699;0,022656
2403,8340;0,0226596
2404,7983;0,0226671
2405,7625;0,0226775
2406,7268;0,0226879
2407,6909;0,0226962
2408,6553;0,0227037
2409,6194;0,0227147
2410,5837;0,0227344
2411,5479;0,0227665
2412,5122;0,02281
2413,4763;0,0228591
2414,4407;0,0229069
2415,4048;0,0229477
2416,3691;0,0229804
2417,3333;0,0230074
2418,2976;0,0230317
2419,2617;0,0230542
2420,2261;0,0230726
2421,1902;0,0230827
2422,1545;0,0230829
2423,1187;0,0230767
2424,0830;0,0230718
2425,0471;0,0230769
2426,0115;0,0230977
2426,9756;0,0231339
2427,9399;0,0231798
2428,9041;0,0232264
2429,8684;0,0232654
2430,8325;0,023291
2431,7969;0,0233022
2432,7610;0,0233018
2433,7253;0,0232961
2434,6895;0,0232918
2435,6538;0,0232939
2436,6179;0,0233034
2437,5823;0,0233175
2438,5464;0,0233327
2439,5107;0,0233467
2440,4749;0,0233616
2441,4392;0,0233823
2442,4033;0,0234145
2443,3677;0,0234607
2444,3318;0,0235186
2445,2961;0,0235814
2446,2603;0,0236389
2447,2246;0,0236811
2448,1887;0,0237018
2449,1531;0,0237007
2450,1172;0,0236851
2451,0815;0,0236668
2452,0457;0,0236571
2453,0100;0,023661
2453,9741;0,0236744
2454,9385;0,0236874
2455,9026;0,0236904
2456,8669;0,0236817
2457,8311;0,0236682
2458,7954;0,0236605
2459,7595;0,023666
2460,7239;0,0236834
2461,6880;0,0237046
2462,6523;0,0237213
2463,6165;0,0237306
2464,5808;0,0237368
2465,5449;0,023746
2466,5093;0,0237596
2467,4734;0,0237729
2468,4377;0,0237783
2469,4019;0,0237729
2470,3662;0,0237634
2471,3303;0,0237637
2472,2947;0,0237862
2473,2588;0,0238332
2474,2231;0,0238935
2475,1873;0,0239477
2476,1516;0,0239787
2477,1157;0,0239809
2478,0801;0,0239628
2479,0442;0,0239417
2480,0085;0,0239347
2480,9727;0,0239511
2481,9370;0,0239901
2482,9011;0,0240429
2483,8655;0,0240984
2484,8296;0,0241467
2485,7939;0,0241815
2486,7581;0,024201
2487,7224;0,0242068
2488,6865;0,0242039
2489,6509;0,0241989
2490,6150;0,0241981
2491,5793;0,0242058
2492,5435;0,0242232
2493,5078;0,0242486
2494,4719;0,0242788
2495,4363;0,0243104
2496,4004;0,0243412
2497,3647;0,0243692
2498,3289;0,0243924
2499,2932;0,0244085
2500,2573;0,0244155
2501,2217;0,0244134
2502,1858;0,0244051
2503,1501;0,0243966
2504,1143;0,0243954
2505,0786;0,0244066
2506,0427;0,0244302
2507,0071;0,0244605
2507,9712;0,0244886
2508,9355;0,0245076
2509,8997;0,0245168
2510,8640;0,0245225
2511,8281;0,024533
2512,7925;0,0245526
2513,7566;0,024577
2514,7209;0,0245955
2515,6851;0,0245972
2516,6494;0,0245787
2517,6135;0,0245469
2518,5779;0,024515
2519,5420;0,0244948
2520,5063;0,0244906
2521,4705;0,0244989
2522,4348;0,0245132
2523,3989;0,0245309
2524,3633;0,0245549
2525,3274;0,0245907
2526,2917;0,0246393
2527,2559;0,0246937
2528,2202;0,0247397
2529,1843;0,0247631
2530,1487;0,0247572
2531,1128;0,0247267
2532,0771;0,0246854
2533,0413;0,0246502
2534,0056;0,0246336
2534,9697;0,0246393
2535,9341;0,0246624
2536,8982;0,0246927
2537,8625;0,0247196
2538,8267;0,0247363
2539,7910;0,0247409
2540,7551;0,0247361
2541,7195;0,0247275
2542,6836;0,0247212
2543,6479;0,024723
2544,6121;0,0247365
2545,5764;0,0247622
2546,5405;0,0247962
2547,5049;0,0248312
2548,4690;0,0248585
2549,4333;0,0248718
2550,3975;0,0248708
2551,3618;0,0248609
2552,3259;0,0248506
2553,2903;0,0248469
2554,2544;0,0248522
2555,2188;0,0248636
2556,1829;0,0248762
2557,1472;0,0248861
2558,1113;0,024893
2559,0757;0,0248988
2560,0398;0,0249062
2561,0042;0,0249165
2561,9683;0,024929
2562,9326;0,0249403
2563,8967;0,0249465
2564,8611;0,0249442
2565,8252;0,0249328
2566,7896;0,0249161
2567,7537;0,0249013
2568,7180;0,0248965
2569,6821;0,0249055
2570,6465;0,0249249
2571,6106;0,024946
2572,5750;0,0249596
2573,5391;0,0249625
2574,5034;0,0249594
2575,4675;0,0249605
2576,4319;0,0249751
2577,3960;0,025006
2578,3604;0,025048
2579,3245;0,0250909
2580,2888;0,0251238
2581,2529;0,0251386
2582,2173;0,0251319
2583,1814;0,0251058
2584,1458;0,0250681
2585,1099;0,0250307
2586,0742;0,0250067
2587,0383;0,0250046
2588,0027;0,0250247
2588,9668;0,0250594
2589,9312;0,0250979
2590,8953;0,0251327
2591,8596;0,0251628
2592,8237;0,025192
2593,7881;0,0252232
2594,7522;0,0252546
2595,7166;0,0252804
2596,6807;0,0252951
2597,6450;0,025298
2598,6091;0,0252938
2599,5735;0,0252899
2600,5376;0,0252913
2601,5020;0,0252984
2602,4661;0,0253084
2603,4304;0,0253186
2604,3945;0,0253287
2605,3589;0,0253413
2606,3230;0,0253601
2607,2874;0,0253877
2608,2515;0,0254237
2609,2158;0,0254645
2610,1799;0,0255043
2611,1443;0,0255364
2612,1084;0,0255561
2613,0728;0,0255627
2614,0369;0,02556
2615,0012;0,0255546
2615,9653;0,0255537
2616,9297;0,0255621
2617,8938;0,025581
2618,8582;0,0256093
2619,8223;0,025644
2620,7866;0,0256818
2621,7507;0,0257188
2622,7151;0,025751
2623,6792;0,0257751
2624,6436;0,0257901
2625,6077;0,0257976
2626,5720;0,025801
2627,5361;0,0258038
2628,5005;0,0258082
2629,4646;0,025816
2630,4290;0,0258295
2631,3931;0,0258521
2632,3574;0,0258867
2633,3215;0,0259331
2634,2859;0,0259859
2635,2500;0,0260366
2636,2144;0,026077
2637,1785;0,0261041
2638,1428;0,0261211
2639,1069;0,0261348
2640,0713;0,0261516
2641,0354;0,0261739
2641,9998;0,0262003
2642,9639;0,0262279
2643,9282;0,026255
2644,8923;0,0262819
2645,8567;0,0263095
2646,8208;0,0263373
2647,7852;0,0263636
2648,7493;0,0263858
2649,7136;0,0264034
2650,6777;0,0264185
2651,6421;0,0264354
2652,6062;0,0264582
2653,5706;0,0264887
2654,5347;0,0265248
2655,4990;0,0265616
2656,4631;0,0265932
2657,4275;0,0266163
2658,3916;0,0266313
2659,3560;0,0266426
2660,3201;0,0266564
2661,2844;0,0266777
2662,2485;0,0267079
2663,2129;0,0267446
2664,1770;0,026784
2665,1414;0,0268226
2666,1055;0,0268589
2667,0698;0,0268935
2668,0339;0,0269268
2668,9983;0,026958
2669,9624;0,0269851
2670,9268;0,027006
2671,8909;0,0270206
2672,8552;0,0270306
2673,8193;0,0270396
2674,7837;0,0270507
2675,7478;0,0270656
2676,7122;0,0270844
2677,6763;0,0271063
2678,6406;0,0271309
2679,6047;0,0271585
2680,5691;0,027191
2681,5332;0,0272302
2682,4976;0,0272775
2683,4617;0,0273319
2684,4260;0,0273902
2685,3901;0,0274469
2686,3545;0,0274964
2687,3186;0,0275344
2688,2830;0,0275603
2689,2471;0,0275774
2690,2114;0,0275916
2691,1755;0,0276092
2692,1399;0,0276345
2693,1040;0,0276683
2694,0684;0,0277086
2695,0325;0,0277514
2695,9968;0,0277934
2696,9609;0,0278325
2697,9253;0,027868
2698,8894;0,0279007
2699,8538;0,0279317
2700,8179;0,0279629
2701,7822;0,0279968
2702,7463;0,028036
2703,7107;0,0280825
2704,6748;0,0281356
2705,6392;0,0281921
2706,6033;0,0282468
2707,5676;0,028295
2708,5317;0,0283345
2709,4961;0,0283662
2710,4602;0,0283926
2711,4246;0,0284161
2712,3887;0,0284373
2713,3530;0,0284562
2714,3171;0,0284734
2715,2815;0,0284911
2716,2456;0,0285132
2717,2100;0,028543
2718,1741;0,0285816
2719,1384;0,0286267
2720,1025;0,0286745
2721,0669;0,0287206
2722,0310;0,0287617
2722,9954;0,0287966
2723,9595;0,0288257
2724,9238;0,0288513
2725,8879;0,0288773
2726,8523;0,0289078
2727,8164;0,0289459
2728,7808;0,028992
2729,7449;0,0290432
2730,7092;0,0290938
2731,6733;0,0291382
2732,6377;0,0291721
2733,6018;0,0291944
2734,5662;0,0292062
2735,5303;0,0292108
2736,4946;0,0292121
2737,4587;0,0292148
2738,4231;0,0292236
2739,3872;0,0292424
2740,3516;0,0292727
2741,3157;0,0293124
2742,2800;0,0293563
2743,2441;0,0293977
2744,2085;0,0294307
2745,1726;0,0294529
2746,1370;0,0294659
2747,1011;0,0294751
2748,0654;0,0294871
2749,0295;0,0295075
2749,9939;0,0295379
2750,9580;0,0295761
2751,9224;0,0296167
2752,8865;0,0296547
2753,8508;0,0296882
2754,8149;0,0297196
2755,7793;0,0297538
2756,7434;0,0297948
2757,7078;0,0298429
2758,6719;0,0298935
2759,6362;0,0299397
2760,6003;0,0299762
2761,5647;0,0300021
2762,5288;0,0300219
2763,4932;0,0300428
2764,4573;0,0300719
2765,4216;0,0301128
2766,3857;0,0301654
2767,3501;0,0302262
2768,3142;0,0302898
2769,2786;0,0303512
2770,2427;0,0304064
2771,2070;0,0304534
2772,1711;0,030493
2773,1355;0,030528
2774,0996;0,030563
2775,0640;0,0306025
2776,0281;0,0306493
2776,9924;0,0307038
2777,9565;0,0307635
2778,9209;0,0308247
2779,8850;0,0308833
2780,8494;0,0309373
2781,8135;0,0309866
2782,7778;0,0310334
2783,7419;0,0310809
2784,7063;0,0311317
2785,6704;0,0311872
2786,6348;0,031247
2787,5989;0,0313099
2788,5632;0,0313756
2789,5273;0,0314448
2790,4917;0,0315189
2791,4558;0,0315982
2792,4202;0,031681
2793,3843;0,0317635
2794,3486;0,0318423
2795,3127;0,0319167
2796,2771;0,03199
2797,2412;0,0320682
2798,2056;0,032156
2799,1697;0,0322541
2800,1340;0,0323583
2801,0981;0,0324625
2802,0625;0,0325628
2803,0266;0,0326596
2803,9910;0,0327573
2804,9551;0,0328608
2805,9194;0,0329717
2806,8835;0,0330876
2807,8479;0,0332035
2808,8120;0,0333151
2809,7764;0,0334212
2810,7405;0,0335245
2811,7048;0,0336295
2812,6689;0,0337409
2813,6333;0,0338625
2814,5974;0,0339962
2815,5618;0,0341426
2816,5259;0,0343004
2817,4902;0,0344672
2818,4543;0,0346395
2819,4187;0,0348141
2820,3828;0,0349884
2821,3472;0,0351617
2822,3113;0,0353348
2823,2756;0,0355097
2824,2397;0,0356899
2825,2041;0,0358801
2826,1682;0,0360854
2827,1326;0,0363098
2828,0967;0,0365542
2829,0610;0,0368161
2830,0251;0,0370901
2830,9895;0,0373703
2831,9536;0,0376534
2832,9180;0,0379398
2833,8821;0,038233
2834,8464;0,0385377
2835,8105;0,0388577
2836,7749;0,0391959
2837,7390;0,0395546
2838,7034;0,0399378
2839,6675;0,0403522
2840,6318;0,0408071
2841,5959;0,0413126
2842,5603;0,0418766
2843,5244;0,0425012
2844,4888;0,0431781
2845,4529;0,0438851
2846,4172;0,0445853
2847,3813;0,04523
2848,3457;0,0457675
2849,3098;0,0461556
2850,2742;0,0463728
2851,2383;0,0464258
2852,2026;0,0463463
2853,1667;0,0461814
2854,1311;0,0459796
2855,0952;0,0457788
2856,0596;0,0456013
2857,0237;0,0454564
2857,9880;0,0453464
2858,9521;0,0452732
2859,9165;0,0452404
2860,8806;0,0452519
2861,8450;0,0453083
2862,8091;0,0454047
2863,7734;0,0455316
2864,7375;0,0456781
2865,7019;0,0458357
2866,6660;0,045999
2867,6304;0,046165
2868,5945;0,0463302
2869,5588;0,0464886
2870,5229;0,0466332
2871,4873;0,0467583
2872,4514;0,0468626
2873,4158;0,0469497
2874,3799;0,0470263
2875,3442;0,0470997
2876,3083;0,0471755
2877,2727;0,0472571
2878,2368;0,0473466
2879,2012;0,0474451
2880,1653;0,0475523
2881,1296;0,0476659
2882,0938;0,0477823
2883,0581;0,0478991
2884,0222;0,0480166
2884,9866;0,0481385
2885,9507;0,048269
2886,9150;0,0484098
2887,8792;0,0485572
2888,8435;0,0487043
2889,8076;0,0488437
2890,7720;0,0489724
2891,7361;0,0490927
2892,7004;0,0492106
2893,6646;0,0493333
2894,6289;0,0494649
2895,5930;0,0496055
2896,5574;0,0497515
2897,5215;0,0498972
2898,4858;0,0500371
2899,4500;0,0501677
2900,4143;0,0502881
2901,3784;0,0504002
2902,3428;0,0505074
2903,3069;0,0506145
2904,2712;0,0507275
2905,2354;0,050854
2906,1997;0,0510029
2907,1638;0,051184
2908,1282;0,0514056
2909,0923;0,0516727
2910,0566;0,0519866
2911,0208;0,0523435
2911,9851;0,0527334
2912,9492;0,0531387
2913,9136;0,0535328
2914,8777;0,053882
2915,8420;0,0541513
2916,8062;0,0543127
2917,7705;0,0543516
2918,7346;0,0542694
2919,6990;0,054081
2920,6631;0,0538085
2921,6274;0,0534761
2922,5916;0,0531063
2923,5559;0,0527183
2924,5200;0,0523261
2925,4844;0,0519376
2926,4485;0,0515545
2927,4128;0,0511742
2928,3770;0,0507941
2929,3413;0,0504141
2930,3054;0,0500377
2931,2698;0,0496693
2932,2339;0,049312
2933,1982;0,0489662
2934,1624;0,0486305
2935,1267;0,0483038
2936,0908;0,0479853
2937,0552;0,0476735
2938,0193;0,0473652
2938,9836;0,0470562
2939,9478;0,0467431
2940,9121;0,0464253
2941,8762;0,0461051
2942,8406;0,0457853
2943,8047;0,0454677
2944,7690;0,0451518
2945,7332;0,0448373
2946,6975;0,0445261
2947,6616;0,0442232
2948,6260;0,0439338
2949,5901;0,0436607
2950,5544;0,0434018
2951,5186;0,0431514
2952,4829;0,042904
2953,4470;0,042659
2954,4114;0,0424208
2955,3755;0,0421972
2956,3398;0,0419932
2957,3040;0,0418078
2958,2683;0,0416328
2959,2324;0,0414567
2960,1968;0,0412701
2961,1609;0,04107
2962,1252;0,0408595
2963,0894;0,0406451
2964,0537;0,0404323
2965,0178;0,0402231
2965,9822;0,0400161
2966,9463;0,0398089
2967,9106;0,0395989
2968,8748;0,0393837
2969,8391;0,0391605
2970,8032;0,0389272
2971,7676;0,0386843
2972,7317;0,0384377
2973,6960;0,0381985
2974,6602;0,0379782
2975,6245;0,0377832
2976,5886;0,0376116
2977,5530;0,0374543
2978,5171;0,0373014
2979,4814;0,0371481
2980,4456;0,0369966
2981,4099;0,0368532
2982,3740;0,0367231
2983,3384;0,0366073
2984,3025;0,0365037
2985,2668;0,03641
2986,2310;0,0363262
2987,1953;0,0362538
2988,1594;0,0361928
2989,1238;0,0361397
2990,0879;0,0360887
2991,0522;0,0360356
2992,0164;0,0359815
2992,9807;0,0359329
2993,9448;0,0358981
2994,9092;0,0358819
2995,8733;0,0358831
2996,8376;0,0358957
2997,8018;0,0359138
2998,7661;0,0359347
2999,7302;0,0359594
3000,6946;0,0359905
3001,6587;0,0360285
3002,6230;0,0360707
3003,5872;0,0361124
3004,5515;0,0361502
3005,5156;0,0361836
3006,4800;0,0362149
3007,4441;0,0362467
3008,4084;0,0362802
3009,3726;0,0363148
3010,3369;0,0363501
3011,3010;0,0363871
3012,2654;0,0364285
3013,2295;0,036477
3014,1938;0,0365324
3015,1580;0,0365921
3016,1223;0,0366519
3017,0864;0,0367096
3018,0508;0,0367663
3019,0149;0,0368257
3019,9792;0,0368921
3020,9434;0,0369671
3021,9077;0,0370488
3022,8718;0,0371333
3023,8362;0,0372169
3024,8003;0,0372985
3025,7646;0,0373801
3026,7288;0,0374655
3027,6931;0,0375579
3028,6572;0,0376577
3029,6216;0,0377624
3030,5857;0,0378668
3031,5500;0,0379656
3032,5142;0,0380557
3033,4785;0,0381385
3034,4426;0,0382198
3035,4070;0,038308
3036,3711;0,03841
3037,3354;0,0385284
3038,2996;0,0386591
3039,2639;0,0387933
3040,2280;0,0389212
3041,1924;0,0390367
3042,1565;0,0391403
3043,1208;0,039238
3044,0850;0,0393377
3045,0493;0,0394447
3046,0134;0,0395597
3046,9778;0,0396799
3047,9419;0,0398012
3048,9063;0,0399223
3049,8704;0,040045
3050,8347;0,0401726
3051,7988;0,0403075
3052,7632;0,040449
3053,7273;0,0405935
3054,6917;0,0407362
3055,6558;0,0408736
3056,6201;0,0410051
3057,5842;0,0411329
3058,5486;0,0412612
3059,5127;0,0413937
3060,4771;0,0415316
3061,4412;0,0416727
3062,4055;0,0418116
3063,3696;0,0419425
3064,3340;0,0420623
3065,2981;0,0421735
3066,2625;0,0422839
3067,2266;0,0424031
3068,1909;0,0425377
3069,1550;0,0426872
3070,1194;0,0428445
3071,0835;0,0430001
3072,0479;0,0431468
3073,0120;0,0432819
3073,9763;0,0434074
3074,9404;0,0435266
3075,9048;0,043642
3076,8689;0,0437547
3077,8333;0,0438655
3078,7974;0,0439768
3079,7617;0,0440923
3080,7258;0,0442155
3081,6902;0,044348
3082,6543;0,0444881
3083,6187;0,044631
3084,5828;0,0447704
3085,5471;0,0449007
3086,5112;0,0450199
3087,4756;0,0451315
3088,4397;0,0452442
3089,4041;0,0453686
3090,3682;0,0455117
3091,3325;0,0456726
3092,2966;0,0458419
3093,2610;0,0460068
3094,2251;0,0461583
3095,1895;0,0462953
3096,1536;0,0464239
3097,1179;0,0465515
3098,0820;0,0466815
3099,0464;0,046813
3100,0105;0,0469448
3100,9749;0,047079
3101,9390;0,0472209
3102,9033;0,0473741
3103,8674;0,0475353
3104,8318;0,0476946
3105,7959;0,0478419
3106,7603;0,0479751
3107,7244;0,0481032
3108,6887;0,0482408
3109,6528;0,048399
3110,6172;0,0485776
3111,5813;0,0487658
3112,5457;0,0489499
3113,5098;0,0491219
3114,4741;0,0492823
3115,4382;0,0494375
3116,4026;0,0495919
3117,3667;0,0497455
3118,3311;0,0498944
3119,2952;0,0500367
3120,2595;0,0501757
3121,2236;0,0503188
3122,1880;0,0504737
3123,1521;0,050644
3124,1165;0,0508282
3125,0806;0,0510215
3126,0449;0,0512177
3127,0090;0,0514099
3127,9734;0,0515917
3128,9375;0,051758
3129,9019;0,0519082
3130,8660;0,0520489
3131,8303;0,0521923
3132,7944;0,0523516
3133,7588;0,0525336
3134,7229;0,0527351
3135,6873;0,0529447
3136,6514;0,0531497
3137,6157;0,0533424
3138,5798;0,0535227
3139,5442;0,0536955
3140,5083;0,0538656
3141,4727;0,0540352
3142,4368;0,054204
3143,4011;0,054372
3144,3652;0,0545421
3145,3296;0,0547196
3146,2937;0,0549102
3147,2581;0,0551169
3148,2222;0,0553384
3149,1865;0,0555689
3150,1506;0,0558002
3151,1150;0,0560234
3152,0791;0,0562323
3153,0435;0,056425
3154,0076;0,0566051
3154,9719;0,0567807
3155,9360;0,056961
3156,9004;0,0571534
3157,8645;0,05736
3158,8289;0,0575772
3159,7930;0,0577976
3160,7573;0,0580132
3161,7214;0,0582187
3162,6858;0,0584128
3163,6499;0,0585988
3164,6143;0,058782
3165,5784;0,0589681
3166,5427;0,0591608
3167,5068;0,0593615
3168,4712;0,0595695
3169,4353;0,0597332
3170,3997;0,0599533
3171,3638;0,0601772
3172,3281;0,0604003
3173,2922;0,0606162
3174,2566;0,0608196
3175,2207;0,0610105
3176,1851;0,0611959
3177,1492;0,0613874
3178,1135;0,0615943
3179,0776;0,0618165
3180,0420;0,0620439
3181,0061;0,0622616
3181,9705;0,0624604
3182,9346;0,0626424
3183,8989;0,06282
3184,8630;0,0630072
3185,8274;0,0632104
3186,7915;0,0634248
3187,7559;0,0636391
3188,7200;0,0638448
3189,6843;0,0640423
3190,6484;0,0642394
3191,6128;0,064444
3192,5769;0,0646566
3193,5413;0,0648694
3194,5054;0,0650714
3195,4697;0,0652564
3196,4338;0,0654279
3197,3982;0,0655967
3198,3623;0,065774
3199,3267;0,065965
3200,2908;0,0661677
3201,2551;0,066376
3202,2192;0,0665841
3203,1836;0,0667892
3204,1477;0,0669909
3205,1121;0,0671887
3206,0762;0,0673814
3207,0405;0,0675673
3208,0046;0,0677461
3208,9690;0,0679192
3209,9331;0,0680889
3210,8975;0,068258
3211,8616;0,0684298
3212,8259;0,0686084
3213,7900;0,0687982
3214,7544;0,069001
3215,7185;0,0692139
3216,6829;0,0694286
3217,6470;0,0696343
3218,6113;0,0698241
3219,5754;0,0699992
3220,5398;0,0701678
3221,5039;0,0703405
3222,4683;0,0705231
3223,4324;0,0707143
3224,3967;0,0709082
3225,3608;0,0710999
3226,3252;0,0712893
3227,2893;0,0714805
3228,2537;0,0716771
3229,2178;0,0718789
3230,1821;0,0720807
3231,1462;0,0722763
3232,1106;0,0724626
3233,0747;0,0726416
3234,0391;0,0728189
3235,0032;0,0730001
3235,9675;0,0731879
3236,9316;0,073382
3237,8960;0,0735799
3238,8601;0,0737787
3239,8245;0,0739765
3240,7886;0,074172
3241,7529;0,0743645
3242,7170;0,0745534
3243,6814;0,074739
3244,6455;0,0749233
3245,6099;0,0751111
3246,5740;0,0753096
3247,5383;0,0755261
3248,5024;0,0757644
3249,4668;0,0760208
3250,4309;0,076284
3251,3953;0,0765377
3252,3594;0,0767678
3253,3237;0,0769689
3254,2878;0,0771486
3255,2522;0,077323
3256,2163;0,0775099
3257,1807;0,07772
3258,1448;0,0779536
3259,1091;0,0782022
3260,0732;0,0784542
3261,0376;0,0787001
3262,0017;0,0789353
3262,9661;0,0791598
3263,9302;0,0793761
3264,8945;0,0795862
3265,8586;0,0797908
3266,8230;0,0799879
3267,7871;0,0801745
3268,7515;0,0803466
3269,7156;0,0805015
3270,6799;0,0806393
3271,6440;0,0807628
3272,6084;0,0808776
3273,5725;0,0809889
3274,5369;0,0810994
3275,5010;0,081208
3276,4653;0,0813114
3277,4294;0,0814063
3278,3938;0,081493
3279,3579;0,0815748
3280,3223;0,0816555
3281,2864;0,0817358
3282,2507;0,0818122
3283,2148;0,0818794
3284,1792;0,0819349
3285,1433;0,0819821
3286,1077;0,0820289
3287,0718;0,0820821
3288,0361;0,0821427
3289,0002;0,0822041
3289,9646;0,0822565
3290,9287;0,082293
3291,8931;0,0823129
3292,8572;0,0823204
3293,8215;0,0823199
3294,7856;0,0823128
3295,7500;0,0822984
3296,7141;0,0822778
3297,6785;0,0822564
3298,6426;0,0822431
3299,6069;0,0822444
3300,5710;0,0822597
3301,5354;0,0822812
3302,4995;0,0822977
3303,4639;0,0823005
3304,4280;0,0822872
3305,3923;0,0822614
3306,3564;0,0822298
3307,3208;0,0821987
3308,2849;0,0821729
3309,2493;0,0821549
3310,2134;0,0821462
3311,1777;0,0821467
3312,1418;0,0821561
3313,1062;0,0821746
3314,0703;0,0822039
3315,0347;0,0822483
3315,9988;0,0823124
3316,9631;0,0823982
3317,9272;0,0825027
3318,8916;0,0826174
3319,8557;0,0827323
3320,8201;0,0828409
3321,7842;0,082943
3322,7485;0,0830444
3323,7126;0,083152
3324,6770;0,083268
3325,6411;0,0833885
3326,6055;0,0835057
3327,5696;0,0836136
3328,5339;0,0837122
3329,4980;0,0838061
3330,4624;0,0838991
3331,4265;0,0839889
3332,3909;0,0840657
3333,3550;0,0841159
3334,3193;0,0841291
3335,2834;0,0841037
3336,2478;0,0840464
3337,2119;0,0839674
3338,1763;0,0838747
3339,1404;0,0837704
3340,1047;0,0836529
3341,0688;0,0835201
3342,0332;0,0833726
3342,9973;0,0832142
3343,9617;0,0830498
3344,9258;0,0828828
3345,8901;0,0827133
3346,8542;0,082538
3347,8186;0,0823518
3348,7827;0,0821506
3349,7471;0,0819344
3350,7112;0,0817088
3351,6755;0,0814843
3352,6396;0,0812719
3353,6040;0,0810775
3354,5681;0,0808984
3355,5325;0,080724
3356,4966;0,0805421
3357,4609;0,0803461
3358,4250;0,0801393
3359,3894;0,0799328
3360,3535;0,0797393
3361,3179;0,0795656
3362,2820;0,079409
3363,2463;0,0792589
3364,2104;0,0791019
3365,1748;0,0789272
3366,1389;0,0787302
3367,1033;0,078512
3368,0674;0,0782784
3369,0317;0,0780375
3369,9958;0,0777985
3370,9602;0,0775709
3371,9243;0,0773625
3372,8887;0,0771769
3373,8528;0,0770115
3374,8171;0,0768581
3375,7813;0,0767058
3376,7456;0,076546
3377,7097;0,0763752
3378,6741;0,0761953
3379,6382;0,0760092
3380,6025;0,0758178
3381,5667;0,0756189
3382,5310;0,0754114
3383,4951;0,0752
3384,4595;0,0749975
3385,4236;0,0748195
3386,3879;0,0746761
3387,3521;0,0745638
3388,3164;0,0744659
3389,2805;0,0743599
3390,2449;0,0742279
3391,2090;0,0740641
3392,1733;0,0738765
3393,1375;0,0736802
3394,1018;0,0734899
3395,0659;0,0733143
3396,0303;0,0731545
3396,9944;0,0730061
3397,9587;0,0728612
3398,9229;0,0727107
3399,8872;0,072546
3400,8513;0,0723622
3401,8157;0,0721598
3402,7798;0,0719436
3403,7441;0,07172
3404,7083;0,071494
3405,6726;0,0712686
3406,6367;0,0710467
3407,6011;0,0708328
3408,5652;0,0706318
3409,5295;0,0704436
3410,4937;0,0702605
3411,4580;0,0700693
3412,4221;0,0698584
3413,3865;0,0696264
3414,3506;0,0693829
3415,3149;0,0691415
3416,2791;0,0689094
3417,2434;0,0686804
3418,2075;0,068438
3419,1719;0,0681661
3420,1360;0,0678619
3421,1003;0,0675408
3422,0645;0,0672299
3423,0288;0,0669539
3423,9929;0,0667232
3424,9573;0,0665298
3425,9214;0,0663528
3426,8857;0,0661678
3427,8499;0,0659571
3428,8142;0,065716
3429,7783;0,0654523
3430,7427;0,0651802
3431,7068;0,0649116
3432,6711;0,0646513
3433,6353;0,0643969
3434,5996;0,0641433
3435,5637;0,0638868
3436,5281;0,0636271
3437,4922;0,0633662
3438,4565;0,0631069
3439,4207;0,0628526
3440,3850;0,0626075
3441,3491;0,0623748
3442,3135;0,062152
3443,2776;0,0619283
3444,2419;0,0616865
3445,2061;0,0614122
3446,1704;0,0611036
3447,1345;0,0607766
3448,0989;0,0604568
3449,0630;0,0601642
3450,0273;0,0599029
3450,9915;0,0596619
3451,9558;0,0594261
3452,9199;0,0591864
3453,8843;0,0589435
3454,8484;0,0587032
3455,8127;0,0584688
3456,7769;0,0582363
3457,7412;0,0579966
3458,7053;0,0577414
3459,6697;0,0574692
3460,6338;0,0571861
3461,5981;0,0569031
3462,5623;0,05663
3463,5266;0,0563717
3464,4907;0,0561265
3465,4551;0,0558885
3466,4192;0,0556504
3467,3835;0,0554067
3468,3477;0,0551554
3469,3120;0,0548962
3470,2761;0,054629
3471,2405;0,0543539
3472,2046;0,0540733
3473,1689;0,0537955
3474,1331;0,0535348
3475,0974;0,0533056
3476,0615;0,053111
3477,0259;0,052937
3477,9900;0,0527543
3478,9543;0,0525327
3479,9185;0,0522572
3480,8828;0,05194
3481,8469;0,0516153
3482,8113;0,0513194
3483,7754;0,0510681
3484,7397;0,0508491
3485,7039;0,0506325
3486,6682;0,0503902
3487,6323;0,0501134
3488,5967;0,0498159
3489,5608;0,0495248
3490,5251;0,0492616
3491,4893;0,04903
3492,4536;0,0488164
3493,4177;0,0486014
3494,3821;0,0483756
3495,3462;0,0481476
3496,3105;0,0479396
3497,2747;0,0477692
3498,2390;0,0476322
3499,2031;0,0474982
3500,1675;0,0473226
3501,1316;0,047072
3502,0959;0,0467477
3503,0601;0,0463925
3504,0244;0,0460664
3504,9885;0,0458069
3505,9529;0,045608
3506,9170;0,0454292
3507,8813;0,0452237
3508,8455;0,044965
3509,8098;0,044661
3510,7739;0,0443457
3511,7383;0,0440554
3512,7024;0,0438074
3513,6667;0,0435959
3514,6309;0,0434034
3515,5952;0,0432148
3516,5593;0,0430254
3517,5237;0,0428407
3518,4878;0,0426698
3519,4521;0,0425182
3520,4163;0,0423837
3521,3806;0,0422555
3522,3447;0,042117
3523,3091;0,0419487
3524,2732;0,0417332
3525,2375;0,0414594
3526,2017;0,0411275
3527,1660;0,0407532
3528,1301;0,0403694
3529,0945;0,0400175
3530,0586;0,0397321
3531,0229;0,0395247
3531,9871;0,0393793
3532,9514;0,0392594
3533,9155;0,0391222
3534,8799;0,0389344
3535,8440;0,0386869
3536,8083;0,0384019
3537,7725;0,0381246
3538,7368;0,0379033
3539,7009;0,0377665
3540,6653;0,0377111
3541,6294;0,0377003
3542,5938;0,0376705
3543,5579;0,0375505
3544,5222;0,0372954
3545,4863;0,0369209
3546,4507;0,0365009
3547,4148;0,03612
3548,3792;0,0358213
3549,3433;0,035592
3550,3076;0,0353852
3551,2717;0,035156
3552,2361;0,0348906
3553,2002;0,034614
3554,1646;0,0343672
3555,1287;0,0341732
3556,0930;0,0340202
3557,0571;0,0338745
3558,0215;0,0337091
3558,9856;0,033529
3559,9500;0,0333749
3560,9141;0,0332982
3561,8784;0,0333217
3562,8425;0,0334131
3563,8069;0,0334794
3564,7710;0,0333866
3565,7354;0,0330207
3566,6995;0,0323949
3567,6638;0,0316884
3568,6279;0,0311139
3569,5923;0,0307592
3570,5564;0,0305814
3571,5208;0,0304887
3572,4849;0,0304056
3573,4492;0,0302956
3574,4133;0,0301579
3575,3777;0,0300082
3576,3418;0,0298579
3577,3062;0,0297049
3578,2703;0,0295444
3579,2346;0,029387
3580,1987;0,0292656
3581,1631;0,0292192
3582,1272;0,0292653
3583,0916;0,029378
3584,0557;0,0294836
3585,0200;0,0294737
3585,9841;0,0292543
3586,9485;0,0288348
3587,9126;0,0283711
3588,8770;0,0280553
3589,8411;0,0279645
3590,8054;0,028039
3591,7695;0,0281552
3592,7339;0,0281954
3593,6980;0,0280943
3594,6624;0,027864
3595,6265;0,0275767
3596,5908;0,0273021
3597,5549;0,0270568
3598,5193;0,0268124
3599,4834;0,0265441
3600,4478;0,0262714
3601,4119;0,0260507
3602,3762;0,0259265
3603,3403;0,0258912
3604,3047;0,0258825
3605,2688;0,0258111
3606,2332;0,025598
3607,1973;0,0252158
3608,1616;0,0247119
3609,1257;0,0241846
3610,0901;0,023727
3611,0542;0,0233911
3612,0186;0,0231921
3612,9827;0,0231218
3613,9470;0,0231499
3614,9111;0,0232203
3615,8755;0,0232568
3616,8396;0,0231858
3617,8040;0,0229745
3618,7681;0,0226722
3619,7324;0,0224091
3620,6965;0,0223188
3621,6609;0,0224481
3622,6250;0,0227461
3623,5894;0,0231134
3624,5535;0,0234393
3625,5178;0,0236044
3626,4819;0,0234752
3627,4463;0,0229571
3628,4104;0,0221367
3629,3748;0,0213212
3630,3389;0,0207817
3631,3032;0,0205362
3632,2673;0,0204372
3633,2317;0,0203375
3634,1958;0,0201648
3635,1602;0,0199226
3636,1243;0,0196567
3637,0886;0,01941
3638,0527;0,0191951
3639,0171;0,0190015
3639,9812;0,0188226
3640,9456;0,0186753
3641,9097;0,0185944
3642,8740;0,0186049
3643,8381;0,018696
3644,8025;0,018805
3645,7666;0,0188049
3646,7310;0,0185033
3647,6951;0,0177335
3648,6594;0,0166167
3649,6235;0,0156453
3650,5879;0,0152073
3651,5520;0,0152554
3652,5164;0,0155244
3653,4805;0,0157768
3654,4448;0,0158771
3655,4089;0,0158003
3656,3733;0,0156227
3657,3374;0,015465
3658,3018;0,0154
3659,2659;0,0154112
3660,2302;0,0154365
3661,1943;0,0154346
3662,1587;0,015416
3663,1228;0,0154252
3664,0872;0,0154908
3665,0513;0,0155884
3666,0156;0,0156406
3666,9797;0,0155508
3667,9441;0,0152642
3668,9082;0,0148427
3669,8726;0,0144703
3670,8367;0,014314
3671,8010;0,0143841
3672,7651;0,0145548
3673,7295;0,0146659
3674,6936;0,0146125
3675,6580;0,0144199
3676,6221;0,0142312
3677,5864;0,0141668
3678,5505;0,0142315
3679,5149;0,0143674
3680,4790;0,0145317
3681,4434;0,0147183
3682,4075;0,0149385
3683,3718;0,0151898
3684,3359;0,0154387
3685,3003;0,0156236
3686,2644;0,0156725
3687,2288;0,0155343
3688,1929;0,0152335
3689,1572;0,0149133
3690,1213;0,0147627
3691,0857;0,0148613
3692,0498;0,0151485
3693,0142;0,0155192
3693,9783;0,0158974
3694,9426;0,0162465
3695,9067;0,0165501
3696,8711;0,0167921
3697,8352;0,0169478
3698,7996;0,0169887
3699,7637;0,0169026
3700,7280;0,0167186
3701,6921;0,016515
3702,6565;0,0163859
3703,6206;0,0163847
3704,5850;0,0164967
3705,5491;0,0166574
3706,5134;0,0167809
3707,4775;0,0167718
3708,4419;0,0165312
3709,4060;0,0159951
3710,3704;0,0152265
3711,3345;0,0144647
3712,2988;0,0139798
3713,2629;0,0138746
3714,2273;0,0140793
3715,1914;0,014469
3716,1558;0,0149413
3717,1199;0,015433
3718,0842;0,0159117
3719,0483;0,0163635
3720,0127;0,0167827
3720,9768;0,017162
3721,9412;0,0174839
3722,9053;0,0177216
3723,8696;0,0178508
3724,8337;0,0178707
3725,7981;0,017813
3726,7622;0,0177277
3727,7266;0,0176561
3728,6907;0,0176189
3729,6550;0,0176218
3730,6191;0,01766
3731,5835;0,0177083
3732,5476;0,0176934
3733,5120;0,0174875
3734,4761;0,016993
3735,4404;0,0162894
3736,4045;0,0156243
3737,3689;0,0152093
3738,3330;0,0150877
3739,2974;0,0151714
3740,2615;0,0153193
3741,2258;0,0153803
3742,1899;0,0152209
3743,1543;0,0147911
3744,1184;0,0142156
3745,0828;0,0137498
3746,0469;0,0135483
3747,0112;0,0135413
3747,9753;0,0135291
3748,9397;0,0133197
3749,9038;0,0128562
3750,8682;0,0123196
3751,8323;0,0120179
3752,7966;0,012089
3753,7607;0,0124257
3754,7251;0,0128352
3755,6892;0,0131587
3756,6536;0,0133044
3757,6177;0,013261
3758,5820;0,0131049
3759,5461;0,0129621
3760,5105;0,0129258
3761,4746;0,0130077
3762,4390;0,0131593
3763,4031;0,013317
3764,3674;0,0134311
3765,3315;0,0134732
3766,2959;0,0134316
3767,2600;0,0133063
3768,2244;0,0131114
3769,1885;0,0128866
3770,1528;0,0127007
3771,1169;0,0126261
3772,0813;0,0126982
3773,0454;0,0128943
3774,0098;0,013147
3774,9739;0,0133723
3775,9382;0,0134951
3776,9023;0,0134738
3777,8667;0,0133255
3778,8308;0,0131289
3779,7952;0,0129803
3780,7593;0,0129309
3781,7236;0,0129659
3782,6877;0,0130348
3783,6521;0,0130898
3784,6162;0,0131078
3785,5806;0,013094
3786,5447;0,013071
3787,5090;0,013066
3788,4731;0,0130991
3789,4375;0,0131767
3790,4016;0,0132894
3791,3660;0,0134124
3792,3301;0,0135143
3793,2944;0,0135701
3794,2585;0,0135747
3795,2229;0,0135445
3796,1870;0,0134986
3797,1514;0,013431
3798,1155;0,013302
3799,0798;0,0130673
3800,0439;0,0127384
3801,0083;0,0124213
3801,9724;0,0122587
3802,9368;0,0123053
3803,9009;0,0124817
3804,8652;0,0126467
3805,8293;0,0126977
3806,7937;0,0126396
3807,7578;0,0125834
3808,7222;0,0126523
3809,6863;0,0128771
3810,6506;0,0131859
3811,6147;0,0134639
3812,5791;0,0136088
3813,5432;0,0135718
3814,5076;0,0133891
3815,4717;0,0131756
3816,4360;0,0130392
3817,4001;0,0129864
3818,3645;0,0129275
3819,3286;0,0127725
3820,2930;0,0125318
3821,2571;0,0123312
3822,2214;0,012303
3823,1855;0,0124694
3824,1499;0,012748
3825,1140;0,0130318
3826,0784;0,013246
3827,0425;0,0133634
3828,0068;0,0133954
3828,9709;0,0133721
3829,9353;0,0133232
3830,8994;0,01327
3831,8638;0,0132273
3832,8279;0,0132055
3833,7922;0,0132062
3834,7563;0,0132178
3835,7207;0,0132178
3836,6848;0,0131881
3837,6492;0,0131336
3838,6133;0,0130838
3839,5776;0,0130657
3840,5417;0,0130751
3841,5061;0,0130834
3842,4702;0,013069
3843,4346;0,0130434
3844,3987;0,013052
3845,3630;0,013149
3846,3271;0,0133645
3847,2915;0,0136881
3848,2556;0,0140691
3849,2200;0,0144191
3850,1841;0,0146027
3851,1484;0,014438
3852,1125;0,0138008
3853,0769;0,0128788
3854,0410;0,0121744
3855,0054;0,0119983
3855,9695;0,0122585
3856,9338;0,0127274
3857,8979;0,0132322
3858,8623;0,0136704
3859,8264;0,0139788
3860,7908;0,0141179
3861,7549;0,0140835
3862,7192;0,0139308
3863,6833;0,0137654
3864,6477;0,0136827
3865,6118;0,0137091
3866,5762;0,0138022
3867,5403;0,0138906
3868,5046;0,0139098
3869,4688;0,0138265
3870,4331;0,0136525
3871,3972;0,0134416
3872,3616;0,0132662
3873,3257;0,0131867
3874,2900;0,013231
3875,2542;0,013389
3876,2185;0,0136195
3877,1826;0,0138631
3878,1470;0,0140612
3879,1111;0,0141778
3880,0754;0,0142133
3881,0396;0,0141928
3882,0039;0,0141326
3882,9680;0,0140249
3883,9324;0,0138633
3884,8965;0,0136827
3885,8608;0,0135584
3886,8250;0,0135519
3887,7893;0,0136566
3888,7534;0,0137956
3889,7178;0,0138691
3890,6819;0,0138215
3891,6462;0,0136936
3892,6104;0,0136041
3893,5747;0,0136524
3894,5388;0,0138482
3895,5032;0,0141291
3896,4673;0,0144122
3897,4316;0,0146313
3898,3958;0,0147526
3899,3601;0,0147741
3900,3242;0,0147078
3901,2886;0,014557
3902,2527;0,0143199
3903,2170;0,0140209
3904,1812;0,0137265
3905,1455;0,0135113
3906,1096;0,0134104
3907,0740;0,0134085
3908,0381;0,0134654
3909,0024;0,0135469
3909,9666;0,0136412
3910,9309;0,0137575
3911,8950;0,0139095
3912,8594;0,0140949
3913,8235;0,0142823
3914,7878;0,0144162
3915,7520;0,0144434
3916,7163;0,0143511
3917,6804;0,0141895
3918,6448;0,0140465
3919,6089;0,0139882
3920,5732;0,0140194
3921,5374;0,0140909
3922,5017;0,0141359
3923,4658;0,0141138
3924,4302;0,0140391
3925,3943;0,0139728
3926,3586;0,0139781
3927,3228;0,0140767
3928,2871;0,0142358
3929,2512;0,0143843
3930,2156;0,0144451
3931,1797;0,0143757
3932,1440;0,0141959
3933,1082;0,0139771
3934,0725;0,0137974
3935,0366;0,013705
3936,0010;0,0137104
3936,9651;0,013797
3937,9294;0,0139341
3938,8936;0,0140848
3939,8579;0,0142138
3940,8220;0,0142983
3941,7864;0,0143379
3942,7505;0,0143551
3943,7148;0,0143792
3944,6790;0,0144222
3945,6433;0,014467
3946,6074;0,0144751
3947,5718;0,0144107
3948,5359;0,014268
3949,5002;0,0140834
3950,4644;0,0139177
3951,4287;0,0138199
3952,3928;0,0138025
3953,3572;0,0138441
3954,3213;0,0139094
3955,2856;0,0139703
3956,2498;0,0140169
3957,2141;0,0140527
3958,1782;0,0140821
3959,1426;0,0141013
3960,1067;0,0140984
3961,0710;0,0140644
3962,0352;0,0140036
3962,9995;0,0139354
3963,9636;0,0138835
3964,9280;0,0138631
3965,8921;0,0138738
3966,8564;0,0139026
3967,8206;0,0139332
3968,7849;0,0139561
3969,7490;0,0139719
3970,7134;0,0139862
3971,6775;0,0140026
3972,6418;0,0140173
3973,6060;0,0140211
3974,5703;0,0140068
3975,5344;0,0139751
3976,4988;0,0139349
3977,4629;0,013898
3978,4272;0,013872
3979,3914;0,0138567
3980,3557;0,0138463
3981,3198;0,0138349
3982,2842;0,0138219
3983,2483;0,0138122
3984,2126;0,0138134
3985,1768;0,0138296
3986,1411;0,0138582
3987,1052;0,013891
3988,0696;0,0139182
3989,0337;0,0139339
3989,9980;0,0139382
3990,9622;0,013936
3991,9265;0,0139323
3992,8906;0,0139276
3993,8550;0,0139179
3994,8191;0,0138986
3995,7834;0,0138693
3996,7476;0,0138365
3997,7119;0,013812
3998,6760;0,0138064
3999,6404;0,0138238
4000,6045;0,0138627

##### Extended Information
[Comments]
Sample name
Comment
Username
Division
Organization;UNIVERSIDAD INDUSTRIAL DE SANTANDER

[Detailed Information]
Creation date;14/03/2025 9:22 a.m.

Data array type;Linear data array
Horizontal axis;Wavenumber [cm-1]
Vertical axis;Abs
Start;399,193 cm-1
End;4000,6 cm-1
Data interval;0,964233 cm-1
Data points;3736    

[Measurement Information]
Model name;FT/IR-4X1typeA
Serial No.;A035162111

Accessory;ATR PRO 4X
Accessory S/N;A021162126
Incident angle;45 deg

Measurement date;14/03/2025 9:21 a.m.

Light source;Standard
Detector;TGS
Accumulation;40
Resolution;4 cm-1
Zero filling;On
Apodization;Cosine
Gain;Auto (8)
Aperture;Auto (7 mm)
Scan speed;Auto (2 mm/sec)
Filter;Auto (12800 Hz)

