TITLE;
DATA TYPE;INFRARED SPECTRUM
ORIGIN;JASCO
OWNER;
DATE;25/03/14
TIME;09:25:12
SPECTROMETER/DATA SYSTEM;
LOCALE;9226
RESOLUTION;
DELTAX;0,964233
XUNITS;1/CM
YUNITS;ABSORBANCE
FIRSTX;  399,1927
LASTX; 4000,6047
NPOINTS;    3736
FIRSTY;     0,20955
MAXY;     0,28703
MINY;     0,01221
XYDATA
399,1927;0,209546
400,1569;0,208616
401,1211;0,208382
402,0854;0,20862
403,0496;0,208934
404,0138;0,208959
404,9781;0,208511
405,9423;0,207665
406,9065;0,206696
407,8708;0,205906
408,8350;0,205466
409,7992;0,205409
410,7635;0,205731
411,7277;0,206472
412,6919;0,207675
413,6562;0,209292
414,6204;0,211121
415,5846;0,212806
416,5489;0,213876
417,5131;0,213913
418,4773;0,212994
419,4416;0,212019
420,4058;0,212015
421,3700;0,21315
422,3343;0,21482
423,2985;0,216265
424,2627;0,216924
425,2270;0,216609
426,1912;0,215556
427,1554;0,214289
428,1197;0,213328
429,0839;0,212939
430,0481;0,213057
431,0124;0,213383
431,9766;0,213556
432,9408;0,213334
433,9051;0,212695
434,8693;0,211822
435,8335;0,210989
436,7978;0,210424
437,7620;0,210206
438,7262;0,21027
439,6905;0,210478
440,6547;0,210681
441,6189;0,210762
442,5832;0,210636
443,5474;0,210259
444,5116;0,209639
445,4759;0,208839
446,4401;0,207965
447,4043;0,207132
448,3686;0,206445
449,3328;0,205978
450,2970;0,205761
451,2613;0,205773
452,2255;0,205931
453,1897;0,206108
454,1540;0,206155
455,1182;0,205947
456,0824;0,205441
457,0467;0,204731
458,0109;0,204035
458,9751;0,203566
459,9394;0,203362
460,9036;0,203261
461,8678;0,203034
462,8321;0,202531
463,7963;0,201769
464,7605;0,200944
465,7248;0,200341
466,6890;0,200172
467,6532;0,200449
468,6175;0,200968
469,5817;0,201418
470,5459;0,201516
471,5102;0,201146
472,4744;0,200433
473,4386;0,199673
474,4029;0,19916
475,3671;0,199037
476,3313;0,199296
477,2956;0,199842
478,2598;0,200543
479,2240;0,201255
480,1883;0,201835
481,1525;0,202172
482,1167;0,202241
483,0810;0,202126
484,0452;0,202002
485,0094;0,202048
485,9737;0,202348
486,9379;0,202851
487,9021;0,203422
488,8664;0,203922
489,8306;0,204269
490,7948;0,20445
491,7591;0,204508
492,7233;0,204521
493,6875;0,204581
494,6518;0,204786
495,6160;0,205218
496,5802;0,205913
497,5445;0,206834
498,5087;0,207857
499,4729;0,208792
500,4372;0,209447
501,4014;0,20971
502,3656;0,209611
503,3299;0,209306
504,2941;0,208994
505,2583;0,208832
506,2226;0,208897
507,1868;0,209206
508,1510;0,209732
509,1153;0,210422
510,0795;0,211201
511,0437;0,211989
512,0080;0,212723
512,9722;0,213385
513,9365;0,214
514,9007;0,21461
515,8649;0,215229
516,8292;0,215813
517,7934;0,216272
518,7576;0,21654
519,7219;0,216641
520,6861;0,216685
521,6503;0,216798
522,6146;0,217053
523,5788;0,217435
524,5430;0,217855
525,5073;0,218201
526,4715;0,218397
527,4357;0,218438
528,4000;0,218364
529,3642;0,218207
530,3284;0,217968
531,2927;0,217634
532,2569;0,217216
533,2211;0,216762
534,1854;0,216345
535,1496;0,216013
536,1138;0,215762
537,0781;0,215549
538,0423;0,215337
539,0065;0,215133
539,9708;0,214992
540,9350;0,214974
541,8992;0,215089
542,8635;0,215286
543,8277;0,215481
544,7919;0,215612
545,7562;0,215692
546,7204;0,215802
547,6846;0,216041
548,6489;0,216458
549,6131;0,217027
550,5773;0,217667
551,5416;0,218295
552,5058;0,218871
553,4700;0,219395
554,4343;0,219885
555,3985;0,220341
556,3627;0,220731
557,3270;0,220997
558,2912;0,221074
559,2554;0,220909
560,2197;0,22047
561,1839;0,21976
562,1481;0,218817
563,1124;0,217724
564,0766;0,21659
565,0408;0,215528
566,0051;0,214626
566,9693;0,213928
567,9335;0,213423
568,8978;0,213056
569,8620;0,212747
570,8262;0,212429
571,7905;0,212072
572,7547;0,211691
573,7189;0,211341
574,6832;0,211085
575,6474;0,210961
576,6116;0,21096
577,5759;0,211028
578,5401;0,211093
579,5043;0,211105
580,4686;0,211048
581,4328;0,210935
582,3970;0,210781
583,3613;0,210594
584,3255;0,210374
585,2897;0,210128
586,2540;0,209881
587,2182;0,209673
588,1824;0,20954
589,1467;0,209499
590,1109;0,209529
591,0751;0,209582
592,0394;0,209589
593,0036;0,209492
593,9678;0,209259
594,9321;0,208888
595,8963;0,208406
596,8605;0,207849
597,8248;0,20726
598,7890;0,206672
599,7532;0,206104
600,7175;0,205559
601,6817;0,205029
602,6459;0,204502
603,6102;0,203977
604,5744;0,20346
605,5386;0,202956
606,5029;0,20246
607,4671;0,201944
608,4313;0,201369
609,3956;0,200709
610,3598;0,199974
611,3240;0,199224
612,2883;0,198546
613,2525;0,198007
614,2167;0,197609
615,1810;0,197265
616,1452;0,196817
617,1094;0,196104
618,0737;0,195048
619,0379;0,193699
620,0021;0,192198
620,9664;0,1907
621,9306;0,18931
622,8948;0,188061
623,8591;0,186938
624,8233;0,185867
625,7875;0,184908
626,7518;0,184063
627,7160;0,183341
628,6802;0,182734
629,6445;0,18221
630,6087;0,181713
631,5729;0,181185
632,5372;0,180591
633,5014;0,179935
634,4656;0,179263
635,4299;0,178643
636,3941;0,17813
637,3583;0,177739
638,3226;0,177434
639,2868;0,177153
640,2510;0,17683
641,2153;0,176432
642,1795;0,175967
643,1437;0,175484
644,1080;0,175038
645,0722;0,174662
646,0364;0,174352
647,0007;0,174077
647,9649;0,173799
648,9291;0,17351
649,8934;0,173239
650,8576;0,173034
651,8218;0,172938
652,7861;0,172957
653,7503;0,173066
654,7145;0,173211
655,6788;0,173334
656,6430;0,173394
657,6072;0,173384
658,5715;0,173331
659,5357;0,173277
660,4999;0,173227
661,4642;0,173106
662,4284;0,172749
663,3926;0,171956
664,3569;0,170596
665,3211;0,16876
666,2853;0,166864
667,2496;0,1655
668,2138;0,164902
669,1780;0,164749
670,1423;0,164749
671,1065;0,164691
672,0707;0,164252
673,0350;0,16321
673,9992;0,161597
674,9634;0,15965
675,9277;0,15766
676,8919;0,155821
677,8561;0,154169
678,8204;0,15265
679,7846;0,151213
680,7488;0,149861
681,7131;0,148634
682,6773;0,147559
683,6415;0,146633
684,6058;0,145827
685,5700;0,145114
686,5342;0,144475
687,4985;0,143894
688,4627;0,143366
689,4269;0,142879
690,3912;0,142427
691,3554;0,142006
692,3196;0,141608
693,2839;0,14121
694,2481;0,14079
695,2123;0,140335
696,1766;0,139851
697,1408;0,139356
698,1050;0,138869
699,0693;0,138398
700,0335;0,13794
700,9977;0,137487
701,9620;0,137033
702,9262;0,136572
703,8904;0,136082
704,8547;0,135564
705,8189;0,135016
706,7831;0,134442
707,7474;0,133849
708,7116;0,133243
709,6758;0,132629
710,6401;0,132004
711,6043;0,131358
712,5685;0,130681
713,5328;0,129975
714,4970;0,129266
715,4612;0,127762
716,4255;0,12733
717,3897;0,12703
718,3539;0,126753
719,3182;0,126327
720,2824;0,125599
721,2466;0,124526
722,2109;0,123209
723,1751;0,121831
724,1393;0,120568
725,1036;0,11951
726,0678;0,118651
727,0320;0,117915
727,9963;0,11721
728,9605;0,116471
729,9247;0,115686
730,8890;0,114883
731,8532;0,114109
732,8174;0,113398
733,7817;0,112762
734,7459;0,112186
735,7101;0,111642
736,6744;0,111108
737,6386;0,110572
738,6028;0,110034
739,5671;0,109496
740,5313;0,108961
741,4955;0,108429
742,4598;0,107905
743,4240;0,107396
744,3882;0,10691
745,3525;0,106439
746,3167;0,105962
747,2809;0,105454
748,2452;0,104901
749,2094;0,104308
750,1736;0,103701
751,1379;0,103109
752,1021;0,10255
753,0663;0,102022
754,0306;0,101514
754,9948;0,101013
755,9590;0,100516
756,9233;0,100029
757,8875;0,0995533
758,8517;0,0990873
759,8160;0,0986241
760,7802;0,0981592
761,7444;0,0976955
762,7087;0,0972432
763,6729;0,0968147
764,6371;0,0964172
765,6014;0,0960494
766,5656;0,0957005
767,5298;0,0953543
768,4941;0,0949947
769,4583;0,0946136
770,4225;0,0942171
771,3868;0,0938265
772,3510;0,0934702
773,3152;0,0931687
774,2795;0,0929213
775,2437;0,0927041
776,2079;0,0924813
777,1722;0,0922248
778,1364;0,0919275
779,1006;0,0916012
780,0649;0,0912623
781,0291;0,0909158
781,9933;0,0905523
782,9576;0,090159
783,9218;0,089737
784,8860;0,0893089
785,8503;0,0889102
786,8145;0,0885696
787,7787;0,0882916
788,7430;0,0880548
789,7072;0,0878264
790,6714;0,0875831
791,6357;0,0873253
792,5999;0,0870749
793,5641;0,0868595
794,5284;0,0866932
795,4926;0,0865663
796,4568;0,0864495
797,4211;0,0863106
798,3853;0,0861325
799,3495;0,0859231
800,3138;0,0857102
801,2780;0,0855253
802,2422;0,0853861
803,2065;0,0852865
804,1707;0,085202
805,1349;0,0851051
806,0992;0,0849816
807,0634;0,0848382
808,0276;0,0846969
808,9919;0,0845796
809,9561;0,0844945
810,9203;0,0844307
811,8846;0,0843662
812,8488;0,0842815
813,8130;0,0841715
814,7773;0,0840463
815,7415;0,0839228
816,7057;0,0838113
817,6700;0,0837088
818,6342;0,0836025
819,5984;0,0834806
820,5627;0,0833428
821,5269;0,0832023
822,4911;0,0830775
823,4554;0,0829796
824,4196;0,0829059
825,3839;0,0828423
826,3481;0,0827733
827,3123;0,0826906
828,2766;0,0825946
829,2408;0,0824887
830,2050;0,0823717
831,1693;0,0822355
832,1335;0,0820698
833,0977;0,0818679
834,0620;0,0816311
835,0262;0,0813655
835,9904;0,0810782
836,9547;0,0807748
837,9189;0,0804607
838,8831;0,0801442
839,8474;0,079837
840,8116;0,079551
841,7758;0,0792933
842,7401;0,079064
843,7043;0,0788577
844,6685;0,0786677
845,6328;0,0784883
846,5970;0,0783157
847,5612;0,0781486
848,5255;0,0779899
849,4897;0,0778485
850,4539;0,0777379
851,4182;0,0776691
852,3824;0,0776413
853,3466;0,0776368
854,3109;0,0776256
855,2751;0,0775796
856,2393;0,0774867
857,2036;0,0773576
858,1678;0,0772197
859,1320;0,0771035
860,0963;0,0770294
861,0605;0,0770024
862,0247;0,0770165
862,9890;0,0770625
863,9532;0,0771348
864,9174;0,0772329
865,8817;0,0773596
866,8459;0,0775184
867,8101;0,0777117
868,7744;0,0779401
869,7386;0,0782008
870,7028;0,0784846
871,6671;0,0787752
872,6313;0,0790506
873,5955;0,0792895
874,5598;0,0794807
875,5240;0,0796295
876,4882;0,0797591
877,4525;0,0799027
878,4167;0,0800927
879,3809;0,0803501
880,3452;0,0806817
881,3094;0,0810848
882,2736;0,0815556
883,2379;0,0820959
884,2021;0,0827124
885,1663;0,0834105
886,1306;0,0841886
887,0948;0,0850373
888,0590;0,0859444
889,0233;0,0869006
889,9875;0,0879
890,9517;0,0889323
891,9160;0,0899716
892,8802;0,0909701
893,8444;0,0918631
894,8087;0,0925854
895,7729;0,0930886
896,7371;0,0933522
897,7014;0,0933817
898,6656;0,0931972
899,6298;0,0928213
900,5941;0,0922724
901,5583;0,0915682
902,5225;0,0907328
903,4868;0,0898038
904,4510;0,0888333
905,4152;0,0878815
906,3795;0,0870071
907,3437;0,0862557
908,3079;0,0856519
909,2722;0,0851962
910,2364;0,0848689
911,2007;0,0846408
912,1649;0,0844841
913,1292;0,0843822
914,0934;0,0843321
915,0576;0,0843401
916,0219;0,0844144
916,9861;0,0845575
917,9503;0,0847636
918,9146;0,0850186
919,8788;0,0853033
920,8430;0,085597
921,8073;0,0858806
922,7715;0,086141
923,7357;0,0863742
924,7000;0,0865859
925,6642;0,0867886
926,6284;0,0869964
927,5927;0,0872189
928,5569;0,0874594
929,5211;0,0877159
930,4854;0,0879846
931,4496;0,088263
932,4138;0,088551
933,3781;0,0888505
934,3423;0,0891661
935,3065;0,0895061
936,2708;0,089883
937,2350;0,090312
938,1992;0,090808
939,1635;0,091381
940,1277;0,0920345
941,0919;0,0927664
942,0562;0,0935724
943,0204;0,0944502
943,9846;0,0954019
944,9489;0,0964333
945,9131;0,0975521
946,8773;0,0987637
947,8416;0,100068
948,8058;0,101461
949,7700;0,10293
950,7343;0,104469
951,6985;0,106072
952,6627;0,107744
953,6270;0,109493
954,5912;0,111325
955,5554;0,113242
956,5197;0,115238
957,4839;0,117302
958,4481;0,119424
959,4124;0,121591
960,3766;0,123792
961,3408;0,126012
962,3051;0,128233
963,2693;0,130439
964,2335;0,132622
965,1978;0,134791
966,1620;0,136967
967,1262;0,139175
968,0905;0,141438
969,0547;0,143775
970,0189;0,146203
970,9832;0,148747
971,9474;0,151439
972,9116;0,154319
973,8759;0,157425
974,8401;0,16078
975,8043;0,16439
976,7686;0,168248
977,7328;0,172334
978,6970;0,176611
979,6613;0,181016
980,6255;0,185451
981,5897;0,189786
982,5540;0,193875
983,5182;0,197591
984,4824;0,200852
985,4467;0,203641
986,4109;0,206001
987,3751;0,20801
988,3394;0,209757
989,3036;0,211317
990,2678;0,212741
991,2321;0,214056
992,1963;0,215277
993,1605;0,216411
994,1248;0,217473
995,0890;0,218488
996,0532;0,219485
997,0175;0,220493
997,9817;0,221533
998,9459;0,222613
999,9102;0,223734
1000,8744;0,224896
1001,8386;0,226106
1002,8029;0,227383
1003,7671;0,228755
1004,7313;0,230259
1005,6956;0,231932
1006,6598;0,233815
1007,6240;0,235946
1008,5883;0,238353
1009,5525;0,241043
1010,5167;0,243995
1011,4810;0,247151
1012,4452;0,250433
1013,4094;0,25375
1014,3737;0,257016
1015,3379;0,260162
1016,3021;0,263135
1017,2664;0,265901
1018,2306;0,268439
1019,1948;0,270749
1020,1591;0,272843
1021,1233;0,274753
1022,0875;0,276518
1023,0518;0,278176
1024,0160;0,279755
1024,9802;0,281266
1025,9445;0,282699
1026,9087;0,284024
1027,8729;0,285192
1028,8372;0,286137
1029,8014;0,286778
1030,7656;0,287025
1031,7299;0,286787
1032,6941;0,285993
1033,6583;0,284611
1034,6226;0,28267
1035,5868;0,280272
1036,5510;0,277586
1037,5153;0,274817
1038,4795;0,27217
1039,4437;0,269808
1040,4080;0,267827
1041,3722;0,266247
1042,3364;0,265027
1043,3007;0,264085
1044,2649;0,26332
1045,2291;0,262635
1046,1934;0,261942
1047,1576;0,261172
1048,1218;0,260273
1049,0861;0,25921
1050,0503;0,257959
1051,0145;0,256503
1051,9788;0,254828
1052,9430;0,252931
1053,9072;0,250817
1054,8715;0,248491
1055,8357;0,245946
1056,7999;0,243154
1057,7642;0,240063
1058,7284;0,23662
1059,6926;0,232801
1060,6569;0,228638
1061,6211;0,224231
1062,5853;0,219725
1063,5496;0,215284
1064,5138;0,21105
1065,4780;0,207125
1066,4423;0,203557
1067,4065;0,200349
1068,3707;0,197463
1069,3350;0,194838
1070,2992;0,192404
1071,2634;0,190096
1072,2277;0,187864
1073,1919;0,185674
1074,1561;0,183506
1075,1204;0,181344
1076,0846;0,179177
1077,0488;0,177001
1078,0131;0,174832
1078,9773;0,172708
1079,9415;0,170685
1080,9058;0,168824
1081,8700;0,167167
1082,8342;0,165729
1083,7985;0,164491
1084,7627;0,163418
1085,7269;0,162476
1086,6912;0,161637
1087,6554;0,16089
1088,6196;0,160232
1089,5839;0,159662
1090,5481;0,159177
1091,5123;0,15878
1092,4766;0,158479
1093,4408;0,158284
1094,4050;0,158204
1095,3693;0,158238
1096,3335;0,158374
1097,2977;0,15859
1098,2620;0,158865
1099,2262;0,159178
1100,1904;0,159512
1101,1547;0,159843
1102,1189;0,160139
1103,0831;0,16036
1104,0474;0,160466
1105,0116;0,160435
1105,9758;0,160265
1106,9401;0,159971
1107,9043;0,159571
1108,8685;0,159062
1109,8328;0,158416
1110,7970;0,157579
1111,7612;0,156503
1112,7255;0,155171
1113,6897;0,153615
1114,6539;0,151921
1115,6182;0,150198
1116,5824;0,148551
1117,5466;0,147052
1118,5109;0,145717
1119,4751;0,144511
1120,4393;0,143354
1121,4036;0,142143
1122,3678;0,140775
1123,3320;0,139169
1124,2963;0,13728
1125,2605;0,135108
1126,2247;0,132691
1127,1890;0,130089
1128,1532;0,127363
1129,1174;0,12457
1130,0817;0,121754
1131,0459;0,118951
1132,0101;0,116197
1132,9744;0,11353
1133,9386;0,110994
1134,9028;0,108639
1135,8671;0,106517
1136,8313;0,104677
1137,7955;0,103156
1138,7598;0,10197
1139,7240;0,101109
1140,6882;0,100543
1141,6525;0,100223
1142,6167;0,100102
1143,5809;0,100141
1144,5452;0,100312
1145,5094;0,100601
1146,4736;0,100996
1147,4379;0,10149
1148,4021;0,102079
1149,3663;0,102754
1150,3306;0,103505
1151,2948;0,104311
1152,2590;0,105138
1153,2233;0,105942
1154,1875;0,106672
1155,1517;0,107276
1156,1160;0,107708
1157,0802;0,107925
1158,0444;0,107878
1159,0087;0,107511
1159,9729;0,106756
1160,9371;0,10555
1161,9014;0,103848
1162,8656;0,101644
1163,8298;0,0989792
1164,7941;0,0959434
1165,7583;0,0926577
1166,7225;0,0892572
1167,6868;0,0858714
1168,6510;0,0826089
1169,6152;0,0795493
1170,5795;0,0767416
1171,5437;0,0742088
1172,5079;0,0719545
1173,4722;0,0699697
1174,4364;0,0682377
1175,4006;0,0667374
1176,3649;0,0654462
1177,3291;0,0643431
1178,2933;0,0634111
1179,2576;0,0626365
1180,2218;0,0620064
1181,1860;0,0615056
1182,1503;0,0611161
1183,1145;0,0608208
1184,0787;0,0606087
1185,0430;0,0604774
1186,0072;0,0604322
1186,9714;0,0604797
1187,9357;0,0606239
1188,8999;0,0608638
1189,8641;0,0611966
1190,8284;0,0616207
1191,7926;0,0621372
1192,7568;0,0627467
1193,7211;0,0634465
1194,6853;0,0642283
1195,6495;0,0650803
1196,6138;0,0659902
1197,5780;0,0669467
1198,5422;0,0679386
1199,5065;0,0689337
1200,4707;0,0699543
1201,4349;0,0709629
1202,3992;0,0719462
1203,3634;0,0728977
1204,3276;0,0738176
1205,2919;0,0747099
1206,2561;0,0755801
1207,2203;0,0764349
1208,1846;0,077286
1209,1488;0,0781528
1210,1130;0,0790622
1211,0773;0,0800424
1212,0415;0,0811139
1213,0057;0,082281
1213,9700;0,0835287
1214,9342;0,0848272
1215,8984;0,0861411
1216,8627;0,0874377
1217,8269;0,088694
1218,7911;0,0898979
1219,7554;0,0910455
1220,7196;0,0921362
1221,6838;0,093168
1222,6481;0,0941355
1223,6123;0,0950305
1224,5765;0,0958452
1225,5408;0,0965757
1226,5050;0,097224
1227,4692;0,0977982
1228,4335;0,0983091
1229,3977;0,0987672
1230,3619;0,0991783
1231,3262;0,0995425
1232,2904;0,0998536
1233,2546;0,100103
1234,2189;0,100284
1235,1831;0,100399
1236,1473;0,100459
1237,1116;0,100481
1238,0758;0,100483
1239,0400;0,100473
1240,0043;0,10045
1240,9685;0,100398
1241,9327;0,100299
1242,8970;0,100138
1243,8612;0,0999105
1244,8254;0,0996169
1245,7897;0,0992639
1246,7539;0,0988597
1247,7181;0,0984123
1248,6824;0,0979303
1249,6466;0,0974232
1250,6108;0,0969016
1251,5751;0,0963768
1252,5393;0,0958606
1253,5035;0,0953641
1254,4678;0,0948942
1255,4320;0,0944502
1256,3962;0,0940205
1257,3605;0,0935854
1258,3247;0,093123
1259,2889;0,0926185
1260,2532;0,0920685
1261,2174;0,0914789
1262,1816;0,090857
1263,1459;0,0902041
1264,1101;0,0895134
1265,0743;0,088774
1266,0386;0,0879767
1267,0028;0,0871177
1267,9670;0,0861984
1268,9313;0,085223
1269,8955;0,0841975
1270,8597;0,0831297
1271,8240;0,0820296
1272,7882;0,0809093
1273,7524;0,0797819
1274,7167;0,0786619
1275,6809;0,0775655
1276,6451;0,0765087
1277,6094;0,0755044
1278,5736;0,074556
1279,5378;0,0736562
1280,5021;0,0727905
1281,4663;0,0719458
1282,4305;0,0711188
1283,3948;0,0703181
1284,3590;0,0695593
1285,3232;0,0688578
1286,2875;0,0682239
1287,2517;0,0676638
1288,2159;0,0671828
1289,1802;0,066788
1290,1444;0,0664876
1291,1086;0,066287
1292,0729;0,0661863
1293,0371;0,0661819
1294,0013;0,0662681
1294,9656;0,0664403
1295,9298;0,0666948
1296,8940;0,067029
1297,8583;0,0674401
1298,8225;0,0679265
1299,7867;0,068488
1300,7510;0,0691248
1301,7152;0,0698362
1302,6794;0,0706182
1303,6437;0,0714632
1304,6079;0,0723611
1305,5721;0,0733022
1306,5364;0,0742789
1307,5006;0,075286
1308,4648;0,0763199
1309,4291;0,0773746
1310,3933;0,0784381
1311,3575;0,0794883
1312,3218;0,0804932
1313,2860;0,0814157
1314,2502;0,0822191
1315,2145;0,082871
1316,1787;0,0833438
1317,1429;0,083616
1318,1072;0,0836801
1319,0714;0,0835523
1320,0356;0,0832771
1320,9999;0,082916
1321,9641;0,0825285
1322,9283;0,0821579
1323,8926;0,0818273
1324,8568;0,0815446
1325,8210;0,0813082
1326,7853;0,0811097
1327,7495;0,0809341
1328,7137;0,0807599
1329,6780;0,0805621
1330,6422;0,0803202
1331,6064;0,0800278
1332,5707;0,0796967
1333,5349;0,0793506
1334,4991;0,0790068
1335,4634;0,0786569
1336,4276;0,0782549
1337,3918;0,0777269
1338,3561;0,0770107
1339,3203;0,0761109
1340,2845;0,0751191
1341,2488;0,0741662
1342,2130;0,0733493
1343,1772;0,0727003
1344,1415;0,0722031
1345,1057;0,0718244
1346,0699;0,0715374
1347,0342;0,0713317
1347,9984;0,0712138
1348,9626;0,0711985
1349,9269;0,0712967
1350,8911;0,0715058
1351,8553;0,0718084
1352,8196;0,0721795
1353,7838;0,0725982
1354,7480;0,0730591
1355,7123;0,0735739
1356,6765;0,0741611
1357,6407;0,0748318
1358,6050;0,0755777
1359,5692;0,0763653
1360,5334;0,0771353
1361,4977;0,0778159
1362,4619;0,078358
1363,4261;0,0787698
1364,3904;0,079106
1365,3546;0,079421
1366,3188;0,0797364
1367,2831;0,0800422
1368,2473;0,0803151
1369,2115;0,0805331
1370,1758;0,0806777
1371,1400;0,0807252
1372,1042;0,0806401
1373,0685;0,0803853
1374,0327;0,0799531
1374,9969;0,0793849
1375,9612;0,0787448
1376,9254;0,0780618
1377,8896;0,077306
1378,8539;0,0764217
1379,8181;0,0753879
1380,7823;0,0742563
1381,7466;0,07313
1382,7108;0,0720964
1383,6750;0,0711682
1384,6393;0,0702804
1385,6035;0,0693418
1386,5677;0,0683187
1387,5320;0,0672907
1388,4962;0,0664045
1389,4604;0,0657595
1390,4247;0,0653554
1391,3889;0,0651303
1392,3531;0,0650155
1393,3174;0,0649625
1394,2816;0,0649439
1395,2458;0,0649432
1396,2101;0,0649481
1397,1743;0,0649549
1398,1385;0,0649795
1399,1028;0,0650555
1400,0670;0,0652178
1401,0313;0,065481
1401,9955;0,0658334
1402,9597;0,0662453
1403,9240;0,0666872
1404,8882;0,0671458
1405,8524;0,0676308
1406,8167;0,0681649
1407,7809;0,0687654
1408,7451;0,0694368
1409,7094;0,070176
1410,6736;0,0709804
1411,6378;0,0718493
1412,6021;0,0727785
1413,5663;0,0737538
1414,5305;0,0747474
1415,4948;0,0757126
1416,4590;0,0765763
1417,4232;0,0772465
1418,3875;0,0776657
1419,3517;0,0778783
1420,3159;0,0779938
1421,2802;0,078068
1422,2444;0,0780644
1423,2086;0,0779141
1424,1729;0,0775836
1425,1371;0,0770906
1426,1013;0,0764666
1427,0656;0,0757082
1428,0298;0,0747765
1428,9940;0,0736587
1429,9583;0,0724391
1430,9225;0,0712794
1431,8867;0,0703031
1432,8510;0,0694987
1433,8152;0,0687252
1434,7794;0,0677993
1435,7437;0,0666372
1436,7079;0,0653874
1437,6721;0,0643657
1438,6364;0,0637814
1439,6006;0,0636119
1440,5648;0,0637211
1441,5291;0,0639919
1442,4933;0,0643665
1443,4575;0,064828
1444,4218;0,0653717
1445,3860;0,0659839
1446,3502;0,0666384
1447,3145;0,0673058
1448,2787;0,0679671
1449,2429;0,0686208
1450,2072;0,0692748
1451,1714;0,0699307
1452,1356;0,0705716
1453,0999;0,0711565
1454,0641;0,0716049
1455,0283;0,0717698
1455,9926;0,0714627
1456,9568;0,0706892
1457,9210;0,0698792
1458,8853;0,0694731
1459,8495;0,0694727
1460,8137;0,069629
1461,7780;0,0696826
1462,7422;0,0694112
1463,7064;0,0686561
1464,6707;0,0674295
1465,6349;0,0659804
1466,5991;0,0646162
1467,5634;0,0634506
1468,5276;0,0623735
1469,4918;0,0611603
1470,4561;0,0595604
1471,4203;0,0573892
1472,3845;0,0547115
1473,3488;0,0519654
1474,3130;0,0496693
1475,2772;0,0479915
1476,2415;0,0467832
1477,2057;0,0458498
1478,1699;0,0450736
1479,1342;0,0444033
1480,0984;0,0438212
1481,0626;0,0433288
1482,0269;0,0429456
1482,9911;0,0426999
1483,9553;0,0426099
1484,9196;0,0426679
1485,8838;0,04284
1486,8480;0,0430752
1487,8123;0,0433236
1488,7765;0,0435687
1489,7407;0,0438566
1490,7050;0,0442613
1491,6692;0,0448154
1492,6334;0,0455037
1493,5977;0,046302
1494,5619;0,0472028
1495,5261;0,0482161
1496,4904;0,0493502
1497,4546;0,0505866
1498,4188;0,0518724
1499,3831;0,053143
1500,3473;0,054343
1501,3115;0,0554293
1502,2758;0,0563716
1503,2400;0,0571528
1504,2042;0,057761
1505,1685;0,0581545
1506,1327;0,0582141
1507,0969;0,0578394
1508,0612;0,0572061
1509,0254;0,0566042
1509,9896;0,0561097
1510,9539;0,055655
1511,9181;0,0551597
1512,8823;0,0545571
1513,8466;0,0537909
1514,8108;0,0528298
1515,7750;0,0516953
1516,7393;0,05046
1517,7035;0,0491948
1518,6677;0,0479153
1519,6320;0,0465997
1520,5962;0,0452744
1521,5604;0,0440723
1522,5247;0,0431565
1523,4889;0,0425828
1524,4531;0,0422706
1525,4174;0,0420934
1526,3816;0,041972
1527,3458;0,041898
1528,3101;0,0418952
1529,2743;0,0419704
1530,2385;0,0420973
1531,2028;0,0422324
1532,1670;0,0423445
1533,1312;0,0424422
1534,0955;0,0425699
1535,0597;0,0427574
1536,0239;0,0429816
1536,9882;0,0431787
1537,9524;0,0432734
1538,9166;0,0432052
1539,8809;0,0429912
1540,8451;0,0428184
1541,8093;0,0429126
1542,7736;0,0432492
1543,7378;0,0436483
1544,7020;0,0439957
1545,6663;0,0442744
1546,6305;0,0445112
1547,5947;0,0447264
1548,5590;0,044912
1549,5232;0,045041
1550,4874;0,0450968
1551,4517;0,0451002
1552,4159;0,0451037
1553,3801;0,0451507
1554,3444;0,0452369
1555,3086;0,0452992
1556,2728;0,045217
1557,2371;0,0448396
1558,2013;0,0441723
1559,1655;0,0436302
1560,1298;0,0436302
1561,0940;0,0440913
1562,0582;0,0447455
1563,0225;0,0454218
1563,9867;0,0460458
1564,9509;0,0465858
1565,9152;0,0470266
1566,8794;0,0473738
1567,8436;0,0476735
1568,8079;0,0480142
1569,7721;0,0484758
1570,7363;0,0490639
1571,7006;0,049715
1572,6648;0,0503592
1573,6290;0,0509683
1574,5933;0,0515707
1575,5575;0,0522382
1576,5217;0,0530386
1577,4860;0,0539778
1578,4502;0,0550064
1579,4144;0,0560752
1580,3787;0,057163
1581,3429;0,058266
1582,3071;0,059381
1583,2714;0,0605
1584,2356;0,061617
1585,1998;0,0627352
1586,1641;0,06386
1587,1283;0,0649824
1588,0925;0,0660696
1589,0568;0,0670711
1590,0210;0,0679344
1590,9852;0,068616
1591,9495;0,0690816
1592,9137;0,069305
1593,8779;0,069279
1594,8422;0,0690301
1595,8064;0,0686195
1596,7706;0,0681207
1597,7349;0,0675915
1598,6991;0,0670614
1599,6633;0,0665393
1600,6276;0,0660294
1601,5918;0,0655441
1602,5560;0,0651051
1603,5203;0,0647333
1604,4845;0,0644317
1605,4487;0,0641777
1606,4130;0,0639302
1607,3772;0,063655
1608,3414;0,0633564
1609,3057;0,0630883
1610,2699;0,0629188
1611,2341;0,0628735
1612,1984;0,0629113
1613,1626;0,0629454
1614,1268;0,0628865
1615,0911;0,0627023
1616,0553;0,062484
1617,0195;0,0624236
1617,9838;0,062641
1618,9480;0,0630768
1619,9122;0,0635795
1620,8765;0,0640186
1621,8407;0,0643268
1622,8049;0,0645075
1623,7692;0,0646247
1624,7334;0,0647563
1625,6976;0,0649401
1626,6619;0,0651695
1627,6261;0,0654307
1628,5903;0,065727
1629,5546;0,0660677
1630,5188;0,0664402
1631,4830;0,0667989
1632,4473;0,0670687
1633,4115;0,0671555
1634,3757;0,066981
1635,3400;0,0665911
1636,3042;0,0662354
1637,2684;0,0661625
1638,2327;0,066377
1639,1969;0,0667329
1640,1611;0,0671048
1641,1254;0,06743
1642,0896;0,067678
1643,0538;0,0678102
1644,0181;0,0677543
1644,9823;0,067427
1645,9465;0,0668494
1646,9108;0,0662556
1647,8750;0,0659253
1648,8392;0,0659034
1649,8035;0,0660038
1650,7677;0,0659391
1651,7319;0,0653761
1652,6962;0,0641348
1653,6604;0,0626678
1654,6246;0,0617671
1655,5889;0,0615591
1656,5531;0,0616692
1657,5173;0,0617732
1658,4816;0,0616951
1659,4458;0,0613388
1660,4100;0,0606576
1661,3743;0,0597001
1662,3385;0,0586588
1663,3027;0,0577801
1664,2670;0,0571786
1665,2312;0,0567767
1666,1954;0,0563848
1667,1597;0,0557923
1668,1239;0,0548573
1669,0881;0,0536274
1670,0524;0,0523778
1671,0166;0,0513935
1671,9808;0,0507125
1672,9451;0,0501551
1673,9093;0,0495235
1674,8735;0,0487565
1675,8378;0,0479699
1676,8020;0,0473513
1677,7662;0,0469912
1678,7305;0,0468268
1679,6947;0,046702
1680,6589;0,0464229
1681,6232;0,0457735
1682,5874;0,0445907
1683,5516;0,0430101
1684,5159;0,0415777
1685,4801;0,0407362
1686,4443;0,0404125
1687,4086;0,0402958
1688,3728;0,0401591
1689,3370;0,0399276
1690,3013;0,0396303
1691,2655;0,03933
1692,2297;0,0390685
1693,1940;0,0388426
1694,1582;0,0386112
1695,1224;0,0383194
1696,0867;0,0379301
1697,0509;0,0374528
1698,0151;0,036955
1698,9794;0,0365457
1699,9436;0,0363299
1700,9078;0,0363532
1701,8721;0,0365821
1702,8363;0,0369389
1703,8005;0,0373504
1704,7648;0,0377751
1705,7290;0,0382065
1706,6932;0,0386614
1707,6575;0,0391608
1708,6217;0,0397122
1709,5859;0,0403074
1710,5502;0,040928
1711,5144;0,0415496
1712,4786;0,0421389
1713,4429;0,0426489
1714,4071;0,0430185
1715,3713;0,0431962
1716,3356;0,04321
1717,2998;0,0432274
1718,2640;0,0434483
1719,2283;0,0439238
1720,1925;0,0445627
1721,1567;0,0452473
1722,1210;0,0458936
1723,0852;0,0464595
1724,0494;0,0469414
1725,0137;0,0473696
1725,9779;0,0477924
1726,9421;0,0482499
1727,9064;0,0487493
1728,8706;0,0492542
1729,8348;0,0496867
1730,7991;0,0499324
1731,7633;0,049867
1732,7275;0,0494422
1733,6918;0,0488077
1734,6560;0,0482556
1735,6202;0,0479526
1736,5845;0,0478303
1737,5487;0,0477167
1738,5129;0,0474697
1739,4772;0,0470331
1740,4414;0,0464432
1741,4056;0,0457894
1742,3699;0,0451401
1743,3341;0,0444986
1744,2983;0,0438264
1745,2626;0,0430866
1746,2268;0,0422532
1747,1910;0,0412887
1748,1553;0,0401363
1749,1195;0,0387763
1750,0837;0,0373121
1751,0480;0,0359467
1752,0122;0,0348306
1752,9764;0,033966
1753,9407;0,0332506
1754,9049;0,032567
1755,8691;0,0318462
1756,8334;0,0310845
1757,7976;0,0303129
1758,7618;0,0295458
1759,7261;0,0287594
1760,6903;0,0279277
1761,6545;0,0270786
1762,6188;0,0263028
1763,5830;0,0256909
1764,5472;0,0252658
1765,5115;0,0249733
1766,4757;0,024723
1767,4399;0,0244307
1768,4042;0,0240413
1769,3684;0,0235363
1770,3326;0,0229371
1771,2969;0,022315
1772,2611;0,0217871
1773,2253;0,0214615
1774,1896;0,0213642
1775,1538;0,0214312
1776,1180;0,0215612
1777,0823;0,0216654
1778,0465;0,0216907
1779,0107;0,0216276
1779,9750;0,0215048
1780,9392;0,021368
1781,9034;0,0212488
1782,8677;0,0211523
1783,8319;0,0210721
1784,7961;0,0210118
1785,7604;0,0209893
1786,7246;0,0210179
1787,6888;0,0210874
1788,6531;0,0211597
1789,6173;0,0211792
1790,5815;0,0210969
1791,5458;0,0209089
1792,5100;0,0206854
1793,4742;0,020529
1794,4385;0,0204886
1795,4027;0,020535
1796,3669;0,0206078
1797,3312;0,0206604
1798,2954;0,020676
1799,2596;0,0206619
1800,2239;0,020633
1801,1881;0,0205978
1802,1523;0,0205563
1803,1166;0,0205094
1804,0808;0,0204663
1805,0450;0,0204407
1806,0093;0,0204407
1806,9735;0,0204608
1807,9377;0,0204801
1808,9020;0,0204725
1809,8662;0,0204236
1810,8304;0,0203443
1811,7947;0,020266
1812,7589;0,020218
1813,7231;0,0202093
1814,6874;0,0202283
1815,6516;0,0202543
1816,6158;0,020273
1817,5801;0,0202853
1818,5443;0,0203069
1819,5085;0,0203555
1820,4728;0,0204357
1821,4370;0,0205329
1822,4012;0,0206182
1823,3655;0,0206603
1824,3297;0,0206402
1825,2939;0,0205605
1826,2582;0,0204393
1827,2224;0,0202987
1828,1866;0,0201601
1829,1509;0,0200501
1830,1151;0,0200008
1831,0793;0,0200327
1832,0436;0,020135
1833,0078;0,0202664
1833,9720;0,0203759
1834,9363;0,020427
1835,9005;0,0204151
1836,8647;0,0203726
1837,8290;0,0203523
1838,7932;0,0203926
1839,7574;0,020494
1840,7217;0,0206224
1841,6859;0,0207268
1842,6501;0,0207586
1843,6144;0,0206958
1844,5786;0,0205638
1845,5428;0,0204233
1846,5071;0,0203231
1847,4713;0,0202724
1848,4355;0,0202557
1849,3998;0,0202566
1850,3640;0,0202684
1851,3282;0,0202909
1852,2925;0,0203223
1853,2567;0,0203558
1854,2209;0,0203828
1855,1852;0,0203983
1856,1494;0,0204032
1857,1136;0,0204018
1858,0779;0,0203979
1859,0421;0,0203934
1860,0063;0,0203919
1860,9706;0,0204019
1861,9348;0,020435
1862,8990;0,0204989
1863,8633;0,0205907
1864,8275;0,0206947
1865,7917;0,0207846
1866,7560;0,0208298
1867,7202;0,0208086
1868,6844;0,0207281
1869,6487;0,0206271
1870,6129;0,0205478
1871,5771;0,0205064
1872,5414;0,0204915
1873,5056;0,0204809
1874,4698;0,0204576
1875,4341;0,0204182
1876,3983;0,020374
1877,3625;0,020345
1878,3268;0,0203487
1879,2910;0,0203898
1880,2552;0,0204578
1881,2195;0,0205332
1882,1837;0,0205979
1883,1479;0,0206443
1884,1122;0,0206775
1885,0764;0,0207073
1886,0406;0,0207381
1887,0049;0,0207619
1887,9691;0,020762
1888,9333;0,0207259
1889,8976;0,0206603
1890,8618;0,0205919
1891,8260;0,0205522
1892,7903;0,0205574
1893,7545;0,0206002
1894,7188;0,020655
1895,6830;0,0206922
1896,6472;0,0206946
1897,6115;0,020665
1898,5757;0,0206209
1899,5399;0,0205818
1900,5042;0,0205607
1901,4684;0,0205632
1902,4326;0,0205908
1903,3969;0,0206436
1904,3611;0,0207184
1905,3253;0,0208062
1906,2896;0,0208912
1907,2538;0,0209557
1908,2180;0,020989
1909,1823;0,0209948
1910,1465;0,02099
1911,1107;0,0209938
1912,0750;0,0210143
1913,0392;0,0210458
1914,0034;0,0210766
1914,9677;0,0211009
1915,9319;0,0211269
1916,8961;0,0211744
1917,8604;0,0212624
1918,8246;0,0213918
1919,7888;0,0215383
1920,7531;0,0216606
1921,7173;0,0217178
1922,6815;0,021688
1923,6458;0,0215795
1924,6100;0,0214278
1925,5742;0,0212772
1926,5385;0,0211596
1927,5027;0,021087
1928,4669;0,0210581
1929,4312;0,0210691
1930,3954;0,0211191
1931,3596;0,0212055
1932,3239;0,021316
1933,2881;0,0214256
1934,2523;0,0215058
1935,2166;0,021541
1936,1808;0,0215419
1937,1450;0,0215424
1938,1093;0,0215813
1939,0735;0,0216791
1940,0377;0,021824
1941,0020;0,0219743
1941,9662;0,0220793
1942,9304;0,0221116
1943,8947;0,0220867
1944,8589;0,0220516
1945,8231;0,0220539
1946,7874;0,0221167
1947,7516;0,0222321
1948,7158;0,0223682
1949,6801;0,0224843
1950,6443;0,0225477
1951,6085;0,0225491
1952,5728;0,0225086
1953,5370;0,0224676
1954,5012;0,0224679
1955,4655;0,0225271
1956,4297;0,0226249
1957,3939;0,0227119
1958,3582;0,0227405
1959,3224;0,0227014
1960,2866;0,0226406
1961,2509;0,0226386
1962,2151;0,0227611
1963,1793;0,0230141
1964,1436;0,0233327
1965,1078;0,0236094
1966,0720;0,0237462
1967,0363;0,0237044
1968,0005;0,0235224
1968,9647;0,0232857
1969,9290;0,0230757
1970,8932;0,0229351
1971,8574;0,0228652
1972,8217;0,022845
1973,7859;0,0228485
1974,7501;0,0228542
1975,7144;0,0228461
1976,6786;0,0228126
1977,6428;0,0227499
1978,6071;0,0226669
1979,5713;0,0225865
1980,5355;0,0225389
1981,4998;0,0225518
1982,4640;0,022639
1983,4282;0,0227931
1984,3925;0,0229843
1985,3567;0,0231705
1986,3209;0,0233163
1987,2852;0,0234104
1988,2494;0,0234689
1989,2136;0,0235173
1990,1779;0,0235637
1991,1421;0,0235835
1992,1063;0,0235332
1993,0706;0,0233882
1994,0348;0,0231742
1994,9990;0,0229622
1995,9633;0,0228309
1996,9275;0,0228222
1997,8917;0,0229183
1998,8560;0,0230551
1999,8202;0,0231652
2000,7844;0,0232234
2001,7487;0,0232592
2002,7129;0,0233305
2003,6771;0,0234803
2004,6414;0,0237102
2005,6056;0,0239848
2006,5698;0,0242583
2007,5341;0,024494
2008,4983;0,0246615
2009,4625;0,024723
2010,4268;0,0246388
2011,3910;0,0244007
2012,3552;0,0240688
2013,3195;0,0237754
2014,2837;0,0236783
2015,2479;0,0238776
2016,2122;0,0243474
2017,1764;0,0249344
2018,1406;0,0254386
2019,1049;0,0257217
2020,0691;0,0257654
2021,0333;0,0256489
2021,9976;0,0254798
2022,9618;0,025331
2023,9260;0,0252195
2024,8903;0,0251253
2025,8545;0,0250294
2026,8187;0,0249401
2027,7830;0,0248913
2028,7472;0,0249182
2029,7114;0,0250293
2030,6757;0,0251919
2031,6399;0,025344
2032,6041;0,025426
2033,5684;0,0254198
2034,5326;0,0253647
2035,4968;0,025338
2036,4611;0,0254054
2037,4253;0,0255734
2038,3895;0,0257772
2039,3538;0,0259113
2040,3180;0,0258898
2041,2822;0,0257005
2042,2465;0,0254182
2043,2107;0,0251654
2044,1749;0,0250444
2045,1392;0,0250834
2046,1034;0,0252264
2047,0676;0,0253671
2048,0320;0,0254087
2048,9961;0,0253123
2049,9604;0,025106
2050,9246;0,0248556
2051,8889;0,0246269
2052,8530;0,0244621
2053,8174;0,0243714
2054,7815;0,0243382
2055,7458;0,0243301
2056,7100;0,0243151
2057,6743;0,024276
2058,6384;0,0242164
2059,6028;0,0241553
2060,5669;0,0241135
2061,5313;0,0241012
2062,4954;0,0241128
2063,4597;0,0241325
2064,4238;0,0241459
2065,3882;0,0241478
2066,3523;0,0241422
2067,3167;0,0241354
2068,2808;0,0241279
2069,2451;0,024113
2070,2092;0,024081
2071,1736;0,0240254
2072,1377;0,0239483
2073,1021;0,023861
2074,0662;0,0237812
2075,0305;0,0237283
2075,9946;0,0237167
2076,9590;0,0237496
2077,9231;0,0238162
2078,8875;0,0238947
2079,8516;0,0239613
2080,8159;0,0240008
2081,7800;0,0240117
2082,7444;0,0240034
2083,7085;0,0239867
2084,6729;0,0239657
2085,6370;0,0239354
2086,6013;0,0238882
2087,5654;0,0238226
2088,5298;0,0237479
2089,4939;0,0236825
2090,4583;0,0236454
2091,4224;0,0236479
2092,3867;0,0236887
2093,3508;0,0237542
2094,3152;0,0238239
2095,2793;0,023878
2096,2437;0,0239049
2097,2078;0,0239054
2098,1721;0,0238906
2099,1362;0,0238753
2100,1006;0,02387
2101,0647;0,0238771
2102,0291;0,0238943
2102,9932;0,0239181
2103,9575;0,0239465
2104,9216;0,0239762
2105,8860;0,0239995
2106,8501;0,0240051
2107,8145;0,0239862
2108,7786;0,0239503
2109,7429;0,0239208
2110,7070;0,0239259
2111,6714;0,0239797
2112,6355;0,0240695
2113,5999;0,0241598
2114,5640;0,0242129
2115,5283;0,0242118
2116,4924;0,0241689
2117,4568;0,0241157
2118,4209;0,0240812
2119,3853;0,0240754
2120,3494;0,0240901
2121,3137;0,0241127
2122,2778;0,0241429
2123,2422;0,0241952
2124,2063;0,024286
2125,1707;0,0244155
2126,1348;0,02456
2127,0991;0,0246822
2128,0632;0,0247533
2129,0276;0,0247716
2129,9917;0,0247652
2130,9561;0,0247771
2131,9202;0,0248428
2132,8845;0,0249739
2133,8486;0,025157
2134,8130;0,025367
2135,7771;0,0255857
2136,7415;0,0258112
2137,7056;0,0260539
2138,6699;0,0263203
2139,6340;0,026598
2140,5984;0,026852
2141,5625;0,0270361
2142,5269;0,0271163
2143,4910;0,0270934
2144,4553;0,0270139
2145,4194;0,0269574
2146,3838;0,0270045
2147,3479;0,0271991
2148,3123;0,0275264
2149,2764;0,0279201
2150,2407;0,0282944
2151,2048;0,0285827
2152,1692;0,0287639
2153,1333;0,0288643
2154,0977;0,0289416
2155,0618;0,0290601
2156,0261;0,0292684
2156,9902;0,0295779
2157,9546;0,029947
2158,9187;0,0302836
2159,8831;0,0304805
2160,8472;0,030467
2161,8115;0,0302395
2162,7756;0,0298536
2163,7400;0,0293933
2164,7041;0,0289357
2165,6685;0,0285254
2166,6326;0,0281696
2167,5969;0,0278545
2168,5610;0,0275722
2169,5254;0,0273368
2170,4895;0,027177
2171,4539;0,0271126
2172,4180;0,0271314
2173,3823;0,0271851
2174,3464;0,0272105
2175,3108;0,0271634
2176,2749;0,0270447
2177,2393;0,0269016
2178,2034;0,0268058
2179,1677;0,0268195
2180,1318;0,026966
2181,0962;0,0272134
2182,0603;0,02748
2183,0247;0,0276657
2183,9888;0,0276989
2184,9531;0,0275732
2185,9172;0,0273511
2186,8816;0,0271299
2187,8457;0,0269882
2188,8101;0,0269446
2189,7742;0,0269529
2190,7385;0,0269352
2191,7026;0,0268313
2192,6670;0,026632
2193,6311;0,0263804
2194,5955;0,0261439
2195,5596;0,0259809
2196,5239;0,0259188
2197,4880;0,0259512
2198,4524;0,0260461
2199,4165;0,0261583
2200,3809;0,0262425
2201,3450;0,0262674
2202,3093;0,0262294
2203,2734;0,0261573
2204,2378;0,0261012
2205,2019;0,0261067
2206,1663;0,0261889
2207,1304;0,026321
2208,0947;0,0264481
2209,0588;0,0265158
2210,0232;0,0264971
2210,9873;0,0264002
2211,9517;0,0262565
2212,9158;0,0261009
2213,8801;0,0259577
2214,8442;0,0258413
2215,8086;0,0257643
2216,7727;0,0257411
2217,7371;0,0257801
2218,7012;0,0258689
2219,6655;0,0259667
2220,6296;0,0260162
2221,5940;0,0259715
2222,5581;0,0258248
2223,5225;0,0256144
2224,4866;0,0254053
2225,4509;0,0252543
2226,4150;0,025183
2227,3794;0,0251737
2228,3435;0,0251905
2229,3079;0,0252051
2230,2720;0,025209
2231,2363;0,025207
2232,2004;0,0252003
2233,1648;0,0251778
2234,1289;0,0251225
2235,0933;0,0250282
2236,0574;0,0249111
2237,0217;0,0248054
2237,9858;0,0247447
2238,9502;0,0247429
2239,9143;0,0247876
2240,8787;0,0248501
2241,8428;0,0249038
2242,8071;0,0249379
2243,7712;0,0249567
2244,7356;0,0249674
2245,6997;0,0249676
2246,6641;0,0249419
2247,6282;0,0248743
2248,5925;0,0247649
2249,5566;0,0246411
2250,5210;0,0245494
2251,4851;0,0245332
2252,4495;0,0246071
2253,4136;0,0247456
2254,3779;0,0248949
2255,3420;0,0250001
2256,3064;0,0250311
2257,2705;0,0249908
2258,2349;0,0249023
2259,1990;0,0247889
2260,1633;0,0246616
2261,1274;0,0245235
2262,0918;0,0243821
2263,0559;0,024258
2264,0203;0,0241789
2264,9844;0,0241642
2265,9487;0,02421
2266,9128;0,0242891
2267,8772;0,0243655
2268,8413;0,0244137
2269,8057;0,0244288
2270,7698;0,0244219
2271,7341;0,0244072
2272,6982;0,0243899
2273,6626;0,0243647
2274,6267;0,0243234
2275,5911;0,0242634
2276,5552;0,024192
2277,5195;0,0241229
2278,4836;0,0240691
2279,4480;0,02404
2280,4121;0,0240406
2281,3765;0,0240748
2282,3406;0,0241453
2283,3049;0,0242522
2284,2690;0,0243891
2285,2334;0,0245438
2286,1975;0,0247011
2287,1619;0,0248494
2288,1260;0,0249853
2289,0903;0,0251126
2290,0544;0,0252394
2291,0188;0,0253716
2291,9829;0,0255116
2292,9473;0,0256582
2293,9114;0,0258099
2294,8757;0,0259646
2295,8398;0,0261177
2296,8042;0,0262601
2297,7683;0,0263787
2298,7327;0,0264627
2299,6968;0,026512
2300,6611;0,026541
2301,6252;0,0265768
2302,5896;0,0266474
2303,5537;0,0267704
2304,5181;0,0269445
2305,4822;0,0271474
2306,4465;0,0273405
2307,4106;0,0274788
2308,3750;0,0275215
2309,3391;0,0274446
2310,3035;0,0272498
2311,2676;0,0269685
2312,2319;0,0266558
2313,1960;0,0263739
2314,1604;0,0261685
2315,1245;0,0260539
2316,0889;0,0260112
2317,0530;0,0260025
2318,0173;0,0259898
2318,9814;0,0259513
2319,9458;0,0258911
2320,9099;0,0258385
2321,8743;0,0258356
2322,8384;0,0259122
2323,8027;0,0260605
2324,7668;0,0262282
2325,7312;0,0263396
2326,6953;0,0263323
2327,6597;0,0261863
2328,6238;0,0259332
2329,5881;0,0256439
2330,5522;0,0253993
2331,5166;0,0252547
2332,4807;0,0252144
2333,4451;0,0252337
2334,4092;0,0252504
2335,3735;0,0252266
2336,3376;0,0251741
2337,3020;0,0251503
2338,2661;0,0252234
2339,2305;0,0254218
2340,1946;0,0256931
2341,1589;0,0258956
2342,1230;0,0258544
2343,0874;0,0255146
2344,0515;0,0251076
2345,0159;0,0250551
2345,9800;0,0255813
2346,9443;0,0265025
2347,9084;0,0274047
2348,8728;0,0279284
2349,8369;0,0279325
2350,8013;0,0275195
2351,7654;0,0269618
2352,7297;0,0265534
2353,6938;0,026456
2354,6582;0,0266589
2355,6223;0,027071
2356,5867;0,0275947
2357,5508;0,0281071
2358,5151;0,0284475
2359,4792;0,0284843
2360,4436;0,0282025
2361,4077;0,0276991
2362,3721;0,0270965
2363,3362;0,0264722
2364,3005;0,0258571
2365,2646;0,0252651
2366,2290;0,0247101
2367,1931;0,0242041
2368,1575;0,0237536
2369,1216;0,0233637
2370,0859;0,023041
2371,0500;0,0227928
2372,0144;0,0226267
2372,9785;0,0225519
2373,9429;0,0225814
2374,9070;0,0227272
2375,8713;0,0229904
2376,8354;0,0233513
2377,7998;0,0237684
2378,7639;0,0241852
2379,7283;0,0245444
2380,6924;0,0248003
2381,6567;0,0249288
2382,6208;0,0249287
2383,5852;0,0248201
2384,5493;0,0246365
2385,5137;0,0244167
2386,4778;0,0241968
2387,4421;0,0240046
2388,4063;0,023857
2389,3706;0,0237605
2390,3347;0,0237124
2391,2991;0,0237029
2392,2632;0,0237183
2393,2275;0,0237443
2394,1917;0,0237703
2395,1560;0,0237917
2396,1201;0,0238102
2397,0845;0,0238309
2398,0486;0,0238588
2399,0129;0,0238941
2399,9771;0,023932
2400,9414;0,0239665
2401,9055;0,0239928
2402,8699;0,0240114
2403,8340;0,0240268
2404,7983;0,0240448
2405,7625;0,0240682
2406,7268;0,0240938
2407,6909;0,0241148
2408,6553;0,0241256
2409,6194;0,0241267
2410,5837;0,024127
2411,5479;0,0241394
2412,5122;0,0241734
2413,4763;0,0242286
2414,4407;0,0242939
2415,4048;0,024354
2416,3691;0,0243979
2417,3333;0,0244248
2418,2976;0,024443
2419,2617;0,0244625
2420,2261;0,024488
2421,1902;0,0245154
2422,1545;0,0245358
2423,1187;0,0245429
2424,0830;0,0245379
2425,0471;0,0245295
2426,0115;0,0245294
2426,9756;0,0245467
2427,9399;0,0245848
2428,9041;0,0246415
2429,8684;0,0247102
2430,8325;0,0247814
2431,7969;0,0248435
2432,7610;0,0248856
2433,7253;0,0249007
2434,6895;0,0248905
2435,6538;0,0248659
2436,6179;0,0248427
2437,5823;0,0248349
2438,5464;0,0248479
2439,5107;0,0248774
2440,4749;0,0249135
2441,4392;0,0249475
2442,4033;0,0249769
2443,3677;0,0250051
2444,3318;0,0250373
2445,2961;0,025076
2446,2603;0,0251183
2447,2246;0,0251577
2448,1887;0,0251873
2449,1531;0,0252036
2450,1172;0,0252085
2451,0815;0,0252077
2452,0457;0,0252082
2453,0100;0,0252148
2453,9741;0,0252283
2454,9385;0,0252465
2455,9026;0,0252663
2456,8669;0,0252861
2457,8311;0,0253067
2458,7954;0,0253289
2459,7595;0,0253509
2460,7239;0,0253674
2461,6880;0,0253719
2462,6523;0,0253611
2463,6165;0,0253401
2464,5808;0,0253211
2465,5449;0,0253186
2466,5093;0,0253412
2467,4734;0,0253856
2468,4377;0,0254381
2469,4019;0,0254809
2470,3662;0,0255022
2471,3303;0,0255025
2472,2947;0,0254929
2473,2588;0,0254885
2474,2231;0,0254996
2475,1873;0,0255271
2476,1516;0,0255636
2477,1157;0,0256001
2478,0801;0,0256317
2479,0442;0,0256602
2480,0085;0,025691
2480,9727;0,0257287
2481,9370;0,0257734
2482,9011;0,0258204
2483,8655;0,0258627
2484,8296;0,0258945
2485,7939;0,0259134
2486,7581;0,0259215
2487,7224;0,0259244
2488,6865;0,02593
2489,6509;0,0259451
2490,6150;0,0259733
2491,5793;0,0260122
2492,5435;0,0260545
2493,5078;0,0260918
2494,4719;0,0261191
2495,4363;0,0261384
2496,4004;0,0261578
2497,3647;0,0261864
2498,3289;0,0262278
2499,2932;0,0262764
2500,2573;0,0263184
2501,2217;0,0263387
2502,1858;0,0263292
2503,1501;0,0262945
2504,1143;0,0262516
2505,0786;0,0262228
2506,0427;0,0262249
2507,0071;0,0262612
2507,9712;0,0263193
2508,9355;0,0263787
2509,8997;0,0264213
2510,8640;0,0264406
2511,8281;0,026443
2512,7925;0,0264408
2513,7566;0,0264423
2514,7209;0,0264468
2515,6851;0,0264464
2516,6494;0,0264353
2517,6135;0,0264158
2518,5779;0,0263989
2519,5420;0,0263966
2520,5063;0,0264126
2521,4705;0,0264388
2522,4348;0,0264607
2523,3989;0,0264674
2524,3633;0,0264599
2525,3274;0,0264507
2526,2917;0,0264552
2527,2559;0,0264807
2528,2202;0,0265215
2529,1843;0,0265625
2530,1487;0,0265885
2531,1128;0,0265936
2532,0771;0,0265837
2533,0413;0,0265719
2534,0056;0,0265701
2534,9697;0,0265838
2535,9341;0,0266102
2536,8982;0,0266416
2537,8625;0,0266699
2538,8267;0,0266892
2539,7910;0,0266974
2540,7551;0,0266958
2541,7195;0,0266889
2542,6836;0,0266825
2543,6479;0,0266811
2544,6121;0,026686
2545,5764;0,0266943
2546,5405;0,0267015
2547,5049;0,026705
2548,4690;0,0267072
2549,4333;0,0267137
2550,3975;0,0267299
2551,3618;0,0267564
2552,3259;0,0267882
2553,2903;0,0268176
2554,2544;0,0268382
2555,2188;0,0268483
2556,1829;0,0268498
2557,1472;0,0268461
2558,1113;0,0268404
2559,0757;0,0268354
2560,0398;0,0268342
2561,0042;0,02684
2561,9683;0,0268539
2562,9326;0,0268726
2563,8967;0,0268894
2564,8611;0,0268974
2565,8252;0,0268943
2566,7896;0,0268838
2567,7537;0,0268732
2568,7180;0,0268681
2569,6821;0,0268689
2570,6465;0,026872
2571,6106;0,0268742
2572,5750;0,0268772
2573,5391;0,0268871
2574,5034;0,0269095
2575,4675;0,0269442
2576,4319;0,0269838
2577,3960;0,0270181
2578,3604;0,0270397
2579,3245;0,0270486
2580,2888;0,0270501
2581,2529;0,0270504
2582,2173;0,0270527
2583,1814;0,0270579
2584,1458;0,0270675
2585,1099;0,0270856
2586,0742;0,0271168
2587,0383;0,027161
2588,0027;0,0272105
2588,9668;0,027252
2589,9312;0,0272739
2590,8953;0,0272731
2591,8596;0,0272564
2592,8237;0,0272364
2593,7881;0,027223
2594,7522;0,0272195
2595,7166;0,0272231
2596,6807;0,0272299
2597,6450;0,0272394
2598,6091;0,0272547
2599,5735;0,0272796
2600,5376;0,0273148
2601,5020;0,0273573
2602,4661;0,027402
2603,4304;0,0274452
2604,3945;0,0274859
2605,3589;0,0275249
2606,3230;0,0275632
2607,2874;0,0276004
2608,2515;0,0276351
2609,2158;0,0276657
2610,1799;0,0276915
2611,1443;0,0277122
2612,1084;0,0277276
2613,0728;0,027737
2614,0369;0,0277405
2615,0012;0,0277406
2615,9653;0,0277423
2616,9297;0,0277531
2617,8938;0,0277789
2618,8582;0,0278211
2619,8223;0,027874
2620,7866;0,0279267
2621,7507;0,0279673
2622,7151;0,027989
2623,6792;0,0279936
2624,6436;0,0279902
2625,6077;0,0279906
2626,5720;0,0280033
2627,5361;0,0280297
2628,5005;0,0280653
2629,4646;0,028103
2630,4290;0,0281381
2631,3931;0,0281699
2632,3574;0,0282009
2633,3215;0,0282338
2634,2859;0,028269
2635,2500;0,0283041
2636,2144;0,0283359
2637,1785;0,0283626
2638,1428;0,0283855
2639,1069;0,028408
2640,0713;0,0284338
2641,0354;0,0284645
2641,9998;0,0284993
2642,9639;0,0285355
2643,9282;0,0285708
2644,8923;0,0286041
2645,8567;0,0286359
2646,8208;0,0286667
2647,7852;0,0286964
2648,7493;0,0287241
2649,7136;0,0287493
2650,6777;0,0287727
2651,6421;0,028796
2652,6062;0,0288215
2653,5706;0,0288496
2654,5347;0,028879
2655,4990;0,0289069
2656,4631;0,028931
2657,4275;0,0289513
2658,3916;0,0289703
2659,3560;0,028991
2660,3201;0,0290152
2661,2844;0,0290417
2662,2485;0,0290671
2663,2129;0,0290885
2664,1770;0,0291063
2665,1414;0,0291252
2666,1055;0,0291516
2667,0698;0,0291899
2668,0339;0,0292384
2668,9983;0,0292892
2669,9624;0,0293314
2670,9268;0,0293573
2671,8909;0,029367
2672,8552;0,029369
2673,8193;0,0293757
2674,7837;0,0293971
2675,7478;0,0294359
2676,7122;0,0294866
2677,6763;0,0295398
2678,6406;0,0295873
2679,6047;0,0296264
2680,5691;0,0296597
2681,5332;0,0296926
2682,4976;0,029729
2683,4617;0,0297704
2684,4260;0,0298155
2685,3901;0,0298623
2686,3545;0,0299089
2687,3186;0,0299531
2688,2830;0,0299925
2689,2471;0,0300243
2690,2114;0,0300471
2691,1755;0,0300627
2692,1399;0,0300756
2693,1040;0,0300921
2694,0684;0,0301169
2695,0325;0,0301519
2695,9968;0,0301958
2696,9609;0,0302455
2697,9253;0,0302975
2698,8894;0,0303487
2699,8538;0,0303973
2700,8179;0,0304427
2701,7822;0,0304862
2702,7463;0,0305305
2703,7107;0,0305782
2704,6748;0,0306293
2705,6392;0,030681
2706,6033;0,0307289
2707,5676;0,0307699
2708,5317;0,0308047
2709,4961;0,0308373
2710,4602;0,0308718
2711,4246;0,0309096
2712,3887;0,0309486
2713,3530;0,0309854
2714,3171;0,0310183
2715,2815;0,0310486
2716,2456;0,0310798
2717,2100;0,0311149
2718,1741;0,0311548
2719,1384;0,0311984
2720,1025;0,0312433
2721,0669;0,0312876
2722,0310;0,0313297
2722,9954;0,0313686
2723,9595;0,0314046
2724,9238;0,0314403
2725,8879;0,0314803
2726,8523;0,0315291
2727,8164;0,0315888
2728,7808;0,0316563
2729,7449;0,0317239
2730,7092;0,0317829
2731,6733;0,0318268
2732,6377;0,0318539
2733,6018;0,0318672
2734,5662;0,0318723
2735,5303;0,0318752
2736,4946;0,031881
2737,4587;0,0318932
2738,4231;0,0319134
2739,3872;0,0319412
2740,3516;0,0319744
2741,3157;0,0320102
2742,2800;0,0320458
2743,2441;0,0320796
2744,2085;0,0321107
2745,1726;0,0321392
2746,1370;0,0321651
2747,1011;0,0321895
2748,0654;0,0322134
2749,0295;0,0322387
2749,9939;0,0322668
2750,9580;0,0322984
2751,9224;0,0323332
2752,8865;0,0323711
2753,8508;0,0324126
2754,8149;0,0324583
2755,7793;0,032509
2756,7434;0,0325638
2757,7078;0,0326199
2758,6719;0,0326737
2759,6362;0,0327219
2760,6003;0,032763
2761,5647;0,0327981
2762,5288;0,0328303
2763,4932;0,0328636
2764,4573;0,0329021
2765,4216;0,0329484
2766,3857;0,0330031
2767,3501;0,0330644
2768,3142;0,0331287
2769,2786;0,0331914
2770,2427;0,0332489
2771,2070;0,0332999
2772,1711;0,0333459
2773,1355;0,0333912
2774,0996;0,0334405
2775,0640;0,0334975
2776,0281;0,0335632
2776,9924;0,0336362
2777,9565;0,0337131
2778,9209;0,0337909
2779,8850;0,0338668
2780,8494;0,0339393
2781,8135;0,0340073
2782,7778;0,0340706
2783,7419;0,0341299
2784,7063;0,0341873
2785,6704;0,0342455
2786,6348;0,0343075
2787,5989;0,0343757
2788,5632;0,0344517
2789,5273;0,0345365
2790,4917;0,0346312
2791,4558;0,0347355
2792,4202;0,0348465
2793,3843;0,034959
2794,3486;0,0350672
2795,3127;0,0351678
2796,2771;0,0352624
2797,2412;0,0353566
2798,2056;0,0354565
2799,1697;0,0355647
2800,1340;0,0356796
2801,0981;0,0357972
2802,0625;0,0359153
2803,0266;0,0360355
2803,9910;0,0361621
2804,9551;0,0362976
2805,9194;0,0364401
2806,8835;0,0365841
2807,8479;0,0367237
2808,8120;0,0368575
2809,7764;0,0369892
2810,7405;0,0371249
2811,7048;0,0372694
2812,6689;0,0374243
2813,6333;0,0375887
2814,5974;0,0377623
2815,5618;0,0379464
2816,5259;0,0381432
2817,4902;0,0383528
2818,4543;0,0385715
2819,4187;0,0387933
2820,3828;0,0390136
2821,3472;0,0392318
2822,3113;0,0394526
2823,2756;0,0396826
2824,2397;0,0399274
2825,2041;0,0401901
2826,1682;0,0404717
2827,1326;0,0407728
2828,0967;0,0410944
2829,0610;0,0414369
2830,0251;0,0417982
2830,9895;0,0421737
2831,9536;0,0425582
2832,9180;0,0429484
2833,8821;0,0433455
2834,8464;0,0437553
2835,8105;0,0441857
2836,7749;0,0446449
2837,7390;0,0451399
2838,7034;0,0456768
2839,6675;0,0462627
2840,6318;0,0469073
2841,5959;0,0476228
2842,5603;0,0484206
2843,5244;0,0493058
2844,4888;0,0502701
2845,4529;0,051285
2846,4172;0,0523005
2847,3813;0,05325
2848,3457;0,0540636
2849,3098;0,0546836
2850,2742;0,0550793
2851,2383;0,0552526
2852,2026;0,0552339
2853,1667;0,0550701
2854,1311;0,0548106
2855,0952;0,0544966
2856,0596;0,0541579
2857,0237;0,0538155
2857,9880;0,0534876
2858,9521;0,0531932
2859,9165;0,0529517
2860,8806;0,0527788
2861,8450;0,0526816
2862,8091;0,0526563
2863,7734;0,0526914
2864,7375;0,0527728
2865,7019;0,0528891
2866,6660;0,0530328
2867,6304;0,0531973
2868,5945;0,0533732
2869,5588;0,0535464
2870,5229;0,0537018
2871,4873;0,0538282
2872,4514;0,0539232
2873,4158;0,0539936
2874,3799;0,0540513
2875,3442;0,0541076
2876,3083;0,0541695
2877,2727;0,0542391
2878,2368;0,0543164
2879,2012;0,0544014
2880,1653;0,0544953
2881,1296;0,0546
2882,0938;0,0547174
2883,0581;0,05485
2884,0222;0,0550002
2884,9866;0,0551703
2885,9507;0,0553603
2886,9150;0,0555666
2887,8792;0,0557819
2888,8435;0,055998
2889,8076;0,0562085
2890,7720;0,0564103
2891,7361;0,0566045
2892,7004;0,0567938
2893,6646;0,0569817
2894,6289;0,0571711
2895,5930;0,0573649
2896,5574;0,0575657
2897,5215;0,0577749
2898,4858;0,0579927
2899,4500;0,0582178
2900,4143;0,0584484
2901,3784;0,0586831
2902,3428;0,0589214
2903,3069;0,0591639
2904,2712;0,0594128
2905,2354;0,0596734
2906,1997;0,0599555
2907,1638;0,0602735
2908,1282;0,0606446
2909,0923;0,0610847
2910,0566;0,0616037
2911,0208;0,0622021
2911,9851;0,0628676
2912,9492;0,0635745
2913,9136;0,0642845
2914,8777;0,0649504
2915,8420;0,0655237
2916,8062;0,0659645
2917,7705;0,0662494
2918,7346;0,0663754
2919,6990;0,0663565
2920,6631;0,0662157
2921,6274;0,065976
2922,5916;0,065655
2923,5559;0,0652635
2924,5200;0,0648081
2925,4844;0,0642947
2926,4485;0,0637315
2927,4128;0,06313
2928,3770;0,062504
2929,3413;0,0618675
2930,3054;0,0612313
2931,2698;0,0606015
2932,2339;0,0599797
2933,1982;0,0593651
2934,1624;0,0587578
2935,1267;0,0581604
2936,0908;0,057576
2937,0552;0,057006
2938,0193;0,0564477
2938,9836;0,0558961
2939,9478;0,0553471
2940,9121;0,0548009
2941,8762;0,054263
2942,8406;0,0537417
2943,8047;0,0532454
2944,7690;0,0527802
2945,7332;0,0523502
2946,6975;0,0519581
2947,6616;0,0516054
2948,6260;0,0512905
2949,5901;0,0510069
2950,5544;0,0507431
2951,5186;0,0504849
2952,4829;0,05022
2953,4470;0,0499415
2954,4114;0,0496497
2955,3755;0,0493506
2956,3398;0,0490519
2957,3040;0,0487592
2958,2683;0,0484731
2959,2324;0,0481893
2960,1968;0,0479005
2961,1609;0,0476006
2962,1252;0,047287
2963,0894;0,046962
2964,0537;0,0466306
2965,0178;0,0462975
2965,9822;0,0459649
2966,9463;0,0456324
2967,9106;0,0452988
2968,8748;0,0449639
2969,8391;0,0446295
2970,8032;0,0442986
2971,7676;0,0439743
2972,7317;0,04366
2973,6960;0,0433592
2974,6602;0,0430756
2975,6245;0,0428124
2976,5886;0,0425695
2977,5530;0,0423439
2978,5171;0,04213
2979,4814;0,0419227
2980,4456;0,0417201
2981,4099;0,0415237
2982,3740;0,0413369
2983,3384;0,0411628
2984,3025;0,0410028
2985,2668;0,0408576
2986,2310;0,0407281
2987,1953;0,0406156
2988,1594;0,0405209
2989,1238;0,0404418
2990,0879;0,0403738
2991,0522;0,0403118
2992,0164;0,0402528
2992,9807;0,0401985
2993,9448;0,0401544
2994,9092;0,040127
2995,8733;0,0401207
2996,8376;0,0401359
2997,8018;0,0401688
2998,7661;0,040213
2999,7302;0,0402615
3000,6946;0,0403088
3001,6587;0,0403516
3002,6230;0,0403897
3003,5872;0,0404247
3004,5515;0,0404583
3005,5156;0,0404906
3006,4800;0,0405184
3007,4441;0,0405374
3008,4084;0,0405441
3009,3726;0,0405398
3010,3369;0,0405307
3011,3010;0,0405258
3012,2654;0,0405328
3013,2295;0,0405537
3014,1938;0,0405849
3015,1580;0,0406202
3016,1223;0,0406552
3017,0864;0,0406909
3018,0508;0,0407329
3019,0149;0,0407878
3019,9792;0,0408591
3020,9434;0,0409444
3021,9077;0,0410369
3022,8718;0,041129
3023,8362;0,0412166
3024,8003;0,0413006
3025,7646;0,0413855
3026,7288;0,0414752
3027,6931;0,0415699
3028,6572;0,0416651
3029,6216;0,0417549
3030,5857;0,0418367
3031,5500;0,0419138
3032,5142;0,0419947
3033,4785;0,0420887
3034,4426;0,0422008
3035,4070;0,0423291
3036,3711;0,0424666
3037,3354;0,042605
3038,2996;0,0427383
3039,2639;0,042865
3040,2280;0,0429878
3041,1924;0,043111
3042,1565;0,0432391
3043,1208;0,0433743
3044,0850;0,0435153
3045,0493;0,0436577
3046,0134;0,0437955
3046,9778;0,0439248
3047,9419;0,0440469
3048,9063;0,0441693
3049,8704;0,0443023
3050,8347;0,0444538
3051,7988;0,0446241
3052,7632;0,0448052
3053,7273;0,0449845
3054,6917;0,045151
3055,6558;0,0453008
3056,6201;0,0454383
3057,5842;0,0455735
3058,5486;0,0457167
3059,5127;0,0458736
3060,4771;0,0460431
3061,4412;0,0462185
3062,4055;0,0463906
3063,3696;0,0465515
3064,3340;0,0466991
3065,2981;0,046838
3066,2625;0,046977
3067,2266;0,0471247
3068,1909;0,0472841
3069,1550;0,0474514
3070,1194;0,0476184
3071,0835;0,0477774
3072,0479;0,0479259
3073,0120;0,0480668
3073,9763;0,0482063
3074,9404;0,0483497
3075,9048;0,0484983
3076,8689;0,0486498
3077,8333;0,0487999
3078,7974;0,0489453
3079,7617;0,0490846
3080,7258;0,0492199
3081,6902;0,0493556
3082,6543;0,0494971
3083,6187;0,0496484
3084,5828;0,0498096
3085,5471;0,0499755
3086,5112;0,0501388
3087,4756;0,050294
3088,4397;0,0504418
3089,4041;0,0505894
3090,3682;0,0507453
3091,3325;0,0509128
3092,2966;0,051087
3093,2610;0,0512571
3094,2251;0,0514142
3095,1895;0,0515563
3096,1536;0,0516895
3097,1179;0,0518224
3098,0820;0,0519596
3099,0464;0,0521008
3100,0105;0,0522441
3100,9749;0,0523913
3101,9390;0,0525488
3102,9033;0,0527235
3103,8674;0,0529153
3104,8318;0,053116
3105,7959;0,0533128
3106,7603;0,0534969
3107,7244;0,0536694
3108,6887;0,0538403
3109,6528;0,0540208
3110,6172;0,0542158
3111,5813;0,0544211
3112,5457;0,054627
3113,5098;0,0548251
3114,4741;0,0550125
3115,4382;0,0551914
3116,4026;0,0553653
3117,3667;0,0555361
3118,3311;0,055704
3119,2952;0,0558707
3120,2595;0,0560404
3121,2236;0,0562192
3122,1880;0,0564118
3123,1521;0,0566184
3124,1165;0,0568352
3125,0806;0,0570571
3126,0449;0,05728
3127,0090;0,0575015
3127,9734;0,0577198
3128,9375;0,0579318
3129,9019;0,058134
3130,8660;0,0583254
3131,8303;0,05851
3132,7944;0,0586967
3133,7588;0,0588948
3134,7229;0,0591092
3135,6873;0,0593379
3136,6514;0,0595735
3137,6157;0,0598086
3138,5798;0,0600389
3139,5442;0,0602648
3140,5083;0,0604882
3141,4727;0,0607099
3142,4368;0,0609284
3143,4011;0,0611414
3144,3652;0,0613488
3145,3296;0,0615545
3146,2937;0,0617646
3147,2581;0,061985
3148,2222;0,0622184
3149,1865;0,0624629
3150,1506;0,0627133
3151,1150;0,0629634
3152,0791;0,0632077
3153,0435;0,0634434
3154,0076;0,0636714
3154,9719;0,0638958
3155,9360;0,0641233
3156,9004;0,06436
3157,8645;0,064609
3158,8289;0,064868
3159,7930;0,0651296
3160,7573;0,0653839
3161,7214;0,0656236
3162,6858;0,0658475
3163,6499;0,0660619
3164,6143;0,0662773
3165,5784;0,0665032
3166,5427;0,0667433
3167,5068;0,0669941
3168,4712;0,0672486
3169,4353;0,0674261
3170,3997;0,0676781
3171,3638;0,0679329
3172,3281;0,0681929
3173,2922;0,0684543
3174,2566;0,0687085
3175,2207;0,068947
3176,1851;0,0691693
3177,1492;0,0693851
3178,1135;0,0696101
3179,0776;0,0698555
3180,0420;0,0701204
3181,0061;0,0703918
3181,9705;0,0706532
3182,9346;0,070895
3183,8989;0,0711209
3184,8630;0,0713444
3185,8274;0,0715794
3186,7915;0,0718317
3187,7559;0,0720966
3188,7200;0,0723645
3189,6843;0,0726277
3190,6484;0,0728846
3191,6128;0,0731371
3192,5769;0,0733853
3193,5413;0,0736254
3194,5054;0,0738511
3195,4697;0,0740596
3196,4338;0,0742555
3197,3982;0,0744504
3198,3623;0,074658
3199,3267;0,0748869
3200,2908;0,0751376
3201,2551;0,0754026
3202,2192;0,0756707
3203,1836;0,0759307
3204,1477;0,0761756
3205,1121;0,0764035
3206,0762;0,0766181
3207,0405;0,0768268
3208,0046;0,0770366
3208,9690;0,0772512
3209,9331;0,0774691
3210,8975;0,0776869
3211,8616;0,0779031
3212,8259;0,0781214
3213,7900;0,0783488
3214,7544;0,0785893
3215,7185;0,0788396
3216,6829;0,0790887
3217,6470;0,0793246
3218,6113;0,0795433
3219,5754;0,079752
3220,5398;0,0799659
3221,5039;0,0801973
3222,4683;0,0804474
3223,4324;0,0807051
3224,3967;0,0809545
3225,3608;0,0811845
3226,3252;0,0813955
3227,2893;0,0815977
3228,2537;0,0818046
3229,2178;0,0820239
3230,1821;0,0822552
3231,1462;0,0824907
3232,1106;0,0827214
3233,0747;0,082942
3234,0391;0,0831524
3235,0032;0,0833568
3235,9675;0,0835611
3236,9316;0,0837709
3237,8960;0,0839899
3238,8601;0,0842192
3239,8245;0,084457
3240,7886;0,0846985
3241,7529;0,0849368
3242,7170;0,0851661
3243,6814;0,0853841
3244,6455;0,0855952
3245,6099;0,0858091
3246,5740;0,0860373
3247,5383;0,0862873
3248,5024;0,0865589
3249,4668;0,0868447
3250,4309;0,0871324
3251,3953;0,0874104
3252,3594;0,0876703
3253,3237;0,0879095
3254,2878;0,0881309
3255,2522;0,0883419
3256,2163;0,0885525
3257,1807;0,0887736
3258,1448;0,0890129
3259,1091;0,0892732
3260,0732;0,0895502
3261,0376;0,0898343
3262,0017;0,0901149
3262,9661;0,0903844
3263,9302;0,0906413
3264,8945;0,0908884
3265,8586;0,0911296
3266,8230;0,0913663
3267,7871;0,0915958
3268,7515;0,0918131
3269,7156;0,0920136
3270,6799;0,0921956
3271,6440;0,0923608
3272,6084;0,0925125
3273,5725;0,0926535
3274,5369;0,0927847
3275,5010;0,0929056
3276,4653;0,0930174
3277,4294;0,0931239
3278,3938;0,0932322
3279,3579;0,0933499
3280,3223;0,0934808
3281,2864;0,0936222
3282,2507;0,0937649
3283,2148;0,0938961
3284,1792;0,0940048
3285,1433;0,0940862
3286,1077;0,0941423
3287,0718;0,0941805
3288,0361;0,0942103
3289,0002;0,0942399
3289,9646;0,0942743
3290,9287;0,0943144
3291,8931;0,0943573
3292,8572;0,0943978
3293,8215;0,0944315
3294,7856;0,0944575
3295,7500;0,0944791
3296,7141;0,0945024
3297,6785;0,0945324
3298,6426;0,0945694
3299,6069;0,0946085
3300,5710;0,0946421
3301,5354;0,0946646
3302,4995;0,094675
3303,4639;0,0946763
3304,4280;0,0946729
3305,3923;0,0946674
3306,3564;0,0946601
3307,3208;0,0946509
3308,2849;0,0946417
3309,2493;0,0946367
3310,2134;0,0946408
3311,1777;0,0946574
3312,1418;0,0946871
3313,1062;0,0947291
3314,0703;0,0947833
3315,0347;0,094851
3315,9988;0,0949347
3316,9631;0,095035
3317,9272;0,0951492
3318,8916;0,0952705
3319,8557;0,0953918
3320,8201;0,0955081
3321,7842;0,0956196
3322,7485;0,0957296
3323,7126;0,0958413
3324,6770;0,0959529
3325,6411;0,096058
3326,6055;0,0961484
3327,5696;0,0962209
3328,5339;0,0962803
3329,4980;0,0963381
3330,4624;0,096405
3331,4265;0,0964824
3332,3909;0,0965591
3333,3550;0,0966153
3334,3193;0,0966323
3335,2834;0,0966024
3336,2478;0,0965325
3337,2119;0,0964401
3338,1763;0,0963429
3339,1404;0,0962506
3340,1047;0,096162
3341,0688;0,0960696
3342,0332;0,0959659
3342,9973;0,0958487
3343,9617;0,0957212
3344,9258;0,0955882
3345,8901;0,0954519
3346,8542;0,0953094
3347,8186;0,0951541
3348,7827;0,0949794
3349,7471;0,0947832
3350,7112;0,0945697
3351,6755;0,0943488
3352,6396;0,094132
3353,6040;0,0939277
3354,5681;0,0937379
3355,5325;0,0935581
3356,4966;0,0933803
3357,4609;0,0931986
3358,4250;0,0930123
3359,3894;0,0928269
3360,3535;0,0926506
3361,3179;0,0924892
3362,2820;0,0923412
3363,2463;0,0921974
3364,2104;0,0920439
3365,1748;0,091867
3366,1389;0,0916593
3367,1033;0,0914217
3368,0674;0,0911635
3369,0317;0,0908984
3369,9958;0,0906409
3370,9602;0,0904024
3371,9243;0,0901892
3372,8887;0,0900016
3373,8528;0,0898344
3374,8171;0,0896776
3375,7813;0,0895193
3376,7456;0,0893491
3377,7097;0,0891608
3378,6741;0,0889546
3379,6382;0,0887352
3380,6025;0,08851
3381,5667;0,0882853
3382,5310;0,088066
3383,4951;0,0878569
3384,4595;0,0876637
3385,4236;0,087492
3386,3879;0,087344
3387,3521;0,087214
3388,3164;0,0870883
3389,2805;0,0869489
3390,2449;0,0867812
3391,2090;0,0865806
3392,1733;0,0863541
3393,1375;0,0861172
3394,1018;0,0858861
3395,0659;0,0856723
3396,0303;0,0854798
3396,9944;0,0853054
3397,9587;0,0851392
3398,9229;0,084967
3399,8872;0,0847741
3400,8513;0,084552
3401,8157;0,084303
3402,7798;0,0840403
3403,7441;0,0837811
3404,7083;0,0835383
3405,6726;0,0833148
3406,6367;0,0831051
3407,6011;0,0829011
3408,5652;0,0826961
3409,5295;0,0824856
3410,4937;0,0822639
3411,4580;0,0820244
3412,4221;0,081764
3413,3865;0,0814882
3414,3506;0,0812112
3415,3149;0,0809475
3416,2791;0,0807013
3417,2434;0,0804615
3418,2075;0,0802064
3419,1719;0,0799178
3420,1360;0,0795944
3421,1003;0,079255
3422,0645;0,0789272
3423,0288;0,0786315
3423,9929;0,0783703
3424,9573;0,0781293
3425,9214;0,077888
3426,8857;0,0776307
3427,8499;0,077353
3428,8142;0,0770618
3429,7783;0,076769
3430,7427;0,0764834
3431,7068;0,0762062
3432,6711;0,0759317
3433,6353;0,0756528
3434,5996;0,0753661
3435,5637;0,0750731
3436,5281;0,0747782
3437,4922;0,0744848
3438,4565;0,0741951
3439,4207;0,0739117
3440,3850;0,0736394
3441,3491;0,0733809
3442,3135;0,0731303
3443,2776;0,0728685
3444,2419;0,0725689
3445,2061;0,0722132
3446,1704;0,0718079
3447,1345;0,0713878
3448,0989;0,0709999
3449,0630;0,0706753
3450,0273;0,0704128
3450,9915;0,0701844
3451,9558;0,0699555
3452,9199;0,0697042
3453,8843;0,069429
3454,8484;0,0691424
3455,8127;0,0688567
3456,7769;0,0685742
3457,7412;0,0682868
3458,7053;0,0679847
3459,6697;0,0676643
3460,6338;0,0673314
3461,5981;0,0669975
3462,5623;0,0666728
3463,5266;0,0663615
3464,4907;0,0660614
3465,4551;0,0657674
3466,4192;0,0654756
3467,3835;0,0651853
3468,3477;0,064897
3469,3120;0,0646084
3470,2761;0,0643124
3471,2405;0,0640005
3472,2046;0,0636707
3473,1689;0,063335
3474,1331;0,0630187
3475,0974;0,0627468
3476,0615;0,0625261
3477,0259;0,0623343
3477,9900;0,0621278
3478,9543;0,0618632
3479,9185;0,0615231
3480,8828;0,0611294
3481,8469;0,060732
3482,8113;0,0603783
3483,7754;0,0600848
3484,7397;0,0598312
3485,7039;0,0595785
3486,6682;0,0592954
3487,6323;0,0589769
3488,5967;0,0586448
3489,5608;0,0583302
3490,5251;0,0580513
3491,4893;0,0578017
3492,4536;0,0575551
3493,4177;0,0572848
3494,3821;0,0569848
3495,3462;0,0566794
3496,3105;0,056411
3497,2747;0,0562105
3498,2390;0,0560694
3499,2031;0,0559352
3500,1675;0,0557343
3501,1316;0,0554131
3502,0959;0,0549768
3503,0601;0,0544974
3504,0244;0,0540716
3504,9885;0,0537575
3505,9529;0,0535421
3506,9170;0,0533603
3507,8813;0,0531392
3508,8455;0,0528403
3509,8098;0,0524766
3510,7739;0,0520975
3511,7383;0,0517517
3512,7024;0,051458
3513,6667;0,051205
3514,6309;0,0509704
3515,5952;0,0507409
3516,5593;0,050519
3517,5237;0,0503153
3518,4878;0,0501361
3519,4521;0,049976
3520,4163;0,0498187
3521,3806;0,0496443
3522,3447;0,0494357
3523,3091;0,0491807
3524,2732;0,0488707
3525,2375;0,0485007
3526,2017;0,0480736
3527,1660;0,0476093
3528,1301;0,0471482
3529,0945;0,0467409
3530,0586;0,0464249
3531,0229;0,0462051
3531,9871;0,0460512
3532,9514;0,0459118
3533,9155;0,0457354
3534,8799;0,0454905
3535,8440;0,0451794
3536,8083;0,0448393
3537,7725;0,0445277
3538,7368;0,0442956
3539,7009;0,0441647
3540,6653;0,0441161
3541,6294;0,044092
3542,5938;0,0440084
3543,5579;0,043784
3544,5222;0,0433864
3545,4863;0,0428658
3546,4507;0,0423359
3547,4148;0,0419
3548,3792;0,0415892
3549,3433;0,0413588
3550,3076;0,0411306
3551,2717;0,0408455
3552,2361;0,0405007
3553,2002;0,0401492
3554,1646;0,0398577
3555,1287;0,0396548
3556,0930;0,0395145
3557,0571;0,0393807
3558,0215;0,0392101
3558,9856;0,0390072
3559,9500;0,0388256
3560,9141;0,0387313
3561,8784;0,0387481
3562,8425;0,0388233
3563,8069;0,0388269
3564,7710;0,0385888
3565,7354;0,0379937
3566,6995;0,0371145
3567,6638;0,0362236
3568,6279;0,035586
3569,5923;0,0352705
3570,5564;0,0351765
3571,5208;0,0351567
3572,4849;0,035101
3573,4492;0,0349648
3574,4133;0,0347613
3575,3777;0,034531
3576,3418;0,0343044
3577,3062;0,0340854
3578,2703;0,0338674
3579,2346;0,0336626
3580,1987;0,0335128
3581,1631;0,0334654
3582,1272;0,0335321
3583,0916;0,0336604
3584,0557;0,0337327
3585,0200;0,0335979
3585,9841;0,0331547
3586,9485;0,0324716
3587,9126;0,0318041
3588,8770;0,0314052
3589,8411;0,0313336
3590,8054;0,0314656
3591,7695;0,0316155
3592,7339;0,0316328
3593,6980;0,0314572
3594,6624;0,0311354
3595,6265;0,0307758
3596,5908;0,0304568
3597,5549;0,0301738
3598,5193;0,0298731
3599,4834;0,0295272
3600,4478;0,0291822
3601,4119;0,0289288
3602,3762;0,0288249
3603,3403;0,0288432
3604,3047;0,0288822
3605,2688;0,0288159
3606,2332;0,0285522
3607,1973;0,0280834
3608,1616;0,0274974
3609,1257;0,0269219
3610,0901;0,0264466
3611,0542;0,0260974
3612,0186;0,0258671
3612,9827;0,0257456
3613,9470;0,0257172
3614,9111;0,0257372
3615,8755;0,0257223
3616,8396;0,0255742
3617,8040;0,025239
3618,7681;0,0247763
3619,7324;0,0243676
3620,6965;0,0242061
3621,6609;0,024363
3622,6250;0,0247681
3623,5894;0,0252771
3624,5535;0,0257234
3625,5178;0,0259236
3626,4819;0,0256831
3627,4463;0,0248915
3628,4104;0,0237235
3629,3748;0,0226442
3630,3389;0,0220112
3631,3032;0,0218078
3632,2673;0,0218065
3633,2317;0,0217991
3634,1958;0,0216857
3635,1602;0,0214692
3636,1243;0,0212082
3637,0886;0,0209587
3638,0527;0,0207403
3639,0171;0,0205457
3639,9812;0,020375
3640,9456;0,0202582
3641,9097;0,0202425
3642,8740;0,0203544
3643,8381;0,0205649
3644,8025;0,0207683
3645,7666;0,0207683
3646,7310;0,0202893
3647,6951;0,0191338
3648,6594;0,01755
3649,6235;0,0162661
3650,5879;0,0157759
3651,5520;0,0159528
3652,5164;0,0164056
3653,4805;0,016805
3654,4448;0,0169653
3655,4089;0,0168536
3656,3733;0,0165837
3657,3374;0,0163385
3658,3018;0,0162336
3659,2659;0,0162538
3660,2302;0,0163129
3661,1943;0,0163478
3662,1587;0,0163664
3663,1228;0,0164248
3664,0872;0,0165618
3665,0513;0,016745
3666,0156;0,0168666
3666,9797;0,01679
3667,9441;0,016439
3668,9082;0,0159051
3669,8726;0,015445
3670,8367;0,0152732
3671,8010;0,0153697
3672,7651;0,0155221
3673,7295;0,0154868
3674,6936;0,0151482
3675,6580;0,0146391
3676,6221;0,0142574
3677,5864;0,0141829
3678,5505;0,0143644
3679,5149;0,0146579
3680,4790;0,0149633
3681,4434;0,0152568
3682,4075;0,0155589
3683,3718;0,0158833
3684,3359;0,0161997
3685,3003;0,0164264
3686,2644;0,0164497
3687,2288;0,0161773
3688,1929;0,0156364
3689,1572;0,01505
3690,1213;0,0147143
3691,0857;0,0147492
3692,0498;0,0150576
3693,0142;0,0154793
3693,9783;0,0159045
3694,9426;0,0162887
3695,9067;0,0166223
3696,8711;0,0168965
3697,8352;0,0170838
3698,7996;0,0171419
3699,7637;0,0170423
3700,7280;0,016813
3701,6921;0,0165558
3702,6565;0,0164026
3703,6206;0,0164333
3704,5850;0,0166336
3705,5491;0,0169185
3706,5134;0,0171707
3707,4775;0,0172589
3708,4419;0,0170506
3709,4060;0,0164659
3710,3704;0,015593
3711,3345;0,0147342
3712,2988;0,0142128
3713,2629;0,0141361
3714,2273;0,0144073
3715,1914;0,014871
3716,1558;0,0154016
3717,1199;0,0159216
3718,0842;0,0163939
3719,0483;0,0168103
3720,0127;0,0171776
3720,9768;0,0174991
3721,9412;0,01776
3722,9053;0,0179309
3723,8696;0,0179922
3724,8337;0,0179618
3725,7981;0,0178972
3726,7622;0,017864
3727,7266;0,0179005
3728,6907;0,0180092
3729,6550;0,0181682
3730,6191;0,0183399
3731,5835;0,0184585
3732,5476;0,0184081
3733,5120;0,0180435
3734,4761;0,0173164
3735,4404;0,01642
3736,4045;0,0157008
3737,3689;0,0153875
3738,3330;0,0154776
3739,2974;0,0158194
3740,2615;0,0162077
3741,2258;0,0164269
3742,1899;0,0162886
3743,1543;0,0157378
3744,1184;0,0149859
3745,0828;0,0144175
3746,0469;0,0142409
3747,0112;0,0143321
3747,9753;0,0143878
3748,9397;0,0141227
3749,9038;0,0134578
3750,8682;0,0126699
3751,8323;0,0122134
3752,7966;0,0122852
3753,7607;0,012733
3754,7251;0,0132901
3755,6892;0,0137377
3756,6536;0,013948
3757,6177;0,0139042
3758,5820;0,0137122
3759,5461;0,0135443
3760,5105;0,0135234
3761,4746;0,0136592
3762,4390;0,01388
3763,4031;0,0140955
3764,3674;0,014237
3765,3315;0,0142694
3766,2959;0,0141868
3767,2600;0,0140012
3768,2244;0,0137396
3769,1885;0,0134549
3770,1528;0,0132294
3771,1169;0,0131478
3772,0813;0,01325
3773,0454;0,0135066
3774,0098;0,0138335
3774,9739;0,0141247
3775,9382;0,0142834
3776,9023;0,0142561
3777,8667;0,0140668
3778,8308;0,0138199
3779,7952;0,013638
3780,7593;0,0135806
3781,7236;0,013623
3782,6877;0,0136988
3783,6521;0,0137499
3784,6162;0,0137535
3785,5806;0,013723
3786,5447;0,0136923
3787,5090;0,0136973
3788,4731;0,0137621
3789,4375;0,0138918
3790,4016;0,0140687
3791,3660;0,0142557
3792,3301;0,0144083
3793,2944;0,0144952
3794,2585;0,0145182
3795,2229;0,0145108
3796,1870;0,0145055
3797,1514;0,01449
3798,1155;0,0143936
3799,0798;0,0141338
3800,0439;0,013709
3801,0083;0,0132611
3801,9724;0,0129957
3802,9368;0,0130013
3803,9009;0,0131797
3804,8652;0,0133434
3805,8293;0,0133557
3806,7937;0,0132285
3807,7578;0,0131191
3808,7222;0,013199
3809,6863;0,0135126
3810,6506;0,0139658
3811,6147;0,0144034
3812,5791;0,014679
3813,5432;0,0147099
3814,5076;0,0145273
3815,4717;0,0142752
3816,4360;0,0140987
3817,4001;0,0140125
3818,3645;0,013902
3819,3286;0,0136517
3820,2930;0,0132811
3821,2571;0,012964
3822,2214;0,0128786
3823,1855;0,0130547
3824,1499;0,0133871
3825,1140;0,0137405
3826,0784;0,0140208
3827,0425;0,0141928
3828,0068;0,0142679
3828,9709;0,0142808
3829,9353;0,0142666
3830,8994;0,0142531
3831,8638;0,0142613
3832,8279;0,0143025
3833,7922;0,0143671
3834,7563;0,014416
3835,7207;0,0143914
3836,6848;0,0142539
3837,6492;0,0140278
3838,6133;0,0138013
3839,5776;0,0136599
3840,5417;0,0136182
3841,5061;0,013628
3842,4702;0,013638
3843,4346;0,0136438
3844,3987;0,0136961
3845,3630;0,0138679
3846,3271;0,0142084
3847,2915;0,0147145
3848,2556;0,015325
3849,2200;0,0159154
3850,1841;0,0162783
3851,1484;0,0161271
3852,1125;0,0152614
3853,0769;0,0139453
3854,0410;0,0128908
3855,0054;0,0125344
3855,9695;0,0127657
3856,9338;0,0132999
3857,8979;0,0139203
3858,8623;0,0144915
3859,8264;0,0149181
3860,7908;0,0151302
3861,7549;0,0151076
3862,7192;0,0149179
3863,6833;0,0147057
3864,6477;0,0146049
3865,6118;0,0146552
3866,5762;0,0147996
3867,5403;0,0149352
3868,5046;0,0149649
3869,4688;0,0148371
3870,4331;0,0145726
3871,3972;0,0142598
3872,3616;0,0140117
3873,3257;0,0139134
3874,2900;0,0139941
3875,2542;0,0142266
3876,2185;0,0145432
3877,1826;0,0148571
3878,1470;0,015091
3879,1111;0,0152078
3880,0754;0,0152252
3881,0396;0,0151892
3882,0039;0,0151218
3882,9680;0,0150034
3883,9324;0,0148153
3884,8965;0,0145983
3885,8608;0,0144501
3886,8250;0,0144501
3887,7893;0,0145857
3888,7534;0,0147502
3889,7178;0,0148084
3890,6819;0,0146919
3891,6462;0,0144723
3892,6104;0,0143255
3893,5747;0,0143919
3894,5388;0,0146812
3895,5032;0,0151015
3896,4673;0,0155304
3897,4316;0,0158652
3898,3958;0,0160497
3899,3601;0,0160783
3900,3242;0,0159703
3901,2886;0,0157341
3902,2527;0,0153705
3903,2170;0,0149183
3904,1812;0,0144753
3905,1455;0,0141501
3906,1096;0,0139948
3907,0740;0,0139899
3908,0381;0,0140791
3909,0024;0,0142105
3909,9666;0,0143599
3910,9309;0,0145314
3911,8950;0,0147382
3912,8594;0,0149758
3913,8235;0,015204
3914,7878;0,0153545
3915,7520;0,0153651
3916,7163;0,0152295
3917,6804;0,0150208
3918,6448;0,0148515
3919,6089;0,0147972
3920,5732;0,0148523
3921,5374;0,0149452
3922,5017;0,0149901
3923,4658;0,0149432
3924,4302;0,014836
3925,3943;0,0147553
3926,3586;0,0147794
3927,3228;0,0149235
3928,2871;0,0151313
3929,2512;0,015304
3930,2156;0,0153495
3931,1797;0,0152326
3932,1440;0,0149983
3933,1082;0,0147426
3934,0725;0,0145534
3935,0366;0,0144749
3936,0010;0,0145094
3936,9651;0,0146343
3937,9294;0,0148137
3938,8936;0,015003
3939,8579;0,0151557
3940,8220;0,0152386
3941,7864;0,0152508
3942,7505;0,0152286
3943,7148;0,0152213
3944,6790;0,0152549
3945,6433;0,0153102
3946,6074;0,015334
3947,5718;0,0152728
3948,5359;0,0151119
3949,5002;0,0148933
3950,4644;0,0146926
3951,4287;0,0145724
3952,3928;0,0145505
3953,3572;0,0146032
3954,3213;0,0146896
3955,2856;0,0147762
3956,2498;0,0148477
3957,2141;0,0149017
3958,1782;0,0149371
3959,1426;0,0149466
3960,1067;0,0149214
3961,0710;0,0148617
3962,0352;0,0147834
3962,9995;0,0147128
3963,9636;0,0146732
3964,9280;0,0146733
3965,8921;0,0147047
3966,8564;0,0147491
3967,8206;0,014789
3968,7849;0,0148149
3969,7490;0,0148267
3970,7134;0,0148292
3971,6775;0,0148259
3972,6418;0,0148163
3973,6060;0,0147974
3974,5703;0,0147674
3975,5344;0,0147285
3976,4988;0,014686
3977,4629;0,0146465
3978,4272;0,0146146
3979,3914;0,0145923
3980,3557;0,0145798
3981,3198;0,0145772
3982,2842;0,0145849
3983,2483;0,0146037
3984,2126;0,014633
3985,1768;0,01467
3986,1411;0,0147097
3987,1052;0,014746
3988,0696;0,0147736
3989,0337;0,0147897
3989,9980;0,014794
3990,9622;0,0147877
3991,9265;0,0147715
3992,8906;0,0147455
3993,8550;0,0147111
3994,8191;0,0146723
3995,7834;0,0146371
3996,7476;0,0146148
3997,7119;0,0146125
3998,6760;0,0146314
3999,6404;0,0146665
4000,6045;0,0146546

##### Extended Information
[Comments]
Sample name
Comment
Username
Division
Organization;UNIVERSIDAD INDUSTRIAL DE SANTANDER

[Detailed Information]
Creation date;14/03/2025 9:25 a.m.

Data array type;Linear data array
Horizontal axis;Wavenumber [cm-1]
Vertical axis;Abs
Start;399,193 cm-1
End;4000,6 cm-1
Data interval;0,964233 cm-1
Data points;3736    

[Measurement Information]
Model name;FT/IR-4X1typeA
Serial No.;A035162111

Accessory;ATR PRO 4X
Accessory S/N;A021162126
Incident angle;45 deg

Measurement date;14/03/2025 9:24 a.m.

Light source;Standard
Detector;TGS
Accumulation;40
Resolution;4 cm-1
Zero filling;On
Apodization;Cosine
Gain;Auto (8)
Aperture;Auto (7 mm)
Scan speed;Auto (2 mm/sec)
Filter;Auto (12800 Hz)

