TITLE;
DATA TYPE;INFRARED SPECTRUM
ORIGIN;JASCO
OWNER;
DATE;25/03/14
TIME;08:50:24
SPECTROMETER/DATA SYSTEM;
LOCALE;9226
RESOLUTION;
DELTAX;0,964233
XUNITS;1/CM
YUNITS;ABSORBANCE
FIRSTX;  399,1927
LASTX; 4000,6047
NPOINTS;    3736
FIRSTY;     0,19494
MAXY;     0,23759
MINY;     0,01006
XYDATA
399,1927;0,194941
400,1569;0,193031
401,1211;0,192242
402,0854;0,192468
403,0496;0,193297
404,0138;0,19428
404,9781;0,195059
405,9423;0,195432
406,9065;0,195374
407,8708;0,194986
408,8350;0,194433
409,7992;0,193911
410,7635;0,193661
411,7277;0,193931
412,6919;0,194862
413,6562;0,196375
414,6204;0,198164
415,5846;0,199757
416,5489;0,20059
417,5131;0,200229
418,4773;0,198883
419,4416;0,197676
420,4058;0,197748
421,3700;0,199175
422,3343;0,201207
423,2985;0,202996
424,2627;0,203966
425,2270;0,203939
426,1912;0,203144
427,1554;0,202058
428,1197;0,201133
429,0839;0,200583
430,0481;0,200363
431,0124;0,200269
431,9766;0,200079
432,9408;0,199665
433,9051;0,199028
434,8693;0,19828
435,8335;0,197571
436,7978;0,197009
437,7620;0,196604
438,7262;0,196264
439,6905;0,195857
440,6547;0,195283
441,6189;0,194547
442,5832;0,193775
443,5474;0,193163
444,5116;0,192856
445,4759;0,192846
446,4401;0,192973
447,4043;0,193019
448,3686;0,192807
449,3328;0,192278
450,2970;0,191508
451,2613;0,190673
452,2255;0,189952
453,1897;0,189441
454,1540;0,189117
455,1182;0,188868
456,0824;0,188569
457,0467;0,188143
458,0109;0,187605
458,9751;0,187029
459,9394;0,186475
460,9036;0,185958
461,8678;0,185473
462,8321;0,185043
463,7963;0,18473
464,7605;0,184601
465,7248;0,184679
466,6890;0,184907
467,6532;0,185158
468,6175;0,185295
469,5817;0,185212
470,5459;0,184867
471,5102;0,1843
472,4744;0,183623
473,4386;0,182981
474,4029;0,182491
475,3671;0,182207
476,3313;0,182139
477,2956;0,182279
478,2598;0,182616
479,2240;0,183123
480,1883;0,183736
481,1525;0,184368
482,1167;0,184933
483,0810;0,185385
484,0452;0,185749
485,0094;0,186104
485,9737;0,186533
486,9379;0,187069
487,9021;0,187683
488,8664;0,188298
489,8306;0,188828
490,7948;0,189208
491,7591;0,189421
492,7233;0,189509
493,6875;0,189568
494,6518;0,189723
495,6160;0,190078
496,5802;0,190681
497,5445;0,191502
498,5087;0,192431
499,4729;0,193305
500,4372;0,193965
501,4014;0,194318
502,3656;0,194389
503,3299;0,194312
504,2941;0,194262
505,2583;0,194372
506,2226;0,194696
507,1868;0,195213
508,1510;0,195856
509,1153;0,196542
510,0795;0,197202
511,0437;0,197789
512,0080;0,198291
512,9722;0,198722
513,9365;0,199118
514,9007;0,199521
515,8649;0,199951
516,8292;0,200388
517,7934;0,200757
518,7576;0,200967
519,7219;0,200973
520,6861;0,20081
521,6503;0,200585
522,6146;0,200422
523,5788;0,200409
524,5430;0,200554
525,5073;0,200768
526,4715;0,200899
527,4357;0,200825
528,4000;0,200524
529,3642;0,200077
530,3284;0,199613
531,2927;0,199239
532,2569;0,199
533,2211;0,198868
534,1854;0,198776
535,1496;0,198664
536,1138;0,198517
537,0781;0,19837
538,0423;0,198283
539,0065;0,198309
539,9708;0,198468
540,9350;0,198742
541,8992;0,199085
542,8635;0,199445
543,8277;0,199776
544,7919;0,200044
545,7562;0,20023
546,7204;0,200332
547,6846;0,200369
548,6489;0,20038
549,6131;0,200426
550,5773;0,200577
551,5416;0,200894
552,5058;0,201407
553,4700;0,202087
554,4343;0,202843
555,3985;0,203537
556,3627;0,204012
557,3270;0,204141
558,2912;0,203859
559,2554;0,203183
560,2197;0,202204
561,1839;0,201067
562,1481;0,19993
563,1124;0,198916
564,0766;0,198081
565,0408;0,197417
566,0051;0,196869
566,9693;0,196388
567,9335;0,195954
568,8978;0,195587
569,8620;0,195312
570,8262;0,195133
571,7905;0,195018
572,7547;0,194918
573,7189;0,194795
574,6832;0,194642
575,6474;0,194477
576,6116;0,194323
577,5759;0,194192
578,5401;0,194081
579,5043;0,193981
580,4686;0,193895
581,4328;0,193829
582,3970;0,193779
583,3613;0,193725
584,3255;0,193633
585,2897;0,193483
586,2540;0,193287
587,2182;0,193091
588,1824;0,192947
589,1467;0,192883
590,1109;0,192878
591,0751;0,192868
592,0394;0,192779
593,0036;0,192562
593,9678;0,192219
594,9321;0,191792
595,8963;0,191328
596,8605;0,190859
597,8248;0,190385
598,7890;0,189886
599,7532;0,189348
600,7175;0,188775
601,6817;0,188201
602,6459;0,187672
603,6102;0,187227
604,5744;0,186872
605,5386;0,186574
606,5029;0,186267
607,4671;0,185878
608,4313;0,185355
609,3956;0,184697
610,3598;0,183956
611,3240;0,183228
612,2883;0,182614
613,2525;0,182169
614,2167;0,181871
615,1810;0,181606
616,1452;0,1812
617,1094;0,18049
618,0737;0,179408
619,0379;0,178022
620,0021;0,176502
620,9664;0,175033
621,9306;0,173746
622,8948;0,172684
623,8591;0,171818
624,8233;0,171067
625,7875;0,170399
626,7518;0,169782
627,7160;0,169214
628,6802;0,168701
629,6445;0,16824
630,6087;0,167801
631,5729;0,167351
632,5372;0,166866
633,5014;0,166355
634,4656;0,165857
635,4299;0,165421
636,3941;0,165079
637,3583;0,164827
638,3226;0,164627
639,2868;0,164424
640,2510;0,164176
641,2153;0,163865
642,1795;0,16351
643,1437;0,163149
644,1080;0,162826
645,0722;0,162564
646,0364;0,162358
647,0007;0,162178
647,9649;0,161992
648,9291;0,161797
649,8934;0,16163
650,8576;0,161558
651,8218;0,161637
652,7861;0,161879
653,7503;0,16224
654,7145;0,162638
655,6788;0,162992
656,6430;0,163267
657,6072;0,163476
658,5715;0,163652
659,5357;0,163792
660,4999;0,16384
661,4642;0,163718
662,4284;0,163381
663,3926;0,162847
664,3569;0,162202
665,3211;0,161607
666,2853;0,16128
667,2496;0,16128
668,2138;0,161181
669,1780;0,160386
670,1423;0,158971
671,1065;0,157376
672,0707;0,155766
673,0350;0,154096
673,9992;0,152343
674,9634;0,150563
675,9277;0,148855
676,8919;0,147288
677,8561;0,145864
678,8204;0,144547
679,7846;0,143308
680,7488;0,142151
681,7131;0,141095
682,6773;0,14015
683,6415;0,1393
684,6058;0,138525
685,5700;0,137817
686,5342;0,137188
687,4985;0,136653
688,4627;0,136217
689,4269;0,135861
690,3912;0,135546
691,3554;0,13523
692,3196;0,134879
693,2839;0,134478
694,2481;0,134031
695,2123;0,133554
696,1766;0,133071
697,1408;0,132594
698,1050;0,132121
699,0693;0,131642
700,0335;0,131142
700,9977;0,130613
701,9620;0,130054
702,9262;0,129471
703,8904;0,12886
704,8547;0,128225
705,8189;0,127572
706,7831;0,126916
707,7474;0,126272
708,7116;0,12565
709,6758;0,125043
710,6401;0,124422
711,6043;0,123756
712,5685;0,123029
713,5328;0,122267
714,4970;0,12153
715,4612;0,12055
716,4255;0,120091
717,3897;0,119726
718,3539;0,119319
719,3182;0,118706
720,2824;0,117786
721,2466;0,116583
722,2109;0,115237
723,1751;0,113925
724,1393;0,112766
725,1036;0,111792
726,0678;0,110961
727,0320;0,1102
727,9963;0,109447
728,9605;0,108674
729,9247;0,107881
730,8890;0,107087
731,8532;0,106318
732,8174;0,105601
733,7817;0,10496
734,7459;0,104409
735,7101;0,103942
736,6744;0,103532
737,6386;0,103138
738,6028;0,102719
739,5671;0,102255
740,5313;0,101749
741,4955;0,101227
742,4598;0,10072
743,4240;0,100247
744,3882;0,0998081
745,3525;0,0993896
746,3167;0,0989736
747,2809;0,0985496
748,2452;0,0981173
749,2094;0,0976819
750,1736;0,0972472
751,1379;0,096813
752,1021;0,0963775
753,0663;0,0959405
754,0306;0,0955044
754,9948;0,0950708
755,9590;0,0946372
756,9233;0,0941986
757,8875;0,0937542
758,8517;0,0933131
759,8160;0,092894
760,7802;0,092517
761,7444;0,0921915
762,7087;0,0919098
763,6729;0,0916493
764,6371;0,0913839
765,6014;0,0910958
766,5656;0,0907824
767,5298;0,0904555
768,4941;0,0901345
769,4583;0,089838
770,4225;0,0895772
771,3868;0,0893513
772,3510;0,0891468
773,3152;0,0889402
774,2795;0,088707
775,2437;0,0884322
776,2079;0,0881189
777,1722;0,087787
778,1364;0,0874622
779,1006;0,0871581
780,0649;0,0868654
781,0291;0,0865533
781,9933;0,0861856
782,9576;0,0857422
783,9218;0,0852329
784,8860;0,0846949
785,8503;0,0841748
786,8145;0,0837067
787,7787;0,0832984
788,7430;0,0829341
789,7072;0,0825902
790,6714;0,0822538
791,6357;0,081931
792,5999;0,0816403
793,5641;0,0813962
794,5284;0,0811954
795,4926;0,0810149
796,4568;0,0808249
797,4211;0,080607
798,3853;0,0803643
799,3495;0,0801177
800,3138;0,0798904
801,2780;0,0796934
802,2422;0,0795201
803,2065;0,0793539
804,1707;0,0791807
805,1349;0,0789978
806,0992;0,0788125
807,0634;0,0786354
808,0276;0,0784723
808,9919;0,0783211
809,9561;0,0781747
810,9203;0,0780261
811,8846;0,0778735
812,8488;0,0777222
813,8130;0,0775837
814,7773;0,0774711
815,7415;0,0773911
816,7057;0,0773385
817,6700;0,0772952
818,6342;0,0772374
819,5984;0,077149
820,5627;0,0770305
821,5269;0,0769005
822,4911;0,0767837
823,4554;0,0766962
824,4196;0,0766356
825,3839;0,0765832
826,3481;0,0765149
827,3123;0,0764132
828,2766;0,0762729
829,2408;0,0760982
830,2050;0,0758961
831,1693;0,0756727
832,1335;0,0754331
833,0977;0,0751828
834,0620;0,0749282
835,0262;0,074674
835,9904;0,0744219
836,9547;0,0741712
837,9189;0,073921
838,8831;0,0736726
839,8474;0,073428
840,8116;0,0731875
841,7758;0,0729487
842,7401;0,0727094
843,7043;0,0724724
844,6685;0,0722482
845,6328;0,0720504
846,5970;0,0718888
847,5612;0,0717626
848,5255;0,0716603
849,4897;0,0715662
850,4539;0,0714677
851,4182;0,0713596
852,3824;0,0712417
853,3466;0,0711152
854,3109;0,0709809
855,2751;0,0708411
856,2393;0,0707023
857,2036;0,0705739
858,1678;0,0704639
859,1320;0,0703726
860,0963;0,0702921
861,0605;0,0702116
862,0247;0,070127
862,9890;0,0700476
863,9532;0,0699956
864,9174;0,069998
865,8817;0,0700764
866,8459;0,0702387
867,8101;0,0704779
868,7744;0,0707758
869,7386;0,0711088
870,7028;0,0714533
871,6671;0,0717884
872,6313;0,0720985
873,5955;0,072374
874,5598;0,072614
875,5240;0,0728268
876,4882;0,0730296
877,4525;0,0732447
878,4167;0,073495
879,3809;0,0737998
880,3452;0,0741733
881,3094;0,0746252
882,2736;0,0751624
883,2379;0,0757902
884,2021;0,0765104
885,1663;0,0773197
886,1306;0,0782092
887,0948;0,079165
888,0590;0,0801699
889,0233;0,0812037
889,9875;0,0822419
890,9517;0,0832536
891,9160;0,0842023
892,8802;0,0850489
893,8444;0,0857577
894,8087;0,0863015
895,7729;0,0866646
896,7371;0,0868426
897,7014;0,0868412
898,6656;0,0866734
899,6298;0,086358
900,5941;0,0859164
901,5583;0,085371
902,5225;0,0847442
903,4868;0,0840599
904,4510;0,0833452
905,4152;0,0826302
906,3795;0,0819452
907,3437;0,0813161
908,3079;0,08076
909,2722;0,0802851
910,2364;0,0798932
911,2007;0,0795828
912,1649;0,0793496
913,1292;0,0791869
914,0934;0,0790844
915,0576;0,0790315
916,0219;0,079021
916,9861;0,0790526
917,9503;0,0791306
918,9146;0,07926
919,8788;0,0794404
920,8430;0,0796655
921,8073;0,0799255
922,7715;0,0802119
923,7357;0,0805182
924,7000;0,0808378
925,6642;0,0811594
926,6284;0,0814666
927,5927;0,0817429
928,5569;0,0819798
929,5211;0,0821828
930,4854;0,0823706
931,4496;0,0825685
932,4138;0,0827996
933,3781;0,0830793
934,3423;0,0834139
935,3065;0,0838047
936,2708;0,0842521
937,2350;0,0847587
938,1992;0,0853301
939,1635;0,0859736
940,1277;0,086696
941,0919;0,0875015
942,0562;0,0883907
943,0204;0,0893611
943,9846;0,0904092
944,9489;0,0915325
945,9131;0,0927296
946,8773;0,0939977
947,8416;0,0953296
948,8058;0,0967131
949,7700;0,0981343
950,7343;0,0995851
951,6985;0,101068
952,6627;0,102597
953,6270;0,104189
954,5912;0,105855
955,5554;0,107597
956,5197;0,109402
957,4839;0,111251
958,4481;0,113125
959,4124;0,115008
960,3766;0,116889
961,3408;0,118755
962,3051;0,1206
963,2693;0,122422
964,2335;0,124229
965,1978;0,126039
966,1620;0,127878
967,1262;0,129767
968,0905;0,131718
969,0547;0,133736
970,0189;0,135826
970,9832;0,138001
971,9474;0,140293
972,9116;0,142741
973,8759;0,145386
974,8401;0,148251
975,8043;0,151335
976,7686;0,154616
977,7328;0,158051
978,6970;0,161584
979,6613;0,165144
980,6255;0,16864
981,5897;0,171968
982,5540;0,175028
983,5182;0,177752
984,4824;0,180126
985,4467;0,182193
986,4109;0,184033
987,3751;0,185728
988,3394;0,187338
989,3036;0,188884
990,2678;0,190359
991,2321;0,191748
992,1963;0,193035
993,1605;0,194221
994,1248;0,195311
995,0890;0,196316
996,0532;0,197243
997,0175;0,198095
997,9817;0,198874
998,9459;0,199586
999,9102;0,200253
1000,8744;0,200918
1001,8386;0,201636
1002,8029;0,20247
1003,7671;0,203469
1004,7313;0,204662
1005,6956;0,206054
1006,6598;0,207637
1007,6240;0,209396
1008,5883;0,211322
1009,5525;0,213399
1010,5167;0,215604
1011,4810;0,2179
1012,4452;0,220233
1013,4094;0,222541
1014,3737;0,224762
1015,3379;0,226837
1016,3021;0,228721
1017,2664;0,230384
1018,2306;0,23182
1019,1948;0,233038
1020,1591;0,234058
1021,1233;0,234901
1022,0875;0,235589
1023,0518;0,236144
1024,0160;0,23659
1024,9802;0,23695
1025,9445;0,237243
1026,9087;0,237466
1027,8729;0,237593
1028,8372;0,237572
1029,8014;0,237338
1030,7656;0,236822
1031,7299;0,235963
1032,6941;0,234723
1033,6583;0,233094
1034,6226;0,231112
1035,5868;0,228864
1036,5510;0,226484
1037,5153;0,22413
1038,4795;0,221959
1039,4437;0,22009
1040,4080;0,218586
1041,3722;0,217452
1042,3364;0,216641
1043,3007;0,216075
1044,2649;0,21566
1045,2291;0,215308
1046,1934;0,214944
1047,1576;0,214512
1048,1218;0,213974
1049,0861;0,2133
1050,0503;0,21247
1051,0145;0,211464
1051,9788;0,210268
1052,9430;0,208879
1053,9072;0,207303
1054,8715;0,205553
1055,8357;0,20363
1056,7999;0,201518
1057,7642;0,199181
1058,7284;0,196583
1059,6926;0,19371
1060,6569;0,190592
1061,6211;0,187312
1062,5853;0,183991
1063,5496;0,180753
1064,5138;0,177701
1065,4780;0,174895
1066,4423;0,172348
1067,4065;0,170039
1068,3707;0,167928
1069,3350;0,165967
1070,2992;0,16411
1071,2634;0,16231
1072,2277;0,160521
1073,1919;0,158705
1074,1561;0,156832
1075,1204;0,154891
1076,0846;0,152891
1077,0488;0,150862
1078,0131;0,148853
1078,9773;0,146921
1079,9415;0,145127
1080,9058;0,143522
1081,8700;0,142139
1082,8342;0,140984
1083,7985;0,140043
1084,7627;0,139284
1085,7269;0,138673
1086,6912;0,138179
1087,6554;0,137782
1088,6196;0,137472
1089,5839;0,137244
1090,5481;0,137098
1091,5123;0,137034
1092,4766;0,137049
1093,4408;0,137136
1094,4050;0,137281
1095,3693;0,137468
1096,3335;0,13768
1097,2977;0,137903
1098,2620;0,138123
1099,2262;0,138325
1100,1904;0,138486
1101,1547;0,138577
1102,1189;0,138569
1103,0831;0,138441
1104,0474;0,138193
1105,0116;0,137846
1105,9758;0,137434
1106,9401;0,13699
1107,9043;0,136529
1108,8685;0,13603
1109,8328;0,135438
1110,7970;0,134678
1111,7612;0,133683
1112,7255;0,132419
1113,6897;0,130913
1114,6539;0,129244
1115,6182;0,127523
1116,5824;0,125859
1117,5466;0,124328
1118,5109;0,122955
1119,4751;0,121708
1120,4393;0,120519
1121,4036;0,119298
1122,3678;0,117961
1123,3320;0,116448
1124,2963;0,114736
1125,2605;0,112842
1126,2247;0,11081
1127,1890;0,108693
1128,1532;0,106538
1129,1174;0,104374
1130,0817;0,102213
1131,0459;0,100063
1132,0101;0,0979377
1132,9744;0,0958709
1133,9386;0,0939124
1134,9028;0,0921222
1135,8671;0,0905584
1136,8313;0,0892655
1137,7955;0,0882682
1138,7598;0,0875718
1139,7240;0,0871659
1140,6882;0,0870291
1141,6525;0,0871313
1142,6167;0,0874353
1143,5809;0,0878979
1144,5452;0,0884747
1145,5094;0,0891278
1146,4736;0,0898336
1147,4379;0,0905851
1148,4021;0,091387
1149,3663;0,0922448
1150,3306;0,0931529
1151,2948;0,0940886
1152,2590;0,0950133
1153,2233;0,0958811
1154,1875;0,0966473
1155,1517;0,0972736
1156,1160;0,0977267
1157,0802;0,0979715
1158,0444;0,0979642
1159,0087;0,097648
1159,9729;0,096957
1160,9371;0,0958275
1161,9014;0,0942154
1162,8656;0,0921146
1163,8298;0,0895671
1164,7941;0,0866634
1165,7583;0,0835289
1166,7225;0,0803032
1167,6868;0,0771187
1168,6510;0,0740832
1169,6152;0,0712703
1170,5795;0,0687191
1171,5437;0,0664393
1172,5079;0,0644206
1173,4722;0,0626421
1174,4364;0,0610807
1175,4006;0,0597147
1176,3649;0,0585255
1177,3291;0,0574961
1178,2933;0,0566094
1179,2576;0,0558477
1180,2218;0,0551934
1181,1860;0,0546318
1182,1503;0,0541533
1183,1145;0,0537549
1184,0787;0,0534397
1185,0430;0,0532151
1186,0072;0,0530895
1186,9714;0,0530686
1187,9357;0,0531538
1188,8999;0,0533414
1189,8641;0,0536254
1190,8284;0,0539992
1191,7926;0,0544579
1192,7568;0,0549971
1193,7211;0,0556115
1194,6853;0,0562919
1195,6495;0,0570249
1196,6138;0,0577926
1197,5780;0,058575
1198,5422;0,0593516
1199,5065;0,0600227
1200,4707;0,0607465
1201,4349;0,0614225
1202,3992;0,0620452
1203,3634;0,0626125
1204,3276;0,0631237
1205,2919;0,0635789
1206,2561;0,0639804
1207,2203;0,0643368
1208,1846;0,0646678
1209,1488;0,0650048
1210,1130;0,0653871
1211,0773;0,0658537
1212,0415;0,0664323
1213,0057;0,0671334
1213,9700;0,0679486
1214,9342;0,068856
1215,8984;0,0698277
1216,8627;0,0708364
1217,8269;0,0718596
1218,7911;0,0728813
1219,7554;0,0738911
1220,7196;0,0748812
1221,6838;0,075844
1222,6481;0,076771
1223,6123;0,0776539
1224,5765;0,0784868
1225,5408;0,0792687
1226,5050;0,0800038
1227,4692;0,0806988
1228,4335;0,0813593
1229,3977;0,0819853
1230,3619;0,082571
1231,3262;0,0831045
1232,2904;0,0835717
1233,2546;0,0839597
1234,2189;0,0842612
1235,1831;0,0844783
1236,1473;0,0846235
1237,1116;0,0847172
1238,0758;0,0847812
1239,0400;0,084831
1240,0043;0,0848706
1240,9685;0,0848919
1241,9327;0,08488
1242,8970;0,084819
1243,8612;0,084697
1244,8254;0,0845084
1245,7897;0,084253
1246,7539;0,0839364
1247,7181;0,0835688
1248,6824;0,083165
1249,6466;0,0827421
1250,6108;0,0823167
1251,5751;0,0819025
1252,5393;0,0815102
1253,5035;0,0811472
1254,4678;0,0808167
1255,4320;0,0805147
1256,3962;0,0802277
1257,3605;0,0799336
1258,3247;0,0796081
1259,2889;0,0792337
1260,2532;0,078807
1261,2174;0,0783371
1262,1816;0,0778385
1263,1459;0,0773206
1264,1101;0,0767839
1265,0743;0,0762222
1266,0386;0,0756294
1267,0028;0,0750045
1267,9670;0,0743521
1268,9313;0,0736794
1269,8955;0,0729929
1270,8597;0,0722962
1271,8240;0,0715909
1272,7882;0,0708782
1273,7524;0,0701606
1274,7167;0,0694428
1275,6809;0,0687322
1276,6451;0,0680371
1277,6094;0,0673635
1278,5736;0,066712
1279,5378;0,0660766
1280,5021;0,0654473
1281,4663;0,0648167
1282,4305;0,0641849
1283,3948;0,0635622
1284,3590;0,0629663
1285,3232;0,0624172
1286,2875;0,0619328
1287,2517;0,0615255
1288,2159;0,0612024
1289,1802;0,060965
1290,1444;0,0608111
1291,1086;0,0607364
1292,0729;0,0607372
1293,0371;0,0608124
1294,0013;0,0609638
1294,9656;0,0611944
1295,9298;0,0615061
1296,8940;0,0618976
1297,8583;0,0623648
1298,8225;0,0629017
1299,7867;0,0635027
1300,7510;0,0641625
1301,7152;0,0648776
1302,6794;0,0656445
1303,6437;0,0664601
1304,6079;0,0673211
1305,5721;0,0682231
1306,5364;0,0691592
1307,5006;0,0701205
1308,4648;0,071097
1309,4291;0,0720766
1310,3933;0,0730431
1311,3575;0,0739726
1312,3218;0,0748335
1313,2860;0,0755898
1314,2502;0,0762081
1315,2145;0,0766598
1316,1787;0,0769214
1317,1429;0,0769757
1318,1072;0,0768202
1319,0714;0,0764787
1320,0356;0,0760051
1320,9999;0,07547
1321,9641;0,0749381
1322,9283;0,0744519
1323,8926;0,0740307
1324,8568;0,0736795
1325,8210;0,0733986
1326,7853;0,0731879
1327,7495;0,0730434
1328,7137;0,0729517
1329,6780;0,0728862
1330,6422;0,0728115
1331,6064;0,0726946
1332,5707;0,0725156
1333,5349;0,0722725
1334,4991;0,0719728
1335,4634;0,0716186
1336,4276;0,071196
1337,3918;0,0706756
1338,3561;0,0700338
1339,3203;0,0692859
1340,2845;0,0684972
1341,2488;0,0677516
1342,2130;0,0671051
1343,1772;0,0665706
1344,1415;0,0661362
1345,1057;0,0657881
1346,0699;0,0655237
1347,0342;0,0653508
1347,9984;0,0652817
1348,9626;0,0653248
1349,9269;0,0654775
1350,8911;0,0657259
1351,8553;0,0660477
1352,8196;0,06642
1353,7838;0,0668273
1354,7480;0,0672655
1355,7123;0,06774
1356,6765;0,0682587
1357,6407;0,0688248
1358,6050;0,0694341
1359,5692;0,0700742
1360,5334;0,0707192
1361,4977;0,0713277
1362,4619;0,0718611
1363,4261;0,0723144
1364,3904;0,0727182
1365,3546;0,073107
1366,3188;0,0734914
1367,2831;0,0738546
1368,2473;0,0741648
1369,2115;0,0743895
1370,1758;0,0745056
1371,1400;0,0744987
1372,1042;0,0743568
1373,0685;0,0740687
1374,0327;0,0736369
1374,9969;0,07309
1375,9612;0,0724695
1376,9254;0,071792
1377,8896;0,0710342
1378,8539;0,0701593
1379,8181;0,0691619
1380,7823;0,0680918
1381,7466;0,0670319
1382,7108;0,0660447
1383,6750;0,065134
1384,6393;0,0642524
1385,6035;0,0633442
1386,5677;0,0624035
1387,5320;0,0615052
1388,4962;0,0607611
1389,4604;0,0602305
1390,4247;0,0598891
1391,3889;0,059674
1392,3531;0,059535
1393,3174;0,0594515
1394,2816;0,0594196
1395,2458;0,0594338
1396,2101;0,0594824
1397,1743;0,0595577
1398,1385;0,0596661
1399,1028;0,059825
1400,0670;0,0600491
1401,0313;0,0603388
1401,9955;0,0606802
1402,9597;0,0610556
1403,9240;0,0614533
1404,8882;0,0618713
1405,8524;0,0623164
1406,8167;0,0627978
1407,7809;0,0633203
1408,7451;0,0638844
1409,7094;0,0644909
1410,6736;0,0651423
1411,6378;0,0658351
1412,6021;0,0665526
1413,5663;0,0672674
1414,5305;0,0679529
1415,4948;0,0685933
1416,4590;0,0691815
1417,4232;0,0697035
1418,3875;0,0701366
1419,3517;0,0704809
1420,3159;0,0707649
1421,2802;0,0709923
1422,2444;0,0711172
1423,2086;0,0710858
1424,1729;0,0708839
1425,1371;0,0705438
1426,1013;0,0701094
1427,0656;0,0695938
1428,0298;0,0689715
1428,9940;0,0682199
1429,9583;0,0673718
1430,9225;0,0665156
1431,8867;0,0657261
1432,8510;0,0649985
1433,8152;0,0642534
1434,7794;0,0633966
1435,7437;0,0624063
1436,7079;0,0614114
1437,6721;0,0606387
1438,6364;0,0602198
1439,6006;0,0601016
1440,5648;0,0601479
1441,5291;0,0602546
1442,4933;0,0603844
1443,4575;0,0605448
1444,4218;0,0607524
1445,3860;0,0610093
1446,3502;0,0613006
1447,3145;0,0616086
1448,2787;0,0619281
1449,2429;0,0622661
1450,2072;0,0626232
1451,1714;0,0629743
1452,1356;0,0632741
1453,0999;0,0634802
1454,0641;0,0635689
1455,0283;0,0635192
1455,9926;0,063273
1456,9568;0,0627952
1457,9210;0,0622838
1458,8853;0,0620359
1459,8495;0,0620724
1460,8137;0,0621927
1461,7780;0,0621859
1462,7422;0,0618982
1463,7064;0,061241
1464,6707;0,0602408
1465,6349;0,0590803
1466,5991;0,05798
1467,5634;0,0570147
1468,5276;0,0560938
1469,4918;0,0550588
1470,4561;0,0537518
1471,4203;0,0520513
1472,3845;0,0499636
1473,3488;0,0477427
1474,3130;0,0457764
1475,2772;0,0442632
1476,2415;0,0431403
1477,2057;0,0422579
1478,1699;0,0415009
1479,1342;0,0408072
1480,0984;0,0401522
1481,0626;0,0395409
1482,0269;0,0390023
1482,9911;0,0385735
1483,9553;0,0382755
1484,9196;0,0380998
1485,8838;0,0380147
1486,8480;0,037979
1487,8123;0,0379516
1488,7765;0,037917
1489,7407;0,0379283
1490,7050;0,0380801
1491,6692;0,0384066
1492,6334;0,0388621
1493,5977;0,0393881
1494,5619;0,0399642
1495,5261;0,0406079
1496,4904;0,0413381
1497,4546;0,0421445
1498,4188;0,042999
1499,3831;0,0438717
1500,3473;0,0447123
1501,3115;0,0454475
1502,2758;0,0460161
1503,2400;0,0464058
1504,2042;0,0466692
1505,1685;0,0468846
1506,1327;0,0470202
1507,0969;0,0468965
1508,0612;0,0465549
1509,0254;0,0462842
1509,9896;0,0461725
1510,9539;0,0461166
1511,9181;0,0460121
1512,8823;0,0458073
1513,8466;0,0454854
1514,8108;0,0450441
1515,7750;0,0444931
1516,7393;0,0438575
1517,7035;0,0431682
1518,6677;0,0424465
1519,6320;0,0417092
1520,5962;0,0409976
1521,5604;0,040394
1522,5247;0,0399807
1523,4889;0,0397742
1524,4531;0,0397202
1525,4174;0,0397497
1526,3816;0,0398261
1527,3458;0,0399468
1528,3101;0,0401142
1529,2743;0,0403189
1530,2385;0,0405521
1531,2028;0,0408243
1532,1670;0,0411598
1533,1312;0,041567
1534,0955;0,0420177
1535,0597;0,0424575
1536,0239;0,0428352
1536,9882;0,0431359
1537,9524;0,0434007
1538,9166;0,0436882
1539,8809;0,0439414
1540,8451;0,043958
1541,8093;0,0437352
1542,7736;0,0435194
1543,7378;0,0434211
1544,7020;0,0433928
1545,6663;0,0433811
1546,6305;0,0433665
1547,5947;0,0433383
1548,5590;0,0432765
1549,5232;0,0431619
1550,4874;0,0429991
1551,4517;0,0428271
1552,4159;0,0426952
1553,3801;0,0426208
1554,3444;0,0425704
1555,3086;0,0424798
1556,2728;0,0422723
1557,2371;0,0418422
1558,2013;0,0411244
1559,1655;0,0404263
1560,1298;0,0402786
1561,0940;0,0407233
1562,0582;0,0414349
1563,0225;0,0421408
1563,9867;0,0427165
1564,9509;0,0431377
1565,9152;0,0434346
1566,8794;0,0436691
1567,8436;0,0439191
1568,8079;0,0442558
1569,7721;0,0447102
1570,7363;0,0452533
1571,7006;0,0458168
1572,6648;0,0463432
1573,6290;0,0468248
1574,5933;0,0473042
1575,5575;0,0478301
1576,5217;0,0484102
1577,4860;0,0490276
1578,4502;0,0496688
1579,4144;0,0503126
1580,3787;0,0509337
1581,3429;0,0515251
1582,3071;0,0521029
1583,2714;0,0526942
1584,2356;0,0533232
1585,1998;0,0540037
1586,1641;0,0547358
1587,1283;0,0555058
1588,0925;0,0562865
1589,0568;0,0570412
1590,0210;0,0577306
1590,9852;0,0583184
1591,9495;0,0587728
1592,9137;0,0590675
1593,8779;0,0591884
1594,8422;0,0591442
1595,8064;0,0589706
1596,7706;0,0587185
1597,7349;0,0584348
1598,6991;0,0581507
1599,6633;0,0578814
1600,6276;0,0576337
1601,5918;0,0574138
1602,5560;0,0572308
1603,5203;0,0570935
1604,4845;0,0570032
1605,4487;0,0569485
1606,4130;0,0569102
1607,3772;0,0568739
1608,3414;0,0568447
1609,3057;0,0568498
1610,2699;0,0569162
1611,2341;0,0570425
1612,1984;0,0571947
1613,1626;0,0573343
1614,1268;0,0574489
1615,0911;0,0575641
1616,0553;0,0577318
1617,0195;0,058008
1617,9838;0,0584145
1618,9480;0,0589092
1619,9122;0,0594148
1620,8765;0,059874
1621,8407;0,0602701
1622,8049;0,0606136
1623,7692;0,0609246
1624,7334;0,0612261
1625,6976;0,0615367
1626,6619;0,061863
1627,6261;0,0622017
1628,5903;0,0625416
1629,5546;0,0628625
1630,5188;0,0631341
1631,4830;0,0633276
1632,4473;0,0634371
1633,4115;0,0634894
1634,3757;0,0635236
1635,3400;0,0635546
1636,3042;0,0636009
1637,2684;0,0637247
1638,2327;0,0639494
1639,1969;0,064217
1640,1611;0,0644527
1641,1254;0,0646135
1642,0896;0,0646901
1643,0538;0,0646936
1644,0181;0,0646386
1644,9823;0,0645217
1645,9465;0,0643217
1646,9108;0,0640629
1647,8750;0,0638286
1648,8392;0,0636406
1649,8035;0,0634106
1650,7677;0,063008
1651,7319;0,0622975
1652,6962;0,0612034
1653,6604;0,0599983
1654,6246;0,0592445
1655,5889;0,0590633
1656,5531;0,0591277
1657,5173;0,0591277
1658,4816;0,0589135
1659,4458;0,0584436
1660,4100;0,0577286
1661,3743;0,056825
1662,3385;0,0558622
1663,3027;0,0550086
1664,2670;0,0543542
1665,2312;0,0538525
1666,1954;0,053373
1667,1597;0,0527722
1668,1239;0,0519473
1669,0881;0,0509046
1670,0524;0,0498025
1671,0166;0,0488365
1671,9808;0,0480543
1672,9451;0,0473472
1673,9093;0,0465923
1674,8735;0,0457735
1675,8378;0,0450052
1676,8020;0,0444321
1677,7662;0,0440912
1678,7305;0,0438841
1679,6947;0,0436552
1680,6589;0,0432581
1681,6232;0,0425678
1682,5874;0,0414966
1683,5516;0,0401285
1684,5159;0,0388512
1685,4801;0,0380467
1686,4443;0,0377026
1687,4086;0,0375597
1688,3728;0,0373989
1689,3370;0,0371336
1690,3013;0,0367782
1691,2655;0,0363864
1692,2297;0,0360034
1693,1940;0,0356478
1694,1582;0,0353135
1695,1224;0,0349761
1696,0867;0,0345995
1697,0509;0,0341522
1698,0151;0,0336409
1698,9794;0,033145
1699,9436;0,0328047
1700,9078;0,0327331
1701,8721;0,0329307
1702,8363;0,033296
1703,8005;0,0337031
1704,7648;0,0340661
1705,7290;0,0343633
1706,6932;0,0346306
1707,6575;0,0349285
1708,6217;0,0352968
1709,5859;0,0357337
1710,5502;0,0362083
1711,5144;0,0366842
1712,4786;0,0371328
1713,4429;0,0375355
1714,4071;0,0378773
1715,3713;0,0381359
1716,3356;0,0382933
1717,2998;0,0384031
1718,2640;0,0386052
1719,2283;0,0389911
1720,1925;0,0395211
1721,1567;0,0400944
1722,1210;0,0406292
1723,0852;0,041088
1724,0494;0,0414723
1725,0137;0,0418096
1725,9779;0,0421355
1726,9421;0,0424723
1727,9064;0,0428149
1728,8706;0,0431307
1729,8348;0,0433716
1730,7991;0,0434859
1731,7633;0,0434269
1732,7275;0,0431799
1733,6918;0,0428236
1734,6560;0,0425248
1735,6202;0,0423843
1736,5845;0,0423418
1737,5487;0,0422573
1738,5129;0,0420213
1739,4772;0,0416011
1740,4414;0,0410389
1741,4056;0,0404143
1742,3699;0,0397854
1743,3341;0,0391559
1744,2983;0,0384929
1745,2626;0,037762
1746,2268;0,0369354
1747,1910;0,035972
1748,1553;0,034812
1749,1195;0,0334351
1750,0837;0,0319517
1751,0480;0,0305776
1752,0122;0,0294678
1752,9764;0,0286156
1753,9407;0,0279065
1754,9049;0,0272211
1755,8691;0,0264996
1756,8334;0,0257502
1757,7976;0,0250124
1758,7618;0,0243051
1759,7261;0,0236074
1760,6903;0,0228909
1761,6545;0,0221704
1762,6188;0,0215121
1763,5830;0,0209826
1764,5472;0,0205936
1765,5115;0,0202989
1766,4757;0,0200323
1767,4399;0,0197437
1768,4042;0,0194097
1769,3684;0,0190262
1770,3326;0,0185964
1771,2969;0,0181385
1772,2611;0,0177112
1773,2253;0,0174041
1774,1896;0,017272
1775,1538;0,0172863
1776,1180;0,0173633
1777,0823;0,0174201
1778,0465;0,0174089
1779,0107;0,017323
1779,9750;0,0171855
1780,9392;0,017029
1781,9034;0,0168757
1782,8677;0,0167344
1783,8319;0,0166132
1784,7961;0,0165297
1785,7604;0,0165031
1786,7246;0,0165347
1787,6888;0,0165991
1788,6531;0,0166538
1789,6173;0,0166562
1790,5815;0,0165767
1791,5458;0,0164151
1792,5100;0,0162236
1793,4742;0,0160883
1794,4385;0,0160576
1795,4027;0,0161055
1796,3669;0,0161695
1797,3312;0,0161985
1798,2954;0,0161727
1799,2596;0,0160983
1800,2239;0,0159964
1801,1881;0,0158929
1802,1523;0,0158105
1803,1166;0,0157618
1804,0808;0,0157483
1805,0450;0,015764
1806,0093;0,0157971
1806,9735;0,0158299
1807,9377;0,0158399
1808,9020;0,0158066
1809,8662;0,0157234
1810,8304;0,0156086
1811,7947;0,0154986
1812,7589;0,0154257
1813,7231;0,0153989
1814,6874;0,0154049
1815,6516;0,0154222
1816,6158;0,0154343
1817,5801;0,0154387
1818,5443;0,0154458
1819,5085;0,0154693
1820,4728;0,0155152
1821,4370;0,0155773
1822,4012;0,0156412
1823,3655;0,0156909
1824,3297;0,0157142
1825,2939;0,0157056
1826,2582;0,015664
1827,2224;0,0155878
1828,1866;0,015478
1829,1509;0,0153491
1830,1151;0,0152367
1831,0793;0,0151831
1832,0436;0,0152048
1833,0078;0,0152771
1833,9720;0,0153537
1834,9363;0,015398
1835,9005;0,0154012
1836,8647;0,015383
1837,8290;0,0153729
1838,7932;0,0153863
1839,7574;0,0154138
1840,7217;0,0154334
1841,6859;0,0154302
1842,6501;0,0154038
1843,6144;0,0153642
1844,5786;0,0153271
1845,5428;0,0153072
1846,5071;0,0153055
1847,4713;0,0153055
1848,4355;0,0152889
1849,3998;0,0152527
1850,3640;0,0152099
1851,3282;0,0151773
1852,2925;0,0151631
1853,2567;0,0151635
1854,2209;0,0151703
1855,1852;0,015179
1856,1494;0,0151911
1857,1136;0,0152094
1858,0779;0,0152325
1859,0421;0,0152541
1860,0063;0,0152697
1860,9706;0,015282
1861,9348;0,0153003
1862,8990;0,0153338
1863,8633;0,0153848
1864,8275;0,0154472
1865,7917;0,0155083
1866,7560;0,0155492
1867,7202;0,0155485
1868,6844;0,0154986
1869,6487;0,0154214
1870,6129;0,0153514
1871,5771;0,015303
1872,5414;0,0152641
1873,5056;0,0152145
1874,4698;0,015145
1875,4341;0,0150631
1876,3983;0,0149889
1877,3625;0,0149453
1878,3268;0,0149463
1879,2910;0,0149921
1880,2552;0,0150703
1881,2195;0,0151627
1882,1837;0,0152513
1883,1479;0,0153239
1884,1122;0,0153751
1885,0764;0,015404
1886,0406;0,0154116
1887,0049;0,0153986
1887,9691;0,0153672
1888,9333;0,0153251
1889,8976;0,0152889
1890,8618;0,0152786
1891,8260;0,0153049
1892,7903;0,0153604
1893,7545;0,0154212
1894,7188;0,015458
1895,6830;0,0154523
1896,6472;0,0154085
1897,6115;0,0153534
1898,5757;0,0153188
1899,5399;0,0153226
1900,5042;0,0153593
1901,4684;0,015406
1902,4326;0,0154377
1903,3969;0,015443
1904,3611;0,0154305
1905,3253;0,0154203
1906,2896;0,0154307
1907,2538;0,0154674
1908,2180;0,0155231
1909,1823;0,0155841
1910,1465;0,0156396
1911,1107;0,0156853
1912,0750;0,015718
1913,0392;0,015731
1914,0034;0,0157157
1914,9677;0,0156697
1915,9319;0,0156047
1916,8961;0,015546
1917,8604;0,0155231
1918,8246;0,0155518
1919,7888;0,0156225
1920,7531;0,0157051
1921,7173;0,0157654
1922,6815;0,0157842
1923,6458;0,0157656
1924,6100;0,0157316
1925,5742;0,0157049
1926,5385;0,0156934
1927,5027;0,0156883
1928,4669;0,0156756
1929,4312;0,01565
1930,3954;0,0156224
1931,3596;0,0156158
1932,3239;0,0156505
1933,2881;0,0157307
1934,2523;0,0158408
1935,2166;0,0159543
1936,1808;0,0160497
1937,1450;0,0161226
1938,1093;0,0161862
1939,0735;0,0162606
1940,0377;0,0163569
1941,0020;0,0164645
1941,9662;0,016551
1942,9304;0,0165807
1943,8947;0,0165408
1944,8589;0,0164524
1945,8231;0,016356
1946,7874;0,0162901
1947,7516;0,016277
1948,7158;0,0163188
1949,6801;0,016403
1950,6443;0,0165129
1951,6085;0,0166384
1952,5728;0,0167783
1953,5370;0,0169347
1954,5012;0,0171036
1955,4655;0,0172681
1956,4297;0,0174023
1957,3939;0,0174818
1958,3582;0,0174961
1959,3224;0,0174553
1960,2866;0,0173883
1961,2509;0,017332
1962,2151;0,0173186
1963,1793;0,0173684
1964,1436;0,0174886
1965,1078;0,0176741
1966,0720;0,0179064
1967,0363;0,0181509
1968,0005;0,0183602
1968,9647;0,0184845
1969,9290;0,0184836
1970,8932;0,018336
1971,8574;0,018047
1972,8217;0,017658
1973,7859;0,0172525
1974,7501;0,0169465
1975,7144;0,0168526
1976,6786;0,0170245
1977,6428;0,0174128
1978,6071;0,0178757
1979,5713;0,0182473
1980,5355;0,0184169
1981,4998;0,0183689
1982,4640;0,0181675
1983,4282;0,0179122
1984,3925;0,0176907
1985,3567;0,0175507
1986,3209;0,0175003
1987,2852;0,0175284
1988,2494;0,0176258
1989,2136;0,0177898
1990,1779;0,0180102
1991,1421;0,0182533
1992,1063;0,0184644
1993,0706;0,0185924
1994,0348;0,0186171
1994,9990;0,0185564
1995,9633;0,0184515
1996,9275;0,0183446
1997,8917;0,0182643
1998,8560;0,0182203
1999,8202;0,0182072
2000,7844;0,0182084
2001,7487;0,0181998
2002,7129;0,0181558
2003,6771;0,018063
2004,6414;0,0179413
2005,6056;0,0178568
2006,5698;0,0179073
2007,5341;0,0181699
2008,4983;0,0186392
2009,4625;0,0192033
2010,4268;0,019687
2011,3910;0,0199381
2012,3552;0,0199053
2013,3195;0,019663
2014,2837;0,0193722
2015,2479;0,0191979
2016,2122;0,0192269
2017,1764;0,0194332
2018,1406;0,0197134
2019,1049;0,019963
2020,0691;0,0201337
2021,0333;0,0202377
2021,9976;0,0203084
2022,9618;0,0203567
2023,9260;0,0203544
2024,8903;0,0202551
2025,8545;0,0200366
2026,8187;0,019735
2027,7830;0,019444
2028,7472;0,0192793
2029,7114;0,0193218
2030,6757;0,019574
2031,6399;0,0199516
2032,6041;0,0203207
2033,5684;0,0205633
2034,5326;0,0206337
2035,4968;0,0205729
2036,4611;0,0204713
2037,4253;0,0204117
2038,3895;0,0204274
2039,3538;0,0204948
2040,3180;0,0205559
2041,2822;0,0205538
2042,2465;0,020463
2043,2107;0,0203007
2044,1749;0,0201163
2045,1392;0,0199669
2046,1034;0,0198868
2047,0676;0,0198662
2048,0320;0,0198527
2048,9961;0,0197812
2049,9604;0,0196167
2050,9246;0,0193795
2051,8889;0,0191361
2052,8530;0,0189654
2053,8174;0,0189192
2054,7815;0,018996
2055,7458;0,0191429
2056,7100;0,0192857
2057,6743;0,019367
2058,6384;0,0193684
2059,6028;0,0193052
2060,5669;0,0192046
2061,5313;0,0190885
2062,4954;0,0189726
2063,4597;0,0188763
2064,4238;0,0188285
2065,3882;0,0188574
2066,3523;0,0189707
2067,3167;0,0191405
2068,2808;0,019309
2069,2451;0,0194123
2070,2092;0,0194092
2071,1736;0,0192989
2072,1377;0,0191198
2073,1021;0,0189311
2074,0662;0,0187873
2075,0305;0,018719
2075,9946;0,0187259
2076,9590;0,0187846
2077,9231;0,0188632
2078,8875;0,0189361
2079,8516;0,0189906
2080,8159;0,0190243
2081,7800;0,0190368
2082,7444;0,019023
2083,7085;0,0189745
2084,6729;0,0188885
2085,6370;0,0187772
2086,6013;0,0186683
2087,5654;0,0185942
2088,5298;0,0185743
2089,4939;0,0186042
2090,4583;0,0186587
2091,4224;0,018708
2092,3867;0,0187365
2093,3508;0,018751
2094,3152;0,0187734
2095,2793;0,0188225
2096,2437;0,0188981
2097,2078;0,0189777
2098,1721;0,0190288
2099,1362;0,0190284
2100,1006;0,0189776
2101,0647;0,0189008
2102,0291;0,0188399
2102,9932;0,018832
2103,9575;0,0188926
2104,9216;0,0190054
2105,8860;0,0191284
2106,8501;0,0192133
2107,8145;0,0192294
2108,7786;0,0191786
2109,7429;0,0190924
2110,7070;0,0190116
2111,6714;0,0189631
2112,6355;0,0189468
2113,5999;0,0189405
2114,5640;0,0189176
2115,5283;0,0188638
2116,4924;0,0187837
2117,4568;0,0186956
2118,4209;0,0186213
2119,3853;0,0185793
2120,3494;0,0185832
2121,3137;0,0186416
2122,2778;0,0187566
2123,2422;0,0189182
2124,2063;0,0191019
2125,1707;0,0192709
2126,1348;0,0193879
2127,0991;0,0194282
2128,0632;0,0193909
2129,0276;0,0192997
2129,9917;0,0191958
2130,9561;0,0191246
2131,9202;0,0191197
2132,8845;0,019191
2133,8486;0,0193202
2134,8130;0,0194723
2135,7771;0,019619
2136,7415;0,0197622
2137,7056;0,019936
2138,6699;0,0201821
2139,6340;0,0205104
2140,5984;0,0208744
2141,5625;0,0211831
2142,5269;0,0213492
2143,4910;0,0213452
2144,4553;0,0212303
2145,4194;0,0211246
2146,3838;0,0211433
2147,3479;0,0213298
2148,3123;0,0216306
2149,2764;0,021928
2150,2407;0,0221074
2151,2048;0,0221206
2152,1692;0,0220116
2153,1333;0,0218984
2154,0977;0,0219237
2155,0618;0,0221984
2156,0261;0,0227512
2156,9902;0,0234977
2157,9546;0,0242506
2158,9187;0,0247957
2159,8831;0,0250029
2160,8472;0,0248844
2161,8115;0,0245556
2162,7756;0,0241535
2163,7400;0,0237789
2164,7041;0,0234808
2165,6685;0,0232623
2166,6326;0,023096
2167,5969;0,0229417
2168,5610;0,0227662
2169,5254;0,0225603
2170,4895;0,0223448
2171,4539;0,0221609
2172,4180;0,0220437
2173,3823;0,0219941
2174,3464;0,0219676
2175,3108;0,0218958
2176,2749;0,0217323
2177,2393;0,0214939
2178,2034;0,021265
2179,1677;0,021158
2180,1318;0,0212492
2181,0962;0,0215283
2182,0603;0,0218933
2183,0247;0,0221981
2183,9888;0,0223264
2184,9531;0,0222454
2185,9172;0,0220083
2186,8816;0,021714
2187,8457;0,0214537
2188,8101;0,0212745
2189,7742;0,021173
2190,7385;0,0211129
2191,7026;0,0210513
2192,6670;0,0209597
2193,6311;0,0208342
2194,5955;0,0206932
2195,5596;0,0205697
2196,5239;0,0204978
2197,4880;0,020498
2198,4524;0,0205656
2199,4165;0,0206673
2200,3809;0,0207511
2201,3450;0,0207662
2202,3093;0,0206872
2203,2734;0,0205273
2204,2378;0,0203365
2205,2019;0,0201808
2206,1663;0,0201158
2207,1304;0,020164
2208,0947;0,0203083
2209,0588;0,0205012
2210,0232;0,020684
2210,9873;0,0208058
2211,9517;0,0208363
2212,9158;0,0207694
2213,8801;0,0206231
2214,8442;0,0204344
2215,8086;0,0202527
2216,7727;0,0201273
2217,7371;0,0200908
2218,7012;0,0201446
2219,6655;0,0202529
2220,6296;0,0203551
2221,5940;0,0203893
2222,5581;0,0203199
2223,5225;0,0201521
2224,4866;0,0199276
2225,4509;0,0197024
2226,4150;0,019521
2227,3794;0,0193987
2228,3435;0,0193242
2229,3079;0,0192738
2230,2720;0,0192302
2231,2363;0,0191917
2232,2004;0,019168
2233,1648;0,0191663
2234,1289;0,0191788
2235,0933;0,0191831
2236,0574;0,0191557
2237,0217;0,0190916
2237,9858;0,0190136
2238,9502;0,0189635
2239,9143;0,0189775
2240,8787;0,0190609
2241,8428;0,0191789
2242,8071;0,0192714
2243,7712;0,0192829
2244,7356;0,0191905
2245,6997;0,0190129
2246,6641;0,0188001
2247,6282;0,0186096
2248,5925;0,0184869
2249,5566;0,0184545
2250,5210;0,0185114
2251,4851;0,0186363
2252,4495;0,0187918
2253,4136;0,0189325
2254,3779;0,0190181
2255,3420;0,0190291
2256,3064;0,0189732
2257,2705;0,0188788
2258,2349;0,0187755
2259,1990;0,0186774
2260,1633;0,0185797
2261,1274;0,0184722
2262,0918;0,018357
2263,0559;0,0182568
2264,0203;0,0182042
2264,9844;0,0182197
2265,9487;0,0182962
2266,9128;0,0184008
2267,8772;0,0184939
2268,8413;0,0185492
2269,8057;0,0185615
2270,7698;0,0185392
2271,7341;0,018492
2272,6982;0,0184254
2273,6626;0,018345
2274,6267;0,0182629
2275,5911;0,0181964
2276,5552;0,0181574
2277,5195;0,018142
2278,4836;0,0181313
2279,4480;0,0181066
2280,4121;0,0180661
2281,3765;0,0180306
2282,3406;0,018031
2283,3049;0,0180864
2284,2690;0,0181891
2285,2334;0,0183075
2286,1975;0,0184052
2287,1619;0,0184619
2288,1260;0,0184839
2289,0903;0,0184966
2290,0544;0,0185258
2291,0188;0,0185822
2291,9829;0,0186588
2292,9473;0,0187401
2293,9114;0,0188163
2294,8757;0,0188892
2295,8398;0,0189669
2296,8042;0,0190525
2297,7683;0,0191355
2298,7327;0,0191944
2299,6968;0,0192087
2300,6611;0,0191735
2301,6252;0,0191058
2302,5896;0,0190382
2303,5537;0,0190041
2304,5181;0,0190219
2305,4822;0,0190856
2306,4465;0,0191657
2307,4106;0,0192191
2308,3750;0,0192057
2309,3391;0,0191032
2310,3035;0,0189179
2311,2676;0,0186831
2312,2319;0,018447
2313,1960;0,0182531
2314,1604;0,0181226
2315,1245;0,0180489
2316,0889;0,0180056
2317,0530;0,0179648
2318,0173;0,0179125
2318,9814;0,0178547
2319,9458;0,017813
2320,9099;0,017813
2321,8743;0,0178728
2322,8384;0,0179926
2323,8027;0,0181478
2324,7668;0,01829
2325,7312;0,0183626
2326,6953;0,0183258
2327,6597;0,0181782
2328,6238;0,0179645
2329,5881;0,0177624
2330,5522;0,0176508
2331,5166;0,0176705
2332,4807;0,0178
2333,4451;0,0179654
2334,4092;0,0180834
2335,3735;0,0181091
2336,3376;0,0180608
2337,3020;0,0180086
2338,2661;0,0180315
2339,2305;0,0181656
2340,1946;0,0183689
2341,1589;0,0185207
2342,1230;0,0184706
2343,0874;0,0181637
2344,0515;0,0177817
2345,0159;0,0176709
2345,9800;0,0180206
2346,9443;0,0186789
2347,9084;0,0193001
2348,8728;0,0195914
2349,8369;0,0194575
2350,8013;0,019025
2351,7654;0,0185711
2352,7297;0,0183745
2353,6938;0,018551
2354,6582;0,01901
2355,6223;0,0195691
2356,5867;0,0200729
2357,5508;0,0204072
2358,5151;0,0204853
2359,4792;0,020283
2360,4436;0,0198689
2361,4077;0,0193597
2362,3721;0,0188378
2363,3362;0,018321
2364,3005;0,0178005
2365,2646;0,0172842
2366,2290;0,0167985
2367,1931;0,0163621
2368,1575;0,0159706
2369,1216;0,0156094
2370,0859;0,0152748
2371,0500;0,0149839
2372,0144;0,014767
2372,9785;0,0146557
2373,9429;0,0146726
2374,9070;0,0148259
2375,8713;0,0151068
2376,8354;0,0154892
2377,7998;0,0159328
2378,7639;0,0163895
2379,7283;0,0168115
2380,6924;0,0171602
2381,6567;0,0174118
2382,6208;0,0175605
2383,5852;0,0176169
2384,5493;0,0176031
2385,5137;0,0175457
2386,4778;0,0174695
2387,4421;0,0173936
2388,4063;0,0173301
2389,3706;0,0172863
2390,3347;0,0172657
2391,2991;0,0172677
2392,2632;0,0172872
2393,2275;0,0173149
2394,1917;0,0173398
2395,1560;0,0173551
2396,1201;0,0173609
2397,0845;0,0173649
2398,0486;0,0173789
2399,0129;0,0174105
2399,9771;0,0174592
2400,9414;0,0175175
2401,9055;0,0175742
2402,8699;0,0176209
2403,8340;0,0176556
2404,7983;0,0176821
2405,7625;0,0177071
2406,7268;0,0177353
2407,6909;0,017767
2408,6553;0,0177982
2409,6194;0,0178231
2410,5837;0,0178375
2411,5479;0,0178414
2412,5122;0,0178393
2413,4763;0,0178376
2414,4407;0,0178416
2415,4048;0,0178533
2416,3691;0,0178709
2417,3333;0,0178911
2418,2976;0,0179114
2419,2617;0,0179316
2420,2261;0,0179527
2421,1902;0,0179744
2422,1545;0,0179946
2423,1187;0,0180099
2424,0830;0,0180185
2425,0471;0,0180228
2426,0115;0,0180301
2426,9756;0,01805
2427,9399;0,0180894
2428,9041;0,0181489
2429,8684;0,0182212
2430,8325;0,018293
2431,7969;0,0183507
2432,7610;0,0183853
2433,7253;0,0183965
2434,6895;0,0183925
2435,6538;0,0183869
2436,6179;0,0183918
2437,5823;0,0184132
2438,5464;0,018448
2439,5107;0,0184867
2440,4749;0,0185191
2441,4392;0,0185409
2442,4033;0,0185565
2443,3677;0,0185754
2444,3318;0,0186061
2445,2961;0,0186489
2446,2603;0,0186944
2447,2246;0,0187285
2448,1887;0,0187409
2449,1531;0,0187331
2450,1172;0,0187179
2451,0815;0,0187129
2452,0457;0,0187298
2453,0100;0,018768
2453,9741;0,0188149
2454,9385;0,0188552
2455,9026;0,0188798
2456,8669;0,0188908
2457,8311;0,0188982
2458,7954;0,0189114
2459,7595;0,0189326
2460,7239;0,0189556
2461,6880;0,0189719
2462,6523;0,0189778
2463,6165;0,0189781
2464,5808;0,018982
2465,5449;0,0189963
2466,5093;0,019019
2467,4734;0,0190398
2468,4377;0,0190473
2469,4019;0,0190372
2470,3662;0,0190171
2471,3303;0,0190037
2472,2947;0,0190133
2473,2588;0,0190526
2474,2231;0,0191146
2475,1873;0,0191822
2476,1516;0,0192379
2477,1157;0,0192738
2478,0801;0,0192949
2479,0442;0,0193151
2480,0085;0,0193477
2480,9727;0,0193971
2481,9370;0,0194561
2482,9011;0,0195109
2483,8655;0,0195494
2484,8296;0,0195671
2485,7939;0,0195685
2486,7581;0,0195627
2487,7224;0,0195581
2488,6865;0,0195596
2489,6509;0,0195682
2490,6150;0,0195836
2491,5793;0,0196049
2492,5435;0,0196311
2493,5078;0,0196608
2494,4719;0,0196926
2495,4363;0,0197258
2496,4004;0,0197604
2497,3647;0,0197969
2498,3289;0,0198339
2499,2932;0,019868
2500,2573;0,0198946
2501,2217;0,0199103
2502,1858;0,0199145
2503,1501;0,0199102
2504,1143;0,0199028
2505,0786;0,0198981
2506,0427;0,0199006
2507,0071;0,0199131
2507,9712;0,0199362
2508,9355;0,019968
2509,8997;0,020005
2510,8640;0,0200429
2511,8281;0,0200771
2512,7925;0,0201032
2513,7566;0,0201176
2514,7209;0,0201182
2515,6851;0,0201058
2516,6494;0,0200862
2517,6135;0,0200686
2518,5779;0,0200627
2519,5420;0,0200744
2520,5063;0,0201022
2521,4705;0,0201389
2522,4348;0,0201759
2523,3989;0,020208
2524,3633;0,0202348
2525,3274;0,0202579
2526,2917;0,020277
2527,2559;0,020289
2528,2202;0,0202901
2529,1843;0,02028
2530,1487;0,0202644
2531,1128;0,0202528
2532,0771;0,0202527
2533,0413;0,0202656
2534,0056;0,0202868
2534,9697;0,0203081
2535,9341;0,0203235
2536,8982;0,0203317
2537,8625;0,0203345
2538,8267;0,0203336
2539,7910;0,0203282
2540,7551;0,0203156
2541,7195;0,0202946
2542,6836;0,0202695
2543,6479;0,0202504
2544,6121;0,0202494
2545,5764;0,020274
2546,5405;0,0203228
2547,5049;0,0203853
2548,4690;0,0204473
2549,4333;0,0204974
2550,3975;0,0205315
2551,3618;0,0205517
2552,3259;0,0205623
2553,2903;0,0205661
2554,2544;0,0205637
2555,2188;0,0205556
2556,1829;0,0205448
2557,1472;0,0205368
2558,1113;0,0205373
2559,0757;0,0205491
2560,0398;0,0205714
2561,0042;0,0206006
2561,9683;0,0206314
2562,9326;0,0206578
2563,8967;0,0206736
2564,8611;0,0206744
2565,8252;0,0206604
2566,7896;0,0206382
2567,7537;0,0206199
2568,7180;0,0206172
2569,6821;0,0206352
2570,6465;0,0206698
2571,6106;0,0207101
2572,5750;0,0207459
2573,5391;0,0207725
2574,5034;0,0207925
2575,4675;0,0208114
2576,4319;0,0208321
2577,3960;0,0208526
2578,3604;0,0208669
2579,3245;0,0208695
2580,2888;0,0208589
2581,2529;0,0208389
2582,2173;0,0208176
2583,1814;0,0208056
2584,1458;0,0208124
2585,1099;0,0208438
2586,0742;0,0208992
2587,0383;0,0209701
2588,0027;0,0210425
2588,9668;0,0211012
2589,9312;0,0211353
2590,8953;0,0211423
2591,8596;0,0211281
2592,8237;0,0211046
2593,7881;0,0210852
2594,7522;0,0210808
2595,7166;0,0210969
2596,6807;0,021132
2597,6450;0,0211783
2598,6091;0,0212251
2599,5735;0,0212629
2600,5376;0,021288
2601,5020;0,0213031
2602,4661;0,0213148
2603,4304;0,0213294
2604,3945;0,0213487
2605,3589;0,0213704
2606,3230;0,021391
2607,2874;0,0214097
2608,2515;0,0214293
2609,2158;0,0214546
2610,1799;0,0214885
2611,1443;0,02153
2612,1084;0,0215745
2613,0728;0,0216166
2614,0369;0,0216532
2615,0012;0,0216841
2615,9653;0,0217117
2616,9297;0,021739
2617,8938;0,0217678
2618,8582;0,0217986
2619,8223;0,0218307
2620,7866;0,0218627
2621,7507;0,0218931
2622,7151;0,0219201
2623,6792;0,0219426
2624,6436;0,0219605
2625,6077;0,0219758
2626,5720;0,0219918
2627,5361;0,0220124
2628,5005;0,0220401
2629,4646;0,022076
2630,4290;0,022119
2631,3931;0,0221675
2632,3574;0,0222197
2633,3215;0,0222734
2634,2859;0,0223254
2635,2500;0,0223708
2636,2144;0,0224044
2637,1785;0,0224237
2638,1428;0,0224306
2639,1069;0,0224314
2640,0713;0,0224349
2641,0354;0,0224478
2641,9998;0,0224723
2642,9639;0,0225062
2643,9282;0,0225454
2644,8923;0,0225862
2645,8567;0,022627
2646,8208;0,0226676
2647,7852;0,0227078
2648,7493;0,0227463
2649,7136;0,0227817
2650,6777;0,0228135
2651,6421;0,0228425
2652,6062;0,0228703
2653,5706;0,0228977
2654,5347;0,0229242
2655,4990;0,0229479
2656,4631;0,0229673
2657,4275;0,0229821
2658,3916;0,0229939
2659,3560;0,0230045
2660,3201;0,0230158
2661,2844;0,0230283
2662,2485;0,0230418
2663,2129;0,0230566
2664,1770;0,0230738
2665,1414;0,0230958
2666,1055;0,0231243
2667,0698;0,0231595
2668,0339;0,0231988
2668,9983;0,0232377
2669,9624;0,0232712
2670,9268;0,0232971
2671,8909;0,0233166
2672,8552;0,0233348
2673,8193;0,0233577
2674,7837;0,0233893
2675,7478;0,0234293
2676,7122;0,0234732
2677,6763;0,0235153
2678,6406;0,0235522
2679,6047;0,023585
2680,5691;0,0236182
2681,5332;0,0236568
2682,4976;0,0237028
2683,4617;0,0237542
2684,4260;0,0238064
2685,3901;0,0238553
2686,3545;0,0238991
2687,3186;0,0239386
2688,2830;0,0239753
2689,2471;0,0240098
2690,2114;0,0240419
2691,1755;0,0240714
2692,1399;0,0240999
2693,1040;0,0241299
2694,0684;0,024164
2695,0325;0,024203
2695,9968;0,0242454
2696,9609;0,0242885
2697,9253;0,0243302
2698,8894;0,0243699
2699,8538;0,0244091
2700,8179;0,0244497
2701,7822;0,0244938
2702,7463;0,0245418
2703,7107;0,0245931
2704,6748;0,0246456
2705,6392;0,0246972
2706,6033;0,0247464
2707,5676;0,0247933
2708,5317;0,0248386
2709,4961;0,0248828
2710,4602;0,0249249
2711,4246;0,0249625
2712,3887;0,0249937
2713,3530;0,0250186
2714,3171;0,02504
2715,2815;0,0250631
2716,2456;0,0250925
2717,2100;0,0251306
2718,1741;0,0251774
2719,1384;0,0252304
2720,1025;0,0252868
2721,0669;0,0253434
2722,0310;0,0253969
2722,9954;0,0254445
2723,9595;0,0254848
2724,9238;0,0255189
2725,8879;0,0255507
2726,8523;0,0255852
2727,8164;0,0256254
2728,7808;0,0256709
2729,7449;0,0257173
2730,7092;0,0257594
2731,6733;0,0257937
2732,6377;0,0258204
2733,6018;0,0258429
2734,5662;0,0258656
2735,5303;0,0258917
2736,4946;0,0259211
2737,4587;0,0259513
2738,4231;0,0259788
2739,3872;0,0260011
2740,3516;0,0260184
2741,3157;0,0260338
2742,2800;0,0260521
2743,2441;0,0260775
2744,2085;0,0261111
2745,1726;0,0261507
2746,1370;0,0261919
2747,1011;0,0262302
2748,0654;0,0262638
2749,0295;0,0262943
2749,9939;0,0263253
2750,9580;0,0263605
2751,9224;0,0264016
2752,8865;0,026447
2753,8508;0,0264931
2754,8149;0,0265357
2755,7793;0,0265725
2756,7434;0,0266039
2757,7078;0,0266334
2758,6719;0,0266659
2759,6362;0,0267053
2760,6003;0,0267525
2761,5647;0,0268054
2762,5288;0,02686
2763,4932;0,0269131
2764,4573;0,0269639
2765,4216;0,0270134
2766,3857;0,0270637
2767,3501;0,0271156
2768,3142;0,027168
2769,2786;0,0272184
2770,2427;0,0272653
2771,2070;0,0273087
2772,1711;0,0273511
2773,1355;0,027396
2774,0996;0,027447
2775,0640;0,0275063
2776,0281;0,027574
2776,9924;0,027649
2777,9565;0,0277288
2778,9209;0,0278107
2779,8850;0,027892
2780,8494;0,0279703
2781,8135;0,0280436
2782,7778;0,0281105
2783,7419;0,0281708
2784,7063;0,028226
2785,6704;0,0282795
2786,6348;0,0283352
2787,5989;0,0283971
2788,5632;0,0284675
2789,5273;0,0285474
2790,4917;0,0286366
2791,4558;0,0287346
2792,4202;0,0288397
2793,3843;0,0289493
2794,3486;0,0290597
2795,3127;0,0291676
2796,2771;0,029272
2797,2412;0,0293752
2798,2056;0,0294815
2799,1697;0,0295947
2800,1340;0,0297159
2801,0981;0,0298429
2802,0625;0,0299719
2803,0266;0,0301
2803,9910;0,0302261
2804,9551;0,0303507
2805,9194;0,0304748
2806,8835;0,0305994
2807,8479;0,0307261
2808,8120;0,0308582
2809,7764;0,0309994
2810,7405;0,0311525
2811,7048;0,0313167
2812,6689;0,0314881
2813,6333;0,0316615
2814,5974;0,0318338
2815,5618;0,032006
2816,5259;0,0321822
2817,4902;0,0323669
2818,4543;0,032562
2819,4187;0,0327663
2820,3828;0,0329773
2821,3472;0,0331932
2822,3113;0,0334142
2823,2756;0,0336422
2824,2397;0,0338796
2825,2041;0,0341285
2826,1682;0,0343908
2827,1326;0,0346684
2828,0967;0,0349634
2829,0610;0,0352768
2830,0251;0,0356082
2830,9895;0,0359568
2831,9536;0,0363221
2832,9180;0,0367066
2833,8821;0,0371148
2834,8464;0,0375534
2835,8105;0,038029
2836,7749;0,0385475
2837,7390;0,0391153
2838,7034;0,0397413
2839,6675;0,0404391
2840,6318;0,0412277
2841,5959;0,0421288
2842,5603;0,0431602
2843,5244;0,0443255
2844,4888;0,0456024
2845,4529;0,0469342
2846,4172;0,0482307
2847,3813;0,0493821
2848,3457;0,0502842
2849,3098;0,0508667
2850,2742;0,0511125
2851,2383;0,0510606
2852,2026;0,0507894
2853,1667;0,0503909
2854,1311;0,0499454
2855,0952;0,0495072
2856,0596;0,0491034
2857,0237;0,0487429
2857,9880;0,0484273
2858,9521;0,0481587
2859,9165;0,0479424
2860,8806;0,0477837
2861,8450;0,0476853
2862,8091;0,0476457
2863,7734;0,0476603
2864,7375;0,0477241
2865,7019;0,0478318
2866,6660;0,0479762
2867,6304;0,048146
2868,5945;0,048324
2869,5588;0,0484907
2870,5229;0,0486301
2871,4873;0,0487356
2872,4514;0,0488122
2873,4158;0,0488733
2874,3799;0,0489335
2875,3442;0,0490025
2876,3083;0,0490831
2877,2727;0,0491731
2878,2368;0,0492703
2879,2012;0,0493751
2880,1653;0,0494911
2881,1296;0,0496232
2882,0938;0,0497752
2883,0581;0,0499487
2884,0222;0,0501433
2884,9866;0,0503561
2885,9507;0,0505832
2886,9150;0,0508195
2887,8792;0,0510604
2888,8435;0,0513026
2889,8076;0,0515452
2890,7720;0,0517885
2891,7361;0,0520334
2892,7004;0,0522795
2893,6646;0,0525259
2894,6289;0,052772
2895,5930;0,0530186
2896,5574;0,0532687
2897,5215;0,0535257
2898,4858;0,053792
2899,4500;0,0540673
2900,4143;0,0543486
2901,3784;0,0546319
2902,3428;0,0549151
2903,3069;0,0552004
2904,2712;0,0554966
2905,2354;0,055818
2906,1997;0,056183
2907,1638;0,0566109
2908,1282;0,0571203
2909,0923;0,0577263
2910,0566;0,058438
2911,0208;0,0592524
2911,9851;0,0601479
2912,9492;0,061079
2913,9136;0,061978
2914,8777;0,0627655
2915,8420;0,0633682
2916,8062;0,0637373
2917,7705;0,0638594
2918,7346;0,0637558
2919,6990;0,0634704
2920,6631;0,0630539
2921,6274;0,06255
2922,5916;0,0619889
2923,5559;0,0613883
2924,5200;0,0607577
2925,4844;0,0601046
2926,4485;0,0594376
2927,4128;0,0587674
2928,3770;0,0581049
2929,3413;0,0574584
2930,3054;0,0568314
2931,2698;0,0562219
2932,2339;0,0556244
2933,1982;0,0550331
2934,1624;0,0544448
2935,1267;0,0538601
2936,0908;0,0532824
2937,0552;0,0527154
2938,0193;0,0521611
2938,9836;0,051619
2939,9478;0,0510867
2940,9121;0,0505623
2941,8762;0,0500457
2942,8406;0,0495397
2943,8047;0,0490494
2944,7690;0,0485818
2945,7332;0,0481436
2946,6975;0,0477397
2947,6616;0,0473716
2948,6260;0,0470369
2949,5901;0,0467289
2950,5544;0,0464377
2951,5186;0,0461518
2952,4829;0,0458595
2953,4470;0,0455521
2954,4114;0,0452255
2955,3755;0,0448815
2956,3398;0,0445262
2957,3040;0,0441664
2958,2683;0,0438063
2959,2324;0,0434451
2960,1968;0,0430778
2961,1609;0,0426991
2962,1252;0,0423073
2963,0894;0,0419065
2964,0537;0,0415047
2965,0178;0,0411104
2965,9822;0,0407282
2966,9463;0,0403566
2967,9106;0,03999
2968,8748;0,0396218
2969,8391;0,0392488
2970,8032;0,0388734
2971,7676;0,0385028
2972,7317;0,0381469
2973,6960;0,0378136
2974,6602;0,0375068
2975,6245;0,0372249
2976,5886;0,0369627
2977,5530;0,0367145
2978,5171;0,0364769
2979,4814;0,0362499
2980,4456;0,0360359
2981,4099;0,035837
2982,3740;0,0356535
2983,3384;0,0354839
2984,3025;0,0353262
2985,2668;0,0351798
2986,2310;0,0350457
2987,1953;0,0349256
2988,1594;0,0348198
2989,1238;0,0347262
2990,0879;0,0346418
2991,0522;0,0345643
2992,0164;0,0344943
2992,9807;0,034436
2993,9448;0,0343948
2994,9092;0,0343744
2995,8733;0,0343746
2996,8376;0,0343908
2997,8018;0,0344164
2998,7661;0,0344452
2999,7302;0,0344741
3000,6946;0,0345029
3001,6587;0,034534
3002,6230;0,0345705
3003,5872;0,0346146
3004,5515;0,0346671
3005,5156;0,0347262
3006,4800;0,0347879
3007,4441;0,0348462
3008,4084;0,0348951
3009,3726;0,034931
3010,3369;0,0349556
3011,3010;0,0349763
3012,2654;0,0350032
3013,2295;0,0350443
3014,1938;0,035102
3015,1580;0,0351726
3016,1223;0,0352499
3017,0864;0,0353299
3018,0508;0,035413
3019,0149;0,0355027
3019,9792;0,0356016
3020,9434;0,0357086
3021,9077;0,0358191
3022,8718;0,0359277
3023,8362;0,036033
3024,8003;0,0361386
3025,7646;0,036251
3026,7288;0,0363754
3027,6931;0,0365115
3028,6572;0,0366529
3029,6216;0,036791
3030,5857;0,0369189
3031,5500;0,0370357
3032,5142;0,0371459
3033,4785;0,0372565
3034,4426;0,0373734
3035,4070;0,0374983
3036,3711;0,0376298
3037,3354;0,0377646
3038,2996;0,0379003
3039,2639;0,0380359
3040,2280;0,038172
3041,1924;0,0383104
3042,1565;0,0384531
3043,1208;0,0386018
3044,0850;0,0387576
3045,0493;0,0389199
3046,0134;0,0390864
3046,9778;0,0392536
3047,9419;0,0394183
3048,9063;0,0395794
3049,8704;0,0397387
3050,8347;0,0399
3051,7988;0,0400674
3052,7632;0,040243
3053,7273;0,0404261
3054,6917;0,0406129
3055,6558;0,0407985
3056,6201;0,040979
3057,5842;0,0411536
3058,5486;0,0413245
3059,5127;0,0414959
3060,4771;0,0416709
3061,4412;0,0418492
3062,4055;0,0420265
3063,3696;0,0421967
3064,3340;0,0423553
3065,2981;0,0425023
3066,2625;0,0426431
3067,2266;0,0427868
3068,1909;0,0429414
3069,1550;0,0431112
3070,1194;0,043295
3071,0835;0,0434871
3072,0479;0,0436798
3073,0120;0,0438662
3073,9763;0,0440421
3074,9404;0,0442069
3075,9048;0,0443636
3076,8689;0,044517
3077,8333;0,0446719
3078,7974;0,0448314
3079,7617;0,0449961
3080,7258;0,0451644
3081,6902;0,0453347
3082,6543;0,0455065
3083,6187;0,0456803
3084,5828;0,0458565
3085,5471;0,046034
3086,5112;0,0462094
3087,4756;0,0463799
3088,4397;0,0465451
3089,4041;0,0467092
3090,3682;0,0468788
3091,3325;0,0470598
3092,2966;0,0472534
3093,2610;0,0474556
3094,2251;0,0476597
3095,1895;0,0478598
3096,1536;0,0480536
3097,1179;0,0482412
3098,0820;0,0484231
3099,0464;0,0485991
3100,0105;0,0487695
3100,9749;0,0489372
3101,9390;0,0491083
3102,9033;0,0492894
3103,8674;0,0494827
3104,8318;0,0496847
3105,7959;0,0498883
3106,7603;0,0500887
3107,7244;0,0502876
3108,6887;0,0504916
3109,6528;0,0507079
3110,6172;0,0509374
3111,5813;0,0511745
3112,5457;0,0514106
3113,5098;0,0516403
3114,4741;0,0518634
3115,4382;0,0520833
3116,4026;0,052301
3117,3667;0,0525131
3118,3311;0,0527143
3119,2952;0,0529037
3120,2595;0,0530877
3121,2236;0,0532788
3122,1880;0,0534879
3123,1521;0,0537176
3124,1165;0,0539612
3125,0806;0,0542068
3126,0449;0,0544445
3127,0090;0,0546716
3127,9734;0,0548917
3128,9375;0,0551108
3129,9019;0,0553338
3130,8660;0,0555623
3131,8303;0,0557963
3132,7944;0,0560352
3133,7588;0,0562786
3134,7229;0,0565253
3135,6873;0,0567736
3136,6514;0,0570216
3137,6157;0,0572684
3138,5798;0,057515
3139,5442;0,0577627
3140,5083;0,0580116
3141,4727;0,0582596
3142,4368;0,0585038
3143,4011;0,0587423
3144,3652;0,0589769
3145,3296;0,0592123
3146,2937;0,0594547
3147,2581;0,0597086
3148,2222;0,0599748
3149,1865;0,06025
3150,1506;0,0605284
3151,1150;0,0608032
3152,0791;0,0610698
3153,0435;0,061327
3154,0076;0,061578
3154,9719;0,0618282
3155,9360;0,0620834
3156,9004;0,0623466
3157,8645;0,0626167
3158,8289;0,0628897
3159,7930;0,0631611
3160,7573;0,0634279
3161,7214;0,0636901
3162,6858;0,0639493
3163,6499;0,064207
3164,6143;0,0644642
3165,5784;0,064721
3166,5427;0,0649783
3167,5068;0,0652383
3168,4712;0,0655036
3169,4353;0,0657396
3170,3997;0,0660197
3171,3638;0,066306
3172,3281;0,0665953
3173,2922;0,0668843
3174,2566;0,0671694
3175,2207;0,0674476
3176,1851;0,0677163
3177,1492;0,0679753
3178,1135;0,0682261
3179,0776;0,0684724
3180,0420;0,0687176
3181,0061;0,068964
3181,9705;0,0692124
3182,9346;0,0694634
3183,8989;0,0697184
3184,8630;0,0699795
3185,8274;0,0702473
3186,7915;0,0705197
3187,7559;0,0707916
3188,7200;0,0710581
3189,6843;0,0713175
3190,6484;0,0715728
3191,6128;0,0718291
3192,5769;0,0720897
3193,5413;0,0723521
3194,5054;0,0726098
3195,4697;0,0728558
3196,4338;0,0730888
3197,3982;0,0733146
3198,3623;0,0735434
3199,3267;0,073783
3200,2908;0,0740347
3201,2551;0,0742923
3202,2192;0,0745473
3203,1836;0,0747937
3204,1477;0,0750311
3205,1121;0,0752641
3206,0762;0,0754982
3207,0405;0,0757366
3208,0046;0,0759793
3208,9690;0,0762241
3209,9331;0,0764689
3210,8975;0,0767126
3211,8616;0,0769553
3212,8259;0,0771974
3213,7900;0,0774384
3214,7544;0,0776769
3215,7185;0,0779108
3216,6829;0,0781376
3217,6470;0,0783556
3218,6113;0,0785653
3219,5754;0,0787703
3220,5398;0,0789759
3221,5039;0,0791876
3222,4683;0,0794084
3223,4324;0,0796375
3224,3967;0,0798716
3225,3608;0,0801067
3226,3252;0,0803405
3227,2893;0,0805721
3228,2537;0,0808013
3229,2178;0,0810275
3230,1821;0,0812499
3231,1462;0,0814688
3232,1106;0,081687
3233,0747;0,081909
3234,0391;0,0821389
3235,0032;0,0823773
3235,9675;0,0826209
3236,9316;0,0828632
3237,8960;0,0830981
3238,8601;0,0833229
3239,8245;0,0835392
3240,7886;0,0837516
3241,7529;0,083964
3242,7170;0,084178
3243,6814;0,084392
3244,6455;0,0846044
3245,6099;0,0848167
3246,5740;0,0850353
3247,5383;0,0852696
3248,5024;0,0855264
3249,4668;0,0858055
3250,4309;0,0860974
3251,3953;0,0863869
3252,3594;0,0866593
3253,3237;0,086907
3254,2878;0,0871323
3255,2522;0,0873452
3256,2163;0,0875576
3257,1807;0,0877776
3258,1448;0,0880075
3259,1091;0,0882449
3260,0732;0,0884856
3261,0376;0,0887265
3262,0017;0,0889655
3262,9661;0,0892014
3263,9302;0,0894321
3264,8945;0,0896538
3265,8586;0,0898625
3266,8230;0,0900559
3267,7871;0,0902354
3268,7515;0,0904067
3269,7156;0,090577
3270,6799;0,0907508
3271,6440;0,0909258
3272,6084;0,0910917
3273,5725;0,0912344
3274,5369;0,0913431
3275,5010;0,0914166
3276,4653;0,0914654
3277,4294;0,0915075
3278,3938;0,0915599
3279,3579;0,091632
3280,3223;0,0917225
3281,2864;0,0918218
3282,2507;0,0919175
3283,2148;0,0920002
3284,1792;0,0920659
3285,1433;0,0921169
3286,1077;0,0921583
3287,0718;0,0921954
3288,0361;0,092232
3289,0002;0,0922692
3289,9646;0,0923071
3290,9287;0,0923447
3291,8931;0,092381
3292,8572;0,0924139
3293,8215;0,0924401
3294,7856;0,0924552
3295,7500;0,0924554
3296,7141;0,0924398
3297,6785;0,0924115
3298,6426;0,0923774
3299,6069;0,0923452
3300,5710;0,0923202
3301,5354;0,0923041
3302,4995;0,0922946
3303,4639;0,0922885
3304,4280;0,092283
3305,3923;0,0922772
3306,3564;0,092271
3307,3208;0,0922637
3308,2849;0,0922537
3309,2493;0,0922391
3310,2134;0,0922194
3311,1777;0,0921968
3312,1418;0,0921761
3313,1062;0,0921638
3314,0703;0,0921669
3315,0347;0,0921913
3315,9988;0,0922403
3316,9631;0,0923136
3317,9272;0,0924063
3318,8916;0,0925098
3319,8557;0,0926143
3320,8201;0,0927125
3321,7842;0,0928025
3322,7485;0,0928882
3323,7126;0,0929752
3324,6770;0,0930662
3325,6411;0,0931579
3326,6055;0,0932423
3327,5696;0,0933122
3328,5339;0,0933663
3329,4980;0,0934103
3330,4624;0,0934528
3331,4265;0,0934975
3332,3909;0,0935397
3333,3550;0,0935676
3334,3193;0,0935688
3335,2834;0,0935382
3336,2478;0,0934801
3337,2119;0,0934044
3338,1763;0,0933187
3339,1404;0,0932238
3340,1047;0,0931147
3341,0688;0,0929865
3342,0332;0,0928403
3342,9973;0,0926831
3343,9617;0,0925233
3344,9258;0,0923643
3345,8901;0,0922018
3346,8542;0,0920269
3347,8186;0,0918324
3348,7827;0,0916178
3349,7471;0,0913902
3350,7112;0,0911607
3351,6755;0,0909389
3352,6396;0,0907299
3353,6040;0,0905339
3354,5681;0,0903481
3355,5325;0,0901682
3356,4966;0,0899903
3357,4609;0,0898119
3358,4250;0,0896327
3359,3894;0,0894557
3360,3535;0,0892858
3361,3179;0,0891269
3362,2820;0,0889796
3363,2463;0,0888386
3364,2104;0,0886951
3365,1748;0,0885398
3366,1389;0,088367
3367,1033;0,0881759
3368,0674;0,0879699
3369,0317;0,0877539
3369,9958;0,0875332
3370,9602;0,0873137
3371,9243;0,0871014
3372,8887;0,0869015
3373,8528;0,0867158
3374,8171;0,0865412
3375,7813;0,0863705
3376,7456;0,0861963
3377,7097;0,0860152
3378,6741;0,0858293
3379,6382;0,0856431
3380,6025;0,0854594
3381,5667;0,0852767
3382,5310;0,0850914
3383,4951;0,0849034
3384,4595;0,0847189
3385,4236;0,0845492
3386,3879;0,0844031
3387,3521;0,0842791
3388,3164;0,0841644
3389,2805;0,0840397
3390,2449;0,0838899
3391,2090;0,0837107
3392,1733;0,0835103
3393,1375;0,0833029
3394,1018;0,0831006
3395,0659;0,0829083
3396,0303;0,0827248
3396,9944;0,0825464
3397,9587;0,0823694
3398,9229;0,0821899
3399,8872;0,0820027
3400,8513;0,0818022
3401,8157;0,0815852
3402,7798;0,0813525
3403,7441;0,0811098
3404,7083;0,080864
3405,6726;0,0806207
3406,6367;0,0803837
3407,6011;0,0801558
3408,5652;0,0799395
3409,5295;0,079734
3410,4937;0,0795325
3411,4580;0,0793222
3412,4221;0,0790901
3413,3865;0,078831
3414,3506;0,0785523
3415,3149;0,0782697
3416,2791;0,0779978
3417,2434;0,0777398
3418,2075;0,0774854
3419,1719;0,0772179
3420,1360;0,0769255
3421,1003;0,0766101
3422,0645;0,0762867
3423,0288;0,0759744
3423,9929;0,0756864
3424,9573;0,0754246
3425,9214;0,0751812
3426,8857;0,0749438
3427,8499;0,0747012
3428,8142;0,0744477
3429,7783;0,0741832
3430,7427;0,0739115
3431,7068;0,0736366
3432,6711;0,0733607
3433,6353;0,073084
3434,5996;0,0728067
3435,5637;0,0725298
3436,5281;0,0722542
3437,4922;0,071979
3438,4565;0,0717014
3439,4207;0,0714189
3440,3850;0,0711324
3441,3491;0,0708461
3442,3135;0,0705637
3443,2776;0,0702823
3444,2419;0,069991
3445,2061;0,069677
3446,1704;0,0693358
3447,1345;0,0689785
3448,0989;0,068628
3449,0630;0,0683049
3450,0273;0,0680143
3450,9915;0,0677446
3451,9558;0,0674765
3452,9199;0,0671952
3453,8843;0,066897
3454,8484;0,0665888
3455,8127;0,0662799
3456,7769;0,0659755
3457,7412;0,0656746
3458,7053;0,0653735
3459,6697;0,0650704
3460,6338;0,0647674
3461,5981;0,0644684
3462,5623;0,0641758
3463,5266;0,0638881
3464,4907;0,0636007
3465,4551;0,0633083
3466,4192;0,0630081
3467,3835;0,0627016
3468,3477;0,0623929
3469,3120;0,0620858
3470,2761;0,0617801
3471,2405;0,0614717
3472,2046;0,0611563
3473,1689;0,0608361
3474,1331;0,0605231
3475,0974;0,0602347
3476,0615;0,0599821
3477,0259;0,0597593
3477,9900;0,0595413
3478,9543;0,0592945
3479,9185;0,0589946
3480,8828;0,0586433
3481,8469;0,0582689
3482,8113;0,0579101
3483,7754;0,0575921
3484,7397;0,0573127
3485,7039;0,0570482
3486,6682;0,0567702
3487,6323;0,0564642
3488,5967;0,0561375
3489,5608;0,0558128
3490,5251;0,0555117
3491,4893;0,0552402
3492,4536;0,0549854
3493,4177;0,0547247
3494,3821;0,0544418
3495,3462;0,05414
3496,3105;0,0538427
3497,2747;0,0535775
3498,2390;0,0533555
3499,2031;0,0531587
3500,1675;0,052947
3501,1316;0,052679
3502,0959;0,0523397
3503,0601;0,0519547
3504,0244;0,0515749
3504,9885;0,0512405
3505,9529;0,0509553
3506,9170;0,0506898
3507,8813;0,0504061
3508,8455;0,0500841
3509,8098;0,0497335
3510,7739;0,0493857
3511,7383;0,0490692
3512,7024;0,0487913
3513,6667;0,0485385
3514,6309;0,0482921
3515,5952;0,0480433
3516,5593;0,0477979
3517,5237;0,047569
3518,4878;0,0473645
3519,4521;0,0471799
3520,4163;0,0469993
3521,3806;0,0468042
3522,3447;0,0465822
3523,3091;0,04633
3524,2732;0,0460488
3525,2375;0,0457379
3526,2017;0,0453936
3527,1660;0,0450173
3528,1301;0,0446247
3529,0945;0,0442468
3530,0586;0,0439161
3531,0229;0,0436481
3531,9871;0,0434317
3532,9514;0,043235
3533,9155;0,0430199
3534,8799;0,04276
3535,8440;0,0424533
3536,8083;0,0421257
3537,7725;0,0418188
3538,7368;0,0415693
3539,7009;0,0413917
3540,6653;0,0412719
3541,6294;0,0411702
3542,5938;0,0410322
3543,5579;0,0408071
3544,5222;0,0404767
3545,4863;0,0400755
3546,4507;0,0396759
3547,4148;0,0393395
3548,3792;0,0390763
3549,3433;0,0388469
3550,3076;0,0385935
3551,2717;0,0382795
3552,2361;0,0379145
3553,2002;0,0375489
3554,1646;0,0372384
3555,1287;0,0370037
3556,0930;0,0368216
3557,0571;0,0366493
3558,0215;0,0364586
3558,9856;0,0362594
3559,9500;0,0360957
3560,9141;0,0360128
3561,8784;0,0360175
3562,8425;0,0360583
3563,8069;0,0360294
3564,7710;0,0357988
3565,7354;0,035277
3566,6995;0,0345188
3567,6638;0,0337383
3568,6279;0,0331502
3569,5923;0,0328164
3570,5564;0,0326626
3571,5208;0,0325769
3572,4849;0,032477
3573,4492;0,0323291
3574,4133;0,0321389
3575,3777;0,0319279
3576,3418;0,0317103
3577,3062;0,0314857
3578,2703;0,0312531
3579,2346;0,0310295
3580,1987;0,0308528
3581,1631;0,0307606
3582,1272;0,0307606
3583,0916;0,0308126
3584,0557;0,0308305
3585,0200;0,0307025
3585,9841;0,0303464
3586,9485;0,0297983
3587,9126;0,0292411
3588,8770;0,0288748
3589,8411;0,028761
3590,8054;0,0288174
3591,7695;0,0289068
3592,7339;0,028912
3593,6980;0,0287792
3594,6624;0,0285332
3595,6265;0,0282499
3596,5908;0,0279909
3597,5549;0,0277573
3598,5193;0,027507
3599,4834;0,0272103
3600,4478;0,0268917
3601,4119;0,026618
3602,3762;0,0264422
3603,3403;0,0263574
3604,3047;0,0262972
3605,2688;0,0261697
3606,2332;0,0259021
3607,1973;0,0254831
3608,1616;0,02498
3609,1257;0,0245014
3610,0901;0,0241301
3611,0542;0,0238903
3612,0186;0,0237633
3612,9827;0,0237169
3613,9470;0,0237154
3614,9111;0,0237143
3615,8755;0,0236557
3616,8396;0,0234794
3617,8040;0,0231575
3618,7681;0,0227425
3619,7324;0,0223752
3620,6965;0,0222057
3621,6609;0,0222882
3622,6250;0,0225612
3623,5894;0,0229031
3624,5535;0,0231817
3625,5178;0,0232652
3626,4819;0,0230216
3627,4463;0,0223746
3628,4104;0,021444
3629,3748;0,02057
3630,3389;0,020029
3631,3032;0,0198125
3632,2673;0,0197412
3633,2317;0,0196504
3634,1958;0,0194676
3635,1602;0,019206
3636,1243;0,0189216
3637,0886;0,0186626
3638,0527;0,0184436
3639,0171;0,0182558
3639,9812;0,0180964
3640,9456;0,0179845
3641,9097;0,0179499
3642,8740;0,0180055
3643,8381;0,0181266
3644,8025;0,0182453
3645,7666;0,0182453
3646,7310;0,0179579
3647,6951;0,0172309
3648,6594;0,0161646
3649,6235;0,0152163
3650,5879;0,0147669
3651,5520;0,0147774
3652,5164;0,0149832
3653,4805;0,0151457
3654,4448;0,015136
3655,4089;0,0149438
3656,3733;0,0146617
3657,3374;0,0144213
3658,3018;0,0142965
3659,2659;0,014266
3660,2302;0,0142642
3661,1943;0,0142506
3662,1587;0,0142379
3663,1228;0,0142671
3664,0872;0,0143583
3665,0513;0,0144802
3666,0156;0,0145599
3666,9797;0,0145187
3667,9441;0,0143203
3668,9082;0,0140207
3669,8726;0,0137646
3670,8367;0,0136733
3671,8010;0,013735
3672,7651;0,0138253
3673,7295;0,0137978
3674,6936;0,013571
3675,6580;0,0132041
3676,6221;0,0128779
3677,5864;0,0127287
3678,5505;0,0127477
3679,5149;0,0128537
3680,4790;0,0129885
3681,4434;0,0131428
3682,4075;0,0133291
3683,3718;0,0135462
3684,3359;0,013763
3685,3003;0,0139272
3686,2644;0,0139849
3687,2288;0,0138987
3688,1929;0,0136766
3689,1572;0,0134073
3690,1213;0,0132336
3691,0857;0,0132401
3692,0498;0,0134011
3693,0142;0,0136399
3693,9783;0,0138939
3694,9426;0,0141305
3695,9067;0,0143335
3696,8711;0,0144863
3697,8352;0,0145659
3698,7996;0,0145494
3699,7637;0,0144314
3700,7280;0,0142441
3701,6921;0,0140619
3702,6565;0,0139705
3703,6206;0,0140154
3704,5850;0,014178
3705,5491;0,0143944
3706,5134;0,0145836
3707,4775;0,0146583
3708,4419;0,0145235
3709,4060;0,0141002
3710,3704;0,0134137
3711,3345;0,0126713
3712,2988;0,0121499
3713,2629;0,0119803
3714,2273;0,0121074
3715,1914;0,0124038
3716,1558;0,0127635
3717,1199;0,0131289
3718,0842;0,0134813
3719,0483;0,0138194
3720,0127;0,0141383
3720,9768;0,0144188
3721,9412;0,0146313
3722,9053;0,0147542
3723,8696;0,0147922
3724,8337;0,0147821
3725,7981;0,0147754
3726,7622;0,0148068
3727,7266;0,014877
3728,6907;0,0149626
3729,6550;0,0150383
3730,6191;0,0150871
3731,5835;0,0150882
3732,5476;0,0149902
3733,5120;0,014709
3734,4761;0,0142076
3735,4404;0,0136089
3736,4045;0,0131484
3737,3689;0,0129711
3738,3330;0,0130414
3739,2974;0,0132153
3740,2615;0,013334
3741,2258;0,013274
3742,1899;0,0129781
3743,1543;0,0125031
3744,1184;0,0120472
3745,0828;0,0118394
3746,0469;0,0119327
3747,0112;0,0121669
3747,9753;0,0123051
3748,9397;0,0121586
3749,9038;0,0116879
3750,8682;0,0110967
3751,8323;0,0107263
3752,7966;0,0107409
3753,7607;0,0110312
3754,7251;0,0113868
3755,6892;0,0116412
3756,6536;0,0117131
3757,6177;0,01161
3758,5820;0,0114211
3759,5461;0,0112699
3760,5105;0,0112357
3761,4746;0,0113149
3762,4390;0,0114504
3763,4031;0,0115795
3764,3674;0,011661
3765,3315;0,0116783
3766,2959;0,011629
3767,2600;0,0115152
3768,2244;0,0113447
3769,1885;0,0111444
3770,1528;0,0109699
3771,1169;0,0108871
3772,0813;0,0109322
3773,0454;0,0110884
3774,0098;0,0112958
3774,9739;0,0114805
3775,9382;0,0115801
3776,9023;0,0115634
3777,8667;0,0114462
3778,8308;0,0112929
3779,7952;0,0111835
3780,7593;0,0111612
3781,7236;0,0112121
3782,6877;0,0112873
3783,6521;0,011338
3784,6162;0,0113374
3785,5806;0,0112898
3786,5447;0,0112241
3787,5090;0,0111786
3788,4731;0,0111828
3789,4375;0,0112464
3790,4016;0,0113568
3791,3660;0,0114878
3792,3301;0,0116125
3793,2944;0,0117157
3794,2585;0,0117993
3795,2229;0,0118735
3796,1870;0,0119385
3797,1514;0,0119691
3798,1155;0,0119193
3799,0798;0,011753
3800,0439;0,0114876
3801,0083;0,0112173
3801,9724;0,0110591
3802,9368;0,0110496
3803,9009;0,0111106
3804,8652;0,0111204
3805,8293;0,0110113
3806,7937;0,0108285
3807,7578;0,0107086
3808,7222;0,0107687
3809,6863;0,0110081
3810,6506;0,0113247
3811,6147;0,0115971
3812,5791;0,011748
3813,5432;0,0117692
3814,5076;0,0117195
3815,4717;0,0116868
3816,4360;0,0117175
3817,4001;0,011768
3818,3645;0,0117367
3819,3286;0,01155
3820,2930;0,0112437
3821,2571;0,0109661
3822,2214;0,0108653
3823,1855;0,0109672
3824,1499;0,0111832
3825,1140;0,0113996
3826,0784;0,0115435
3827,0425;0,0115991
3828,0068;0,0115931
3828,9709;0,0115672
3829,9353;0,011555
3830,8994;0,0115722
3831,8638;0,0116191
3832,8279;0,0116849
3833,7922;0,0117498
3834,7563;0,011786
3835,7207;0,0117639
3836,6848;0,0116684
3837,6492;0,0115179
3838,6133;0,0113652
3839,5776;0,0112615
3840,5417;0,0112164
3841,5061;0,0112006
3842,4702;0,0111872
3843,4346;0,0111851
3844,3987;0,0112383
3845,3630;0,0113914
3846,3271;0,0116529
3847,2915;0,0119817
3848,2556;0,0123007
3849,2200;0,0125154
3850,1841;0,0125196
3851,1484;0,0122006
3852,1125;0,0115116
3853,0769;0,0106589
3854,0410;0,0100908
3855,0054;0,0100553
3855,9695;0,010416
3856,9338;0,0109171
3857,8979;0,011379
3858,8623;0,0117184
3859,8264;0,0119125
3860,7908;0,0119702
3861,7549;0,0119213
3862,7192;0,0118176
3863,6833;0,0117238
3864,6477;0,0116867
3865,6118;0,0117073
3866,5762;0,0117485
3867,5403;0,0117644
3868,5046;0,0117246
3869,4688;0,0116238
3870,4331;0,0114835
3871,3972;0,0113457
3872,3616;0,0112552
3873,3257;0,0112404
3874,2900;0,0113027
3875,2542;0,0114195
3876,2185;0,0115555
3877,1826;0,0116767
3878,1470;0,0117619
3879,1111;0,0118079
3880,0754;0,0118241
3881,0396;0,0118164
3882,0039;0,0117745
3882,9680;0,0116808
3883,9324;0,0115414
3884,8965;0,0114063
3885,8608;0,0113453
3886,8250;0,0113911
3887,7893;0,0115054
3888,7534;0,0116025
3889,7178;0,011607
3890,6819;0,0115089
3891,6462;0,0113847
3892,6104;0,0113489
3893,5747;0,0114597
3894,5388;0,0116796
3895,5032;0,0119209
3896,4673;0,0121073
3897,4316;0,0122024
3898,3958;0,0122077
3899,3601;0,0121442
3900,3242;0,012028
3901,2886;0,0118593
3902,2527;0,0116381
3903,2170;0,0113931
3904,1812;0,0111863
3905,1455;0,011075
3906,1096;0,0110713
3907,0740;0,0111422
3908,0381;0,011242
3909,0024;0,0113402
3909,9666;0,011431
3910,9309;0,0115238
3911,8950;0,0116264
3912,8594;0,0117313
3913,8235;0,0118132
3914,7878;0,0118406
3915,7520;0,0117957
3916,7163;0,0116942
3917,6804;0,0115881
3918,6448;0,011536
3919,6089;0,0115631
3920,5732;0,0116452
3921,5374;0,011729
3922,5017;0,0117657
3923,4658;0,0117398
3924,4302;0,0116802
3925,3943;0,0116405
3926,3586;0,0116605
3927,3228;0,0117389
3928,2871;0,0118372
3929,2512;0,0119017
3930,2156;0,011891
3931,1797;0,0117984
3932,1440;0,0116589
3933,1082;0,0115286
3934,0725;0,0114511
3935,0366;0,0114393
3936,0010;0,0114815
3936,9651;0,0115553
3937,9294;0,0116372
3938,8936;0,0117068
3939,8579;0,0117495
3940,8220;0,0117625
3941,7864;0,0117587
3942,7505;0,0117623
3943,7148;0,0117933
3944,6790;0,0118506
3945,6433;0,0119097
3946,6074;0,0119345
3947,5718;0,0118989
3948,5359;0,0118035
3949,5002;0,0116796
3950,4644;0,0115715
3951,4287;0,0115109
3952,3928;0,0115026
3953,3572;0,0115302
3954,3213;0,0115715
3955,2856;0,011611
3956,2498;0,0116422
3957,2141;0,0116643
3958,1782;0,0116757
3959,1426;0,0116723
3960,1067;0,0116513
3961,0710;0,0116158
3962,0352;0,0115765
3962,9995;0,0115472
3963,9636;0,0115365
3964,9280;0,0115435
3965,8921;0,0115595
3966,8564;0,0115742
3967,8206;0,0115824
3968,7849;0,0115859
3969,7490;0,01159
3970,7134;0,0115982
3971,6775;0,0116085
3972,6418;0,0116142
3973,6060;0,0116092
3974,5703;0,011593
3975,5344;0,0115707
3976,4988;0,0115504
3977,4629;0,011537
3978,4272;0,0115304
3979,3914;0,0115261
3980,3557;0,0115195
3981,3198;0,0115092
3982,2842;0,0114988
3983,2483;0,0114945
3984,2126;0,0115018
3985,1768;0,0115218
3986,1411;0,0115499
3987,1052;0,0115781
3988,0696;0,0115976
3989,0337;0,0116035
3989,9980;0,0115963
3990,9622;0,0115809
3991,9265;0,011564
3992,8906;0,0115498
3993,8550;0,0115393
3994,8191;0,0115305
3995,7834;0,0115218
3996,7476;0,0115131
3997,7119;0,0115065
3998,6760;0,011505
3999,6404;0,011511
4000,6045;0,0116191

##### Extended Information
[Comments]
Sample name
Comment
Username
Division
Organization;UNIVERSIDAD INDUSTRIAL DE SANTANDER

[Detailed Information]
Creation date;14/03/2025 8:50 a.m.

Data array type;Linear data array
Horizontal axis;Wavenumber [cm-1]
Vertical axis;Abs
Start;399,193 cm-1
End;4000,6 cm-1
Data interval;0,964233 cm-1
Data points;3736    

[Measurement Information]
Model name;FT/IR-4X1typeA
Serial No.;A035162111

Accessory;ATR PRO 4X
Accessory S/N;A021162126
Incident angle;45 deg

Measurement date;14/03/2025 8:49 a.m.

Light source;Standard
Detector;TGS
Accumulation;40
Resolution;4 cm-1
Zero filling;On
Apodization;Cosine
Gain;Auto (8)
Aperture;Auto (7 mm)
Scan speed;Auto (2 mm/sec)
Filter;Auto (12800 Hz)

