TITLE;
DATA TYPE;INFRARED SPECTRUM
ORIGIN;JASCO
OWNER;
DATE;25/02/19
TIME;15:34:12
SPECTROMETER/DATA SYSTEM;
LOCALE;9226
RESOLUTION;
DELTAX;0,964233
XUNITS;1/CM
YUNITS;ABSORBANCE
FIRSTX;  399,1927
LASTX; 4000,6047
NPOINTS;    3736
FIRSTY;     0,21018
MAXY;     0,28643
MINY;     0,01699
XYDATA
399,1927;0,210182
400,1569;0,209425
401,1211;0,20675
402,0854;0,203093
403,0496;0,199333
404,0138;0,196154
404,9781;0,194039
405,9423;0,193187
406,9065;0,193432
407,8708;0,194282
408,8350;0,195142
409,7992;0,195573
410,7635;0,195456
411,7277;0,194982
412,6919;0,194487
413,6562;0,194238
414,6204;0,194343
415,5846;0,194816
416,5489;0,19566
417,5131;0,196882
418,4773;0,198364
419,4416;0,199744
420,4058;0,200627
421,3700;0,200888
422,3343;0,200657
423,2985;0,20013
424,2627;0,199509
425,2270;0,198984
426,1912;0,198717
427,1554;0,198799
428,1197;0,199242
429,0839;0,199999
430,0481;0,200982
431,0124;0,202053
431,9766;0,203024
432,9408;0,203682
433,9051;0,203869
434,8693;0,203562
435,8335;0,202921
436,7978;0,202224
437,7620;0,201724
438,7262;0,201515
439,6905;0,201517
440,6547;0,201561
441,6189;0,201508
442,5832;0,201344
443,5474;0,20116
444,5116;0,201047
445,4759;0,200973
446,4401;0,200777
447,4043;0,200278
448,3686;0,199404
449,3328;0,198245
450,2970;0,197022
451,2613;0,195988
452,2255;0,195307
453,1897;0,195009
454,1540;0,195012
455,1182;0,195183
456,0824;0,195377
457,0467;0,195456
458,0109;0,195327
458,9751;0,194996
459,9394;0,194601
460,9036;0,194347
461,8678;0,194407
462,8321;0,19485
463,7963;0,1956
464,7605;0,196427
465,7248;0,197009
466,6890;0,197075
467,6532;0,19654
468,6175;0,195556
469,5817;0,194442
470,5459;0,19357
471,5102;0,193222
472,4744;0,193457
473,4386;0,194088
474,4029;0,194825
475,3671;0,195464
476,3313;0,19597
477,2956;0,196411
478,2598;0,196851
479,2240;0,197277
480,1883;0,197608
481,1525;0,197764
482,1167;0,197733
483,0810;0,197594
484,0452;0,197469
485,0094;0,19745
485,9737;0,197548
486,9379;0,197715
487,9021;0,197889
488,8664;0,198032
489,8306;0,198125
490,7948;0,198157
491,7591;0,19813
492,7233;0,19808
493,6875;0,198089
494,6518;0,198257
495,6160;0,19865
496,5802;0,19925
497,5445;0,199954
498,5087;0,200606
499,4729;0,201065
500,4372;0,201259
501,4014;0,201234
502,3656;0,201132
503,3299;0,201127
504,2941;0,20134
505,2583;0,201795
506,2226;0,202438
507,1868;0,20318
508,1510;0,203936
509,1153;0,204642
510,0795;0,205259
511,0437;0,205758
512,0080;0,206118
512,9722;0,206347
513,9365;0,206501
514,9007;0,206688
515,8649;0,207038
516,8292;0,207624
517,7934;0,208396
518,7576;0,209176
519,7219;0,209764
520,6861;0,210056
521,6503;0,210086
522,6146;0,209977
523,5788;0,209857
524,5430;0,209812
525,5073;0,209855
526,4715;0,209946
527,4357;0,210025
528,4000;0,210048
529,3642;0,209997
530,3284;0,209862
531,2927;0,209635
532,2569;0,209308
533,2211;0,208881
534,1854;0,208374
535,1496;0,207825
536,1138;0,207292
537,0781;0,206849
538,0423;0,206572
539,0065;0,206519
539,9708;0,206703
540,9350;0,207073
541,8992;0,207525
542,8635;0,207933
543,8277;0,208202
544,7919;0,208297
545,7562;0,208257
546,7204;0,208174
547,6846;0,208144
548,6489;0,208234
549,6131;0,208463
550,5773;0,208806
551,5416;0,209219
552,5058;0,20966
553,4700;0,210109
554,4343;0,210565
555,3985;0,211038
556,3627;0,211517
557,3270;0,211936
558,2912;0,212168
559,2554;0,212059
560,2197;0,211485
561,1839;0,210423
562,1481;0,208974
563,1124;0,207332
564,0766;0,205711
565,0408;0,204266
566,0051;0,203066
566,9693;0,202099
567,9335;0,20132
568,8978;0,200683
569,8620;0,200162
570,8262;0,199747
571,7905;0,199435
572,7547;0,19923
573,7189;0,199131
574,6832;0,19913
575,6474;0,199192
576,6116;0,199253
577,5759;0,199236
578,5401;0,199081
579,5043;0,19878
580,4686;0,198383
581,4328;0,19798
582,3970;0,197661
583,3613;0,197476
584,3255;0,197425
585,2897;0,197468
586,2540;0,197558
587,2182;0,197662
588,1824;0,197768
589,1467;0,197869
590,1109;0,197949
591,0751;0,197974
592,0394;0,197913
593,0036;0,197754
593,9678;0,197518
594,9321;0,197243
595,8963;0,196962
596,8605;0,196679
597,8248;0,196365
598,7890;0,195979
599,7532;0,1955
600,7175;0,194949
601,6817;0,194394
602,6459;0,193917
603,6102;0,193567
604,5744;0,193336
605,5386;0,19315
606,5029;0,192903
607,4671;0,192499
608,4313;0,191893
609,3956;0,191104
610,3598;0,190206
611,3240;0,189301
612,2883;0,188485
613,2525;0,187824
614,2167;0,187335
615,1810;0,186965
616,1452;0,186589
617,1094;0,18604
618,0737;0,185173
619,0379;0,183943
620,0021;0,182428
620,9664;0,18079
621,9306;0,179197
622,8948;0,177769
623,8591;0,176545
624,8233;0,175475
625,7875;0,174539
626,7518;0,173679
627,7160;0,172867
628,6802;0,172096
629,6445;0,17137
630,6087;0,170687
631,5729;0,170039
632,5372;0,169425
633,5014;0,168857
634,4656;0,168356
635,4299;0,167938
636,3941;0,167594
637,3583;0,167294
638,3226;0,166992
639,2868;0,166647
640,2510;0,166235
641,2153;0,165756
642,1795;0,165237
643,1437;0,164722
644,1080;0,164265
645,0722;0,163908
646,0364;0,163665
647,0007;0,163504
647,9649;0,163363
648,9291;0,163175
649,8934;0,162915
650,8576;0,162615
651,8218;0,162353
652,7861;0,162203
653,7503;0,162195
654,7145;0,162301
655,6788;0,162453
656,6430;0,162582
657,6072;0,16266
658,5715;0,162693
659,5357;0,162693
660,4999;0,162641
661,4642;0,162478
662,4284;0,162133
663,3926;0,161559
664,3569;0,160772
665,3211;0,159913
666,2853;0,159258
667,2496;0,15901
668,2138;0,158893
669,1780;0,158344
670,1423;0,157334
671,1065;0,156161
672,0707;0,154877
673,0350;0,153389
673,9992;0,151673
674,9634;0,149816
675,9277;0,147958
676,8919;0,146206
677,8561;0,144592
678,8204;0,143095
679,7846;0,141693
680,7488;0,14039
681,7131;0,139212
682,6773;0,13817
683,6415;0,13725
684,6058;0,136422
685,5700;0,135651
686,5342;0,134909
687,4985;0,134178
688,4627;0,133463
689,4269;0,13278
690,3912;0,132164
691,3554;0,131645
692,3196;0,131224
693,2839;0,130863
694,2481;0,130505
695,2123;0,130096
696,1766;0,12962
697,1408;0,129098
698,1050;0,12857
699,0693;0,128067
700,0335;0,127589
700,9977;0,127111
701,9620;0,126601
702,9262;0,126048
703,8904;0,125461
704,8547;0,124879
705,8189;0,124336
706,7831;0,123838
707,7474;0,123357
708,7116;0,122852
709,6758;0,122296
710,6401;0,121691
711,6043;0,121068
712,5685;0,12046
713,5328;0,119886
714,4970;0,119336
715,4612;0,118306
716,4255;0,117819
717,3897;0,117309
718,3539;0,116728
719,3182;0,116024
720,2824;0,115166
721,2466;0,114172
722,2109;0,113109
723,1751;0,112069
724,1393;0,11113
725,1036;0,110325
726,0678;0,109638
727,0320;0,109009
727,9963;0,108362
728,9605;0,107641
729,9247;0,106839
730,8890;0,106006
731,8532;0,105222
732,8174;0,104557
733,7817;0,104034
734,7459;0,10362
735,7101;0,103244
736,6744;0,102839
737,6386;0,10238
738,6028;0,101886
739,5671;0,101401
740,5313;0,100959
741,4955;0,100564
742,4598;0,100185
743,4240;0,0997838
744,3882;0,0993286
745,3525;0,0988142
746,3167;0,098258
747,2809;0,0976872
748,2452;0,0971236
749,2094;0,0965736
750,1736;0,0960275
751,1379;0,095468
752,1021;0,0948832
753,0663;0,0942767
754,0306;0,0936694
754,9948;0,0930908
755,9590;0,0925643
756,9233;0,0920961
757,8875;0,0916724
758,8517;0,0912688
759,8160;0,090864
760,7802;0,0904509
761,7444;0,0900378
762,7087;0,0896402
763,6729;0,0892692
764,6371;0,0889232
765,6014;0,0885878
766,5656;0,088244
767,5298;0,0878791
768,4941;0,0874944
769,4583;0,087105
770,4225;0,0867337
771,3868;0,0864007
772,3510;0,0861155
773,3152;0,0858724
774,2795;0,0856525
775,2437;0,0854293
776,2079;0,0851772
777,1722;0,0848816
778,1364;0,0845441
779,1006;0,0841833
780,0649;0,0838275
781,0291;0,0835028
781,9933;0,0832217
782,9576;0,0829779
783,9218;0,082751
784,8860;0,0825171
785,8503;0,0822617
786,8145;0,0819858
787,7787;0,0817034
788,7430;0,0814328
789,7072;0,0811873
790,6714;0,0809705
791,6357;0,0807771
792,5999;0,0805978
793,5641;0,0804229
794,5284;0,080245
795,4926;0,0800603
796,4568;0,0798692
797,4211;0,0796779
798,3853;0,0794977
799,3495;0,079341
800,3138;0,0792144
801,2780;0,0791138
802,2422;0,079024
803,2065;0,0789265
804,1707;0,0788085
805,1349;0,0786707
806,0992;0,0785248
807,0634;0,078386
808,0276;0,0782628
808,9919;0,0781529
809,9561;0,0780459
810,9203;0,0779321
811,8846;0,077809
812,8488;0,0776826
813,8130;0,0775628
814,7773;0,0774551
815,7415;0,0773565
816,7057;0,0772568
817,6700;0,0771438
818,6342;0,077011
819,5984;0,0768605
820,5627;0,0767029
821,5269;0,0765519
822,4911;0,0764192
823,4554;0,0763097
824,4196;0,0762202
825,3839;0,0761411
826,3481;0,0760603
827,3123;0,0759685
828,2766;0,0758628
829,2408;0,0757476
830,2050;0,0756319
831,1693;0,0755241
832,1335;0,0754262
833,0977;0,0753313
834,0620;0,075225
835,0262;0,0750902
835,9904;0,0749131
836,9547;0,074689
837,9189;0,074424
838,8831;0,074134
839,8474;0,0738406
840,8116;0,0735666
841,7758;0,0733307
842,7401;0,0731448
843,7043;0,0730127
844,6685;0,0729307
845,6328;0,0728891
846,5970;0,072875
847,5612;0,0728742
848,5255;0,0728748
849,4897;0,0728688
850,4539;0,0728532
851,4182;0,0728281
852,3824;0,0727937
853,3466;0,0727476
854,3109;0,0726852
855,2751;0,0726041
856,2393;0,0725088
857,2036;0,0724128
858,1678;0,0723351
859,1320;0,0722906
860,0963;0,0722819
861,0605;0,0722972
862,0247;0,0723173
862,9890;0,0723292
863,9532;0,0723357
864,9174;0,0723567
865,8817;0,072419
866,8459;0,0725413
867,8101;0,0727247
868,7744;0,0729531
869,7386;0,0732031
870,7028;0,0734546
871,6671;0,0736962
872,6313;0,073923
873,5955;0,0741296
874,5598;0,0743078
875,5240;0,0744502
876,4882;0,0745583
877,4525;0,0746487
878,4167;0,0747515
879,3809;0,0749019
880,3452;0,0751288
881,3094;0,0754484
882,2736;0,0758642
883,2379;0,0763727
884,2021;0,076969
885,1663;0,0776483
886,1306;0,0784029
887,0948;0,0792193
888,0590;0,0800779
889,0233;0,0809594
889,9875;0,0818514
890,9517;0,0827494
891,9160;0,0836506
892,8802;0,0845405
893,8444;0,0853831
894,8087;0,0861218
895,7729;0,0866926
896,7371;0,0870432
897,7014;0,0871461
898,6656;0,0870008
899,6298;0,0866266
900,5941;0,0860538
901,5583;0,0853225
902,5225;0,0844852
903,4868;0,0836075
904,4510;0,0827591
905,4152;0,0819971
906,3795;0,0813508
907,3437;0,0808179
908,3079;0,0803755
909,2722;0,0799996
910,2364;0,0796791
911,2007;0,079419
912,1649;0,0792308
913,1292;0,0791222
914,0934;0,0790909
915,0576;0,0791272
916,0219;0,0792211
916,9861;0,0793668
917,9503;0,0795623
918,9146;0,0798061
919,8788;0,0800924
920,8430;0,0804098
921,8073;0,0807424
922,7715;0,0810727
923,7357;0,0813853
924,7000;0,0816706
925,6642;0,0819269
926,6284;0,0821621
927,5927;0,0823911
928,5569;0,0826314
929,5211;0,0828969
930,4854;0,083193
931,4496;0,0835158
932,4138;0,0838552
933,3781;0,0842017
934,3423;0,0845531
935,3065;0,084918
936,2708;0,0853131
937,2350;0,0857567
938,1992;0,08626
939,1635;0,0868235
940,1277;0,0874401
941,0919;0,0881023
942,0562;0,0888101
943,0204;0,0895732
943,9846;0,0904061
944,9489;0,0913198
945,9131;0,0923148
946,8773;0,0933809
947,8416;0,094502
948,8058;0,0956645
949,7700;0,0968639
950,7343;0,0981079
951,6985;0,0994153
952,6627;0,10081
953,6270;0,102316
954,5912;0,103943
955,5554;0,10569
956,5197;0,107534
957,4839;0,109445
958,4481;0,11139
959,4124;0,113341
960,3766;0,115284
961,3408;0,117215
962,3051;0,119136
963,2693;0,121057
964,2335;0,122987
965,1978;0,124942
966,1620;0,126935
967,1262;0,128983
968,0905;0,131098
969,0547;0,133299
970,0189;0,135608
970,9832;0,138059
971,9474;0,140696
972,9116;0,143563
973,8759;0,146696
974,8401;0,150114
975,8043;0,153819
976,7686;0,1578
977,7328;0,162031
978,6970;0,166476
979,6613;0,171072
980,6255;0,175725
981,5897;0,180311
982,5540;0,184689
983,5182;0,188733
984,4824;0,192363
985,4467;0,195557
986,4109;0,198354
987,3751;0,200817
988,3394;0,20301
989,3036;0,204976
990,2678;0,206732
991,2321;0,208283
992,1963;0,209642
993,1605;0,210832
994,1248;0,211894
995,0890;0,212879
996,0532;0,213838
997,0175;0,214813
997,9817;0,215834
998,9459;0,216914
999,9102;0,218051
1000,8744;0,219239
1001,8386;0,220482
1002,8029;0,221802
1003,7671;0,223246
1004,7313;0,224871
1005,6956;0,226733
1006,6598;0,228868
1007,6240;0,231288
1008,5883;0,23398
1009,5525;0,236917
1010,5167;0,240064
1011,4810;0,243373
1012,4452;0,24679
1013,4094;0,250246
1014,3737;0,253667
1015,3379;0,25698
1016,3021;0,260125
1017,2664;0,263061
1018,2306;0,265775
1019,1948;0,268271
1020,1591;0,270571
1021,1233;0,272704
1022,0875;0,274699
1023,0518;0,276577
1024,0160;0,27835
1024,9802;0,280014
1025,9445;0,281558
1026,9087;0,282961
1027,8729;0,284198
1028,8372;0,285233
1029,8014;0,286005
1030,7656;0,28643
1031,7299;0,286404
1032,6941;0,285827
1033,6583;0,284644
1034,6226;0,282874
1035,5868;0,280626
1036,5510;0,278084
1037,5153;0,275465
1038,4795;0,272974
1039,4437;0,270769
1040,4080;0,268942
1041,3722;0,267523
1042,3364;0,26649
1043,3007;0,265781
1044,2649;0,265306
1045,2291;0,264961
1046,1934;0,264637
1047,1576;0,264244
1048,1218;0,263712
1049,0861;0,262998
1050,0503;0,262068
1051,0145;0,260894
1051,9788;0,25945
1052,9430;0,257721
1053,9072;0,255708
1054,8715;0,253431
1055,8357;0,250907
1056,7999;0,248138
1057,7642;0,245095
1058,7284;0,241734
1059,6926;0,238023
1060,6569;0,233979
1061,6211;0,229683
1062,5853;0,225272
1063,5496;0,220901
1064,5138;0,216708
1065,4780;0,212787
1066,4423;0,209175
1067,4065;0,205872
1068,3707;0,202847
1069,3350;0,200059
1070,2992;0,197454
1071,2634;0,194971
1072,2277;0,192545
1073,1919;0,190112
1074,1561;0,187632
1075,1204;0,185089
1076,0846;0,182502
1077,0488;0,179909
1078,0131;0,177363
1078,9773;0,174917
1079,9415;0,17262
1080,9058;0,170511
1081,8700;0,168616
1082,8342;0,166949
1083,7985;0,165508
1084,7627;0,164276
1085,7269;0,163232
1086,6912;0,162349
1087,6554;0,161599
1088,6196;0,160958
1089,5839;0,160404
1090,5481;0,15992
1091,5123;0,159502
1092,4766;0,159159
1093,4408;0,158912
1094,4050;0,158779
1095,3693;0,158769
1096,3335;0,158873
1097,2977;0,159065
1098,2620;0,159313
1099,2262;0,159584
1100,1904;0,159852
1101,1547;0,160093
1102,1189;0,160282
1103,0831;0,160385
1104,0474;0,160371
1105,0116;0,160221
1105,9758;0,159933
1106,9401;0,159524
1107,9043;0,159012
1108,8685;0,158397
1109,8328;0,157656
1110,7970;0,156744
1111,7612;0,155619
1112,7255;0,154267
1113,6897;0,152724
1114,6539;0,151064
1115,6182;0,149386
1116,5824;0,147777
1117,5466;0,146293
1118,5109;0,144935
1119,4751;0,143662
1120,4393;0,142394
1121,4036;0,14104
1122,3678;0,139515
1123,3320;0,137762
1124,2963;0,135752
1125,2605;0,133488
1126,2247;0,130998
1127,1890;0,128327
1128,1532;0,125531
1129,1174;0,122669
1130,0817;0,119799
1131,0459;0,116971
1132,0101;0,114224
1132,9744;0,111585
1133,9386;0,109085
1134,9028;0,106762
1135,8671;0,104667
1136,8313;0,102853
1137,7955;0,101365
1138,7598;0,100221
1139,7240;0,0994085
1140,6882;0,0988904
1141,6525;0,0986145
1142,6167;0,0985292
1143,5809;0,0985926
1144,5452;0,0987759
1145,5094;0,099063
1146,4736;0,0994466
1147,4379;0,0999247
1148,4021;0,100496
1149,3663;0,101153
1150,3306;0,101883
1151,2948;0,102661
1152,2590;0,103456
1153,2233;0,104228
1154,1875;0,104934
1155,1517;0,105523
1156,1160;0,105937
1157,0802;0,106114
1158,0444;0,105983
1159,0087;0,105482
1159,9729;0,104555
1160,9371;0,103165
1161,9014;0,101296
1162,8656;0,0989615
1163,8298;0,0962074
1164,7941;0,0931133
1165,7583;0,0897891
1166,7225;0,086362
1167,6868;0,0829593
1168,6510;0,0796894
1169,6152;0,0766296
1170,5795;0,0738247
1171,5437;0,0712943
1172,5079;0,0690434
1173,4722;0,0670693
1174,4364;0,0653623
1175,4006;0,0639035
1176,3649;0,0626642
1177,3291;0,0616108
1178,2933;0,0607122
1179,2576;0,0599467
1180,2218;0,0593022
1181,1860;0,0587718
1182,1503;0,0583491
1183,1145;0,058025
1184,0787;0,0577894
1185,0430;0,0576346
1186,0072;0,057557
1186,9714;0,0575573
1187,9357;0,0576395
1188,8999;0,0578094
1189,8641;0,0580738
1190,8284;0,0584393
1191,7926;0,0589101
1192,7568;0,0594849
1193,7211;0,0601555
1194,6853;0,0609074
1195,6495;0,0617219
1196,6138;0,0625796
1197,5780;0,0634629
1198,5422;0,0643578
1199,5065;0,0651677
1200,4707;0,06607
1201,4349;0,0669638
1202,3992;0,0678438
1203,3634;0,0687024
1204,3276;0,0695307
1205,2919;0,0703229
1206,2561;0,0710805
1207,2203;0,0718168
1208,1846;0,0725556
1209,1488;0,0733273
1210,1130;0,0741617
1211,0773;0,0750816
1212,0415;0,0760983
1213,0057;0,0772099
1213,9700;0,0784026
1214,9342;0,0796538
1215,8984;0,080938
1216,8627;0,0822305
1217,8269;0,0835118
1218,7911;0,0847701
1219,7554;0,0859997
1220,7196;0,0871974
1221,6838;0,0883588
1222,6481;0,0894755
1223,6123;0,0905361
1224,5765;0,0915295
1225,5408;0,0924488
1226,5050;0,0932948
1227,4692;0,0940752
1228,4335;0,0948006
1229,3977;0,0954784
1230,3619;0,096109
1231,3262;0,0966849
1232,2904;0,0971939
1233,2546;0,0976254
1234,2189;0,0979743
1235,1831;0,0982435
1236,1473;0,0984421
1237,1116;0,0985824
1238,0758;0,0986763
1239,0400;0,0987328
1240,0043;0,0987559
1240,9685;0,0987434
1241,9327;0,098686
1242,8970;0,0985703
1243,8612;0,0983825
1244,8254;0,0981141
1245,7897;0,097766
1246,7539;0,0973481
1247,7181;0,0968761
1248,6824;0,0963666
1249,6466;0,0958334
1250,6108;0,0952872
1251,5751;0,0947364
1252,5393;0,0941894
1253,5035;0,0936531
1254,4678;0,0931304
1255,4320;0,0926168
1256,3962;0,0921001
1257,3605;0,0915636
1258,3247;0,0909923
1259,2889;0,0903775
1260,2532;0,0897184
1261,2174;0,0890187
1262,1816;0,0882813
1263,1459;0,0875057
1264,1101;0,0866894
1265,0743;0,0858307
1266,0386;0,084931
1267,0028;0,0839934
1267,9670;0,0830207
1268,9313;0,0820132
1269,8955;0,0809712
1270,8597;0,0798982
1271,8240;0,0788032
1272,7882;0,0777008
1273,7524;0,0766085
1274,7167;0,075544
1275,6809;0,0745238
1276,6451;0,0735609
1277,6094;0,0726612
1278,5736;0,0718201
1279,5378;0,0710227
1280,5021;0,0702489
1281,4663;0,0694837
1282,4305;0,0687249
1283,3948;0,0679844
1284,3590;0,0672814
1285,3232;0,0666341
1286,2875;0,0660531
1287,2517;0,0655415
1288,2159;0,0650984
1289,1802;0,0647226
1290,1444;0,0644137
1291,1086;0,0641711
1292,0729;0,0639927
1293,0371;0,0638768
1294,0013;0,0638245
1294,9656;0,0638411
1295,9298;0,0639349
1296,8940;0,0641133
1297,8583;0,0643799
1298,8225;0,0647325
1299,7867;0,0651642
1300,7510;0,0656647
1301,7152;0,0662243
1302,6794;0,0668341
1303,6437;0,0674882
1304,6079;0,0681842
1305,5721;0,06892
1306,5364;0,0696912
1307,5006;0,0704885
1308,4648;0,0712997
1309,4291;0,0721121
1310,3933;0,072915
1311,3575;0,0736986
1312,3218;0,0744505
1313,2860;0,0751516
1314,2502;0,0757756
1315,2145;0,0762906
1316,1787;0,0766638
1317,1429;0,076869
1318,1072;0,0768969
1319,0714;0,0767647
1320,0356;0,0765156
1320,9999;0,0762061
1321,9641;0,0758872
1322,9283;0,0755916
1323,8926;0,0753328
1324,8568;0,0751104
1325,8210;0,0749173
1326,7853;0,0747436
1327,7495;0,0745783
1328,7137;0,0744099
1329,6780;0,074226
1330,6422;0,0740156
1331,6064;0,0737716
1332,5707;0,073493
1333,5349;0,0731842
1334,4991;0,0728474
1335,4634;0,0724753
1336,4276;0,0720461
1337,3918;0,0715281
1338,3561;0,0709004
1339,3203;0,0701816
1340,2845;0,0694373
1341,2488;0,0687478
1342,2130;0,0681644
1343,1772;0,067698
1344,1415;0,0673371
1345,1057;0,0670682
1346,0699;0,0668857
1347,0342;0,06679
1347,9984;0,0667848
1348,9626;0,0668734
1349,9269;0,0670564
1350,8911;0,0673297
1351,8553;0,0676845
1352,8196;0,0681095
1353,7838;0,0685945
1354,7480;0,0691325
1355,7123;0,069719
1356,6765;0,070349
1357,6407;0,0710155
1358,6050;0,0717104
1359,5692;0,0724244
1360,5334;0,0731397
1361,4977;0,0738237
1362,4619;0,0744418
1363,4261;0,0749849
1364,3904;0,0754759
1365,3546;0,075944
1366,3188;0,0763993
1367,2831;0,0768286
1368,2473;0,077203
1369,2115;0,0774891
1370,1758;0,0776581
1371,1400;0,0776884
1372,1042;0,0775629
1373,0685;0,0772715
1374,0327;0,0768232
1374,9969;0,0762543
1375,9612;0,0756078
1376,9254;0,0748945
1377,8896;0,0740828
1378,8539;0,0731323
1379,8181;0,0720429
1380,7823;0,070875
1381,7466;0,0697207
1382,7108;0,0686428
1383,6750;0,0676374
1384,6393;0,0666485
1385,6035;0,0656219
1386,5677;0,0645687
1387,5320;0,0635885
1388,4962;0,0628043
1389,4604;0,0622631
1390,4247;0,0619155
1391,3889;0,0616764
1392,3531;0,0614857
1393,3174;0,0613257
1394,2816;0,0612051
1395,2458;0,0611309
1396,2101;0,0610944
1397,1743;0,0610821
1398,1385;0,0610968
1399,1028;0,0611618
1400,0670;0,0613038
1401,0313;0,0615309
1401,9955;0,0618271
1402,9597;0,0621653
1403,9240;0,0625236
1404,8882;0,0628977
1405,8524;0,0633009
1406,8167;0,0637522
1407,7809;0,0642608
1408,7451;0,0648239
1409,7094;0,0654363
1410,6736;0,0660976
1411,6378;0,0668064
1412,6021;0,0675506
1413,5663;0,0683049
1414,5305;0,0690394
1415,4948;0,0697306
1416,4590;0,0703609
1417,4232;0,0709044
1418,3875;0,0713298
1419,3517;0,0716369
1420,3159;0,0718594
1421,2802;0,0720026
1422,2444;0,0720189
1423,2086;0,071854
1424,1729;0,0714978
1425,1371;0,070988
1426,1013;0,0703684
1427,0656;0,0696455
1428,0298;0,0687896
1428,9940;0,0677871
1429,9583;0,066697
1430,9225;0,0656344
1431,8867;0,0646781
1432,8510;0,0638021
1433,8152;0,0628957
1434,7794;0,061848
1435,7437;0,0606567
1436,7079;0,0595047
1437,6721;0,0586638
1438,6364;0,0582602
1439,6006;0,0582048
1440,5648;0,0583341
1441,5291;0,0585394
1442,4933;0,0587931
1443,4575;0,0591145
1444,4218;0,0595231
1445,3860;0,0600121
1446,3502;0,0605488
1447,3145;0,0610964
1448,2787;0,061636
1449,2429;0,0621703
1450,2072;0,0627026
1451,1714;0,0632126
1452,1356;0,0636563
1453,0999;0,0639861
1454,0641;0,0641662
1455,0283;0,0641567
1455,9926;0,0638849
1456,9568;0,0633389
1457,9210;0,0627808
1458,8853;0,0625444
1459,8495;0,0626313
1460,8137;0,0628088
1461,7780;0,0628434
1462,7422;0,0625664
1463,7064;0,0618801
1464,6707;0,0608153
1465,6349;0,0595758
1466,5991;0,0584055
1467,5634;0,0573873
1468,5276;0,0564238
1469,4918;0,0553426
1470,4561;0,0539723
1471,4203;0,0521864
1472,3845;0,0500049
1473,3488;0,0477142
1474,3130;0,0457278
1475,2772;0,0442429
1476,2415;0,0431827
1477,2057;0,0423878
1478,1699;0,0417418
1479,1342;0,0411845
1480,0984;0,0406921
1481,0626;0,0402655
1482,0269;0,0399263
1482,9911;0,0397037
1483,9553;0,0396138
1484,9196;0,0396482
1485,8838;0,0397793
1486,8480;0,0399682
1487,8123;0,0401669
1488,7765;0,0403378
1489,7407;0,0405102
1490,7050;0,0407759
1491,6692;0,0411889
1492,6334;0,0417265
1493,5977;0,0423478
1494,5619;0,0430469
1495,5261;0,0438543
1496,4904;0,0447951
1497,4546;0,0458446
1498,4188;0,0469396
1499,3831;0,0480197
1500,3473;0,0490276
1501,3115;0,0498981
1502,2758;0,0505782
1503,2400;0,051057
1504,2042;0,0513767
1505,1685;0,0515865
1506,1327;0,0516057
1507,0969;0,0512287
1508,0612;0,0505533
1509,0254;0,0499476
1509,9896;0,0495185
1510,9539;0,0491464
1511,9181;0,0487103
1512,8823;0,048148
1513,8466;0,0474383
1514,8108;0,0465842
1515,7750;0,0456145
1516,7393;0,0445817
1517,7035;0,0435356
1518,6677;0,0424929
1519,6320;0,0414432
1520,5962;0,0403988
1521,5604;0,0394359
1522,5247;0,0386556
1523,4889;0,0380942
1524,4531;0,0377005
1525,4174;0,0374007
1526,3816;0,0371635
1527,3458;0,0370044
1528,3101;0,0369409
1529,2743;0,0369586
1530,2385;0,0370185
1531,2028;0,0370855
1532,1670;0,0371459
1533,1312;0,0372123
1534,0955;0,0373118
1535,0597;0,0374519
1536,0239;0,0376032
1536,9882;0,0377335
1537,9524;0,0378546
1538,9166;0,0380118
1539,8809;0,0381813
1540,8451;0,0382315
1541,8093;0,0381682
1542,7736;0,0381682
1543,7378;0,0382983
1544,7020;0,0385139
1545,6663;0,0387744
1546,6305;0,0390643
1547,5947;0,0393677
1548,5590;0,0396573
1549,5232;0,0399071
1550,4874;0,0401148
1551,4517;0,0403068
1552,4159;0,0405149
1553,3801;0,040741
1554,3444;0,0409476
1555,3086;0,0410837
1556,2728;0,0411107
1557,2371;0,0409888
1558,2013;0,0406969
1559,1655;0,0404496
1560,1298;0,0406316
1561,0940;0,0412774
1562,0582;0,0421349
1563,0225;0,0429882
1563,9867;0,0437376
1564,9509;0,044361
1565,9152;0,0448762
1566,8794;0,0453246
1567,8436;0,0457653
1568,8079;0,0462599
1569,7721;0,0468426
1570,7363;0,0474947
1571,7006;0,0481592
1572,6648;0,0487909
1573,6290;0,0493989
1574,5933;0,050048
1575,5575;0,0508039
1576,5217;0,0516648
1577,4860;0,0525776
1578,4502;0,0535055
1579,4144;0,0544376
1580,3787;0,0553719
1581,3429;0,0563133
1582,3071;0,0572671
1583,2714;0,0582298
1584,2356;0,0591917
1585,1998;0,0601472
1586,1641;0,0610958
1587,1283;0,0620302
1588,0925;0,0629265
1589,0568;0,0637465
1590,0210;0,0644478
1590,9852;0,0649917
1591,9495;0,0653441
1592,9137;0,0654761
1593,8779;0,0653765
1594,8422;0,0650683
1595,8064;0,064611
1596,7706;0,0640778
1597,7349;0,063526
1598,6991;0,0629821
1599,6633;0,0624482
1600,6276;0,0619196
1601,5918;0,061399
1602,5560;0,0609009
1603,5203;0,0604428
1604,4845;0,0600296
1605,4487;0,0596439
1606,4130;0,0592532
1607,3772;0,0588324
1608,3414;0,0583924
1609,3057;0,0579884
1610,2699;0,0576851
1611,2341;0,0575026
1612,1984;0,0573976
1613,1626;0,0572911
1614,1268;0,0571094
1615,0911;0,0568204
1616,0553;0,0564757
1617,0195;0,0562218
1617,9838;0,0561887
1618,9480;0,0563629
1619,9122;0,0566212
1620,8765;0,0568408
1621,8407;0,0569574
1622,8049;0,0569704
1623,7692;0,0569265
1624,7334;0,0568856
1625,6976;0,0568796
1626,6619;0,0569077
1627,6261;0,0569651
1628,5903;0,0570615
1629,5546;0,0572042
1630,5188;0,0573714
1631,4830;0,0575141
1632,4473;0,057581
1633,4115;0,0575368
1634,3757;0,0573578
1635,3400;0,0570475
1636,3042;0,056713
1637,2684;0,0565297
1638,2327;0,0565541
1639,1969;0,0567023
1640,1611;0,0568726
1641,1254;0,0570084
1642,0896;0,05709
1643,0538;0,0571116
1644,0181;0,0570627
1644,9823;0,0569186
1645,9465;0,0566674
1646,9108;0,0563805
1647,8750;0,05618
1648,8392;0,0560783
1649,8035;0,0559466
1650,7677;0,055603
1651,7319;0,0548624
1652,6962;0,0536508
1653,6604;0,0523556
1654,6246;0,0516518
1655,5889;0,051636
1656,5531;0,0519101
1657,5173;0,0521241
1658,4816;0,0521128
1659,4458;0,0518309
1660,4100;0,0512935
1661,3743;0,0505709
1662,3385;0,0498065
1663,3027;0,0491691
1664,2670;0,0487364
1665,2312;0,0484523
1666,1954;0,0481865
1667,1597;0,0478023
1668,1239;0,0472031
1669,0881;0,0463929
1670,0524;0,045516
1671,0166;0,0447545
1671,9808;0,0441565
1672,9451;0,0436253
1673,9093;0,04305
1674,8735;0,0424204
1675,8378;0,0418481
1676,8020;0,0414716
1677,7662;0,0413242
1678,7305;0,0413103
1679,6947;0,0412815
1680,6589;0,0411028
1681,6232;0,040663
1682,5874;0,0398821
1683,5516;0,0388227
1684,5159;0,0378154
1685,4801;0,037205
1686,4443;0,0370012
1687,4086;0,0369894
1688,3728;0,0369795
1689,3370;0,0368908
1690,3013;0,0367284
1691,2655;0,0365352
1692,2297;0,0363553
1693,1940;0,0362182
1694,1582;0,036133
1695,1224;0,0360797
1696,0867;0,0360027
1697,0509;0,0358331
1698,0151;0,0355498
1698,9794;0,0352369
1699,9436;0,0350587
1700,9078;0,035139
1701,8721;0,0354694
1702,8363;0,0359407
1703,8005;0,0364333
1704,7648;0,0368794
1705,7290;0,0372764
1706,6932;0,0376689
1707,6575;0,0381138
1708,6217;0,0386437
1709,5859;0,0392556
1710,5502;0,0399235
1711,5144;0,0406152
1712,4786;0,041301
1713,4429;0,0419556
1714,4071;0,0425573
1715,3713;0,0430801
1716,3356;0,0435017
1717,2998;0,04386
1718,2640;0,044278
1719,2283;0,0448512
1720,1925;0,0455656
1721,1567;0,0463484
1722,1210;0,0471339
1723,0852;0,0478833
1724,0494;0,0485825
1725,0137;0,0492389
1725,9779;0,049875
1726,9421;0,0505115
1727,9064;0,0511456
1728,8706;0,0517403
1729,8348;0,0522296
1730,7991;0,0525307
1731,7633;0,0525613
1732,7275;0,0522915
1733,6918;0,0518323
1734,6560;0,0514132
1735,6202;0,0511693
1736,5845;0,0510287
1737,5487;0,0508224
1738,5129;0,0504191
1739,4772;0,0497841
1740,4414;0,048981
1741,4056;0,0481221
1742,3699;0,0472877
1743,3341;0,0464802
1744,2983;0,0456509
1745,2626;0,044749
1746,2268;0,0437329
1747,1910;0,0425473
1748,1553;0,0411202
1749,1195;0,0394357
1750,0837;0,0376384
1751,0480;0,0359902
1752,0122;0,0346704
1752,9764;0,0336635
1753,9407;0,0328304
1754,9049;0,0320307
1755,8691;0,0311975
1756,8334;0,0303477
1757,7976;0,029536
1758,7618;0,0287891
1759,7261;0,0280793
1760,6903;0,0273606
1761,6545;0,0266308
1762,6188;0,0259503
1763,5830;0,0253929
1764,5472;0,0249834
1765,5115;0,0246871
1766,4757;0,024444
1767,4399;0,0242034
1768,4042;0,0239354
1769,3684;0,023622
1770,3326;0,0232477
1771,2969;0,0228134
1772,2611;0,0223711
1773,2253;0,0220204
1774,1896;0,0218342
1775,1538;0,0218009
1776,1180;0,021847
1777,0823;0,0218946
1778,0465;0,0218971
1779,0107;0,0218451
1779,9750;0,0217533
1780,9392;0,0216409
1781,9034;0,0215168
1782,8677;0,021382
1783,8319;0,0212459
1784,7961;0,0211365
1785,7604;0,0210883
1786,7246;0,0211176
1787,6888;0,0212088
1788,6531;0,0213226
1789,6173;0,0214113
1790,5815;0,0214307
1791,5458;0,0213567
1792,5100;0,0212175
1793,4742;0,0210918
1794,4385;0,0210403
1795,4027;0,0210578
1796,3669;0,0210973
1797,3312;0,0211159
1798,2954;0,0210945
1799,2596;0,0210348
1800,2239;0,0209505
1801,1881;0,0208615
1802,1523;0,020789
1803,1166;0,0207487
1804,0808;0,0207457
1805,0450;0,020774
1806,0093;0,0208187
1806,9735;0,0208591
1807,9377;0,020874
1808,9020;0,0208495
1809,8662;0,0207879
1810,8304;0,0207092
1811,7947;0,0206396
1812,7589;0,0205945
1813,7231;0,0205717
1814,6874;0,0205594
1815,6516;0,0205495
1816,6158;0,0205448
1817,5801;0,0205557
1818,5443;0,0205912
1819,5085;0,0206503
1820,4728;0,0207211
1821,4370;0,0207868
1822,4012;0,0208351
1823,3655;0,0208622
1824,3297;0,0208732
1825,2939;0,0208757
1826,2582;0,0208713
1827,2224;0,02085
1828,1866;0,0207957
1829,1509;0,0207029
1830,1151;0,0205931
1831,0793;0,0205101
1832,0436;0,0204876
1833,0078;0,0205241
1833,9720;0,0205914
1834,9363;0,0206598
1835,9005;0,0207161
1836,8647;0,0207661
1837,8290;0,0208229
1838,7932;0,0208909
1839,7574;0,0209558
1840,7217;0,0209922
1841,6859;0,0209766
1842,6501;0,0208994
1843,6144;0,0207749
1844,5786;0,0206474
1845,5428;0,0205718
1846,5071;0,0205718
1847,4713;0,0206242
1848,4355;0,0206849
1849,3998;0,0207208
1850,3640;0,0207219
1851,3282;0,0206974
1852,2925;0,0206641
1853,2567;0,0206358
1854,2209;0,0206199
1855,1852;0,0206188
1856,1494;0,0206318
1857,1136;0,0206566
1858,0779;0,0206894
1859,0421;0,0207261
1860,0063;0,0207648
1860,9706;0,020806
1861,9348;0,0208506
1862,8990;0,020897
1863,8633;0,020941
1864,8275;0,020979
1865,7917;0,0210106
1866,7560;0,0210345
1867,7202;0,0210412
1868,6844;0,0210175
1869,6487;0,0209619
1870,6129;0,020887
1871,5771;0,0208044
1872,5414;0,020717
1873,5056;0,0206271
1874,4698;0,0205433
1875,4341;0,0204808
1876,3983;0,020455
1877,3625;0,020475
1878,3268;0,0205409
1879,2910;0,0206437
1880,2552;0,0207689
1881,2195;0,0209001
1882,1837;0,0210229
1883,1479;0,0211278
1884,1122;0,0212092
1885,0764;0,0212624
1886,0406;0,0212797
1887,0049;0,0212518
1887,9691;0,0211756
1888,9333;0,0210644
1889,8976;0,020952
1890,8618;0,0208783
1891,8260;0,020867
1892,7903;0,0209137
1893,7545;0,0209912
1894,7188;0,0210658
1895,6830;0,0211139
1896,6472;0,0211324
1897,6115;0,021136
1898,5757;0,0211442
1899,5399;0,0211671
1900,5042;0,0212004
1901,4684;0,0212302
1902,4326;0,0212425
1903,3969;0,0212323
1904,3611;0,0212067
1905,3253;0,0211806
1906,2896;0,0211675
1907,2538;0,0211716
1908,2180;0,0211839
1909,1823;0,0211861
1910,1465;0,0211628
1911,1107;0,0211137
1912,0750;0,021056
1913,0392;0,021018
1914,0034;0,0210278
1914,9677;0,021104
1915,9319;0,0212441
1916,8961;0,0214173
1917,8604;0,0215739
1918,8246;0,0216713
1919,7888;0,0216959
1920,7531;0,021661
1921,7173;0,0215906
1922,6815;0,0215029
1923,6458;0,0214043
1924,6100;0,0212955
1925,5742;0,0211824
1926,5385;0,0210835
1927,5027;0,0210272
1928,4669;0,0210404
1929,4312;0,0211328
1930,3954;0,0212864
1931,3596;0,0214593
1932,3239;0,0216028
1933,2881;0,0216807
1934,2523;0,0216795
1935,2166;0,0216052
1936,1808;0,0214782
1937,1450;0,0213297
1938,1093;0,0212021
1939,0735;0,0211472
1940,0377;0,0212147
1941,0020;0,0214249
1941,9662;0,0217413
1942,9304;0,0220713
1943,8947;0,0223138
1944,8589;0,0224199
1945,8231;0,0224145
1946,7874;0,0223676
1947,7516;0,0223451
1948,7158;0,0223704
1949,6801;0,0224164
1950,6443;0,0224316
1951,6085;0,0223826
1952,5728;0,0222815
1953,5370;0,0221779
1954,5012;0,0221235
1955,4655;0,0221365
1956,4297;0,0221922
1957,3939;0,0222447
1958,3582;0,0222598
1959,3224;0,0222355
1960,2866;0,0221967
1961,2509;0,0221738
1962,2151;0,0221865
1963,1793;0,0222406
1964,1436;0,0223349
1965,1078;0,0224608
1966,0720;0,0225948
1967,0363;0,0226982
1968,0005;0,0227353
1968,9647;0,0227022
1969,9290;0,0226359
1970,8932;0,022594
1971,8574;0,0226203
1972,8217;0,0227227
1973,7859;0,0228795
1974,7501;0,0230636
1975,7144;0,023263
1976,6786;0,023471
1977,6428;0,0236596
1978,6071;0,0237702
1979,5713;0,0237441
1980,5355;0,0235684
1981,4998;0,0232949
1982,4640;0,0230174
1983,4282;0,0228266
1984,3925;0,0227677
1985,3567;0,0228253
1986,3209;0,0229391
1987,2852;0,0230395
1988,2494;0,0230788
1989,2136;0,0230444
1990,1779;0,0229552
1991,1421;0,0228508
1992,1063;0,0227775
1993,0706;0,0227734
1994,0348;0,0228557
1994,9990;0,0230165
1995,9633;0,0232275
1996,9275;0,0234486
1997,8917;0,0236346
1998,8560;0,0237432
1999,8202;0,0237455
2000,7844;0,0236411
2001,7487;0,0234707
2002,7129;0,0233155
2003,6771;0,023276
2004,6414;0,0234288
2005,6056;0,0237756
2006,5698;0,0242175
2007,5341;0,024588
2008,4983;0,024738
2009,4625;0,0246222
2010,4268;0,0243241
2011,3910;0,0240068
2012,3552;0,0238215
2013,3195;0,0238318
2014,2837;0,0239889
2015,2479;0,0241687
2016,2122;0,0242503
2017,1764;0,0241931
2018,1406;0,0240616
2019,1049;0,0239812
2020,0691;0,02406
2021,0333;0,0243324
2021,9976;0,024751
2022,9618;0,0252138
2023,9260;0,0256015
2024,8903;0,0258084
2025,8545;0,0257641
2026,8187;0,0254533
2027,7830;0,024934
2028,7472;0,024341
2029,7114;0,0238554
2030,6757;0,0236392
2031,6399;0,0237616
2032,6041;0,0241635
2033,5684;0,0246882
2034,5326;0,0251666
2035,4968;0,0255009
2036,4611;0,0256928
2037,4253;0,0258067
2038,3895;0,0259025
2039,3538;0,0259867
2040,3180;0,0260082
2041,2822;0,0258975
2042,2465;0,0256239
2043,2107;0,0252338
2044,1749;0,0248449
2045,1392;0,0245945
2046,1034;0,0245689
2047,0676;0,0247468
2048,0320;0,0250013
2048,9961;0,0251684
2049,9604;0,0251427
2050,9246;0,0249297
2051,8889;0,0246268
2052,8530;0,0243601
2053,8174;0,0242183
2054,7815;0,0242167
2055,7458;0,0243038
2056,7100;0,0244028
2057,6743;0,0244587
2058,6384;0,0244603
2059,6028;0,0244296
2060,5669;0,0243954
2061,5313;0,0243744
2062,4954;0,0243712
2063,4597;0,024389
2064,4238;0,0244344
2065,3882;0,0245112
2066,3523;0,0246083
2067,3167;0,0246952
2068,2808;0,0247346
2069,2451;0,0247023
2070,2092;0,0246025
2071,1736;0,0244681
2072,1377;0,0243445
2073,1021;0,024267
2074,0662;0,0242448
2075,0305;0,0242594
2075,9946;0,0242782
2076,9590;0,0242748
2077,9231;0,0242452
2078,8875;0,0242099
2079,8516;0,0242016
2080,8159;0,0242441
2081,7800;0,0243361
2082,7444;0,0244492
2083,7085;0,0245422
2084,6729;0,024584
2085,6370;0,0245693
2086,6013;0,0245186
2087,5654;0,0244619
2088,5298;0,0244182
2089,4939;0,0243853
2090,4583;0,0243458
2091,4224;0,024285
2092,3867;0,0242067
2093,3508;0,024136
2094,3152;0,0241076
2095,2793;0,0241468
2096,2437;0,0242552
2097,2078;0,0244086
2098,1721;0,0245677
2099,1362;0,0246913
2100,1006;0,024749
2101,0647;0,0247243
2102,0291;0,024623
2102,9932;0,0244707
2103,9575;0,0243098
2104,9216;0,0241876
2105,8860;0,0241399
2106,8501;0,0241756
2107,8145;0,0242725
2108,7786;0,0243866
2109,7429;0,0244722
2110,7070;0,024503
2111,6714;0,0244824
2112,6355;0,0244383
2113,5999;0,0244044
2114,5640;0,0244008
2115,5283;0,024424
2116,4924;0,024453
2117,4568;0,0244661
2118,4209;0,0244576
2119,3853;0,0244422
2120,3494;0,0244449
2121,3137;0,0244833
2122,2778;0,0245552
2123,2422;0,0246414
2124,2063;0,0247188
2125,1707;0,0247749
2126,1348;0,0248099
2127,0991;0,0248277
2128,0632;0,0248249
2129,0276;0,0247913
2129,9917;0,0247254
2130,9561;0,0246526
2131,9202;0,0246296
2132,8845;0,0247229
2133,8486;0,0249696
2134,8130;0,0253455
2135,7771;0,0257668
2136,7415;0,02613
2137,7056;0,0263627
2138,6699;0,0264511
2139,6340;0,0264313
2140,5984;0,02636
2141,5625;0,0262885
2142,5269;0,0262541
2143,4910;0,026283
2144,4553;0,0263918
2145,4194;0,0265827
2146,3838;0,0268363
2147,3479;0,0271146
2148,3123;0,0273748
2149,2764;0,0275859
2150,2407;0,0277354
2151,2048;0,0278259
2152,1692;0,0278698
2153,1333;0,0278902
2154,0977;0,0279242
2155,0618;0,0280182
2156,0261;0,0282058
2156,9902;0,0284744
2157,9546;0,0287506
2158,9187;0,0289335
2159,8831;0,0289655
2160,8472;0,0288723
2161,8115;0,0287351
2162,7756;0,0286268
2163,7400;0,0285713
2164,7041;0,0285409
2165,6685;0,0284827
2166,6326;0,0283493
2167,5969;0,0281187
2168,5610;0,0277982
2169,5254;0,0274197
2170,4895;0,0270346
2171,4539;0,0267064
2172,4180;0,026497
2173,3823;0,0264466
2174,3464;0,0265545
2175,3108;0,0267759
2176,2749;0,027041
2177,2393;0,0272846
2178,2034;0,0274684
2179,1677;0,0275801
2180,1318;0,0276161
2181,0962;0,0275641
2182,0603;0,0274041
2183,0247;0,0271301
2183,9888;0,0267757
2184,9531;0,026421
2185,9172;0,026167
2186,8816;0,0260907
2187,8457;0,0262061
2188,8101;0,0264544
2189,7742;0,0267332
2190,7385;0,026946
2191,7026;0,0270454
2192,6670;0,027043
2193,6311;0,0269852
2194,5955;0,0269121
2195,5596;0,0268302
2196,5239;0,0267153
2197,4880;0,0265406
2198,4524;0,026308
2199,4165;0,0260571
2200,3809;0,025846
2201,3450;0,0257175
2202,3093;0,0256757
2203,2734;0,0256899
2204,2378;0,0257222
2205,2019;0,0257557
2206,1663;0,0258025
2207,1304;0,0258841
2208,0947;0,0260008
2209,0588;0,0261142
2210,0232;0,0261609
2210,9873;0,0260899
2211,9517;0,0258987
2212,9158;0,0256416
2213,8801;0,0254021
2214,8442;0,0252465
2215,8086;0,0251892
2216,7727;0,0251928
2217,7371;0,0252018
2218,7012;0,0251849
2219,6655;0,0251589
2220,6296;0,0251762
2221,5940;0,0252878
2222,5581;0,0255045
2223,5225;0,0257823
2224,4866;0,0260382
2225,4509;0,0261889
2226,4150;0,0261872
2227,3794;0,0260393
2228,3435;0,025797
2229,3079;0,0255299
2230,2720;0,0252964
2231,2363;0,0251268
2232,2004;0,0250224
2233,1648;0,0249682
2234,1289;0,0249475
2235,0933;0,0249533
2236,0574;0,0249915
2237,0217;0,0250766
2237,9858;0,0252217
2238,9502;0,0254264
2239,9143;0,025667
2240,8787;0,0258957
2241,8428;0,026054
2242,8071;0,0260974
2243,7712;0,0260196
2244,7356;0,0258619
2245,6997;0,0256971
2246,6641;0,0255958
2247,6282;0,0255921
2248,5925;0,0256698
2249,5566;0,0257763
2250,5210;0,0258552
2251,4851;0,0258768
2252,4495;0,0258481
2253,4136;0,0257999
2254,3779;0,0257604
2255,3420;0,0257359
2256,3064;0,0257071
2257,2705;0,0256447
2258,2349;0,0255299
2259,1990;0,0253685
2260,1633;0,0251915
2261,1274;0,0250406
2262,0918;0,0249488
2263,0559;0,0249251
2264,0203;0,0249521
2264,9844;0,0249991
2265,9487;0,0250416
2266,9128;0,0250753
2267,8772;0,0251145
2268,8413;0,0251755
2269,8057;0,0252581
2270,7698;0,0253385
2271,7341;0,0253804
2272,6982;0,0253561
2273,6626;0,0252636
2274,6267;0,0251283
2275,5911;0,0249882
2276,5552;0,0248751
2277,5195;0,024802
2278,4836;0,0247649
2279,4480;0,0247532
2280,4121;0,0247607
2281,3765;0,0247902
2282,3406;0,0248505
2283,3049;0,0249484
2284,2690;0,0250827
2285,2334;0,0252404
2286,1975;0,0253999
2287,1619;0,0255375
2288,1260;0,0256371
2289,0903;0,0256959
2290,0544;0,0257256
2291,0188;0,0257455
2291,9829;0,0257735
2292,9473;0,02582
2293,9114;0,0258875
2294,8757;0,0259739
2295,8398;0,0260757
2296,8042;0,026186
2297,7683;0,0262904
2298,7327;0,0263654
2299,6968;0,0263849
2300,6611;0,0263329
2301,6252;0,0262172
2302,5896;0,0260718
2303,5537;0,0259472
2304,5181;0,0258902
2305,4822;0,0259228
2306,4465;0,026029
2307,4106;0,0261571
2308,3750;0,0262382
2309,3391;0,0262144
2310,3035;0,0260641
2311,2676;0,0258143
2312,2319;0,0255288
2313,1960;0,0252797
2314,1604;0,025114
2315,1245;0,0250353
2316,0889;0,0250101
2317,0530;0,0249904
2318,0173;0,0249429
2318,9814;0,0248693
2319,9458;0,0248088
2320,9099;0,0248197
2321,8743;0,0249452
2322,8384;0,025181
2323,8027;0,0254666
2324,7668;0,0257085
2325,7312;0,025822
2326,6953;0,02577
2327,6597;0,0255826
2328,6238;0,025347
2329,5881;0,0251728
2330,5522;0,0251449
2331,5166;0,0252856
2332,4807;0,0255461
2333,4451;0,0258315
2334,4092;0,0260442
2335,3735;0,0261281
2336,3376;0,0260944
2337,3020;0,0260198
2338,2661;0,0260104
2339,2305;0,0261397
2340,1946;0,0263874
2341,1589;0,0266157
2342,1230;0,0266228
2343,0874;0,0263022
2344,0515;0,0258305
2345,0159;0,0256067
2345,9800;0,0258878
2346,9443;0,0265588
2347,9084;0,0272711
2348,8728;0,0277047
2349,8369;0,0277258
2350,8013;0,0274125
2351,7654;0,0269855
2352,7297;0,026671
2353,6938;0,0265708
2354,6582;0,0266503
2355,6223;0,0268424
2356,5867;0,0271167
2357,5508;0,0274439
2358,5151;0,0277508
2359,4792;0,0279383
2360,4436;0,0279354
2361,4077;0,0277181
2362,3721;0,0272913
2363,3362;0,0266806
2364,3005;0,0259503
2365,2646;0,0252069
2366,2290;0,0245612
2367,1931;0,024074
2368,1575;0,0237327
2369,1216;0,0234747
2370,0859;0,0232325
2371,0500;0,0229729
2372,0144;0,0227104
2372,9785;0,0224951
2373,9429;0,0223873
2374,9070;0,0224314
2375,8713;0,0226397
2376,8354;0,0229903
2377,7998;0,0234372
2378,7639;0,0239248
2379,7283;0,0243997
2380,6924;0,024817
2381,6567;0,0251429
2382,6208;0,0253575
2383,5852;0,0254572
2384,5493;0,0254572
2385,5137;0,0253895
2386,4778;0,0252955
2387,4421;0,0252147
2388,4063;0,0251731
2389,3706;0,0251763
2390,3347;0,0252112
2391,2991;0,0252551
2392,2632;0,0252874
2393,2275;0,0252985
2394,1917;0,0252915
2395,1560;0,0252774
2396,1201;0,0252678
2397,0845;0,0252698
2398,0486;0,0252861
2399,0129;0,0253143
2399,9771;0,0253493
2400,9414;0,0253844
2401,9055;0,025411
2402,8699;0,0254209
2403,8340;0,0254111
2404,7983;0,0253875
2405,7625;0,0253658
2406,7268;0,0253652
2407,6909;0,0253996
2408,6553;0,0254696
2409,6194;0,025561
2410,5837;0,0256523
2411,5479;0,0257258
2412,5122;0,0257751
2413,4763;0,0258066
2414,4407;0,0258333
2415,4048;0,0258652
2416,3691;0,0259039
2417,3333;0,0259422
2418,2976;0,02597
2419,2617;0,0259809
2420,2261;0,0259759
2421,1902;0,0259618
2422,1545;0,0259484
2423,1187;0,0259438
2424,0830;0,0259525
2425,0471;0,025975
2426,0115;0,0260088
2426,9756;0,0260491
2427,9399;0,0260903
2428,9041;0,0261273
2429,8684;0,0261571
2430,8325;0,0261797
2431,7969;0,0261979
2432,7610;0,0262158
2433,7253;0,0262363
2434,6895;0,0262598
2435,6538;0,0262845
2436,6179;0,0263082
2437,5823;0,0263301
2438,5464;0,0263525
2439,5107;0,0263791
2440,4749;0,0264127
2441,4392;0,0264525
2442,4033;0,0264939
2443,3677;0,0265304
2444,3318;0,0265571
2445,2961;0,0265728
2446,2603;0,0265802
2447,2246;0,026584
2448,1887;0,0265886
2449,1531;0,0265967
2450,1172;0,0266095
2451,0815;0,0266256
2452,0457;0,0266419
2453,0100;0,0266534
2453,9741;0,0266569
2454,9385;0,0266536
2455,9026;0,0266519
2456,8669;0,0266637
2457,8311;0,0266974
2458,7954;0,0267511
2459,7595;0,0268108
2460,7239;0,0268562
2461,6880;0,0268719
2462,6523;0,0268556
2463,6165;0,0268196
2464,5808;0,0267844
2465,5449;0,0267695
2466,5093;0,0267859
2467,4734;0,0268346
2468,4377;0,0269076
2469,4019;0,0269907
2470,3662;0,027067
2471,3303;0,027121
2472,2947;0,0271439
2473,2588;0,0271371
2474,2231;0,0271126
2475,1873;0,0270863
2476,1516;0,0270702
2477,1157;0,0270674
2478,0801;0,0270726
2479,0442;0,0270793
2480,0085;0,0270856
2480,9727;0,0270962
2481,9370;0,0271187
2482,9011;0,027158
2483,8655;0,0272121
2484,8296;0,0272735
2485,7939;0,0273317
2486,7581;0,027377
2487,7224;0,0274025
2488,6865;0,0274054
2489,6509;0,0273879
2490,6150;0,0273578
2491,5793;0,0273264
2492,5435;0,0273052
2493,5078;0,0273014
2494,4719;0,0273155
2495,4363;0,0273435
2496,4004;0,0273811
2497,3647;0,0274266
2498,3289;0,0274803
2499,2932;0,0275402
2500,2573;0,0275978
2501,2217;0,0276401
2502,1858;0,0276555
2503,1501;0,0276421
2504,1143;0,0276117
2505,0786;0,0275845
2506,0427;0,0275792
2507,0071;0,0276031
2507,9712;0,0276486
2508,9355;0,0276984
2509,8997;0,0277347
2510,8640;0,0277471
2511,8281;0,0277358
2512,7925;0,0277085
2513,7566;0,0276764
2514,7209;0,0276509
2515,6851;0,0276412
2516,6494;0,0276528
2517,6135;0,027685
2518,5779;0,0277296
2519,5420;0,0277733
2520,5063;0,027803
2521,4705;0,0278127
2522,4348;0,0278074
2523,3989;0,0278001
2524,3633;0,0278039
2525,3274;0,0278243
2526,2917;0,0278555
2527,2559;0,0278852
2528,2202;0,0279027
2529,1843;0,027905
2530,1487;0,0278984
2531,1128;0,0278935
2532,0771;0,0278978
2533,0413;0,0279127
2534,0056;0,0279338
2534,9697;0,0279555
2535,9341;0,0279748
2536,8982;0,0279918
2537,8625;0,0280076
2538,8267;0,0280212
2539,7910;0,0280291
2540,7551;0,0280269
2541,7195;0,0280122
2542,6836;0,0279868
2543,6479;0,0279564
2544,6121;0,0279294
2545,5764;0,0279138
2546,5405;0,0279149
2547,5049;0,0279334
2548,4690;0,0279644
2549,4333;0,0279991
2550,3975;0,028028
2551,3618;0,0280452
2552,3259;0,02805
2553,2903;0,0280466
2554,2544;0,0280405
2555,2188;0,0280359
2556,1829;0,0280341
2557,1472;0,0280347
2558,1113;0,0280367
2559,0757;0,0280385
2560,0398;0,0280381
2561,0042;0,0280341
2561,9683;0,0280279
2562,9326;0,0280251
2563,8967;0,0280343
2564,8611;0,0280624
2565,8252;0,028109
2566,7896;0,0281655
2567,7537;0,0282184
2568,7180;0,0282566
2569,6821;0,0282767
2570,6465;0,0282824
2571,6106;0,02828
2572,5750;0,0282741
2573,5391;0,0282662
2574,5034;0,0282576
2575,4675;0,0282519
2576,4319;0,0282551
2577,3960;0,0282718
2578,3604;0,0283013
2579,3245;0,0283366
2580,2888;0,0283668
2581,2529;0,028382
2582,2173;0,0283774
2583,1814;0,028355
2584,1458;0,0283226
2585,1099;0,0282911
2586,0742;0,0282703
2587,0383;0,0282664
2588,0027;0,0282806
2588,9668;0,0283094
2589,9312;0,0283476
2590,8953;0,0283911
2591,8596;0,0284377
2592,8237;0,0284861
2593,7881;0,0285339
2594,7522;0,0285771
2595,7166;0,0286111
2596,6807;0,0286338
2597,6450;0,0286458
2598,6091;0,0286498
2599,5735;0,0286482
2600,5376;0,0286423
2601,5020;0,0286333
2602,4661;0,0286243
2603,4304;0,0286218
2604,3945;0,0286328
2605,3589;0,0286619
2606,3230;0,0287079
2607,2874;0,0287641
2608,2515;0,028821
2609,2158;0,0288706
2610,1799;0,0289095
2611,1443;0,0289388
2612,1084;0,0289621
2613,0728;0,0289833
2614,0369;0,0290039
2615,0012;0,0290235
2615,9653;0,0290412
2616,9297;0,0290573
2617,8938;0,0290738
2618,8582;0,0290932
2619,8223;0,0291157
2620,7866;0,0291383
2621,7507;0,0291563
2622,7151;0,0291667
2623,6792;0,0291722
2624,6436;0,0291804
2625,6077;0,0291995
2626,5720;0,0292329
2627,5361;0,0292759
2628,5005;0,0293182
2629,4646;0,02935
2630,4290;0,0293676
2631,3931;0,0293747
2632,3574;0,0293791
2633,3215;0,0293879
2634,2859;0,0294034
2635,2500;0,0294244
2636,2144;0,0294481
2637,1785;0,0294728
2638,1428;0,0294989
2639,1069;0,0295278
2640,0713;0,0295612
2641,0354;0,0296003
2641,9998;0,0296455
2642,9639;0,0296959
2643,9282;0,0297479
2644,8923;0,0297961
2645,8567;0,0298341
2646,8208;0,0298581
2647,7852;0,0298688
2648,7493;0,0298725
2649,7136;0,0298779
2650,6777;0,0298931
2651,6421;0,0299216
2652,6062;0,0299617
2653,5706;0,0300071
2654,5347;0,0300501
2655,4990;0,0300846
2656,4631;0,0301088
2657,4275;0,0301253
2658,3916;0,0301395
2659,3560;0,030157
2660,3201;0,0301801
2661,2844;0,0302071
2662,2485;0,0302339
2663,2129;0,0302567
2664,1770;0,0302746
2665,1414;0,0302905
2666,1055;0,0303089
2667,0698;0,0303331
2668,0339;0,0303636
2668,9983;0,0303989
2669,9624;0,0304371
2670,9268;0,0304782
2671,8909;0,030523
2672,8552;0,0305713
2673,8193;0,0306198
2674,7837;0,0306619
2675,7478;0,0306911
2676,7122;0,0307049
2677,6763;0,0307071
2678,6406;0,0307069
2679,6047;0,0307151
2680,5691;0,0307401
2681,5332;0,030784
2682,4976;0,030843
2683,4617;0,030909
2684,4260;0,0309736
2685,3901;0,0310299
2686,3545;0,0310748
2687,3186;0,0311082
2688,2830;0,0311324
2689,2471;0,0311508
2690,2114;0,0311673
2691,1755;0,0311856
2692,1399;0,0312089
2693,1040;0,0312397
2694,0684;0,0312787
2695,0325;0,0313241
2695,9968;0,0313718
2696,9609;0,0314165
2697,9253;0,0314541
2698,8894;0,0314837
2699,8538;0,0315078
2700,8179;0,0315316
2701,7822;0,0315607
2702,7463;0,0315989
2703,7107;0,031647
2704,6748;0,0317028
2705,6392;0,0317621
2706,6033;0,0318197
2707,5676;0,0318715
2708,5317;0,0319152
2709,4961;0,0319508
2710,4602;0,0319806
2711,4246;0,0320084
2712,3887;0,0320384
2713,3530;0,0320741
2714,3171;0,0321167
2715,2815;0,0321645
2716,2456;0,032213
2717,2100;0,0322565
2718,1741;0,0322912
2719,1384;0,0323167
2720,1025;0,0323363
2721,0669;0,0323547
2722,0310;0,0323752
2722,9954;0,0323981
2723,9595;0,0324222
2724,9238;0,0324471
2725,8879;0,0324756
2726,8523;0,0325117
2727,8164;0,032558
2728,7808;0,0326127
2729,7449;0,0326704
2730,7092;0,0327248
2731,6733;0,0327726
2732,6377;0,0328133
2733,6018;0,0328479
2734,5662;0,0328753
2735,5303;0,0328932
2736,4946;0,0328998
2737,4587;0,0328977
2738,4231;0,0328952
2739,3872;0,0329025
2740,3516;0,0329275
2741,3157;0,0329715
2742,2800;0,0330286
2743,2441;0,0330886
2744,2085;0,0331407
2745,1726;0,0331776
2746,1370;0,0331964
2747,1011;0,0331998
2748,0654;0,0331949
2749,0295;0,0331912
2749,9939;0,0331977
2750,9580;0,0332201
2751,9224;0,0332595
2752,8865;0,0333124
2753,8508;0,0333723
2754,8149;0,0334314
2755,7793;0,033483
2756,7434;0,0335229
2757,7078;0,033551
2758,6719;0,0335723
2759,6362;0,0335953
2760,6003;0,0336281
2761,5647;0,0336741
2762,5288;0,0337293
2763,4932;0,0337845
2764,4573;0,0338307
2765,4216;0,0338649
2766,3857;0,0338924
2767,3501;0,0339236
2768,3142;0,0339675
2769,2786;0,0340269
2770,2427;0,0340964
2771,2070;0,0341659
2772,1711;0,034226
2773,1355;0,0342726
2774,0996;0,0343079
2775,0640;0,0343388
2776,0281;0,0343738
2776,9924;0,0344188
2777,9565;0,0344762
2778,9209;0,0345443
2779,8850;0,0346196
2780,8494;0,0346983
2781,8135;0,0347773
2782,7778;0,0348541
2783,7419;0,0349257
2784,7063;0,0349891
2785,6704;0,0350415
2786,6348;0,0350833
2787,5989;0,0351192
2788,5632;0,0351582
2789,5273;0,0352109
2790,4917;0,0352857
2791,4558;0,0353843
2792,4202;0,035501
2793,3843;0,0356237
2794,3486;0,0357387
2795,3127;0,0358367
2796,2771;0,0359163
2797,2412;0,0359853
2798,2056;0,036056
2799,1697;0,0361394
2800,1340;0,03624
2801,0981;0,0363546
2802,0625;0,0364759
2803,0266;0,0365975
2803,9910;0,0367171
2804,9551;0,0368359
2805,9194;0,0369554
2806,8835;0,0370751
2807,8479;0,0371926
2808,8120;0,0373063
2809,7764;0,0374176
2810,7405;0,0375311
2811,7048;0,0376515
2812,6689;0,0377815
2813,6333;0,0379204
2814,5974;0,0380666
2815,5618;0,0382195
2816,5259;0,0383798
2817,4902;0,0385474
2818,4543;0,0387204
2819,4187;0,0388948
2820,3828;0,0390681
2821,3472;0,0392421
2822,3113;0,0394238
2823,2756;0,039622
2824,2397;0,0398427
2825,2041;0,0400856
2826,1682;0,0403445
2827,1326;0,0406105
2828,0967;0,0408771
2829,0610;0,0411426
2830,0251;0,0414102
2830,9895;0,0416861
2831,9536;0,0419762
2832,9180;0,0422845
2833,8821;0,0426126
2834,8464;0,0429605
2835,8105;0,0433291
2836,7749;0,0437209
2837,7390;0,0441413
2838,7034;0,044598
2839,6675;0,0450989
2840,6318;0,0456519
2841,5959;0,0462632
2842,5603;0,0469375
2843,5244;0,0476758
2844,4888;0,0484703
2845,4529;0,0492995
2846,4172;0,0501234
2847,3813;0,0508855
2848,3457;0,0515221
2849,3098;0,051978
2850,2742;0,0522221
2851,2383;0,0522575
2852,2026;0,0521201
2853,1667;0,0518672
2854,1311;0,0515612
2855,0952;0,051254
2856,0596;0,0509785
2857,0237;0,0507486
2857,9880;0,0505661
2858,9521;0,0504285
2859,9165;0,0503339
2860,8806;0,0502822
2861,8450;0,0502732
2862,8091;0,0503047
2863,7734;0,0503736
2864,7375;0,050477
2865,7019;0,0506135
2866,6660;0,0507806
2867,6304;0,0509712
2868,5945;0,0511708
2869,5588;0,051359
2870,5229;0,0515163
2871,4873;0,0516315
2872,4514;0,0517067
2873,4158;0,0517564
2874,3799;0,0518
2875,3442;0,0518537
2876,3083;0,0519236
2877,2727;0,0520056
2878,2368;0,0520908
2879,2012;0,0521726
2880,1653;0,0522518
2881,1296;0,0523363
2882,0938;0,0524357
2883,0581;0,0525555
2884,0222;0,0526927
2884,9866;0,0528372
2885,9507;0,0529781
2886,9150;0,0531091
2887,8792;0,0532317
2888,8435;0,0533532
2889,8076;0,0534818
2890,7720;0,0536224
2891,7361;0,0537743
2892,7004;0,0539334
2893,6646;0,0540946
2894,6289;0,0542544
2895,5930;0,0544116
2896,5574;0,0545673
2897,5215;0,0547239
2898,4858;0,0548841
2899,4500;0,0550495
2900,4143;0,0552198
2901,3784;0,0553926
2902,3428;0,0555653
2903,3069;0,0557382
2904,2712;0,0559163
2905,2354;0,0561102
2906,1997;0,0563335
2907,1638;0,0566001
2908,1282;0,0569216
2909,0923;0,0573063
2910,0566;0,0577583
2911,0208;0,0582747
2911,9851;0,0588422
2912,9492;0,0594341
2913,9136;0,0600111
2914,8777;0,060527
2915,8420;0,060939
2916,8062;0,0612162
2917,7705;0,0613456
2918,7346;0,0613313
2919,6990;0,0611891
2920,6631;0,0609407
2921,6274;0,0606085
2922,5916;0,0602135
2923,5559;0,0597743
2924,5200;0,0593063
2925,4844;0,0588211
2926,4485;0,0583272
2927,4128;0,0578322
2928,3770;0,0573437
2929,3413;0,0568705
2930,3054;0,0564189
2931,2698;0,0559897
2932,2339;0,0555759
2933,1982;0,0551651
2934,1624;0,0547461
2935,1267;0,0543151
2936,0908;0,0538782
2937,0552;0,0534468
2938,0193;0,0530311
2938,9836;0,052633
2939,9478;0,052246
2940,9121;0,0518594
2941,8762;0,0514655
2942,8406;0,0510644
2943,8047;0,0506643
2944,7690;0,0502771
2945,7332;0,0499142
2946,6975;0,0495829
2947,6616;0,0492858
2948,6260;0,0490221
2949,5901;0,0487883
2950,5544;0,0485788
2951,5186;0,0483862
2952,4829;0,048202
2953,4470;0,0480177
2954,4114;0,0478268
2955,3755;0,0476259
2956,3398;0,0474149
2957,3040;0,0471957
2958,2683;0,0469714
2959,2324;0,0467443
2960,1968;0,0465142
2961,1609;0,0462792
2962,1252;0,0460357
2963,0894;0,0457812
2964,0537;0,045516
2965,0178;0,0452441
2965,9822;0,0449723
2966,9463;0,0447071
2967,9106;0,0444523
2968,8748;0,0442073
2969,8391;0,0439679
2970,8032;0,0437285
2971,7676;0,0434853
2972,7317;0,0432383
2973,6960;0,0429919
2974,6602;0,0427534
2975,6245;0,0425296
2976,5886;0,0423242
2977,5530;0,0421363
2978,5171;0,0419613
2979,4814;0,0417936
2980,4456;0,0416305
2981,4099;0,0414734
2982,3740;0,0413276
2983,3384;0,0411985
2984,3025;0,0410891
2985,2668;0,0409983
2986,2310;0,0409216
2987,1953;0,0408527
2988,1594;0,0407863
2989,1238;0,0407189
2990,0879;0,0406503
2991,0522;0,040583
2992,0164;0,0405224
2992,9807;0,0404748
2993,9448;0,0404452
2994,9092;0,0404351
2995,8733;0,0404419
2996,8376;0,0404605
2997,8018;0,0404856
2998,7661;0,0405132
2999,7302;0,0405416
3000,6946;0,0405694
3001,6587;0,0405958
3002,6230;0,0406204
3003,5872;0,0406445
3004,5515;0,0406718
3005,5156;0,0407065
3006,4800;0,0407512
3007,4441;0,040804
3008,4084;0,0408588
3009,3726;0,0409082
3010,3369;0,040947
3011,3010;0,0409748
3012,2654;0,0409955
3013,2295;0,0410146
3014,1938;0,0410366
3015,1580;0,0410635
3016,1223;0,0410956
3017,0864;0,0411328
3018,0508;0,0411749
3019,0149;0,0412219
3019,9792;0,0412733
3020,9434;0,041328
3021,9077;0,0413863
3022,8718;0,0414499
3023,8362;0,0415219
3024,8003;0,041604
3025,7646;0,0416945
3026,7288;0,0417883
3027,6931;0,0418795
3028,6572;0,041965
3029,6216;0,0420468
3030,5857;0,0421307
3031,5500;0,0422217
3032,5142;0,04232
3033,4785;0,04242
3034,4426;0,0425147
3035,4070;0,0426004
3036,3711;0,0426801
3037,3354;0,0427608
3038,2996;0,04285
3039,2639;0,0429508
3040,2280;0,0430628
3041,1924;0,0431843
3042,1565;0,0433151
3043,1208;0,0434564
3044,0850;0,0436069
3045,0493;0,043759
3046,0134;0,0439007
3046,9778;0,0440208
3047,9419;0,0441173
3048,9063;0,0442004
3049,8704;0,044289
3050,8347;0,0444
3051,7988;0,0445389
3052,7632;0,0446972
3053,7273;0,0448579
3054,6917;0,0450059
3055,6558;0,045136
3056,6201;0,0452551
3057,5842;0,0453769
3058,5486;0,0455133
3059,5127;0,0456678
3060,4771;0,0458347
3061,4412;0,0460023
3062,4055;0,0461583
3063,3696;0,0462942
3064,3340;0,0464079
3065,2981;0,0465035
3066,2625;0,0465898
3067,2266;0,0466774
3068,1909;0,0467762
3069,1550;0,0468926
3070,1194;0,0470288
3071,0835;0,0471835
3072,0479;0,0473521
3073,0120;0,047528
3073,9763;0,0477032
3074,9404;0,0478701
3075,9048;0,0480228
3076,8689;0,0481584
3077,8333;0,0482778
3078,7974;0,0483841
3079,7617;0,0484815
3080,7258;0,0485733
3081,6902;0,0486626
3082,6543;0,0487534
3083,6187;0,0488519
3084,5828;0,0489652
3085,5471;0,0490983
3086,5112;0,049251
3087,4756;0,0494163
3088,4397;0,0495837
3089,4041;0,0497437
3090,3682;0,0498926
3091,3325;0,0500336
3092,2966;0,0501739
3093,2610;0,0503192
3094,2251;0,0504699
3095,1895;0,0506199
3096,1536;0,0507599
3097,1179;0,0508837
3098,0820;0,0509922
3099,0464;0,0510948
3100,0105;0,0512068
3100,9749;0,051343
3101,9390;0,0515117
3102,9033;0,0517102
3103,8674;0,0519257
3104,8318;0,0521397
3105,7959;0,0523348
3106,7603;0,0525012
3107,7244;0,0526403
3108,6887;0,0527639
3109,6528;0,052889
3110,6172;0,0530298
3111,5813;0,053192
3112,5457;0,0533714
3113,5098;0,0535572
3114,4741;0,0537386
3115,4382;0,0539098
3116,4026;0,0540712
3117,3667;0,0542272
3118,3311;0,0543811
3119,2952;0,0545334
3120,2595;0,0546821
3121,2236;0,0548261
3122,1880;0,0549679
3123,1521;0,0551136
3124,1165;0,0552702
3125,0806;0,0554416
3126,0449;0,0556268
3127,0090;0,0558199
3127,9734;0,0560131
3128,9375;0,0561999
3129,9019;0,0563771
3130,8660;0,0565451
3131,8303;0,0567074
3132,7944;0,0568686
3133,7588;0,057033
3134,7229;0,0572036
3135,6873;0,0573813
3136,6514;0,0575652
3137,6157;0,0577531
3138,5798;0,0579421
3139,5442;0,0581293
3140,5083;0,0583128
3141,4727;0,0584923
3142,4368;0,0586697
3143,4011;0,0588489
3144,3652;0,0590345
3145,3296;0,0592293
3146,2937;0,0594325
3147,2581;0,0596389
3148,2222;0,0598409
3149,1865;0,0600325
3150,1506;0,0602123
3151,1150;0,060385
3152,0791;0,0605591
3153,0435;0,0607421
3154,0076;0,0609377
3154,9719;0,061145
3155,9360;0,061361
3156,9004;0,0615832
3157,8645;0,0618112
3158,8289;0,0620451
3159,7930;0,0622828
3160,7573;0,0625191
3161,7214;0,0627475
3162,6858;0,062963
3163,6499;0,063165
3164,6143;0,0633576
3165,5784;0,0635464
3166,5427;0,0637359
3167,5068;0,0639273
3168,4712;0,06412
3169,4353;0,0642665
3170,3997;0,0644638
3171,3638;0,0646679
3172,3281;0,06488
3173,2922;0,0650967
3174,2566;0,0653097
3175,2207;0,0655094
3176,1851;0,0656901
3177,1492;0,0658548
3178,1135;0,0660151
3179,0776;0,0661865
3180,0420;0,0663806
3181,0061;0,0665992
3181,9705;0,0668333
3182,9346;0,0670682
3183,8989;0,0672907
3184,8630;0,0674951
3185,8274;0,0676846
3186,7915;0,0678674
3187,7559;0,0680514
3188,7200;0,0682405
3189,6843;0,0684341
3190,6484;0,0686302
3191,6128;0,0688268
3192,5769;0,069023
3193,5413;0,0692183
3194,5054;0,0694116
3195,4697;0,069602
3196,4338;0,0697911
3197,3982;0,0699828
3198,3623;0,0701822
3199,3267;0,070392
3200,2908;0,070609
3201,2551;0,0708247
3202,2192;0,0710287
3203,1836;0,0712145
3204,1477;0,0713836
3205,1121;0,0715458
3206,0762;0,0717147
3207,0405;0,0719009
3208,0046;0,0721067
3208,9690;0,072325
3209,9331;0,0725438
3210,8975;0,0727526
3211,8616;0,0729475
3212,8259;0,0731321
3213,7900;0,0733129
3214,7544;0,0734944
3215,7185;0,0736756
3216,6829;0,0738519
3217,6470;0,0740204
3218,6113;0,0741836
3219,5754;0,074349
3220,5398;0,0745242
3221,5039;0,0747106
3222,4683;0,0749024
3223,4324;0,0750906
3224,3967;0,0752701
3225,3608;0,0754442
3226,3252;0,0756225
3227,2893;0,0758144
3228,2537;0,0760223
3229,2178;0,0762395
3230,1821;0,076455
3231,1462;0,07666
3232,1106;0,0768521
3233,0747;0,0770349
3234,0391;0,077213
3235,0032;0,0773892
3235,9675;0,0775639
3236,9316;0,0777377
3237,8960;0,0779132
3238,8601;0,0780944
3239,8245;0,0782839
3240,7886;0,07848
3241,7529;0,0786779
3242,7170;0,0788723
3243,6814;0,0790617
3244,6455;0,0792493
3245,6099;0,0794413
3246,5740;0,0796428
3247,5383;0,0798551
3248,5024;0,0800756
3249,4668;0,0803002
3250,4309;0,0805252
3251,3953;0,0807483
3252,3594;0,0809684
3253,3237;0,081185
3254,2878;0,0813982
3255,2522;0,0816089
3256,2163;0,0818187
3257,1807;0,0820287
3258,1448;0,0822384
3259,1091;0,0824462
3260,0732;0,08265
3261,0376;0,0828487
3262,0017;0,0830431
3262,9661;0,0832347
3263,9302;0,0834249
3264,8945;0,0836143
3265,8586;0,0838029
3266,8230;0,0839914
3267,7871;0,0841808
3268,7515;0,0843716
3269,7156;0,0845617
3270,6799;0,0847464
3271,6440;0,0849191
3272,6084;0,0850739
3273,5725;0,0852075
3274,5369;0,0853205
3275,5010;0,0854161
3276,4653;0,0855
3277,4294;0,0855788
3278,3938;0,0856595
3279,3579;0,0857472
3280,3223;0,0858434
3281,2864;0,0859452
3282,2507;0,0860469
3283,2148;0,0861436
3284,1792;0,0862339
3285,1433;0,0863191
3286,1077;0,0864006
3287,0718;0,0864761
3288,0361;0,0865397
3289,0002;0,0865855
3289,9646;0,0866136
3290,9287;0,0866319
3291,8931;0,0866535
3292,8572;0,086688
3293,8215;0,0867361
3294,7856;0,0867887
3295,7500;0,0868326
3296,7141;0,0868593
3297,6785;0,0868704
3298,6426;0,0868765
3299,6069;0,0868915
3300,5710;0,0869245
3301,5354;0,0869758
3302,4995;0,0870375
3303,4639;0,0870973
3304,4280;0,0871439
3305,3923;0,087171
3306,3564;0,0871785
3307,3208;0,0871723
3308,2849;0,0871621
3309,2493;0,0871581
3310,2134;0,0871681
3311,1777;0,0871959
3312,1418;0,0872411
3313,1062;0,0873008
3314,0703;0,0873721
3315,0347;0,0874534
3315,9988;0,0875458
3316,9631;0,0876517
3317,9272;0,087774
3318,8916;0,0879125
3319,8557;0,0880625
3320,8201;0,0882142
3321,7842;0,0883552
3322,7485;0,088475
3323,7126;0,0885694
3324,6770;0,0886433
3325,6411;0,0887076
3326,6055;0,0887746
3327,5696;0,0888518
3328,5339;0,0889395
3329,4980;0,0890327
3330,4624;0,0891238
3331,4265;0,0892061
3332,3909;0,0892744
3333,3550;0,0893247
3334,3193;0,0893543
3335,2834;0,0893625
3336,2478;0,0893519
3337,2119;0,0893268
3338,1763;0,08929
3339,1404;0,0892406
3340,1047;0,0891741
3341,0688;0,0890864
3342,0332;0,0889779
3342,9973;0,0888552
3343,9617;0,088727
3344,9258;0,0885998
3345,8901;0,0884734
3346,8542;0,0883431
3347,8186;0,0882044
3348,7827;0,0880577
3349,7471;0,0879083
3350,7112;0,0877634
3351,6755;0,0876267
3352,6396;0,0874963
3353,6040;0,0873662
3354,5681;0,0872298
3355,5325;0,0870832
3356,4966;0,0869259
3357,4609;0,0867596
3358,4250;0,0865877
3359,3894;0,0864146
3360,3535;0,0862456
3361,3179;0,0860854
3362,2820;0,0859366
3363,2463;0,0857979
3364,2104;0,0856644
3365,1748;0,0855296
3366,1389;0,0853874
3367,1033;0,085233
3368,0674;0,0850628
3369,0317;0,0848745
3369,9958;0,084668
3370,9602;0,0844478
3371,9243;0,0842237
3372,8887;0,0840085
3373,8528;0,0838131
3374,8171;0,0836408
3375,7813;0,083487
3376,7456;0,0833421
3377,7097;0,0831977
3378,6741;0,08305
3379,6382;0,0828988
3380,6025;0,0827433
3381,5667;0,0825804
3382,5310;0,0824064
3383,4951;0,0822234
3384,4595;0,082042
3385,4236;0,081878
3386,3879;0,0817419
3387,3521;0,0816298
3388,3164;0,0815222
3389,2805;0,0813928
3390,2449;0,0812233
3391,2090;0,0810148
3392,1733;0,0807883
3393,1375;0,0805741
3394,1018;0,0803958
3395,0659;0,0802586
3396,0303;0,0801487
3396,9944;0,080042
3397,9587;0,0799145
3398,9229;0,0797518
3399,8872;0,0795518
3400,8513;0,0793238
3401,8157;0,0790831
3402,7798;0,0788455
3403,7441;0,078622
3404,7083;0,0784156
3405,6726;0,0782216
3406,6367;0,0780302
3407,6011;0,077831
3408,5652;0,0776171
3409,5295;0,0773873
3410,4937;0,0771465
3411,4580;0,0769044
3412,4221;0,0766718
3413,3865;0,0764566
3414,3506;0,0762585
3415,3149;0,0760677
3416,2791;0,0758686
3417,2434;0,0756456
3418,2075;0,0753911
3419,1719;0,0751093
3420,1360;0,0748147
3421,1003;0,0745252
3422,0645;0,0742537
3423,0288;0,0740044
3423,9929;0,0737732
3424,9573;0,0735528
3425,9214;0,0733356
3426,8857;0,0731159
3427,8499;0,0728896
3428,8142;0,0726545
3429,7783;0,0724098
3430,7427;0,0721558
3431,7068;0,0718927
3432,6711;0,0716208
3433,6353;0,0713408
3434,5996;0,0710556
3435,5637;0,0707701
3436,5281;0,0704906
3437,4922;0,0702233
3438,4565;0,0699741
3439,4207;0,069747
3440,3850;0,0695433
3441,3491;0,0693571
3442,3135;0,0691734
3443,2776;0,0689696
3444,2419;0,0687239
3445,2061;0,0684263
3446,1704;0,0680857
3447,1345;0,0677268
3448,0989;0,0673762
3449,0630;0,067047
3450,0273;0,0667347
3450,9915;0,0664271
3451,9558;0,0661172
3452,9199;0,0658115
3453,8843;0,0655254
3454,8484;0,0652717
3455,8127;0,0650495
3456,7769;0,0648436
3457,7412;0,0646321
3458,7053;0,0643976
3459,6697;0,0641344
3460,6338;0,0638485
3461,5981;0,0635519
3462,5623;0,0632559
3463,5266;0,0629665
3464,4907;0,0626841
3465,4551;0,0624055
3466,4192;0,0621278
3467,3835;0,06185
3468,3477;0,0615732
3469,3120;0,0612984
3470,2761;0,0610247
3471,2405;0,0607491
3472,2046;0,0604695
3473,1689;0,0601888
3474,1331;0,0599162
3475,0974;0,0596638
3476,0615;0,0594387
3477,0259;0,0592364
3477,9900;0,0590398
3478,9543;0,0588255
3479,9185;0,0585739
3480,8828;0,0582794
3481,8469;0,0579533
3482,8113;0,0576188
3483,7754;0,0572981
3484,7397;0,0570046
3485,7039;0,0567404
3486,6682;0,0565009
3487,6323;0,0562789
3488,5967;0,0560669
3489,5608;0,0558568
3490,5251;0,0556385
3491,4893;0,0554002
3492,4536;0,0551327
3493,4177;0,0548355
3494,3821;0,0545233
3495,3462;0,0542246
3496,3105;0,0539693
3497,2747;0,0537713
3498,2390;0,0536161
3499,2031;0,0534653
3500,1675;0,0532735
3501,1316;0,0530127
3502,0959;0,0526907
3503,0601;0,0523503
3504,0244;0,0520429
3504,9885;0,0517928
3505,9529;0,051583
3506,9170;0,0513704
3507,8813;0,0511144
3508,8455;0,0508012
3509,8098;0,0504521
3510,7739;0,0501089
3511,7383;0,0498076
3512,7024;0,0495594
3513,6667;0,0493533
3514,6309;0,0491716
3515,5952;0,0490037
3516,5593;0,0488492
3517,5237;0,0487103
3518,4878;0,0485821
3519,4521;0,0484486
3520,4163;0,0482882
3521,3806;0,0480848
3522,3447;0,0478364
3523,3091;0,0475538
3524,2732;0,0472509
3525,2375;0,0469325
3526,2017;0,0465935
3527,1660;0,0462303
3528,1301;0,0458561
3529,0945;0,0455025
3530,0586;0,0452055
3531,0229;0,0449827
3531,9871;0,0448215
3532,9514;0,0446849
3533,9155;0,0445284
3534,8799;0,0443209
3535,8440;0,0440611
3536,8083;0,0437808
3537,7725;0,0435289
3538,7368;0,0433442
3539,7009;0,0432347
3540,6653;0,0431721
3541,6294;0,0431018
3542,5938;0,042961
3543,5579;0,0427044
3544,5222;0,0423337
3545,4863;0,0419097
3546,4507;0,0415206
3547,4148;0,0412252
3548,3792;0,0410187
3549,3433;0,040847
3550,3076;0,0406473
3551,2717;0,040386
3552,2361;0,0400774
3553,2002;0,0397729
3554,1646;0,0395234
3555,1287;0,039344
3556,0930;0,0392113
3557,0571;0,0390882
3558,0215;0,0389547
3558,9856;0,0388238
3559,9500;0,0387309
3560,9141;0,0387035
3561,8784;0,0387304
3562,8425;0,0387516
3563,8069;0,0386695
3564,7710;0,0383785
3565,7354;0,037828
3566,6995;0,037103
3567,6638;0,0364142
3568,6279;0,0359393
3569,5923;0,0356998
3570,5564;0,0356007
3571,5208;0,0355312
3572,4849;0,0354241
3573,4492;0,0352663
3574,4133;0,0350817
3575,3777;0,0349008
3576,3418;0,0347363
3577,3062;0,0345809
3578,2703;0,034427
3579,2346;0,0342871
3580,1987;0,0341924
3581,1631;0,0341682
3582,1272;0,0342046
3583,0916;0,0342479
3584,0557;0,0342125
3585,0200;0,0340136
3585,9841;0,0336212
3586,9485;0,0331232
3587,9126;0,0327062
3588,8770;0,0325118
3589,8411;0,0325277
3590,8054;0,0326297
3591,7695;0,0326818
3592,7339;0,0326035
3593,6980;0,0323949
3594,6624;0,0321258
3595,6265;0,031882
3596,5908;0,0316974
3597,5549;0,0315356
3598,5193;0,0313347
3599,4834;0,0310705
3600,4478;0,0307843
3601,4119;0,0305514
3602,3762;0,0304151
3603,3403;0,0303504
3604,3047;0,0302796
3605,2688;0,0301182
3606,2332;0,0298189
3607,1973;0,0294022
3608,1616;0,0289516
3609,1257;0,0285632
3610,0901;0,0282895
3611,0542;0,028129
3612,0186;0,0280559
3612,9827;0,0280442
3613,9470;0,0280661
3614,9111;0,0280766
3615,8755;0,0280106
3616,8396;0,027806
3617,8040;0,0274511
3618,7681;0,0270331
3619,7324;0,026724
3620,6965;0,0266716
3621,6609;0,0268913
3622,6250;0,0272736
3623,5894;0,0276623
3624,5535;0,0279116
3625,5178;0,0278995
3626,4819;0,0275337
3627,4463;0,0268069
3628,4104;0,0259023
3629,3748;0,0251535
3630,3389;0,0247624
3631,3032;0,0246543
3632,2673;0,0246332
3633,2317;0,0245532
3634,1958;0,0243709
3635,1602;0,0241219
3636,1243;0,0238682
3637,0886;0,0236503
3638,0527;0,0234706
3639,0171;0,0233156
3639,9812;0,0231862
3640,9456;0,0231095
3641,9097;0,0231191
3642,8740;0,0232249
3643,8381;0,0233955
3644,8025;0,023558
3645,7666;0,0235962
3646,7310;0,0233435
3647,6951;0,0226469
3648,6594;0,0216012
3649,6235;0,0206617
3650,5879;0,0202115
3651,5520;0,0202128
3652,5164;0,0204007
3653,4805;0,0205382
3654,4448;0,0205031
3655,4089;0,020297
3656,3733;0,0200244
3657,3374;0,0198182
3658,3018;0,0197411
3659,2659;0,019757
3660,2302;0,0197935
3661,1943;0,0198153
3662,1587;0,0198478
3663,1228;0,0199423
3664,0872;0,0201183
3665,0513;0,0203339
3666,0156;0,0205017
3666,9797;0,0205329
3667,9441;0,0203895
3668,9082;0,0201329
3669,8726;0,0199105
3670,8367;0,019833
3671,8010;0,0198663
3672,7651;0,0198669
3673,7295;0,0196921
3674,6936;0,0193051
3675,6580;0,0188422
3676,6221;0,0185334
3677,5864;0,0184906
3678,5505;0,0186436
3679,5149;0,0188662
3680,4790;0,0190878
3681,4434;0,0193068
3682,4075;0,0195492
3683,3718;0,0198206
3684,3359;0,0200851
3685,3003;0,0202776
3686,2644;0,0203297
3687,2288;0,0201966
3688,1929;0,0198962
3689,1572;0,019547
3690,1213;0,0193213
3691,0857;0,0193091
3692,0498;0,0194703
3693,0142;0,0197133
3693,9783;0,0199683
3694,9426;0,0202008
3695,9067;0,0203935
3696,8711;0,0205289
3697,8352;0,020584
3698,7996;0,0205406
3699,7637;0,0204044
3700,7280;0,0202219
3701,6921;0,0200774
3702,6565;0,0200551
3703,6206;0,0201903
3704,5850;0,0204534
3705,5491;0,0207745
3706,5134;0,0210683
3707,4775;0,0212384
3708,4419;0,0211688
3709,4060;0,0207509
3710,3704;0,019997
3711,3345;0,0191479
3712,2988;0,0185458
3713,2629;0,0183638
3714,2273;0,0185446
3715,1914;0,018934
3716,1558;0,0193954
3717,1199;0,0198475
3718,0842;0,0202585
3719,0483;0,0206269
3720,0127;0,0209577
3720,9768;0,0212429
3721,9412;0,0214571
3722,9053;0,0215725
3723,8696;0,0215859
3724,8337;0,0215374
3725,7981;0,0214964
3726,7622;0,0215196
3727,7266;0,0216203
3728,6907;0,0217737
3729,6550;0,0219411
3730,6191;0,022084
3731,5835;0,0221533
3732,5476;0,0220647
3733,5120;0,0217122
3734,4761;0,0210787
3735,4404;0,0203598
3736,4045;0,0198631
3737,3689;0,0197491
3738,3330;0,0199479
3739,2974;0,0202679
3740,2615;0,0205086
3741,2258;0,0205133
3742,1899;0,020205
3743,1543;0,0196499
3744,1184;0,0190982
3745,0828;0,01884
3746,0469;0,0189418
3747,0112;0,0192073
3747,9753;0,019353
3748,9397;0,019165
3749,9038;0,018618
3750,8682;0,017968
3751,8323;0,0175997
3752,7966;0,0176693
3753,7607;0,0180277
3754,7251;0,0184317
3755,6892;0,0186994
3756,6536;0,0187485
3757,6177;0,0185976
3758,5820;0,0183551
3759,5461;0,0181637
3760,5105;0,0181129
3761,4746;0,0181993
3762,4390;0,0183609
3763,4031;0,0185291
3764,3674;0,0186546
3765,3315;0,0187096
3766,2959;0,0186793
3767,2600;0,0185577
3768,2244;0,0183546
3769,1885;0,0181121
3770,1528;0,0179081
3771,1169;0,0178262
3772,0813;0,0179063
3773,0454;0,0181198
3774,0098;0,0183876
3774,9739;0,0186168
3775,9382;0,0187317
3776,9023;0,0186989
3777,8667;0,0185468
3778,8308;0,0183621
3779,7952;0,0182415
3780,7593;0,0182278
3781,7236;0,0182923
3782,6877;0,0183709
3783,6521;0,0184083
3784,6162;0,0183835
3785,5806;0,0183125
3786,5447;0,0182346
3787,5090;0,0181905
3788,4731;0,0182056
3789,4375;0,0182824
3790,4016;0,0184033
3791,3660;0,0185398
3792,3301;0,0186663
3793,2944;0,0187726
3794,2585;0,0188686
3795,2229;0,018974
3796,1870;0,0190942
3797,1514;0,0192004
3798,1155;0,0192328
3799,0798;0,0191338
3800,0439;0,0189007
3801,0083;0,0186193
3801,9724;0,0184158
3802,9368;0,0183423
3803,9009;0,0183283
3804,8652;0,0182515
3805,8293;0,0180481
3806,7937;0,0177837
3807,7578;0,0176259
3808,7222;0,0177103
3809,6863;0,0180275
3810,6506;0,0184485
3811,6147;0,0188231
3812,5791;0,0190518
3813,5432;0,0191144
3814,5076;0,0190726
3815,4717;0,0190323
3816,4360;0,0190589
3817,4001;0,0191127
3818,3645;0,0190793
3819,3286;0,0188702
3820,2930;0,0185196
3821,2571;0,0181923
3822,2214;0,0180563
3823,1855;0,0181441
3824,1499;0,0183602
3825,1140;0,018582
3826,0784;0,0187344
3827,0425;0,0188067
3828,0068;0,018834
3828,9709;0,0188631
3829,9353;0,0189241
3830,8994;0,0190213
3831,8638;0,0191397
3832,8279;0,0192559
3833,7922;0,0193442
3834,7563;0,0193781
3835,7207;0,0193348
3836,6848;0,0192069
3837,6492;0,0190172
3838,6133;0,0188187
3839,5776;0,01866
3840,5417;0,0185496
3841,5061;0,0184626
3842,4702;0,0183836
3843,4346;0,0183392
3844,3987;0,018391
3845,3630;0,0185935
3846,3271;0,0189518
3847,2915;0,0194091
3848,2556;0,0198627
3849,2200;0,0201828
3850,1841;0,0202158
3851,1484;0,0197971
3852,1125;0,0188693
3853,0769;0,0177402
3854,0410;0,0170153
3855,0054;0,016987
3855,9695;0,0174505
3856,9338;0,0180761
3857,8979;0,0186461
3858,8623;0,0190655
3859,8264;0,0193129
3860,7908;0,0194052
3861,7549;0,019383
3862,7192;0,019308
3863,6833;0,0192478
3864,6477;0,0192422
3865,6118;0,0192789
3866,5762;0,0193086
3867,5403;0,0192785
3868,5046;0,0191591
3869,4688;0,0189573
3870,4331;0,0187181
3871,3972;0,0185092
3872,3616;0,0183933
3873,3257;0,0184012
3874,2900;0,0185233
3875,2542;0,0187184
3876,2185;0,0189303
3877,1826;0,0191064
3878,1470;0,0192136
3879,1111;0,0192485
3880,0754;0,0192312
3881,0396;0,0191827
3882,0039;0,0191002
3882,9680;0,0189655
3883,9324;0,0187858
3884,8965;0,018622
3885,8608;0,0185603
3886,8250;0,0186398
3887,7893;0,0188105
3888,7534;0,0189628
3889,7178;0,0189983
3890,6819;0,0188996
3891,6462;0,0187595
3892,6104;0,0187212
3893,5747;0,0188601
3894,5388;0,0191329
3895,5032;0,0194329
3896,4673;0,0196646
3897,4316;0,01978
3898,3958;0,01978
3899,3601;0,0196931
3900,3242;0,0195425
3901,2886;0,0193267
3902,2527;0,0190397
3903,2170;0,0187143
3904,1812;0,0184316
3905,1455;0,0182706
3906,1096;0,0182535
3907,0740;0,0183437
3908,0381;0,0184854
3909,0024;0,0186392
3909,9666;0,0187929
3910,9309;0,01895
3911,8950;0,0191105
3912,8594;0,019256
3913,8235;0,0193513
3914,7878;0,0193621
3915,7520;0,0192811
3916,7163;0,0191472
3917,6804;0,0190357
3918,6448;0,0190115
3919,6089;0,0190834
3920,5732;0,0191997
3921,5374;0,0192846
3922,5017;0,0192841
3923,4658;0,0191988
3924,4302;0,0190877
3925,3943;0,0190299
3926,3586;0,0190704
3927,3228;0,0191921
3928,2871;0,0193305
3929,2512;0,0194102
3930,2156;0,0193814
3931,1797;0,0192475
3932,1440;0,0190667
3933,1082;0,018917
3934,0725;0,0188515
3935,0366;0,0188789
3936,0010;0,0189758
3936,9651;0,0191054
3937,9294;0,0192293
3938,8936;0,0193126
3939,8579;0,0193313
3940,8220;0,019283
3941,7864;0,0191955
3942,7505;0,0191178
3943,7148;0,0190936
3944,6790;0,0191337
3945,6433;0,0192112
3946,6074;0,0192794
3947,5718;0,0192978
3948,5359;0,0192538
3949,5002;0,0191679
3950,4644;0,0190781
3951,4287;0,0190156
3952,3928;0,0189908
3953,3572;0,0189974
3954,3213;0,0190247
3955,2856;0,0190645
3956,2498;0,0191098
3957,2141;0,0191517
3958,1782;0,0191777
3959,1426;0,0191769
3960,1067;0,019147
3961,0710;0,0190984
3962,0352;0,019051
3962,9995;0,0190241
3963,9636;0,0190272
3964,9280;0,0190561
3965,8921;0,0190985
3966,8564;0,0191414
3967,8206;0,0191776
3968,7849;0,0192068
3969,7490;0,0192324
3970,7134;0,0192557
3971,6775;0,0192723
3972,6418;0,0192736
3973,6060;0,0192524
3974,5703;0,0192088
3975,5344;0,0191521
3976,4988;0,0190972
3977,4629;0,0190571
3978,4272;0,0190368
3979,3914;0,0190325
3980,3557;0,0190356
3981,3198;0,0190389
3982,2842;0,0190418
3983,2483;0,0190508
3984,2126;0,0190743
3985,1768;0,0191165
3986,1411;0,0191734
3987,1052;0,0192327
3988,0696;0,019279
3989,0337;0,0193
3989,9980;0,0192914
3990,9622;0,019258
3991,9265;0,0192112
3992,8906;0,0191645
3993,8550;0,0191291
3994,8191;0,0191113
3995,7834;0,0191118
3996,7476;0,0191265
3997,7119;0,0191488
3998,6760;0,0191724
3999,6404;0,0191934
4000,6045;0,0192989

##### Extended Information
[Comments]
Sample name
Comment
Username
Division
Organization;UNIVERSIDAD INDUSTRIAL DE SANTANDER

[Detailed Information]
Creation date;19/02/2025 3:34 p.m.

Data array type;Linear data array
Horizontal axis;Wavenumber [cm-1]
Vertical axis;Abs
Start;399,193 cm-1
End;4000,6 cm-1
Data interval;0,964233 cm-1
Data points;3736    

[Measurement Information]
Model name;FT/IR-4X1typeA
Serial No.;A035162111

Accessory;ATR PRO 4X
Accessory S/N;A021162126
Incident angle;45 deg

Measurement date;19/02/2025 3:33 p.m.

Light source;Standard
Detector;TGS
Accumulation;20
Resolution;4 cm-1
Zero filling;On
Apodization;Cosine
Gain;Auto (8)
Aperture;Auto (7 mm)
Scan speed;Auto (2 mm/sec)
Filter;Auto (12800 Hz)

