TITLE;
DATA TYPE;INFRARED SPECTRUM
ORIGIN;JASCO
OWNER;
DATE;25/02/19
TIME;15:31:32
SPECTROMETER/DATA SYSTEM;
LOCALE;9226
RESOLUTION;
DELTAX;0,964233
XUNITS;1/CM
YUNITS;ABSORBANCE
FIRSTX;  399,1927
LASTX; 4000,6047
NPOINTS;    3736
FIRSTY;     0,17173
MAXY;     0,27538
MINY;     0,01717
XYDATA
399,1927;0,171733
400,1569;0,173325
401,1211;0,175015
402,0854;0,176673
403,0496;0,178182
404,0138;0,179391
404,9781;0,180129
405,9423;0,180281
406,9065;0,179876
407,8708;0,17911
408,8350;0,178297
409,7992;0,177772
410,7635;0,177787
411,7277;0,178384
412,6919;0,179347
413,6562;0,180291
414,6204;0,180839
415,5846;0,180772
416,5489;0,180117
417,5131;0,179252
418,4773;0,178868
419,4416;0,179467
420,4058;0,180817
421,3700;0,18228
422,3343;0,183496
423,2985;0,184501
424,2627;0,185482
425,2270;0,186545
426,1912;0,187609
427,1554;0,188459
428,1197;0,188911
429,0839;0,188936
430,0481;0,18867
431,0124;0,188322
431,9766;0,18805
432,9408;0,187903
433,9051;0,187841
434,8693;0,187821
435,8335;0,187847
436,7978;0,187958
437,7620;0,188168
438,7262;0,188433
439,6905;0,188654
440,6547;0,188708
441,6189;0,188469
442,5832;0,187849
443,5474;0,186854
444,5116;0,185637
445,4759;0,18448
446,4401;0,18369
447,4043;0,183467
448,3686;0,183816
449,3328;0,184542
450,2970;0,185325
451,2613;0,185861
452,2255;0,185994
453,1897;0,185745
454,1540;0,185244
455,1182;0,184616
456,0824;0,183949
457,0467;0,183336
458,0109;0,182926
458,9751;0,18288
459,9394;0,183251
460,9036;0,183907
461,8678;0,184593
462,8321;0,185046
463,7963;0,185091
464,7605;0,18471
465,7248;0,184043
466,6890;0,183305
467,6532;0,182665
468,6175;0,182176
469,5817;0,181797
470,5459;0,18147
471,5102;0,181201
472,4744;0,181071
473,4386;0,181182
474,4029;0,181567
475,3671;0,182149
476,3313;0,182777
477,2956;0,18329
478,2598;0,183578
479,2240;0,183633
480,1883;0,183557
481,1525;0,183507
482,1167;0,183613
483,0810;0,183899
484,0452;0,18427
485,0094;0,184583
485,9737;0,184754
486,9379;0,184815
487,9021;0,184869
488,8664;0,185007
489,8306;0,185248
490,7948;0,185535
491,7591;0,185788
492,7233;0,185954
493,6875;0,186045
494,6518;0,186109
495,6160;0,186197
496,5802;0,186338
497,5445;0,18655
498,5087;0,186842
499,4729;0,187211
500,4372;0,187626
501,4014;0,188025
502,3656;0,188349
503,3299;0,188586
504,2941;0,188787
505,2583;0,189037
506,2226;0,189393
507,1868;0,18985
508,1510;0,190347
509,1153;0,190821
510,0795;0,191246
511,0437;0,191648
512,0080;0,192068
512,9722;0,192518
513,9365;0,19297
514,9007;0,193382
515,8649;0,193742
516,8292;0,194098
517,7934;0,194535
518,7576;0,195099
519,7219;0,195737
520,6861;0,196319
521,6503;0,196711
522,6146;0,196843
523,5788;0,196739
524,5430;0,196503
525,5073;0,196269
526,4715;0,196135
527,4357;0,196109
528,4000;0,196132
529,3642;0,19614
530,3284;0,196108
531,2927;0,196049
532,2569;0,195984
533,2211;0,195906
534,1854;0,195768
535,1496;0,19552
536,1138;0,195157
537,0781;0,194747
538,0423;0,194411
539,0065;0,194258
539,9708;0,194317
540,9350;0,194511
541,8992;0,194698
542,8635;0,194758
543,8277;0,194669
544,7919;0,194535
545,7562;0,194526
546,7204;0,19478
547,6846;0,195311
548,6489;0,196
549,6131;0,196673
550,5773;0,197208
551,5416;0,197599
552,5058;0,19794
553,4700;0,198356
554,4343;0,198918
555,3985;0,199598
556,3627;0,200276
557,3270;0,200788
558,2912;0,200982
559,2554;0,200773
560,2197;0,200164
561,1839;0,199245
562,1481;0,198169
563,1124;0,197091
564,0766;0,196123
565,0408;0,195297
566,0051;0,194578
566,9693;0,193912
567,9335;0,193261
568,8978;0,192624
569,8620;0,192022
570,8262;0,191471
571,7905;0,190974
572,7547;0,190537
573,7189;0,190175
574,6832;0,189921
575,6474;0,189803
576,6116;0,189814
577,5759;0,189913
578,5401;0,19004
579,5043;0,190145
580,4686;0,190195
581,4328;0,19017
582,3970;0,190051
583,3613;0,189825
584,3255;0,189502
585,2897;0,189137
586,2540;0,188821
587,2182;0,18865
588,1824;0,188672
589,1467;0,188858
590,1109;0,189111
591,0751;0,189307
592,0394;0,189369
593,0036;0,189299
593,9678;0,189167
594,9321;0,189041
595,8963;0,188936
596,8605;0,188802
597,8248;0,188567
598,7890;0,188194
599,7532;0,187716
600,7175;0,187222
601,6817;0,186796
602,6459;0,186469
603,6102;0,186205
604,5744;0,185932
605,5386;0,18559
606,5029;0,185152
607,4671;0,184624
608,4313;0,184025
609,3956;0,183373
610,3598;0,182682
611,3240;0,181977
612,2883;0,181292
613,2525;0,180659
614,2167;0,180082
615,1810;0,179527
616,1452;0,17892
617,1094;0,178173
618,0737;0,177221
619,0379;0,176052
620,0021;0,174712
620,9664;0,173282
621,9306;0,171855
622,8948;0,170515
623,8591;0,169317
624,8233;0,168268
625,7875;0,167375
626,7518;0,166594
627,7160;0,16588
628,6802;0,165198
629,6445;0,164534
630,6087;0,163881
631,5729;0,16324
632,5372;0,162616
633,5014;0,162021
634,4656;0,16147
635,4299;0,160974
636,3941;0,16053
637,3583;0,160123
638,3226;0,159737
639,2868;0,159368
640,2510;0,159017
641,2153;0,158684
642,1795;0,158355
643,1437;0,158004
644,1080;0,157612
645,0722;0,157189
646,0364;0,15677
647,0007;0,156407
647,9649;0,156136
648,9291;0,155952
649,8934;0,155815
650,8576;0,155674
651,8218;0,155499
652,7861;0,155297
653,7503;0,15511
654,7145;0,155001
655,6788;0,155022
656,6430;0,155193
657,6072;0,155485
658,5715;0,155815
659,5357;0,156058
660,4999;0,156084
661,4642;0,155826
662,4284;0,15531
663,3926;0,154629
664,3569;0,153909
665,3211;0,153306
666,2853;0,152996
667,2496;0,152996
668,2138;0,152885
669,1780;0,152118
670,1423;0,150791
671,1065;0,149328
672,0707;0,147884
673,0350;0,146407
673,9992;0,144846
674,9634;0,143209
675,9277;0,141545
676,8919;0,139907
677,8561;0,138328
678,8204;0,136831
679,7846;0,135441
680,7488;0,134183
681,7131;0,133063
682,6773;0,132059
683,6415;0,131134
684,6058;0,130263
685,5700;0,129446
686,5342;0,128693
687,4985;0,128007
688,4627;0,127378
689,4269;0,126786
690,3912;0,12623
691,3554;0,12572
692,3196;0,125267
693,2839;0,124854
694,2481;0,124443
695,2123;0,123985
696,1766;0,123459
697,1408;0,122881
698,1050;0,122297
699,0693;0,121761
700,0335;0,121297
700,9977;0,120896
701,9620;0,120519
702,9262;0,120118
703,8904;0,119658
704,8547;0,11914
705,8189;0,118584
706,7831;0,118018
707,7474;0,117458
708,7116;0,1169
709,6758;0,116328
710,6401;0,115726
711,6043;0,115096
712,5685;0,114454
713,5328;0,113833
714,4970;0,113263
715,4612;0,112467
716,4255;0,112085
717,3897;0,111743
718,3539;0,111358
719,3182;0,11083
720,2824;0,110093
721,2466;0,109149
722,2109;0,108076
723,1751;0,106989
724,1393;0,105989
725,1036;0,105126
726,0678;0,104398
727,0320;0,103762
727,9963;0,103163
728,9605;0,102556
729,9247;0,101927
730,8890;0,101287
731,8532;0,100658
732,8174;0,100057
733,7817;0,099492
734,7459;0,0989604
735,7101;0,0984611
736,6744;0,098
737,6386;0,0975868
738,6028;0,0972242
739,5671;0,0968982
740,5313;0,0965775
741,4955;0,0962242
742,4598;0,0958099
743,4240;0,095327
744,3882;0,0947883
745,3525;0,0942188
746,3167;0,0936426
747,2809;0,093075
748,2452;0,0925211
749,2094;0,0919793
750,1736;0,0914459
751,1379;0,0909189
752,1021;0,0903972
753,0663;0,0898794
754,0306;0,0893619
754,9948;0,0888401
755,9590;0,0883109
756,9233;0,0877781
757,8875;0,087254
758,8517;0,0867571
759,8160;0,0863046
760,7802;0,0859029
761,7444;0,0855426
762,7087;0,0852006
763,6729;0,0848514
764,6371;0,0844795
765,6014;0,0840878
766,5656;0,0836966
767,5298;0,0833321
768,4941;0,0830125
769,4583;0,0827379
770,4225;0,0824905
771,3868;0,0822446
772,3510;0,0819792
773,3152;0,0816877
774,2795;0,0813793
775,2437;0,0810722
776,2079;0,0807846
777,1722;0,0805268
778,1364;0,0802969
779,1006;0,080082
780,0649;0,0798627
781,0291;0,0796204
781,9933;0,0793442
782,9576;0,0790359
783,9218;0,0787093
784,8860;0,0783836
785,8503;0,0780746
786,8145;0,0777883
787,7787;0,0775192
788,7430;0,0772558
789,7072;0,0769884
790,6714;0,0767151
791,6357;0,076445
792,5999;0,0761951
793,5641;0,0759848
794,5284;0,0758271
795,4926;0,0757214
796,4568;0,07565
797,4211;0,0755823
798,3853;0,075487
799,3495;0,0753467
800,3138;0,0751674
801,2780;0,0749762
802,2422;0,0748073
803,2065;0,0746841
804,1707;0,0746071
805,1349;0,0745543
806,0992;0,0744923
807,0634;0,0743925
808,0276;0,0742422
808,9919;0,0740484
809,9561;0,0738333
810,9203;0,0736258
811,8846;0,0734517
812,8488;0,0733249
813,8130;0,0732428
814,7773;0,073187
815,7415;0,07313
816,7057;0,0730463
817,6700;0,0729216
818,6342;0,0727568
819,5984;0,0725637
820,5627;0,0723574
821,5269;0,0721491
822,4911;0,0719454
823,4554;0,071752
824,4196;0,0715781
825,3839;0,0714361
826,3481;0,0713369
827,3123;0,0712817
828,2766;0,0712575
829,2408;0,0712387
830,2050;0,0711949
831,1693;0,0711011
832,1335;0,0709453
833,0977;0,070731
834,0620;0,0704737
835,0262;0,0701954
835,9904;0,0699185
836,9547;0,0696615
837,9189;0,0694373
838,8831;0,069251
839,8474;0,0690997
840,8116;0,0689723
841,7758;0,0688523
842,7401;0,0687239
843,7043;0,0685783
844,6685;0,0684189
845,6328;0,0682598
846,5970;0,068119
847,5612;0,0680089
848,5255;0,0679295
849,4897;0,0678688
850,4539;0,0678105
851,4182;0,0677429
852,3824;0,0676653
853,3466;0,0675852
854,3109;0,0675118
855,2751;0,0674481
856,2393;0,0673899
857,2036;0,0673294
858,1678;0,0672624
859,1320;0,067192
860,0963;0,0671277
861,0605;0,0670806
862,0247;0,0670596
862,9890;0,0670709
863,9532;0,0671198
864,9174;0,0672119
865,8817;0,0673499
866,8459;0,0675292
867,8101;0,0677357
868,7744;0,06795
869,7386;0,0681563
870,7028;0,0683494
871,6671;0,0685354
872,6313;0,0687233
873,5955;0,0689139
874,5598;0,0690951
875,5240;0,0692479
876,4882;0,0693597
877,4525;0,0694373
878,4167;0,0695099
879,3809;0,0696195
880,3452;0,0698044
881,3094;0,0700857
882,2736;0,0704634
883,2379;0,0709234
884,2021;0,0714507
885,1663;0,0720396
886,1306;0,072696
887,0948;0,0734313
888,0590;0,0742523
889,0233;0,0751535
889,9875;0,0761145
890,9517;0,0771028
891,9160;0,0780794
892,8802;0,0790026
893,8444;0,07983
894,8087;0,0805196
895,7729;0,0810314
896,7371;0,0813326
897,7014;0,0814029
898,6656;0,0812401
899,6298;0,0808611
900,5941;0,0802992
901,5583;0,0795986
902,5225;0,0788069
903,4868;0,0779703
904,4510;0,0771296
905,4152;0,076319
906,3795;0,0755664
907,3437;0,0748934
908,3079;0,0743161
909,2722;0,0738446
910,2364;0,0734827
911,2007;0,0732271
912,1649;0,0730665
913,1292;0,0729825
914,0934;0,0729525
915,0576;0,0729558
916,0219;0,0729801
916,9861;0,0730257
917,9503;0,0731038
918,9146;0,0732289
919,8788;0,0734088
920,8430;0,0736385
921,8073;0,0739011
922,7715;0,0741768
923,7357;0,0744518
924,7000;0,0747228
925,6642;0,0749934
926,6284;0,0752676
927,5927;0,0755451
928,5569;0,0758236
929,5211;0,0761052
930,4854;0,0763996
931,4496;0,0767218
932,4138;0,0770833
933,3781;0,077484
934,3423;0,0779113
935,3065;0,0783479
936,2708;0,0787824
937,2350;0,0792179
938,1992;0,0796715
939,1635;0,0801694
940,1277;0,0807377
941,0919;0,0813963
942,0562;0,0821554
943,0204;0,0830137
943,9846;0,0839581
944,9489;0,084966
945,9131;0,0860114
946,8773;0,0870728
947,8416;0,0881415
948,8058;0,0892238
949,7700;0,0903373
950,7343;0,0915029
951,6985;0,0927385
952,6627;0,0940563
953,6270;0,0954638
954,5912;0,0969655
955,5554;0,0985615
956,5197;0,100244
957,4839;0,101993
958,4481;0,103785
959,4124;0,105593
960,3766;0,107403
961,3408;0,109212
962,3051;0,111025
963,2693;0,112847
964,2335;0,114676
965,1978;0,116508
966,1620;0,118338
967,1262;0,120177
968,0905;0,122051
969,0547;0,123993
970,0189;0,126046
970,9832;0,128244
971,9474;0,130624
972,9116;0,133218
973,8759;0,136062
974,8401;0,139184
975,8043;0,142602
976,7686;0,146317
977,7328;0,150305
978,6970;0,154526
979,6613;0,158913
980,6255;0,163373
981,5897;0,167792
982,5540;0,172043
983,5182;0,176011
984,4824;0,179621
985,4467;0,182847
986,4109;0,185713
987,3751;0,188268
988,3394;0,190558
989,3036;0,192611
990,2678;0,194436
991,2321;0,196035
992,1963;0,197423
993,1605;0,198639
994,1248;0,199737
995,0890;0,200778
996,0532;0,201812
997,0175;0,202875
997,9817;0,203985
998,9459;0,205149
999,9102;0,206377
1000,8744;0,207682
1001,8386;0,209082
1002,8029;0,210596
1003,7671;0,212241
1004,7313;0,21403
1005,6956;0,215983
1006,6598;0,218128
1007,6240;0,220502
1008,5883;0,22314
1009,5525;0,226054
1010,5167;0,229222
1011,4810;0,232583
1012,4452;0,236053
1013,4094;0,239543
1014,3737;0,242978
1015,3379;0,246301
1016,3021;0,249473
1017,2664;0,252466
1018,2306;0,255255
1019,1948;0,257828
1020,1591;0,260182
1021,1233;0,262332
1022,0875;0,264303
1023,0518;0,26612
1024,0160;0,267804
1024,9802;0,269367
1025,9445;0,270811
1026,9087;0,272131
1027,8729;0,273305
1028,8372;0,274291
1029,8014;0,275015
1030,7656;0,275377
1031,7299;0,275269
1032,6941;0,2746
1033,6583;0,273332
1034,6226;0,271498
1035,5868;0,269211
1036,5510;0,266642
1037,5153;0,263991
1038,4795;0,261451
1039,4437;0,259174
1040,4080;0,257263
1041,3722;0,255764
1042,3364;0,254667
1043,3007;0,253917
1044,2649;0,25342
1045,2291;0,253058
1046,1934;0,252716
1047,1576;0,252294
1048,1218;0,251727
1049,0861;0,250981
1050,0503;0,25004
1051,0145;0,248891
1051,9788;0,247514
1052,9430;0,245888
1053,9072;0,244002
1054,8715;0,241859
1055,8357;0,239466
1056,7999;0,23682
1057,7642;0,233889
1058,7284;0,230628
1059,6926;0,227002
1060,6569;0,22303
1061,6211;0,218801
1062,5853;0,214469
1063,5496;0,210208
1064,5138;0,206167
1065,4780;0,202434
1066,4423;0,199029
1067,4065;0,195919
1068,3707;0,193047
1069,3350;0,190358
1070,2992;0,187811
1071,2634;0,185372
1072,2277;0,183004
1073,1919;0,180666
1074,1561;0,178308
1075,1204;0,175889
1076,0846;0,173391
1077,0488;0,170831
1078,0131;0,168264
1078,9773;0,16577
1079,9415;0,163436
1080,9058;0,161327
1081,8700;0,159478
1082,8342;0,157891
1083,7985;0,156545
1084,7627;0,155407
1085,7269;0,154438
1086,6912;0,153602
1087,6554;0,152864
1088,6196;0,152199
1089,5839;0,151598
1090,5481;0,151072
1091,5123;0,150643
1092,4766;0,150337
1093,4408;0,15016
1094,4050;0,150095
1095,3693;0,150105
1096,3335;0,150152
1097,2977;0,150216
1098,2620;0,150302
1099,2262;0,150426
1100,1904;0,150602
1101,1547;0,150815
1102,1189;0,151019
1103,0831;0,151154
1104,0474;0,151163
1105,0116;0,151018
1105,9758;0,150727
1106,9401;0,150321
1107,9043;0,149826
1108,8685;0,149248
1109,8328;0,148553
1110,7970;0,147687
1111,7612;0,1466
1112,7255;0,145273
1113,6897;0,143742
1114,6539;0,142089
1115,6182;0,140419
1116,5824;0,138823
1117,5466;0,137359
1118,5109;0,136028
1119,4751;0,134789
1120,4393;0,133566
1121,4036;0,132273
1122,3678;0,130827
1123,3320;0,12917
1124,2963;0,127269
1125,2605;0,125128
1126,2247;0,122779
1127,1890;0,12027
1128,1532;0,117657
1129,1174;0,11499
1130,0817;0,112308
1131,0459;0,109646
1132,0101;0,10704
1132,9744;0,104528
1133,9386;0,10216
1134,9028;0,0999857
1135,8671;0,0980515
1136,8313;0,0963923
1137,7955;0,0950261
1138,7598;0,0939535
1139,7240;0,0931608
1140,6882;0,0926256
1141,6525;0,0923222
1142,6167;0,0922253
1143,5809;0,0923095
1144,5452;0,0925476
1145,5094;0,0929099
1146,4736;0,0933677
1147,4379;0,0938988
1148,4021;0,0944918
1149,3663;0,0951461
1150,3306;0,0958639
1151,2948;0,0966395
1152,2590;0,0974509
1153,2233;0,0982577
1154,1875;0,0990064
1155,1517;0,0996379
1156,1160;0,100093
1157,0802;0,100314
1158,0444;0,10024
1159,0087;0,0998123
1159,9729;0,0989704
1160,9371;0,0976684
1161,9014;0,0958852
1162,8656;0,0936348
1163,8298;0,0909716
1164,7941;0,0879852
1165,7583;0,0847899
1166,7225;0,081509
1167,6868;0,0782598
1168,6510;0,0751415
1169,6152;0,0722282
1170,5795;0,0695664
1171,5437;0,0671777
1172,5079;0,0650629
1173,4722;0,0632081
1174,4364;0,0615913
1175,4006;0,0601878
1176,3649;0,0589756
1177,3291;0,0579377
1178,2933;0,0570611
1179,2576;0,0563337
1180,2218;0,0557404
1181,1860;0,055263
1182,1503;0,0548833
1183,1145;0,0545877
1184,0787;0,0543705
1185,0430;0,0542334
1186,0072;0,0541812
1186,9714;0,0542174
1187,9357;0,054343
1188,8999;0,0545571
1189,8641;0,0548601
1190,8284;0,0552537
1191,7926;0,0557397
1192,7568;0,056317
1193,7211;0,0569798
1194,6853;0,0577179
1195,6495;0,0585191
1196,6138;0,05937
1197,5780;0,0602568
1198,5422;0,0611639
1199,5065;0,0619741
1200,4707;0,0628868
1201,4349;0,063781
1202,3992;0,0646546
1203,3634;0,0655116
1204,3276;0,0663571
1205,2919;0,0671943
1206,2561;0,0680244
1207,2203;0,0688511
1208,1846;0,0696861
1209,1488;0,0705524
1210,1130;0,0714801
1211,0773;0,0724975
1212,0415;0,0736209
1213,0057;0,0748482
1213,9700;0,0761606
1214,9342;0,0775295
1215,8984;0,0789264
1216,8627;0,0803278
1217,8269;0,0817181
1218,7911;0,0830882
1219,7554;0,0844334
1220,7196;0,0857499
1221,6838;0,0870324
1222,6481;0,0882729
1223,6123;0,0894596
1224,5765;0,09058
1225,5408;0,0916243
1226,5050;0,0925905
1227,4692;0,0934838
1228,4335;0,0943136
1229,3977;0,0950861
1230,3619;0,0957986
1231,3262;0,0964401
1232,2904;0,096996
1233,2546;0,0974562
1234,2189;0,0978208
1235,1831;0,0981003
1236,1473;0,0983109
1237,1116;0,0984682
1238,0758;0,0985817
1239,0400;0,0986523
1240,0043;0,0986736
1240,9685;0,098634
1241,9327;0,0985206
1242,8970;0,0983238
1243,8612;0,0980407
1244,8254;0,097676
1245,7897;0,0972408
1246,7539;0,0967491
1247,7181;0,0962137
1248,6824;0,0956449
1249,6466;0,09505
1250,6108;0,0944362
1251,5751;0,0938111
1252,5393;0,0931835
1253,5035;0,0925614
1254,4678;0,0919486
1255,4320;0,0913427
1256,3962;0,0907339
1257,3605;0,0901068
1258,3247;0,0894444
1259,2889;0,0887329
1260,2532;0,0879652
1261,2174;0,0871415
1262,1816;0,0862675
1263,1459;0,085351
1264,1101;0,0844002
1265,0743;0,0834217
1266,0386;0,08242
1267,0028;0,0813968
1267,9670;0,0803502
1268,9313;0,0792768
1269,8955;0,078175
1270,8597;0,0770491
1271,8240;0,0759102
1272,7882;0,0747748
1273,7524;0,073661
1274,7167;0,0725849
1275,6809;0,0715586
1276,6451;0,0705889
1277,6094;0,0696758
1278,5736;0,0688122
1279,5378;0,0679855
1280,5021;0,0671829
1281,4663;0,0663975
1282,4305;0,0656318
1283,3948;0,0648957
1284,3590;0,0642011
1285,3232;0,0635569
1286,2875;0,0629663
1287,2517;0,0624294
1288,2159;0,0619471
1289,1802;0,0615228
1290,1444;0,0611619
1291,1086;0,0608694
1292,0729;0,0606484
1293,0371;0,0605001
1294,0013;0,060425
1294,9656;0,0604227
1295,9298;0,0604915
1296,8940;0,0606276
1297,8583;0,0608263
1298,8225;0,0610842
1299,7867;0,0614008
1300,7510;0,0617774
1301,7152;0,0622167
1302,6794;0,0627182
1303,6437;0,0632777
1304,6079;0,0638887
1305,5721;0,0645429
1306,5364;0,0652311
1307,5006;0,065944
1308,4648;0,0666736
1309,4291;0,0674127
1310,3933;0,0681545
1311,3575;0,0688891
1312,3218;0,0696001
1313,2860;0,070263
1314,2502;0,0708474
1315,2145;0,0713203
1316,1787;0,071651
1317,1429;0,0718172
1318,1072;0,0718132
1319,0714;0,0716578
1320,0356;0,0713944
1320,9999;0,0710787
1321,9641;0,0707599
1322,9283;0,0704696
1323,8926;0,0702192
1324,8568;0,0700057
1325,8210;0,0698188
1326,7853;0,0696464
1327,7495;0,0694776
1328,7137;0,0693044
1329,6780;0,0691199
1330,6422;0,068918
1331,6064;0,0686935
1332,5707;0,068443
1333,5349;0,0681654
1334,4991;0,0678578
1335,4634;0,0675109
1336,4276;0,0671054
1337,3918;0,0666159
1338,3561;0,0660274
1339,3203;0,0653603
1340,2845;0,0646773
1341,2488;0,0640525
1342,2130;0,063532
1343,1772;0,0631234
1344,1415;0,0628136
1345,1057;0,0625887
1346,0699;0,0624447
1347,0342;0,0623868
1347,9984;0,062426
1348,9626;0,0625727
1349,9269;0,062829
1350,8911;0,0631846
1351,8553;0,0636184
1352,8196;0,0641069
1353,7838;0,0646342
1354,7480;0,0651978
1355,7123;0,065804
1356,6765;0,0664581
1357,6407;0,0671577
1358,6050;0,0678935
1359,5692;0,0686534
1360,5334;0,0694189
1361,4977;0,0701594
1362,4619;0,0708417
1363,4261;0,0714542
1364,3904;0,0720139
1365,3546;0,0725431
1366,3188;0,0730482
1367,2831;0,0735154
1368,2473;0,0739185
1369,2115;0,0742276
1370,1758;0,0744157
1371,1400;0,0744593
1372,1042;0,0743358
1373,0685;0,0740269
1374,0327;0,0735363
1374,9969;0,0729023
1375,9612;0,0721778
1376,9254;0,0713854
1377,8896;0,0705005
1378,8539;0,0694852
1379,8181;0,0683393
1380,7823;0,0671234
1381,7466;0,0659291
1382,7108;0,0648182
1383,6750;0,0637836
1384,6393;0,0627648
1385,6035;0,0617028
1386,5677;0,0606063
1387,5320;0,0595774
1388,4962;0,058747
1389,4604;0,0581696
1390,4247;0,057798
1391,3889;0,0575463
1392,3531;0,0573532
1393,3174;0,0572013
1394,2816;0,0570982
1395,2458;0,0570466
1396,2101;0,0570285
1397,1743;0,0570182
1398,1385;0,0570078
1399,1028;0,0570168
1400,0670;0,0570758
1401,0313;0,0572027
1401,9955;0,0573945
1402,9597;0,0576363
1403,9240;0,0579169
1404,8882;0,0582373
1405,8524;0,0586085
1406,8167;0,0590402
1407,7809;0,0595315
1408,7451;0,0600731
1409,7094;0,0606599
1410,6736;0,0612946
1411,6378;0,0619786
1412,6021;0,0626987
1413,5663;0,0634247
1414,5305;0,0641228
1415,4948;0,0647716
1416,4590;0,0653651
1417,4232;0,0658975
1418,3875;0,0663548
1419,3517;0,066738
1420,3159;0,067065
1421,2802;0,067325
1422,2444;0,0674618
1423,2086;0,0674186
1424,1729;0,0671826
1425,1371;0,0667875
1426,1013;0,0662758
1427,0656;0,0656584
1428,0298;0,0649136
1428,9940;0,0640335
1429,9583;0,0630733
1430,9225;0,062136
1431,8867;0,0612901
1432,8510;0,0605067
1433,8152;0,0596804
1434,7794;0,0587055
1435,7437;0,0575777
1436,7079;0,0564697
1437,6721;0,055647
1438,6364;0,0552415
1439,6006;0,0551729
1440,5648;0,0552818
1441,5291;0,0554581
1442,4933;0,0556713
1443,4575;0,0559383
1444,4218;0,0562779
1445,3860;0,0566834
1446,3502;0,057125
1447,3145;0,0575719
1448,2787;0,058015
1449,2429;0,0584679
1450,2072;0,0589389
1451,1714;0,0594039
1452,1356;0,0598087
1453,0999;0,0600954
1454,0641;0,0602228
1455,0283;0,0601571
1455,9926;0,0598489
1456,9568;0,0593187
1457,9210;0,0588381
1458,8853;0,058711
1459,8495;0,0589039
1460,8137;0,059167
1461,7780;0,0592667
1462,7422;0,0590445
1463,7064;0,0584167
1464,6707;0,0574233
1465,6349;0,0562638
1466,5991;0,0551678
1467,5634;0,0542058
1468,5276;0,0532751
1469,4918;0,0522078
1470,4561;0,0508469
1471,4203;0,0490903
1472,3845;0,0469819
1473,3488;0,0448106
1474,3130;0,0429619
1475,2772;0,0416004
1476,2415;0,0406336
1477,2057;0,0399025
1478,1699;0,0392996
1479,1342;0,0387764
1480,0984;0,0383191
1481,0626;0,0379324
1482,0269;0,0376332
1482,9911;0,0374392
1483,9553;0,0373543
1484,9196;0,0373643
1485,8838;0,0374447
1486,8480;0,0375716
1487,8123;0,0377207
1488,7765;0,0378754
1489,7407;0,0380636
1490,7050;0,0383528
1491,6692;0,0387714
1492,6334;0,0392845
1493,5977;0,0398492
1494,5619;0,0404625
1495,5261;0,0411615
1496,4904;0,0419842
1497,4546;0,0429269
1498,4188;0,0439458
1499,3831;0,0449833
1500,3473;0,0459674
1501,3115;0,0468136
1502,2758;0,047454
1503,2400;0,0478711
1504,2042;0,0481112
1505,1685;0,0482471
1506,1327;0,0482471
1507,0969;0,047949
1508,0612;0,0474238
1509,0254;0,0469715
1509,9896;0,0466672
1510,9539;0,0463934
1511,9181;0,0460402
1512,8823;0,0455558
1513,8466;0,0449255
1514,8108;0,044152
1515,7750;0,0432572
1516,7393;0,0422849
1517,7035;0,041283
1518,6677;0,0402778
1519,6320;0,0392778
1520,5962;0,0383119
1521,5604;0,0374579
1522,5247;0,0368038
1523,4889;0,036372
1524,4531;0,0361074
1525,4174;0,0359384
1526,3816;0,0358314
1527,3458;0,0357909
1528,3101;0,0358235
1529,2743;0,0359161
1530,2385;0,0360515
1531,2028;0,0362353
1532,1670;0,0364973
1533,1312;0,0368607
1534,0955;0,0373073
1535,0597;0,037775
1536,0239;0,0381924
1536,9882;0,0385229
1537,9524;0,0387876
1538,9166;0,0390211
1539,8809;0,0391395
1540,8451;0,0389452
1541,8093;0,0384927
1542,7736;0,038083
1543,7378;0,0378435
1544,7020;0,0377324
1545,6663;0,0377041
1546,6305;0,0377426
1547,5947;0,0378304
1548,5590;0,0379326
1549,5232;0,0380136
1550,4874;0,0380648
1551,4517;0,0381136
1552,4159;0,0381968
1553,3801;0,0383184
1554,3444;0,0384349
1555,3086;0,0384811
1556,2728;0,0383941
1557,2371;0,0381038
1558,2013;0,0375857
1559,1655;0,0371296
1560,1298;0,0371963
1561,0940;0,037802
1562,0582;0,0386394
1563,0225;0,0394568
1563,9867;0,04014
1564,9509;0,0406662
1565,9152;0,0410602
1566,8794;0,0413758
1567,8436;0,0416862
1568,8079;0,042066
1569,7721;0,0425558
1570,7363;0,0431338
1571,7006;0,0437317
1572,6648;0,0442893
1573,6290;0,0448012
1574,5933;0,0453218
1575,5575;0,0459214
1576,5217;0,0466247
1577,4860;0,0474078
1578,4502;0,0482349
1579,4144;0,0490706
1580,3787;0,0498881
1581,3429;0,050683
1582,3071;0,0514697
1583,2714;0,052268
1584,2356;0,0530923
1585,1998;0,0539471
1586,1641;0,0548232
1587,1283;0,0556953
1588,0925;0,0565245
1589,0568;0,0572702
1590,0210;0,0579022
1590,9852;0,0584033
1591,9495;0,0587608
1592,9137;0,0589591
1593,8779;0,058985
1594,8422;0,0588444
1595,8064;0,0585713
1596,7706;0,0582169
1597,7349;0,0578256
1598,6991;0,05742
1599,6633;0,0570023
1600,6276;0,0565689
1601,5918;0,0561257
1602,5560;0,0556951
1603,5203;0,0553067
1604,4845;0,0549778
1605,4487;0,054699
1606,4130;0,0544391
1607,3772;0,0541689
1608,3414;0,05389
1609,3057;0,0536442
1610,2699;0,0534827
1611,2341;0,0534161
1612,1984;0,0533979
1613,1626;0,0533527
1614,1268;0,053218
1615,0911;0,0529824
1616,0553;0,0527212
1617,0195;0,0525878
1617,9838;0,0526929
1618,9480;0,0529959
1619,9122;0,0533578
1620,8765;0,0536536
1621,8407;0,0538242
1622,8049;0,053878
1623,7692;0,053871
1624,7334;0,0538678
1625,6976;0,0538988
1626,6619;0,0539593
1627,6261;0,0540439
1628,5903;0,054165
1629,5546;0,0543331
1630,5188;0,0545267
1631,4830;0,0546914
1632,4473;0,0547665
1633,4115;0,0547069
1634,3757;0,0544878
1635,3400;0,0541351
1636,3042;0,0537966
1637,2684;0,053666
1638,2327;0,0537777
1639,1969;0,0540171
1640,1611;0,0542632
1641,1254;0,054451
1642,0896;0,0545584
1643,0538;0,0545782
1644,0181;0,054497
1644,9823;0,0542888
1645,9465;0,0539514
1646,9108;0,0535843
1647,8750;0,0533363
1648,8392;0,0532246
1649,8035;0,0531099
1650,7677;0,0528008
1651,7319;0,0521048
1652,6962;0,0509359
1653,6604;0,0496656
1654,6246;0,0489688
1655,5889;0,048956
1656,5531;0,0492372
1657,5173;0,049463
1658,4816;0,0494661
1659,4458;0,0491982
1660,4100;0,0486724
1661,3743;0,0479593
1662,3385;0,0472057
1663,3027;0,0465841
1664,2670;0,0461733
1665,2312;0,045915
1666,1954;0,0456772
1667,1597;0,0453238
1668,1239;0,0447622
1669,0881;0,0440006
1670,0524;0,043182
1671,0166;0,0424804
1671,9808;0,0419351
1672,9451;0,0414464
1673,9093;0,0409069
1674,8735;0,0403136
1675,8378;0,0397849
1676,8020;0,0394599
1677,7662;0,039366
1678,7305;0,0394
1679,6947;0,0394086
1680,6589;0,0392561
1681,6232;0,038836
1682,5874;0,0380815
1683,5516;0,0370719
1684,5159;0,0361385
1685,4801;0,0356068
1686,4443;0,0354715
1687,4086;0,0355177
1688,3728;0,0355625
1689,3370;0,0355317
1690,3013;0,0354326
1691,2655;0,0353074
1692,2297;0,0351978
1693,1940;0,0351312
1694,1582;0,0351147
1695,1224;0,0351257
1696,0867;0,0351058
1697,0509;0,0349839
1698,0151;0,0347401
1698,9794;0,0344639
1699,9436;0,034324
1700,9078;0,034446
1701,8721;0,0348221
1702,8363;0,035346
1703,8005;0,0359028
1704,7648;0,036428
1705,7290;0,0369162
1706,6932;0,0374027
1707,6575;0,0379341
1708,6217;0,03854
1709,5859;0,0392233
1710,5502;0,0399675
1711,5144;0,0407474
1712,4786;0,0415352
1713,4429;0,0423032
1714,4071;0,0430264
1715,3713;0,0436808
1716,3356;0,044251
1717,2998;0,0447772
1718,2640;0,0453709
1719,2283;0,0461113
1720,1925;0,0469766
1721,1567;0,0478942
1722,1210;0,0488002
1723,0852;0,0496586
1724,0494;0,0504592
1725,0137;0,0512144
1725,9779;0,05195
1726,9421;0,0526856
1727,9064;0,0534127
1728,8706;0,0540865
1729,8348;0,054634
1730,7991;0,0549653
1731,7633;0,0549903
1732,7275;0,0546744
1733,6918;0,0541378
1734,6560;0,0536331
1735,6202;0,0533137
1736,5845;0,0531067
1737,5487;0,0528284
1738,5129;0,0523278
1739,4772;0,0515546
1740,4414;0,0505703
1741,4056;0,0495027
1742,3699;0,0484552
1743,3341;0,0474457
1744,2983;0,0464281
1745,2626;0,0453455
1746,2268;0,0441484
1747,1910;0,0427752
1748,1553;0,041151
1749,1195;0,0392662
1750,0837;0,037281
1751,0480;0,0354739
1752,0122;0,0340303
1752,9764;0,0329305
1753,9407;0,0320275
1754,9049;0,0311743
1755,8691;0,0303004
1756,8334;0,02942
1757,7976;0,0285844
1758,7618;0,0278175
1759,7261;0,0270916
1760,6903;0,0263655
1761,6545;0,0256439
1762,6188;0,0249905
1763,5830;0,0244732
1764,5472;0,0241056
1765,5115;0,0238426
1766,4757;0,02362
1767,4399;0,0233897
1768,4042;0,0231298
1769,3684;0,0228304
1770,3326;0,0224793
1771,2969;0,0220723
1772,2611;0,0216521
1773,2253;0,0213132
1774,1896;0,021132
1775,1538;0,0211036
1776,1180;0,0211581
1777,0823;0,0212169
1778,0465;0,02123
1779,0107;0,021185
1779,9750;0,0210966
1780,9392;0,020987
1781,9034;0,0208689
1782,8677;0,0207452
1783,8319;0,0206253
1784,7961;0,0205361
1785,7604;0,0205112
1786,7246;0,0205649
1787,6888;0,0206771
1788,6531;0,0208012
1789,6173;0,0208815
1790,5815;0,0208695
1791,5458;0,0207504
1792,5100;0,0205757
1793,4742;0,0204444
1794,4385;0,0204192
1795,4027;0,0204814
1796,3669;0,0205683
1797,3312;0,0206246
1798,2954;0,0206246
1799,2596;0,02057
1800,2239;0,0204807
1801,1881;0,0203844
1802,1523;0,0203068
1803,1166;0,020263
1804,0808;0,0202555
1805,0450;0,0202776
1806,0093;0,0203168
1806,9735;0,0203568
1807,9377;0,0203802
1808,9020;0,020373
1809,8662;0,0203323
1810,8304;0,020269
1811,7947;0,0202025
1812,7589;0,0201477
1813,7231;0,0201069
1814,6874;0,0200745
1815,6516;0,0200464
1816,6158;0,020026
1817,5801;0,0200225
1818,5443;0,0200443
1819,5085;0,0200916
1820,4728;0,0201549
1821,4370;0,02022
1822,4012;0,0202758
1823,3655;0,0203194
1824,3297;0,0203566
1825,2939;0,0203958
1826,2582;0,0204368
1827,2224;0,0204635
1828,1866;0,0204489
1829,1509;0,0203752
1830,1151;0,0202588
1831,0793;0,0201495
1832,0436;0,0200943
1833,0078;0,0201012
1833,9720;0,0201423
1834,9363;0,0201818
1835,9005;0,0202004
1836,8647;0,0202057
1837,8290;0,0202227
1838,7932;0,0202704
1839,7574;0,0203435
1840,7217;0,0204147
1841,6859;0,0204497
1842,6501;0,0204218
1843,6144;0,0203283
1844,5786;0,0202043
1845,5428;0,0201081
1846,5071;0,0200746
1847,4713;0,0200928
1848,4355;0,0201284
1849,3998;0,0201556
1850,3640;0,0201681
1851,3282;0,0201726
1852,2925;0,0201759
1853,2567;0,0201787
1854,2209;0,0201791
1855,1852;0,0201794
1856,1494;0,020187
1857,1136;0,0202092
1858,0779;0,020244
1859,0421;0,0202796
1860,0063;0,0203033
1860,9706;0,0203127
1861,9348;0,0203204
1862,8990;0,0203449
1863,8633;0,0203984
1864,8275;0,0204792
1865,7917;0,0205697
1866,7560;0,0206382
1867,7202;0,0206475
1868,6844;0,0205802
1869,6487;0,0204603
1870,6129;0,0203351
1871,5771;0,0202367
1872,5414;0,0201708
1873,5056;0,0201307
1874,4698;0,0201114
1875,4341;0,0201108
1876,3983;0,0201258
1877,3625;0,0201508
1878,3268;0,0201817
1879,2910;0,0202197
1880,2552;0,0202711
1881,2195;0,0203425
1882,1837;0,0204343
1883,1479;0,0205378
1884,1122;0,0206371
1885,0764;0,0207133
1886,0406;0,0207481
1887,0049;0,0207269
1887,9691;0,0206456
1888,9333;0,0205186
1889,8976;0,020383
1890,8618;0,0202843
1891,8260;0,0202514
1892,7903;0,020281
1893,7545;0,0203409
1894,7188;0,0203897
1895,6830;0,0203998
1896,6472;0,0203736
1897,6115;0,0203401
1898,5757;0,0203321
1899,5399;0,0203631
1900,5042;0,0204209
1901,4684;0,0204783
1902,4326;0,0205117
1903,3969;0,0205151
1904,3611;0,0205006
1905,3253;0,0204852
1906,2896;0,020479
1907,2538;0,0204808
1908,2180;0,0204846
1909,1823;0,0204885
1910,1465;0,0204976
1911,1107;0,020519
1912,0750;0,0205525
1913,0392;0,0205892
1914,0034;0,0206179
1914,9677;0,0206342
1915,9319;0,0206431
1916,8961;0,0206547
1917,8604;0,0206749
1918,8246;0,0206981
1919,7888;0,0207076
1920,7531;0,0206852
1921,7173;0,0206223
1922,6815;0,0205297
1923,6458;0,0204359
1924,6100;0,0203738
1925,5742;0,0203618
1926,5385;0,0203945
1927,5027;0,0204492
1928,4669;0,0205028
1929,4312;0,020546
1930,3954;0,020588
1931,3596;0,0206472
1932,3239;0,0207316
1933,2881;0,0208243
1934,2523;0,0208853
1935,2166;0,0208717
1936,1808;0,0207672
1937,1450;0,0205997
1938,1093;0,0204364
1939,0735;0,0203581
1940,0377;0,0204234
1941,0020;0,0206338
1941,9662;0,0209151
1942,9304;0,0211424
1943,8947;0,0212069
1944,8589;0,021079
1945,8231;0,0208175
1946,7874;0,0205313
1947,7516;0,0203273
1948,7158;0,0202712
1949,6801;0,0203704
1950,6443;0,0205829
1951,6085;0,0208435
1952,5728;0,0210902
1953,5370;0,0212763
1954,5012;0,0213719
1955,4655;0,0213665
1956,4297;0,021275
1957,3939;0,0211395
1958,3582;0,0210118
1959,3224;0,0209194
1960,2866;0,0208395
1961,2509;0,0207096
1962,2151;0,020479
1963,1793;0,0201623
1964,1436;0,0198512
1965,1078;0,0196662
1966,0720;0,0196765
1967,0363;0,0198458
1968,0005;0,0200543
1968,9647;0,0201878
1969,9290;0,0202161
1970,8932;0,0201946
1971,8574;0,0202011
1972,8217;0,0202708
1973,7859;0,0203774
1974,7501;0,0204699
1975,7144;0,0205273
1976,6786;0,0205785
1977,6428;0,0206687
1978,6071;0,0208075
1979,5713;0,0209547
1980,5355;0,0210529
1981,4998;0,0210712
1982,4640;0,0210237
1983,4282;0,0209575
1984,3925;0,0209267
1985,3567;0,0209674
1986,3209;0,0210839
1987,2852;0,0212483
1988,2494;0,0214118
1989,2136;0,021523
1990,1779;0,0215485
1991,1421;0,0214875
1992,1063;0,0213694
1993,0706;0,0212302
1994,0348;0,0210867
1994,9990;0,0209303
1995,9633;0,0207481
1996,9275;0,0205492
1997,8917;0,0203745
1998,8560;0,0202785
1999,8202;0,0202971
2000,7844;0,0204294
2001,7487;0,0206525
2002,7129;0,0209542
2003,6771;0,02135
2004,6414;0,0218596
2005,6056;0,0224535
2006,5698;0,0230177
2007,5341;0,023384
2008,4983;0,0234215
2009,4625;0,0231258
2010,4268;0,0226305
2011,3910;0,022136
2012,3552;0,0218073
2013,3195;0,0217085
2014,2837;0,0218
2015,2479;0,0219849
2016,2122;0,0221659
2017,1764;0,02228
2018,1406;0,0223015
2019,1049;0,0222286
2020,0691;0,022079
2021,0333;0,0218983
2021,9976;0,0217629
2022,9618;0,0217581
2023,9260;0,0219301
2024,8903;0,0222431
2025,8545;0,0225785
2026,8187;0,0227905
2027,7830;0,022792
2028,7472;0,0226173
2029,7114;0,0224158
2030,6757;0,0223748
2031,6399;0,022613
2032,6041;0,0231058
2033,5684;0,0236921
2034,5326;0,0241589
2035,4968;0,0243525
2036,4611;0,0242446
2037,4253;0,0239219
2038,3895;0,0235212
2039,3538;0,0231595
2040,3180;0,0228961
2041,2822;0,022733
2042,2465;0,0226434
2043,2107;0,0226032
2044,1749;0,0226077
2045,1392;0,0226687
2046,1034;0,0227991
2047,0676;0,0229969
2048,0320;0,0232372
2048,9961;0,0234758
2049,9604;0,0236615
2050,9246;0,0237508
2051,8889;0,0237217
2052,8530;0,0235819
2053,8174;0,0233728
2054,7815;0,02316
2055,7458;0,0230106
2056,7100;0,0229667
2057,6743;0,0230295
2058,6384;0,0231652
2059,6028;0,0233262
2060,5669;0,0234702
2061,5313;0,0235681
2062,4954;0,0236018
2063,4597;0,0235615
2064,4238;0,0234511
2065,3882;0,0232959
2066,3523;0,0231423
2067,3167;0,0230417
2068,2808;0,0230253
2069,2451;0,023089
2070,2092;0,0231962
2071,1736;0,0232989
2072,1377;0,0233609
2073,1021;0,0233702
2074,0662;0,0233356
2075,0305;0,0232733
2075,9946;0,0231986
2076,9590;0,0231256
2077,9231;0,0230722
2078,8875;0,0230585
2079,8516;0,0230994
2080,8159;0,0231938
2081,7800;0,0233228
2082,7444;0,0234577
2083,7085;0,0235745
2084,6729;0,0236623
2085,6370;0,023723
2086,6013;0,0237622
2087,5654;0,0237801
2088,5298;0,0237708
2089,4939;0,0237283
2090,4583;0,0236548
2091,4224;0,023563
2092,3867;0,0234711
2093,3508;0,0233945
2094,3152;0,023341
2095,2793;0,0233112
2096,2437;0,0233033
2097,2078;0,0233167
2098,1721;0,0233506
2099,1362;0,0233995
2100,1006;0,0234522
2101,0647;0,0234947
2102,0291;0,0235205
2102,9932;0,0235337
2103,9575;0,0235463
2104,9216;0,0235681
2105,8860;0,0235975
2106,8501;0,0236211
2107,8145;0,0236227
2108,7786;0,023596
2109,7429;0,0235509
2110,7070;0,0235089
2111,6714;0,0234899
2112,6355;0,0235017
2113,5999;0,023537
2114,5640;0,0235798
2115,5283;0,0236144
2116,4924;0,023631
2117,4568;0,023626
2118,4209;0,0235989
2119,3853;0,0235522
2120,3494;0,0234932
2121,3137;0,0234385
2122,2778;0,023415
2123,2422;0,0234519
2124,2063;0,0235674
2125,1707;0,0237525
2126,1348;0,0239638
2127,0991;0,0241326
2128,0632;0,0241915
2129,0276;0,0241086
2129,9917;0,0239109
2130,9561;0,0236805
2131,9202;0,0235193
2132,8845;0,0234963
2133,8486;0,0236073
2134,8130;0,0237759
2135,7771;0,0239034
2136,7415;0,0239372
2137,7056;0,0239079
2138,6699;0,0239048
2139,6340;0,0240116
2140,5984;0,0242462
2141,5625;0,0245469
2142,5269;0,0248076
2143,4910;0,0249387
2144,4553;0,0249113
2145,4194;0,0247639
2146,3838;0,0245737
2147,3479;0,0244164
2148,3123;0,0243382
2149,2764;0,0243494
2150,2407;0,0244345
2151,2048;0,0245702
2152,1692;0,0247455
2153,1333;0,0249769
2154,0977;0,0253111
2155,0618;0,0258038
2156,0261;0,0264725
2156,9902;0,0272422
2157,9546;0,0279302
2158,9187;0,0283186
2159,8831;0,0282854
2160,8472;0,0278772
2161,8115;0,0272642
2162,7756;0,0266372
2163,7400;0,0261368
2164,7041;0,0258355
2165,6685;0,0257441
2166,6326;0,0258206
2167,5969;0,0259735
2168,5610;0,0260754
2169,5254;0,0259988
2170,4895;0,0256699
2171,4539;0,0251174
2172,4180;0,0244801
2173,3823;0,023958
2174,3464;0,0237228
2175,3108;0,023837
2176,2749;0,0242328
2177,2393;0,0247588
2178,2034;0,0252567
2179,1677;0,0256155
2180,1318;0,0257816
2181,0962;0,025743
2182,0603;0,0255179
2183,0247;0,02516
2183,9888;0,0247639
2184,9531;0,0244477
2185,9172;0,0243098
2186,8816;0,0243843
2187,8457;0,0246245
2188,8101;0,0249284
2189,7742;0,025189
2190,7385;0,0253393
2191,7026;0,025368
2192,6670;0,0253036
2193,6311;0,0251856
2194,5955;0,0250419
2195,5596;0,0248828
2196,5239;0,0247094
2197,4880;0,0245261
2198,4524;0,0243509
2199,4165;0,0242149
2200,3809;0,0241527
2201,3450;0,0241843
2202,3093;0,0242989
2203,2734;0,0244522
2204,2378;0,0245838
2205,2019;0,0246455
2206,1663;0,0246252
2207,1304;0,0245487
2208,0947;0,0244596
2209,0588;0,0243925
2210,0232;0,0243573
2210,9873;0,0243445
2211,9517;0,0243426
2212,9158;0,0243493
2213,8801;0,0243684
2214,8442;0,0243972
2215,8086;0,0244188
2216,7727;0,0244097
2217,7371;0,0243578
2218,7012;0,0242764
2219,6655;0,0242014
2220,6296;0,0241732
2221,5940;0,0242136
2222,5581;0,0243138
2223,5225;0,0244373
2224,4866;0,0245361
2225,4509;0,0245709
2226,4150;0,0245266
2227,3794;0,0244179
2228,3435;0,0242854
2229,3079;0,0241787
2230,2720;0,0241354
2231,2363;0,024164
2232,2004;0,0242393
2233,1648;0,0243158
2234,1289;0,0243519
2235,0933;0,0243314
2236,0574;0,024272
2237,0217;0,0242145
2237,9858;0,0242015
2238,9502;0,0242568
2239,9143;0,0243743
2240,8787;0,0245204
2241,8428;0,0246469
2242,8071;0,0247078
2243,7712;0,0246762
2244,7356;0,0245548
2245,6997;0,0243763
2246,6641;0,0241924
2247,6282;0,0240544
2248,5925;0,0239951
2249,5566;0,0240208
2250,5210;0,0241158
2251,4851;0,0242546
2252,4495;0,0244113
2253,4136;0,0245618
2254,3779;0,0246801
2255,3420;0,0247393
2256,3064;0,0247211
2257,2705;0,0246293
2258,2349;0,0244957
2259,1990;0,02437
2260,1633;0,0242961
2261,1274;0,0242887
2262,0918;0,0243258
2263,0559;0,0243636
2264,0203;0,024365
2264,9844;0,0243229
2265,9487;0,0242636
2266,9128;0,0242287
2267,8772;0,0242469
2268,8413;0,0243155
2269,8057;0,0244017
2270,7698;0,0244624
2271,7341;0,0244674
2272,6982;0,0244147
2273,6626;0,0243288
2274,6267;0,0242449
2275,5911;0,0241904
2276,5552;0,0241731
2277,5195;0,0241826
2278,4836;0,0242009
2279,4480;0,0242148
2280,4121;0,0242241
2281,3765;0,0242397
2282,3406;0,0242772
2283,3049;0,0243481
2284,2690;0,0244541
2285,2334;0,0245856
2286,1975;0,0247251
2287,1619;0,0248525
2288,1260;0,0249529
2289,0903;0,0250212
2290,0544;0,025064
2291,0188;0,0250957
2291,9829;0,0251325
2292,9473;0,0251871
2293,9114;0,0252659
2294,8757;0,025369
2295,8398;0,0254904
2296,8042;0,0256164
2297,7683;0,025725
2298,7327;0,0257884
2299,6968;0,0257832
2300,6611;0,0257043
2301,6252;0,0255738
2302,5896;0,025439
2303,5537;0,025355
2304,5181;0,0253615
2305,4822;0,0254628
2306,4465;0,0256221
2307,4106;0,0257749
2308,3750;0,0258543
2309,3391;0,0258197
2310,3035;0,0256714
2311,2676;0,025448
2312,2319;0,0252063
2313,1960;0,0249968
2314,1604;0,0248458
2315,1245;0,0247523
2316,0889;0,0246986
2317,0530;0,0246658
2318,0173;0,024646
2318,9814;0,0246459
2319,9458;0,0246818
2320,9099;0,0247681
2321,8743;0,0249075
2322,8384;0,0250836
2323,8027;0,0252604
2324,7668;0,0253911
2325,7312;0,0254369
2326,6953;0,0253867
2327,6597;0,025268
2328,6238;0,0251374
2329,5881;0,025056
2330,5522;0,0250618
2331,5166;0,0251543
2332,4807;0,0252985
2333,4451;0,0254421
2334,4092;0,0255397
2335,3735;0,0255741
2336,3376;0,0255645
2337,3020;0,0255595
2338,2661;0,0256121
2339,2305;0,0257454
2340,1946;0,0259221
2341,1589;0,0260366
2342,1230;0,0259547
2343,0874;0,0256302
2344,0515;0,0252372
2345,0159;0,0251074
2345,9800;0,0254334
2346,9443;0,0260933
2347,9084;0,0267775
2348,8728;0,0272092
2349,8369;0,0272744
2350,8013;0,0270392
2351,7654;0,0266875
2352,7297;0,0264071
2353,6938;0,0262866
2354,6582;0,0263124
2355,6223;0,0264473
2356,5867;0,0266654
2357,5508;0,0269124
2358,5151;0,0270869
2359,4792;0,0270954
2360,4436;0,0269195
2361,4077;0,026613
2362,3721;0,0262362
2363,3362;0,0258088
2364,3005;0,0253217
2365,2646;0,0247754
2366,2290;0,0242001
2367,1931;0,0236447
2368,1575;0,0231554
2369,1216;0,0227623
2370,0859;0,0224762
2371,0500;0,0222924
2372,0144;0,0221973
2372,9785;0,022178
2373,9429;0,0222292
2374,9070;0,0223532
2375,8713;0,0225544
2376,8354;0,0228314
2377,7998;0,0231716
2378,7639;0,0235503
2379,7283;0,0239338
2380,6924;0,0242851
2381,6567;0,0245704
2382,6208;0,0247659
2383,5852;0,0248638
2384,5493;0,0248746
2385,5137;0,0248251
2386,4778;0,0247511
2387,4421;0,0246868
2388,4063;0,0246547
2389,3706;0,0246603
2390,3347;0,024693
2391,2991;0,0247343
2392,2632;0,0247677
2393,2275;0,0247855
2394,1917;0,0247898
2395,1560;0,0247887
2396,1201;0,0247899
2397,0845;0,0247968
2398,0486;0,0248092
2399,0129;0,0248241
2399,9771;0,0248386
2400,9414;0,024852
2401,9055;0,0248643
2402,8699;0,0248764
2403,8340;0,0248893
2404,7983;0,0249048
2405,7625;0,0249263
2406,7268;0,0249581
2407,6909;0,0250047
2408,6553;0,0250673
2409,6194;0,0251408
2410,5837;0,0252135
2411,5479;0,0252701
2412,5122;0,0252985
2413,4763;0,0252966
2414,4407;0,0252746
2415,4048;0,0252511
2416,3691;0,0252434
2417,3333;0,0252577
2418,2976;0,0252864
2419,2617;0,025314
2420,2261;0,0253281
2421,1902;0,0253276
2422,1545;0,0253237
2423,1187;0,0253312
2424,0830;0,0253575
2425,0471;0,0253972
2426,0115;0,0254363
2426,9756;0,0254615
2427,9399;0,0254699
2428,9041;0,0254704
2429,8684;0,0254771
2430,8325;0,0255006
2431,7969;0,0255424
2432,7610;0,0255963
2433,7253;0,0256537
2434,6895;0,0257084
2435,6538;0,0257563
2436,6179;0,0257931
2437,5823;0,0258125
2438,5464;0,025809
2439,5107;0,0257836
2440,4749;0,0257476
2441,4392;0,0257199
2442,4033;0,025718
2443,3677;0,0257487
2444,3318;0,0258044
2445,2961;0,0258677
2446,2603;0,0259217
2447,2246;0,0259582
2448,1887;0,0259794
2449,1531;0,0259934
2450,1172;0,0260072
2451,0815;0,0260231
2452,0457;0,0260389
2453,0100;0,0260522
2453,9741;0,0260623
2454,9385;0,0260719
2455,9026;0,026085
2456,8669;0,026105
2457,8311;0,0261331
2458,7954;0,026167
2459,7595;0,0262003
2460,7239;0,0262236
2461,6880;0,0262279
2462,6523;0,0262093
2463,6165;0,026173
2464,5808;0,0261335
2465,5449;0,0261108
2466,5093;0,0261226
2467,4734;0,0261779
2468,4377;0,0262724
2469,4019;0,0263903
2470,3662;0,0265081
2471,3303;0,0266027
2472,2947;0,0266577
2473,2588;0,0266681
2474,2231;0,0266405
2475,1873;0,0265899
2476,1516;0,0265335
2477,1157;0,026486
2478,0801;0,0264565
2479,0442;0,0264488
2480,0085;0,0264621
2480,9727;0,0264922
2481,9370;0,0265316
2482,9011;0,0265714
2483,8655;0,0266045
2484,8296;0,0266289
2485,7939;0,0266488
2486,7581;0,0266713
2487,7224;0,0267006
2488,6865;0,026734
2489,6509;0,0267624
2490,6150;0,026776
2491,5793;0,0267706
2492,5435;0,0267494
2493,5078;0,0267207
2494,4719;0,0266928
2495,4363;0,0266709
2496,4004;0,026658
2497,3647;0,0266576
2498,3289;0,0266745
2499,2932;0,0267122
2500,2573;0,0267686
2501,2217;0,0268333
2502,1858;0,0268913
2503,1501;0,0269288
2504,1143;0,0269395
2505,0786;0,026927
2506,0427;0,0269023
2507,0071;0,026878
2507,9712;0,0268647
2508,9355;0,0268671
2509,8997;0,0268845
2510,8640;0,026911
2511,8281;0,0269379
2512,7925;0,0269573
2513,7566;0,0269657
2514,7209;0,0269659
2515,6851;0,0269661
2516,6494;0,0269739
2517,6135;0,0269915
2518,5779;0,0270137
2519,5420;0,027032
2520,5063;0,0270413
2521,4705;0,0270448
2522,4348;0,0270527
2523,3989;0,0270752
2524,3633;0,0271149
2525,3274;0,0271642
2526,2917;0,0272099
2527,2559;0,027241
2528,2202;0,0272556
2529,1843;0,0272599
2530,1487;0,0272625
2531,1128;0,0272673
2532,0771;0,0272705
2533,0413;0,0272642
2534,0056;0,0272433
2534,9697;0,0272106
2535,9341;0,0271777
2536,8982;0,0271593
2537,8625;0,0271661
2538,8267;0,0271981
2539,7910;0,0272438
2540,7551;0,027285
2541,7195;0,0273053
2542,6836;0,0272993
2543,6479;0,0272757
2544,6121;0,0272538
2545,5764;0,027253
2546,5405;0,027282
2547,5049;0,0273325
2548,4690;0,0273832
2549,4333;0,0274104
2550,3975;0,0274009
2551,3618;0,0273589
2552,3259;0,0273032
2553,2903;0,027258
2554,2544;0,0272411
2555,2188;0,0272573
2556,1829;0,0272992
2557,1472;0,0273523
2558,1113;0,0274021
2559,0757;0,0274379
2560,0398;0,0274541
2561,0042;0,027449
2561,9683;0,0274247
2562,9326;0,0273871
2563,8967;0,0273471
2564,8611;0,0273186
2565,8252;0,0273145
2566,7896;0,0273407
2567,7537;0,0273915
2568,7180;0,0274506
2569,6821;0,0274969
2570,6465;0,0275146
2571,6106;0,0275013
2572,5750;0,0274696
2573,5391;0,0274414
2574,5034;0,0274365
2575,4675;0,0274631
2576,4319;0,0275145
2577,3960;0,0275732
2578,3604;0,0276196
2579,3245;0,0276406
2580,2888;0,0276332
2581,2529;0,0276036
2582,2173;0,0275627
2583,1814;0,0275228
2584,1458;0,0274954
2585,1099;0,0274898
2586,0742;0,0275108
2587,0383;0,0275565
2588,0027;0,0276174
2588,9668;0,0276793
2589,9312;0,0277289
2590,8953;0,0277603
2591,8596;0,0277765
2592,8237;0,027787
2593,7881;0,0278002
2594,7522;0,027818
2595,7166;0,0278351
2596,6807;0,0278438
2597,6450;0,0278399
2598,6091;0,027827
2599,5735;0,0278147
2600,5376;0,0278132
2601,5020;0,0278287
2602,4661;0,0278603
2603,4304;0,0279029
2604,3945;0,0279499
2605,3589;0,027997
2606,3230;0,0280425
2607,2874;0,0280859
2608,2515;0,0281264
2609,2158;0,0281622
2610,1799;0,0281916
2611,1443;0,0282139
2612,1084;0,0282296
2613,0728;0,0282401
2614,0369;0,0282469
2615,0012;0,0282514
2615,9653;0,0282563
2616,9297;0,0282656
2617,8938;0,0282837
2618,8582;0,0283128
2619,8223;0,0283503
2620,7866;0,0283889
2621,7507;0,0284202
2622,7151;0,028439
2623,6792;0,0284467
2624,6436;0,0284504
2625,6077;0,0284585
2626,5720;0,0284758
2627,5361;0,028502
2628,5005;0,0285326
2629,4646;0,0285629
2630,4290;0,0285898
2631,3931;0,0286127
2632,3574;0,0286318
2633,3215;0,0286474
2634,2859;0,0286594
2635,2500;0,0286689
2636,2144;0,0286778
2637,1785;0,0286886
2638,1428;0,0287029
2639,1069;0,0287215
2640,0713;0,0287445
2641,0354;0,028772
2641,9998;0,0288043
2642,9639;0,0288406
2643,9282;0,0288782
2644,8923;0,0289132
2645,8567;0,0289419
2646,8208;0,0289628
2647,7852;0,0289774
2648,7493;0,028989
2649,7136;0,0290015
2650,6777;0,029017
2651,6421;0,0290361
2652,6062;0,0290585
2653,5706;0,0290839
2654,5347;0,0291123
2655,4990;0,0291438
2656,4631;0,0291771
2657,4275;0,0292095
2658,3916;0,0292384
2659,3560;0,0292621
2660,3201;0,0292818
2661,2844;0,0293007
2662,2485;0,0293221
2663,2129;0,0293474
2664,1770;0,0293744
2665,1414;0,0293991
2666,1055;0,0294174
2667,0698;0,0294279
2668,0339;0,0294329
2668,9983;0,0294375
2669,9624;0,0294478
2670,9268;0,0294685
2671,8909;0,0295021
2672,8552;0,0295473
2673,8193;0,0295997
2674,7837;0,0296519
2675,7478;0,0296958
2676,7122;0,0297254
2677,6763;0,0297388
2678,6406;0,0297399
2679,6047;0,029737
2680,5691;0,0297401
2681,5332;0,0297574
2682,4976;0,0297922
2683,4617;0,029842
2684,4260;0,0298995
2685,3901;0,0299557
2686,3545;0,0300028
2687,3186;0,0300375
2688,2830;0,0300614
2689,2471;0,0300797
2690,2114;0,0300975
2691,1755;0,0301181
2692,1399;0,030142
2693,1040;0,0301687
2694,0684;0,0301981
2695,0325;0,0302315
2695,9968;0,0302696
2696,9609;0,0303112
2697,9253;0,0303526
2698,8894;0,0303895
2699,8538;0,0304199
2700,8179;0,0304458
2701,7822;0,030472
2702,7463;0,0305036
2703,7107;0,0305425
2704,6748;0,0305872
2705,6392;0,0306336
2706,6033;0,0306785
2707,5676;0,0307205
2708,5317;0,03076
2709,4961;0,0307977
2710,4602;0,0308335
2711,4246;0,0308666
2712,3887;0,0308966
2713,3530;0,0309253
2714,3171;0,0309554
2715,2815;0,0309895
2716,2456;0,0310277
2717,2100;0,0310673
2718,1741;0,0311038
2719,1384;0,0311337
2720,1025;0,0311565
2721,0669;0,0311746
2722,0310;0,0311923
2722,9954;0,031213
2723,9595;0,0312386
2724,9238;0,0312693
2725,8879;0,0313047
2726,8523;0,0313443
2727,8164;0,0313868
2728,7808;0,0314301
2729,7449;0,0314715
2730,7092;0,0315087
2731,6733;0,0315411
2732,6377;0,0315696
2733,6018;0,0315954
2734,5662;0,0316182
2735,5303;0,0316357
2736,4946;0,0316451
2737,4587;0,0316462
2738,4231;0,0316432
2739,3872;0,0316445
2740,3516;0,0316583
2741,3157;0,031689
2742,2800;0,0317342
2743,2441;0,0317854
2744,2085;0,0318325
2745,1726;0,0318682
2746,1370;0,031891
2747,1011;0,031905
2748,0654;0,0319162
2749,0295;0,0319301
2749,9939;0,0319496
2750,9580;0,0319758
2751,9224;0,0320094
2752,8865;0,0320502
2753,8508;0,0320968
2754,8149;0,0321447
2755,7793;0,0321875
2756,7434;0,0322194
2757,7078;0,0322387
2758,6719;0,0322497
2759,6362;0,0322612
2760,6003;0,0322817
2761,5647;0,0323158
2762,5288;0,0323614
2763,4932;0,0324121
2764,4573;0,0324608
2765,4216;0,0325037
2766,3857;0,0325421
2767,3501;0,0325807
2768,3142;0,0326249
2769,2786;0,0326772
2770,2427;0,0327355
2771,2070;0,0327941
2772,1711;0,0328468
2773,1355;0,0328892
2774,0996;0,0329218
2775,0640;0,0329492
2776,0281;0,0329785
2776,9924;0,033016
2777,9565;0,0330653
2778,9209;0,0331259
2779,8850;0,0331938
2780,8494;0,0332636
2781,8135;0,0333304
2782,7778;0,0333918
2783,7419;0,0334482
2784,7063;0,0335019
2785,6704;0,0335552
2786,6348;0,0336082
2787,5989;0,0336593
2788,5632;0,0337077
2789,5273;0,033756
2790,4917;0,0338109
2791,4558;0,0338804
2792,4202;0,0339679
2793,3843;0,0340687
2794,3486;0,0341709
2795,3127;0,034262
2796,2771;0,0343357
2797,2412;0,0343956
2798,2056;0,0344524
2799,1697;0,0345175
2800,1340;0,0345971
2801,0981;0,0346913
2802,0625;0,0347963
2803,0266;0,0349083
2803,9910;0,0350245
2804,9551;0,0351427
2805,9194;0,0352597
2806,8835;0,0353715
2807,8479;0,0354761
2808,8120;0,035575
2809,7764;0,0356731
2810,7405;0,0357767
2811,7048;0,0358902
2812,6689;0,0360154
2813,6333;0,0361514
2814,5974;0,0362959
2815,5618;0,0364459
2816,5259;0,0365984
2817,4902;0,0367507
2818,4543;0,0369017
2819,4187;0,037053
2820,3828;0,037208
2821,3472;0,0373708
2822,3113;0,037544
2823,2756;0,0377281
2824,2397;0,0379222
2825,2041;0,0381258
2826,1682;0,0383392
2827,1326;0,0385634
2828,0967;0,0387991
2829,0610;0,0390473
2830,0251;0,0393091
2830,9895;0,039587
2831,9536;0,0398831
2832,9180;0,0401979
2833,8821;0,0405289
2834,8464;0,0408714
2835,8105;0,041222
2836,7749;0,0415824
2837,7390;0,0419613
2838,7034;0,0423745
2839,6675;0,0428424
2840,6318;0,0433867
2841,5959;0,0440265
2842,5603;0,0447725
2843,5244;0,0456197
2844,4888;0,0465398
2845,4529;0,0474776
2846,4172;0,0483552
2847,3813;0,0490863
2848,3457;0,0495967
2849,3098;0,0498445
2850,2742;0,049832
2851,2383;0,0496032
2852,2026;0,0492303
2853,1667;0,0487932
2854,1311;0,0483608
2855,0952;0,0479792
2856,0596;0,0476695
2857,0237;0,0474341
2857,9880;0,0472661
2858,9521;0,0471577
2859,9165;0,0471033
2860,8806;0,0470977
2861,8450;0,0471337
2862,8091;0,0472007
2863,7734;0,0472877
2864,7375;0,0473876
2865,7019;0,0474995
2866,6660;0,0476264
2867,6304;0,0477699
2868,5945;0,0479257
2869,5588;0,0480829
2870,5229;0,0482286
2871,4873;0,0483538
2872,4514;0,048457
2873,4158;0,048544
2874,3799;0,0486229
2875,3442;0,0486988
2876,3083;0,048772
2877,2727;0,0488398
2878,2368;0,048901
2879,2012;0,0489594
2880,1653;0,0490242
2881,1296;0,0491064
2882,0938;0,0492127
2883,0581;0,0493416
2884,0222;0,0494834
2884,9866;0,0496249
2885,9507;0,0497568
2886,9150;0,0498782
2887,8792;0,0499961
2888,8435;0,0501204
2889,8076;0,0502574
2890,7720;0,0504057
2891,7361;0,0505578
2892,7004;0,0507056
2893,6646;0,0508457
2894,6289;0,0509822
2895,5930;0,0511238
2896,5574;0,0512788
2897,5215;0,0514498
2898,4858;0,051632
2899,4500;0,0518149
2900,4143;0,051988
2901,3784;0,0521462
2902,3428;0,0522932
2903,3069;0,052442
2904,2712;0,0526106
2905,2354;0,0528174
2906,1997;0,0530774
2907,1638;0,0534008
2908,1282;0,0537956
2909,0923;0,0542689
2910,0566;0,0548259
2911,0208;0,0554637
2911,9851;0,056164
2912,9492;0,0568874
2913,9136;0,0575745
2914,8777;0,0581567
2915,8420;0,0585708
2916,8062;0,0587755
2917,7705;0,0587605
2918,7346;0,0585468
2919,6990;0,0581767
2920,6631;0,0577002
2921,6274;0,0571624
2922,5916;0,0565962
2923,5559;0,0560225
2924,5200;0,0554532
2925,4844;0,0548965
2926,4485;0,054359
2927,4128;0,053846
2928,3770;0,0533607
2929,3413;0,0529032
2930,3054;0,0524707
2931,2698;0,052058
2932,2339;0,0516592
2933,1982;0,0512688
2934,1624;0,050883
2935,1267;0,0505009
2936,0908;0,0501236
2937,0552;0,0497531
2938,0193;0,0493903
2938,9836;0,0490339
2939,9478;0,0486814
2940,9121;0,0483315
2941,8762;0,0479859
2942,8406;0,0476494
2943,8047;0,0473276
2944,7690;0,047024
2945,7332;0,0467392
2946,6975;0,0464717
2947,6616;0,0462206
2948,6260;0,0459869
2949,5901;0,0457729
2950,5544;0,0455798
2951,5186;0,0454055
2952,4829;0,0452445
2953,4470;0,0450898
2954,4114;0,0449345
2955,3755;0,0447733
2956,3398;0,0446024
2957,3040;0,0444185
2958,2683;0,0442196
2959,2324;0,0440058
2960,1968;0,04378
2961,1609;0,0435462
2962,1252;0,0433083
2963,0894;0,0430682
2964,0537;0,0428259
2965,0178;0,0425816
2965,9822;0,0423369
2966,9463;0,0420947
2967,9106;0,0418571
2968,8748;0,0416236
2969,8391;0,0413916
2970,8032;0,0411586
2971,7676;0,0409247
2972,7317;0,0406935
2973,6960;0,0404707
2974,6602;0,0402606
2975,6245;0,0400641
2976,5886;0,0398786
2977,5530;0,039701
2978,5171;0,03953
2979,4814;0,0393681
2980,4456;0,0392204
2981,4099;0,0390909
2982,3740;0,038981
2983,3384;0,0388879
2984,3025;0,0388066
2985,2668;0,0387318
2986,2310;0,03866
2987,1953;0,0385889
2988,1594;0,0385169
2989,1238;0,0384424
2990,0879;0,038365
2991,0522;0,0382872
2992,0164;0,0382154
2992,9807;0,0381589
2993,9448;0,0381261
2994,9092;0,0381198
2995,8733;0,0381356
2996,8376;0,0381637
2997,8018;0,0381933
2998,7661;0,0382182
2999,7302;0,0382383
3000,6946;0,0382591
3001,6587;0,0382867
3002,6230;0,0383241
3003,5872;0,0383682
3004,5515;0,0384117
3005,5156;0,0384456
3006,4800;0,0384649
3007,4441;0,0384708
3008,4084;0,0384704
3009,3726;0,0384736
3010,3369;0,0384885
3011,3010;0,0385177
3012,2654;0,0385581
3013,2295;0,0386037
3014,1938;0,038649
3015,1580;0,0386919
3016,1223;0,0387339
3017,0864;0,0387772
3018,0508;0,0388235
3019,0149;0,0388725
3019,9792;0,0389236
3020,9434;0,0389764
3021,9077;0,0390326
3022,8718;0,039095
3023,8362;0,0391664
3024,8003;0,0392483
3025,7646;0,0393402
3026,7288;0,0394394
3027,6931;0,0395413
3028,6572;0,0396409
3029,6216;0,0397337
3030,5857;0,039817
3031,5500;0,0398908
3032,5142;0,0399576
3033,4785;0,040022
3034,4426;0,0400889
3035,4070;0,0401625
3036,3711;0,0402453
3037,3354;0,0403374
3038,2996;0,0404363
3039,2639;0,0405385
3040,2280;0,040641
3041,1924;0,040743
3042,1565;0,0408466
3043,1208;0,0409553
3044,0850;0,0410707
3045,0493;0,0411909
3046,0134;0,0413106
3046,9778;0,0414249
3047,9419;0,0415328
3048,9063;0,0416385
3049,8704;0,0417494
3050,8347;0,0418702
3051,7988;0,0419998
3052,7632;0,0421314
3053,7273;0,0422568
3054,6917;0,0423723
3055,6558;0,0424808
3056,6201;0,0425906
3057,5842;0,0427095
3058,5486;0,0428406
3059,5127;0,0429809
3060,4771;0,0431242
3061,4412;0,0432643
3062,4055;0,043397
3063,3696;0,0435202
3064,3340;0,0436337
3065,2981;0,0437386
3066,2625;0,0438387
3067,2266;0,0439391
3068,1909;0,0440454
3069,1550;0,0441599
3070,1194;0,044281
3071,0835;0,044404
3072,0479;0,0445252
3073,0120;0,0446443
3073,9763;0,0447643
3074,9404;0,0448892
3075,9048;0,0450188
3076,8689;0,0451483
3077,8333;0,0452703
3078,7974;0,0453796
3079,7617;0,0454769
3080,7258;0,0455689
3081,6902;0,0456637
3082,6543;0,0457664
3083,6187;0,0458767
3084,5828;0,0459904
3085,5471;0,0461035
3086,5112;0,0462148
3087,4756;0,046327
3088,4397;0,046444
3089,4041;0,0465688
3090,3682;0,0467022
3091,3325;0,0468431
3092,2966;0,0469902
3093,2610;0,0471428
3094,2251;0,0473001
3095,1895;0,0474588
3096,1536;0,0476124
3097,1179;0,0477524
3098,0820;0,0478714
3099,0464;0,0479686
3100,0105;0,0480519
3100,9749;0,0481376
3101,9390;0,0482441
3102,9033;0,048384
3103,8674;0,0485577
3104,8318;0,0487529
3105,7959;0,0489498
3106,7603;0,0491309
3107,7244;0,049288
3108,6887;0,0494257
3109,6528;0,0495569
3110,6172;0,0496945
3111,5813;0,0498437
3112,5457;0,0500002
3113,5098;0,0501539
3114,4741;0,0502963
3115,4382;0,0504265
3116,4026;0,0505517
3117,3667;0,0506823
3118,3311;0,0508262
3119,2952;0,0509841
3120,2595;0,0511503
3121,2236;0,0513165
3122,1880;0,0514762
3123,1521;0,0516276
3124,1165;0,0517738
3125,0806;0,0519201
3126,0449;0,0520716
3127,0090;0,0522308
3127,9734;0,0523974
3128,9375;0,0525684
3129,9019;0,0527396
3130,8660;0,0529076
3131,8303;0,0530704
3132,7944;0,0532292
3133,7588;0,0533872
3134,7229;0,0535486
3135,6873;0,0537167
3136,6514;0,0538917
3137,6157;0,0540704
3138,5798;0,0542478
3139,5442;0,0544191
3140,5083;0,0545829
3141,4727;0,0547417
3142,4368;0,0549012
3143,4011;0,0550674
3144,3652;0,0552443
3145,3296;0,0554322
3146,2937;0,0556283
3147,2581;0,055828
3148,2222;0,0560256
3149,1865;0,0562156
3150,1506;0,0563936
3151,1150;0,0565582
3152,0791;0,0567137
3153,0435;0,0568703
3154,0076;0,0570403
3154,9719;0,0572331
3155,9360;0,0574494
3156,9004;0,0576801
3157,8645;0,0579112
3158,8289;0,0581302
3159,7930;0,058332
3160,7573;0,0585197
3161,7214;0,0587006
3162,6858;0,0588805
3163,6499;0,0590613
3164,6143;0,0592415
3165,5784;0,0594198
3166,5427;0,0595981
3167,5068;0,0597809
3168,4712;0,0599733
3169,4353;0,0601426
3170,3997;0,0603578
3171,3638;0,0605785
3172,3281;0,0607977
3173,2922;0,0610089
3174,2566;0,0612082
3175,2207;0,0613949
3176,1851;0,0615716
3177,1492;0,061743
3178,1135;0,0619146
3179,0776;0,0620904
3180,0420;0,0622723
3181,0061;0,0624591
3181,9705;0,062648
3182,9346;0,0628366
3183,8989;0,0630244
3184,8630;0,063214
3185,8274;0,0634098
3186,7915;0,0636153
3187,7559;0,0638302
3188,7200;0,0640498
3189,6843;0,0642666
3190,6484;0,0644745
3191,6128;0,0646711
3192,5769;0,0648587
3193,5413;0,0650409
3194,5054;0,0652204
3195,4697;0,0653967
3196,4338;0,0655688
3197,3982;0,0657371
3198,3623;0,0659051
3199,3267;0,0660783
3200,2908;0,0662608
3201,2551;0,0664531
3202,2192;0,0666527
3203,1836;0,0668556
3204,1477;0,067058
3205,1121;0,0672566
3206,0762;0,0674479
3207,0405;0,0676285
3208,0046;0,0677966
3208,9690;0,067954
3209,9331;0,0681068
3210,8975;0,0682632
3211,8616;0,0684301
3212,8259;0,0686098
3213,7900;0,068799
3214,7544;0,0689905
3215,7185;0,0691776
3216,6829;0,0693569
3217,6470;0,0695297
3218,6113;0,0697004
3219,5754;0,0698735
3220,5398;0,0700508
3221,5039;0,0702309
3222,4683;0,0704124
3223,4324;0,0705961
3224,3967;0,0707865
3225,3608;0,0709877
3226,3252;0,0711986
3227,2893;0,0714092
3228,2537;0,0716037
3229,2178;0,0717699
3230,1821;0,0719072
3231,1462;0,0720285
3232,1106;0,0721533
3233,0747;0,0722956
3234,0391;0,0724573
3235,0032;0,07263
3235,9675;0,0728044
3236,9316;0,0729792
3237,8960;0,0731622
3238,8601;0,0733632
3239,8245;0,0735841
3240,7886;0,073815
3241,7529;0,0740385
3242,7170;0,0742398
3243,6814;0,0744146
3244,6455;0,0745713
3245,6099;0,0747253
3246,5740;0,0748911
3247,5383;0,0750772
3248,5024;0,0752841
3249,4668;0,0755067
3250,4309;0,075737
3251,3953;0,0759662
3252,3594;0,0761861
3253,3237;0,0763907
3254,2878;0,0765778
3255,2522;0,0767498
3256,2163;0,0769126
3257,1807;0,0770744
3258,1448;0,0772437
3259,1091;0,0774269
3260,0732;0,0776265
3261,0376;0,0778391
3262,0017;0,0780555
3262,9661;0,0782639
3263,9302;0,0784543
3264,8945;0,0786248
3265,8586;0,0787825
3266,8230;0,0789417
3267,7871;0,0791164
3268,7515;0,0793129
3269,7156;0,079526
3270,6799;0,0797394
3271,6440;0,0799313
3272,6084;0,0800825
3273,5725;0,0801833
3274,5369;0,0802378
3275,5010;0,0802636
3276,4653;0,0802864
3277,4294;0,0803319
3278,3938;0,0804167
3279,3579;0,0805424
3280,3223;0,0806953
3281,2864;0,080852
3282,2507;0,0809891
3283,2148;0,0810928
3284,1792;0,0811632
3285,1433;0,0812121
3286,1077;0,0812556
3287,0718;0,0813054
3288,0361;0,0813644
3289,0002;0,0814264
3289,9646;0,0814814
3290,9287;0,0815214
3291,8931;0,0815447
3292,8572;0,0815569
3293,8215;0,0815673
3294,7856;0,0815843
3295,7500;0,0816104
3296,7141;0,0816414
3297,6785;0,0816695
3298,6426;0,0816883
3299,6069;0,0816972
3300,5710;0,0817024
3301,5354;0,0817133
3302,4995;0,0817371
3303,4639;0,0817756
3304,4280;0,0818241
3305,3923;0,0818751
3306,3564;0,0819211
3307,3208;0,0819577
3308,2849;0,0819838
3309,2493;0,0820023
3310,2134;0,0820196
3311,1777;0,0820446
3312,1418;0,0820858
3313,1062;0,0821472
3314,0703;0,0822254
3315,0347;0,0823107
3315,9988;0,0823926
3316,9631;0,0824671
3317,9272;0,0825417
3318,8916;0,0826314
3319,8557;0,0827495
3320,8201;0,0828977
3321,7842;0,083061
3322,7485;0,0832142
3323,7126;0,0833335
3324,6770;0,0834094
3325,6411;0,0834512
3326,6055;0,0834816
3327,5696;0,0835238
3328,5339;0,0835912
3329,4980;0,0836822
3330,4624;0,0837843
3331,4265;0,0838819
3332,3909;0,0839623
3333,3550;0,0840182
3334,3193;0,0840474
3335,2834;0,0840511
3336,2478;0,0840336
3337,2119;0,0840007
3338,1763;0,0839575
3339,1404;0,0839055
3340,1047;0,0838408
3341,0688;0,083757
3342,0332;0,0836507
3342,9973;0,0835267
3343,9617;0,0833979
3344,9258;0,0832793
3345,8901;0,0831788
3346,8542;0,0830922
3347,8186;0,0830051
3348,7827;0,0829004
3349,7471;0,0827681
3350,7112;0,0826098
3351,6755;0,082436
3352,6396;0,08226
3353,6040;0,0820916
3354,5681;0,081934
3355,5325;0,0817861
3356,4966;0,0816449
3357,4609;0,0815093
3358,4250;0,0813793
3359,3894;0,0812556
3360,3535;0,0811378
3361,3179;0,0810233
3362,2820;0,0809082
3363,2463;0,0807884
3364,2104;0,0806604
3365,1748;0,0805217
3366,1389;0,0803712
3367,1033;0,0802084
3368,0674;0,0800342
3369,0317;0,079851
3369,9958;0,0796628
3370,9602;0,0794747
3371,9243;0,0792912
3372,8887;0,0791142
3373,8528;0,0789428
3374,8171;0,0787748
3375,7813;0,0786097
3376,7456;0,0784501
3377,7097;0,0783016
3378,6741;0,078169
3379,6382;0,0780516
3380,6025;0,0779414
3381,5667;0,0778249
3382,5310;0,0776896
3383,4951;0,0775312
3384,4595;0,0773575
3385,4236;0,077185
3386,3879;0,0770303
3387,3521;0,0768999
3388,3164;0,076786
3389,2805;0,0766707
3390,2449;0,0765369
3391,2090;0,0763787
3392,1733;0,0762046
3393,1375;0,076032
3394,1018;0,075875
3395,0659;0,0757338
3396,0303;0,0755945
3396,9944;0,0754376
3397,9587;0,0752494
3398,9229;0,0750305
3399,8872;0,0747948
3400,8513;0,0745622
3401,8157;0,0743494
3402,7798;0,0741639
3403,7441;0,0740038
3404,7083;0,0738612
3405,6726;0,0737267
3406,6367;0,073592
3407,6011;0,0734498
3408,5652;0,0732929
3409,5295;0,0731143
3410,4937;0,0729098
3411,4580;0,0726824
3412,4221;0,0724441
3413,3865;0,0722127
3414,3506;0,0720033
3415,3149;0,0718193
3416,2791;0,0716489
3417,2434;0,0714702
3418,2075;0,0712626
3419,1719;0,0710182
3420,1360;0,0707465
3421,1003;0,0704686
3422,0645;0,070204
3423,0288;0,0699603
3423,9929;0,0697319
3424,9573;0,0695063
3425,9214;0,0692732
3426,8857;0,0690294
3427,8499;0,0687792
3428,8142;0,0685308
3429,7783;0,0682917
3430,7427;0,0680657
3431,7068;0,0678513
3432,6711;0,0676432
3433,6353;0,067434
3434,5996;0,0672175
3435,5637;0,0669904
3436,5281;0,0667531
3437,4922;0,0665094
3438,4565;0,0662655
3439,4207;0,0660283
3440,3850;0,0658033
3441,3491;0,0655907
3442,3135;0,0653824
3443,2776;0,0651628
3444,2419;0,0649157
3445,2061;0,0646334
3446,1704;0,0643247
3447,1345;0,0640122
3448,0989;0,06372
3449,0630;0,0634586
3450,0273;0,0632188
3450,9915;0,0629797
3451,9558;0,0627229
3452,9199;0,0624435
3453,8843;0,0621522
3454,8484;0,0618678
3455,8127;0,0616068
3456,7769;0,0613753
3457,7412;0,0611683
3458,7053;0,0609739
3459,6697;0,0607782
3460,6338;0,0605689
3461,5981;0,0603374
3462,5623;0,0600796
3463,5266;0,0597973
3464,4907;0,0594972
3465,4551;0,0591908
3466,4192;0,058892
3467,3835;0,0586139
3468,3477;0,0583629
3469,3120;0,0581347
3470,2761;0,0579134
3471,2405;0,0576777
3472,2046;0,057413
3473,1689;0,0571223
3474,1331;0,0568285
3475,0974;0,0565623
3476,0615;0,0563425
3477,0259;0,0561619
3477,9900;0,0559887
3478,9543;0,0557842
3479,9185;0,0555246
3480,8828;0,0552156
3481,8469;0,0548887
3482,8113;0,0545798
3483,7754;0,0543082
3484,7397;0,0540695
3485,7039;0,0538458
3486,6682;0,0536214
3487,6323;0,0533929
3488,5967;0,0531686
3489,5608;0,0529578
3490,5251;0,0527609
3491,4893;0,0525667
3492,4536;0,0523586
3493,4177;0,052126
3494,3821;0,0518744
3495,3462;0,0516261
3496,3105;0,0514099
3497,2747;0,0512418
3498,2390;0,0511113
3499,2031;0,0509827
3500,1675;0,0508108
3501,1316;0,0505658
3502,0959;0,0502538
3503,0601;0,049918
3504,0244;0,0496114
3504,9885;0,0493599
3505,9529;0,049148
3506,9170;0,0489339
3507,8813;0,0486804
3508,8455;0,0483796
3509,8098;0,0480571
3510,7739;0,0477542
3511,7383;0,0474987
3512,7024;0,0472896
3513,6667;0,0471052
3514,6309;0,0469237
3515,5952;0,0467388
3516,5593;0,0465607
3517,5237;0,0464037
3518,4878;0,0462719
3519,4521;0,0461522
3520,4163;0,0460206
3521,3806;0,0458549
3522,3447;0,0456464
3523,3091;0,0454021
3524,2732;0,0451357
3525,2375;0,044856
3526,2017;0,0445622
3527,1660;0,0442506
3528,1301;0,0439267
3529,0945;0,0436104
3530,0586;0,0433278
3531,0229;0,043095
3531,9871;0,0429085
3532,9514;0,042746
3533,9155;0,0425766
3534,8799;0,0423754
3535,8440;0,0421375
3536,8083;0,0418841
3537,7725;0,0416547
3538,7368;0,0414865
3539,7009;0,0413935
3540,6653;0,0413571
3541,6294;0,041329
3542,5938;0,041246
3543,5579;0,0410546
3544,5222;0,0407438
3545,4863;0,0403625
3546,4507;0,0399937
3547,4148;0,039698
3548,3792;0,039476
3549,3433;0,03928
3550,3076;0,0390527
3551,2717;0,0387671
3552,2361;0,0384455
3553,2002;0,0381462
3554,1646;0,0379216
3555,1287;0,0377821
3556,0930;0,0376946
3557,0571;0,0376113
3558,0215;0,037504
3558,9856;0,0373839
3559,9500;0,0372928
3560,9141;0,0372691
3561,8784;0,0373097
3562,8425;0,0373542
3563,8069;0,037295
3564,7710;0,0370129
3565,7354;0,0364521
3566,6995;0,0357104
3567,6638;0,0350204
3568,6279;0,0345707
3569,5923;0,0343764
3570,5564;0,034328
3571,5208;0,0343021
3572,4849;0,0342241
3573,4492;0,0340801
3574,4133;0,0338975
3575,3777;0,0337121
3576,3418;0,0335396
3577,3062;0,0333743
3578,2703;0,0332113
3579,2346;0,0330694
3580,1987;0,0329882
3581,1631;0,0329977
3582,1272;0,0330856
3583,0916;0,0331879
3584,0557;0,0332039
3585,0200;0,033033
3585,9841;0,0326377
3586,9485;0,0321136
3587,9126;0,0316664
3588,8770;0,0314541
3589,8411;0,0314687
3590,8054;0,0315818
3591,7695;0,0316509
3592,7339;0,0315896
3593,6980;0,0313944
3594,6624;0,0311347
3595,6265;0,0308967
3596,5908;0,0307139
3597,5549;0,0305487
3598,5193;0,0303398
3599,4834;0,0300682
3600,4478;0,0297853
3601,4119;0,0295767
3602,3762;0,0294902
3603,3403;0,0294972
3604,3047;0,02951
3605,2688;0,0294302
3606,2332;0,0291963
3607,1973;0,0288202
3608,1616;0,0283858
3609,1257;0,0279973
3610,0901;0,0277158
3611,0542;0,0275437
3612,0186;0,0274558
3612,9827;0,0274281
3613,9470;0,0274378
3614,9111;0,027446
3615,8755;0,0273886
3616,8396;0,0271951
3617,8040;0,0268378
3618,7681;0,02639
3619,7324;0,0260269
3620,6965;0,0259188
3621,6609;0,0261098
3622,6250;0,0265085
3623,5894;0,0269608
3624,5535;0,0273067
3625,5178;0,0273937
3626,4819;0,0270861
3627,4463;0,0263418
3628,4104;0,0253573
3629,3748;0,0245325
3630,3389;0,0241264
3631,3032;0,0240686
3632,2673;0,0241335
3633,2317;0,0241424
3634,1958;0,024029
3635,1602;0,0238207
3636,1243;0,0235836
3637,0886;0,0233677
3638,0527;0,0231829
3639,0171;0,0230183
3639,9812;0,0228784
3640,9456;0,0227982
3641,9097;0,0228232
3642,8740;0,0229716
3643,8381;0,0232098
3644,8025;0,0234481
3645,7666;0,0235397
3646,7310;0,0232834
3647,6951;0,0225131
3648,6594;0,0213658
3649,6235;0,0203664
3650,5879;0,0199209
3651,5520;0,0199663
3652,5164;0,0202102
3653,4805;0,0204016
3654,4448;0,0204121
3655,4089;0,02024
3656,3733;0,0199875
3657,3374;0,0197871
3658,3018;0,019703
3659,2659;0,0197029
3660,2302;0,0197203
3661,1943;0,0197262
3662,1587;0,019752
3663,1228;0,0198525
3664,0872;0,0200464
3665,0513;0,0202867
3666,0156;0,0204786
3666,9797;0,020528
3667,9441;0,0203994
3668,9082;0,020167
3669,8726;0,0199918
3670,8367;0,0199808
3671,8010;0,0200775
3672,7651;0,0201083
3673,7295;0,0199042
3674,6936;0,0194241
3675,6580;0,0188393
3676,6221;0,0184345
3677,5864;0,0183507
3678,5505;0,0185082
3679,5149;0,0187577
3680,4790;0,0190092
3681,4434;0,0192505
3682,4075;0,0195047
3683,3718;0,0197778
3684,3359;0,0200347
3685,3003;0,0202076
3686,2644;0,0202237
3687,2288;0,0200396
3688,1929;0,0196887
3689,1572;0,0193158
3690,1213;0,0191044
3691,0857;0,0191279
3692,0498;0,0193209
3693,0142;0,0195777
3693,9783;0,0198277
3694,9426;0,0200448
3695,9067;0,0202243
3696,8711;0,020359
3697,8352;0,0204297
3698,7996;0,020413
3699,7637;0,0203025
3700,7280;0,0201328
3701,6921;0,0199842
3702,6565;0,0199472
3703,6206;0,0200668
3704,5850;0,0203188
3705,5491;0,0206304
3706,5134;0,0209096
3707,4775;0,0210545
3708,4419;0,0209539
3709,4060;0,0205201
3710,3704;0,0197933
3711,3345;0,0190203
3712,2988;0,0185118
3713,2629;0,0184
3714,2273;0,0186078
3715,1914;0,0189826
3716,1558;0,0193998
3717,1199;0,0197923
3718,0842;0,0201416
3719,0483;0,0204564
3720,0127;0,0207464
3720,9768;0,0210023
3721,9412;0,021193
3722,9053;0,0212872
3723,8696;0,0212846
3724,8337;0,0212331
3725,7981;0,021208
3726,7622;0,0212653
3727,7266;0,0214101
3728,6907;0,0216061
3729,6550;0,0218027
3730,6191;0,0219507
3731,5835;0,0219942
3732,5476;0,0218528
3733,5120;0,0214426
3734,4761;0,0207815
3735,4404;0,0200849
3736,4045;0,0196454
3737,3689;0,0195927
3738,3330;0,0198381
3739,2974;0,0201874
3740,2615;0,020446
3741,2258;0,0204641
3742,1899;0,0201705
3743,1543;0,0196368
3744,1184;0,0191167
3745,0828;0,0188989
3746,0469;0,0190448
3747,0112;0,0193519
3747,9753;0,0195283
3748,9397;0,0193439
3749,9038;0,0187576
3750,8682;0,018029
3751,8323;0,0175733
3752,7966;0,0175783
3753,7607;0,0179076
3754,7251;0,0183149
3755,6892;0,0186104
3756,6536;0,0187038
3757,6177;0,0186062
3758,5820;0,0184195
3759,5461;0,0182805
3760,5105;0,0182738
3761,4746;0,0183929
3762,4390;0,0185735
3763,4031;0,0187454
3764,3674;0,0188593
3765,3315;0,0188904
3766,2959;0,0188317
3767,2600;0,0186877
3768,2244;0,0184776
3769,1885;0,0182453
3770,1528;0,0180609
3771,1169;0,0179948
3772,0813;0,0180761
3773,0454;0,018274
3774,0098;0,0185155
3774,9739;0,0187179
3775,9382;0,0188159
3776,9023;0,0187834
3777,8667;0,0186493
3778,8308;0,0184925
3779,7952;0,0183982
3780,7593;0,018401
3781,7236;0,0184722
3782,6877;0,0185521
3783,6521;0,0185898
3784,6162;0,0185663
3785,5806;0,0184973
3786,5447;0,0184216
3787,5090;0,0183811
3788,4731;0,0184017
3789,4375;0,0184846
3790,4016;0,0186076
3791,3660;0,0187358
3792,3301;0,01884
3793,2944;0,0189131
3794,2585;0,0189769
3795,2229;0,0190662
3796,1870;0,0191959
3797,1514;0,019333
3798,1155;0,0194013
3799,0798;0,0193233
3800,0439;0,0190845
3801,0083;0,0187758
3801,9724;0,0185408
3802,9368;0,0184466
3803,9009;0,0184276
3804,8652;0,0183602
3805,8293;0,0181797
3806,7937;0,0179523
3807,7578;0,0178426
3808,7222;0,0179767
3809,6863;0,0183344
3810,6506;0,0187789
3811,6147;0,0191572
3812,5791;0,0193705
3813,5432;0,0194038
3814,5076;0,0193294
3815,4717;0,0192635
3816,4360;0,019273
3817,4001;0,019308
3818,3645;0,019241
3819,3286;0,0189788
3820,2930;0,0185664
3821,2571;0,0181898
3822,2214;0,0180319
3823,1855;0,0181255
3824,1499;0,018366
3825,1140;0,0186217
3826,0784;0,0188101
3827,0425;0,0189146
3828,0068;0,0189634
3828,9709;0,0189979
3829,9353;0,0190471
3830,8994;0,0191209
3831,8638;0,0192163
3832,8279;0,0193231
3833,7922;0,0194228
3834,7563;0,0194855
3835,7207;0,0194737
3836,6848;0,0193599
3837,6492;0,0191531
3838,6133;0,0189084
3839,5776;0,0186923
3840,5417;0,0185352
3841,5061;0,0184272
3842,4702;0,0183586
3843,4346;0,0183529
3844,3987;0,0184611
3845,3630;0,0187229
3846,3271;0,0191291
3847,2915;0,0196142
3848,2556;0,0200734
3849,2200;0,0203809
3850,1841;0,0203919
3851,1484;0,0199544
3852,1125;0,0190243
3853,0769;0,0179102
3854,0410;0,0171991
3855,0054;0,017169
3855,9695;0,017619
3856,9338;0,0182311
3857,8979;0,0187943
3858,8623;0,0192132
3859,8264;0,0194605
3860,7908;0,0195448
3861,7549;0,0195026
3862,7192;0,0194
3863,6833;0,0193181
3864,6477;0,0193098
3865,6118;0,0193688
3866,5762;0,0194425
3867,5403;0,0194688
3868,5046;0,0194054
3869,4688;0,0192451
3870,4331;0,0190218
3871,3972;0,0188017
3872,3616;0,0186562
3873,3257;0,0186291
3874,2900;0,0187212
3875,2542;0,0188963
3876,2185;0,0190985
3877,1826;0,0192737
3878,1470;0,0193864
3879,1111;0,0194299
3880,0754;0,019421
3881,0396;0,0193762
3882,0039;0,0192899
3882,9680;0,0191452
3883,9324;0,0189545
3884,8965;0,0187853
3885,8608;0,0187269
3886,8250;0,0188155
3887,7893;0,0189935
3888,7534;0,0191435
3889,7178;0,0191632
3890,6819;0,0190385
3891,6462;0,0188729
3892,6104;0,0188211
3893,5747;0,0189635
3894,5388;0,0192536
3895,5032;0,0195773
3896,4673;0,0198312
3897,4316;0,0199602
3898,3958;0,0199601
3899,3601;0,0198594
3900,3242;0,0196879
3901,2886;0,0194553
3902,2527;0,0191641
3903,2170;0,018848
3904,1812;0,0185808
3905,1455;0,0184323
3906,1096;0,0184194
3907,0740;0,0185051
3908,0381;0,0186366
3909,0024;0,0187784
3909,9666;0,0189221
3910,9309;0,0190745
3911,8950;0,0192373
3912,8594;0,0193923
3913,8235;0,0195021
3914,7878;0,0195285
3915,7520;0,0194591
3916,7163;0,0193288
3917,6804;0,0192109
3918,6448;0,0191711
3919,6089;0,0192209
3920,5732;0,0193129
3921,5374;0,0193779
3922,5017;0,0193701
3923,4658;0,0192969
3924,4302;0,0192163
3925,3943;0,019196
3926,3586;0,0192631
3927,3228;0,0193854
3928,2871;0,019493
3929,2512;0,019518
3930,2156;0,0194299
3931,1797;0,0192548
3932,1440;0,0190655
3933,1082;0,0189379
3934,0725;0,0189098
3935,0366;0,0189728
3936,0010;0,0190931
3936,9651;0,0192322
3937,9294;0,0193562
3938,8936;0,0194378
3939,8579;0,0194602
3940,8220;0,0194251
3941,7864;0,0193596
3942,7505;0,0193069
3943,7148;0,0193023
3944,6790;0,0193485
3945,6433;0,0194139
3946,6074;0,019452
3947,5718;0,019429
3948,5359;0,0193442
3949,5002;0,0192311
3950,4644;0,0191352
3951,4287;0,0190861
3952,3928;0,0190846
3953,3572;0,0191128
3954,3213;0,0191516
3955,2856;0,0191916
3956,2498;0,0192316
3957,2141;0,0192716
3958,1782;0,0193053
3959,1426;0,0193212
3960,1067;0,0193091
3961,0710;0,0192693
3962,0352;0,019215
3962,9995;0,0191674
3963,9636;0,0191446
3964,9280;0,0191543
3965,8921;0,0191919
3966,8564;0,0192456
3967,8206;0,0193017
3968,7849;0,0193493
3969,7490;0,019382
3970,7134;0,0193966
3971,6775;0,0193922
3972,6418;0,0193703
3973,6060;0,0193359
3974,5703;0,0192978
3975,5344;0,0192666
3976,4988;0,0192505
3977,4629;0,0192509
3978,4272;0,0192621
3979,3914;0,0192739
3980,3557;0,0192769
3981,3198;0,019267
3982,2842;0,0192477
3983,2483;0,0192284
3984,2126;0,0192198
3985,1768;0,0192289
3986,1411;0,0192558
3987,1052;0,0192934
3988,0696;0,0193308
3989,0337;0,0193577
3989,9980;0,019368
3990,9622;0,0193613
3991,9265;0,0193417
3992,8906;0,0193153
3993,8550;0,0192881
3994,8191;0,0192654
3995,7834;0,0192516
3996,7476;0,0192499
3997,7119;0,0192615
3998,6760;0,0192851
3999,6404;0,0193169
4000,6045;0,0194405

##### Extended Information
[Comments]
Sample name
Comment
Username
Division
Organization;UNIVERSIDAD INDUSTRIAL DE SANTANDER

[Detailed Information]
Creation date;19/02/2025 3:31 p.m.

Data array type;Linear data array
Horizontal axis;Wavenumber [cm-1]
Vertical axis;Abs
Start;399,193 cm-1
End;4000,6 cm-1
Data interval;0,964233 cm-1
Data points;3736    

[Measurement Information]
Model name;FT/IR-4X1typeA
Serial No.;A035162111

Accessory;ATR PRO 4X
Accessory S/N;A021162126
Incident angle;45 deg

Measurement date;19/02/2025 3:30 p.m.

Light source;Standard
Detector;TGS
Accumulation;20
Resolution;4 cm-1
Zero filling;On
Apodization;Cosine
Gain;Auto (8)
Aperture;Auto (7 mm)
Scan speed;Auto (2 mm/sec)
Filter;Auto (12800 Hz)

