TITLE;
DATA TYPE;INFRARED SPECTRUM
ORIGIN;JASCO
OWNER;
DATE;25/02/19
TIME;15:24:17
SPECTROMETER/DATA SYSTEM;
LOCALE;9226
RESOLUTION;
DELTAX;0,964233
XUNITS;1/CM
YUNITS;ABSORBANCE
FIRSTX;  399,1927
LASTX; 4000,6047
NPOINTS;    3736
FIRSTY;     0,11184
MAXY;     0,15750
MINY;     0,01018
XYDATA
399,1927;0,111836
400,1569;0,110497
401,1211;0,110328
402,0854;0,110804
403,0496;0,111462
404,0138;0,112054
404,9781;0,112502
405,9423;0,112791
406,9065;0,112873
407,8708;0,112651
408,8350;0,112064
409,7992;0,111197
410,7635;0,110333
411,7277;0,109841
412,6919;0,109955
413,6562;0,11063
414,6204;0,111591
415,5846;0,112481
416,5489;0,112982
417,5131;0,112942
418,4773;0,112538
419,4416;0,112267
420,4058;0,112503
421,3700;0,113178
422,3343;0,114015
423,2985;0,114821
424,2627;0,115564
425,2270;0,116304
426,1912;0,117099
427,1554;0,117911
428,1197;0,118594
429,0839;0,118965
430,0481;0,118916
431,0124;0,118501
431,9766;0,117942
432,9408;0,117523
433,9051;0,117459
434,8693;0,117792
435,8335;0,118402
436,7978;0,119085
437,7620;0,11966
438,7262;0,120007
439,6905;0,120058
440,6547;0,119782
441,6189;0,119206
442,5832;0,118453
443,5474;0,117728
444,5116;0,117219
445,4759;0,116981
446,4401;0,116927
447,4043;0,116913
448,3686;0,116852
449,3328;0,116762
450,2970;0,116731
451,2613;0,116837
452,2255;0,11708
453,1897;0,117371
454,1540;0,117589
455,1182;0,117658
456,0824;0,117598
457,0467;0,117534
458,0109;0,117643
458,9751;0,11803
459,9394;0,118645
460,9036;0,119312
461,8678;0,119817
462,8321;0,119988
463,7963;0,119731
464,7605;0,119066
465,7248;0,118146
466,6890;0,117209
467,6532;0,116491
468,6175;0,116136
469,5817;0,116167
470,5459;0,116483
471,5102;0,116899
472,4744;0,117206
473,4386;0,11728
474,4029;0,117135
475,3671;0,116893
476,3313;0,116689
477,2956;0,116597
478,2598;0,116619
479,2240;0,116702
480,1883;0,116786
481,1525;0,116842
482,1167;0,116887
483,0810;0,11697
484,0452;0,117133
485,0094;0,117381
485,9737;0,117665
486,9379;0,1179
487,9021;0,117999
488,8664;0,117909
489,8306;0,117638
490,7948;0,117273
491,7591;0,116955
492,7233;0,116813
493,6875;0,116892
494,6518;0,117138
495,6160;0,117451
496,5802;0,117762
497,5445;0,118059
498,5087;0,118368
499,4729;0,118683
500,4372;0,118924
501,4014;0,118968
502,3656;0,11873
503,3299;0,118256
504,2941;0,117709
505,2583;0,117284
506,2226;0,117108
507,1868;0,117199
508,1510;0,117501
509,1153;0,117938
510,0795;0,118462
511,0437;0,119047
512,0080;0,119663
512,9722;0,120251
513,9365;0,120737
514,9007;0,121056
515,8649;0,121178
516,8292;0,121126
517,7934;0,120956
518,7576;0,120745
519,7219;0,120571
520,6861;0,120499
521,6503;0,120567
522,6146;0,120775
523,5788;0,121071
524,5430;0,121352
525,5073;0,121505
526,4715;0,121472
527,4357;0,121294
528,4000;0,121077
529,3642;0,120915
530,3284;0,120832
531,2927;0,120785
532,2569;0,120702
533,2211;0,120533
534,1854;0,120283
535,1496;0,119998
536,1138;0,119741
537,0781;0,119559
538,0423;0,119478
539,0065;0,119506
539,9708;0,119638
540,9350;0,119842
541,8992;0,120057
542,8635;0,120202
543,8277;0,120207
544,7919;0,12005
545,7562;0,119784
546,7204;0,119519
547,6846;0,11937
548,6489;0,119397
549,6131;0,119575
550,5773;0,11982
551,5416;0,120037
552,5058;0,120175
553,4700;0,120249
554,4343;0,120321
555,3985;0,120447
556,3627;0,120638
557,3270;0,120835
558,2912;0,120935
559,2554;0,120836
560,2197;0,120487
561,1839;0,119904
562,1481;0,119167
563,1124;0,11838
564,0766;0,117634
565,0408;0,116982
566,0051;0,116438
566,9693;0,115987
567,9335;0,115607
568,8978;0,115281
569,8620;0,115
570,8262;0,114762
571,7905;0,114561
572,7547;0,114392
573,7189;0,114247
574,6832;0,114118
575,6474;0,114001
576,6116;0,113892
577,5759;0,113791
578,5401;0,113698
579,5043;0,113624
580,4686;0,113577
581,4328;0,113558
582,3970;0,113549
583,3613;0,113512
584,3255;0,113414
585,2897;0,113245
586,2540;0,11304
587,2182;0,112871
588,1824;0,112808
589,1467;0,112882
590,1109;0,113061
591,0751;0,113263
592,0394;0,113395
593,0036;0,113408
593,9678;0,113317
594,9321;0,113176
595,8963;0,113035
596,8605;0,112907
597,8248;0,112762
598,7890;0,112562
599,7532;0,112287
600,7175;0,111961
601,6817;0,111632
602,6459;0,111345
603,6102;0,111115
604,5744;0,110924
605,5386;0,110738
606,5029;0,110531
607,4671;0,110291
608,4313;0,110025
609,3956;0,109739
610,3598;0,10944
611,3240;0,109136
612,2883;0,108838
613,2525;0,10856
614,2167;0,108306
615,1810;0,108051
616,1452;0,107737
617,1094;0,107298
618,0737;0,106691
619,0379;0,105932
620,0021;0,105082
620,9664;0,10422
621,9306;0,103409
622,8948;0,102683
623,8591;0,102049
624,8233;0,101476
625,7875;0,101007
626,7518;0,100624
627,7160;0,100298
628,6802;0,0999878
629,6445;0,0996622
630,6087;0,0993074
631,5729;0,098937
632,5372;0,0985814
633,5014;0,0982695
634,4656;0,0980116
635,4299;0,0977948
636,3941;0,0975937
637,3583;0,0973884
638,3226;0,0971764
639,2868;0,0969692
640,2510;0,0967794
641,2153;0,0966071
642,1795;0,0964392
643,1437;0,0962611
644,1080;0,0960725
645,0722;0,0958941
646,0364;0,0957582
647,0007;0,0956875
647,9649;0,095676
648,9291;0,0956854
649,8934;0,0956652
650,8576;0,0955842
651,8218;0,0954516
652,7861;0,0953125
653,7503;0,0952213
654,7145;0,0952098
655,6788;0,0952685
656,6430;0,0953558
657,6072;0,0954284
658,5715;0,095466
659,5357;0,0954674
660,4999;0,0954216
661,4642;0,0952791
662,4284;0,0949493
663,3926;0,0943354
664,3569;0,093406
665,3211;0,0922973
666,2853;0,0913709
667,2496;0,0910422
668,2138;0,0912829
669,1780;0,091546
670,1423;0,091546
671,1065;0,091352
672,0707;0,090964
673,0350;0,0903339
673,9992;0,0894998
674,9634;0,0885747
675,9277;0,0876627
676,8919;0,0867981
677,8561;0,0859558
678,8204;0,0851062
679,7846;0,0842582
680,7488;0,0834537
681,7131;0,0827391
682,6773;0,0821297
683,6415;0,0816082
684,6058;0,0811415
685,5700;0,0807023
686,5342;0,0802764
687,4985;0,0798599
688,4627;0,07946
689,4269;0,0790815
690,3912;0,0787373
691,3554;0,0784416
692,3196;0,0781978
693,2839;0,0779877
694,2481;0,0777743
695,2123;0,0775179
696,1766;0,0771988
697,1408;0,0768332
698,1050;0,0764689
699,0693;0,0761618
700,0335;0,0759453
700,9977;0,0758091
701,9620;0,0757019
702,9262;0,0755556
703,8904;0,0753073
704,8547;0,0749453
705,8189;0,0744965
706,7831;0,0740091
707,7474;0,073529
708,7116;0,0730862
709,6758;0,0726937
710,6401;0,0723525
711,6043;0,072053
712,5685;0,0717746
713,5328;0,0714891
714,4970;0,071172
715,4612;0,0702432
716,4255;0,0699801
717,3897;0,069754
718,3539;0,0695386
719,3182;0,0692705
720,2824;0,0688807
721,2466;0,0683414
722,2109;0,067689
723,1751;0,0670043
724,1393;0,0663673
725,1036;0,0658207
726,0678;0,0653613
727,0320;0,0649545
727,9963;0,0645596
728,9605;0,0641514
729,9247;0,063729
730,8890;0,0633111
731,8532;0,0629246
732,8174;0,0625921
733,7817;0,0623221
734,7459;0,062104
735,7101;0,061911
736,6744;0,0617104
737,6386;0,0614774
738,6028;0,0612046
739,5671;0,0609019
740,5313;0,0605874
741,4955;0,0602759
742,4598;0,0599738
743,4240;0,0596822
744,3882;0,0594034
745,3525;0,0591427
746,3167;0,0589025
747,2809;0,0586735
748,2452;0,0584313
749,2094;0,0581453
750,1736;0,0577965
751,1379;0,0573928
752,1021;0,0569692
753,0663;0,0565729
754,0306;0,0562386
754,9948;0,0559715
755,9590;0,0557476
756,9233;0,0555321
757,8875;0,0553018
758,8517;0,0550586
759,8160;0,0548233
760,7802;0,0546174
761,7444;0,0544438
762,7087;0,0542807
763,6729;0,0540936
764,6371;0,053856
765,6014;0,0535675
766,5656;0,0532565
767,5298;0,0529664
768,4941;0,0527322
769,4583;0,0525625
770,4225;0,0524362
771,3868;0,0523162
772,3510;0,0521723
773,3152;0,0519976
774,2795;0,0518102
775,2437;0,0516368
776,2079;0,0514924
777,1722;0,0513663
778,1364;0,0512278
779,1006;0,0510445
780,0649;0,050804
781,0291;0,0505223
781,9933;0,0502352
782,9576;0,0499777
783,9218;0,0497663
784,8860;0,0495946
785,8503;0,0494424
786,8145;0,049292
787,7787;0,0491384
788,7430;0,0489879
789,7072;0,0488485
790,6714;0,0487195
791,6357;0,0485895
792,5999;0,0484441
793,5641;0,0482783
794,5284;0,0481043
795,4926;0,047948
796,4568;0,0478367
797,4211;0,0477838
798,3853;0,047781
799,3495;0,0478029
800,3138;0,0478197
801,2780;0,0478098
802,2422;0,0477651
803,2065;0,0476884
804,1707;0,0475867
805,1349;0,0474689
806,0992;0,0473468
807,0634;0,047236
808,0276;0,0471511
808,9919;0,0470973
809,9561;0,0470644
810,9203;0,0470299
811,8846;0,0469729
812,8488;0,0468879
813,8130;0,0467888
814,7773;0,0466989
815,7415;0,0466354
816,7057;0,0465987
817,6700;0,046576
818,6342;0,0465518
819,5984;0,0465174
820,5627;0,0464711
821,5269;0,0464109
822,4911;0,0463304
823,4554;0,0462229
824,4196;0,046091
825,3839;0,0459522
826,3481;0,0458334
827,3123;0,0457566
828,2766;0,0457262
829,2408;0,0457261
830,2050;0,0457296
831,1693;0,0457132
832,1335;0,045666
833,0977;0,0455894
834,0620;0,0454908
835,0262;0,0453769
835,9904;0,0452498
836,9547;0,0451082
837,9189;0,0449507
838,8831;0,0447792
839,8474;0,0446014
840,8116;0,0444307
841,7758;0,0442837
842,7401;0,0441741
843,7043;0,044107
844,6685;0,0440766
845,6328;0,0440696
846,5970;0,0440719
847,5612;0,0440752
848,5255;0,0440771
849,4897;0,0440777
850,4539;0,044074
851,4182;0,0440591
852,3824;0,0440253
853,3466;0,0439701
854,3109;0,0438987
855,2751;0,0438223
856,2393;0,0437525
857,2036;0,0436957
858,1678;0,0436518
859,1320;0,0436167
860,0963;0,0435865
861,0605;0,0435616
862,0247;0,0435467
862,9890;0,0435494
863,9532;0,0435768
864,9174;0,0436328
865,8817;0,0437178
866,8459;0,0438276
867,8101;0,0439551
868,7744;0,0440907
869,7386;0,0442243
870,7028;0,0443482
871,6671;0,0444595
872,6313;0,0445604
873,5955;0,0446565
874,5598;0,0447525
875,5240;0,0448495
876,4882;0,0449453
877,4525;0,0450396
878,4167;0,0451381
879,3809;0,0452543
880,3452;0,045404
881,3094;0,0455981
882,2736;0,0458383
883,2379;0,0461188
884,2021;0,0464331
885,1663;0,0467801
886,1306;0,0471648
887,0948;0,0475939
888,0590;0,0480699
889,0233;0,0485885
889,9875;0,0491406
890,9517;0,0497147
891,9160;0,050296
892,8802;0,0508631
893,8444;0,0513841
894,8087;0,0518197
895,7729;0,0521323
896,7371;0,0522969
897,7014;0,0523072
898,6656;0,052175
899,6298;0,0519221
900,5941;0,051574
901,5583;0,0511562
902,5225;0,050695
903,4868;0,0502186
904,4510;0,0497556
905,4152;0,0493314
906,3795;0,0489632
907,3437;0,0486576
908,3079;0,0484108
909,2722;0,0482119
910,2364;0,0480484
911,2007;0,0479114
912,1649;0,0477996
913,1292;0,0477191
914,0934;0,0476784
915,0576;0,0476827
916,0219;0,0477293
916,9861;0,0478098
917,9503;0,047916
918,9146;0,0480456
919,8788;0,0482024
920,8430;0,0483898
921,8073;0,048604
922,7715;0,048832
923,7357;0,0490573
924,7000;0,0492682
925,6642;0,0494632
926,6284;0,0496461
927,5927;0,0498191
928,5569;0,0499784
929,5211;0,0501179
930,4854;0,0502392
931,4496;0,050358
932,4138;0,0504995
933,3781;0,0506866
934,3423;0,0509259
935,3065;0,0512056
936,2708;0,0515036
937,2350;0,0518031
938,1992;0,052103
939,1635;0,0524173
940,1277;0,0527659
941,0919;0,0531628
942,0562;0,0536111
943,0204;0,0541051
943,9846;0,0546381
944,9489;0,0552077
945,9131;0,0558157
946,8773;0,0564641
947,8416;0,0571502
948,8058;0,0578662
949,7700;0,058604
950,7343;0,0593615
951,6985;0,0601472
952,6627;0,0609776
953,6270;0,0618698
954,5912;0,0628319
955,5554;0,0638582
956,5197;0,0649304
957,4839;0,0660254
958,4481;0,0671239
959,4124;0,0682144
960,3766;0,0692938
961,3408;0,0703638
962,3051;0,0714287
963,2693;0,0724951
964,2335;0,0735735
965,1978;0,0746774
966,1620;0,0758202
967,1262;0,0770097
968,0905;0,0782465
969,0547;0,0795254
970,0189;0,0808423
970,9832;0,0822022
971,9474;0,0836235
972,9116;0,0851355
973,8759;0,0867708
974,8401;0,0885554
975,8043;0,0905005
976,7686;0,0926009
977,7328;0,0948365
978,6970;0,097176
979,6613;0,0995776
980,6255;0,101989
981,5897;0,104346
982,5540;0,106583
983,5182;0,10864
984,4824;0,11048
985,4467;0,112097
986,4109;0,113512
987,3751;0,114759
988,3394;0,115874
989,3036;0,116876
990,2678;0,117774
991,2321;0,118567
992,1963;0,119262
993,1605;0,119874
994,1248;0,12043
995,0890;0,12096
996,0532;0,121494
997,0175;0,122053
997,9817;0,122645
998,9459;0,123266
999,9102;0,123902
1000,8744;0,124543
1001,8386;0,12519
1002,8029;0,12586
1003,7671;0,12658
1004,7313;0,127386
1005,6956;0,128306
1006,6598;0,129354
1007,6240;0,130531
1008,5883;0,13183
1009,5525;0,133239
1010,5167;0,134745
1011,4810;0,13633
1012,4452;0,137969
1013,4094;0,139629
1014,3737;0,141273
1015,3379;0,142863
1016,3021;0,144365
1017,2664;0,145756
1018,2306;0,147024
1019,1948;0,148174
1020,1591;0,149224
1021,1233;0,150204
1022,0875;0,151146
1023,0518;0,152073
1024,0160;0,152993
1024,9802;0,153891
1025,9445;0,154742
1026,9087;0,155519
1027,8729;0,156198
1028,8372;0,156761
1029,8014;0,157188
1030,7656;0,157447
1031,7299;0,157495
1032,6941;0,157291
1033,6583;0,156806
1034,6226;0,156047
1035,5868;0,155062
1036,5510;0,153935
1037,5153;0,152768
1038,4795;0,151662
1039,4437;0,150695
1040,4080;0,149916
1041,3722;0,149337
1042,3364;0,148942
1043,3007;0,14869
1044,2649;0,148531
1045,2291;0,148411
1046,1934;0,148282
1047,1576;0,148108
1048,1218;0,147865
1049,0861;0,147536
1050,0503;0,147106
1051,0145;0,146559
1051,9788;0,14588
1052,9430;0,145061
1053,9072;0,144106
1054,8715;0,143025
1055,8357;0,141826
1056,7999;0,140504
1057,7642;0,139034
1058,7284;0,137382
1059,6926;0,135527
1060,6569;0,13348
1061,6211;0,131295
1062,5853;0,129058
1063,5496;0,12686
1064,5138;0,124779
1065,4780;0,122853
1066,4423;0,121088
1067,4065;0,119467
1068,3707;0,117967
1069,3350;0,116567
1070,2992;0,115252
1071,2634;0,113999
1072,2277;0,11278
1073,1919;0,111561
1074,1561;0,110311
1075,1204;0,109013
1076,0846;0,107667
1077,0488;0,106293
1078,0131;0,10492
1078,9773;0,103583
1079,9415;0,102316
1080,9058;0,101144
1081,8700;0,100089
1082,8342;0,0991622
1083,7985;0,0983643
1084,7627;0,097685
1085,7269;0,097105
1086,6912;0,0966014
1087,6554;0,0961541
1088,6196;0,0957496
1089,5839;0,0953825
1090,5481;0,0950539
1091,5123;0,0947686
1092,4766;0,0945338
1093,4408;0,0943568
1094,4050;0,0942428
1095,3693;0,0941916
1096,3335;0,0941943
1097,2977;0,0942352
1098,2620;0,0942973
1099,2262;0,0943688
1100,1904;0,0944458
1101,1547;0,0945273
1102,1189;0,0946059
1103,0831;0,0946622
1104,0474;0,0946684
1105,0116;0,0946009
1105,9758;0,0944525
1106,9401;0,0942346
1107,9043;0,0939661
1108,8685;0,0936557
1109,8328;0,0932904
1110,7970;0,0928382
1111,7612;0,0922651
1112,7255;0,0915562
1113,6897;0,0907272
1114,6539;0,089822
1115,6182;0,088897
1116,5824;0,088002
1117,5466;0,0871667
1118,5109;0,0863943
1119,4751;0,085665
1120,4393;0,0849425
1121,4036;0,084184
1122,3678;0,083348
1123,3320;0,0824003
1124,2963;0,0813173
1125,2605;0,0800872
1126,2247;0,0787113
1127,1890;0,0772051
1128,1532;0,0755981
1129,1174;0,0739307
1130,0817;0,0722482
1131,0459;0,070592
1132,0101;0,0689942
1132,9744;0,0674762
1133,9386;0,0660534
1134,9028;0,064741
1135,8671;0,0635587
1136,8313;0,0625294
1137,7955;0,0616744
1138,7598;0,0610067
1139,7240;0,060526
1140,6882;0,0602177
1141,6525;0,0600563
1142,6167;0,0600113
1143,5809;0,0600546
1144,5452;0,060165
1145,5094;0,0603298
1146,4736;0,0605431
1147,4379;0,0608018
1148,4021;0,0611029
1149,3663;0,0614423
1150,3306;0,0618142
1151,2948;0,0622105
1152,2590;0,0626186
1153,2233;0,0630189
1154,1875;0,0633841
1155,1517;0,0636818
1156,1160;0,063878
1157,0802;0,0639401
1158,0444;0,0638364
1159,0087;0,0635351
1159,9729;0,0630027
1160,9371;0,0622086
1161,9014;0,061133
1162,8656;0,0597768
1163,8298;0,0581679
1164,7941;0,0563605
1165,7583;0,0544271
1166,7225;0,0524469
1167,6868;0,0504939
1168,6510;0,0486278
1169,6152;0,046889
1170,5795;0,0452991
1171,5437;0,0438641
1172,5079;0,0425809
1173,4722;0,0414423
1174,4364;0,0404411
1175,4006;0,0395701
1176,3649;0,0388217
1177,3291;0,0381864
1178,2933;0,0376524
1179,2576;0,0372062
1180,2218;0,0368345
1181,1860;0,0365256
1182,1503;0,0362717
1183,1145;0,0360695
1184,0787;0,0359199
1185,0430;0,0358252
1186,0072;0,0357857
1186,9714;0,0357972
1187,9357;0,0358524
1188,8999;0,0359446
1189,8641;0,0360738
1190,8284;0,036248
1191,7926;0,036481
1192,7568;0,0367849
1193,7211;0,0371633
1194,6853;0,0376078
1195,6495;0,0381013
1196,6138;0,0386249
1197,5780;0,0391638
1198,5422;0,0397098
1199,5065;0,040156
1200,4707;0,0407165
1201,4349;0,0412704
1202,3992;0,04181
1203,3634;0,0423295
1204,3276;0,0428287
1205,2919;0,0433124
1206,2561;0,0437885
1207,2203;0,044265
1208,1846;0,0447501
1209,1488;0,045253
1210,1130;0,0457854
1211,0773;0,0463602
1212,0415;0,0469871
1213,0057;0,0476675
1213,9700;0,0483929
1214,9342;0,049147
1215,8984;0,0499124
1216,8627;0,0506744
1217,8269;0,0514239
1218,7911;0,0521571
1219,7554;0,0528719
1220,7196;0,0535666
1221,6838;0,0542385
1222,6481;0,0548842
1223,6123;0,0555
1224,5765;0,0560813
1225,5408;0,0566229
1226,5050;0,0571209
1227,4692;0,0575741
1228,4335;0,0579854
1229,3977;0,0583604
1230,3619;0,0587053
1231,3262;0,0590239
1232,2904;0,0593168
1233,2546;0,0595811
1234,2189;0,0598122
1235,1831;0,0600042
1236,1473;0,0601515
1237,1116;0,0602502
1238,0758;0,0602997
1239,0400;0,0603049
1240,0043;0,0602746
1240,9685;0,0602187
1241,9327;0,0601441
1242,8970;0,060051
1243,8612;0,0599329
1244,8254;0,0597796
1245,7897;0,0595822
1246,7539;0,0593377
1247,7181;0,0590503
1248,6824;0,0587302
1249,6466;0,0583904
1250,6108;0,0580426
1251,5751;0,0576951
1252,5393;0,0573519
1253,5035;0,0570134
1254,4678;0,0566771
1255,4320;0,0563393
1256,3962;0,0559956
1257,3605;0,0556426
1258,3247;0,0552777
1259,2889;0,0548989
1260,2532;0,054503
1261,2174;0,0540843
1262,1816;0,0536359
1263,1459;0,0531526
1264,1101;0,0526342
1265,0743;0,0520864
1266,0386;0,0515177
1267,0028;0,0509345
1267,9670;0,0503375
1268,9313;0,0497234
1269,8955;0,0490902
1270,8597;0,0484421
1271,8240;0,047791
1272,7882;0,0471508
1273,7524;0,0465317
1274,7167;0,045937
1275,6809;0,0453647
1276,6451;0,044812
1277,6094;0,0442778
1278,5736;0,0437618
1279,5378;0,0432624
1280,5021;0,042776
1281,4663;0,0423002
1282,4305;0,0418365
1283,3948;0,0413917
1284,3590;0,0409748
1285,3232;0,0405928
1286,2875;0,040248
1287,2517;0,0399386
1288,2159;0,0396626
1289,1802;0,0394208
1290,1444;0,0392167
1291,1086;0,0390541
1292,0729;0,0389351
1293,0371;0,0388588
1294,0013;0,0388234
1294,9656;0,0388276
1295,9298;0,0388711
1296,8940;0,0389547
1297,8583;0,039079
1298,8225;0,0392453
1299,7867;0,0394555
1300,7510;0,0397109
1301,7152;0,0400123
1302,6794;0,0403563
1303,6437;0,040735
1304,6079;0,0411384
1305,5721;0,0415579
1306,5364;0,041988
1307,5006;0,0424275
1308,4648;0,0428773
1309,4291;0,0433362
1310,3933;0,0437978
1311,3575;0,0442496
1312,3218;0,0446753
1313,2860;0,0450591
1314,2502;0,0453887
1315,2145;0,0456546
1316,1787;0,045847
1317,1429;0,0459546
1318,1072;0,0459698
1319,0714;0,0458967
1320,0356;0,0457559
1320,9999;0,0455803
1321,9641;0,0454021
1322,9283;0,0452422
1323,8926;0,0451073
1324,8568;0,0449934
1325,8210;0,0448926
1326,7853;0,0447977
1327,7495;0,0447043
1328,7137;0,0446095
1329,6780;0,0445091
1330,6422;0,0443976
1331,6064;0,0442698
1332,5707;0,0441237
1333,5349;0,0439622
1334,4991;0,04379
1335,4634;0,0436074
1336,4276;0,0434043
1337,3918;0,0431575
1338,3561;0,0428404
1339,3203;0,0424463
1340,2845;0,0420059
1341,2488;0,0415742
1342,2130;0,0411967
1343,1772;0,0408916
1344,1415;0,0406577
1345,1057;0,0404874
1346,0699;0,0403761
1347,0342;0,0403229
1347,9984;0,0403289
1348,9626;0,040395
1349,9269;0,0405183
1350,8911;0,0406905
1351,8553;0,040899
1352,8196;0,0411323
1353,7838;0,0413849
1354,7480;0,0416594
1355,7123;0,041964
1356,6765;0,042305
1357,6407;0,0426829
1358,6050;0,0430926
1359,5692;0,0435257
1360,5334;0,0439652
1361,4977;0,0443808
1362,4619;0,0447415
1363,4261;0,0450408
1364,3904;0,0453019
1365,3546;0,0455524
1366,3188;0,0458034
1367,2831;0,0460472
1368,2473;0,0462651
1369,2115;0,046437
1370,1758;0,046547
1371,1400;0,0465856
1372,1042;0,0465454
1373,0685;0,0464177
1374,0327;0,0461973
1374,9969;0,0458911
1375,9612;0,0455167
1376,9254;0,0450824
1377,8896;0,0445776
1378,8539;0,0439882
1379,8181;0,0433232
1380,7823;0,0426242
1381,7466;0,0419459
1382,7108;0,041321
1383,6750;0,0407414
1384,6393;0,0401706
1385,6035;0,0395751
1386,5677;0,0389587
1387,5320;0,0383773
1388,4962;0,0379046
1389,4604;0,0375712
1390,4247;0,0373484
1391,3889;0,0371873
1392,3531;0,0370595
1393,3174;0,0369649
1394,2816;0,0369126
1395,2458;0,0368967
1396,2101;0,0368942
1397,1743;0,0368859
1398,1385;0,0368768
1399,1028;0,036894
1400,0670;0,0369645
1401,0313;0,0370958
1401,9955;0,0372729
1402,9597;0,0374727
1403,9240;0,0376793
1404,8882;0,0378936
1405,8524;0,0381309
1406,8167;0,0384078
1407,7809;0,038729
1408,7451;0,0390866
1409,7094;0,0394712
1410,6736;0,0398801
1411,6378;0,0403138
1412,6021;0,0407655
1413,5663;0,0412161
1414,5305;0,0416401
1415,4948;0,0420186
1416,4590;0,0423424
1417,4232;0,0426035
1418,3875;0,0427953
1419,3517;0,0429381
1420,3159;0,0430725
1421,2802;0,0432023
1422,2444;0,0432785
1423,2086;0,0432437
1424,1729;0,0430761
1425,1371;0,0427953
1426,1013;0,0424345
1427,0656;0,0420089
1428,0298;0,0415106
1428,9940;0,0409349
1429,9583;0,0403115
1430,9225;0,0396985
1431,8867;0,0391341
1432,8510;0,038601
1433,8152;0,0380419
1434,7794;0,0374063
1435,7437;0,0367039
1436,7079;0,0360401
1437,6721;0,0355683
1438,6364;0,0353605
1439,6006;0,035359
1440,5648;0,0354581
1441,5291;0,0355891
1442,4933;0,0357395
1443,4575;0,0359279
1444,4218;0,03617
1445,3860;0,0364597
1446,3502;0,0367729
1447,3145;0,0370864
1448,2787;0,0373953
1449,2429;0,0377115
1450,2072;0,0380402
1451,1714;0,0383583
1452,1356;0,0386198
1453,0999;0,0387841
1454,0641;0,0388392
1455,0283;0,0387935
1455,9926;0,0386304
1456,9568;0,0383231
1457,9210;0,0380012
1458,8853;0,037884
1459,8495;0,0379808
1460,8137;0,0381238
1461,7780;0,03815
1462,7422;0,0379639
1463,7064;0,0375349
1464,6707;0,0369079
1465,6349;0,0362104
1466,5991;0,0355713
1467,5634;0,0350135
1468,5276;0,0344573
1469,4918;0,0337973
1470,4561;0,0329504
1471,4203;0,0318675
1472,3845;0,0305689
1473,3488;0,0292116
1474,3130;0,0280354
1475,2772;0,0271672
1476,2415;0,0265641
1477,2057;0,0261226
1478,1699;0,0257648
1479,1342;0,0254518
1480,0984;0,0251718
1481,0626;0,0249304
1482,0269;0,0247458
1482,9911;0,0246381
1483,9553;0,024616
1484,9196;0,0246716
1485,8838;0,0247855
1486,8480;0,0249306
1487,8123;0,0250658
1488,7765;0,0251504
1489,7407;0,0252053
1490,7050;0,0253214
1491,6692;0,0255582
1492,6334;0,0258946
1493,5977;0,0262824
1494,5619;0,0267019
1495,5261;0,0271678
1496,4904;0,0277009
1497,4546;0,0283006
1498,4188;0,0289523
1499,3831;0,0296331
1500,3473;0,0302902
1501,3115;0,0308448
1502,2758;0,0312323
1503,2400;0,0314422
1504,2042;0,0315368
1505,1685;0,0316181
1506,1327;0,0316889
1507,0969;0,0315701
1508,0612;0,0312354
1509,0254;0,0309211
1509,9896;0,0307219
1510,9539;0,0305585
1511,9181;0,0303472
1512,8823;0,0300532
1513,8466;0,0296745
1514,8108;0,0292176
1515,7750;0,0286912
1516,7393;0,0281103
1517,7035;0,0274937
1518,6677;0,0268544
1519,6320;0,0262011
1520,5962;0,0255595
1521,5604;0,0249879
1522,5247;0,0245489
1523,4889;0,0242537
1524,4531;0,0240554
1525,4174;0,023899
1526,3816;0,0237675
1527,3458;0,0236789
1528,3101;0,0236492
1529,2743;0,0236659
1530,2385;0,0236991
1531,2028;0,0237268
1532,1670;0,0237484
1533,1312;0,0237828
1534,0955;0,0238523
1535,0597;0,0239553
1536,0239;0,0240578
1536,9882;0,0241318
1537,9524;0,0242008
1538,9166;0,0243263
1539,8809;0,024492
1540,8451;0,0245413
1541,8093;0,0244378
1542,7736;0,024351
1543,7378;0,0243686
1544,7020;0,0244624
1545,6663;0,0245979
1546,6305;0,02476
1547,5947;0,0249332
1548,5590;0,0250924
1549,5232;0,0252174
1550,4874;0,0253125
1551,4517;0,0254091
1552,4159;0,0255392
1553,3801;0,0257007
1554,3444;0,0258508
1555,3086;0,0259325
1556,2728;0,0258948
1557,2371;0,0256711
1558,2013;0,0252086
1559,1655;0,0247393
1560,1298;0,0247074
1561,0940;0,0251667
1562,0582;0,0258446
1563,0225;0,0265041
1563,9867;0,0270369
1564,9509;0,0274238
1565,9152;0,027691
1566,8794;0,0278871
1567,8436;0,028069
1568,8079;0,0282902
1569,7721;0,0285835
1570,7363;0,0289421
1571,7006;0,0293228
1572,6648;0,0296818
1573,6290;0,0300149
1574,5933;0,0303623
1575,5575;0,0307694
1576,5217;0,0312404
1577,4860;0,0317548
1578,4502;0,0322989
1579,4144;0,032857
1580,3787;0,0334114
1581,3429;0,0339581
1582,3071;0,0345064
1583,2714;0,0350654
1584,2356;0,0356361
1585,1998;0,0362145
1586,1641;0,0367944
1587,1283;0,0373648
1588,0925;0,0379068
1589,0568;0,0383948
1590,0210;0,0388035
1590,9852;0,0391142
1591,9495;0,0393141
1592,9137;0,0393944
1593,8779;0,0393527
1594,8422;0,0392005
1595,8064;0,0389661
1596,7706;0,0386863
1597,7349;0,0383923
1598,6991;0,0381003
1599,6633;0,0378126
1600,6276;0,0375257
1601,5918;0,0372398
1602,5560;0,036964
1603,5203;0,0367118
1604,4845;0,0364901
1605,4487;0,0362902
1606,4130;0,0360905
1607,3772;0,0358723
1608,3414;0,0356401
1609,3057;0,0354279
1610,2699;0,0352765
1611,2341;0,0351965
1612,1984;0,0351566
1613,1626;0,0351071
1614,1268;0,0350106
1615,0911;0,0348604
1616,0553;0,0346943
1617,0195;0,0345975
1617,9838;0,0346441
1618,9480;0,03482
1619,9122;0,0350421
1620,8765;0,0352322
1621,8407;0,0353558
1622,8049;0,0354177
1623,7692;0,035445
1624,7334;0,0354673
1625,6976;0,0354996
1626,6619;0,0355422
1627,6261;0,0355972
1628,5903;0,0356757
1629,5546;0,035783
1630,5188;0,0359019
1631,4830;0,0359992
1632,4473;0,0360519
1633,4115;0,036061
1634,3757;0,0360302
1635,3400;0,0359391
1636,3042;0,0358005
1637,2684;0,0357126
1638,2327;0,0357452
1639,1969;0,0358689
1640,1611;0,0360178
1641,1254;0,0361436
1642,0896;0,036223
1643,0538;0,0362501
1644,0181;0,0362297
1644,9823;0,036165
1645,9465;0,0360554
1646,9108;0,0359292
1647,8750;0,0358416
1648,8392;0,0357882
1649,8035;0,0356877
1650,7677;0,0354447
1651,7319;0,0349757
1652,6962;0,0342376
1653,6604;0,033429
1654,6246;0,0329763
1655,5889;0,0329808
1656,5531;0,0331876
1657,5173;0,0333497
1658,4816;0,0333504
1659,4458;0,0331668
1660,4100;0,0328208
1661,3743;0,0323635
1662,3385;0,0318846
1663,3027;0,0314905
1664,2670;0,031233
1665,2312;0,0310766
1666,1954;0,0309366
1667,1597;0,0307248
1668,1239;0,0303757
1669,0881;0,0298796
1670,0524;0,0293158
1671,0166;0,0288026
1671,9808;0,0283832
1672,9451;0,0280058
1673,9093;0,0276076
1674,8735;0,0271936
1675,8378;0,0268488
1676,8020;0,0266659
1677,7662;0,0266539
1678,7305;0,0267275
1679,6947;0,0267701
1680,6589;0,0266855
1681,6232;0,0264041
1682,5874;0,0258781
1683,5516;0,0251473
1684,5159;0,0244387
1685,4801;0,0240077
1686,4443;0,023871
1687,4086;0,023871
1688,3728;0,0238648
1689,3370;0,0237948
1690,3013;0,0236715
1691,2655;0,0235338
1692,2297;0,0234208
1693,1940;0,0233583
1694,1582;0,0233526
1695,1224;0,0233787
1696,0867;0,0233725
1697,0509;0,0232536
1698,0151;0,0229919
1698,9794;0,0226689
1699,9436;0,0224516
1700,9078;0,0224691
1701,8721;0,0227183
1702,8363;0,0230933
1703,8005;0,023475
1704,7648;0,0237921
1705,7290;0,0240375
1706,6932;0,024255
1707,6575;0,0245048
1708,6217;0,0248258
1709,5859;0,0252216
1710,5502;0,0256732
1711,5144;0,0261575
1712,4786;0,0266545
1713,4429;0,0271439
1714,4071;0,0275938
1715,3713;0,0279467
1716,3356;0,0281395
1717,2998;0,0281993
1718,2640;0,0282852
1719,2283;0,0285331
1720,1925;0,0289401
1721,1567;0,0294247
1722,1210;0,0299107
1723,0852;0,0303583
1724,0494;0,0307623
1725,0137;0,0311431
1725,9779;0,0315304
1726,9421;0,0319426
1727,9064;0,03237
1728,8706;0,0327737
1729,8348;0,033097
1730,7991;0,0332794
1731,7633;0,0332691
1732,7275;0,0330543
1733,6918;0,0327199
1734,6560;0,0324309
1735,6202;0,0322839
1736,5845;0,0322264
1737,5487;0,0321388
1738,5129;0,0319331
1739,4772;0,0315901
1740,4414;0,0311533
1741,4056;0,0306909
1742,3699;0,0302466
1743,3341;0,0298175
1744,2983;0,0293729
1745,2626;0,0288819
1746,2268;0,0283155
1747,1910;0,0276266
1748,1553;0,0267469
1749,1195;0,0256463
1750,0837;0,024422
1751,0480;0,0232771
1752,0122;0,022365
1752,9764;0,0216924
1753,9407;0,0211652
1754,9049;0,0206804
1755,8691;0,0201824
1756,8334;0,0196706
1757,7976;0,0191693
1758,7618;0,0186867
1759,7261;0,0182002
1760,6903;0,0176843
1761,6545;0,017153
1762,6188;0,0166676
1763,5830;0,0162938
1764,5472;0,016053
1765,5115;0,0159163
1766,4757;0,0158334
1767,4399;0,0157603
1768,4042;0,0156673
1769,3684;0,0155305
1770,3326;0,0153247
1771,2969;0,0150364
1772,2611;0,0146998
1773,2253;0,0144021
1774,1896;0,0142205
1775,1538;0,0141622
1776,1180;0,0141758
1777,0823;0,014199
1778,0465;0,0141925
1779,0107;0,0141466
1779,9750;0,0140732
1780,9392;0,0139891
1781,9034;0,0139023
1782,8677;0,0138129
1783,8319;0,0137256
1784,7961;0,0136603
1785,7604;0,0136437
1786,7246;0,0136899
1787,6888;0,0137875
1788,6531;0,0139052
1789,6173;0,0140027
1790,5815;0,0140391
1791,5458;0,0139882
1792,5100;0,0138692
1793,4742;0,0137508
1794,4385;0,0136921
1795,4027;0,0136966
1796,3669;0,0137301
1797,3312;0,0137589
1798,2954;0,0137655
1799,2596;0,0137449
1800,2239;0,0136968
1801,1881;0,0136268
1802,1523;0,0135493
1803,1166;0,0134845
1804,0808;0,0134493
1805,0450;0,0134508
1806,0093;0,013483
1806,9735;0,0135274
1807,9377;0,0135572
1808,9020;0,0135478
1809,8662;0,0134908
1810,8304;0,0134036
1811,7947;0,0133199
1812,7589;0,0132674
1813,7231;0,0132518
1814,6874;0,0132595
1815,6516;0,0132718
1816,6158;0,0132769
1817,5801;0,0132748
1818,5443;0,0132747
1819,5085;0,0132848
1820,4728;0,0133062
1821,4370;0,0133338
1822,4012;0,0133638
1823,3655;0,0133989
1824,3297;0,0134465
1825,2939;0,0135094
1826,2582;0,0135758
1827,2224;0,0136176
1828,1866;0,0136025
1829,1509;0,0135172
1830,1151;0,0133892
1831,0793;0,0132772
1832,0436;0,013229
1833,0078;0,0132478
1833,9720;0,013301
1834,9363;0,0133511
1835,9005;0,0133792
1836,8647;0,013393
1837,8290;0,0134163
1838,7932;0,0134665
1839,7574;0,0135398
1840,7217;0,0136138
1841,6859;0,0136624
1842,6501;0,013666
1843,6144;0,0136217
1844,5786;0,0135512
1845,5428;0,0134924
1846,5071;0,013466
1847,4713;0,0134599
1848,4355;0,0134471
1849,3998;0,0134114
1850,3640;0,0133567
1851,3282;0,0133002
1852,2925;0,0132576
1853,2567;0,0132337
1854,2209;0,0132234
1855,1852;0,0132203
1856,1494;0,0132229
1857,1136;0,0132352
1858,0779;0,0132608
1859,0421;0,0132979
1860,0063;0,0133401
1860,9706;0,0133829
1861,9348;0,0134282
1862,8990;0,013483
1863,8633;0,0135531
1864,8275;0,0136363
1865,7917;0,0137166
1866,7560;0,0137624
1867,7202;0,0137366
1868,6844;0,0136271
1869,6487;0,01347
1870,6129;0,0133247
1871,5771;0,0132276
1872,5414;0,0131777
1873,5056;0,0131562
1874,4698;0,0131468
1875,4341;0,0131456
1876,3983;0,0131602
1877,3625;0,0132007
1878,3268;0,0132703
1879,2910;0,0133597
1880,2552;0,0134502
1881,2195;0,0135232
1882,1837;0,0135699
1883,1479;0,0135948
1884,1122;0,0136097
1885,0764;0,0136228
1886,0406;0,0136306
1887,0049;0,0136202
1887,9691;0,0135807
1888,9333;0,0135164
1889,8976;0,0134513
1890,8618;0,0134146
1891,8260;0,0134186
1892,7903;0,0134494
1893,7545;0,0134768
1894,7188;0,0134753
1895,6830;0,0134405
1896,6472;0,0133918
1897,6115;0,0133582
1898,5757;0,0133583
1899,5399;0,0133908
1900,5042;0,0134394
1901,4684;0,0134848
1902,4326;0,0135131
1903,3969;0,0135198
1904,3611;0,0135069
1905,3253;0,0134808
1906,2896;0,0134515
1907,2538;0,013432
1908,2180;0,0134354
1909,1823;0,0134687
1910,1465;0,013528
1911,1107;0,0136014
1912,0750;0,0136754
1913,0392;0,0137398
1914,0034;0,0137884
1914,9677;0,0138171
1915,9319;0,0138235
1916,8961;0,0138124
1917,8604;0,0137999
1918,8246;0,0138098
1919,7888;0,0138567
1920,7531;0,0139326
1921,7173;0,0140075
1922,6815;0,0140465
1923,6458;0,0140317
1924,6100;0,0139736
1925,5742;0,0139012
1926,5385;0,0138401
1927,5027;0,0137975
1928,4669;0,0137661
1929,4312;0,0137395
1930,3954;0,013724
1931,3596;0,0137377
1932,3239;0,0137952
1933,2881;0,0138899
1934,2523;0,013989
1935,2166;0,0140478
1936,1808;0,0140347
1937,1450;0,0139527
1938,1093;0,013844
1939,0735;0,0137747
1940,0377;0,0138075
1941,0020;0,0139692
1941,9662;0,0142253
1942,9304;0,0144855
1943,8947;0,0146514
1944,8589;0,0146737
1945,8231;0,014574
1946,7874;0,0144229
1947,7516;0,0142979
1948,7158;0,0142493
1949,6801;0,0142831
1950,6443;0,0143703
1951,6085;0,0144709
1952,5728;0,0145577
1953,5370;0,0146234
1954,5012;0,0146726
1955,4655;0,0147112
1956,4297;0,0147426
1957,3939;0,0147707
1958,3582;0,0147998
1959,3224;0,0148269
1960,2866;0,0148325
1961,2509;0,0147857
1962,2151;0,0146684
1963,1793;0,0145022
1964,1436;0,0143558
1965,1078;0,0143207
1966,0720;0,0144607
1967,0363;0,0147683
1968,0005;0,0151628
1968,9647;0,0155397
1969,9290;0,0158298
1970,8932;0,0160177
1971,8574;0,016115
1972,8217;0,0161217
1973,7859;0,0160149
1974,7501;0,0157766
1975,7144;0,0154401
1976,6786;0,015105
1977,6428;0,0148923
1978,6071;0,0148662
1979,5713;0,014991
1980,5355;0,0151596
1981,4998;0,0152636
1982,4640;0,0152507
1983,4282;0,0151395
1984,3925;0,0149956
1985,3567;0,0148866
1986,3209;0,0148443
1987,2852;0,0148536
1988,2494;0,0148713
1989,2136;0,0148553
1990,1779;0,014789
1991,1421;0,0146853
1992,1063;0,0145763
1993,0706;0,0144948
1994,0348;0,0144642
1994,9990;0,0144984
1995,9633;0,0146049
1996,9275;0,0147802
1997,8917;0,0150008
1998,8560;0,015219
1999,8202;0,0153778
2000,7844;0,0154422
2001,7487;0,015425
2002,7129;0,0153847
2003,6771;0,0153916
2004,6414;0,0154819
2005,6056;0,0156301
2006,5698;0,0157649
2007,5341;0,0158239
2008,4983;0,0158042
2009,4625;0,0157668
2010,4268;0,0157908
2011,3910;0,0159159
2012,3552;0,0161158
2013,3195;0,0163124
2014,2837;0,0164146
2015,2479;0,0163567
2016,2122;0,0161235
2017,1764;0,0157566
2018,1406;0,0153435
2019,1049;0,014992
2020,0691;0,0147949
2021,0333;0,0147984
2021,9976;0,014983
2022,9618;0,0152695
2023,9260;0,0155501
2024,8903;0,0157322
2025,8545;0,015771
2026,8187;0,015675
2027,7830;0,0154896
2028,7472;0,0152789
2029,7114;0,0151173
2030,6757;0,0150833
2031,6399;0,0152395
2032,6041;0,0156
2033,5684;0,0161078
2034,5326;0,01665
2035,4968;0,0171081
2036,4611;0,0174092
2037,4253;0,017538
2038,3895;0,0175069
2039,3538;0,0173178
2040,3180;0,0169546
2041,2822;0,016415
2042,2465;0,015755
2043,2107;0,0151009
2044,1749;0,0146116
2045,1392;0,0144104
2046,1034;0,0145276
2047,0676;0,0148836
2048,0320;0,0153262
2048,9961;0,0157011
2049,9604;0,0159111
2050,9246;0,015933
2051,8889;0,0157966
2052,8530;0,0155583
2053,8174;0,0152826
2054,7815;0,015031
2055,7458;0,0148519
2056,7100;0,0147714
2057,6743;0,0147898
2058,6384;0,0148888
2059,6028;0,0150407
2060,5669;0,0152152
2061,5313;0,0153795
2062,4954;0,0154994
2063,4597;0,0155459
2064,4238;0,0155095
2065,3882;0,0154094
2066,3523;0,0152894
2067,3167;0,0151972
2068,2808;0,0151612
2069,2451;0,0151787
2070,2092;0,0152215
2071,1736;0,015254
2072,1377;0,0152513
2073,1021;0,0152095
2074,0662;0,0151453
2075,0305;0,0150872
2075,9946;0,0150646
2076,9590;0,0150979
2077,9231;0,0151918
2078,8875;0,0153316
2079,8516;0,0154867
2080,8159;0,0156184
2081,7800;0,0156911
2082,7444;0,0156836
2083,7085;0,015596
2084,6729;0,0154521
2085,6370;0,0152936
2086,6013;0,0151693
2087,5654;0,0151174
2088,5298;0,0151487
2089,4939;0,0152397
2090,4583;0,0153402
2091,4224;0,0153969
2092,3867;0,0153801
2093,3508;0,0152984
2094,3152;0,0151949
2095,2793;0,0151227
2096,2437;0,0151169
2097,2078;0,0151764
2098,1721;0,0152675
2099,1362;0,0153431
2100,1006;0,015365
2101,0647;0,0153171
2102,0291;0,0152117
2102,9932;0,0150822
2103,9575;0,0149715
2104,9216;0,0149159
2105,8860;0,0149305
2106,8501;0,0150025
2107,8145;0,0150973
2108,7786;0,0151745
2109,7429;0,0152065
2110,7070;0,0151893
2111,6714;0,0151399
2112,6355;0,0150838
2113,5999;0,0150417
2114,5640;0,0150222
2115,5283;0,0150237
2116,4924;0,0150408
2117,4568;0,0150707
2118,4209;0,0151148
2119,3853;0,0151775
2120,3494;0,0152624
2121,3137;0,0153677
2122,2778;0,0154828
2123,2422;0,0155871
2124,2063;0,0156547
2125,1707;0,0156648
2126,1348;0,0156147
2127,0991;0,0155296
2128,0632;0,0154581
2129,0276;0,0154541
2129,9917;0,0155505
2130,9561;0,015739
2131,9202;0,0159697
2132,8845;0,0161735
2133,8486;0,016297
2134,8130;0,0163313
2135,7771;0,0163119
2136,7415;0,0162908
2137,7056;0,0163012
2138,6699;0,0163434
2139,6340;0,0163984
2140,5984;0,016455
2141,5625;0,0165227
2142,5269;0,0166199
2143,4910;0,016748
2144,4553;0,0168755
2145,4194;0,016952
2146,3838;0,0169469
2147,3479;0,0168824
2148,3123;0,0168322
2149,2764;0,0168804
2150,2407;0,0170686
2151,2048;0,0173688
2152,1692;0,0177021
2153,1333;0,0179872
2154,0977;0,0181842
2155,0618;0,0183027
2156,0261;0,0183691
2156,9902;0,0183806
2157,9546;0,018288
2158,9187;0,0180359
2159,8831;0,0176312
2160,8472;0,0171699
2161,8115;0,0167918
2162,7756;0,0166091
2163,7400;0,0166602
2164,7041;0,0169019
2165,6685;0,0172318
2166,6326;0,0175304
2167,5969;0,0177042
2168,5610;0,0177179
2169,5254;0,0176016
2170,4895;0,017435
2171,4539;0,0173117
2172,4180;0,0172957
2173,3823;0,0173895
2174,3464;0,0175311
2175,3108;0,0176297
2176,2749;0,0176199
2177,2393;0,0174974
2178,2034;0,0173123
2179,1677;0,0171258
2180,1318;0,0169666
2181,0962;0,0168208
2182,0603;0,0166624
2183,0247;0,0164967
2183,9888;0,0163778
2184,9531;0,0163778
2185,9172;0,0165313
2186,8816;0,016798
2187,8457;0,0170743
2188,8101;0,0172461
2189,7742;0,0172494
2190,7385;0,0170985
2191,7026;0,0168679
2192,6670;0,0166451
2193,6311;0,0164862
2194,5955;0,016398
2195,5596;0,0163508
2196,5239;0,016306
2197,4880;0,0162404
2198,4524;0,0161542
2199,4165;0,0160653
2200,3809;0,0159943
2201,3450;0,0159525
2202,3093;0,015938
2203,2734;0,0159394
2204,2378;0,0159458
2205,2019;0,0159526
2206,1663;0,0159602
2207,1304;0,0159665
2208,0947;0,0159604
2209,0588;0,0159274
2210,0232;0,0158639
2210,9873;0,0157903
2211,9517;0,0157495
2212,9158;0,0157832
2213,8801;0,0159012
2214,8442;0,0160662
2215,8086;0,0162096
2216,7727;0,0162726
2217,7371;0,0162435
2218,7012;0,0161649
2219,6655;0,0161029
2220,6296;0,0161005
2221,5940;0,0161487
2222,5581;0,016196
2223,5225;0,0161865
2224,4866;0,0160987
2225,4509;0,015956
2226,4150;0,0158066
2227,3794;0,0156895
2228,3435;0,0156165
2229,3079;0,0155761
2230,2720;0,0155533
2231,2363;0,0155441
2232,2004;0,0155541
2233,1648;0,0155842
2234,1289;0,0156209
2235,0933;0,0156423
2236,0574;0,0156348
2237,0217;0,0156076
2237,9858;0,0155894
2238,9502;0,0156093
2239,9143;0,0156747
2240,8787;0,0157632
2241,8428;0,0158367
2242,8071;0,0158673
2243,7712;0,015859
2244,7356;0,0158481
2245,6997;0,0158814
2246,6641;0,015984
2247,6282;0,0161386
2248,5925;0,0162892
2249,5566;0,0163698
2250,5210;0,0163405
2251,4851;0,0162106
2252,4495;0,0160333
2253,4136;0,015876
2254,3779;0,0157837
2255,3420;0,0157579
2256,3064;0,0157628
2257,2705;0,0157534
2258,2349;0,0157054
2259,1990;0,0156286
2260,1633;0,0155574
2261,1274;0,0155277
2262,0918;0,0155548
2263,0559;0,0156259
2264,0203;0,0157091
2264,9844;0,0157727
2265,9487;0,0158028
2266,9128;0,0158077
2267,8772;0,0158093
2268,8413;0,0158255
2269,8057;0,0158565
2270,7698;0,0158837
2271,7341;0,0158812
2272,6982;0,0158341
2273,6626;0,0157502
2274,6267;0,0156567
2275,5911;0,0155852
2276,5552;0,0155534
2277,5195;0,0155567
2278,4836;0,015575
2279,4480;0,0155876
2280,4121;0,015586
2281,3765;0,0155764
2282,3406;0,0155718
2283,3049;0,0155823
2284,2690;0,0156093
2285,2334;0,0156476
2286,1975;0,0156914
2287,1619;0,0157395
2288,1260;0,0157961
2289,0903;0,0158675
2290,0544;0,0159573
2291,0188;0,0160631
2291,9829;0,0161772
2292,9473;0,0162902
2293,9114;0,0163961
2294,8757;0,0164948
2295,8398;0,0165896
2296,8042;0,0166807
2297,7683;0,0167589
2298,7327;0,0168051
2299,6968;0,0167988
2300,6611;0,0167319
2301,6252;0,0166189
2302,5896;0,0164955
2303,5537;0,0164052
2304,5181;0,0163806
2305,4822;0,0164288
2306,4465;0,0165274
2307,4106;0,0166339
2308,3750;0,0167019
2309,3391;0,0166967
2310,3035;0,0166044
2311,2676;0,0164337
2312,2319;0,0162124
2313,1960;0,0159784
2314,1604;0,0157679
2315,1245;0,0156047
2316,0889;0,0154954
2317,0530;0,0154321
2318,0173;0,015401
2318,9814;0,0153922
2319,9458;0,0154076
2320,9099;0,0154632
2321,8743;0,0155819
2322,8384;0,0157772
2323,8027;0,0160342
2324,7668;0,0163058
2325,7312;0,0165288
2326,6953;0,0166511
2327,6597;0,0166543
2328,6238;0,0165618
2329,5881;0,0164319
2330,5522;0,0163365
2331,5166;0,0163285
2332,4807;0,0164148
2333,4451;0,0165538
2334,4092;0,0166846
2335,3735;0,0167699
2336,3376;0,0168221
2337,3020;0,016897
2338,2661;0,0170538
2339,2305;0,0173025
2340,1946;0,0175689
2341,1589;0,0177027
2342,1230;0,0175445
2343,0874;0,0170658
2344,0515;0,0164993
2345,0159;0,016236
2345,9800;0,0164904
2346,9443;0,0171265
2347,9084;0,0178102
2348,8728;0,0182483
2349,8369;0,0183239
2350,8013;0,0181135
2351,7654;0,0178217
2352,7297;0,0176574
2353,6938;0,0177151
2354,6582;0,0179567
2355,6223;0,0182965
2356,5867;0,0186609
2357,5508;0,0189686
2358,5151;0,0191155
2359,4792;0,0190199
2360,4436;0,0186785
2361,4077;0,018159
2362,3721;0,0175413
2363,3362;0,0168789
2364,3005;0,0162062
2365,2646;0,0155576
2366,2290;0,0149702
2367,1931;0,0144746
2368,1575;0,0140896
2369,1216;0,0138237
2370,0859;0,0136724
2371,0500;0,0136144
2372,0144;0,0136144
2372,9785;0,0136378
2373,9429;0,0136691
2374,9070;0,0137202
2375,8713;0,0138199
2376,8354;0,0139949
2377,7998;0,0142515
2378,7639;0,0145707
2379,7283;0,0149139
2380,6924;0,0152358
2381,6567;0,0154968
2382,6208;0,015671
2383,5852;0,0157508
2384,5493;0,0157471
2385,5137;0,0156859
2386,4778;0,0156017
2387,4421;0,0155277
2388,4063;0,0154854
2389,3706;0,0154795
2390,3347;0,0154983
2391,2991;0,0155213
2392,2632;0,0155304
2393,2275;0,015517
2394,1917;0,0154851
2395,1560;0,0154471
2396,1201;0,0154189
2397,0845;0,0154135
2398,0486;0,0154395
2399,0129;0,0154971
2399,9771;0,0155781
2400,9414;0,0156665
2401,9055;0,0157408
2402,8699;0,0157801
2403,8340;0,0157714
2404,7983;0,0157166
2405,7625;0,015634
2406,7268;0,0155529
2407,6909;0,0155041
2408,6553;0,0155077
2409,6194;0,0155655
2410,5837;0,0156609
2411,5479;0,0157666
2412,5122;0,015856
2413,4763;0,0159136
2414,4407;0,0159387
2415,4048;0,0159423
2416,3691;0,0159377
2417,3333;0,0159324
2418,2976;0,0159251
2419,2617;0,0159103
2420,2261;0,0158852
2421,1902;0,0158547
2422,1545;0,0158306
2423,1187;0,0158242
2424,0830;0,01584
2425,0471;0,0158731
2426,0115;0,0159137
2426,9756;0,0159533
2427,9399;0,0159874
2428,9041;0,0160143
2429,8684;0,0160321
2430,8325;0,0160377
2431,7969;0,0160313
2432,7610;0,0160194
2433,7253;0,0160147
2434,6895;0,0160283
2435,6538;0,0160614
2436,6179;0,0161025
2437,5823;0,0161341
2438,5464;0,0161446
2439,5107;0,0161358
2440,4749;0,0161216
2441,4392;0,0161175
2442,4033;0,0161303
2443,3677;0,0161549
2444,3318;0,0161794
2445,2961;0,0161938
2446,2603;0,0161955
2447,2246;0,0161888
2448,1887;0,0161806
2449,1531;0,0161769
2450,1172;0,0161815
2451,0815;0,0161965
2452,0457;0,0162217
2453,0100;0,0162533
2453,9741;0,016284
2454,9385;0,0163052
2455,9026;0,0163114
2456,8669;0,0163038
2457,8311;0,0162895
2458,7954;0,0162782
2459,7595;0,0162768
2460,7239;0,0162867
2461,6880;0,0163048
2462,6523;0,0163271
2463,6165;0,0163513
2464,5808;0,0163781
2465,5449;0,0164089
2466,5093;0,016443
2467,4734;0,016476
2468,4377;0,0165005
2469,4019;0,01651
2470,3662;0,016503
2471,3303;0,0164845
2472,2947;0,0164648
2473,2588;0,0164537
2474,2231;0,0164557
2475,1873;0,0164684
2476,1516;0,0164849
2477,1157;0,0164999
2478,0801;0,0165128
2479,0442;0,0165272
2480,0085;0,0165461
2480,9727;0,0165673
2481,9370;0,016584
2482,9011;0,0165896
2483,8655;0,0165843
2484,8296;0,0165775
2485,7939;0,0165834
2486,7581;0,0166128
2487,7224;0,0166652
2488,6865;0,0167279
2489,6509;0,0167812
2490,6150;0,0168081
2491,5793;0,0168013
2492,5435;0,0167658
2493,5078;0,0167153
2494,4719;0,0166658
2495,4363;0,0166293
2496,4004;0,0166117
2497,3647;0,0166119
2498,3289;0,0166244
2499,2932;0,0166418
2500,2573;0,0166577
2501,2217;0,0166691
2502,1858;0,0166771
2503,1501;0,0166864
2504,1143;0,0167019
2505,0786;0,0167256
2506,0427;0,0167549
2507,0071;0,0167833
2507,9712;0,0168046
2508,9355;0,0168164
2509,8997;0,0168211
2510,8640;0,0168231
2511,8281;0,0168248
2512,7925;0,0168251
2513,7566;0,0168221
2514,7209;0,016818
2515,6851;0,016821
2516,6494;0,0168407
2517,6135;0,0168808
2518,5779;0,0169327
2519,5420;0,0169772
2520,5063;0,016995
2521,4705;0,0169788
2522,4348;0,0169388
2523,3989;0,0168977
2524,3633;0,016877
2525,3274;0,0168849
2526,2917;0,0169144
2527,2559;0,0169512
2528,2202;0,0169853
2529,1843;0,0170172
2530,1487;0,0170536
2531,1128;0,0170967
2532,0771;0,0171369
2533,0413;0,017155
2534,0056;0,0171343
2534,9697;0,0170739
2535,9341;0,0169929
2536,8982;0,0169226
2537,8625;0,0168894
2538,8267;0,0169009
2539,7910;0,0169423
2540,7551;0,0169863
2541,7195;0,0170089
2542,6836;0,0170023
2543,6479;0,0169772
2544,6121;0,0169553
2545,5764;0,0169565
2546,5405;0,0169882
2547,5049;0,0170421
2548,4690;0,0170979
2549,4333;0,0171331
2550,3975;0,0171333
2551,3618;0,0170991
2552,3259;0,0170462
2553,2903;0,016999
2554,2544;0,0169788
2555,2188;0,0169937
2556,1829;0,0170345
2557,1472;0,0170796
2558,1113;0,0171072
2559,0757;0,0171062
2560,0398;0,0170816
2561,0042;0,0170497
2561,9683;0,0170276
2562,9326;0,0170241
2563,8967;0,0170354
2564,8611;0,01705
2565,8252;0,0170573
2566,7896;0,017054
2567,7537;0,0170451
2568,7180;0,0170385
2569,6821;0,0170393
2570,6465;0,0170459
2571,6106;0,0170535
2572,5750;0,0170591
2573,5391;0,0170657
2574,5034;0,0170809
2575,4675;0,0171105
2576,4319;0,017152
2577,3960;0,0171937
2578,3604;0,0172207
2579,3245;0,0172237
2580,2888;0,0172044
2581,2529;0,0171738
2582,2173;0,017144
2583,1814;0,0171219
2584,1458;0,0171075
2585,1099;0,0170986
2586,0742;0,0170967
2587,0383;0,0171079
2588,0027;0,0171377
2588,9668;0,017185
2589,9312;0,017239
2590,8953;0,0172837
2591,8596;0,0173061
2592,8237;0,0173023
2593,7881;0,0172781
2594,7522;0,0172448
2595,7166;0,017213
2596,6807;0,0171903
2597,6450;0,0171804
2598,6091;0,0171844
2599,5735;0,0172006
2600,5376;0,0172245
2601,5020;0,017249
2602,4661;0,0172682
2603,4304;0,01728
2604,3945;0,0172875
2605,3589;0,0172968
2606,3230;0,0173125
2607,2874;0,0173348
2608,2515;0,0173596
2609,2158;0,0173825
2610,1799;0,0174012
2611,1443;0,017417
2612,1084;0,0174324
2613,0728;0,0174482
2614,0369;0,0174628
2615,0012;0,017474
2615,9653;0,0174811
2616,9297;0,0174863
2617,8938;0,0174933
2618,8582;0,0175049
2619,8223;0,0175208
2620,7866;0,0175378
2621,7507;0,0175527
2622,7151;0,0175641
2623,6792;0,0175728
2624,6436;0,0175809
2625,6077;0,0175897
2626,5720;0,0175988
2627,5361;0,0176061
2628,5005;0,0176097
2629,4646;0,0176087
2630,4290;0,0176034
2631,3931;0,0175957
2632,3574;0,0175889
2633,3215;0,0175872
2634,2859;0,0175944
2635,2500;0,0176118
2636,2144;0,0176373
2637,1785;0,0176649
2638,1428;0,0176881
2639,1069;0,0177031
2640,0713;0,0177114
2641,0354;0,0177185
2641,9998;0,0177304
2642,9639;0,0177505
2643,9282;0,0177781
2644,8923;0,01781
2645,8567;0,0178435
2646,8208;0,0178776
2647,7852;0,0179117
2648,7493;0,017944
2649,7136;0,0179701
2650,6777;0,0179846
2651,6421;0,0179843
2652,6062;0,0179709
2653,5706;0,0179512
2654,5347;0,0179345
2655,4990;0,0179286
2656,4631;0,017937
2657,4275;0,017958
2658,3916;0,0179868
2659,3560;0,0180179
2660,3201;0,018048
2661,2844;0,0180764
2662,2485;0,0181035
2663,2129;0,0181303
2664,1770;0,0181565
2665,1414;0,0181816
2666,1055;0,0182045
2667,0698;0,0182248
2668,0339;0,0182415
2668,9983;0,0182539
2669,9624;0,0182617
2670,9268;0,0182663
2671,8909;0,0182714
2672,8552;0,0182824
2673,8193;0,0183039
2674,7837;0,0183364
2675,7478;0,0183758
2676,7122;0,0184143
2677,6763;0,0184444
2678,6406;0,0184614
2679,6047;0,0184657
2680,5691;0,0184619
2681,5332;0,0184564
2682,4976;0,0184554
2683,4617;0,0184631
2684,4260;0,0184809
2685,3901;0,0185074
2686,3545;0,0185384
2687,3186;0,0185682
2688,2830;0,0185914
2689,2471;0,0186052
2690,2114;0,0186107
2691,1755;0,0186128
2692,1399;0,0186187
2693,1040;0,0186348
2694,0684;0,0186638
2695,0325;0,0187034
2695,9968;0,0187469
2696,9609;0,0187859
2697,9253;0,0188135
2698,8894;0,0188275
2699,8538;0,018831
2700,8179;0,0188307
2701,7822;0,0188339
2702,7463;0,0188462
2703,7107;0,0188694
2704,6748;0,0189022
2705,6392;0,0189417
2706,6033;0,0189842
2707,5676;0,0190265
2708,5317;0,0190659
2709,4961;0,0191005
2710,4602;0,0191287
2711,4246;0,0191499
2712,3887;0,0191644
2713,3530;0,0191734
2714,3171;0,0191791
2715,2815;0,0191845
2716,2456;0,0191924
2717,2100;0,0192053
2718,1741;0,0192241
2719,1384;0,0192487
2720,1025;0,0192772
2721,0669;0,019307
2722,0310;0,019335
2722,9954;0,0193584
2723,9595;0,0193762
2724,9238;0,0193899
2725,8879;0,0194037
2726,8523;0,0194227
2727,8164;0,0194501
2728,7808;0,0194855
2729,7449;0,0195246
2730,7092;0,0195612
2731,6733;0,0195905
2732,6377;0,0196103
2733,6018;0,019622
2734,5662;0,0196283
2735,5303;0,0196318
2736,4946;0,0196348
2737,4587;0,019639
2738,4231;0,0196468
2739,3872;0,0196607
2740,3516;0,0196822
2741,3157;0,0197108
2742,2800;0,0197433
2743,2441;0,0197747
2744,2085;0,0198002
2745,1726;0,0198162
2746,1370;0,0198215
2747,1011;0,0198176
2748,0654;0,0198083
2749,0295;0,0197991
2749,9939;0,0197964
2750,9580;0,0198058
2751,9224;0,0198298
2752,8865;0,0198673
2753,8508;0,0199131
2754,8149;0,0199598
2755,7793;0,02
2756,7434;0,020029
2757,7078;0,0200457
2758,6719;0,0200532
2759,6362;0,020057
2760,6003;0,0200633
2761,5647;0,0200771
2762,5288;0,0201008
2763,4932;0,0201333
2764,4573;0,0201705
2765,4216;0,020207
2766,3857;0,020238
2767,3501;0,0202618
2768,3142;0,0202803
2769,2786;0,0202985
2770,2427;0,0203216
2771,2070;0,020352
2772,1711;0,0203884
2773,1355;0,0204268
2774,0996;0,0204628
2775,0640;0,0204941
2776,0281;0,0205212
2776,9924;0,0205467
2777,9565;0,0205736
2778,9209;0,0206044
2779,8850;0,0206399
2780,8494;0,0206802
2781,8135;0,0207244
2782,7778;0,0207706
2783,7419;0,0208162
2784,7063;0,0208575
2785,6704;0,0208912
2786,6348;0,0209154
2787,5989;0,0209316
2788,5632;0,0209456
2789,5273;0,0209663
2790,4917;0,0210033
2791,4558;0,0210618
2792,4202;0,0211389
2793,3843;0,0212239
2794,3486;0,0213023
2795,3127;0,0213625
2796,2771;0,0214022
2797,2412;0,021429
2798,2056;0,021456
2799,1697;0,0214944
2800,1340;0,0215484
2801,0981;0,0216147
2802,0625;0,0216873
2803,0266;0,0217617
2803,9910;0,0218374
2804,9551;0,0219157
2805,9194;0,0219961
2806,8835;0,0220757
2807,8479;0,0221498
2808,8120;0,0222162
2809,7764;0,022277
2810,7405;0,0223381
2811,7048;0,0224053
2812,6689;0,0224815
2813,6333;0,0225656
2814,5974;0,0226536
2815,5618;0,0227417
2816,5259;0,0228281
2817,4902;0,0229133
2818,4543;0,0229998
2819,4187;0,0230907
2820,3828;0,0231889
2821,3472;0,0232967
2822,3113;0,0234152
2823,2756;0,0235436
2824,2397;0,0236797
2825,2041;0,02382
2826,1682;0,0239617
2827,1326;0,0241043
2828,0967;0,02425
2829,0610;0,0244029
2830,0251;0,0245661
2830,9895;0,0247404
2831,9536;0,0249239
2832,9180;0,0251135
2833,8821;0,0253075
2834,8464;0,0255063
2835,8105;0,0257128
2836,7749;0,0259309
2837,7390;0,0261644
2838,7034;0,0264166
2839,6675;0,0266911
2840,6318;0,0269924
2841,5959;0,0273249
2842,5603;0,0276916
2843,5244;0,0280917
2844,4888;0,0285196
2845,4529;0,0289634
2846,4172;0,029405
2847,3813;0,0298209
2848,3457;0,030185
2849,3098;0,030473
2850,2742;0,030668
2851,2383;0,0307661
2852,2026;0,0307772
2853,1667;0,0307219
2854,1311;0,0306249
2855,0952;0,0305083
2856,0596;0,0303872
2857,0237;0,0302707
2857,9880;0,0301652
2858,9521;0,0300775
2859,9165;0,0300146
2860,8806;0,0299811
2861,8450;0,0299768
2862,8091;0,0299962
2863,7734;0,0300323
2864,7375;0,03008
2865,7019;0,030139
2866,6660;0,0302112
2867,6304;0,0302963
2868,5945;0,0303883
2869,5588;0,0304765
2870,5229;0,0305503
2871,4873;0,0306049
2872,4514;0,0306434
2873,4158;0,0306749
2874,3799;0,0307088
2875,3442;0,03075
2876,3083;0,0307984
2877,2727;0,030851
2878,2368;0,030906
2879,2012;0,0309638
2880,1653;0,0310258
2881,1296;0,0310926
2882,0938;0,0311623
2883,0581;0,0312308
2884,0222;0,0312939
2884,9866;0,0313488
2885,9507;0,031396
2886,9150;0,0314396
2887,8792;0,0314872
2888,8435;0,0315479
2889,8076;0,0316294
2890,7720;0,0317343
2891,7361;0,031858
2892,7004;0,0319892
2893,6646;0,0321144
2894,6289;0,0322231
2895,5930;0,0323121
2896,5574;0,0323859
2897,5215;0,032454
2898,4858;0,0325262
2899,4500;0,0326086
2900,4143;0,0327024
2901,3784;0,0328052
2902,3428;0,0329133
2903,3069;0,0330241
2904,2712;0,0331381
2905,2354;0,0332586
2906,1997;0,0333915
2907,1638;0,033544
2908,1282;0,033723
2909,0923;0,0339343
2910,0566;0,0341805
2911,0208;0,0344596
2911,9851;0,0347643
2912,9492;0,0350817
2913,9136;0,0353947
2914,8777;0,0356853
2915,8420;0,0359374
2916,8062;0,0361388
2917,7705;0,0362823
2918,7346;0,0363648
2919,6990;0,0363862
2920,6631;0,0363488
2921,6274;0,0362567
2922,5916;0,0361159
2923,5559;0,0359339
2924,5200;0,0357188
2925,4844;0,0354787
2926,4485;0,0352216
2927,4128;0,0349555
2928,3770;0,0346873
2929,3413;0,0344224
2930,3054;0,0341632
2931,2698;0,0339082
2932,2339;0,0336535
2933,1982;0,0333955
2934,1624;0,0331332
2935,1267;0,03287
2936,0908;0,0326122
2937,0552;0,0323658
2938,0193;0,0321332
2938,9836;0,0319111
2939,9478;0,0316912
2940,9121;0,0314641
2941,8762;0,0312235
2942,8406;0,0309702
2943,8047;0,0307122
2944,7690;0,0304629
2945,7332;0,0302351
2946,6975;0,0300367
2947,6616;0,029868
2948,6260;0,0297234
2949,5901;0,0295949
2950,5544;0,0294758
2951,5186;0,029362
2952,4829;0,0292508
2953,4470;0,0291381
2954,4114;0,0290187
2955,3755;0,0288877
2956,3398;0,0287444
2957,3040;0,0285939
2958,2683;0,0284451
2959,2324;0,0283061
2960,1968;0,0281788
2961,1609;0,0280575
2962,1252;0,0279316
2963,0894;0,027792
2964,0537;0,0276354
2965,0178;0,0274657
2965,9822;0,0272909
2966,9463;0,0271179
2967,9106;0,0269494
2968,8748;0,0267846
2969,8391;0,0266212
2970,8032;0,0264591
2971,7676;0,0263014
2972,7317;0,0261525
2973,6960;0,0260156
2974,6602;0,025891
2975,6245;0,0257752
2976,5886;0,0256627
2977,5530;0,0255484
2978,5171;0,0254293
2979,4814;0,025306
2980,4456;0,0251826
2981,4099;0,0250647
2982,3740;0,024959
2983,3384;0,0248708
2984,3025;0,0248035
2985,2668;0,0247573
2986,2310;0,024729
2987,1953;0,0247115
2988,1594;0,0246955
2989,1238;0,0246715
2990,0879;0,0246336
2991,0522;0,024582
2992,0164;0,0245233
2992,9807;0,0244678
2993,9448;0,0244248
2994,9092;0,0243997
2995,8733;0,0243924
2996,8376;0,0243997
2997,8018;0,0244177
2998,7661;0,024443
2999,7302;0,0244728
3000,6946;0,0245036
3001,6587;0,0245322
3002,6230;0,0245562
3003,5872;0,024576
3004,5515;0,0245946
3005,5156;0,0246154
3006,4800;0,02464
3007,4441;0,0246676
3008,4084;0,0246957
3009,3726;0,0247219
3010,3369;0,0247449
3011,3010;0,0247634
3012,2654;0,0247754
3013,2295;0,0247781
3014,1938;0,0247707
3015,1580;0,0247568
3016,1223;0,0247454
3017,0864;0,0247475
3018,0508;0,0247707
3019,0149;0,0248146
3019,9792;0,0248706
3020,9434;0,0249264
3021,9077;0,0249728
3022,8718;0,0250084
3023,8362;0,0250398
3024,8003;0,0250773
3025,7646;0,0251285
3026,7288;0,0251945
3027,6931;0,0252695
3028,6572;0,0253449
3029,6216;0,0254133
3030,5857;0,0254714
3031,5500;0,0255205
3032,5142;0,0255647
3033,4785;0,0256089
3034,4426;0,0256568
3035,4070;0,0257104
3036,3711;0,0257697
3037,3354;0,0258324
3038,2996;0,0258944
3039,2639;0,0259508
3040,2280;0,0259984
3041,1924;0,0260382
3042,1565;0,0260765
3043,1208;0,0261219
3044,0850;0,0261817
3045,0493;0,0262567
3046,0134;0,0263409
3046,9778;0,0264239
3047,9419;0,0264977
3048,9063;0,0265615
3049,8704;0,0266223
3050,8347;0,0266911
3051,7988;0,0267749
3052,7632;0,0268727
3053,7273;0,0269754
3054,6917;0,0270712
3055,6558;0,0271526
3056,6201;0,0272208
3057,5842;0,027285
3058,5486;0,0273564
3059,5127;0,0274422
3060,4771;0,0275414
3061,4412;0,0276457
3062,4055;0,0277443
3063,3696;0,0278282
3064,3340;0,0278945
3065,2981;0,0279471
3066,2625;0,0279941
3067,2266;0,0280447
3068,1909;0,0281059
3069,1550;0,0281803
3070,1194;0,0282663
3071,0835;0,0283592
3072,0479;0,0284532
3073,0120;0,0285433
3073,9763;0,0286271
3074,9404;0,028705
3075,9048;0,0287791
3076,8689;0,0288517
3077,8333;0,0289233
3078,7974;0,028993
3079,7617;0,0290587
3080,7258;0,0291188
3081,6902;0,0291739
3082,6543;0,029227
3083,6187;0,0292828
3084,5828;0,0293467
3085,5471;0,0294218
3086,5112;0,0295075
3087,4756;0,0295981
3088,4397;0,0296845
3089,4041;0,0297585
3090,3682;0,0298171
3091,3325;0,0298662
3092,2966;0,0299184
3093,2610;0,0299883
3094,2251;0,0300847
3095,1895;0,0302055
3096,1536;0,0303379
3097,1179;0,0304641
3098,0820;0,0305696
3099,0464;0,0306491
3100,0105;0,0307089
3100,9749;0,0307628
3101,9390;0,0308261
3102,9033;0,0309082
3103,8674;0,0310092
3104,8318;0,0311209
3105,7959;0,0312321
3106,7603;0,0313343
3107,7244;0,031426
3108,6887;0,0315132
3109,6528;0,0316043
3110,6172;0,0317056
3111,5813;0,0318167
3112,5457;0,0319319
3113,5098;0,0320435
3114,4741;0,0321467
3115,4382;0,0322413
3116,4026;0,0323305
3117,3667;0,0324176
3118,3311;0,0325036
3119,2952;0,0325872
3120,2595;0,0326664
3121,2236;0,0327409
3122,1880;0,0328129
3123,1521;0,032886
3124,1165;0,0329633
3125,0806;0,0330463
3126,0449;0,033134
3127,0090;0,033224
3127,9734;0,0333147
3128,9375;0,0334058
3129,9019;0,0334982
3130,8660;0,0335938
3131,8303;0,0336935
3132,7944;0,0337973
3133,7588;0,0339045
3134,7229;0,0340146
3135,6873;0,0341274
3136,6514;0,0342421
3137,6157;0,0343567
3138,5798;0,0344685
3139,5442;0,0345758
3140,5083;0,0346802
3141,4727;0,034786
3142,4368;0,0348975
3143,4011;0,0350158
3144,3652;0,0351364
3145,3296;0,0352519
3146,2937;0,0353564
3147,2581;0,0354498
3148,2222;0,0355387
3149,1865;0,0356315
3150,1506;0,0357342
3151,1150;0,0358461
3152,0791;0,0359623
3153,0435;0,0360778
3154,0076;0,0361919
3154,9719;0,0363087
3155,9360;0,036433
3156,9004;0,0365662
3157,8645;0,0367039
3158,8289;0,0368381
3159,7930;0,036962
3160,7573;0,0370734
3161,7214;0,0371757
3162,6858;0,0372751
3163,6499;0,0373777
3164,6143;0,0374872
3165,5784;0,0376054
3166,5427;0,0377329
3167,5068;0,0378689
3168,4712;0,0380102
3169,4353;0,0380929
3170,3997;0,038228
3171,3638;0,038353
3172,3281;0,0384674
3173,2922;0,0385749
3174,2566;0,0386795
3175,2207;0,0387832
3176,1851;0,0388852
3177,1492;0,0389839
3178,1135;0,0390809
3179,0776;0,039181
3180,0420;0,039289
3181,0061;0,0394061
3181,9705;0,0395284
3182,9346;0,0396493
3183,8989;0,0397658
3184,8630;0,0398809
3185,8274;0,0400016
3186,7915;0,0401339
3187,7559;0,0402765
3188,7200;0,0404213
3189,6843;0,040557
3190,6484;0,0406753
3191,6128;0,040774
3192,5769;0,0408565
3193,5413;0,0409293
3194,5054;0,0410001
3195,4697;0,0410778
3196,4338;0,0411725
3197,3982;0,0412918
3198,3623;0,0414365
3199,3267;0,0415964
3200,2908;0,0417525
3201,2551;0,0418853
3202,2192;0,0419841
3203,1836;0,0420534
3204,1477;0,0421111
3205,1121;0,0421798
3206,0762;0,0422749
3207,0405;0,042398
3208,0046;0,0425364
3208,9690;0,0426707
3209,9331;0,0427853
3210,8975;0,0428767
3211,8616;0,0429539
3212,8259;0,043033
3213,7900;0,043127
3214,7544;0,0432387
3215,7185;0,0433596
3216,6829;0,0434764
3217,6470;0,0435802
3218,6113;0,0436725
3219,5754;0,043764
3220,5398;0,043867
3221,5039;0,0439874
3222,4683;0,0441206
3223,4324;0,0442551
3224,3967;0,0443795
3225,3608;0,0444885
3226,3252;0,0445836
3227,2893;0,044671
3228,2537;0,0447572
3229,2178;0,0448477
3230,1821;0,0449461
3231,1462;0,0450539
3232,1106;0,045169
3233,0747;0,0452841
3234,0391;0,0453892
3235,0032;0,0454761
3235,9675;0,0455457
3236,9316;0,0456098
3237,8960;0,0456873
3238,8601;0,0457936
3239,8245;0,0459323
3240,7886;0,0460919
3241,7529;0,0462521
3242,7170;0,046394
3243,6814;0,0465089
3244,6455;0,0466011
3245,6099;0,0466832
3246,5740;0,046769
3247,5383;0,0468663
3248,5024;0,0469765
3249,4668;0,0470964
3250,4309;0,0472214
3251,3953;0,0473481
3252,3594;0,0474737
3253,3237;0,0475963
3254,2878;0,0477141
3255,2522;0,0478266
3256,2163;0,0479343
3257,1807;0,0480382
3258,1448;0,0481398
3259,1091;0,0482409
3260,0732;0,0483438
3261,0376;0,0484521
3262,0017;0,0485685
3262,9661;0,0486935
3263,9302;0,0488241
3264,8945;0,048954
3265,8586;0,0490767
3266,8230;0,0491886
3267,7871;0,049291
3268,7515;0,0493882
3269,7156;0,0494848
3270,6799;0,0495825
3271,6440;0,0496787
3272,6084;0,0497675
3273,5725;0,0498422
3274,5369;0,0498975
3275,5010;0,0499331
3276,4653;0,0499553
3277,4294;0,0499762
3278,3938;0,0500109
3279,3579;0,0500705
3280,3223;0,050156
3281,2864;0,0502564
3282,2507;0,0503525
3283,2148;0,0504261
3284,1792;0,0504693
3285,1433;0,0504877
3286,1077;0,0504961
3287,0718;0,0505096
3288,0361;0,0505366
3289,0002;0,0505759
3289,9646;0,0506198
3290,9287;0,0506586
3291,8931;0,0506851
3292,8572;0,0506961
3293,8215;0,0506931
3294,7856;0,0506815
3295,7500;0,0506695
3296,7141;0,0506662
3297,6785;0,0506781
3298,6426;0,0507063
3299,6069;0,0507462
3300,5710;0,0507889
3301,5354;0,0508255
3302,4995;0,0508498
3303,4639;0,05086
3304,4280;0,0508586
3305,3923;0,050852
3306,3564;0,0508481
3307,3208;0,0508534
3308,2849;0,0508692
3309,2493;0,0508908
3310,2134;0,0509094
3311,1777;0,0509192
3312,1418;0,0509223
3313,1062;0,0509296
3314,0703;0,0509539
3315,0347;0,0510013
3315,9988;0,0510656
3316,9631;0,0511318
3317,9272;0,0511863
3318,8916;0,0512258
3319,8557;0,0512597
3320,8201;0,0513024
3321,7842;0,0513628
3322,7485;0,0514375
3323,7126;0,0515137
3324,6770;0,0515776
3325,6411;0,0516236
3326,6055;0,0516564
3327,5696;0,0516859
3328,5339;0,0517204
3329,4980;0,0517616
3330,4624;0,0518053
3331,4265;0,0518461
3332,3909;0,0518811
3333,3550;0,0519103
3334,3193;0,0519353
3335,2834;0,0519561
3336,2478;0,0519705
3337,2119;0,0519741
3338,1763;0,0519619
3339,1404;0,0519306
3340,1047;0,0518798
3341,0688;0,0518138
3342,0332;0,0517407
3342,9973;0,0516704
3343,9617;0,0516099
3344,9258;0,0515599
3345,8901;0,0515139
3346,8542;0,0514616
3347,8186;0,0513939
3348,7827;0,0513067
3349,7471;0,0512017
3350,7112;0,0510838
3351,6755;0,0509598
3352,6396;0,0508374
3353,6040;0,0507266
3354,5681;0,0506384
3355,5325;0,0505807
3356,4966;0,0505524
3357,4609;0,050541
3358,4250;0,0505263
3359,3894;0,0504896
3360,3535;0,0504226
3361,3179;0,0503305
3362,2820;0,0502263
3363,2463;0,0501224
3364,2104;0,0500233
3365,1748;0,049926
3366,1389;0,0498249
3367,1033;0,0497174
3368,0674;0,0496052
3369,0317;0,0494921
3369,9958;0,0493805
3370,9602;0,0492715
3371,9243;0,0491675
3372,8887;0,0490731
3373,8528;0,0489935
3374,8171;0,0489297
3375,7813;0,0488748
3376,7456;0,0488161
3377,7097;0,0487424
3378,6741;0,0486509
3379,6382;0,0485497
3380,6025;0,0484527
3381,5667;0,0483707
3382,5310;0,0483047
3383,4951;0,0482457
3384,4595;0,0481813
3385,4236;0,0481034
3386,3879;0,0480119
3387,3521;0,0479133
3388,3164;0,0478142
3389,2805;0,047718
3390,2449;0,047624
3391,2090;0,047531
3392,1733;0,0474404
3393,1375;0,047356
3394,1018;0,0472812
3395,0659;0,047215
3396,0303;0,04715
3396,9944;0,0470754
3397,9587;0,0469815
3398,9229;0,0468639
3399,8872;0,0467257
3400,8513;0,0465759
3401,8157;0,0464267
3402,7798;0,0462894
3403,7441;0,0461713
3404,7083;0,0460739
3405,6726;0,0459918
3406,6367;0,0459141
3407,6011;0,0458288
3408,5652;0,0457264
3409,5295;0,0456044
3410,4937;0,0454677
3411,4580;0,0453261
3412,4221;0,0451896
3413,3865;0,0450637
3414,3506;0,0449472
3415,3149;0,0448343
3416,2791;0,0447187
3417,2434;0,0445974
3418,2075;0,0444723
3419,1719;0,0443488
3420,1360;0,0442321
3421,1003;0,0441241
3422,0645;0,044021
3423,0288;0,0439151
3423,9929;0,0437967
3424,9573;0,0436578
3425,9214;0,0434951
3426,8857;0,0433121
3427,8499;0,0431203
3428,8142;0,0429358
3429,7783;0,042774
3430,7427;0,0426414
3431,7068;0,0425318
3432,6711;0,0424286
3433,6353;0,0423137
3434,5996;0,0421776
3435,5637;0,0420242
3436,5281;0,041868
3437,4922;0,041724
3438,4565;0,0415996
3439,4207;0,0414914
3440,3850;0,0413887
3441,3491;0,0412802
3442,3135;0,0411596
3443,2776;0,0410255
3444,2419;0,040879
3445,2061;0,0407214
3446,1704;0,0405537
3447,1345;0,040378
3448,0989;0,0401989
3449,0630;0,040021
3450,0273;0,0398471
3450,9915;0,0396774
3451,9558;0,0395115
3452,9199;0,0393503
3453,8843;0,0391963
3454,8484;0,0390511
3455,8127;0,0389138
3456,7769;0,03878
3457,7412;0,0386438
3458,7053;0,0385005
3459,6697;0,0383508
3460,6338;0,0382005
3461,5981;0,0380576
3462,5623;0,037927
3463,5266;0,0378064
3464,4907;0,0376854
3465,4551;0,0375514
3466,4192;0,0373967
3467,3835;0,0372226
3468,3477;0,0370394
3469,3120;0,0368594
3470,2761;0,0366909
3471,2405;0,0365359
3472,2046;0,0363928
3473,1689;0,0362603
3474,1331;0,0361388
3475,0974;0,0360271
3476,0615;0,0359182
3477,0259;0,0358001
3477,9900;0,0356616
3478,9543;0,0354992
3479,9185;0,0353214
3480,8828;0,0351446
3481,8469;0,0349829
3482,8113;0,0348399
3483,7754;0,0347073
3484,7397;0,0345728
3485,7039;0,0344293
3486,6682;0,0342787
3487,6323;0,0341292
3488,5967;0,0339886
3489,5608;0,0338582
3490,5251;0,0337331
3491,4893;0,0336053
3492,4536;0,0334684
3493,4177;0,0333215
3494,3821;0,0331706
3495,3462;0,0330274
3496,3105;0,0329055
3497,2747;0,0328131
3498,2390;0,0327465
3499,2031;0,0326884
3500,1675;0,0326129
3501,1316;0,0324959
3502,0959;0,0323285
3503,0601;0,0321255
3504,0244;0,0319175
3504,9885;0,0317305
3505,9529;0,0315694
3506,9170;0,0314192
3507,8813;0,0312582
3508,8455;0,0310729
3509,8098;0,0308672
3510,7739;0,0306589
3511,7383;0,0304686
3512,7024;0,030308
3513,6667;0,0301789
3514,6309;0,030078
3515,5952;0,0300027
3516,5593;0,0299503
3517,5237;0,0299148
3518,4878;0,0298844
3519,4521;0,0298434
3520,4163;0,0297779
3521,3806;0,02968
3522,3447;0,0295496
3523,3091;0,0293905
3524,2732;0,0292061
3525,2375;0,0289972
3526,2017;0,0287655
3527,1660;0,0285194
3528,1301;0,0282763
3529,0945;0,0280576
3530,0586;0,0278781
3531,0229;0,0277391
3531,9871;0,0276295
3532,9514;0,0275324
3533,9155;0,0274326
3534,8799;0,0273201
3535,8440;0,0271925
3536,8083;0,0270577
3537,7725;0,0269324
3538,7368;0,0268352
3539,7009;0,0267765
3540,6653;0,0267501
3541,6294;0,0267323
3542,5938;0,0266881
3543,5579;0,0265845
3544,5222;0,0264116
3545,4863;0,0261951
3546,4507;0,0259834
3547,4148;0,025812
3548,3792;0,0256794
3549,3433;0,0255542
3550,3076;0,0254018
3551,2717;0,0252089
3552,2361;0,024993
3553,2002;0,0247913
3554,1646;0,0246349
3555,1287;0,0245284
3556,0930;0,0244526
3557,0571;0,0243851
3558,0215;0,0243191
3558,9856;0,0242698
3559,9500;0,0242627
3560,9141;0,0243107
3561,8784;0,0243974
3562,8425;0,0244748
3563,8069;0,024473
3564,7710;0,0243178
3565,7354;0,0239686
3566,6995;0,0234783
3567,6638;0,0229975
3568,6279;0,022665
3569,5923;0,022505
3570,5564;0,022449
3571,5208;0,0224124
3572,4849;0,0223441
3573,4492;0,0222357
3574,4133;0,0221074
3575,3777;0,0219855
3576,3418;0,0218835
3577,3062;0,0218011
3578,2703;0,021737
3579,2346;0,0217006
3580,1987;0,0217086
3581,1631;0,0217671
3582,1272;0,0218545
3583,0916;0,0219204
3584,0557;0,0218998
3585,0200;0,0217378
3585,9841;0,0214289
3586,9485;0,0210584
3587,9126;0,0207796
3588,8770;0,0206996
3589,8411;0,0207968
3590,8054;0,0209613
3591,7695;0,0210791
3592,7339;0,0210845
3593,6980;0,0209757
3594,6624;0,020804
3595,6265;0,0206335
3596,5908;0,0204931
3597,5549;0,020363
3598,5193;0,0202083
3599,4834;0,0200235
3600,4478;0,0198484
3601,4119;0,0197383
3602,3762;0,0197148
3603,3403;0,0197439
3604,3047;0,0197559
3605,2688;0,0196817
3606,2332;0,0194854
3607,1973;0,0191838
3608,1616;0,0188418
3609,1257;0,0185359
3610,0901;0,0183118
3611,0542;0,0181746
3612,0186;0,0181101
3612,9827;0,0181018
3613,9470;0,018129
3614,9111;0,0181552
3615,8755;0,0181283
3616,8396;0,0179993
3617,8040;0,017759
3618,7681;0,0174747
3619,7324;0,017281
3620,6965;0,0172957
3621,6609;0,0175318
3622,6250;0,0178982
3623,5894;0,018263
3624,5535;0,0185026
3625,5178;0,0185155
3626,4819;0,0182257
3627,4463;0,0176269
3628,4104;0,0168743
3629,3748;0,0162609
3630,3389;0,0159708
3631,3032;0,0159395
3632,2673;0,0159871
3633,2317;0,0159776
3634,1958;0,0158705
3635,1602;0,0156994
3636,1243;0,0155222
3637,0886;0,015375
3638,0527;0,0152578
3639,0171;0,0151553
3639,9812;0,0150673
3640,9456;0,0150188
3641,9097;0,0150423
3642,8740;0,0151488
3643,8381;0,0153135
3644,8025;0,0154784
3645,7666;0,0155542
3646,7310;0,0154096
3647,6951;0,0149071
3648,6594;0,0140909
3649,6235;0,0133191
3650,5879;0,0129306
3651,5520;0,0129176
3652,5164;0,0130641
3653,4805;0,0131693
3654,4448;0,0131315
3655,4089;0,0129561
3656,3733;0,012732
3657,3374;0,0125673
3658,3018;0,0125097
3659,2659;0,0125279
3660,2302;0,0125669
3661,1943;0,0126076
3662,1587;0,0126789
3663,1228;0,0128204
3664,0872;0,0130316
3665,0513;0,0132554
3666,0156;0,0134037
3666,9797;0,0134037
3667,9441;0,0132453
3668,9082;0,0130139
3669,8726;0,012856
3670,8367;0,0128564
3671,8010;0,0129546
3672,7651;0,0129977
3673,7295;0,0128482
3674,6936;0,0124774
3675,6580;0,0120244
3676,6221;0,0117165
3677,5864;0,0116657
3678,5505;0,0118054
3679,5149;0,0120144
3680,4790;0,0122242
3681,4434;0,0124321
3682,4075;0,012659
3683,3718;0,0129039
3684,3359;0,0131278
3685,3003;0,0132699
3686,2644;0,0132763
3687,2288;0,0131256
3688,1929;0,0128557
3689,1572;0,0125798
3690,1213;0,0124342
3691,0857;0,0124724
3692,0498;0,0126432
3693,0142;0,0128656
3693,9783;0,0130876
3694,9426;0,0132909
3695,9067;0,013468
3696,8711;0,0136028
3697,8352;0,0136686
3698,7996;0,0136422
3699,7637;0,0135262
3700,7280;0,0133663
3701,6921;0,0132446
3702,6565;0,0132392
3703,6206;0,0133765
3704,5850;0,013621
3705,5491;0,0139035
3706,5134;0,0141482
3707,4775;0,0142774
3708,4419;0,0142004
3709,4060;0,0138293
3710,3704;0,0131699
3711,3345;0,0124218
3712,2988;0,0118821
3713,2629;0,0117108
3714,2273;0,0118656
3715,1914;0,0122133
3716,1558;0,0126317
3717,1199;0,0130446
3718,0842;0,0134174
3719,0483;0,0137418
3720,0127;0,0140179
3720,9768;0,0142412
3721,9412;0,0143988
3722,9053;0,0144781
3723,8696;0,0144854
3724,8337;0,0144578
3725,7981;0,0144508
3726,7622;0,014505
3727,7266;0,0146227
3728,6907;0,0147735
3729,6550;0,0149165
3730,6191;0,0150125
3731,5835;0,0150172
3732,5476;0,0148662
3733,5120;0,0144917
3734,4761;0,0139118
3735,4404;0,0133122
3736,4045;0,012941
3737,3689;0,0128999
3738,3330;0,0130987
3739,2974;0,0133598
3740,2615;0,0135148
3741,2258;0,0134471
3742,1899;0,0131187
3743,1543;0,0126139
3744,1184;0,0121561
3745,0828;0,0119781
3746,0469;0,012114
3747,0112;0,0123826
3747,9753;0,0125383
3748,9397;0,0123956
3749,9038;0,0119237
3750,8682;0,0113346
3751,8323;0,0109717
3752,7966;0,0109955
3753,7607;0,0112913
3754,7251;0,011647
3755,6892;0,0118978
3756,6536;0,0119655
3757,6177;0,0118599
3758,5820;0,0116693
3759,5461;0,0115147
3760,5105;0,0114734
3761,4746;0,0115432
3762,4390;0,0116704
3763,4031;0,0117962
3764,3674;0,0118805
3765,3315;0,0119028
3766,2959;0,011853
3767,2600;0,0117256
3768,2244;0,0115274
3769,1885;0,0112938
3770,1528;0,0110951
3771,1169;0,0110083
3772,0813;0,0110703
3773,0454;0,0112547
3774,0098;0,0114886
3774,9739;0,0116879
3775,9382;0,0117859
3776,9023;0,0117549
3777,8667;0,0116204
3778,8308;0,0114578
3779,7952;0,0113508
3780,7593;0,0113366
3781,7236;0,0113918
3782,6877;0,0114619
3783,6521;0,0114988
3784,6162;0,0114817
3785,5806;0,0114212
3786,5447;0,0113494
3787,5090;0,0113044
3788,4731;0,0113142
3789,4375;0,0113872
3790,4016;0,011511
3791,3660;0,0116589
3792,3301;0,0118025
3793,2944;0,0119252
3794,2585;0,0120289
3795,2229;0,0121273
3796,1870;0,0122258
3797,1514;0,0123034
3798,1155;0,0123132
3799,0798;0,0122096
3800,0439;0,011992
3801,0083;0,0117338
3801,9724;0,0115415
3802,9368;0,0114579
3803,9009;0,0114214
3804,8652;0,0113307
3805,8293;0,0111401
3806,7937;0,010918
3807,7578;0,0108128
3808,7222;0,0109318
3809,6863;0,0112486
3810,6506;0,0116361
3811,6147;0,0119587
3812,5791;0,0121364
3813,5432;0,0121677
3814,5076;0,012125
3815,4717;0,0121102
3816,4360;0,0121727
3817,4001;0,0122587
3818,3645;0,0122499
3819,3286;0,0120595
3820,2930;0,0117201
3821,2571;0,0113903
3822,2214;0,0112334
3823,1855;0,0112854
3824,1499;0,0114597
3825,1140;0,0116429
3826,0784;0,0117651
3827,0425;0,0118163
3828,0068;0,0118277
3828,9709;0,0118406
3829,9353;0,0118811
3830,8994;0,0119546
3831,8638;0,0120527
3832,8279;0,0121619
3833,7922;0,012265
3834,7563;0,0123375
3835,7207;0,012348
3836,6848;0,0122694
3837,6492;0,0121025
3838,6133;0,0118905
3839,5776;0,0116935
3840,5417;0,0115434
3841,5061;0,0114345
3842,4702;0,0113569
3843,4346;0,0113305
3844,3987;0,0114033
3845,3630;0,0116169
3846,3271;0,0119691
3847,2915;0,0124026
3848,2556;0,0128207
3849,2200;0,0131054
3850,1841;0,0131227
3851,1484;0,012733
3852,1125;0,0118923
3853,0769;0,0108751
3854,0410;0,0102179
3855,0054;0,010182
3855,9695;0,0105857
3856,9338;0,0111343
3857,8979;0,0116337
3858,8623;0,0119996
3859,8264;0,0122126
3860,7908;0,0122856
3861,7549;0,012252
3862,7192;0,0121669
3863,6833;0,012098
3864,6477;0,0120918
3865,6118;0,0121448
3866,5762;0,0122113
3867,5403;0,0122355
3868,5046;0,0121776
3869,4688;0,012031
3870,4331;0,0118304
3871,3972;0,011641
3872,3616;0,0115281
3873,3257;0,0115234
3874,2900;0,0116157
3875,2542;0,0117628
3876,2185;0,0119128
3877,1826;0,0120243
3878,1470;0,0120796
3879,1111;0,0120882
3880,0754;0,0120741
3881,0396;0,0120501
3882,0039;0,0120006
3882,9680;0,0118987
3883,9324;0,0117471
3884,8965;0,0116018
3885,8608;0,0115407
3886,8250;0,0115976
3887,7893;0,0117262
3888,7534;0,0118303
3889,7178;0,0118295
3890,6819;0,0117186
3891,6462;0,0115879
3892,6104;0,0115646
3893,5747;0,0117083
3894,5388;0,011974
3895,5032;0,0122653
3896,4673;0,012499
3897,4316;0,0126324
3898,3958;0,0126586
3899,3601;0,0125876
3900,3242;0,0124268
3901,2886;0,0121766
3902,2527;0,0118516
3903,2170;0,0115076
3904,1812;0,0112333
3905,1455;0,0110973
3906,1096;0,0111047
3907,0740;0,0112073
3908,0381;0,0113458
3909,0024;0,011483
3909,9666;0,0116112
3910,9309;0,0117398
3911,8950;0,011874
3912,8594;0,0120003
3913,8235;0,0120874
3914,7878;0,0121027
3915,7520;0,012037
3916,7163;0,0119224
3917,6804;0,0118235
3918,6448;0,0117969
3919,6089;0,0118514
3920,5732;0,0119449
3921,5374;0,0120163
3922,5017;0,0120234
3923,4658;0,0119676
3924,4302;0,0118936
3925,3943;0,0118586
3926,3586;0,0118912
3927,3228;0,0119738
3928,2871;0,0120567
3929,2512;0,0120871
3930,2156;0,0120354
3931,1797;0,0119122
3932,1440;0,011765
3933,1082;0,0116503
3934,0725;0,0116015
3935,0366;0,0116187
3936,0010;0,011681
3936,9651;0,0117616
3937,9294;0,0118354
3938,8936;0,0118825
3939,8579;0,0118909
3940,8220;0,011864
3941,7864;0,0118241
3942,7505;0,0118054
3943,7148;0,0118338
3944,6790;0,0119076
3945,6433;0,0119961
3946,6074;0,0120551
3947,5718;0,0120498
3948,5359;0,0119743
3949,5002;0,011856
3950,4644;0,0117405
3951,4287;0,0116644
3952,3928;0,0116395
3953,3572;0,0116553
3954,3213;0,0116915
3955,2856;0,0117289
3956,2498;0,0117549
3957,2141;0,0117644
3958,1782;0,0117579
3959,1426;0,0117395
3960,1067;0,0117157
3961,0710;0,0116934
3962,0352;0,0116792
3962,9995;0,0116772
3963,9636;0,0116886
3964,9280;0,0117116
3965,8921;0,0117414
3966,8564;0,0117716
3967,8206;0,0117959
3968,7849;0,0118101
3969,7490;0,0118137
3970,7134;0,0118091
3971,6775;0,0117994
3972,6418;0,0117859
3973,6060;0,0117682
3974,5703;0,0117461
3975,5344;0,0117223
3976,4988;0,0117016
3977,4629;0,0116877
3978,4272;0,0116804
3979,3914;0,0116748
3980,3557;0,011665
3981,3198;0,0116486
3982,2842;0,0116303
3983,2483;0,01162
3984,2126;0,0116274
3985,1768;0,0116563
3986,1411;0,0117024
3987,1052;0,0117544
3988,0696;0,0117991
3989,0337;0,0118258
3989,9980;0,0118303
3990,9622;0,011815
3991,9265;0,011787
3992,8906;0,0117544
3993,8550;0,0117237
3994,8191;0,0116978
3995,7834;0,0116772
3996,7476;0,0116618
3997,7119;0,0116524
3998,6760;0,0116517
3999,6404;0,0116621
4000,6045;0,0117645

##### Extended Information
[Comments]
Sample name
Comment
Username
Division
Organization;UNIVERSIDAD INDUSTRIAL DE SANTANDER

[Detailed Information]
Creation date;19/02/2025 3:24 p.m.

Data array type;Linear data array
Horizontal axis;Wavenumber [cm-1]
Vertical axis;Abs
Start;399,193 cm-1
End;4000,6 cm-1
Data interval;0,964233 cm-1
Data points;3736    

[Measurement Information]
Model name;FT/IR-4X1typeA
Serial No.;A035162111

Accessory;ATR PRO 4X
Accessory S/N;A021162126
Incident angle;45 deg

Measurement date;19/02/2025 3:23 p.m.

Light source;Standard
Detector;TGS
Accumulation;20
Resolution;4 cm-1
Zero filling;On
Apodization;Cosine
Gain;Auto (8)
Aperture;Auto (7 mm)
Scan speed;Auto (2 mm/sec)
Filter;Auto (12800 Hz)

