TITLE;
DATA TYPE;INFRARED SPECTRUM
ORIGIN;JASCO
OWNER;
DATE;25/02/19
TIME;15:20:40
SPECTROMETER/DATA SYSTEM;
LOCALE;9226
RESOLUTION;
DELTAX;0,964233
XUNITS;1/CM
YUNITS;ABSORBANCE
FIRSTX;  399,1927
LASTX; 4000,6047
NPOINTS;    3736
FIRSTY;     0,18026
MAXY;     0,26590
MINY;     0,01398
XYDATA
399,1927;0,180257
400,1569;0,17816
401,1211;0,176857
402,0854;0,176141
403,0496;0,175746
404,0138;0,175502
404,9781;0,175326
405,9423;0,175165
406,9065;0,174951
407,8708;0,174627
408,8350;0,17421
409,7992;0,17384
410,7635;0,173736
411,7277;0,174044
412,6919;0,174695
413,6562;0,175419
414,6204;0,1759
415,5846;0,17595
416,5489;0,175619
417,5131;0,175291
418,4773;0,175598
419,4416;0,176927
420,4058;0,17896
421,3700;0,181054
422,3343;0,182828
423,2985;0,184218
424,2627;0,185257
425,2270;0,185958
426,1912;0,186307
427,1554;0,186326
428,1197;0,186108
429,0839;0,185798
430,0481;0,185529
431,0124;0,185367
431,9766;0,18531
432,9408;0,185334
433,9051;0,185465
434,8693;0,185782
435,8335;0,186343
436,7978;0,187077
437,7620;0,187754
438,7262;0,188078
439,6905;0,187831
440,6547;0,18699
441,6189;0,185771
442,5832;0,184564
443,5474;0,183775
444,5116;0,183627
445,4759;0,184065
446,4401;0,184824
447,4043;0,185563
448,3686;0,185978
449,3328;0,185862
450,2970;0,185175
451,2613;0,184085
452,2255;0,182941
453,1897;0,182144
454,1540;0,181964
455,1182;0,182413
456,0824;0,183209
457,0467;0,183868
458,0109;0,183961
458,9751;0,183415
459,9394;0,182543
460,9036;0,181757
461,8678;0,181269
462,8321;0,181036
463,7963;0,180865
464,7605;0,180581
465,7248;0,180145
466,6890;0,179683
467,6532;0,179395
468,6175;0,179422
469,5817;0,179773
470,5459;0,180337
471,5102;0,18094
472,4744;0,181431
473,4386;0,181741
474,4029;0,181874
475,3671;0,181874
476,3313;0,18178
477,2956;0,181632
478,2598;0,181476
479,2240;0,181369
480,1883;0,181363
481,1525;0,18149
482,1167;0,181763
483,0810;0,182183
484,0452;0,18274
485,0094;0,183398
485,9737;0,18409
486,9379;0,184713
487,9021;0,18516
488,8664;0,185348
489,8306;0,185245
490,7948;0,184902
491,7591;0,184444
492,7233;0,184038
493,6875;0,183826
494,6518;0,183873
495,6160;0,184164
496,5802;0,184639
497,5445;0,185231
498,5087;0,185886
499,4729;0,186557
500,4372;0,187191
501,4014;0,187723
502,3656;0,188105
503,3299;0,188324
504,2941;0,188415
505,2583;0,188441
506,2226;0,188466
507,1868;0,188553
508,1510;0,188766
509,1153;0,189159
510,0795;0,189765
511,0437;0,190557
512,0080;0,191439
512,9722;0,192272
513,9365;0,192922
514,9007;0,193316
515,8649;0,193477
516,8292;0,193514
517,7934;0,193567
518,7576;0,193727
519,7219;0,193995
520,6861;0,194306
521,6503;0,194588
522,6146;0,194804
523,5788;0,194954
524,5430;0,195065
525,5073;0,195167
526,4715;0,195276
527,4357;0,195373
528,4000;0,19541
529,3642;0,195335
530,3284;0,195127
531,2927;0,194811
532,2569;0,194455
533,2211;0,194132
534,1854;0,193868
535,1496;0,193623
536,1138;0,193325
537,0781;0,192946
538,0423;0,192549
539,0065;0,192268
539,9708;0,192228
540,9350;0,192454
541,8992;0,192856
542,8635;0,193282
543,8277;0,193622
544,7919;0,193873
545,7562;0,194127
546,7204;0,194488
547,6846;0,194985
548,6489;0,19554
549,6131;0,196025
550,5773;0,196345
551,5416;0,196508
552,5058;0,196619
553,4700;0,19683
554,4343;0,197266
555,3985;0,197962
556,3627;0,198828
557,3270;0,199653
558,2912;0,200161
559,2554;0,20011
560,2197;0,199395
561,1839;0,198107
562,1481;0,196512
563,1124;0,194934
564,0766;0,19362
565,0408;0,192651
566,0051;0,191949
566,9693;0,191366
567,9335;0,190782
568,8978;0,190164
569,8620;0,189555
570,8262;0,189012
571,7905;0,188564
572,7547;0,188207
573,7189;0,187931
574,6832;0,187735
575,6474;0,187625
576,6116;0,187589
577,5759;0,187593
578,5401;0,187589
579,5043;0,187546
580,4686;0,187458
581,4328;0,187336
582,3970;0,187189
583,3613;0,187009
584,3255;0,186789
585,2897;0,186542
586,2540;0,186313
587,2182;0,18616
588,1824;0,186124
589,1467;0,186207
590,1109;0,186362
591,0751;0,186527
592,0394;0,186648
593,0036;0,186706
593,9678;0,186708
594,9321;0,186664
595,8963;0,186566
596,8605;0,186392
597,8248;0,186116
598,7890;0,185736
599,7532;0,185273
600,7175;0,184778
601,6817;0,184301
602,6459;0,183882
603,6102;0,183539
604,5744;0,183262
605,5386;0,183016
606,5029;0,182745
607,4671;0,182383
608,4313;0,181874
609,3956;0,181197
610,3598;0,180385
611,3240;0,179513
612,2883;0,178678
613,2525;0,177951
614,2167;0,177351
615,1810;0,176824
616,1452;0,176262
617,1094;0,175541
618,0737;0,174574
619,0379;0,173359
620,0021;0,171971
620,9664;0,170523
621,9306;0,169124
622,8948;0,167846
623,8591;0,166719
624,8233;0,16572
625,7875;0,164857
626,7518;0,164101
627,7160;0,16343
628,6802;0,162815
629,6445;0,162225
630,6087;0,161625
631,5729;0,160996
632,5372;0,160347
633,5014;0,159708
634,4656;0,159114
635,4299;0,158581
636,3941;0,158095
637,3583;0,157631
638,3226;0,157185
639,2868;0,156776
640,2510;0,156439
641,2153;0,156183
642,1795;0,155977
643,1437;0,155756
644,1080;0,155464
645,0722;0,155093
646,0364;0,154686
647,0007;0,154314
647,9649;0,154029
648,9291;0,153835
649,8934;0,153696
650,8576;0,153569
651,8218;0,153435
652,7861;0,153314
653,7503;0,153246
654,7145;0,153267
655,6788;0,153392
656,6430;0,1536
657,6072;0,153844
658,5715;0,154058
659,5357;0,154164
660,4999;0,154097
661,4642;0,153837
662,4284;0,153414
663,3926;0,15289
664,3569;0,152343
665,3211;0,151891
666,2853;0,151675
667,2496;0,151674
668,2138;0,151447
669,1780;0,150511
670,1423;0,14908
671,1065;0,147611
672,0707;0,146208
673,0350;0,144767
673,9992;0,143213
674,9634;0,141561
675,9277;0,139886
676,8919;0,138254
677,8561;0,136691
678,8204;0,135185
679,7846;0,13373
680,7488;0,132348
681,7131;0,131084
682,6773;0,129978
683,6415;0,129042
684,6058;0,128266
685,5700;0,12762
686,5342;0,12706
687,4985;0,126534
688,4627;0,125995
689,4269;0,125413
690,3912;0,124791
691,3554;0,124159
692,3196;0,123558
693,2839;0,123009
694,2481;0,122513
695,2123;0,122052
696,1766;0,121607
697,1408;0,121172
698,1050;0,12075
699,0693;0,120342
700,0335;0,119934
700,9977;0,119494
701,9620;0,118988
702,9262;0,118399
703,8904;0,117742
704,8547;0,117071
705,8189;0,116448
706,7831;0,115907
707,7474;0,115435
708,7116;0,114977
709,6758;0,114472
710,6401;0,113882
711,6043;0,113209
712,5685;0,112484
713,5328;0,111755
714,4970;0,111063
715,4612;0,110102
716,4255;0,109605
717,3897;0,109175
718,3539;0,108738
719,3182;0,108196
720,2824;0,107465
721,2466;0,106527
722,2109;0,105441
723,1751;0,104317
724,1393;0,103258
725,1036;0,102316
726,0678;0,101487
727,0320;0,10073
727,9963;0,0999982
728,9605;0,0992649
729,9247;0,098534
730,8890;0,0978292
731,8532;0,0971772
732,8174;0,0965945
733,7817;0,0960833
734,7459;0,0956334
735,7101;0,0952258
736,6744;0,094837
737,6386;0,0944435
738,6028;0,0940278
739,5671;0,093584
740,5313;0,0931184
741,4955;0,0926438
742,4598;0,0921703
743,4240;0,091699
744,3882;0,0912241
745,3525;0,0907403
746,3167;0,0902498
747,2809;0,089761
748,2452;0,0892796
749,2094;0,0887993
750,1736;0,0883016
751,1379;0,0877674
752,1021;0,0871926
753,0663;0,0865961
754,0306;0,0860125
754,9948;0,085473
755,9590;0,0849881
756,9233;0,0845437
757,8875;0,0841138
758,8517;0,0836787
759,8160;0,0832375
760,7802;0,0828052
761,7444;0,0823985
762,7087;0,0820222
763,6729;0,0816639
764,6371;0,0813022
765,6014;0,0809197
766,5656;0,080513
767,5298;0,0800927
768,4941;0,0796765
769,4583;0,0792794
770,4225;0,0789093
771,3868;0,0785673
772,3510;0,0782512
773,3152;0,0779567
774,2795;0,0776769
775,2437;0,0774019
776,2079;0,0771213
777,1722;0,0768299
778,1364;0,0765317
779,1006;0,0762395
780,0649;0,0759674
781,0291;0,0757216
781,9933;0,0754962
782,9576;0,0752753
783,9218;0,0750427
784,8860;0,0747893
785,8503;0,0745178
786,8145;0,0742391
787,7787;0,073967
788,7430;0,0737128
789,7072;0,0734829
790,6714;0,0732771
791,6357;0,0730888
792,5999;0,0729064
793,5641;0,0727177
794,5284;0,0725162
795,4926;0,0723054
796,4568;0,0720973
797,4211;0,071904
798,3853;0,0717291
799,3495;0,0715662
800,3138;0,0714062
801,2780;0,0712484
802,2422;0,0711044
803,2065;0,0709894
804,1707;0,0709065
805,1349;0,0708371
806,0992;0,0707475
807,0634;0,0706104
808,0276;0,0704245
808,9919;0,0702175
809,9561;0,0700291
810,9203;0,0698857
811,8846;0,0697857
812,8488;0,0697056
813,8130;0,0696201
814,7773;0,0695204
815,7415;0,0694177
816,7057;0,069332
817,6700;0,0692753
818,6342;0,069244
819,5984;0,0692214
820,5627;0,0691878
821,5269;0,0691285
822,4911;0,0690376
823,4554;0,0689184
824,4196;0,0687819
825,3839;0,0686444
826,3481;0,0685225
827,3123;0,068425
828,2766;0,0683479
829,2408;0,0682759
830,2050;0,0681898
831,1693;0,0680772
832,1335;0,0679363
833,0977;0,0677729
834,0620;0,0675915
835,0262;0,0673909
835,9904;0,0671653
836,9547;0,0669119
837,9189;0,0666368
838,8831;0,0663556
839,8474;0,066087
840,8116;0,0658457
841,7758;0,0656372
842,7401;0,0654591
843,7043;0,0653041
844,6685;0,0651651
845,6328;0,0650365
846,5970;0,0649152
847,5612;0,0647993
848,5255;0,0646872
849,4897;0,064578
850,4539;0,0644719
851,4182;0,0643714
852,3824;0,0642816
853,3466;0,0642078
854,3109;0,064152
855,2751;0,0641084
856,2393;0,0640631
857,2036;0,0639985
858,1678;0,0639035
859,1320;0,0637818
860,0963;0,0636548
861,0605;0,0635538
862,0247;0,063507
862,9890;0,0635275
863,9532;0,0636097
864,9174;0,0637354
865,8817;0,0638859
866,8459;0,064051
867,8101;0,064231
868,7744;0,0644309
869,7386;0,0646526
870,7028;0,0648901
871,6671;0,0651303
872,6313;0,0653572
873,5955;0,0655579
874,5598;0,0657263
875,5240;0,0658656
876,4882;0,065989
877,4525;0,0661177
878,4167;0,0662777
879,3809;0,0664923
880,3452;0,0667768
881,3094;0,067135
882,2736;0,067563
883,2379;0,0680561
884,2021;0,0686166
885,1663;0,0692556
886,1306;0,0699875
887,0948;0,0708206
888,0590;0,0717485
889,0233;0,0727472
889,9875;0,0737803
890,9517;0,0748068
891,9160;0,0757887
892,8802;0,0766935
893,8444;0,0774926
894,8087;0,0781574
895,7729;0,0786581
896,7371;0,0789655
897,7014;0,0790559
898,6656;0,0789173
899,6298;0,0785546
900,5941;0,0779923
901,5583;0,0772735
902,5225;0,0764553
903,4868;0,0755993
904,4510;0,0747614
905,4152;0,0739822
906,3795;0,0732833
907,3437;0,0726688
908,3079;0,072133
909,2722;0,0716672
910,2364;0,0712663
911,2007;0,0709296
912,1649;0,0706597
913,1292;0,0704598
914,0934;0,0703322
915,0576;0,0702774
916,0219;0,0702939
916,9861;0,0703779
917,9503;0,0705226
918,9146;0,0707171
919,8788;0,0709472
920,8430;0,0711971
921,8073;0,0714529
922,7715;0,071706
923,7357;0,0719544
924,7000;0,0722001
925,6642;0,0724442
926,6284;0,0726835
927,5927;0,0729111
928,5569;0,0731221
929,5211;0,0733204
930,4854;0,0735205
931,4496;0,0737436
932,4138;0,0740069
933,3781;0,0743171
934,3423;0,0746697
935,3065;0,0750563
936,2708;0,0754735
937,2350;0,075927
938,1992;0,0764277
939,1635;0,0769855
940,1277;0,0776048
941,0919;0,0782854
942,0562;0,0790278
943,0204;0,0798362
943,9846;0,0807179
944,9489;0,0816796
945,9131;0,0827231
946,8773;0,0838443
947,8416;0,0850354
948,8058;0,0862887
949,7700;0,0875996
950,7343;0,088969
951,6985;0,0904049
952,6627;0,0919202
953,6270;0,0935288
954,5912;0,0952386
955,5554;0,0970452
956,5197;0,0989309
957,4839;0,10087
958,4481;0,102839
959,4124;0,104817
960,3766;0,106796
961,3408;0,108767
962,3051;0,110724
963,2693;0,112664
964,2335;0,114592
965,1978;0,116525
966,1620;0,11849
967,1262;0,120515
968,0905;0,122617
969,0547;0,1248
970,0189;0,127063
970,9832;0,129414
971,9474;0,131885
972,9116;0,134533
973,8759;0,137427
974,8401;0,140625
975,8043;0,144155
976,7686;0,148006
977,7328;0,152129
978,6970;0,156445
979,6613;0,160855
980,6255;0,165249
981,5897;0,169508
982,5540;0,173519
983,5182;0,177184
984,4824;0,180448
985,4467;0,183301
986,4109;0,185779
987,3751;0,187945
988,3394;0,189866
989,3036;0,191592
990,2678;0,193155
991,2321;0,194572
992,1963;0,195852
993,1605;0,197011
994,1248;0,19807
995,0890;0,199057
996,0532;0,200003
997,0175;0,200939
997,9817;0,201887
998,9459;0,202861
999,9102;0,20387
1000,8744;0,204922
1001,8386;0,206032
1002,8029;0,20723
1003,7671;0,208552
1004,7313;0,210037
1005,6956;0,21172
1006,6598;0,213626
1007,6240;0,215772
1008,5883;0,218166
1009,5525;0,220802
1010,5167;0,22366
1011,4810;0,226699
1012,4452;0,229857
1013,4094;0,233061
1014,3737;0,236234
1015,3379;0,239305
1016,3021;0,242217
1017,2664;0,244933
1018,2306;0,24743
1019,1948;0,249707
1020,1591;0,251779
1021,1233;0,253676
1022,0875;0,255436
1023,0518;0,257095
1024,0160;0,258677
1024,9802;0,260189
1025,9445;0,261614
1026,9087;0,262923
1027,8729;0,264068
1028,8372;0,264994
1029,8014;0,265631
1030,7656;0,265899
1031,7299;0,265716
1032,6941;0,265017
1033,6583;0,263771
1034,6226;0,262006
1035,5868;0,259817
1036,5510;0,257356
1037,5153;0,254814
1038,4795;0,25238
1039,4437;0,25022
1040,4080;0,248443
1041,3722;0,247094
1042,3364;0,246154
1043,3007;0,24555
1044,2649;0,245175
1045,2291;0,24491
1046,1934;0,244642
1047,1576;0,244276
1048,1218;0,243743
1049,0861;0,242995
1050,0503;0,242003
1051,0145;0,240757
1051,9788;0,239261
1052,9430;0,237532
1053,9072;0,23559
1054,8715;0,233449
1055,8357;0,2311
1056,7999;0,228509
1057,7642;0,22562
1058,7284;0,222386
1059,6926;0,218796
1060,6569;0,214896
1061,6211;0,210791
1062,5853;0,206619
1063,5496;0,202524
1064,5138;0,198619
1065,4780;0,194978
1066,4423;0,19163
1067,4065;0,188574
1068,3707;0,185788
1069,3350;0,183237
1070,2992;0,180876
1071,2634;0,178652
1072,2277;0,176505
1073,1919;0,174374
1074,1561;0,172201
1075,1204;0,169946
1076,0846;0,167593
1077,0488;0,165158
1078,0131;0,162695
1078,9773;0,160285
1079,9415;0,158017
1080,9058;0,155967
1081,8700;0,154177
1082,8342;0,152655
1083,7985;0,151376
1084,7627;0,150301
1085,7269;0,14939
1086,6912;0,14861
1087,6554;0,147936
1088,6196;0,147346
1089,5839;0,146827
1090,5481;0,146371
1091,5123;0,145984
1092,4766;0,145679
1093,4408;0,145473
1094,4050;0,145375
1095,3693;0,145378
1096,3335;0,145461
1097,2977;0,145593
1098,2620;0,145748
1099,2262;0,145909
1100,1904;0,146066
1101,1547;0,146208
1102,1189;0,146316
1103,0831;0,146359
1104,0474;0,146307
1105,0116;0,14614
1105,9758;0,145856
1106,9401;0,14547
1107,9043;0,144999
1108,8685;0,14444
1109,8328;0,143761
1110,7970;0,142908
1111,7612;0,141831
1112,7255;0,140509
1113,6897;0,138973
1114,6539;0,137303
1115,6182;0,135607
1116,5824;0,133986
1117,5466;0,132507
1118,5109;0,131187
1119,4751;0,129993
1120,4393;0,128851
1121,4036;0,127664
1122,3678;0,126334
1123,3320;0,124779
1124,2963;0,122954
1125,2605;0,120852
1126,2247;0,11851
1127,1890;0,115991
1128,1532;0,113367
1129,1174;0,110703
1130,0817;0,108046
1131,0459;0,105429
1132,0101;0,102874
1132,9744;0,10041
1133,9386;0,0980729
1134,9028;0,0959093
1135,8671;0,0939693
1136,8313;0,0922972
1137,7955;0,0909236
1138,7598;0,0898592
1139,7240;0,0890949
1140,6882;0,0886039
1141,6525;0,0883484
1142,6167;0,0882879
1143,5809;0,0883866
1144,5452;0,0886186
1145,5094;0,0889686
1146,4736;0,0894287
1147,4379;0,0899924
1148,4021;0,0906499
1149,3663;0,091386
1150,3306;0,0921808
1151,2948;0,0930102
1152,2590;0,0938465
1153,2233;0,0946564
1154,1875;0,0953988
1155,1517;0,0960249
1156,1160;0,0964803
1157,0802;0,0967078
1158,0444;0,0966498
1159,0087;0,0962492
1159,9729;0,0954506
1160,9371;0,094206
1161,9014;0,0924856
1162,8656;0,0902918
1163,8298;0,0876687
1164,7941;0,0847027
1165,7583;0,0815115
1166,7225;0,0782254
1167,6868;0,0749667
1168,6510;0,0718346
1169,6152;0,0688982
1170,5795;0,0661981
1171,5437;0,0637539
1172,5079;0,0615727
1173,4722;0,0596549
1174,4364;0,0579948
1175,4006;0,0565788
1176,3649;0,0553835
1177,3291;0,054377
1178,2933;0,0535247
1179,2576;0,0527963
1180,2218;0,0521722
1181,1860;0,0516435
1182,1503;0,0512086
1183,1145;0,0508668
1184,0787;0,0506145
1185,0430;0,0504455
1186,0072;0,0503545
1186,9714;0,0503418
1187,9357;0,0504146
1188,8999;0,0505838
1189,8641;0,0508594
1190,8284;0,0512445
1191,7926;0,0517338
1192,7568;0,0523161
1193,7211;0,0529784
1194,6853;0,0537098
1195,6495;0,0545018
1196,6138;0,0553459
1197,5780;0,0562288
1198,5422;0,0571316
1199,5065;0,0579135
1200,4707;0,0588048
1201,4349;0,0596622
1202,3992;0,060484
1203,3634;0,0612768
1204,3276;0,0620502
1205,2919;0,0628113
1206,2561;0,0635632
1207,2203;0,064309
1208,1846;0,0650584
1209,1488;0,0658314
1210,1130;0,0666575
1211,0773;0,0675665
1212,0415;0,0685779
1213,0057;0,0696917
1213,9700;0,0708883
1214,9342;0,0721354
1215,8984;0,0733996
1216,8627;0,0746554
1217,8269;0,0758878
1218,7911;0,0770913
1219,7554;0,0782643
1220,7196;0,0794044
1221,6838;0,0805075
1222,6481;0,0815683
1223,6123;0,0825823
1224,5765;0,0835453
1225,5408;0,0844531
1226,5050;0,0853015
1227,4692;0,0860874
1228,4335;0,08681
1229,3977;0,0874709
1230,3619;0,0880714
1231,3262;0,0886102
1232,2904;0,0890821
1233,2546;0,0894809
1234,2189;0,0898045
1235,1831;0,090059
1236,1473;0,0902577
1237,1116;0,0904161
1238,0758;0,0905436
1239,0400;0,0906393
1240,0043;0,0906923
1240,9685;0,0906869
1241,9327;0,09061
1242,8970;0,0904555
1243,8612;0,0902253
1244,8254;0,0899265
1245,7897;0,0895683
1246,7539;0,0891596
1247,7181;0,0887083
1248,6824;0,0882213
1249,6466;0,087705
1250,6108;0,0871653
1251,5751;0,0866084
1252,5393;0,086041
1253,5035;0,0854701
1254,4678;0,084901
1255,4320;0,0843342
1256,3962;0,0837647
1257,3605;0,0831828
1258,3247;0,0825775
1259,2889;0,0819403
1260,2532;0,081267
1261,2174;0,0805568
1262,1816;0,0798109
1263,1459;0,0790305
1264,1101;0,0782175
1265,0743;0,0773746
1266,0386;0,0765043
1267,0028;0,0756081
1267,9670;0,0746856
1268,9313;0,0737363
1269,8955;0,0727629
1270,8597;0,0717726
1271,8240;0,0707763
1272,7882;0,0697854
1273,7524;0,0688095
1274,7167;0,067856
1275,6809;0,0669321
1276,6451;0,0660448
1277,6094;0,0651984
1278,5736;0,0643911
1279,5378;0,0636147
1280,5021;0,0628589
1281,4663;0,062118
1282,4305;0,0613944
1283,3948;0,0606972
1284,3590;0,0600368
1285,3232;0,0594209
1286,2875;0,0588542
1287,2517;0,0583421
1288,2159;0,0578934
1289,1802;0,0575179
1290,1444;0,0572223
1291,1086;0,0570061
1292,0729;0,0568629
1293,0371;0,0567851
1294,0013;0,0567692
1294,9656;0,0568162
1295,9298;0,0569297
1296,8940;0,0571127
1297,8583;0,0573666
1298,8225;0,057692
1299,7867;0,0580898
1300,7510;0,0585588
1301,7152;0,0590949
1302,6794;0,0596884
1303,6437;0,0603275
1304,6079;0,0610037
1305,5721;0,0617138
1306,5364;0,0624579
1307,5006;0,0632346
1308,4648;0,0640365
1309,4291;0,0648485
1310,3933;0,0656505
1311,3575;0,0664206
1312,3218;0,0671382
1313,2860;0,067785
1314,2502;0,0683447
1315,2145;0,0687994
1316,1787;0,0691279
1317,1429;0,0693085
1318,1072;0,0693289
1319,0714;0,0691988
1320,0356;0,0689549
1320,9999;0,0686523
1321,9641;0,0683453
1322,9283;0,0680713
1323,8926;0,0678468
1324,8568;0,067671
1325,8210;0,0675328
1326,7853;0,067418
1327,7495;0,067312
1328,7137;0,0672012
1329,6780;0,0670718
1330,6422;0,0669108
1331,6064;0,0667091
1332,5707;0,0664638
1333,5349;0,0661778
1334,4991;0,0658524
1335,4634;0,0654781
1336,4276;0,0650301
1337,3918;0,0644761
1338,3561;0,0638006
1339,3203;0,0630366
1340,2845;0,0622676
1341,2488;0,0615828
1342,2130;0,0610278
1343,1772;0,0605966
1344,1415;0,06026
1345,1057;0,0599941
1346,0699;0,0597929
1347,0342;0,0596658
1347,9984;0,059628
1348,9626;0,0596906
1349,9269;0,0598544
1350,8911;0,0601088
1351,8553;0,060437
1352,8196;0,0608235
1353,7838;0,0612609
1354,7480;0,0617509
1355,7123;0,0622988
1356,6765;0,062904
1357,6407;0,0635555
1358,6050;0,0642351
1359,5692;0,0649225
1360,5334;0,0655939
1361,4977;0,0662203
1362,4619;0,0667798
1363,4261;0,0672777
1364,3904;0,0677413
1365,3546;0,0681924
1366,3188;0,0686303
1367,2831;0,0690372
1368,2473;0,0693891
1369,2115;0,0696615
1370,1758;0,0698299
1371,1400;0,0698664
1372,1042;0,0697391
1373,0685;0,0694238
1374,0327;0,0689278
1374,9969;0,0683035
1375,9612;0,0676195
1376,9254;0,0669044
1377,8896;0,0661284
1378,8539;0,0652414
1379,8181;0,0642291
1380,7823;0,0631383
1381,7466;0,0620495
1382,7108;0,0610164
1383,6750;0,0600288
1384,6393;0,0590286
1385,6035;0,0579665
1386,5677;0,0568681
1387,5320;0,0558536
1388,4962;0,0550613
1389,4604;0,0545358
1390,4247;0,0542099
1391,3889;0,0539774
1392,3531;0,0537637
1393,3174;0,0535477
1394,2816;0,0533464
1395,2458;0,0531843
1396,2101;0,0530722
1397,1743;0,0530101
1398,1385;0,0530043
1399,1028;0,0530735
1400,0670;0,0532339
1401,0313;0,0534796
1401,9955;0,0537801
1402,9597;0,0540967
1403,9240;0,0544047
1404,8882;0,0547089
1405,8524;0,0550412
1406,8167;0,0554383
1407,7809;0,0559156
1408,7451;0,0564652
1409,7094;0,0570736
1410,6736;0,0577357
1411,6378;0,0584496
1412,6021;0,0592022
1413,5663;0,0599609
1414,5305;0,0606836
1415,4948;0,0613362
1416,4590;0,0619008
1417,4232;0,0623697
1418,3875;0,0627473
1419,3517;0,0630687
1420,3159;0,0633765
1421,2802;0,0636562
1422,2444;0,0638323
1423,2086;0,0638314
1424,1729;0,063635
1425,1371;0,0632773
1426,1013;0,0628001
1427,0656;0,0622074
1428,0298;0,0614683
1428,9940;0,06057
1429,9583;0,0595742
1430,9225;0,0585982
1431,8867;0,0577204
1432,8510;0,0569107
1433,8152;0,0560531
1434,7794;0,0550328
1435,7437;0,0538477
1436,7079;0,0526894
1437,6721;0,051847
1438,6364;0,0514591
1439,6006;0,0514315
1440,5648;0,0515842
1441,5291;0,0517933
1442,4933;0,0520228
1443,4575;0,0522886
1444,4218;0,0526095
1445,3860;0,052979
1446,3502;0,0533709
1447,3145;0,0537652
1448,2787;0,0541704
1449,2429;0,0546153
1450,2072;0,0551108
1451,1714;0,0556221
1452,1356;0,0560782
1453,0999;0,0564071
1454,0641;0,0565581
1455,0283;0,0564882
1455,9926;0,0561347
1456,9568;0,0555185
1457,9210;0,0549552
1458,8853;0,0547991
1459,8495;0,0550142
1460,8137;0,0553158
1461,7780;0,0554391
1462,7422;0,0552111
1463,7064;0,0545534
1464,6707;0,0535312
1465,6349;0,052377
1466,5991;0,0513353
1467,5634;0,050463
1468,5276;0,0496316
1469,4918;0,048651
1470,4561;0,0473504
1471,4203;0,0456223
1472,3845;0,0435163
1473,3488;0,0413413
1474,3130;0,0395062
1475,2772;0,0381805
1476,2415;0,0372576
1477,2057;0,0365621
1478,1699;0,0359768
1479,1342;0,0354514
1480,0984;0,0349758
1481,0626;0,0345619
1482,0269;0,0342354
1482,9911;0,0340222
1483,9553;0,033932
1484,9196;0,0339504
1485,8838;0,034047
1486,8480;0,0341838
1487,8123;0,0343172
1488,7765;0,0344196
1489,7407;0,0345377
1490,7050;0,0347774
1491,6692;0,0351886
1492,6334;0,0357295
1493,5977;0,0363375
1494,5619;0,0369903
1495,5261;0,0377086
1496,4904;0,0385195
1497,4546;0,0394214
1498,4188;0,0403925
1499,3831;0,0414015
1500,3473;0,0423852
1501,3115;0,043251
1502,2758;0,043918
1503,2400;0,044356
1504,2042;0,0445957
1505,1685;0,0446781
1506,1327;0,0445232
1507,0969;0,0439746
1508,0612;0,0432282
1509,0254;0,0426822
1509,9896;0,042386
1510,9539;0,0421597
1511,9181;0,0418532
1512,8823;0,0413994
1513,8466;0,0407843
1514,8108;0,0400211
1515,7750;0,039144
1516,7393;0,0382044
1517,7035;0,037248
1518,6677;0,0362908
1519,6320;0,035328
1520,5962;0,0343792
1521,5604;0,0335202
1522,5247;0,0328417
1523,4889;0,0323663
1524,4531;0,0320346
1525,4174;0,0317751
1526,3816;0,0315666
1527,3458;0,0314344
1528,3101;0,0313987
1529,2743;0,0314398
1530,2385;0,0315138
1531,2028;0,0315876
1532,1670;0,0316606
1533,1312;0,0317628
1534,0955;0,031928
1535,0597;0,0321519
1536,0239;0,0323824
1536,9882;0,0325683
1537,9524;0,0327099
1538,9166;0,0328398
1539,8809;0,0329095
1540,8451;0,0327775
1541,8093;0,0325053
1542,7736;0,0323334
1543,7378;0,0323334
1544,7020;0,0324397
1545,6663;0,0326008
1546,6305;0,0327994
1547,5947;0,0330182
1548,5590;0,0332244
1549,5232;0,0333871
1550,4874;0,0335061
1551,4517;0,033619
1552,4159;0,0337721
1553,3801;0,0339726
1554,3444;0,0341728
1555,3086;0,0342952
1556,2728;0,0342524
1557,2371;0,0339296
1558,2013;0,0332661
1559,1655;0,0326176
1560,1298;0,0325725
1561,0940;0,0331693
1562,0582;0,0340465
1563,0225;0,0349062
1563,9867;0,0356147
1564,9509;0,0361459
1565,9152;0,0365274
1566,8794;0,0368142
1567,8436;0,0370776
1568,8079;0,0373945
1569,7721;0,0378193
1570,7363;0,0383493
1571,7006;0,0389248
1572,6648;0,0394786
1573,6290;0,0399889
1574,5933;0,0404909
1575,5575;0,0410409
1576,5217;0,041671
1577,4860;0,0423886
1578,4502;0,0431846
1579,4144;0,0440257
1580,3787;0,0448739
1581,3429;0,0457143
1582,3071;0,0465546
1583,2714;0,0474093
1584,2356;0,0482864
1585,1998;0,0491867
1586,1641;0,0501035
1587,1283;0,05102
1588,0925;0,0519083
1589,0568;0,052733
1590,0210;0,0534577
1590,9852;0,0540491
1591,9495;0,0544748
1592,9137;0,0547043
1593,8779;0,0547205
1594,8422;0,054537
1595,8064;0,0542033
1596,7706;0,0537866
1597,7349;0,053343
1598,6991;0,052901
1599,6633;0,0524646
1600,6276;0,0520279
1601,5918;0,0515921
1602,5560;0,0511734
1603,5203;0,050796
1604,4845;0,050474
1605,4487;0,0501964
1606,4130;0,0499304
1607,3772;0,0496455
1608,3414;0,0493454
1609,3057;0,0490799
1610,2699;0,048912
1611,2341;0,0488608
1612,1984;0,04888
1613,1626;0,0488869
1614,1268;0,0488052
1615,0911;0,0486043
1616,0553;0,0483437
1617,0195;0,0481804
1617,9838;0,0482487
1618,9480;0,0485274
1619,9122;0,04888
1620,8765;0,0491752
1621,8407;0,0493498
1622,8049;0,0494139
1623,7692;0,0494279
1624,7334;0,0494569
1625,6976;0,0495273
1626,6619;0,0496295
1627,6261;0,0497576
1628,5903;0,0499289
1629,5546;0,0501587
1630,5188;0,0504261
1631,4830;0,0506721
1632,4473;0,0508292
1633,4115;0,0508429
1634,3757;0,0506731
1635,3400;0,0503299
1636,3042;0,0499675
1637,2684;0,0498133
1638,2327;0,049929
1639,1969;0,050203
1640,1611;0,0505064
1641,1254;0,0507654
1642,0896;0,0509507
1643,0538;0,0510481
1644,0181;0,0510375
1644,9823;0,0508861
1645,9465;0,0505904
1646,9108;0,0502606
1647,8750;0,0500625
1648,8392;0,0500185
1649,8035;0,0499799
1650,7677;0,0497361
1651,7319;0,0490633
1652,6962;0,0478406
1653,6604;0,0464599
1654,6246;0,0456847
1655,5889;0,0456691
1656,5531;0,0459993
1657,5173;0,0462921
1658,4816;0,0463592
1659,4458;0,046141
1660,4100;0,0456452
1661,3743;0,044943
1662,3385;0,0441924
1663,3027;0,0435828
1664,2670;0,0432018
1665,2312;0,0429876
1666,1954;0,0427955
1667,1597;0,0424741
1668,1239;0,0419172
1669,0881;0,0411304
1670,0524;0,040273
1671,0166;0,0395433
1671,9808;0,0389903
1672,9451;0,0385043
1673,9093;0,0379604
1674,8735;0,0373455
1675,8378;0,0367841
1676,8020;0,0364345
1677,7662;0,0363402
1678,7305;0,0364002
1679,6947;0,0364519
1680,6589;0,0363434
1681,6232;0,0359447
1682,5874;0,0351604
1683,5516;0,0340588
1684,5159;0,0330109
1685,4801;0,0324014
1686,4443;0,0322414
1687,4086;0,0322947
1688,3728;0,0323523
1689,3370;0,0323242
1690,3013;0,032214
1691,2655;0,0320678
1692,2297;0,0319351
1693,1940;0,0318499
1694,1582;0,0318226
1695,1224;0,0318276
1696,0867;0,0317945
1697,0509;0,0316331
1698,0151;0,0313073
1698,9794;0,03091
1699,9436;0,0306395
1700,9078;0,0306565
1701,8721;0,0309684
1702,8363;0,0314568
1703,8005;0,0319825
1704,7648;0,0324587
1705,7290;0,0328717
1706,6932;0,0332663
1707,6575;0,0337088
1708,6217;0,0342443
1709,5859;0,0348787
1710,5502;0,0355898
1711,5144;0,0363454
1712,4786;0,0371114
1713,4429;0,0378517
1714,4071;0,0385235
1715,3713;0,0390717
1716,3356;0,0394555
1717,2998;0,0397347
1718,2640;0,0400829
1719,2283;0,0406215
1720,1925;0,0413229
1721,1567;0,0420862
1722,1210;0,0428233
1723,0852;0,0434876
1724,0494;0,0440734
1725,0137;0,0446086
1725,9779;0,0451384
1726,9421;0,0456974
1727,9064;0,0462845
1728,8706;0,0468543
1729,8348;0,0473249
1730,7991;0,0475904
1731,7633;0,0475416
1732,7275;0,0471343
1733,6918;0,046507
1734,6560;0,0459504
1735,6202;0,045642
1736,5845;0,0455086
1737,5487;0,0453575
1738,5129;0,0450327
1739,4772;0,0444818
1740,4414;0,0437601
1741,4056;0,0429822
1742,3699;0,0422371
1743,3341;0,0415341
1744,2983;0,0408251
1745,2626;0,0400538
1746,2268;0,039173
1747,1910;0,0381264
1748,1553;0,0368463
1749,1195;0,035321
1750,0837;0,0336897
1751,0480;0,0321997
1752,0122;0,0310178
1752,9764;0,0301268
1753,9407;0,0293932
1754,9049;0,0286825
1755,8691;0,0279299
1756,8334;0,0271489
1757,7976;0,026388
1758,7618;0,0256706
1759,7261;0,0249711
1760,6903;0,0242519
1761,6545;0,0235219
1762,6188;0,0228492
1763,5830;0,0223079
1764,5472;0,0219165
1765,5115;0,0216326
1766,4757;0,0213916
1767,4399;0,0211448
1768,4042;0,0208695
1769,3684;0,0205567
1770,3326;0,0201937
1771,2969;0,0197721
1772,2611;0,0193277
1773,2253;0,018952
1774,1896;0,0187267
1775,1538;0,0186551
1776,1180;0,0186735
1777,0823;0,0187033
1778,0465;0,0186907
1779,0107;0,0186172
1779,9750;0,018495
1780,9392;0,0183506
1781,9034;0,0182072
1782,8677;0,0180786
1783,8319;0,0179774
1784,7961;0,0179232
1785,7604;0,0179345
1786,7246;0,0180117
1787,6888;0,0181293
1788,6531;0,0182451
1789,6173;0,0183148
1790,5815;0,0183029
1791,5458;0,0181995
1792,5100;0,0180461
1793,4742;0,0179233
1794,4385;0,017883
1795,4027;0,0179101
1796,3669;0,0179528
1797,3312;0,0179679
1798,2954;0,0179377
1799,2596;0,017867
1800,2239;0,0177725
1801,1881;0,0176759
1802,1523;0,0175987
1803,1166;0,0175558
1804,0808;0,0175523
1805,0450;0,0175842
1806,0093;0,0176395
1806,9735;0,0177008
1807,9377;0,0177476
1808,9020;0,0177612
1809,8662;0,0177323
1810,8304;0,0176667
1811,7947;0,0175817
1812,7589;0,0174951
1813,7231;0,0174165
1814,6874;0,0173494
1815,6516;0,0172989
1816,6158;0,0172738
1817,5801;0,0172828
1818,5443;0,0173258
1819,5085;0,0173903
1820,4728;0,0174562
1821,4370;0,0175058
1822,4012;0,0175334
1823,3655;0,0175473
1824,3297;0,0175647
1825,2939;0,0175978
1826,2582;0,0176409
1827,2224;0,0176673
1828,1866;0,0176434
1829,1509;0,0175551
1830,1151;0,0174295
1831,0793;0,0173251
1832,0436;0,0172862
1833,0078;0,0173093
1833,9720;0,0173547
1834,9363;0,0173814
1835,9005;0,0173754
1836,8647;0,0173579
1837,8290;0,0173693
1838,7932;0,0174363
1839,7574;0,0175509
1840,7217;0,0176757
1841,6859;0,017763
1842,6501;0,0177719
1843,6144;0,0176876
1844,5786;0,0175434
1845,5428;0,0174083
1846,5071;0,0173333
1847,4713;0,0173182
1848,4355;0,0173313
1849,3998;0,0173425
1850,3640;0,017339
1851,3282;0,0173221
1852,2925;0,0172979
1853,2567;0,0172715
1854,2209;0,0172487
1855,1852;0,0172389
1856,1494;0,0172534
1857,1136;0,0172979
1858,0779;0,0173646
1859,0421;0,0174323
1860,0063;0,0174777
1860,9706;0,0174909
1861,9348;0,0174831
1862,8990;0,0174794
1863,8633;0,0175038
1864,8275;0,0175668
1865,7917;0,0176577
1866,7560;0,017742
1867,7202;0,0177698
1868,6844;0,0177095
1869,6487;0,0175807
1870,6129;0,0174391
1871,5771;0,0173285
1872,5414;0,0172585
1873,5056;0,0172182
1874,4698;0,0171937
1875,4341;0,0171771
1876,3983;0,0171665
1877,3625;0,0171637
1878,3268;0,0171712
1879,2910;0,0171914
1880,2552;0,0172267
1881,2195;0,0172803
1882,1837;0,0173561
1883,1479;0,017454
1884,1122;0,0175666
1885,0764;0,0176763
1886,0406;0,0177584
1887,0049;0,0177877
1887,9691;0,0177499
1888,9333;0,0176526
1889,8976;0,0175288
1890,8618;0,0174214
1891,8260;0,0173601
1892,7903;0,0173483
1893,7545;0,0173684
1894,7188;0,0173955
1895,6830;0,01741
1896,6472;0,0174058
1897,6115;0,0173897
1898,5757;0,017374
1899,5399;0,0173689
1900,5042;0,0173778
1901,4684;0,0173971
1902,4326;0,0174172
1903,3969;0,0174266
1904,3611;0,0174185
1905,3253;0,0173956
1906,2896;0,0173722
1907,2538;0,0173682
1908,2180;0,017398
1909,1823;0,0174593
1910,1465;0,0175322
1911,1107;0,0175909
1912,0750;0,0176199
1913,0392;0,0176219
1914,0034;0,0176139
1914,9677;0,0176163
1915,9319;0,0176395
1916,8961;0,0176749
1917,8604;0,0176992
1918,8246;0,0176912
1919,7888;0,0176471
1920,7531;0,0175814
1921,7173;0,0175183
1922,6815;0,0174806
1923,6458;0,0174812
1924,6100;0,0175176
1925,5742;0,0175752
1926,5385;0,0176344
1927,5027;0,0176802
1928,4669;0,0177075
1929,4312;0,0177218
1930,3954;0,0177349
1931,3596;0,017757
1932,3239;0,0177878
1933,2881;0,0178131
1934,2523;0,0178095
1935,2166;0,0177564
1936,1808;0,0176498
1937,1450;0,0175091
1938,1093;0,0173735
1939,0735;0,0172909
1940,0377;0,0173024
1941,0020;0,0174233
1941,9662;0,017627
1942,9304;0,0178473
1943,8947;0,0180079
1944,8589;0,0180619
1945,8231;0,0180115
1946,7874;0,0178996
1947,7516;0,0177855
1948,7158;0,0177202
1949,6801;0,0177281
1950,6443;0,0178038
1951,6085;0,0179222
1952,5728;0,0180519
1953,5370;0,0181624
1954,5012;0,0182248
1955,4655;0,0182159
1956,4297;0,0181318
1957,3939;0,018003
1958,3582;0,0178922
1959,3224;0,0178643
1960,2866;0,0179403
1961,2509;0,0180723
1962,2151;0,0181692
1963,1793;0,0181615
1964,1436;0,018056
1965,1078;0,0179374
1966,0720;0,0179108
1967,0363;0,018024
1968,0005;0,018234
1968,9647;0,0184511
1969,9290;0,01862
1970,8932;0,0187587
1971,8574;0,0189236
1972,8217;0,0191361
1973,7859;0,0193354
1974,7501;0,019401
1975,7144;0,0192389
1976,6786;0,018865
1977,6428;0,0184098
1978,6071;0,0180327
1979,5713;0,0178228
1980,5355;0,0177686
1981,4998;0,0178043
1982,4640;0,0178748
1983,4282;0,0179699
1984,3925;0,0181152
1985,3567;0,0183348
1986,3209;0,0186163
1987,2852;0,0189023
1988,2494;0,0191112
1989,2136;0,019177
1990,1779;0,0190841
1991,1421;0,0188818
1992,1063;0,0186645
1993,0706;0,0185239
1994,0348;0,0185042
1994,9990;0,0185884
1995,9633;0,0187194
1996,9275;0,0188327
1997,8917;0,0188823
1998,8560;0,0188524
1999,8202;0,0187576
2000,7844;0,0186375
2001,7487;0,0185498
2002,7129;0,0185619
2003,6771;0,0187319
2004,6414;0,0190767
2005,6056;0,0195389
2006,5698;0,019983
2007,5341;0,0202437
2008,4983;0,0202126
2009,4625;0,0199079
2010,4268;0,0194717
2011,3910;0,0190955
2012,3552;0,018918
2013,3195;0,0189559
2014,2837;0,019103
2015,2479;0,0192009
2016,2122;0,0191456
2017,1764;0,0189648
2018,1406;0,0188064
2019,1049;0,0188395
2020,0691;0,0191435
2021,0333;0,0196617
2021,9976;0,0202404
2022,9618;0,0207095
2023,9260;0,0209534
2024,8903;0,0209343
2025,8545;0,0206766
2026,8187;0,0202419
2027,7830;0,0197241
2028,7472;0,0192511
2029,7114;0,0189643
2030,6757;0,018958
2031,6399;0,0192158
2032,6041;0,0196
2033,5684;0,0199254
2034,5326;0,0200764
2035,4968;0,0200757
2036,4611;0,0200474
2037,4253;0,0201064
2038,3895;0,0202626
2039,3538;0,0204104
2040,3180;0,0204033
2041,2822;0,0201604
2042,2465;0,0197294
2043,2107;0,019265
2044,1749;0,0189459
2045,1392;0,0188899
2046,1034;0,0191108
2047,0676;0,0195257
2048,0320;0,0199955
2048,9961;0,02038
2049,9604;0,0205824
2050,9246;0,0205696
2051,8889;0,0203698
2052,8530;0,0200604
2053,8174;0,0197461
2054,7815;0,0195276
2055,7458;0,0194662
2056,7100;0,0195614
2057,6743;0,0197565
2058,6384;0,0199706
2059,6028;0,0201367
2060,5669;0,020223
2061,5313;0,0202325
2062,4954;0,0201876
2063,4597;0,0201161
2064,4238;0,0200442
2065,3882;0,0199961
2066,3523;0,0199906
2067,3167;0,0200328
2068,2808;0,0201077
2069,2451;0,0201835
2070,2092;0,0202274
2071,1736;0,0202231
2072,1377;0,0201802
2073,1021;0,0201262
2074,0662;0,0200889
2075,0305;0,0200816
2075,9946;0,0201008
2076,9590;0,0201344
2077,9231;0,0201719
2078,8875;0,0202069
2079,8516;0,0202351
2080,8159;0,0202531
2081,7800;0,0202621
2082,7444;0,020273
2083,7085;0,0203053
2084,6729;0,020376
2085,6370;0,0204838
2086,6013;0,0206011
2087,5654;0,020681
2088,5298;0,0206782
2089,4939;0,0205745
2090,4583;0,0203918
2091,4224;0,0201867
2092,3867;0,0200296
2093,3508;0,0199765
2094,3152;0,0200468
2095,2793;0,0202168
2096,2437;0,0204304
2097,2078;0,020625
2098,1721;0,0207565
2099,1362;0,0208108
2100,1006;0,0207975
2101,0647;0,0207328
2102,0291;0,0206313
2102,9932;0,0205043
2103,9575;0,0203696
2104,9216;0,0202574
2105,8860;0,0202034
2106,8501;0,0202312
2107,8145;0,0203344
2108,7786;0,0204739
2109,7429;0,0205942
2110,7070;0,0206498
2111,6714;0,0206264
2112,6355;0,0205434
2113,5999;0,0204395
2114,5640;0,0203511
2115,5283;0,020296
2116,4924;0,0202707
2117,4568;0,0202595
2118,4209;0,0202487
2119,3853;0,0202372
2120,3494;0,0202395
2121,3137;0,0202791
2122,2778;0,0203751
2123,2422;0,0205292
2124,2063;0,0207194
2125,1707;0,0209054
2126,1348;0,0210435
2127,0991;0,0211045
2128,0632;0,021086
2129,0276;0,0210139
2129,9917;0,0209318
2130,9561;0,0208841
2131,9202;0,020899
2132,8845;0,0209774
2133,8486;0,021093
2134,8130;0,0212052
2135,7771;0,0212817
2136,7415;0,0213174
2137,7056;0,0213365
2138,6699;0,0213746
2139,6340;0,0214518
2140,5984;0,0215575
2141,5625;0,0216572
2142,5269;0,0217186
2143,4910;0,0217364
2144,4553;0,0217348
2145,4194;0,021745
2146,3838;0,021773
2147,3479;0,0217878
2148,3123;0,0217408
2149,2764;0,0216062
2150,2407;0,0214119
2151,2048;0,0212397
2152,1692;0,0211985
2153,1333;0,0213883
2154,0977;0,0218721
2155,0618;0,0226521
2156,0261;0,0236375
2156,9902;0,0246146
2157,9546;0,0252733
2158,9187;0,0253443
2159,8831;0,0247823
2160,8472;0,0238249
2161,8115;0,0228593
2162,7756;0,0222145
2163,7400;0,0220247
2164,7041;0,0222114
2165,6685;0,0225636
2166,6326;0,0228648
2167,5969;0,0229944
2168,5610;0,022952
2169,5254;0,0228076
2170,4895;0,0226323
2171,4539;0,0224604
2172,4180;0,0222975
2173,3823;0,0221525
2174,3464;0,0220566
2175,3108;0,0220505
2176,2749;0,0221497
2177,2393;0,0223208
2178,2034;0,0224885
2179,1677;0,0225696
2180,1318;0,0225126
2181,0962;0,0223203
2182,0603;0,0220496
2183,0247;0,0217872
2183,9888;0,0216164
2184,9531;0,0215871
2185,9172;0,0216981
2186,8816;0,0218976
2187,8457;0,0220999
2188,8101;0,0222175
2189,7742;0,0221971
2190,7385;0,0220463
2191,7026;0,021834
2192,6670;0,0216612
2193,6311;0,0216119
2194,5955;0,0217066
2195,5596;0,0218849
2196,5239;0,0220297
2197,4880;0,0220266
2198,4524;0,0218266
2199,4165;0,0214781
2200,3809;0,021106
2201,3450;0,020849
2202,3093;0,0207901
2203,2734;0,0209207
2204,2378;0,0211553
2205,2019;0,0213828
2206,1663;0,0215213
2207,1304;0,021544
2208,0947;0,021471
2209,0588;0,0213412
2210,0232;0,0211881
2210,9873;0,0210334
2211,9517;0,0208926
2212,9158;0,0207826
2213,8801;0,0207189
2214,8442;0,0207084
2215,8086;0,020743
2216,7727;0,0208025
2217,7371;0,0208645
2218,7012;0,0209127
2219,6655;0,0209405
2220,6296;0,0209492
2221,5940;0,0209463
2222,5581;0,0209452
2223,5225;0,0209631
2224,4866;0,0210147
2225,4509;0,0211012
2226,4150;0,0212044
2227,3794;0,0212909
2228,3435;0,0213306
2229,3079;0,021315
2230,2720;0,0212619
2231,2363;0,0212032
2232,2004;0,0211612
2233,1648;0,0211341
2234,1289;0,0211009
2235,0933;0,0210432
2236,0574;0,0209655
2237,0217;0,0208974
2237,9858;0,0208745
2238,9502;0,0209127
2239,9143;0,0209951
2240,8787;0,0210824
2241,8428;0,0211372
2242,8071;0,0211455
2243,7712;0,0211203
2244,7356;0,0210892
2245,6997;0,0210765
2246,6641;0,0210935
2247,6282;0,0211381
2248,5925;0,0212005
2249,5566;0,0212662
2250,5210;0,0213176
2251,4851;0,0213366
2252,4495;0,0213136
2253,4136;0,0212569
2254,3779;0,0211939
2255,3420;0,021158
2256,3064;0,0211664
2257,2705;0,0212058
2258,2349;0,021237
2259,1990;0,0212178
2260,1633;0,0211307
2261,1274;0,0209961
2262,0918;0,0208628
2263,0559;0,0207817
2264,0203;0,0207789
2264,9844;0,0208449
2265,9487;0,0209452
2266,9128;0,0210421
2267,8772;0,021112
2268,8413;0,0211506
2269,8057;0,0211636
2270,7698;0,0211555
2271,7341;0,0211239
2272,6982;0,0210632
2273,6626;0,0209728
2274,6267;0,0208634
2275,5911;0,0207566
2276,5552;0,0206769
2277,5195;0,0206415
2278,4836;0,0206522
2279,4480;0,0206952
2280,4121;0,0207481
2281,3765;0,0207928
2282,3406;0,020825
2283,3049;0,0208562
2284,2690;0,0209062
2285,2334;0,0209892
2286,1975;0,0211044
2287,1619;0,0212349
2288,1260;0,0213585
2289,0903;0,0214616
2290,0544;0,0215465
2291,0188;0,0216264
2291,9829;0,0217135
2292,9473;0,0218086
2293,9114;0,021901
2294,8757;0,0219787
2295,8398;0,0220388
2296,8042;0,0220893
2297,7683;0,0221385
2298,7327;0,0221822
2299,6968;0,0221998
2300,6611;0,0221648
2301,6252;0,0220662
2302,5896;0,0219232
2303,5537;0,0217829
2304,5181;0,0216993
2305,4822;0,021704
2306,4465;0,0217858
2307,4106;0,0218908
2308,3750;0,0219461
2309,3391;0,0218937
2310,3035;0,0217181
2311,2676;0,0214522
2312,2319;0,02116
2313,1960;0,0209045
2314,1604;0,020721
2315,1245;0,020607
2316,0889;0,0205316
2317,0530;0,0204554
2318,0173;0,020352
2318,9814;0,0202219
2319,9458;0,0200971
2320,9099;0,0200317
2321,8743;0,0200782
2322,8384;0,0202552
2323,8027;0,0205262
2324,7668;0,020808
2325,7312;0,0210055
2326,6953;0,0210562
2327,6597;0,0209584
2328,6238;0,0207736
2329,5881;0,0206017
2330,5522;0,0205363
2331,5166;0,0206209
2332,4807;0,0208277
2333,4451;0,0210747
2334,4092;0,0212709
2335,3735;0,0213648
2336,3376;0,0213707
2337,3020;0,0213607
2338,2661;0,0214225
2339,2305;0,0216003
2340,1946;0,0218476
2341,1589;0,0220204
2342,1230;0,0219379
2343,0874;0,0215355
2344,0515;0,0210286
2345,0159;0,0208274
2345,9800;0,0211685
2346,9443;0,0219035
2347,9084;0,0226575
2348,8728;0,0230988
2349,8369;0,0230975
2350,8013;0,0227505
2351,7654;0,0223088
2352,7297;0,0220345
2353,6938;0,0220537
2354,6582;0,0223248
2355,6223;0,0227326
2356,5867;0,0231656
2357,5508;0,0235075
2358,5151;0,0236263
2359,4792;0,023428
2360,4436;0,0229176
2361,4077;0,0221866
2362,3721;0,0213491
2363,3362;0,0205026
2364,3005;0,019733
2365,2646;0,0191158
2366,2290;0,018691
2367,1931;0,0184385
2368,1575;0,018289
2369,1216;0,0181658
2370,0859;0,0180242
2371,0500;0,017864
2372,0144;0,0177159
2372,9785;0,0176219
2373,9429;0,0176219
2374,9070;0,0177464
2375,8713;0,0180105
2376,8354;0,0184074
2377,7998;0,0189045
2378,7639;0,0194481
2379,7283;0,0199747
2380,6924;0,0204273
2381,6567;0,020769
2382,6208;0,0209895
2383,5852;0,0211026
2384,5493;0,0211381
2385,5137;0,0211316
2386,4778;0,0211142
2387,4421;0,0211062
2388,4063;0,0211149
2389,3706;0,0211355
2390,3347;0,0211555
2391,2991;0,0211617
2392,2632;0,0211464
2393,2275;0,0211127
2394,1917;0,0210742
2395,1560;0,0210503
2396,1201;0,0210579
2397,0845;0,0211039
2398,0486;0,0211826
2399,0129;0,0212764
2399,9771;0,0213632
2400,9414;0,0214256
2401,9055;0,0214556
2402,8699;0,0214565
2403,8340;0,0214392
2404,7983;0,0214165
2405,7625;0,0213989
2406,7268;0,0213911
2407,6909;0,0213941
2408,6553;0,0214073
2409,6194;0,0214299
2410,5837;0,0214609
2411,5479;0,0214977
2412,5122;0,0215361
2413,4763;0,0215715
2414,4407;0,0216021
2415,4048;0,0216293
2416,3691;0,021656
2417,3333;0,0216822
2418,2976;0,021703
2419,2617;0,0217113
2420,2261;0,0217037
2421,1902;0,021686
2422,1545;0,0216724
2423,1187;0,0216785
2424,0830;0,0217116
2425,0471;0,0217672
2426,0115;0,0218325
2426,9756;0,0218953
2427,9399;0,0219508
2428,9041;0,0220007
2429,8684;0,0220472
2430,8325;0,0220866
2431,7969;0,0221114
2432,7610;0,0221161
2433,7253;0,0221048
2434,6895;0,0220902
2435,6538;0,0220857
2436,6179;0,0220956
2437,5823;0,0221124
2438,5464;0,022123
2439,5107;0,0221204
2440,4749;0,0221107
2441,4392;0,0221109
2442,4033;0,0221377
2443,3677;0,0221961
2444,3318;0,0222749
2445,2961;0,0223512
2446,2603;0,0224015
2447,2246;0,0224115
2448,1887;0,0223817
2449,1531;0,0223258
2450,1172;0,0222658
2451,0815;0,0222243
2452,0457;0,0222164
2453,0100;0,0222444
2453,9741;0,0222966
2454,9385;0,0223517
2455,9026;0,0223885
2456,8669;0,0223956
2457,8311;0,0223767
2458,7954;0,0223481
2459,7595;0,0223305
2460,7239;0,0223381
2461,6880;0,0223726
2462,6523;0,0224238
2463,6165;0,0224769
2464,5808;0,0225211
2465,5449;0,0225545
2466,5093;0,0225838
2467,4734;0,0226178
2468,4377;0,0226602
2469,4019;0,0227067
2470,3662;0,0227471
2471,3303;0,0227733
2472,2947;0,0227849
2473,2588;0,0227908
2474,2231;0,0228032
2475,1873;0,02283
2476,1516;0,0228689
2477,1157;0,0229095
2478,0801;0,0229399
2479,0442;0,0229548
2480,0085;0,0229573
2480,9727;0,0229552
2481,9370;0,0229545
2482,9011;0,022956
2483,8655;0,0229561
2484,8296;0,0229527
2485,7939;0,0229484
2486,7581;0,02295
2487,7224;0,0229635
2488,6865;0,0229886
2489,6509;0,023017
2490,6150;0,0230359
2491,5793;0,0230353
2492,5435;0,0230139
2493,5078;0,0229804
2494,4719;0,0229497
2495,4363;0,0229361
2496,4004;0,0229464
2497,3647;0,0229776
2498,3289;0,0230194
2499,2932;0,0230599
2500,2573;0,0230917
2501,2217;0,0231146
2502,1858;0,0231336
2503,1501;0,0231544
2504,1143;0,0231784
2505,0786;0,0232015
2506,0427;0,0232174
2507,0071;0,0232228
2507,9712;0,0232217
2508,9355;0,0232234
2509,8997;0,0232375
2510,8640;0,0232654
2511,8281;0,0232973
2512,7925;0,023316
2513,7566;0,0233075
2514,7209;0,0232714
2515,6851;0,0232245
2516,6494;0,0231923
2517,6135;0,0231939
2518,5779;0,0232286
2519,5420;0,0232749
2520,5063;0,0233031
2521,4705;0,0232949
2522,4348;0,0232568
2523,3989;0,0232172
2524,3633;0,0232088
2525,3274;0,0232482
2526,2917;0,0233257
2527,2559;0,0234122
2528,2202;0,0234778
2529,1843;0,0235084
2530,1487;0,0235101
2531,1128;0,0235001
2532,0771;0,023492
2533,0413;0,0234872
2534,0056;0,0234781
2534,9697;0,0234579
2535,9341;0,0234302
2536,8982;0,0234081
2537,8625;0,0234057
2538,8267;0,0234272
2539,7910;0,0234626
2540,7551;0,023493
2541,7195;0,0235019
2542,6836;0,0234856
2543,6479;0,0234559
2544,6121;0,0234342
2545,5764;0,0234401
2546,5405;0,0234811
2547,5049;0,0235482
2548,4690;0,0236196
2549,4333;0,0236705
2550,3975;0,0236849
2551,3618;0,0236627
2552,3259;0,023619
2553,2903;0,023575
2554,2544;0,0235474
2555,2188;0,023539
2556,1829;0,0235403
2557,1472;0,0235366
2558,1113;0,0235188
2559,0757;0,0234889
2560,0398;0,0234584
2561,0042;0,023441
2561,9683;0,0234445
2562,9326;0,0234675
2563,8967;0,0235019
2564,8611;0,0235378
2565,8252;0,0235677
2566,7896;0,0235886
2567,7537;0,0236021
2568,7180;0,0236116
2569,6821;0,023621
2570,6465;0,023632
2571,6106;0,0236441
2572,5750;0,0236556
2573,5391;0,0236663
2574,5034;0,0236788
2575,4675;0,0236965
2576,4319;0,0237198
2577,3960;0,023742
2578,3604;0,0237508
2579,3245;0,0237353
2580,2888;0,0236945
2581,2529;0,0236405
2582,2173;0,0235934
2583,1814;0,0235708
2584,1458;0,0235797
2585,1099;0,0236146
2586,0742;0,0236639
2587,0383;0,0237177
2588,0027;0,02377
2588,9668;0,0238163
2589,9312;0,0238498
2590,8953;0,0238624
2591,8596;0,0238505
2592,8237;0,0238207
2593,7881;0,0237906
2594,7522;0,0237803
2595,7166;0,0238017
2596,6807;0,0238513
2597,6450;0,0239127
2598,6091;0,0239664
2599,5735;0,0240007
2600,5376;0,0240163
2601,5020;0,0240235
2602,4661;0,0240341
2603,4304;0,0240547
2604,3945;0,0240842
2605,3589;0,024117
2606,3230;0,0241475
2607,2874;0,0241737
2608,2515;0,0241971
2609,2158;0,0242204
2610,1799;0,0242445
2611,1443;0,0242674
2612,1084;0,0242858
2613,0728;0,0242978
2614,0369;0,0243056
2615,0012;0,0243155
2615,9653;0,024335
2616,9297;0,0243688
2617,8938;0,0244158
2618,8582;0,0244676
2619,8223;0,0245121
2620,7866;0,0245377
2621,7507;0,0245392
2622,7151;0,02452
2623,6792;0,0244914
2624,6436;0,0244679
2625,6077;0,0244619
2626,5720;0,0244782
2627,5361;0,0245134
2628,5005;0,024558
2629,4646;0,024602
2630,4290;0,0246392
2631,3931;0,02467
2632,3574;0,0246991
2633,3215;0,0247313
2634,2859;0,0247675
2635,2500;0,0248035
2636,2144;0,0248318
2637,1785;0,0248469
2638,1428;0,0248491
2639,1069;0,0248456
2640,0713;0,0248471
2641,0354;0,0248621
2641,9998;0,0248929
2642,9639;0,0249347
2643,9282;0,024978
2644,8923;0,025014
2645,8567;0,0250383
2646,8208;0,0250516
2647,7852;0,0250589
2648,7493;0,0250665
2649,7136;0,0250796
2650,6777;0,0251006
2651,6421;0,0251283
2652,6062;0,0251588
2653,5706;0,0251872
2654,5347;0,0252099
2655,4990;0,0252267
2656,4631;0,0252412
2657,4275;0,0252585
2658,3916;0,0252825
2659,3560;0,0253134
2660,3201;0,0253484
2661,2844;0,0253834
2662,2485;0,0254163
2663,2129;0,0254478
2664,1770;0,0254798
2665,1414;0,0255129
2666,1055;0,0255444
2667,0698;0,0255688
2668,0339;0,0255817
2668,9983;0,025583
2669,9624;0,0255788
2670,9268;0,0255792
2671,8909;0,0255934
2672,8552;0,0256253
2673,8193;0,0256705
2674,7837;0,0257191
2675,7478;0,0257598
2676,7122;0,0257857
2677,6763;0,0257974
2678,6406;0,0258018
2679,6047;0,0258081
2680,5691;0,025824
2681,5332;0,0258522
2682,4976;0,0258909
2683,4617;0,0259356
2684,4260;0,0259812
2685,3901;0,0260242
2686,3545;0,0260632
2687,3186;0,0260978
2688,2830;0,0261286
2689,2471;0,0261555
2690,2114;0,0261787
2691,1755;0,0261988
2692,1399;0,0262176
2693,1040;0,0262385
2694,0684;0,0262652
2695,0325;0,0263001
2695,9968;0,0263432
2696,9609;0,0263919
2697,9253;0,0264424
2698,8894;0,0264902
2699,8538;0,0265319
2700,8179;0,0265653
2701,7822;0,0265904
2702,7463;0,0266095
2703,7107;0,0266278
2704,6748;0,0266514
2705,6392;0,0266854
2706,6033;0,0267306
2707,5676;0,0267838
2708,5317;0,0268388
2709,4961;0,0268897
2710,4602;0,0269335
2711,4246;0,0269701
2712,3887;0,027001
2713,3530;0,0270284
2714,3171;0,0270541
2715,2815;0,0270795
2716,2456;0,0271054
2717,2100;0,0271316
2718,1741;0,0271569
2719,1384;0,0271798
2720,1025;0,0272
2721,0669;0,0272187
2722,0310;0,0272386
2722,9954;0,0272618
2723,9595;0,0272889
2724,9238;0,0273195
2725,8879;0,0273536
2726,8523;0,0273929
2727,8164;0,0274391
2728,7808;0,0274918
2729,7449;0,0275467
2730,7092;0,0275966
2731,6733;0,0276346
2732,6377;0,0276577
2733,6018;0,0276678
2734,5662;0,027671
2735,5303;0,0276736
2736,4946;0,0276804
2737,4587;0,027693
2738,4231;0,027711
2739,3872;0,0277333
2740,3516;0,0277596
2741,3157;0,0277902
2742,2800;0,027825
2743,2441;0,0278624
2744,2085;0,0278989
2745,1726;0,0279296
2746,1370;0,0279506
2747,1011;0,0279616
2748,0654;0,0279663
2749,0295;0,0279711
2749,9939;0,0279819
2750,9580;0,0280011
2751,9224;0,0280273
2752,8865;0,0280575
2753,8508;0,0280896
2754,8149;0,0281237
2755,7793;0,0281614
2756,7434;0,0282031
2757,7078;0,028247
2758,6719;0,0282897
2759,6362;0,028328
2760,6003;0,0283613
2761,5647;0,0283917
2762,5288;0,0284228
2763,4932;0,0284579
2764,4573;0,0284987
2765,4216;0,0285444
2766,3857;0,0285926
2767,3501;0,02864
2768,3142;0,0286839
2769,2786;0,0287231
2770,2427;0,0287586
2771,2070;0,0287937
2772,1711;0,0288326
2773,1355;0,0288781
2774,0996;0,0289302
2775,0640;0,0289854
2776,0281;0,029038
2776,9924;0,0290831
2777,9565;0,0291197
2778,9209;0,029151
2779,8850;0,0291845
2780,8494;0,0292276
2781,8135;0,0292848
2782,7778;0,0293552
2783,7419;0,0294326
2784,7063;0,0295079
2785,6704;0,0295733
2786,6348;0,029625
2787,5989;0,0296651
2788,5632;0,0297006
2789,5273;0,0297409
2790,4917;0,0297947
2791,4558;0,0298667
2792,4202;0,0299554
2793,3843;0,0300535
2794,3486;0,0301506
2795,3127;0,0302376
2796,2771;0,030311
2797,2412;0,030374
2798,2056;0,0304347
2799,1697;0,0305018
2800,1340;0,030581
2801,0981;0,0306735
2802,0625;0,0307776
2803,0266;0,0308899
2803,9910;0,0310065
2804,9551;0,0311222
2805,9194;0,031231
2806,8835;0,0313278
2807,8479;0,0314119
2808,8120;0,0314894
2809,7764;0,0315711
2810,7405;0,0316681
2811,7048;0,0317862
2812,6689;0,0319233
2813,6333;0,0320718
2814,5974;0,0322236
2815,5618;0,0323737
2816,5259;0,0325213
2817,4902;0,0326679
2818,4543;0,0328153
2819,4187;0,0329648
2820,3828;0,0331173
2821,3472;0,0332746
2822,3113;0,0334384
2823,2756;0,033609
2824,2397;0,0337861
2825,2041;0,033969
2826,1682;0,0341586
2827,1326;0,0343574
2828,0967;0,0345683
2829,0610;0,0347926
2830,0251;0,03503
2830,9895;0,0352798
2831,9536;0,0355425
2832,9180;0,0358201
2833,8821;0,0361135
2834,8464;0,0364206
2835,8105;0,0367366
2836,7749;0,0370574
2837,7390;0,0373844
2838,7034;0,037726
2839,6675;0,0380961
2840,6318;0,0385083
2841,5959;0,0389712
2842,5603;0,0394857
2843,5244;0,0400455
2844,4888;0,0406386
2845,4529;0,0412464
2846,4172;0,0418426
2847,3813;0,0423928
2848,3457;0,0428582
2849,3098;0,043204
2850,2742;0,0434105
2851,2383;0,0434803
2852,2026;0,0434386
2853,1667;0,0433259
2854,1311;0,0431848
2855,0952;0,0430491
2856,0596;0,0429373
2857,0237;0,0428553
2857,9880;0,0428027
2858,9521;0,0427801
2859,9165;0,0427911
2860,8806;0,0428403
2861,8450;0,0429279
2862,8091;0,0430483
2863,7734;0,0431917
2864,7375;0,0433488
2865,7019;0,0435147
2866,6660;0,0436875
2867,6304;0,0438653
2868,5945;0,0440412
2869,5588;0,0442041
2870,5229;0,0443426
2871,4873;0,0444515
2872,4514;0,0445355
2873,4158;0,0446067
2874,3799;0,0446794
2875,3442;0,0447625
2876,3083;0,0448574
2877,2727;0,0449593
2878,2368;0,0450612
2879,2012;0,0451582
2880,1653;0,0452489
2881,1296;0,0453348
2882,0938;0,0454183
2883,0581;0,0455018
2884,0222;0,0455875
2884,9866;0,0456769
2885,9507;0,0457712
2886,9150;0,0458712
2887,8792;0,0459776
2888,8435;0,0460908
2889,8076;0,0462108
2890,7720;0,0463369
2891,7361;0,0464666
2892,7004;0,046596
2893,6646;0,0467207
2894,6289;0,046838
2895,5930;0,0469481
2896,5574;0,0470545
2897,5215;0,0471615
2898,4858;0,0472722
2899,4500;0,0473864
2900,4143;0,0475004
2901,3784;0,0476098
2902,3428;0,0477118
2903,3069;0,0478089
2904,2712;0,0479084
2905,2354;0,0480214
2906,1997;0,0481596
2907,1638;0,0483325
2908,1282;0,0485462
2909,0923;0,0488024
2910,0566;0,0490994
2911,0208;0,0494314
2911,9851;0,0497872
2912,9492;0,0501489
2913,9136;0,0504918
2914,8777;0,0507883
2915,8420;0,0510128
2916,8062;0,0511484
2917,7705;0,0511898
2918,7346;0,0511422
2919,6990;0,0510169
2920,6631;0,0508258
2921,6274;0,0505794
2922,5916;0,050287
2923,5559;0,0499595
2924,5200;0,0496099
2925,4844;0,0492513
2926,4485;0,048894
2927,4128;0,0485429
2928,3770;0,0481998
2929,3413;0,0478666
2930,3054;0,0475479
2931,2698;0,0472496
2932,2339;0,0469735
2933,1982;0,0467132
2934,1624;0,0464551
2935,1267;0,0461848
2936,0908;0,045895
2937,0552;0,0455903
2938,0193;0,0452832
2938,9836;0,0449852
2939,9478;0,0446983
2940,9121;0,0444132
2941,8762;0,0441162
2942,8406;0,0437987
2943,8047;0,0434647
2944,7690;0,0431291
2945,7332;0,0428102
2946,6975;0,0425206
2947,6616;0,0422627
2948,6260;0,0420307
2949,5901;0,0418161
2950,5544;0,0416125
2951,5186;0,0414156
2952,4829;0,0412219
2953,4470;0,0410269
2954,4114;0,0408264
2955,3755;0,0406188
2956,3398;0,0404072
2957,3040;0,0401978
2958,2683;0,039996
2959,2324;0,0398034
2960,1968;0,0396166
2961,1609;0,0394291
2962,1252;0,039235
2963,0894;0,0390308
2964,0537;0,0388164
2965,0178;0,038594
2965,9822;0,0383681
2966,9463;0,0381432
2967,9106;0,0379232
2968,8748;0,037709
2969,8391;0,0374981
2970,8032;0,0372856
2971,7676;0,0370683
2972,7317;0,0368477
2973,6960;0,0366307
2974,6602;0,0364265
2975,6245;0,0362406
2976,5886;0,0360714
2977,5530;0,0359111
2978,5171;0,0357506
2979,4814;0,0355862
2980,4456;0,0354217
2981,4099;0,0352665
2982,3740;0,0351298
2983,3384;0,0350163
2984,3025;0,0349247
2985,2668;0,0348507
2986,2310;0,0347895
2987,1953;0,0347378
2988,1594;0,0346923
2989,1238;0,0346485
2990,0879;0,0346016
2991,0522;0,0345488
2992,0164;0,0344919
2992,9807;0,034438
2993,9448;0,034396
2994,9092;0,0343721
2995,8733;0,0343675
2996,8376;0,0343788
2997,8018;0,0344007
2998,7661;0,0344294
2999,7302;0,0344629
3000,6946;0,0344994
3001,6587;0,0345367
3002,6230;0,0345721
3003,5872;0,0346042
3004,5515;0,0346346
3005,5156;0,034667
3006,4800;0,0347043
3007,4441;0,034746
3008,4084;0,0347878
3009,3726;0,0348242
3010,3369;0,0348518
3011,3010;0,0348714
3012,2654;0,0348874
3013,2295;0,0349051
3014,1938;0,0349283
3015,1580;0,0349583
3016,1223;0,0349951
3017,0864;0,0350378
3018,0508;0,0350857
3019,0149;0,0351376
3019,9792;0,0351912
3020,9434;0,0352448
3021,9077;0,0352981
3022,8718;0,0353544
3023,8362;0,0354191
3024,8003;0,0354976
3025,7646;0,0355911
3026,7288;0,0356951
3027,6931;0,0358004
3028,6572;0,0358977
3029,6216;0,0359818
3030,5857;0,0360545
3031,5500;0,0361218
3032,5142;0,0361905
3033,4785;0,0362636
3034,4426;0,0363406
3035,4070;0,0364203
3036,3711;0,0365041
3037,3354;0,0365955
3038,2996;0,036697
3039,2639;0,0368064
3040,2280;0,0369173
3041,1924;0,037023
3042,1565;0,0371223
3043,1208;0,0372208
3044,0850;0,0373268
3045,0493;0,0374445
3046,0134;0,0375703
3046,9778;0,0376955
3047,9419;0,0378131
3048,9063;0,0379236
3049,8704;0,038035
3050,8347;0,0381555
3051,7988;0,0382872
3052,7632;0,038424
3053,7273;0,0385556
3054,6917;0,0386747
3055,6558;0,038782
3056,6201;0,0388852
3057,5842;0,0389946
3058,5486;0,0391172
3059,5127;0,0392549
3060,4771;0,0394038
3061,4412;0,0395564
3062,4055;0,0397031
3063,3696;0,0398353
3064,3340;0,0399486
3065,2981;0,0400461
3066,2625;0,0401386
3067,2266;0,0402395
3068,1909;0,0403588
3069,1550;0,0404978
3070,1194;0,0406495
3071,0835;0,0408036
3072,0479;0,040953
3073,0120;0,041096
3073,9763;0,0412354
3074,9404;0,0413735
3075,9048;0,0415091
3076,8689;0,0416377
3077,8333;0,0417552
3078,7974;0,0418614
3079,7617;0,0419607
3080,7258;0,0420593
3081,6902;0,0421614
3082,6543;0,0422667
3083,6187;0,0423726
3084,5828;0,0424777
3085,5471;0,0425847
3086,5112;0,0426998
3087,4756;0,042829
3088,4397;0,0429732
3089,4041;0,043127
3090,3682;0,0432816
3091,3325;0,0434303
3092,2966;0,0435723
3093,2610;0,0437119
3094,2251;0,043854
3095,1895;0,0439995
3096,1536;0,0441435
3097,1179;0,0442793
3098,0820;0,0444038
3099,0464;0,0445216
3100,0105;0,0446431
3100,9749;0,0447797
3101,9390;0,044937
3102,9033;0,0451123
3103,8674;0,0452962
3104,8318;0,0454771
3105,7959;0,0456464
3106,7603;0,0458023
3107,7244;0,0459498
3108,6887;0,0460988
3109,6528;0,0462588
3110,6172;0,0464336
3111,5813;0,0466181
3112,5457;0,0468002
3113,5098;0,0469666
3114,4741;0,047111
3115,4382;0,047238
3116,4026;0,0473613
3117,3667;0,0474957
3118,3311;0,0476485
3119,2952;0,0478153
3120,2595;0,0479839
3121,2236;0,0481415
3122,1880;0,0482833
3123,1521;0,0484153
3124,1165;0,0485506
3125,0806;0,0487021
3126,0449;0,0488757
3127,0090;0,0490674
3127,9734;0,0492656
3128,9375;0,0494567
3129,9019;0,0496321
3130,8660;0,0497912
3131,8303;0,0499415
3132,7944;0,0500941
3133,7588;0,0502587
3134,7229;0,0504397
3135,6873;0,0506357
3136,6514;0,0508417
3137,6157;0,0510509
3138,5798;0,0512572
3139,5442;0,0514557
3140,5083;0,0516428
3141,4727;0,0518177
3142,4368;0,0519827
3143,4011;0,0521438
3144,3652;0,0523081
3145,3296;0,052482
3146,2937;0,0526684
3147,2581;0,0528656
3148,2222;0,053068
3149,1865;0,0532682
3150,1506;0,0534598
3151,1150;0,0536399
3152,0791;0,0538114
3153,0435;0,0539823
3154,0076;0,0541623
3154,9719;0,0543581
3155,9360;0,05457
3156,9004;0,0547913
3157,8645;0,0550126
3158,8289;0,0552263
3159,7930;0,0554295
3160,7573;0,0556242
3161,7214;0,0558138
3162,6858;0,056001
3163,6499;0,056188
3164,6143;0,0563779
3165,5784;0,0565755
3166,5427;0,0567844
3167,5068;0,0570039
3168,4712;0,057227
3169,4353;0,0573981
3170,3997;0,0576029
3171,3638;0,0577961
3172,3281;0,057985
3173,2922;0,0581773
3174,2566;0,0583756
3175,2207;0,0585751
3176,1851;0,0587676
3177,1492;0,0589485
3178,1135;0,0591214
3179,0776;0,0592966
3180,0420;0,059485
3181,0061;0,0596914
3181,9705;0,0599125
3182,9346;0,0601394
3183,8989;0,060363
3184,8630;0,0605777
3185,8274;0,0607822
3186,7915;0,0609784
3187,7559;0,0611687
3188,7200;0,0613558
3189,6843;0,0615423
3190,6484;0,0617306
3191,6128;0,0619212
3192,5769;0,0621118
3193,5413;0,0622981
3194,5054;0,0624764
3195,4697;0,0626474
3196,4338;0,0628179
3197,3982;0,0629977
3198,3623;0,0631943
3199,3267;0,0634082
3200,2908;0,0636323
3201,2551;0,063855
3202,2192;0,0640665
3203,1836;0,0642629
3204,1477;0,0644473
3205,1121;0,0646279
3206,0762;0,0648129
3207,0405;0,0650067
3208,0046;0,0652066
3208,9690;0,0654039
3209,9331;0,0655886
3210,8975;0,0657561
3211,8616;0,0659123
3212,8259;0,0660722
3213,7900;0,0662524
3214,7544;0,0664611
3215,7185;0,0666913
3216,6829;0,0669252
3217,6470;0,0671437
3218,6113;0,0673374
3219,5754;0,0675098
3220,5398;0,0676723
3221,5039;0,0678341
3222,4683;0,0679975
3223,4324;0,0681598
3224,3967;0,0683199
3225,3608;0,0684827
3226,3252;0,0686571
3227,2893;0,0688491
3228,2537;0,0690565
3229,2178;0,0692693
3230,1821;0,0694755
3231,1462;0,0696674
3232,1106;0,0698434
3233,0747;0,0700062
3234,0391;0,0701599
3235,0032;0,0703093
3235,9675;0,0704612
3236,9316;0,0706244
3237,8960;0,0708065
3238,8601;0,0710092
3239,8245;0,0712257
3240,7886;0,0714438
3241,7529;0,0716522
3242,7170;0,0718469
3243,6814;0,0720312
3244,6455;0,0722127
3245,6099;0,0723978
3246,5740;0,0725899
3247,5383;0,0727901
3248,5024;0,0729994
3249,4668;0,073219
3250,4309;0,0734471
3251,3953;0,0736771
3252,3594;0,0738987
3253,3237;0,074103
3254,2878;0,0742887
3255,2522;0,0744629
3256,2163;0,0746378
3257,1807;0,0748225
3258,1448;0,0750186
3259,1091;0,0752201
3260,0732;0,0754182
3261,0376;0,0756075
3262,0017;0,0757885
3262,9661;0,0759667
3263,9302;0,076149
3264,8945;0,0763403
3265,8586;0,0765414
3266,8230;0,0767487
3267,7871;0,0769548
3268,7515;0,0771507
3269,7156;0,0773272
3270,6799;0,0774783
3271,6440;0,0776025
3272,6084;0,0777033
3273,5725;0,0777869
3274,5369;0,0778605
3275,5010;0,0779304
3276,4653;0,0780028
3277,4294;0,0780843
3278,3938;0,0781815
3279,3579;0,0782976
3280,3223;0,0784296
3281,2864;0,0785669
3282,2507;0,0786949
3283,2148;0,0788007
3284,1792;0,0788791
3285,1433;0,0789342
3286,1077;0,0789761
3287,0718;0,0790158
3288,0361;0,0790598
3289,0002;0,0791091
3289,9646;0,0791608
3290,9287;0,0792108
3291,8931;0,0792558
3292,8572;0,0792945
3293,8215;0,0793269
3294,7856;0,0793542
3295,7500;0,0793785
3296,7141;0,0794019
3297,6785;0,0794256
3298,6426;0,0794498
3299,6069;0,0794732
3300,5710;0,0794949
3301,5354;0,0795157
3302,4995;0,0795377
3303,4639;0,0795632
3304,4280;0,079592
3305,3923;0,0796209
3306,3564;0,0796453
3307,3208;0,0796617
3308,2849;0,0796707
3309,2493;0,0796769
3310,2134;0,0796879
3311,1777;0,0797107
3312,1418;0,0797498
3313,1062;0,0798069
3314,0703;0,0798807
3315,0347;0,0799671
3315,9988;0,0800603
3316,9631;0,080154
3317,9272;0,0802448
3318,8916;0,0803343
3319,8557;0,0804286
3320,8201;0,0805342
3321,7842;0,0806522
3322,7485;0,0807748
3323,7126;0,0808874
3324,6770;0,0809764
3325,6411;0,0810378
3326,6055;0,0810809
3327,5696;0,0811243
3328,5339;0,0811867
3329,4980;0,0812763
3330,4624;0,0813869
3331,4265;0,0815003
3332,3909;0,0815942
3333,3550;0,0816508
3334,3193;0,0816632
3335,2834;0,0816378
3336,2478;0,0815911
3337,2119;0,0815426
3338,1763;0,0815059
3339,1404;0,0814821
3340,1047;0,0814602
3341,0688;0,0814224
3342,0332;0,0813544
3342,9973;0,0812524
3343,9617;0,0811242
3344,9258;0,0809838
3345,8901;0,080843
3346,8542;0,0807071
3347,8186;0,0805741
3348,7827;0,0804398
3349,7471;0,080301
3350,7112;0,0801575
3351,6755;0,080011
3352,6396;0,0798639
3353,6040;0,0797192
3354,5681;0,0795802
3355,5325;0,0794492
3356,4966;0,0793266
3357,4609;0,0792088
3358,4250;0,0790907
3359,3894;0,0789684
3360,3535;0,078842
3361,3179;0,0787152
3362,2820;0,0785917
3363,2463;0,078472
3364,2104;0,0783527
3365,1748;0,0782294
3366,1389;0,0780996
3367,1033;0,0779626
3368,0674;0,0778183
3369,0317;0,0776638
3369,9958;0,077496
3370,9602;0,0773148
3371,9243;0,0771275
3372,8887;0,0769466
3373,8528;0,0767842
3374,8171;0,0766441
3375,7813;0,0765193
3376,7456;0,0763963
3377,7097;0,0762637
3378,6741;0,0761189
3379,6382;0,0759678
3380,6025;0,075818
3381,5667;0,0756728
3382,5310;0,0755296
3383,4951;0,075384
3384,4595;0,0752365
3385,4236;0,075094
3386,3879;0,0749655
3387,3521;0,0748544
3388,3164;0,0747538
3389,2805;0,0746499
3390,2449;0,0745298
3391,2090;0,0743896
3392,1733;0,074237
3393,1375;0,0740855
3394,1018;0,0739456
3395,0659;0,0738173
3396,0303;0,0736905
3396,9944;0,0735515
3397,9587;0,07339
3398,9229;0,0732046
3399,8872;0,0730026
3400,8513;0,0727961
3401,8157;0,0725963
3402,7798;0,0724095
3403,7441;0,0722348
3404,7083;0,0720661
3405,6726;0,071896
3406,6367;0,0717197
3407,6011;0,071537
3408,5652;0,0713505
3409,5295;0,0711608
3410,4937;0,0709659
3411,4580;0,0707627
3412,4221;0,0705521
3413,3865;0,070342
3414,3506;0,0701428
3415,3149;0,0699599
3416,2791;0,0697865
3417,2434;0,069605
3418,2075;0,069396
3419,1719;0,0691513
3420,1360;0,0688812
3421,1003;0,0686101
3422,0645;0,0683612
3423,0288;0,0681427
3423,9929;0,0679432
3424,9573;0,0677402
3425,9214;0,0675136
3426,8857;0,067257
3427,8499;0,0669805
3428,8142;0,0667047
3429,7783;0,0664492
3430,7427;0,0662226
3431,7068;0,0660196
3432,6711;0,0658258
3433,6353;0,0656269
3434,5996;0,0654156
3435,5637;0,0651933
3436,5281;0,0649654
3437,4922;0,064736
3438,4565;0,0645066
3439,4207;0,0642775
3440,3850;0,0640507
3441,3491;0,0638287
3442,3135;0,063609
3443,2776;0,0633807
3444,2419;0,0631271
3445,2061;0,0628362
3446,1704;0,0625122
3447,1345;0,062178
3448,0989;0,0618637
3449,0630;0,0615876
3450,0273;0,0613455
3450,9915;0,0611164
3451,9558;0,0608786
3452,9199;0,0606241
3453,8843;0,0603631
3454,8484;0,0601153
3455,8127;0,0598957
3456,7769;0,0597032
3457,7412;0,0595214
3458,7053;0,0593273
3459,6697;0,0591043
3460,6338;0,0588493
3461,5981;0,0585723
3462,5623;0,0582885
3463,5266;0,0580091
3464,4907;0,0577372
3465,4551;0,0574697
3466,4192;0,0572037
3467,3835;0,0569405
3468,3477;0,0566837
3469,3120;0,0564348
3470,2761;0,0561883
3471,2405;0,0559353
3472,2046;0,0556711
3473,1689;0,055403
3474,1331;0,0551496
3475,0974;0,0549288
3476,0615;0,0547421
3477,0259;0,0545687
3477,9900;0,0543742
3478,9543;0,0541308
3479,9185;0,0538348
3480,8828;0,0535114
3481,8469;0,0531996
3482,8113;0,0529264
3483,7754;0,0526903
3484,7397;0,0524667
3485,7039;0,0522281
3486,6682;0,0519639
3487,6323;0,0516868
3488,5967;0,051423
3489,5608;0,0511928
3490,5251;0,0509961
3491,4893;0,0508119
3492,4536;0,050612
3493,4177;0,0503781
3494,3821;0,0501142
3495,3462;0,0498475
3496,3105;0,0496137
3497,2747;0,0494346
3498,2390;0,0493021
3499,2031;0,0491791
3500,1675;0,0490157
3501,1316;0,0487756
3502,0959;0,0484588
3503,0601;0,0481073
3504,0244;0,0477795
3504,9885;0,047512
3505,9529;0,0472976
3506,9170;0,0470969
3507,8813;0,0468661
3508,8455;0,046584
3509,8098;0,0462635
3510,7739;0,0459415
3511,7383;0,0456534
3512,7024;0,0454133
3513,6667;0,045214
3514,6309;0,0450414
3515,5952;0,0448876
3516,5593;0,0447536
3517,5237;0,044641
3518,4878;0,0445424
3519,4521;0,0444373
3520,4163;0,0442993
3521,3806;0,0441085
3522,3447;0,0438615
3523,3091;0,0435722
3524,2732;0,0432615
3525,2375;0,0429443
3526,2017;0,0426242
3527,1660;0,0423005
3528,1301;0,0419798
3529,0945;0,041679
3530,0586;0,0414173
3531,0229;0,0412022
3531,9871;0,0410231
3532,9514;0,0408563
3533,9155;0,0406752
3534,8799;0,0404629
3535,8440;0,0402216
3536,8083;0,039974
3537,7725;0,0397557
3538,7368;0,0395973
3539,7009;0,0395086
3540,6653;0,03947
3541,6294;0,0394356
3542,5938;0,0393444
3543,5579;0,0391451
3544,5222;0,0388289
3545,4863;0,0384481
3546,4507;0,0380891
3547,4148;0,0378117
3548,3792;0,0376095
3549,3433;0,0374223
3550,3076;0,0371821
3551,2717;0,0368589
3552,2361;0,0364844
3553,2002;0,0361349
3554,1646;0,035879
3555,1287;0,0357321
3556,0930;0,0356543
3557,0571;0,0355866
3558,0215;0,0354944
3558,9856;0,03539
3559,9500;0,0353227
3560,9141;0,0353366
3561,8784;0,0354258
3562,8425;0,0355165
3563,8069;0,03548
3564,7710;0,0351753
3565,7354;0,0345384
3566,6995;0,0336899
3567,6638;0,0329113
3568,6279;0,0324313
3569,5923;0,0322691
3570,5564;0,0322918
3571,5208;0,0323447
3572,4849;0,0323268
3573,4492;0,0322082
3574,4133;0,0320148
3575,3777;0,0317948
3576,3418;0,0315838
3577,3062;0,0313921
3578,2703;0,0312208
3579,2346;0,0310848
3580,1987;0,0310155
3581,1631;0,0310363
3582,1272;0,0311322
3583,0916;0,0312376
3584,0557;0,0312493
3585,0200;0,0310612
3585,9841;0,0306311
3586,9485;0,0300598
3587,9126;0,0295715
3588,8770;0,029344
3589,8411;0,0293739
3590,8054;0,0295224
3591,7695;0,0296311
3592,7339;0,0296006
3593,6980;0,0294199
3594,6624;0,0291581
3595,6265;0,0289063
3596,5908;0,0287045
3597,5549;0,0285189
3598,5193;0,02829
3599,4834;0,0280013
3600,4478;0,0277074
3601,4119;0,0274948
3602,3762;0,0274089
3603,3403;0,0274147
3604,3047;0,0274186
3605,2688;0,0273191
3606,2332;0,0270564
3607,1973;0,0266465
3608,1616;0,0261788
3609,1257;0,0257623
3610,0901;0,0254618
3611,0542;0,0252834
3612,0186;0,0252039
3612,9827;0,0251965
3613,9470;0,02523
3614,9111;0,025254
3615,8755;0,0251974
3616,8396;0,0249928
3617,8040;0,0246265
3618,7681;0,0241886
3619,7324;0,0238604
3620,6965;0,0238012
3621,6609;0,0240351
3622,6250;0,0244547
3623,5894;0,0249004
3624,5535;0,0252173
3625,5178;0,025266
3626,4819;0,0249269
3627,4463;0,0241661
3628,4104;0,0231702
3629,3748;0,022321
3630,3389;0,0218708
3631,3032;0,0217544
3632,2673;0,0217544
3633,2317;0,0217005
3634,1958;0,0215365
3635,1602;0,0212982
3636,1243;0,0210548
3637,0886;0,0208519
3638,0527;0,0206906
3639,0171;0,0205515
3639,9812;0,0204335
3640,9456;0,0203686
3641,9097;0,0204001
3642,8740;0,0205437
3643,8381;0,0207632
3644,8025;0,0209694
3645,7666;0,0210216
3646,7310;0,0207304
3647,6951;0,0199435
3648,6594;0,0188041
3649,6235;0,0178321
3650,5879;0,0174231
3651,5520;0,0175006
3652,5164;0,0177587
3653,4805;0,0179365
3654,4448;0,0179032
3655,4089;0,0176637
3656,3733;0,0173372
3657,3374;0,0170765
3658,3018;0,0169595
3659,2659;0,0169557
3660,2302;0,0169926
3661,1943;0,0170345
3662,1587;0,0171061
3663,1228;0,0172545
3664,0872;0,0174894
3665,0513;0,0177547
3666,0156;0,0179489
3666,9797;0,0179737
3667,9441;0,0177928
3668,9082;0,0174871
3669,8726;0,0172349
3670,8367;0,0171652
3671,8010;0,0172348
3672,7651;0,0172728
3673,7295;0,0171059
3674,6936;0,0166781
3675,6580;0,0161365
3676,6221;0,0157495
3677,5864;0,0156631
3678,5505;0,0158128
3679,5149;0,0160605
3680,4790;0,0163216
3681,4434;0,0165848
3682,4075;0,0168703
3683,3718;0,0171792
3684,3359;0,017471
3685,3003;0,0176746
3686,2644;0,0177156
3687,2288;0,0175474
3688,1929;0,0171971
3689,1572;0,0168049
3690,1213;0,0165621
3691,0857;0,016557
3692,0498;0,016732
3693,0142;0,0169791
3693,9783;0,0172225
3694,9426;0,0174326
3695,9067;0,0176033
3696,8711;0,0177283
3697,8352;0,0177912
3698,7996;0,0177737
3699,7637;0,0176757
3700,7280;0,0175353
3701,6921;0,0174284
3702,6565;0,0174339
3703,6206;0,0175839
3704,5850;0,0178476
3705,5491;0,0181534
3706,5134;0,0184157
3707,4775;0,0185406
3708,4419;0,0184208
3709,4060;0,0179648
3710,3704;0,0172035
3711,3345;0,0163837
3712,2988;0,015832
3713,2629;0,0156978
3714,2273;0,0159085
3715,1914;0,0163054
3716,1558;0,0167559
3717,1199;0,0171865
3718,0842;0,0175749
3719,0483;0,017926
3720,0127;0,0182457
3720,9768;0,0185214
3721,9412;0,0187224
3722,9053;0,0188216
3723,8696;0,0188255
3724,8337;0,0187871
3725,7981;0,0187825
3726,7622;0,0188626
3727,7266;0,0190251
3728,6907;0,0192254
3729,6550;0,0194075
3730,6191;0,0195203
3731,5835;0,0195118
3732,5476;0,0193141
3733,5120;0,0188614
3734,4761;0,0181859
3735,4404;0,0174999
3736,4045;0,0170776
3737,3689;0,0170302
3738,3330;0,0172595
3739,2974;0,0175701
3740,2615;0,0177701
3741,2258;0,0177164
3742,1899;0,0173477
3743,1543;0,0167476
3744,1184;0,0161813
3745,0828;0,0159432
3746,0469;0,0160924
3747,0112;0,0164177
3747,9753;0,0166184
3748,9397;0,0164594
3749,9038;0,0158961
3750,8682;0,0151875
3751,8323;0,0147534
3752,7966;0,0147857
3753,7607;0,0151426
3754,7251;0,0155663
3755,6892;0,015857
3756,6536;0,0159205
3757,6177;0,0157744
3758,5820;0,015536
3759,5461;0,0153595
3760,5105;0,0153367
3761,4746;0,0154559
3762,4390;0,0156416
3763,4031;0,0158144
3764,3674;0,0159214
3765,3315;0,0159395
3766,2959;0,0158659
3767,2600;0,0157086
3768,2244;0,0154872
3769,1885;0,0152441
3770,1528;0,0150485
3771,1169;0,0149718
3772,0813;0,0150453
3773,0454;0,0152397
3774,0098;0,0154818
3774,9739;0,0156881
3775,9382;0,0157935
3776,9023;0,0157723
3777,8667;0,0156538
3778,8308;0,0155163
3779,7952;0,0154419
3780,7593;0,0154597
3781,7236;0,0155332
3782,6877;0,0155959
3783,6521;0,0155964
3784,6162;0,0155245
3785,5806;0,0154136
3786,5447;0,0153199
3787,5090;0,0152923
3788,4731;0,0153507
3789,4375;0,0154808
3790,4016;0,015646
3791,3660;0,0158045
3792,3301;0,0159288
3793,2944;0,0160187
3794,2585;0,0161003
3795,2229;0,0162065
3796,1870;0,0163433
3797,1514;0,0164682
3798,1155;0,016501
3799,0798;0,0163693
3800,0439;0,0160736
3801,0083;0,0157238
3801,9724;0,0154761
3802,9368;0,015395
3803,9009;0,0154001
3804,8652;0,0153515
3805,8293;0,015175
3806,7937;0,0149367
3807,7578;0,0148105
3808,7222;0,0149328
3809,6863;0,0152854
3810,6506;0,0157256
3811,6147;0,0160932
3812,5791;0,0162878
3813,5432;0,0163025
3814,5076;0,0162244
3815,4717;0,0161834
3816,4360;0,0162465
3817,4001;0,0163495
3818,3645;0,0163445
3819,3286;0,0161217
3820,2930;0,0157193
3821,2571;0,0153305
3822,2214;0,0151531
3823,1855;0,01523
3824,1499;0,0154574
3825,1140;0,0156996
3826,0784;0,0158718
3827,0425;0,0159594
3828,0068;0,0159964
3828,9709;0,0160306
3829,9353;0,0160948
3830,8994;0,0161978
3831,8638;0,0163293
3832,8279;0,016466
3833,7922;0,0165739
3834,7563;0,016612
3835,7207;0,0165438
3836,6848;0,0163608
3837,6492;0,016105
3838,6133;0,0158587
3839,5776;0,0156882
3840,5417;0,0155948
3841,5061;0,0155329
3842,4702;0,0154706
3843,4346;0,0154315
3844,3987;0,0154855
3845,3630;0,0156973
3846,3271;0,0160763
3847,2915;0,0165619
3848,2556;0,0170437
3849,2200;0,0173839
3850,1841;0,0174225
3851,1484;0,0169881
3852,1125;0,0160172
3853,0769;0,0148236
3854,0410;0,0140395
3855,0054;0,0139817
3855,9695;0,0144466
3856,9338;0,0150923
3857,8979;0,0156885
3858,8623;0,0161307
3859,8264;0,0163903
3860,7908;0,0164791
3861,7549;0,0164383
3862,7192;0,0163384
3863,6833;0,0162631
3864,6477;0,0162647
3865,6118;0,0163324
3866,5762;0,016406
3867,5403;0,0164168
3868,5046;0,0163201
3869,4688;0,0161149
3870,4331;0,0158507
3871,3972;0,0156104
3872,3616;0,0154721
3873,3257;0,0154721
3874,2900;0,0155963
3875,2542;0,0157946
3876,2185;0,0160044
3877,1826;0,0161722
3878,1470;0,0162703
3879,1111;0,0163039
3880,0754;0,0163
3881,0396;0,0162779
3882,0039;0,0162243
3882,9680;0,016108
3883,9324;0,0159278
3884,8965;0,0157458
3885,8608;0,0156563
3886,8250;0,0157074
3887,7893;0,0158525
3888,7534;0,0159802
3889,7178;0,0159897
3890,6819;0,0158656
3891,6462;0,0157088
3892,6104;0,0156712
3893,5747;0,0158308
3894,5388;0,0161392
3895,5032;0,0164809
3896,4673;0,0167516
3897,4316;0,016895
3898,3958;0,0169046
3899,3601;0,0168039
3900,3242;0,0166183
3901,2886;0,0163559
3902,2527;0,0160241
3903,2170;0,0156671
3904,1812;0,0153712
3905,1455;0,0152147
3906,1096;0,015214
3907,0740;0,0153253
3908,0381;0,0154856
3909,0024;0,0156504
3909,9666;0,0158058
3910,9309;0,0159576
3911,8950;0,0161107
3912,8594;0,0162524
3913,8235;0,0163494
3914,7878;0,0163643
3915,7520;0,0162828
3916,7163;0,0161379
3917,6804;0,0160064
3918,6448;0,0159618
3919,6089;0,0160223
3920,5732;0,0161405
3921,5374;0,0162382
3922,5017;0,0162558
3923,4658;0,0161895
3924,4302;0,0160961
3925,3943;0,0160547
3926,3586;0,0161084
3927,3228;0,0162352
3928,2871;0,0163641
3929,2512;0,0164158
3930,2156;0,0163441
3931,1797;0,0161643
3932,1440;0,0159495
3933,1082;0,0157862
3934,0725;0,0157243
3935,0366;0,0157627
3936,0010;0,0158695
3936,9651;0,0160058
3937,9294;0,0161373
3938,8936;0,0162357
3939,8579;0,0162807
3940,8220;0,0162672
3941,7864;0,0162146
3942,7505;0,0161631
3943,7148;0,0161513
3944,6790;0,0161899
3945,6433;0,0162536
3946,6074;0,0162971
3947,5718;0,0162822
3948,5359;0,0162019
3949,5002;0,0160867
3950,4644;0,0159849
3951,4287;0,015931
3952,3928;0,0159291
3953,3572;0,0159592
3954,3213;0,015996
3955,2856;0,0160237
3956,2498;0,0160391
3957,2141;0,0160466
3958,1782;0,016049
3959,1426;0,0160442
3960,1067;0,0160275
3961,0710;0,0159989
3962,0352;0,0159669
3962,9995;0,0159465
3963,9636;0,0159505
3964,9280;0,015983
3965,8921;0,0160363
3966,8564;0,0160958
3967,8206;0,0161469
3968,7849;0,016181
3969,7490;0,0161979
3970,7134;0,0162028
3971,6775;0,0162008
3972,6418;0,0161935
3973,6060;0,0161795
3974,5703;0,016158
3975,5344;0,016132
3976,4988;0,0161072
3977,4629;0,0160891
3978,4272;0,0160787
3979,3914;0,0160728
3980,3557;0,0160664
3981,3198;0,0160574
3982,2842;0,0160487
3983,2483;0,0160472
3984,2126;0,0160596
3985,1768;0,0160882
3986,1411;0,016129
3987,1052;0,0161728
3988,0696;0,0162085
3989,0337;0,0162277
3989,9980;0,0162271
3990,9622;0,0162092
3991,9265;0,0161805
3992,8906;0,0161484
3993,8550;0,016119
3994,8191;0,0160952
3995,7834;0,0160776
3996,7476;0,0160661
3997,7119;0,0160614
3998,6760;0,0160657
3999,6404;0,0160815
4000,6045;0,0162053

##### Extended Information
[Comments]
Sample name
Comment
Username
Division
Organization;UNIVERSIDAD INDUSTRIAL DE SANTANDER

[Detailed Information]
Creation date;19/02/2025 3:20 p.m.

Data array type;Linear data array
Horizontal axis;Wavenumber [cm-1]
Vertical axis;Abs
Start;399,193 cm-1
End;4000,6 cm-1
Data interval;0,964233 cm-1
Data points;3736    

[Measurement Information]
Model name;FT/IR-4X1typeA
Serial No.;A035162111

Accessory;ATR PRO 4X
Accessory S/N;A021162126
Incident angle;45 deg

Measurement date;19/02/2025 3:19 p.m.

Light source;Standard
Detector;TGS
Accumulation;20
Resolution;4 cm-1
Zero filling;On
Apodization;Cosine
Gain;Auto (8)
Aperture;Auto (7 mm)
Scan speed;Auto (2 mm/sec)
Filter;Auto (12800 Hz)

