TITLE;
DATA TYPE;INFRARED SPECTRUM
ORIGIN;JASCO
OWNER;
DATE;25/02/19
TIME;15:21:50
SPECTROMETER/DATA SYSTEM;
LOCALE;9226
RESOLUTION;
DELTAX;0,964233
XUNITS;1/CM
YUNITS;ABSORBANCE
FIRSTX;  399,1927
LASTX; 4000,6047
NPOINTS;    3736
FIRSTY;     0,17414
MAXY;     0,24050
MINY;     0,01328
XYDATA
399,1927;0,174138
400,1569;0,170997
401,1211;0,167758
402,0854;0,165273
403,0496;0,163816
404,0138;0,163401
404,9781;0,163913
405,9423;0,165098
406,9065;0,166532
407,8708;0,167697
408,8350;0,168153
409,7992;0,167726
410,7635;0,166611
411,7277;0,165303
412,6919;0,164336
413,6562;0,164019
414,6204;0,164389
415,5846;0,165346
416,5489;0,166786
417,5131;0,168565
418,4773;0,170308
419,4416;0,171395
420,4058;0,171455
421,3700;0,170726
422,3343;0,169786
423,2985;0,169206
424,2627;0,169378
425,2270;0,170391
426,1912;0,171949
427,1554;0,173484
428,1197;0,174449
429,0839;0,174604
430,0481;0,174109
431,0124;0,173407
431,9766;0,172976
432,9408;0,173075
433,9051;0,173639
434,8693;0,174365
435,8335;0,174937
436,7978;0,175209
437,7620;0,175238
438,7262;0,17515
439,6905;0,175001
440,6547;0,174728
441,6189;0,174234
442,5832;0,17352
443,5474;0,172757
444,5116;0,172202
445,4759;0,172018
446,4401;0,172159
447,4043;0,172424
448,3686;0,172601
449,3328;0,172592
450,2970;0,172437
451,2613;0,172249
452,2255;0,17211
453,1897;0,171996
454,1540;0,171807
455,1182;0,171456
456,0824;0,170965
457,0467;0,170498
458,0109;0,170276
458,9751;0,170399
459,9394;0,170738
460,9036;0,171031
461,8678;0,171059
462,8321;0,170747
463,7963;0,170186
464,7605;0,169578
465,7248;0,169149
466,6890;0,169034
467,6532;0,169216
468,6175;0,169551
469,5817;0,16985
470,5459;0,169956
471,5102;0,169809
472,4744;0,169471
473,4386;0,169094
474,4029;0,168839
475,3671;0,168811
476,3313;0,169034
477,2956;0,169476
478,2598;0,170066
479,2240;0,170713
480,1883;0,171335
481,1525;0,171869
482,1167;0,172278
483,0810;0,172539
484,0452;0,172637
485,0094;0,172568
485,9737;0,172359
486,9379;0,172078
487,9021;0,171817
488,8664;0,171673
489,8306;0,171726
490,7948;0,172011
491,7591;0,172502
492,7233;0,173104
493,6875;0,173691
494,6518;0,174153
495,6160;0,174446
496,5802;0,174594
497,5445;0,174669
498,5087;0,174741
499,4729;0,174846
500,4372;0,174965
501,4014;0,175053
502,3656;0,175082
503,3299;0,17508
504,2941;0,175124
505,2583;0,175298
506,2226;0,175654
507,1868;0,176189
508,1510;0,176854
509,1153;0,177576
510,0795;0,178277
511,0437;0,178896
512,0080;0,179389
512,9722;0,179742
513,9365;0,179972
514,9007;0,180132
515,8649;0,180288
516,8292;0,180501
517,7934;0,180787
518,7576;0,181119
519,7219;0,181443
520,6861;0,181722
521,6503;0,181941
522,6146;0,182104
523,5788;0,182208
524,5430;0,182235
525,5073;0,182171
526,4715;0,182018
527,4357;0,181812
528,4000;0,181612
529,3642;0,181474
530,3284;0,181433
531,2927;0,181485
532,2569;0,181587
533,2211;0,181663
534,1854;0,181626
535,1496;0,18142
536,1138;0,181057
537,0781;0,180617
538,0423;0,180226
539,0065;0,179992
539,9708;0,179957
540,9350;0,180075
541,8992;0,180234
542,8635;0,180313
543,8277;0,180242
544,7919;0,180035
545,7562;0,179789
546,7204;0,179638
547,6846;0,179691
548,6489;0,179981
549,6131;0,18045
550,5773;0,180983
551,5416;0,181471
552,5058;0,181857
553,4700;0,182157
554,4343;0,18244
555,3985;0,182775
556,3627;0,183171
557,3270;0,18355
558,2912;0,183765
559,2554;0,183664
560,2197;0,183164
561,1839;0,182296
562,1481;0,181188
563,1124;0,180013
564,0766;0,178911
565,0408;0,177941
566,0051;0,177093
566,9693;0,176325
567,9335;0,17562
568,8978;0,175
569,8620;0,174508
570,8262;0,174174
571,7905;0,173984
572,7547;0,173893
573,7189;0,173837
574,6832;0,173762
575,6474;0,173628
576,6116;0,173425
577,5759;0,173169
578,5401;0,172906
579,5043;0,172695
580,4686;0,172589
581,4328;0,172605
582,3970;0,172707
583,3613;0,172824
584,3255;0,172885
585,2897;0,172863
586,2540;0,172786
587,2182;0,172718
588,1824;0,172715
589,1467;0,172793
590,1109;0,17292
591,0751;0,173037
592,0394;0,173091
593,0036;0,173057
593,9678;0,172945
594,9321;0,172774
595,8963;0,172559
596,8605;0,172296
597,8248;0,171971
598,7890;0,171572
599,7532;0,171111
600,7175;0,17062
601,6817;0,170139
602,6459;0,1697
603,6102;0,169302
604,5744;0,168919
605,5386;0,168511
606,5029;0,168055
607,4671;0,167549
608,4313;0,167012
609,3956;0,166467
610,3598;0,165931
611,3240;0,165417
612,2883;0,164938
613,2525;0,164513
614,2167;0,164144
615,1810;0,163791
616,1452;0,163358
617,1094;0,162723
618,0737;0,161802
619,0379;0,160607
620,0021;0,159243
620,9664;0,157856
621,9306;0,156567
622,8948;0,155435
623,8591;0,154467
624,8233;0,153615
625,7875;0,152888
626,7518;0,152262
627,7160;0,151716
628,6802;0,151218
629,6445;0,150731
630,6087;0,150222
631,5729;0,149681
632,5372;0,149128
633,5014;0,148602
634,4656;0,148142
635,4299;0,147761
636,3941;0,147447
637,3583;0,147168
638,3226;0,146891
639,2868;0,146593
640,2510;0,146263
641,2153;0,145904
642,1795;0,145533
643,1437;0,145179
644,1080;0,144882
645,0722;0,144676
646,0364;0,144569
647,0007;0,144533
647,9649;0,144506
648,9291;0,144427
649,8934;0,144263
650,8576;0,144034
651,8218;0,143792
652,7861;0,143596
653,7503;0,143475
654,7145;0,143432
655,6788;0,143452
656,6430;0,143518
657,6072;0,143618
658,5715;0,143731
659,5357;0,143808
660,4999;0,143774
661,4642;0,14356
662,4284;0,143134
663,3926;0,142511
664,3569;0,141754
665,3211;0,141018
666,2853;0,140546
667,2496;0,140478
668,2138;0,140478
669,1780;0,139975
670,1423;0,138991
671,1065;0,137879
672,0707;0,136734
673,0350;0,135477
673,9992;0,134071
674,9634;0,132568
675,9277;0,131067
676,8919;0,12965
677,8561;0,12835
678,8204;0,127154
679,7846;0,126038
680,7488;0,124981
681,7131;0,123969
682,6773;0,122989
683,6415;0,122044
684,6058;0,121154
685,5700;0,120353
686,5342;0,119665
687,4985;0,119082
688,4627;0,118568
689,4269;0,118076
690,3912;0,117575
691,3554;0,117067
692,3196;0,116567
693,2839;0,116082
694,2481;0,115606
695,2123;0,115125
696,1766;0,114631
697,1408;0,114134
698,1050;0,113648
699,0693;0,11318
700,0335;0,112718
700,9977;0,112237
701,9620;0,111718
702,9262;0,111162
703,8904;0,110588
704,8547;0,110036
705,8189;0,109537
706,7831;0,109091
707,7474;0,108666
708,7116;0,108211
709,6758;0,10769
710,6401;0,107092
711,6043;0,106442
712,5685;0,105786
713,5328;0,105168
714,4970;0,104619
715,4612;0,103722
716,4255;0,103395
717,3897;0,103118
718,3539;0,102808
719,3182;0,102363
720,2824;0,101711
721,2466;0,10085
722,2109;0,0998583
723,1751;0,0988524
724,1393;0,0979294
725,1036;0,0971306
726,0678;0,0964406
727,0320;0,0958107
727,9963;0,0951935
728,9605;0,0945674
729,9247;0,0939405
730,8890;0,0933376
731,8532;0,0927815
732,8174;0,092281
733,7817;0,0918295
734,7459;0,091411
735,7101;0,0910085
736,6744;0,0906112
737,6386;0,0902174
738,6028;0,089833
739,5671;0,0894656
740,5313;0,089116
741,4955;0,0887732
742,4598;0,0884169
743,4240;0,0880275
744,3882;0,0875975
745,3525;0,0871351
746,3167;0,0866561
747,2809;0,0861705
748,2452;0,0856741
749,2094;0,085155
750,1736;0,0846085
751,1379;0,0840507
752,1021;0,0835156
753,0663;0,0830352
754,0306;0,0826157
754,9948;0,0822281
755,9590;0,0818225
756,9233;0,0813582
757,8875;0,0808313
758,8517;0,0802798
759,8160;0,0797645
760,7802;0,0793375
761,7444;0,0790165
762,7087;0,0787788
763,6729;0,0785759
764,6371;0,0783581
765,6014;0,0780964
766,5656;0,0777907
767,5298;0,0774644
768,4941;0,0771486
769,4583;0,0768657
770,4225;0,0766206
771,3868;0,0764021
772,3510;0,0761919
773,3152;0,0759743
774,2795;0,0757409
775,2437;0,075488
776,2079;0,0752123
777,1722;0,0749105
778,1364;0,074583
779,1006;0,0742391
780,0649;0,0738971
781,0291;0,0735764
781,9933;0,0732871
782,9576;0,0730243
783,9218;0,0727723
784,8860;0,0725168
785,8503;0,0722556
786,8145;0,072
787,7787;0,071765
788,7430;0,0715572
789,7072;0,0713669
790,6714;0,0711729
791,6357;0,0709537
792,5999;0,0706996
793,5641;0,0704179
794,5284;0,070129
795,4926;0,0698576
796,4568;0,0696243
797,4211;0,0694401
798,3853;0,0693048
799,3495;0,0692092
800,3138;0,0691389
801,2780;0,0690786
802,2422;0,0690169
803,2065;0,0689466
804,1707;0,0688631
805,1349;0,0687618
806,0992;0,0686383
807,0634;0,0684909
808,0276;0,0683258
808,9919;0,0681566
809,9561;0,0679996
810,9203;0,0678655
811,8846;0,0677542
812,8488;0,0676568
813,8130;0,067563
814,7773;0,0674689
815,7415;0,0673783
816,7057;0,0672983
817,6700;0,0672326
818,6342;0,0671779
819,5984;0,0671266
820,5627;0,0670712
821,5269;0,0670076
822,4911;0,066934
823,4554;0,0668484
824,4196;0,0667477
825,3839;0,066631
826,3481;0,0665025
827,3123;0,0663726
828,2766;0,0662535
829,2408;0,0661522
830,2050;0,0660659
831,1693;0,0659843
832,1335;0,0658954
833,0977;0,065793
834,0620;0,0656769
835,0262;0,0655493
835,9904;0,0654081
836,9547;0,0652462
837,9189;0,0650572
838,8831;0,0648443
839,8474;0,0646254
840,8116;0,0644275
841,7758;0,0642745
842,7401;0,0641752
843,7043;0,0641195
844,6685;0,0640871
845,6328;0,0640594
846,5970;0,0640288
847,5612;0,0639986
848,5255;0,0639768
849,4897;0,063969
850,4539;0,063976
851,4182;0,0639951
852,3824;0,0640211
853,3466;0,0640444
854,3109;0,0640481
855,2751;0,0640093
856,2393;0,0639083
857,2036;0,0637405
858,1678;0,063525
859,1320;0,0633017
860,0963;0,0631163
861,0605;0,0630015
862,0247;0,0629631
862,9890;0,0629797
863,9532;0,0630152
864,9174;0,0630383
865,8817;0,0630371
866,8459;0,0630222
867,8101;0,0630179
868,7744;0,0630476
869,7386;0,0631218
870,7028;0,0632358
871,6671;0,0633747
872,6313;0,0635218
873,5955;0,0636625
874,5598;0,0637845
875,5240;0,063877
876,4882;0,0639341
877,4525;0,0639624
878,4167;0,0639869
879,3809;0,0640481
880,3452;0,0641895
881,3094;0,0644403
882,2736;0,0648044
883,2379;0,0652635
884,2021;0,0657898
885,1663;0,0663625
886,1306;0,0669757
887,0948;0,0676371
888,0590;0,0683586
889,0233;0,069147
889,9875;0,0699973
890,9517;0,0708904
891,9160;0,0717929
892,8802;0,0726589
893,8444;0,0734357
894,8087;0,0740731
895,7729;0,0745329
896,7371;0,074795
897,7014;0,0748571
898,6656;0,074728
899,6298;0,074422
900,5941;0,0739571
901,5583;0,073359
902,5225;0,0726658
903,4868;0,0719282
904,4510;0,071201
905,4152;0,0705308
906,3795;0,0699445
907,3437;0,0694467
908,3079;0,0690266
909,2722;0,0686701
910,2364;0,0683709
911,2007;0,068133
912,1649;0,0679661
913,1292;0,0678768
914,0934;0,0678625
915,0576;0,0679125
916,0219;0,0680138
916,9861;0,068158
917,9503;0,0683433
918,9146;0,068571
919,8788;0,0688387
920,8430;0,0691362
921,8073;0,0694464
922,7715;0,0697515
923,7357;0,0700384
924,7000;0,0703022
925,6642;0,070544
926,6284;0,0707687
927,5927;0,0709821
928,5569;0,0711913
929,5211;0,0714041
930,4854;0,0716275
931,4496;0,0718636
932,4138;0,0721082
933,3781;0,0723528
934,3423;0,0725922
935,3065;0,0728325
936,2708;0,073093
937,2350;0,0734006
938,1992;0,0737786
939,1635;0,0742368
940,1277;0,0747699
941,0919;0,0753648
942,0562;0,0760119
943,0204;0,0767115
943,9846;0,0774724
944,9489;0,0783051
945,9131;0,0792137
946,8773;0,0801945
947,8416;0,0812395
948,8058;0,0823418
949,7700;0,0834983
950,7343;0,0847079
951,6985;0,0859701
952,6627;0,0872854
953,6270;0,0886586
954,5912;0,0901015
955,5554;0,09163
956,5197;0,0932548
957,4839;0,0949708
958,4481;0,0967529
959,4124;0,098561
960,3766;0,100355
961,3408;0,102108
962,3051;0,103818
963,2693;0,105505
964,2335;0,107199
965,1978;0,108925
966,1620;0,110704
967,1262;0,112539
968,0905;0,114435
969,0547;0,116394
970,0189;0,118432
970,9832;0,120572
971,9474;0,122847
972,9116;0,12529
973,8759;0,127933
974,8401;0,130797
975,8043;0,133894
976,7686;0,137221
977,7328;0,140756
978,6970;0,144456
979,6613;0,148257
980,6255;0,15207
981,5897;0,155796
982,5540;0,159331
983,5182;0,162587
984,4824;0,165505
985,4467;0,168065
986,4109;0,170286
987,3751;0,17221
988,3394;0,173885
989,3036;0,175351
990,2678;0,176633
991,2321;0,177746
992,1963;0,178706
993,1605;0,179544
994,1248;0,180309
995,0890;0,181056
996,0532;0,181831
997,0175;0,182662
997,9817;0,183549
998,9459;0,184472
999,9102;0,185406
1000,8744;0,186341
1001,8386;0,187292
1002,8029;0,188296
1003,7671;0,189402
1004,7313;0,190661
1005,6956;0,192114
1006,6598;0,193786
1007,6240;0,195687
1008,5883;0,197811
1009,5525;0,200133
1010,5167;0,202614
1011,4810;0,205204
1012,4452;0,207853
1013,4094;0,210521
1014,3737;0,213178
1015,3379;0,215795
1016,3021;0,218334
1017,2664;0,220748
1018,2306;0,222988
1019,1948;0,225025
1020,1591;0,226861
1021,1233;0,228533
1022,0875;0,230096
1023,0518;0,231597
1024,0160;0,233064
1024,9802;0,234496
1025,9445;0,235873
1026,9087;0,237163
1027,8729;0,238326
1028,8372;0,239314
1029,8014;0,24006
1030,7656;0,240482
1031,7299;0,240498
1032,6941;0,240041
1033,6583;0,239082
1034,6226;0,237651
1035,5868;0,235841
1036,5510;0,233798
1037,5153;0,231699
1038,4795;0,229715
1039,4437;0,227978
1040,4080;0,226561
1041,3722;0,225473
1042,3364;0,22467
1043,3007;0,224075
1044,2649;0,223603
1045,2291;0,223171
1046,1934;0,222712
1047,1576;0,222174
1048,1218;0,221518
1049,0861;0,220715
1050,0503;0,219736
1051,0145;0,21856
1051,9788;0,217167
1052,9430;0,215556
1053,9072;0,213741
1054,8715;0,211747
1055,8357;0,209592
1056,7999;0,207273
1057,7642;0,204756
1058,7284;0,201987
1059,6926;0,198929
1060,6569;0,195585
1061,6211;0,192021
1062,5853;0,188357
1063,5496;0,184738
1064,5138;0,181295
1065,4780;0,178121
1066,4423;0,175254
1067,4065;0,172686
1068,3707;0,170376
1069,3350;0,168266
1070,2992;0,166298
1071,2634;0,164417
1072,2277;0,162576
1073,1919;0,160732
1074,1561;0,158851
1075,1204;0,156909
1076,0846;0,154896
1077,0488;0,152826
1078,0131;0,15074
1078,9773;0,148695
1079,9415;0,146761
1080,9058;0,145
1081,8700;0,143453
1082,8342;0,142134
1083,7985;0,141028
1084,7627;0,140102
1085,7269;0,139313
1086,6912;0,138623
1087,6554;0,138003
1088,6196;0,137441
1089,5839;0,136941
1090,5481;0,136513
1091,5123;0,136173
1092,4766;0,135932
1093,4408;0,135792
1094,4050;0,135743
1095,3693;0,135767
1096,3335;0,135846
1097,2977;0,135965
1098,2620;0,136122
1099,2262;0,136315
1100,1904;0,13654
1101,1547;0,136774
1102,1189;0,136982
1103,0831;0,137116
1104,0474;0,137137
1105,0116;0,137029
1105,9758;0,136805
1106,9401;0,136495
1107,9043;0,136126
1108,8685;0,135698
1109,8328;0,135183
1110,7970;0,134529
1111,7612;0,13369
1112,7255;0,132651
1113,6897;0,131446
1114,6539;0,130144
1115,6182;0,128829
1116,5824;0,127575
1117,5466;0,126419
1118,5109;0,125355
1119,4751;0,124341
1120,4393;0,123314
1121,4036;0,122203
1122,3678;0,120942
1123,3320;0,119484
1124,2963;0,117802
1125,2605;0,115888
1126,2247;0,113759
1127,1890;0,111447
1128,1532;0,109007
1129,1174;0,106498
1130,0817;0,103985
1131,0459;0,101519
1132,0101;0,0991336
1132,9744;0,0968463
1133,9386;0,094671
1134,9028;0,092631
1135,8671;0,0907672
1136,8313;0,0891327
1137,7955;0,0877775
1138,7598;0,0867294
1139,7240;0,0859827
1140,6882;0,0855003
1141,6525;0,0852275
1142,6167;0,0851099
1143,5809;0,0851082
1144,5452;0,0852026
1145,5094;0,0853895
1146,4736;0,0856726
1147,4379;0,0860545
1148,4021;0,0865319
1149,3663;0,0870937
1150,3306;0,0877226
1151,2948;0,0883959
1152,2590;0,0890862
1153,2233;0,0897609
1154,1875;0,0903818
1155,1517;0,0909045
1156,1160;0,0912785
1157,0802;0,091449
1158,0444;0,0913593
1159,0087;0,0909546
1159,9729;0,0901867
1160,9371;0,0890202
1161,9014;0,087439
1162,8656;0,0854528
1163,8298;0,0831021
1164,7941;0,0804576
1165,7583;0,0776152
1166,7225;0,0746852
1167,6868;0,0717767
1168,6510;0,0689843
1169,6152;0,0663773
1170,5795;0,063997
1171,5437;0,0618611
1172,5079;0,0599699
1173,4722;0,058314
1174,4364;0,0568772
1175,4006;0,0556384
1176,3649;0,0545736
1177,3291;0,0536593
1178,2933;0,0528767
1179,2576;0,0522142
1180,2218;0,0516657
1181,1860;0,0512264
1182,1503;0,0508872
1183,1145;0,0506338
1184,0787;0,050449
1185,0430;0,0503189
1186,0072;0,0502387
1186,9714;0,0502142
1187,9357;0,0502596
1188,8999;0,0503914
1189,8641;0,0506228
1190,8284;0,0509598
1191,7926;0,0514011
1192,7568;0,0519395
1193,7211;0,0525648
1194,6853;0,053264
1195,6495;0,0540222
1196,6138;0,0548216
1197,5780;0,0556427
1198,5422;0,0564677
1199,5065;0,0571834
1200,4707;0,0579984
1201,4349;0,0588039
1202,3992;0,059606
1203,3634;0,0604089
1204,3276;0,0612112
1205,2919;0,062006
1206,2561;0,0627849
1207,2203;0,063546
1208,1846;0,0642988
1209,1488;0,0650658
1210,1130;0,0658773
1211,0773;0,0667623
1212,0415;0,0677385
1213,0057;0,0688066
1213,9700;0,0699503
1214,9342;0,0711427
1215,8984;0,0723546
1216,8627;0,0735606
1217,8269;0,0747424
1218,7911;0,0758893
1219,7554;0,0769962
1220,7196;0,0780599
1221,6838;0,0790773
1222,6481;0,0800434
1223,6123;0,0809523
1224,5765;0,0817992
1225,5408;0,0825837
1226,5050;0,0833116
1227,4692;0,0839937
1228,4335;0,0846401
1229,3977;0,0852542
1230,3619;0,0858294
1231,3262;0,086352
1232,2904;0,0868082
1233,2546;0,0871931
1234,2189;0,0875136
1235,1831;0,0877844
1236,1473;0,0880196
1237,1116;0,0882246
1238,0758;0,0883942
1239,0400;0,0885174
1240,0043;0,0885843
1240,9685;0,0885908
1241,9327;0,0885374
1242,8970;0,0884253
1243,8612;0,0882534
1244,8254;0,0880189
1245,7897;0,0877214
1246,7539;0,0873667
1247,7181;0,0869664
1248,6824;0,0865343
1249,6466;0,086082
1250,6108;0,0856167
1251,5751;0,0851422
1252,5393;0,084662
1253,5035;0,0841799
1254,4678;0,0836977
1255,4320;0,0832121
1256,3962;0,0827133
1257,3605;0,082188
1258,3247;0,0816253
1259,2889;0,0810211
1260,2532;0,0803791
1261,2174;0,0797072
1262,1816;0,0790112
1263,1459;0,0782922
1264,1101;0,0775464
1265,0743;0,0767691
1266,0386;0,0759564
1267,0028;0,0751064
1267,9670;0,0742189
1268,9313;0,0732959
1269,8955;0,0723421
1270,8597;0,0713662
1271,8240;0,0703798
1272,7882;0,0693953
1273,7524;0,0684238
1274,7167;0,0674744
1275,6809;0,0665554
1276,6451;0,0656744
1277,6094;0,0648368
1278,5736;0,0640429
1279,5378;0,0632873
1280,5021;0,0625613
1281,4663;0,061857
1282,4305;0,0611713
1283,3948;0,0605066
1284,3590;0,0598692
1285,3232;0,0592666
1286,2875;0,0587077
1287,2517;0,0582015
1288,2159;0,0577563
1289,1802;0,0573769
1290,1444;0,0570629
1291,1086;0,05681
1292,0729;0,0566148
1293,0371;0,0564799
1294,0013;0,0564143
1294,9656;0,0564293
1295,9298;0,0565307
1296,8940;0,056714
1297,8583;0,0569669
1298,8225;0,0572758
1299,7867;0,0576331
1300,7510;0,0580393
1301,7152;0,0585004
1302,6794;0,0590207
1303,6437;0,0595997
1304,6079;0,0602317
1305,5721;0,0609073
1306,5364;0,0616147
1307,5006;0,0623403
1308,4648;0,0630703
1309,4291;0,0637919
1310,3933;0,0644948
1311,3575;0,0651701
1312,3218;0,0658078
1313,2860;0,0663933
1314,2502;0,0669052
1315,2145;0,0673167
1316,1787;0,0675998
1317,1429;0,0677334
1318,1072;0,0677132
1319,0714;0,0675589
1320,0356;0,0673113
1320,9999;0,0670196
1321,9641;0,0667254
1322,9283;0,0664547
1323,8926;0,0662192
1324,8568;0,0660205
1325,8210;0,0658535
1326,7853;0,0657078
1327,7495;0,0655688
1328,7137;0,0654217
1329,6780;0,0652556
1330,6422;0,0650673
1331,6064;0,0648616
1332,5707;0,0646464
1333,5349;0,0644267
1334,4991;0,0641968
1335,4634;0,0639363
1336,4276;0,0636118
1337,3918;0,0631867
1338,3561;0,0626435
1339,3203;0,0620095
1340,2845;0,0613576
1341,2488;0,0607669
1342,2130;0,06028
1343,1772;0,0598968
1344,1415;0,0595985
1345,1057;0,0593708
1346,0699;0,0592124
1347,0342;0,0591307
1347,9984;0,0591346
1348,9626;0,0592278
1349,9269;0,0594072
1350,8911;0,0596629
1351,8553;0,0599821
1352,8196;0,0603529
1353,7838;0,0607693
1354,7480;0,0612327
1355,7123;0,0617484
1356,6765;0,0623184
1357,6407;0,0629351
1358,6050;0,0635827
1359,5692;0,0642392
1360,5334;0,0648756
1361,4977;0,0654578
1362,4619;0,0659642
1363,4261;0,0664053
1364,3904;0,0668143
1365,3546;0,0672141
1366,3188;0,0676003
1367,2831;0,0679497
1368,2473;0,0682364
1369,2115;0,0684429
1370,1758;0,0685599
1371,1400;0,0685796
1372,1042;0,0684881
1373,0685;0,0682689
1374,0327;0,0679193
1374,9969;0,067464
1375,9612;0,0669381
1376,9254;0,0663494
1377,8896;0,0656657
1378,8539;0,0648475
1379,8181;0,0638954
1380,7823;0,0628708
1381,7466;0,0618646
1382,7108;0,0609351
1383,6750;0,0600693
1384,6393;0,0591981
1385,6035;0,0582538
1386,5677;0,0572416
1387,5320;0,0562725
1388,4962;0,0554953
1389,4604;0,0549785
1390,4247;0,0546779
1391,3889;0,0544986
1392,3531;0,0543641
1393,3174;0,0542393
1394,2816;0,0541202
1395,2458;0,0540119
1396,2101;0,0539185
1397,1743;0,0538479
1398,1385;0,0538214
1399,1028;0,0538702
1400,0670;0,0540165
1401,0313;0,0542556
1401,9955;0,054557
1402,9597;0,0548819
1403,9240;0,0552051
1404,8882;0,055529
1405,8524;0,0558801
1406,8167;0,0562881
1407,7809;0,0567622
1408,7451;0,0572903
1409,7094;0,0578575
1410,6736;0,0584613
1411,6378;0,0591085
1412,6021;0,0597984
1413,5663;0,060508
1414,5305;0,0611957
1415,4948;0,0618148
1416,4590;0,062324
1417,4232;0,0626922
1418,3875;0,0629215
1419,3517;0,063075
1420,3159;0,06323
1421,2802;0,0633865
1422,2444;0,0634636
1423,2086;0,063377
1424,1729;0,0631011
1425,1371;0,0626699
1426,1013;0,0621289
1427,0656;0,061486
1428,0298;0,0607119
1428,9940;0,0597944
1429,9583;0,0587951
1430,9225;0,0578324
1431,8867;0,0569871
1432,8510;0,0562318
1433,8152;0,0554522
1434,7794;0,0545297
1435,7437;0,0534483
1436,7079;0,0523766
1437,6721;0,0515854
1438,6364;0,0512148
1439,6006;0,0511898
1440,5648;0,051352
1441,5291;0,0515914
1442,4933;0,0518758
1443,4575;0,0522179
1444,4218;0,0526285
1445,3860;0,0530927
1446,3502;0,0535756
1447,3145;0,0540502
1448,2787;0,0545197
1449,2429;0,0550121
1450,2072;0,0555446
1451,1714;0,0560932
1452,1356;0,0565986
1453,0999;0,0569948
1454,0641;0,0572256
1455,0283;0,0572256
1455,9926;0,0568936
1456,9568;0,0562234
1457,9210;0,0555523
1458,8853;0,0552861
1459,8495;0,0554223
1460,8137;0,0556865
1461,7780;0,0558127
1462,7422;0,0556188
1463,7064;0,0550093
1464,6707;0,0540282
1465,6349;0,0528924
1466,5991;0,0518478
1467,5634;0,0509664
1468,5276;0,0501358
1469,4918;0,0491724
1470,4561;0,0479
1471,4203;0,0461963
1472,3845;0,0440981
1473,3488;0,041918
1474,3130;0,0400829
1475,2772;0,0387779
1476,2415;0,0378997
1477,2057;0,0372668
1478,1699;0,0367513
1479,1342;0,0362916
1480,0984;0,0358695
1481,0626;0,0354944
1482,0269;0,0351949
1482,9911;0,0350029
1483,9553;0,0349336
1484,9196;0,0349757
1485,8838;0,0350982
1486,8480;0,0352591
1487,8123;0,0354076
1488,7765;0,0355095
1489,7407;0,0356087
1490,7050;0,0358148
1491,6692;0,0361866
1492,6334;0,036691
1493,5977;0,0372696
1494,5619;0,0378962
1495,5261;0,0385816
1496,4904;0,0393433
1497,4546;0,0401821
1498,4188;0,0410922
1499,3831;0,0420595
1500,3473;0,04303
1501,3115;0,0439127
1502,2758;0,0446245
1503,2400;0,0451287
1504,2042;0,0454431
1505,1685;0,0455903
1506,1327;0,0454797
1507,0969;0,0449685
1508,0612;0,0442703
1509,0254;0,0437775
1509,9896;0,0435332
1510,9539;0,0433616
1511,9181;0,043116
1512,8823;0,0427288
1513,8466;0,0421826
1514,8108;0,0414873
1515,7750;0,0406764
1516,7393;0,0398012
1517,7035;0,0389052
1518,6677;0,0379971
1519,6320;0,0370623
1520,5962;0,0361139
1521,5604;0,035234
1522,5247;0,0345304
1523,4889;0,0340435
1524,4531;0,0337228
1525,4174;0,0334939
1526,3816;0,0333258
1527,3458;0,0332342
1528,3101;0,033236
1529,2743;0,0333151
1530,2385;0,0334317
1531,2028;0,0335506
1532,1670;0,0336606
1533,1312;0,0337777
1534,0955;0,0339326
1535,0597;0,034134
1536,0239;0,0343512
1536,9882;0,034549
1537,9524;0,034734
1538,9166;0,0349372
1539,8809;0,0351057
1540,8451;0,035093
1541,8093;0,0349504
1542,7736;0,0349129
1543,7378;0,0350565
1544,7020;0,0353165
1545,6663;0,0356327
1546,6305;0,0359765
1547,5947;0,0363248
1548,5590;0,0366484
1549,5232;0,0369271
1550,4874;0,0371704
1551,4517;0,0374194
1552,4159;0,037714
1553,3801;0,0380522
1554,3444;0,0383819
1555,3086;0,0386309
1556,2728;0,0387306
1557,2371;0,0386007
1558,2013;0,0382034
1559,1655;0,0378357
1560,1298;0,037992
1561,0940;0,0387105
1562,0582;0,0396858
1563,0225;0,0406607
1563,9867;0,0415141
1564,9509;0,0422117
1565,9152;0,0427645
1566,8794;0,0432142
1567,8436;0,0436333
1568,8079;0,0441126
1569,7721;0,0447155
1570,7363;0,0454311
1571,7006;0,0461846
1572,6648;0,0469021
1573,6290;0,0475652
1574,5933;0,048216
1575,5575;0,0489123
1576,5217;0,0496757
1577,4860;0,0504971
1578,4502;0,0513621
1579,4144;0,0522458
1580,3787;0,0531198
1581,3429;0,0539705
1582,3071;0,0548011
1583,2714;0,0556203
1584,2356;0,0564357
1585,1998;0,0572514
1586,1641;0,0580633
1587,1283;0,0588543
1588,0925;0,0595943
1589,0568;0,0602477
1590,0210;0,0607812
1590,9852;0,0611666
1591,9495;0,0613769
1592,9137;0,0613883
1593,8779;0,0611932
1594,8422;0,060816
1595,8064;0,0603131
1596,7706;0,0597503
1597,7349;0,0591754
1598,6991;0,0586069
1599,6633;0,0580423
1600,6276;0,0574752
1601,5918;0,0569094
1602,5560;0,0563631
1603,5203;0,0558587
1604,4845;0,0554053
1605,4487;0,0549859
1606,4130;0,0545637
1607,3772;0,0541076
1608,3414;0,0536264
1609,3057;0,0531806
1610,2699;0,0528452
1611,2341;0,0526462
1612,1984;0,0525355
1613,1626;0,0524192
1614,1268;0,0522048
1615,0911;0,051849
1616,0553;0,0514177
1617,0195;0,051098
1617,9838;0,0510516
1618,9480;0,0512586
1619,9122;0,051565
1620,8765;0,0518187
1621,8407;0,0519384
1622,8049;0,0519243
1623,7692;0,0518397
1624,7334;0,0517618
1625,6976;0,0517274
1626,6619;0,0517294
1627,6261;0,0517613
1628,5903;0,0518422
1629,5546;0,0519928
1630,5188;0,0521962
1631,4830;0,0523942
1632,4473;0,0525148
1633,4115;0,052495
1634,3757;0,0522861
1635,3400;0,0518939
1636,3042;0,0514754
1637,2684;0,051262
1638,2327;0,0513186
1639,1969;0,0515378
1640,1611;0,0517957
1641,1254;0,0520217
1642,0896;0,0521854
1643,0538;0,0522665
1644,0181;0,0522348
1644,9823;0,0520499
1645,9465;0,0517144
1646,9108;0,0513586
1647,8750;0,0511633
1648,8392;0,0511485
1649,8035;0,0511555
1650,7677;0,0509635
1651,7319;0,0503378
1652,6962;0,0491461
1653,6604;0,0477754
1654,6246;0,0469921
1655,5889;0,0469583
1656,5531;0,0472684
1657,5173;0,0475442
1658,4816;0,0475997
1659,4458;0,0473759
1660,4100;0,0468811
1661,3743;0,046186
1662,3385;0,0454439
1663,3027;0,044836
1664,2670;0,0444443
1665,2312;0,044207
1666,1954;0,0439835
1667,1597;0,0436274
1668,1239;0,0430381
1669,0881;0,042227
1670,0524;0,0413549
1671,0166;0,0406158
1671,9808;0,0400523
1672,9451;0,0395516
1673,9093;0,0389879
1674,8735;0,0383473
1675,8378;0,0377541
1676,8020;0,0373667
1677,7662;0,0372306
1678,7305;0,0372477
1679,6947;0,0372581
1680,6589;0,0371109
1681,6232;0,0366774
1682,5874;0,0358646
1683,5516;0,0347421
1684,5159;0,0336732
1685,4801;0,0330289
1686,4443;0,0328161
1687,4086;0,0328065
1688,3728;0,032803
1689,3370;0,0327259
1690,3013;0,0325833
1691,2655;0,0324191
1692,2297;0,032274
1693,1940;0,0321723
1694,1582;0,0321175
1695,1224;0,0320856
1696,0867;0,0320183
1697,0509;0,0318428
1698,0151;0,0315342
1698,9794;0,0311816
1699,9436;0,0309665
1700,9078;0,0310328
1701,8721;0,0313792
1702,8363;0,0318858
1703,8005;0,0324139
1704,7648;0,0328777
1705,7290;0,0332669
1706,6932;0,0336339
1707,6575;0,0340529
1708,6217;0,0345728
1709,5859;0,0351959
1710,5502;0,0358929
1711,5144;0,036624
1712,4786;0,0373497
1713,4429;0,0380311
1714,4071;0,0386261
1715,3713;0,0390867
1716,3356;0,0393873
1717,2998;0,039604
1718,2640;0,0399133
1719,2283;0,0404273
1720,1925;0,0411116
1721,1567;0,0418672
1722,1210;0,0426136
1723,0852;0,043311
1724,0494;0,0439552
1725,0137;0,0445663
1725,9779;0,0451738
1726,9421;0,045796
1727,9064;0,0464202
1728,8706;0,0469968
1729,8348;0,0474456
1730,7991;0,0476676
1731,7633;0,0475681
1732,7275;0,047129
1733,6918;0,0465144
1734,6560;0,0460177
1735,6202;0,0457945
1736,5845;0,0457476
1737,5487;0,0456713
1738,5129;0,0454047
1739,4772;0,0448934
1740,4414;0,0441929
1741,4056;0,0434226
1742,3699;0,0426801
1743,3341;0,0419833
1744,2983;0,0412871
1745,2626;0,0405318
1746,2268;0,0396596
1747,1910;0,0385987
1748,1553;0,0372663
1749,1195;0,0356479
1750,0837;0,0339001
1751,0480;0,0322978
1752,0122;0,0310251
1752,9764;0,0300646
1753,9407;0,0292734
1754,9049;0,0285083
1755,8691;0,0277005
1756,8334;0,0268653
1757,7976;0,0260554
1758,7618;0,0252966
1759,7261;0,0245628
1760,6903;0,0238143
1761,6545;0,0230593
1762,6188;0,0223681
1763,5830;0,0218184
1764,5472;0,0214313
1765,5115;0,0211653
1766,4757;0,0209538
1767,4399;0,0207419
1768,4042;0,0204958
1769,3684;0,0201924
1770,3326;0,0198096
1771,2969;0,0193458
1772,2611;0,0188611
1773,2253;0,0184725
1774,1896;0,018267
1775,1538;0,0182343
1776,1180;0,0182911
1777,0823;0,0183454
1778,0465;0,0183385
1779,0107;0,0182554
1779,9750;0,018117
1780,9392;0,0179583
1781,9034;0,0178059
1782,8677;0,017672
1783,8319;0,0175669
1784,7961;0,01751
1785,7604;0,0175228
1786,7246;0,0176078
1787,6888;0,0177383
1788,6531;0,017867
1789,6173;0,0179417
1790,5815;0,0179194
1791,5458;0,0177897
1792,5100;0,0176058
1793,4742;0,0174663
1794,4385;0,0174341
1795,4027;0,0174912
1796,3669;0,0175749
1797,3312;0,017627
1798,2954;0,0176152
1799,2596;0,0175345
1800,2239;0,0174028
1801,1881;0,0172556
1802,1523;0,017133
1803,1166;0,0170621
1804,0808;0,01705
1805,0450;0,0170872
1806,0093;0,0171535
1806,9735;0,017223
1807,9377;0,0172684
1808,9020;0,0172685
1809,8662;0,0172188
1810,8304;0,017138
1811,7947;0,0170584
1812,7589;0,0170049
1813,7231;0,0169797
1814,6874;0,0169666
1815,6516;0,0169456
1816,6158;0,0169093
1817,5801;0,0168697
1818,5443;0,0168528
1819,5085;0,0168801
1820,4728;0,016954
1821,4370;0,0170559
1822,4012;0,0171575
1823,3655;0,0172358
1824,3297;0,0172827
1825,2939;0,0173035
1826,2582;0,0173029
1827,2224;0,0172721
1828,1866;0,0171932
1829,1509;0,0170628
1830,1151;0,0169161
1831,0793;0,0168155
1832,0436;0,0168032
1833,0078;0,0168685
1833,9720;0,0169612
1834,9363;0,0170301
1835,9005;0,0170509
1836,8647;0,0170364
1837,8290;0,0170228
1838,7932;0,0170385
1839,7574;0,0170838
1840,7217;0,0171359
1841,6859;0,0171687
1842,6501;0,017165
1843,6144;0,017123
1844,5786;0,0170605
1845,5428;0,0170069
1846,5071;0,0169788
1847,4713;0,0169672
1848,4355;0,0169528
1849,3998;0,0169259
1850,3640;0,0168909
1851,3282;0,0168588
1852,2925;0,0168362
1853,2567;0,0168234
1854,2209;0,0168179
1855,1852;0,0168194
1856,1494;0,0168307
1857,1136;0,0168526
1858,0779;0,0168808
1859,0421;0,0169068
1860,0063;0,0169252
1860,9706;0,0169403
1861,9348;0,0169653
1862,8990;0,0170154
1863,8633;0,0170978
1864,8275;0,0172059
1865,7917;0,0173147
1866,7560;0,0173779
1867,7202;0,0173403
1868,6844;0,0171803
1869,6487;0,0169459
1870,6129;0,0167271
1871,5771;0,016591
1872,5414;0,0165529
1873,5056;0,0165913
1874,4698;0,0166694
1875,4341;0,0167491
1876,3983;0,0168019
1877,3625;0,0168187
1878,3268;0,0168114
1879,2910;0,016803
1880,2552;0,0168137
1881,2195;0,0168517
1882,1837;0,0169117
1883,1479;0,0169802
1884,1122;0,0170427
1885,0764;0,0170885
1886,0406;0,017111
1887,0049;0,0171065
1887,9691;0,0170746
1888,9333;0,0170215
1889,8976;0,0169631
1890,8618;0,0169211
1891,8260;0,0169115
1892,7903;0,0169368
1893,7545;0,0169852
1894,7188;0,0170365
1895,6830;0,0170706
1896,6472;0,0170769
1897,6115;0,0170591
1898,5757;0,0170319
1899,5399;0,017012
1900,5042;0,0170098
1901,4684;0,0170246
1902,4326;0,0170453
1903,3969;0,0170563
1904,3611;0,0170461
1905,3253;0,0170128
1906,2896;0,0169637
1907,2538;0,0169096
1908,2180;0,0168581
1909,1823;0,0168123
1910,1465;0,0167736
1911,1107;0,0167473
1912,0750;0,0167424
1913,0392;0,0167675
1914,0034;0,0168267
1914,9677;0,0169172
1915,9319;0,0170273
1916,8961;0,0171368
1917,8604;0,0172228
1918,8246;0,0172676
1919,7888;0,017263
1920,7531;0,0172091
1921,7173;0,0171162
1922,6815;0,0170086
1923,6458;0,016922
1924,6100;0,0168891
1925,5742;0,0169195
1926,5385;0,0169936
1927,5027;0,0170747
1928,4669;0,0171327
1929,4312;0,0171616
1930,3954;0,0171818
1931,3596;0,0172223
1932,3239;0,0172931
1933,2881;0,0173689
1934,2523;0,017398
1935,2166;0,0173322
1936,1808;0,0171603
1937,1450;0,0169224
1938,1093;0,0166958
1939,0735;0,0165646
1940,0377;0,0165859
1941,0020;0,0167625
1941,9662;0,0170308
1942,9304;0,0172839
1943,8947;0,0174268
1944,8589;0,0174268
1945,8231;0,0173196
1946,7874;0,0171771
1947,7516;0,0170652
1948,7158;0,0170154
1949,6801;0,0170185
1950,6443;0,0170422
1951,6085;0,0170603
1952,5728;0,017072
1953,5370;0,0170965
1954,5012;0,0171495
1955,4655;0,0172239
1956,4297;0,0172913
1957,3939;0,0173235
1958,3582;0,0173124
1959,3224;0,0172723
1960,2866;0,017221
1961,2509;0,0171607
1962,2151;0,0170788
1963,1793;0,0169674
1964,1436;0,0168406
1965,1078;0,0167285
1966,0720;0,0166519
1967,0363;0,0166006
1968,0005;0,0165452
1968,9647;0,0164758
1969,9290;0,0164296
1970,8932;0,0164741
1971,8574;0,0166549
1972,8217;0,0169486
1973,7859;0,017258
1974,7501;0,0174628
1975,7144;0,017498
1976,6786;0,0173986
1977,6428;0,0172703
1978,6071;0,0172073
1979,5713;0,0172317
1980,5355;0,0173011
1981,4998;0,0173626
1982,4640;0,0174002
1983,4282;0,017444
1984,3925;0,0175421
1985,3567;0,0177194
1986,3209;0,0179511
1987,2852;0,0181703
1988,2494;0,0183039
1989,2136;0,0183131
1990,1779;0,0182157
1991,1421;0,0180741
1992,1063;0,0179569
1993,0706;0,0178957
1994,0348;0,0178723
1994,9990;0,0178408
1995,9633;0,0177638
1996,9275;0,0176345
1997,8917;0,0174744
1998,8560;0,0173147
1999,8202;0,0171799
2000,7844;0,0170863
2001,7487;0,0170546
2002,7129;0,017118
2003,6771;0,0173099
2004,6414;0,0176308
2005,6056;0,0180208
2006,5698;0,0183656
2007,5341;0,01855
2008,4983;0,018524
2009,4625;0,0183311
2010,4268;0,0180756
2011,3910;0,0178558
2012,3552;0,017713
2013,3195;0,0176283
2014,2837;0,0175603
2015,2479;0,0174929
2016,2122;0,0174568
2017,1764;0,0175062
2018,1406;0,017666
2019,1049;0,0178976
2020,0691;0,018115
2021,0333;0,0182426
2021,9976;0,0182692
2022,9618;0,0182577
2023,9260;0,0182979
2024,8903;0,0184308
2025,8545;0,0186026
2026,8187;0,0186876
2027,7830;0,0185749
2028,7472;0,0182594
2029,7114;0,0178687
2030,6757;0,0176025
2031,6399;0,0176185
2032,6041;0,017943
2033,5684;0,0184654
2034,5326;0,0190156
2035,4968;0,019464
2036,4611;0,0197693
2037,4253;0,0199538
2038,3895;0,0200417
2039,3538;0,0200191
2040,3180;0,0198445
2041,2822;0,0194954
2042,2465;0,0190123
2043,2107;0,0185015
2044,1749;0,0180947
2045,1392;0,0178928
2046,1034;0,0179256
2047,0676;0,0181449
2048,0320;0,0184515
2048,9961;0,0187418
2049,9604;0,018949
2050,9246;0,0190555
2051,8889;0,0190822
2052,8530;0,0190683
2053,8174;0,019054
2054,7815;0,0190663
2055,7458;0,0191118
2056,7100;0,0191756
2057,6743;0,0192316
2058,6384;0,0192578
2059,6028;0,0192473
2060,5669;0,01921
2061,5313;0,0191631
2062,4954;0,0191198
2063,4597;0,0190835
2064,4238;0,0190514
2065,3882;0,0190213
2066,3523;0,018995
2067,3167;0,018976
2068,2808;0,0189651
2069,2451;0,0189605
2070,2092;0,018962
2071,1736;0,018974
2072,1377;0,0190017
2073,1021;0,0190436
2074,0662;0,0190882
2075,0305;0,0191215
2075,9946;0,0191411
2076,9590;0,0191634
2077,9231;0,019215
2078,8875;0,0193096
2079,8516;0,0194307
2080,8159;0,0195338
2081,7800;0,0195721
2082,7444;0,0195272
2083,7085;0,0194241
2084,6729;0,0193174
2085,6370;0,01926
2086,6013;0,0192742
2087,5654;0,0193442
2088,5298;0,0194309
2089,4939;0,0194966
2090,4583;0,0195227
2091,4224;0,0195111
2092,3867;0,0194756
2093,3508;0,0194328
2094,3152;0,0193983
2095,2793;0,0193873
2096,2437;0,0194112
2097,2078;0,0194697
2098,1721;0,019544
2099,1362;0,0196004
2100,1006;0,0196053
2101,0647;0,019543
2102,0291;0,0194305
2102,9932;0,0193094
2103,9575;0,0192265
2104,9216;0,0192101
2105,8860;0,0192576
2106,8501;0,0193401
2107,8145;0,0194228
2108,7786;0,0194838
2109,7429;0,0195234
2110,7070;0,0195563
2111,6714;0,019596
2112,6355;0,0196417
2113,5999;0,0196774
2114,5640;0,0196809
2115,5283;0,0196388
2116,4924;0,0195569
2117,4568;0,0194614
2118,4209;0,019391
2119,3853;0,0193819
2120,3494;0,0194527
2121,3137;0,0195945
2122,2778;0,0197732
2123,2422;0,019944
2124,2063;0,0200727
2125,1707;0,020151
2126,1348;0,0201965
2127,0991;0,0202359
2128,0632;0,020284
2129,0276;0,0203333
2129,9917;0,0203627
2130,9561;0,020358
2131,9202;0,020327
2132,8845;0,0202967
2133,8486;0,020292
2134,8130;0,0203152
2135,7771;0,0203469
2136,7415;0,0203694
2137,7056;0,0203923
2138,6699;0,0204536
2139,6340;0,0205909
2140,5984;0,0208054
2141,5625;0,0210462
2142,5269;0,0212306
2143,4910;0,021286
2144,4553;0,0211908
2145,4194;0,0209884
2146,3838;0,0207711
2147,3479;0,0206429
2148,3123;0,020678
2149,2764;0,0208905
2150,2407;0,0212247
2151,2048;0,0215737
2152,1692;0,0218245
2153,1333;0,0219134
2154,0977;0,0218622
2155,0618;0,0217692
2156,0261;0,0217489
2156,9902;0,0218462
2157,9546;0,0219825
2158,9187;0,022
2159,8831;0,021793
2160,8472;0,0214057
2161,8115;0,0210018
2162,7756;0,0207484
2163,7400;0,0207172
2164,7041;0,0208586
2165,6685;0,0210453
2166,6326;0,0211509
2167,5969;0,0211172
2168,5610;0,0209718
2169,5254;0,0207962
2170,4895;0,02067
2171,4539;0,0206265
2172,4180;0,02064
2173,3823;0,0206482
2174,3464;0,0205967
2175,3108;0,0204803
2176,2749;0,0203553
2177,2393;0,0203114
2178,2034;0,0204189
2179,1677;0,0206804
2180,1318;0,0210145
2181,0962;0,0212855
2182,0603;0,0213703
2183,0247;0,0212291
2183,9888;0,0209352
2184,9531;0,0206414
2185,9172;0,0205016
2186,8816;0,0205933
2187,8457;0,0208816
2188,8101;0,0212408
2189,7742;0,0215186
2190,7385;0,0216097
2191,7026;0,0215003
2192,6670;0,0212629
2193,6311;0,0210078
2194,5955;0,0208193
2195,5596;0,0207139
2196,5239;0,0206421
2197,4880;0,0205338
2198,4524;0,0203546
2199,4165;0,0201374
2200,3809;0,019964
2201,3450;0,0199077
2202,3093;0,0199775
2203,2734;0,0201031
2204,2378;0,0201759
2205,2019;0,0201195
2206,1663;0,0199407
2207,1304;0,0197267
2208,0947;0,0195899
2209,0588;0,0196005
2210,0232;0,0197475
2210,9873;0,0199505
2211,9517;0,0201078
2212,9158;0,0201482
2213,8801;0,020059
2214,8442;0,0198827
2215,8086;0,0196926
2216,7727;0,0195645
2217,7371;0,0195518
2218,7012;0,0196706
2219,6655;0,0198948
2220,6296;0,0201646
2221,5940;0,0204073
2222,5581;0,0205635
2223,5225;0,0206057
2224,4866;0,0205431
2225,4509;0,0204111
2226,4150;0,0202547
2227,3794;0,0201123
2228,3435;0,0200077
2229,3079;0,0199459
2230,2720;0,0199152
2231,2363;0,0198956
2232,2004;0,019871
2233,1648;0,0198393
2234,1289;0,0198147
2235,0933;0,0198182
2236,0574;0,0198643
2237,0217;0,0199526
2237,9858;0,0200705
2238,9502;0,020203
2239,9143;0,0203385
2240,8787;0,0204665
2241,8428;0,0205697
2242,8071;0,020624
2243,7712;0,0206091
2244,7356;0,0205258
2245,6997;0,0204058
2246,6641;0,0203012
2247,6282;0,0202613
2248,5925;0,0203084
2249,5566;0,0204303
2250,5210;0,0205908
2251,4851;0,0207495
2252,4495;0,0208764
2253,4136;0,0209557
2254,3779;0,0209818
2255,3420;0,0209566
2256,3064;0,0208893
2257,2705;0,0207964
2258,2349;0,0206979
2259,1990;0,0206089
2260,1633;0,0205334
2261,1274;0,020466
2262,0918;0,0204
2263,0559;0,0203359
2264,0203;0,0202831
2264,9844;0,0202541
2265,9487;0,020257
2266,9128;0,0202909
2267,8772;0,0203483
2268,8413;0,0204179
2269,8057;0,0204857
2270,7698;0,0205348
2271,7341;0,0205478
2272,6982;0,0205146
2273,6626;0,020442
2274,6267;0,0203545
2275,5911;0,0202847
2276,5552;0,0202551
2277,5195;0,0202645
2278,4836;0,0202905
2279,4480;0,0203059
2280,4121;0,0202992
2281,3765;0,0202833
2282,3406;0,0202869
2283,3049;0,020335
2284,2690;0,0204321
2285,2334;0,020559
2286,1975;0,0206854
2287,1619;0,0207877
2288,1260;0,0208625
2289,0903;0,0209269
2290,0544;0,021006
2291,0188;0,0211167
2291,9829;0,0212575
2292,9473;0,0214098
2293,9114;0,0215489
2294,8757;0,0216557
2295,8398;0,0217245
2296,8042;0,0217604
2297,7683;0,0217706
2298,7327;0,0217576
2299,6968;0,021717
2300,6611;0,0216442
2301,6252;0,0215429
2302,5896;0,0214312
2303,5537;0,0213398
2304,5181;0,0213009
2305,4822;0,0213334
2306,4465;0,0214296
2307,4106;0,0215517
2308,3750;0,0216415
2309,3391;0,0216415
2310,3035;0,0215195
2311,2676;0,021284
2312,2319;0,0209818
2313,1960;0,0206773
2314,1604;0,0204236
2315,1245;0,020244
2316,0889;0,0201321
2317,0530;0,0200672
2318,0173;0,0200332
2318,9814;0,0200303
2319,9458;0,0200748
2320,9099;0,0201888
2321,8743;0,0203841
2322,8384;0,0206479
2323,8027;0,0209357
2324,7668;0,0211807
2325,7312;0,0213177
2326,6953;0,021313
2327,6597;0,0211833
2328,6238;0,0209937
2329,5881;0,0208337
2330,5522;0,0207817
2331,5166;0,0208706
2332,4807;0,0210741
2333,4451;0,0213208
2334,4092;0,0215322
2335,3735;0,0216638
2336,3376;0,0217282
2337,3020;0,0217875
2338,2661;0,0219149
2339,2305;0,0221409
2340,1946;0,0224089
2341,1589;0,0225686
2342,1230;0,0224377
2343,0874;0,0219582
2344,0515;0,0213644
2345,0159;0,0210901
2345,9800;0,0213856
2346,9443;0,022102
2347,9084;0,0228555
2348,8728;0,0233055
2349,8369;0,0233148
2350,8013;0,0229709
2351,7654;0,0225072
2352,7297;0,0221588
2353,6938;0,0220317
2354,6582;0,0221007
2355,6223;0,0223185
2356,5867;0,0226654
2357,5508;0,0230865
2358,5151;0,0234421
2359,4792;0,0235652
2360,4436;0,0233727
2361,4077;0,0229089
2362,3721;0,0222895
2363,3362;0,0216216
2364,3005;0,0209668
2365,2646;0,0203457
2366,2290;0,0197573
2367,1931;0,0191989
2368,1575;0,0186814
2369,1216;0,0182329
2370,0859;0,0178862
2371,0500;0,017661
2372,0144;0,0175556
2372,9785;0,0175542
2373,9429;0,0176431
2374,9070;0,017819
2375,8713;0,0180849
2376,8354;0,0184395
2377,7998;0,0188672
2378,7639;0,0193367
2379,7283;0,0198061
2380,6924;0,0202319
2381,6567;0,0205774
2382,6208;0,0208193
2383,5852;0,0209509
2384,5493;0,0209837
2385,5137;0,0209435
2386,4778;0,0208649
2387,4421;0,0207813
2388,4063;0,0207176
2389,3706;0,0206843
2390,3347;0,0206782
2391,2991;0,0206876
2392,2632;0,0206993
2393,2275;0,0207049
2394,1917;0,0207029
2395,1560;0,0206981
2396,1201;0,0206986
2397,0845;0,0207126
2398,0486;0,020746
2399,0129;0,0207975
2399,9771;0,0208589
2400,9414;0,0209164
2401,9055;0,0209541
2402,8699;0,0209609
2403,8340;0,0209353
2404,7983;0,0208873
2405,7625;0,020836
2406,7268;0,0208023
2407,6909;0,0208023
2408,6553;0,0208413
2409,6194;0,0209119
2410,5837;0,0209986
2411,5479;0,0210836
2412,5122;0,0211538
2413,4763;0,0212042
2414,4407;0,0212378
2415,4048;0,0212612
2416,3691;0,0212791
2417,3333;0,0212914
2418,2976;0,0212947
2419,2617;0,0212862
2420,2261;0,0212671
2421,1902;0,0212436
2422,1545;0,0212241
2423,1187;0,021216
2424,0830;0,0212224
2425,0471;0,0212429
2426,0115;0,0212743
2426,9756;0,0213125
2427,9399;0,0213534
2428,9041;0,0213936
2429,8684;0,0214321
2430,8325;0,0214719
2431,7969;0,0215188
2432,7610;0,0215776
2433,7253;0,0216469
2434,6895;0,0217162
2435,6538;0,0217692
2436,6179;0,0217917
2437,5823;0,0217803
2438,5464;0,0217447
2439,5107;0,0217024
2440,4749;0,02167
2441,4392;0,0216554
2442,4033;0,0216578
2443,3677;0,0216727
2444,3318;0,0216967
2445,2961;0,0217288
2446,2603;0,0217667
2447,2246;0,0218042
2448,1887;0,0218328
2449,1531;0,0218473
2450,1172;0,0218507
2451,0815;0,0218537
2452,0457;0,0218674
2453,0100;0,0218954
2453,9741;0,0219313
2454,9385;0,0219633
2455,9026;0,0219827
2456,8669;0,0219892
2457,8311;0,0219901
2458,7954;0,0219929
2459,7595;0,0220001
2460,7239;0,0220078
2461,6880;0,02201
2462,6523;0,022005
2463,6165;0,0219968
2464,5808;0,0219939
2465,5449;0,0220044
2466,5093;0,0220326
2467,4734;0,022078
2468,4377;0,0221365
2469,4019;0,0222009
2470,3662;0,0222619
2471,3303;0,02231
2472,2947;0,0223373
2473,2588;0,0223406
2474,2231;0,0223236
2475,1873;0,0222957
2476,1516;0,0222688
2477,1157;0,0222536
2478,0801;0,0222561
2479,0442;0,0222771
2480,0085;0,0223125
2480,9727;0,0223549
2481,9370;0,0223964
2482,9011;0,02243
2483,8655;0,0224523
2484,8296;0,0224638
2485,7939;0,0224684
2486,7581;0,0224718
2487,7224;0,0224789
2488,6865;0,0224918
2489,6509;0,0225087
2490,6150;0,0225246
2491,5793;0,0225331
2492,5435;0,02253
2493,5078;0,0225155
2494,4719;0,0224955
2495,4363;0,0224791
2496,4004;0,0224745
2497,3647;0,0224858
2498,3289;0,0225116
2499,2932;0,022546
2500,2573;0,0225822
2501,2217;0,0226139
2502,1858;0,0226367
2503,1501;0,0226488
2504,1143;0,0226516
2505,0786;0,0226505
2506,0427;0,0226536
2507,0071;0,0226685
2507,9712;0,0226981
2508,9355;0,022738
2509,8997;0,0227772
2510,8640;0,022803
2511,8281;0,0228064
2512,7925;0,0227869
2513,7566;0,0227531
2514,7209;0,0227208
2515,6851;0,0227073
2516,6494;0,022725
2517,6135;0,0227748
2518,5779;0,0228433
2519,5420;0,0229066
2520,5063;0,0229404
2521,4705;0,0229328
2522,4348;0,0228911
2523,3989;0,0228394
2524,3633;0,0228054
2525,3274;0,0228068
2526,2917;0,0228437
2527,2559;0,022902
2528,2202;0,022964
2529,1843;0,0230187
2530,1487;0,0230635
2531,1128;0,0230995
2532,0771;0,0231249
2533,0413;0,0231328
2534,0056;0,0231163
2534,9697;0,0230759
2535,9341;0,0230236
2536,8982;0,0229788
2537,8625;0,0229588
2538,8267;0,02297
2539,7910;0,0230037
2540,7551;0,023042
2541,7195;0,0230674
2542,6836;0,0230715
2543,6479;0,0230588
2544,6121;0,0230428
2545,5764;0,023038
2546,5405;0,0230524
2547,5049;0,0230847
2548,4690;0,0231258
2549,4333;0,0231642
2550,3975;0,023191
2551,3618;0,0232029
2552,3259;0,023202
2553,2903;0,023193
2554,2544;0,0231801
2555,2188;0,0231662
2556,1829;0,0231517
2557,1472;0,0231369
2558,1113;0,0231219
2559,0757;0,0231081
2560,0398;0,0230967
2561,0042;0,0230892
2561,9683;0,0230872
2562,9326;0,0230928
2563,8967;0,0231087
2564,8611;0,0231366
2565,8252;0,0231752
2566,7896;0,0232192
2567,7537;0,0232597
2568,7180;0,0232874
2569,6821;0,0232964
2570,6465;0,0232861
2571,6106;0,0232616
2572,5750;0,0232313
2573,5391;0,0232042
2574,5034;0,0231884
2575,4675;0,0231897
2576,4319;0,0232103
2577,3960;0,0232479
2578,3604;0,0232945
2579,3245;0,023338
2580,2888;0,023366
2581,2529;0,0233713
2582,2173;0,0233561
2583,1814;0,0233324
2584,1458;0,0233163
2585,1099;0,0233208
2586,0742;0,0233486
2587,0383;0,0233909
2588,0027;0,0234324
2588,9668;0,0234599
2589,9312;0,0234691
2590,8953;0,0234659
2591,8596;0,0234618
2592,8237;0,0234664
2593,7881;0,0234835
2594,7522;0,0235106
2595,7166;0,023543
2596,6807;0,0235772
2597,6450;0,0236102
2598,6091;0,0236386
2599,5735;0,0236572
2600,5376;0,0236612
2601,5020;0,0236513
2602,4661;0,0236352
2603,4304;0,023626
2604,3945;0,0236351
2605,3589;0,0236667
2606,3230;0,023715
2607,2874;0,0237695
2608,2515;0,0238203
2609,2158;0,0238634
2610,1799;0,0238993
2611,1443;0,0239303
2612,1084;0,0239556
2613,0728;0,0239719
2614,0369;0,0239761
2615,0012;0,0239691
2615,9653;0,023958
2616,9297;0,0239532
2617,8938;0,0239641
2618,8582;0,0239936
2619,8223;0,0240369
2620,7866;0,0240828
2621,7507;0,0241196
2622,7151;0,0241404
2623,6792;0,0241466
2624,6436;0,0241471
2625,6077;0,0241538
2626,5720;0,0241759
2627,5361;0,0242155
2628,5005;0,0242667
2629,4646;0,0243183
2630,4290;0,0243587
2631,3931;0,0243811
2632,3574;0,024386
2633,3215;0,0243813
2634,2859;0,0243783
2635,2500;0,0243868
2636,2144;0,0244101
2637,1785;0,0244445
2638,1428;0,0244818
2639,1069;0,0245149
2640,0713;0,0245418
2641,0354;0,0245658
2641,9998;0,0245923
2642,9639;0,024624
2643,9282;0,0246589
2644,8923;0,0246925
2645,8567;0,0247212
2646,8208;0,0247462
2647,7852;0,0247719
2648,7493;0,024803
2649,7136;0,0248398
2650,6777;0,0248779
2651,6421;0,0249102
2652,6062;0,0249322
2653,5706;0,0249441
2654,5347;0,0249513
2655,4990;0,0249606
2656,4631;0,0249774
2657,4275;0,0250031
2658,3916;0,0250359
2659,3560;0,025072
2660,3201;0,0251079
2661,2844;0,0251405
2662,2485;0,0251676
2663,2129;0,0251883
2664,1770;0,025203
2665,1414;0,0252137
2666,1055;0,0252238
2667,0698;0,0252366
2668,0339;0,0252543
2668,9983;0,0252772
2669,9624;0,0253045
2670,9268;0,0253353
2671,8909;0,0253694
2672,8552;0,025407
2673,8193;0,0254471
2674,7837;0,0254872
2675,7478;0,0255229
2676,7122;0,0255503
2677,6763;0,0255675
2678,6406;0,0255768
2679,6047;0,0255842
2680,5691;0,0255972
2681,5332;0,025622
2682,4976;0,0256602
2683,4617;0,0257088
2684,4260;0,0257614
2685,3901;0,0258116
2686,3545;0,0258561
2687,3186;0,0258956
2688,2830;0,0259325
2689,2471;0,0259686
2690,2114;0,0260025
2691,1755;0,0260311
2692,1399;0,0260519
2693,1040;0,0260663
2694,0684;0,0260793
2695,0325;0,0260966
2695,9968;0,0261212
2696,9609;0,0261523
2697,9253;0,0261861
2698,8894;0,0262199
2699,8538;0,0262534
2700,8179;0,0262888
2701,7822;0,0263282
2702,7463;0,0263718
2703,7107;0,0264175
2704,6748;0,0264626
2705,6392;0,0265052
2706,6033;0,0265449
2707,5676;0,0265818
2708,5317;0,0266159
2709,4961;0,0266469
2710,4602;0,0266749
2711,4246;0,0267008
2712,3887;0,0267267
2713,3530;0,0267555
2714,3171;0,0267896
2715,2815;0,0268306
2716,2456;0,0268783
2717,2100;0,02693
2718,1741;0,0269804
2719,1384;0,0270227
2720,1025;0,027051
2721,0669;0,0270629
2722,0310;0,0270614
2722,9954;0,0270539
2723,9595;0,0270497
2724,9238;0,0270568
2725,8879;0,0270795
2726,8523;0,027118
2727,8164;0,0271697
2728,7808;0,0272304
2729,7449;0,0272948
2730,7092;0,0273573
2731,6733;0,027412
2732,6377;0,0274537
2733,6018;0,0274797
2734,5662;0,027491
2735,5303;0,0274924
2736,4946;0,0274914
2737,4587;0,0274954
2738,4231;0,0275097
2739,3872;0,0275358
2740,3516;0,0275723
2741,3157;0,0276157
2742,2800;0,0276614
2743,2441;0,027704
2744,2085;0,0277376
2745,1726;0,0277575
2746,1370;0,0277624
2747,1011;0,0277569
2748,0654;0,0277507
2749,0295;0,027756
2749,9939;0,0277818
2750,9580;0,0278298
2751,9224;0,0278939
2752,8865;0,0279631
2753,8508;0,0280259
2754,8149;0,0280738
2755,7793;0,0281038
2756,7434;0,0281175
2757,7078;0,0281213
2758,6719;0,028125
2759,6362;0,0281393
2760,6003;0,0281721
2761,5647;0,0282242
2762,5288;0,0282886
2763,4932;0,0283526
2764,4573;0,0284049
2765,4216;0,0284415
2766,3857;0,0284682
2767,3501;0,0284963
2768,3142;0,0285355
2769,2786;0,0285875
2770,2427;0,0286453
2771,2070;0,0286978
2772,1711;0,0287374
2773,1355;0,0287646
2774,0996;0,0287878
2775,0640;0,0288183
2776,0281;0,0288639
2776,9924;0,0289257
2777,9565;0,0289982
2778,9209;0,0290732
2779,8850;0,0291444
2780,8494;0,0292094
2781,8135;0,0292694
2782,7778;0,0293271
2783,7419;0,0293841
2784,7063;0,02944
2785,6704;0,0294923
2786,6348;0,0295385
2787,5989;0,0295781
2788,5632;0,0296147
2789,5273;0,0296563
2790,4917;0,0297125
2791,4558;0,0297903
2792,4202;0,0298896
2793,3843;0,0300018
2794,3486;0,0301128
2795,3127;0,0302093
2796,2771;0,0302854
2797,2412;0,0303453
2798,2056;0,0304006
2799,1697;0,0304637
2800,1340;0,0305422
2801,0981;0,0306367
2802,0625;0,0307434
2803,0266;0,0308579
2803,9910;0,0309774
2804,9551;0,0311
2805,9194;0,0312233
2806,8835;0,0313431
2807,8479;0,031456
2808,8120;0,0315621
2809,7764;0,0316658
2810,7405;0,0317738
2811,7048;0,0318909
2812,6689;0,032017
2813,6333;0,0321479
2814,5974;0,0322787
2815,5618;0,032408
2816,5259;0,0325392
2817,4902;0,0326786
2818,4543;0,0328316
2819,4187;0,0329999
2820,3828;0,033181
2821,3472;0,0333698
2822,3113;0,0335613
2823,2756;0,033752
2824,2397;0,0339408
2825,2041;0,0341295
2826,1682;0,0343217
2827,1326;0,034523
2828,0967;0,0347391
2829,0610;0,034975
2830,0251;0,0352331
2830,9895;0,0355132
2831,9536;0,035813
2832,9180;0,0361288
2833,8821;0,0364567
2834,8464;0,0367931
2835,8105;0,0371364
2836,7749;0,0374877
2837,7390;0,0378527
2838,7034;0,038241
2839,6675;0,0386642
2840,6318;0,0391339
2841,5959;0,0396581
2842,5603;0,0402407
2843,5244;0,0408803
2844,4888;0,0415691
2845,4529;0,0422911
2846,4172;0,0430202
2847,3813;0,0437199
2848,3457;0,0443469
2849,3098;0,0448592
2850,2742;0,0452258
2851,2383;0,0454351
2852,2026;0,045497
2853,1667;0,0454391
2854,1311;0,0452976
2855,0952;0,0451075
2856,0596;0,0448959
2857,0237;0,0446813
2857,9880;0,0444763
2858,9521;0,0442922
2859,9165;0,0441405
2860,8806;0,0440311
2861,8450;0,0439696
2862,8091;0,0439551
2863,7734;0,0439821
2864,7375;0,0440437
2865,7019;0,0441348
2866,6660;0,0442518
2867,6304;0,0443889
2868,5945;0,0445357
2869,5588;0,0446773
2870,5229;0,0447985
2871,4873;0,0448901
2872,4514;0,0449529
2873,4158;0,0449966
2874,3799;0,0450347
2875,3442;0,0450776
2876,3083;0,0451287
2877,2727;0,0451847
2878,2368;0,0452404
2879,2012;0,0452938
2880,1653;0,0453484
2881,1296;0,0454123
2882,0938;0,0454929
2883,0581;0,0455924
2884,0222;0,0457058
2884,9866;0,0458241
2885,9507;0,0459398
2886,9150;0,0460519
2887,8792;0,0461676
2888,8435;0,0462978
2889,8076;0,0464505
2890,7720;0,0466255
2891,7361;0,0468135
2892,7004;0,0470002
2893,6646;0,0471731
2894,6289;0,0473264
2895,5930;0,047464
2896,5574;0,047596
2897,5215;0,0477346
2898,4858;0,0478883
2899,4500;0,0480588
2900,4143;0,0482414
2901,3784;0,0484282
2902,3428;0,0486127
2903,3069;0,0487939
2904,2712;0,0489768
2905,2354;0,0491708
2906,1997;0,0493863
2907,1638;0,0496322
2908,1282;0,049915
2909,0923;0,05024
2910,0566;0,0506115
2911,0208;0,051031
2911,9851;0,0514938
2912,9492;0,0519862
2913,9136;0,0524856
2914,8777;0,0529639
2915,8420;0,0533937
2916,8062;0,053754
2917,7705;0,0540325
2918,7346;0,0542243
2919,6990;0,0543284
2920,6631;0,0543444
2921,6274;0,0542721
2922,5916;0,054113
2923,5559;0,0538729
2924,5200;0,0535628
2925,4844;0,0531981
2926,4485;0,0527953
2927,4128;0,052369
2928,3770;0,0519306
2929,3413;0,0514874
2930,3054;0,0510429
2931,2698;0,0505964
2932,2339;0,0501443
2933,1982;0,0496815
2934,1624;0,0492055
2935,1267;0,0487197
2936,0908;0,0482336
2937,0552;0,0477607
2938,0193;0,0473117
2938,9836;0,0468906
2939,9478;0,0464926
2940,9121;0,0461082
2941,8762;0,0457278
2942,8406;0,0453476
2943,8047;0,044971
2944,7690;0,0446067
2945,7332;0,0442657
2946,6975;0,0439571
2947,6616;0,0436855
2948,6260;0,0434505
2949,5901;0,0432471
2950,5544;0,043067
2951,5186;0,0429006
2952,4829;0,0427385
2953,4470;0,0425727
2954,4114;0,0423974
2955,3755;0,0422093
2956,3398;0,0420078
2957,3040;0,0417954
2958,2683;0,0415759
2959,2324;0,0413537
2960,1968;0,0411302
2961,1609;0,0409034
2962,1252;0,040667
2963,0894;0,0404144
2964,0537;0,0401419
2965,0178;0,0398524
2965,9822;0,039555
2966,9463;0,0392622
2967,9106;0,0389842
2968,8748;0,0387253
2969,8391;0,0384828
2970,8032;0,0382496
2971,7676;0,038019
2972,7317;0,0377882
2973,6960;0,0375591
2974,6602;0,0373367
2975,6245;0,0371255
2976,5886;0,0369277
2977,5530;0,0367422
2978,5171;0,0365663
2979,4814;0,036398
2980,4456;0,0362371
2981,4099;0,0360858
2982,3740;0,0359479
2983,3384;0,035827
2984,3025;0,0357247
2985,2668;0,0356392
2986,2310;0,0355646
2987,1953;0,0354928
2988,1594;0,0354165
2989,1238;0,0353329
2990,0879;0,0352456
2991,0522;0,035163
2992,0164;0,0350947
2992,9807;0,0350469
2993,9448;0,0350206
2994,9092;0,0350127
2995,8733;0,035019
2996,8376;0,0350367
2997,8018;0,0350639
2998,7661;0,0350985
2999,7302;0,0351362
3000,6946;0,035172
3001,6587;0,0352023
3002,6230;0,0352275
3003,5872;0,0352519
3004,5515;0,0352802
3005,5156;0,0353137
3006,4800;0,035348
3007,4441;0,0353757
3008,4084;0,0353904
3009,3726;0,0353919
3010,3369;0,0353864
3011,3010;0,0353842
3012,2654;0,0353935
3013,2295;0,035417
3014,1938;0,0354508
3015,1580;0,0354883
3016,1223;0,0355247
3017,0864;0,0355597
3018,0508;0,0355968
3019,0149;0,0356406
3019,9792;0,0356927
3020,9434;0,035751
3021,9077;0,0358112
3022,8718;0,0358704
3023,8362;0,0359298
3024,8003;0,0359956
3025,7646;0,0360754
3026,7288;0,0361744
3027,6931;0,0362905
3028,6572;0,0364139
3029,6216;0,0365302
3030,5857;0,036626
3031,5500;0,0366955
3032,5142;0,0367435
3033,4785;0,0367837
3034,4426;0,0368327
3035,4070;0,0369029
3036,3711;0,0369973
3037,3354;0,0371095
3038,2996;0,0372275
3039,2639;0,0373402
3040,2280;0,0374421
3041,1924;0,0375361
3042,1565;0,0376302
3043,1208;0,0377325
3044,0850;0,0378461
3045,0493;0,0379672
3046,0134;0,0380872
3046,9778;0,0381985
3047,9419;0,0382992
3048,9063;0,0383946
3049,8704;0,0384945
3050,8347;0,0386069
3051,7988;0,0387335
3052,7632;0,0388688
3053,7273;0,0390029
3054,6917;0,0391273
3055,6558;0,0392392
3056,6201;0,0393433
3057,5842;0,0394497
3058,5486;0,0395689
3059,5127;0,0397076
3060,4771;0,0398649
3061,4412;0,0400325
3062,4055;0,0401964
3063,3696;0,040342
3064,3340;0,0404594
3065,2981;0,0405489
3066,2625;0,0406217
3067,2266;0,0406955
3068,1909;0,040787
3069,1550;0,0409051
3070,1194;0,0410484
3071,0835;0,0412071
3072,0479;0,0413691
3073,0120;0,0415242
3073,9763;0,0416668
3074,9404;0,0417956
3075,9048;0,0419119
3076,8689;0,042019
3077,8333;0,0421208
3078,7974;0,0422209
3079,7617;0,0423205
3080,7258;0,0424179
3081,6902;0,0425094
3082,6543;0,0425933
3083,6187;0,0426733
3084,5828;0,0427582
3085,5471;0,0428581
3086,5112;0,042979
3087,4756;0,0431185
3088,4397;0,0432672
3089,4041;0,0434147
3090,3682;0,0435549
3091,3325;0,043689
3092,2966;0,0438227
3093,2610;0,043961
3094,2251;0,0441041
3095,1895;0,0442463
3096,1536;0,0443796
3097,1179;0,044498
3098,0820;0,0446014
3099,0464;0,0446963
3100,0105;0,0447944
3100,9749;0,0449089
3101,9390;0,0450493
3102,9033;0,0452172
3103,8674;0,0454041
3104,8318;0,0455936
3105,7959;0,0457679
3106,7603;0,0459154
3107,7244;0,0460369
3108,6887;0,0461456
3109,6528;0,0462599
3110,6172;0,0463942
3111,5813;0,0465509
3112,5457;0,0467212
3113,5098;0,0468911
3114,4741;0,0470507
3115,4382;0,0471988
3116,4026;0,0473414
3117,3667;0,047485
3118,3311;0,0476314
3119,2952;0,0477759
3120,2595;0,0479121
3121,2236;0,0480368
3122,1880;0,0481538
3123,1521;0,0482721
3124,1165;0,0484025
3125,0806;0,0485529
3126,0449;0,0487256
3127,0090;0,0489168
3127,9734;0,0491173
3128,9375;0,0493145
3129,9019;0,0494963
3130,8660;0,049655
3131,8303;0,0497914
3132,7944;0,0499153
3133,7588;0,0500411
3134,7229;0,0501819
3135,6873;0,0503428
3136,6514;0,0505201
3137,6157;0,0507041
3138,5798;0,0508845
3139,5442;0,0510555
3140,5083;0,0512169
3141,4727;0,0513737
3142,4368;0,0515329
3143,4011;0,0517004
3144,3652;0,0518788
3145,3296;0,0520651
3146,2937;0,0522524
3147,2581;0,0524322
3148,2222;0,0525983
3149,1865;0,052751
3150,1506;0,0528967
3151,1150;0,0530454
3152,0791;0,0532056
3153,0435;0,05338
3154,0076;0,0535654
3154,9719;0,0537556
3155,9360;0,0539449
3156,9004;0,0541311
3157,8645;0,0543146
3158,8289;0,0544961
3159,7930;0,0546751
3160,7573;0,0548504
3161,7214;0,0550229
3162,6858;0,0551972
3163,6499;0,0553799
3164,6143;0,055576
3165,5784;0,0557844
3166,5427;0,0559965
3167,5068;0,0561998
3168,4712;0,0563846
3169,4353;0,0565067
3170,3997;0,0566581
3171,3638;0,0568074
3172,3281;0,0569633
3173,2922;0,057128
3174,2566;0,0572985
3175,2207;0,0574708
3176,1851;0,0576442
3177,1492;0,0578221
3178,1135;0,0580088
3179,0776;0,0582047
3180,0420;0,0584043
3181,0061;0,058598
3181,9705;0,0587781
3182,9346;0,058943
3183,8989;0,0590988
3184,8630;0,0592569
3185,8274;0,0594275
3186,7915;0,0596146
3187,7559;0,0598145
3188,7200;0,0600188
3189,6843;0,0602194
3190,6484;0,0604121
3191,6128;0,0605969
3192,5769;0,0607755
3193,5413;0,0609484
3194,5054;0,0611147
3195,4697;0,0612739
3196,4338;0,0614283
3197,3982;0,0615831
3198,3623;0,0617434
3199,3267;0,0619105
3200,2908;0,0620803
3201,2551;0,0622465
3202,2192;0,0624058
3203,1836;0,0625605
3204,1477;0,0627182
3205,1121;0,0628857
3206,0762;0,0630636
3207,0405;0,0632445
3208,0046;0,063416
3208,9690;0,0635684
3209,9331;0,0637004
3210,8975;0,063822
3211,8616;0,0639491
3212,8259;0,0640957
3213,7900;0,0642658
3214,7544;0,0644505
3215,7185;0,0646328
3216,6829;0,0647973
3217,6470;0,0649394
3218,6113;0,065069
3219,5754;0,0652038
3220,5398;0,0653581
3221,5039;0,0655329
3222,4683;0,0657153
3223,4324;0,0658879
3224,3967;0,0660409
3225,3608;0,0661795
3226,3252;0,0663195
3227,2893;0,0664756
3228,2537;0,0666506
3229,2178;0,0668338
3230,1821;0,067009
3231,1462;0,0671661
3232,1106;0,0673066
3233,0747;0,0674405
3234,0391;0,0675773
3235,0032;0,0677195
3235,9675;0,0678635
3236,9316;0,0680058
3237,8960;0,0681487
3238,8601;0,0682997
3239,8245;0,0684659
3240,7886;0,0686473
3241,7529;0,0688354
3242,7170;0,069018
3243,6814;0,0691858
3244,6455;0,069338
3245,6099;0,0694819
3246,5740;0,0696293
3247,5383;0,0697905
3248,5024;0,0699707
3249,4668;0,0701687
3250,4309;0,0703776
3251,3953;0,0705867
3252,3594;0,0707843
3253,3237;0,0709624
3254,2878;0,0711203
3255,2522;0,071266
3256,2163;0,0714127
3257,1807;0,0715725
3258,1448;0,0717498
3259,1091;0,0719394
3260,0732;0,0721293
3261,0376;0,0723079
3262,0017;0,0724699
3262,9661;0,0726194
3263,9302;0,0727664
3264,8945;0,0729216
3265,8586;0,0730899
3266,8230;0,0732682
3267,7871;0,0734471
3268,7515;0,0736161
3269,7156;0,0737677
3270,6799;0,0739002
3271,6440;0,0740167
3272,6084;0,0741219
3273,5725;0,0742183
3274,5369;0,0743054
3275,5010;0,0743812
3276,4653;0,0744459
3277,4294;0,0745051
3278,3938;0,0745683
3279,3579;0,0746451
3280,3223;0,0747385
3281,2864;0,0748425
3282,2507;0,0749448
3283,2148;0,0750336
3284,1792;0,0751051
3285,1433;0,0751648
3286,1077;0,0752226
3287,0718;0,0752845
3288,0361;0,0753478
3289,0002;0,0754028
3289,9646;0,0754394
3290,9287;0,0754542
3291,8931;0,0754519
3292,8572;0,0754413
3293,8215;0,0754297
3294,7856;0,0754204
3295,7500;0,0754143
3296,7141;0,0754138
3297,6785;0,0754237
3298,6426;0,0754485
3299,6069;0,0754885
3300,5710;0,0755376
3301,5354;0,075586
3302,4995;0,075625
3303,4639;0,0756507
3304,4280;0,0756642
3305,3923;0,0756689
3306,3564;0,0756674
3307,3208;0,0756609
3308,2849;0,0756503
3309,2493;0,0756388
3310,2134;0,0756321
3311,1777;0,0756376
3312,1418;0,0756608
3313,1062;0,0757034
3314,0703;0,0757621
3315,0347;0,0758304
3315,9988;0,0759018
3316,9631;0,0759731
3317,9272;0,0760459
3318,8916;0,0761246
3319,8557;0,0762122
3320,8201;0,0763072
3321,7842;0,0764028
3322,7485;0,0764909
3323,7126;0,0765674
3324,6770;0,0766354
3325,6411;0,0767037
3326,6055;0,0767804
3327,5696;0,0768667
3328,5339;0,0769565
3329,4980;0,0770403
3330,4624;0,0771119
3331,4265;0,0771717
3332,3909;0,0772241
3333,3550;0,0772712
3334,3193;0,0773091
3335,2834;0,0773282
3336,2478;0,0773202
3337,2119;0,0772837
3338,1763;0,0772244
3339,1404;0,0771506
3340,1047;0,0770667
3341,0688;0,0769714
3342,0332;0,076862
3342,9973;0,0767405
3343,9617;0,0766164
3344,9258;0,0765023
3345,8901;0,0764053
3346,8542;0,0763212
3347,8186;0,076235
3348,7827;0,0761284
3349,7471;0,0759908
3350,7112;0,0758249
3351,6755;0,0756463
3352,6396;0,075476
3353,6040;0,0753311
3354,5681;0,0752177
3355,5325;0,0751298
3356,4966;0,0750533
3357,4609;0,0749734
3358,4250;0,0748807
3359,3894;0,0747737
3360,3535;0,0746565
3361,3179;0,0745344
3362,2820;0,0744104
3363,2463;0,0742846
3364,2104;0,0741565
3365,1748;0,074027
3366,1389;0,0738972
3367,1033;0,0737657
3368,0674;0,0736263
3369,0317;0,0734707
3369,9958;0,0732941
3370,9602;0,0731013
3371,9243;0,0729074
3372,8887;0,0727313
3373,8528;0,0725857
3374,8171;0,0724704
3375,7813;0,0723727
3376,7456;0,0722751
3377,7097;0,072165
3378,6741;0,07204
3379,6382;0,0719052
3380,6025;0,0717669
3381,5667;0,071627
3382,5310;0,0714828
3383,4951;0,071332
3384,4595;0,0711779
3385,4236;0,0710302
3386,3879;0,0708988
3387,3521;0,070786
3388,3164;0,0706828
3389,2805;0,070573
3390,2449;0,0704425
3391,2090;0,0702886
3392,1733;0,0701227
3393,1375;0,0699631
3394,1018;0,0698235
3395,0659;0,0697033
3396,0303;0,0695874
3396,9944;0,0694557
3397,9587;0,0692943
3398,9229;0,0691033
3399,8872;0,0688966
3400,8513;0,0686942
3401,8157;0,0685114
3402,7798;0,0683527
3403,7441;0,0682106
3404,7083;0,0680717
3405,6726;0,0679248
3406,6367;0,0677651
3407,6011;0,0675945
3408,5652;0,0674155
3409,5295;0,0672275
3410,4937;0,067027
3411,4580;0,0668138
3412,4221;0,0665966
3413,3865;0,0663926
3414,3506;0,066217
3415,3149;0,0660705
3416,2791;0,0659344
3417,2434;0,0657777
3418,2075;0,0655742
3419,1719;0,0653195
3420,1360;0,0650361
3421,1003;0,0647611
3422,0645;0,0645242
3423,0288;0,0643315
3423,9929;0,0641659
3424,9573;0,0640009
3425,9214;0,0638162
3426,8857;0,0636065
3427,8499;0,0633797
3428,8142;0,0631489
3429,7783;0,0629241
3430,7427;0,0627074
3431,7068;0,0624941
3432,6711;0,0622783
3433,6353;0,0620567
3434,5996;0,0618314
3435,5637;0,061608
3436,5281;0,0613914
3437,4922;0,0611836
3438,4565;0,0609835
3439,4207;0,0607897
3440,3850;0,0606026
3441,3491;0,0604228
3442,3135;0,0602467
3443,2776;0,060063
3444,2419;0,0598546
3445,2061;0,0596068
3446,1704;0,0593174
3447,1345;0,0590011
3448,0989;0,0586822
3449,0630;0,0583811
3450,0273;0,0581039
3450,9915;0,0578451
3451,9558;0,0575961
3452,9199;0,0573543
3453,8843;0,0571234
3454,8484;0,0569079
3455,8127;0,0567061
3456,7769;0,0565087
3457,7412;0,0563043
3458,7053;0,0560871
3459,6697;0,0558608
3460,6338;0,055635
3461,5981;0,0554175
3462,5623;0,0552065
3463,5266;0,0549908
3464,4907;0,0547562
3465,4551;0,0544957
3466,4192;0,0542157
3467,3835;0,0539341
3468,3477;0,0536705
3469,3120;0,0534343
3470,2761;0,0532186
3471,2405;0,0530049
3472,2046;0,0527763
3473,1689;0,0525309
3474,1331;0,0522859
3475,0974;0,0520675
3476,0615;0,0518914
3477,0259;0,0517486
3477,9900;0,0516061
3478,9543;0,051422
3479,9185;0,0511686
3480,8828;0,0508499
3481,8469;0,0505005
3482,8113;0,0501664
3483,7754;0,0498792
3484,7397;0,049643
3485,7039;0,0494417
3486,6682;0,0492547
3487,6323;0,0490714
3488,5967;0,0488935
3489,5608;0,0487273
3490,5251;0,0485706
3491,4893;0,0484078
3492,4536;0,048216
3493,4177;0,0479799
3494,3821;0,0477066
3495,3462;0,0474288
3496,3105;0,0471903
3497,2747;0,047019
3498,2390;0,0469076
3499,2031;0,0468133
3500,1675;0,0466782
3501,1316;0,0464599
3502,0959;0,0461582
3503,0601;0,0458198
3504,0244;0,0455093
3504,9885;0,0452654
3505,9529;0,0450787
3506,9170;0,0449039
3507,8813;0,0446914
3508,8455;0,0444168
3509,8098;0,0440939
3510,7739;0,0437638
3511,7383;0,0434673
3512,7024;0,0432216
3513,6667;0,0430205
3514,6309;0,0428489
3515,5952;0,0426987
3516,5593;0,0425723
3517,5237;0,0424743
3518,4878;0,0423994
3519,4521;0,0423267
3520,4163;0,0422263
3521,3806;0,0420737
3522,3447;0,0418632
3523,3091;0,0416101
3524,2732;0,0413384
3525,2375;0,0410636
3526,2017;0,0407838
3527,1660;0,0404887
3528,1301;0,0401763
3529,0945;0,039863
3530,0586;0,0395768
3531,0229;0,039339
3531,9871;0,03915
3532,9514;0,0389897
3533,9155;0,0388289
3534,8799;0,0386441
3535,8440;0,0384316
3536,8083;0,038212
3537,7725;0,0380206
3538,7368;0,0378875
3539,7009;0,0378196
3540,6653;0,0377929
3541,6294;0,0377568
3542,5938;0,0376503
3543,5579;0,037428
3544,5222;0,0370934
3545,4863;0,0367112
3546,4507;0,0363731
3547,4148;0,036134
3548,3792;0,0359767
3549,3433;0,0358308
3550,3076;0,0356219
3551,2717;0,0353192
3552,2361;0,0349581
3553,2002;0,0346206
3554,1646;0,0343804
3555,1287;0,0342543
3556,0930;0,0342009
3557,0571;0,0341578
3558,0215;0,0340854
3558,9856;0,0339925
3559,9500;0,0339277
3560,9141;0,0339387
3561,8784;0,0340278
3562,8425;0,0341307
3563,8069;0,0341265
3564,7710;0,0338748
3565,7354;0,0332993
3566,6995;0,0324958
3567,6638;0,0317244
3568,6279;0,031213
3569,5923;0,0309995
3570,5564;0,0309743
3571,5208;0,0309993
3572,4849;0,0309798
3573,4492;0,0308819
3574,4133;0,0307197
3575,3777;0,0305272
3576,3418;0,0303307
3577,3062;0,0301409
3578,2703;0,029966
3579,2346;0,0298298
3580,1987;0,0297689
3581,1631;0,0298063
3582,1272;0,0299222
3583,0916;0,0300457
3584,0557;0,0300683
3585,0200;0,0298815
3585,9841;0,0294458
3586,9485;0,0288714
3587,9126;0,0283948
3588,8770;0,0282001
3589,8411;0,0282823
3590,8054;0,028495
3591,7695;0,028669
3592,7339;0,0286901
3593,6980;0,0285343
3594,6624;0,0282659
3595,6265;0,027986
3596,5908;0,0277533
3597,5549;0,0275511
3598,5193;0,0273279
3599,4834;0,0270648
3600,4478;0,0268075
3601,4119;0,0266328
3602,3762;0,0265791
3603,3403;0,0266087
3604,3047;0,0266277
3605,2688;0,0265352
3606,2332;0,0262733
3607,1973;0,0258629
3608,1616;0,0253985
3609,1257;0,0249903
3610,0901;0,0246985
3611,0542;0,0245217
3612,0186;0,024434
3612,9827;0,0244148
3613,9470;0,0244453
3614,9111;0,0244862
3615,8755;0,0244669
3616,8396;0,0243052
3617,8040;0,0239615
3618,7681;0,0235041
3619,7324;0,0231139
3620,6965;0,0229749
3621,6609;0,0231418
3622,6250;0,0235254
3623,5894;0,0239689
3624,5535;0,024311
3625,5178;0,0244024
3626,4819;0,0241134
3627,4463;0,0234018
3628,4104;0,0224481
3629,3748;0,0216288
3630,3389;0,0211935
3631,3032;0,0210805
3632,2673;0,0210805
3633,2317;0,0210311
3634,1958;0,0208803
3635,1602;0,0206622
3636,1243;0,0204395
3637,0886;0,0202493
3638,0527;0,0200868
3639,0171;0,0199328
3639,9812;0,0197927
3640,9456;0,0197092
3641,9097;0,0197365
3642,8740;0,019898
3643,8381;0,0201608
3644,8025;0,0204323
3645,7666;0,0205594
3646,7310;0,0203275
3647,6951;0,0195502
3648,6594;0,0183542
3649,6235;0,0172885
3650,5879;0,0167941
3651,5520;0,0168152
3652,5164;0,0170427
3653,4805;0,0172054
3654,4448;0,0171648
3655,4089;0,0169252
3656,3733;0,0166102
3657,3374;0,0163745
3658,3018;0,0162887
3659,2659;0,0163081
3660,2302;0,016347
3661,1943;0,0163641
3662,1587;0,0163902
3663,1228;0,0164891
3664,0872;0,0166903
3665,0513;0,0169521
3666,0156;0,0171774
3666,9797;0,0172618
3667,9441;0,0171535
3668,9082;0,0169103
3669,8726;0,0166902
3670,8367;0,0166174
3671,8010;0,01666
3672,7651;0,0166639
3673,7295;0,0164716
3674,6936;0,0160398
3675,6580;0,0155185
3676,6221;0,0151625
3677,5864;0,0150971
3678,5505;0,0152476
3679,5149;0,0154775
3680,4790;0,0157094
3681,4434;0,0159414
3682,4075;0,0162023
3683,3718;0,0164989
3684,3359;0,0167922
3685,3003;0,0170073
3686,2644;0,0170617
3687,2288;0,0169009
3688,1929;0,0165504
3689,1572;0,0161598
3690,1213;0,0159319
3691,0857;0,0159566
3692,0498;0,0161679
3693,0142;0,0164468
3693,9783;0,0167091
3694,9426;0,0169208
3695,9067;0,0170779
3696,8711;0,0171819
3697,8352;0,0172275
3698,7996;0,0172062
3699,7637;0,0171215
3700,7280;0,0170066
3701,6921;0,0169258
3702,6565;0,0169472
3703,6206;0,0171004
3704,5850;0,0173605
3705,5491;0,0176648
3706,5134;0,0179344
3707,4775;0,0180757
3708,4419;0,0179741
3709,4060;0,0175227
3710,3704;0,0167372
3711,3345;0,0158634
3712,2988;0,0152457
3713,2629;0,015056
3714,2273;0,0152354
3715,1914;0,0156284
3716,1558;0,0160982
3717,1199;0,0165629
3718,0842;0,0169892
3719,0483;0,0173711
3720,0127;0,0177072
3720,9768;0,0179837
3721,9412;0,0181742
3722,9053;0,0182596
3723,8696;0,0182555
3724,8337;0,0182218
3725,7981;0,0182362
3726,7622;0,0183458
3727,7266;0,0185416
3728,6907;0,018774
3729,6550;0,0189846
3730,6191;0,0191235
3731,5835;0,0191399
3732,5476;0,0189627
3733,5120;0,0185156
3734,4761;0,0178167
3735,4404;0,0170765
3736,4045;0,0165865
3737,3689;0,0164818
3738,3330;0,0166787
3739,2974;0,0169839
3740,2615;0,0171987
3741,2258;0,0171672
3742,1899;0,0168129
3743,1543;0,0162083
3744,1184;0,0156198
3745,0828;0,0153544
3746,0469;0,0154806
3747,0112;0,015787
3747,9753;0,0159653
3748,9397;0,0157733
3749,9038;0,0151681
3750,8682;0,0144218
3751,8323;0,0139664
3752,7966;0,0139933
3753,7607;0,0143531
3754,7251;0,0147827
3755,6892;0,0150799
3756,6536;0,01515
3757,6177;0,0150102
3758,5820;0,0147776
3759,5461;0,0146044
3760,5105;0,0145808
3761,4746;0,0146958
3762,4390;0,0148787
3763,4031;0,0150569
3764,3674;0,0151824
3765,3315;0,0152301
3766,2959;0,0151856
3767,2600;0,0150398
3768,2244;0,0148008
3769,1885;0,0145171
3770,1528;0,0142802
3771,1169;0,0141859
3772,0813;0,014274
3773,0454;0,0145048
3774,0098;0,014784
3774,9739;0,0150083
3775,9382;0,015101
3776,9023;0,015038
3777,8667;0,0148639
3778,8308;0,0146787
3779,7952;0,0145794
3780,7593;0,0145968
3781,7236;0,0146884
3782,6877;0,0147821
3783,6521;0,0148212
3784,6162;0,014788
3785,5806;0,0147047
3786,5447;0,014617
3787,5090;0,0145719
3788,4731;0,0145981
3789,4375;0,0146971
3790,4016;0,0148446
3791,3660;0,0150024
3792,3301;0,0151371
3793,2944;0,015239
3794,2585;0,0153284
3795,2229;0,0154404
3796,1870;0,0155892
3797,1514;0,0157382
3798,1155;0,015804
3799,0798;0,0157022
3800,0439;0,0154196
3801,0083;0,0150619
3801,9724;0,0147948
3802,9368;0,0146971
3803,9009;0,0146954
3804,8652;0,0146457
3805,8293;0,0144626
3806,7937;0,0142032
3807,7578;0,0140414
3808,7222;0,0141248
3809,6863;0,0144505
3810,6506;0,0148871
3811,6147;0,0152778
3812,5791;0,0155178
3813,5432;0,0155864
3814,5076;0,0155496
3815,4717;0,0155191
3816,4360;0,0155604
3817,4001;0,0156258
3818,3645;0,0155896
3819,3286;0,0153563
3820,2930;0,0149635
3821,2571;0,0145905
3822,2214;0,0144208
3823,1855;0,0144936
3824,1499;0,0147111
3825,1140;0,0149449
3826,0784;0,0151133
3827,0425;0,0151993
3828,0068;0,0152315
3828,9709;0,0152526
3829,9353;0,0152937
3830,8994;0,0153662
3831,8638;0,015466
3832,8279;0,0155799
3833,7922;0,0156858
3834,7563;0,0157531
3835,7207;0,0157469
3836,6848;0,0156446
3837,6492;0,015456
3838,6133;0,0152289
3839,5776;0,0150173
3840,5417;0,0148414
3841,5061;0,0146905
3842,4702;0,014563
3843,4346;0,0144971
3844,3987;0,0145603
3845,3630;0,0148041
3846,3271;0,015223
3847,2915;0,0157466
3848,2556;0,0162605
3849,2200;0,0166256
3850,1841;0,0166805
3851,1484;0,0162526
3852,1125;0,015283
3853,0769;0,0140955
3854,0410;0,0133245
3855,0054;0,0132776
3855,9695;0,0137452
3856,9338;0,0143884
3857,8979;0,0149824
3858,8623;0,0154261
3859,8264;0,015691
3860,7908;0,015785
3861,7549;0,0157425
3862,7192;0,0156281
3863,6833;0,0155257
3864,6477;0,0154956
3865,6118;0,0155389
3866,5762;0,0156055
3867,5403;0,0156307
3868,5046;0,0155653
3869,4688;0,0153945
3870,4331;0,0151494
3871,3972;0,0149012
3872,3616;0,0147311
3873,3257;0,0146906
3874,2900;0,0147818
3875,2542;0,0149637
3876,2185;0,0151735
3877,1826;0,015351
3878,1470;0,0154596
3879,1111;0,015498
3880,0754;0,0154921
3881,0396;0,0154651
3882,0039;0,0154075
3882,9680;0,0152887
3883,9324;0,0151051
3884,8965;0,0149179
3885,8608;0,0148236
3886,8250;0,0148741
3887,7893;0,0150245
3888,7534;0,0151608
3889,7178;0,0151765
3890,6819;0,0150518
3891,6462;0,0148878
3892,6104;0,0148424
3893,5747;0,015
3894,5388;0,0153149
3895,5032;0,0156708
3896,4673;0,0159607
3897,4316;0,016125
3898,3958;0,0161533
3899,3601;0,0160643
3900,3242;0,0158763
3901,2886;0,0155919
3902,2527;0,01522
3903,2170;0,0148163
3904,1812;0,0144834
3905,1455;0,0143092
3906,1096;0,0143091
3907,0740;0,0144311
3908,0381;0,0146045
3909,0024;0,0147803
3909,9666;0,0149442
3910,9309;0,0151032
3911,8950;0,0152629
3912,8594;0,0154091
3913,8235;0,0155067
3914,7878;0,0155171
3915,7520;0,0154273
3916,7163;0,0152728
3917,6804;0,0151315
3918,6448;0,0150761
3919,6089;0,0151247
3920,5732;0,015233
3921,5374;0,0153293
3922,5017;0,01536
3923,4658;0,0153202
3924,4302;0,0152569
3925,3943;0,0152345
3926,3586;0,0152865
3927,3228;0,015392
3928,2871;0,0154908
3929,2512;0,0155181
3930,2156;0,0154387
3931,1797;0,0152698
3932,1440;0,0150766
3933,1082;0,0149346
3934,0725;0,0148875
3935,0366;0,0149351
3936,0010;0,0150492
3936,9651;0,0151926
3937,9294;0,0153293
3938,8936;0,0154265
3939,8579;0,0154602
3940,8220;0,0154251
3941,7864;0,0153448
3942,7505;0,0152653
3943,7148;0,0152309
3944,6790;0,0152555
3945,6433;0,0153158
3946,6074;0,0153679
3947,5718;0,0153732
3948,5359;0,0153207
3949,5002;0,0152325
3950,4644;0,0151473
3951,4287;0,0150947
3952,3928;0,0150808
3953,3572;0,0150942
3954,3213;0,0151202
3955,2856;0,0151494
3956,2498;0,0151784
3957,2141;0,0152043
3958,1782;0,015221
3959,1426;0,0152215
3960,1067;0,0152042
3961,0710;0,0151775
3962,0352;0,0151574
3962,9995;0,0151581
3963,9636;0,0151833
3964,9280;0,0152242
3965,8921;0,0152655
3966,8564;0,015295
3967,8206;0,0153091
3968,7849;0,015313
3969,7490;0,0153143
3970,7134;0,015316
3971,6775;0,0153139
3972,6418;0,0153005
3973,6060;0,0152712
3974,5703;0,0152294
3975,5344;0,0151857
3976,4988;0,0151527
3977,4629;0,0151379
3978,4272;0,0151411
3979,3914;0,0151547
3980,3557;0,0151686
3981,3198;0,0151747
3982,2842;0,0151711
3983,2483;0,0151627
3984,2126;0,0151594
3985,1768;0,0151712
3986,1411;0,015203
3987,1052;0,0152514
3988,0696;0,0153051
3989,0337;0,015349
3989,9980;0,0153708
3990,9622;0,0153658
3991,9265;0,0153383
3992,8906;0,0152984
3993,8550;0,0152576
3994,8191;0,0152244
3995,7834;0,0152032
3996,7476;0,0151942
3997,7119;0,0151955
3998,6760;0,0152044
3999,6404;0,0152192
4000,6045;0,0153287

##### Extended Information
[Comments]
Sample name
Comment
Username
Division
Organization;UNIVERSIDAD INDUSTRIAL DE SANTANDER

[Detailed Information]
Creation date;19/02/2025 3:21 p.m.

Data array type;Linear data array
Horizontal axis;Wavenumber [cm-1]
Vertical axis;Abs
Start;399,193 cm-1
End;4000,6 cm-1
Data interval;0,964233 cm-1
Data points;3736    

[Measurement Information]
Model name;FT/IR-4X1typeA
Serial No.;A035162111

Accessory;ATR PRO 4X
Accessory S/N;A021162126
Incident angle;45 deg

Measurement date;19/02/2025 3:20 p.m.

Light source;Standard
Detector;TGS
Accumulation;20
Resolution;4 cm-1
Zero filling;On
Apodization;Cosine
Gain;Auto (8)
Aperture;Auto (7 mm)
Scan speed;Auto (2 mm/sec)
Filter;Auto (12800 Hz)

