TITLE;
DATA TYPE;INFRARED SPECTRUM
ORIGIN;JASCO
OWNER;
DATE;25/02/19
TIME;15:33:18
SPECTROMETER/DATA SYSTEM;
LOCALE;9226
RESOLUTION;
DELTAX;0,964233
XUNITS;1/CM
YUNITS;ABSORBANCE
FIRSTX;  399,1927
LASTX; 4000,6047
NPOINTS;    3736
FIRSTY;     0,15829
MAXY;     0,25003
MINY;     0,01606
XYDATA
399,1927;0,15829
400,1569;0,160163
401,1211;0,160746
402,0854;0,160608
403,0496;0,160153
404,0138;0,159552
404,9781;0,158863
405,9423;0,158162
406,9065;0,157594
407,8708;0,157318
408,8350;0,157407
409,7992;0,157786
410,7635;0,158256
411,7277;0,158596
412,6919;0,158702
413,6562;0,158645
414,6204;0,158625
415,5846;0,158895
416,5489;0,15969
417,5131;0,161102
418,4773;0,162855
419,4416;0,164301
420,4058;0,164983
421,3700;0,165046
422,3343;0,164947
423,2985;0,165053
424,2627;0,165514
425,2270;0,166245
426,1912;0,166979
427,1554;0,167393
428,1197;0,167268
429,0839;0,166608
430,0481;0,165645
431,0124;0,164759
431,9766;0,164314
432,9408;0,164488
433,9051;0,165197
434,8693;0,166153
435,8335;0,167034
436,7978;0,167644
437,7620;0,167951
438,7262;0,167998
439,6905;0,167781
440,6547;0,167238
441,6189;0,166354
442,5832;0,165311
443,5474;0,164519
444,5116;0,164408
445,4759;0,165126
446,4401;0,166402
447,4043;0,167676
448,3686;0,168373
449,3328;0,168161
450,2970;0,167087
451,2613;0,16555
452,2255;0,164103
453,1897;0,163202
454,1540;0,16305
455,1182;0,163577
456,0824;0,16452
457,0467;0,165537
458,0109;0,166339
458,9751;0,16682
459,9394;0,16704
460,9036;0,167088
461,8678;0,166961
462,8321;0,166572
463,7963;0,165851
464,7605;0,16486
465,7248;0,163841
466,6890;0,163116
467,6532;0,162914
468,6175;0,163243
469,5817;0,163895
470,5459;0,164565
471,5102;0,165013
472,4744;0,16519
473,4386;0,165244
474,4029;0,165375
475,3671;0,165676
476,3313;0,166088
477,2956;0,166467
478,2598;0,166681
479,2240;0,166681
480,1883;0,166528
481,1525;0,16636
482,1167;0,166328
483,0810;0,166527
484,0452;0,166952
485,0094;0,167498
485,9737;0,168013
486,9379;0,168369
487,9021;0,168498
488,8664;0,168402
489,8306;0,168134
490,7948;0,167793
491,7591;0,167499
492,7233;0,167364
493,6875;0,167442
494,6518;0,167716
495,6160;0,16812
496,5802;0,16858
497,5445;0,169058
498,5087;0,169549
499,4729;0,170068
500,4372;0,170622
501,4014;0,17119
502,3656;0,171729
503,3299;0,172196
504,2941;0,172568
505,2583;0,172843
506,2226;0,17303
507,1868;0,173156
508,1510;0,173271
509,1153;0,173444
510,0795;0,173748
511,0437;0,174231
512,0080;0,174896
512,9722;0,175704
513,9365;0,17659
514,9007;0,177471
515,8649;0,17826
516,8292;0,17888
517,7934;0,179288
518,7576;0,179505
519,7219;0,179615
520,6861;0,179713
521,6503;0,179855
522,6146;0,180044
523,5788;0,180242
524,5430;0,180407
525,5073;0,18052
526,4715;0,180593
527,4357;0,180649
528,4000;0,180691
529,3642;0,180693
530,3284;0,180625
531,2927;0,18048
532,2569;0,180279
533,2211;0,180066
534,1854;0,179868
535,1496;0,179681
536,1138;0,179481
537,0781;0,179247
538,0423;0,178988
539,0065;0,178742
539,9708;0,178547
540,9350;0,178417
541,8992;0,178336
542,8635;0,178275
543,8277;0,17822
544,7919;0,17819
545,7562;0,178232
546,7204;0,178386
547,6846;0,178654
548,6489;0,178991
549,6131;0,179329
550,5773;0,179611
551,5416;0,179831
552,5058;0,180036
553,4700;0,180306
554,4343;0,18071
555,3985;0,181259
556,3627;0,181887
557,3270;0,182454
558,2912;0,182792
559,2554;0,182759
560,2197;0,182289
561,1839;0,181412
562,1481;0,180239
563,1124;0,178924
564,0766;0,177619
565,0408;0,176433
566,0051;0,17543
566,9693;0,174632
567,9335;0,174037
568,8978;0,17362
569,8620;0,173339
570,8262;0,173145
571,7905;0,172991
572,7547;0,172849
573,7189;0,172708
574,6832;0,172569
575,6474;0,172439
576,6116;0,172318
577,5759;0,1722
578,5401;0,172084
579,5043;0,171972
580,4686;0,171867
581,4328;0,17177
582,3970;0,171675
583,3613;0,171576
584,3255;0,171476
585,2897;0,171396
586,2540;0,171373
587,2182;0,171439
588,1824;0,171606
589,1467;0,171854
590,1109;0,172124
591,0751;0,172336
592,0394;0,172415
593,0036;0,172323
593,9678;0,172072
594,9321;0,171717
595,8963;0,171321
596,8605;0,170934
597,8248;0,170575
598,7890;0,17024
599,7532;0,169922
600,7175;0,169624
601,6817;0,169357
602,6459;0,169127
603,6102;0,168918
604,5744;0,168689
605,5386;0,168389
606,5029;0,167986
607,4671;0,167479
608,4313;0,166901
609,3956;0,166291
610,3598;0,165682
611,3240;0,165096
612,2883;0,164548
613,2525;0,164057
614,2167;0,163629
615,1810;0,163235
616,1452;0,162799
617,1094;0,162217
618,0737;0,161409
619,0379;0,160367
620,0021;0,159163
620,9664;0,157899
621,9306;0,156656
622,8948;0,15547
623,8591;0,154344
624,8233;0,153253
625,7875;0,152253
626,7518;0,151378
627,7160;0,150654
628,6802;0,150076
629,6445;0,149607
630,6087;0,149195
631,5729;0,148798
632,5372;0,1484
633,5014;0,148003
634,4656;0,147608
635,4299;0,147197
636,3941;0,146745
637,3583;0,146232
638,3226;0,145667
639,2868;0,145094
640,2510;0,144568
641,2153;0,144133
642,1795;0,143799
643,1437;0,143547
644,1080;0,143344
645,0722;0,143161
646,0364;0,14298
647,0007;0,142791
647,9649;0,14259
648,9291;0,142376
649,8934;0,142165
650,8576;0,141983
651,8218;0,141855
652,7861;0,141786
653,7503;0,141758
654,7145;0,141742
655,6788;0,141723
656,6430;0,141716
657,6072;0,14176
658,5715;0,141891
659,5357;0,142087
660,4999;0,142254
661,4642;0,142252
662,4284;0,141962
663,3926;0,141337
664,3569;0,140416
665,3211;0,139365
666,2853;0,13849
667,2496;0,138095
668,2138;0,138095
669,1780;0,137986
670,1423;0,137514
671,1065;0,136757
672,0707;0,135743
673,0350;0,134451
673,9992;0,132927
674,9634;0,131305
675,9277;0,12974
676,8919;0,128324
677,8561;0,127054
678,8204;0,125874
679,7846;0,124744
680,7488;0,12367
681,7131;0,122681
682,6773;0,121794
683,6415;0,121001
684,6058;0,120275
685,5700;0,119593
686,5342;0,118946
687,4985;0,118327
688,4627;0,117733
689,4269;0,117157
690,3912;0,116603
691,3554;0,116089
692,3196;0,115633
693,2839;0,115242
694,2481;0,114904
695,2123;0,114591
696,1766;0,114274
697,1408;0,113933
698,1050;0,113565
699,0693;0,113175
700,0335;0,112768
700,9977;0,112345
701,9620;0,111901
702,9262;0,111429
703,8904;0,110924
704,8547;0,110398
705,8189;0,109866
706,7831;0,109341
707,7474;0,108827
708,7116;0,108317
709,6758;0,107805
710,6401;0,107289
711,6043;0,106766
712,5685;0,106239
713,5328;0,105713
714,4970;0,105198
715,4612;0,1043
716,4255;0,103939
717,3897;0,103634
718,3539;0,103314
719,3182;0,102873
720,2824;0,102229
721,2466;0,101377
722,2109;0,100402
723,1751;0,0994263
724,1393;0,098551
725,1036;0,0978089
726,0678;0,0971673
727,0320;0,0965583
727,9963;0,0959205
728,9605;0,0952293
729,9247;0,0945039
730,8890;0,0937919
731,8532;0,0931439
732,8174;0,092591
733,7817;0,0921331
734,7459;0,0917414
735,7101;0,091374
736,6744;0,0909959
737,6386;0,0905926
738,6028;0,0901704
739,5671;0,0897435
740,5313;0,0893195
741,4955;0,0888936
742,4598;0,0884555
743,4240;0,0880025
744,3882;0,0875452
745,3525;0,0871013
746,3167;0,0866803
747,2809;0,0862741
748,2452;0,0858599
749,2094;0,0854145
750,1736;0,0849297
751,1379;0,0844169
752,1021;0,0838994
753,0663;0,0833985
754,0306;0,0829249
754,9948;0,0824789
755,9590;0,082058
756,9233;0,0816634
757,8875;0,0812997
758,8517;0,0809688
759,8160;0,0806635
760,7802;0,0803663
761,7444;0,0800565
762,7087;0,079719
763,6729;0,0793512
764,6371;0,0789637
765,6014;0,078575
766,5656;0,0782035
767,5298;0,077862
768,4941;0,0775539
769,4583;0,0772739
770,4225;0,0770108
771,3868;0,0767512
772,3510;0,0764855
773,3152;0,0762112
774,2795;0,0759346
775,2437;0,075667
776,2079;0,0754181
777,1722;0,0751902
778,1364;0,0749753
779,1006;0,0747591
780,0649;0,074528
781,0291;0,0742756
781,9933;0,0740051
782,9576;0,0737266
783,9218;0,0734521
784,8860;0,0731906
785,8503;0,0729455
786,8145;0,0727146
787,7787;0,0724915
788,7430;0,0722682
789,7072;0,0720388
790,6714;0,0718039
791,6357;0,0715726
792,5999;0,071361
793,5641;0,0711852
794,5284;0,0710523
795,4926;0,0709542
796,4568;0,0708696
797,4211;0,0707733
798,3853;0,0706491
799,3495;0,0704985
800,3138;0,0703395
801,2780;0,0701957
802,2422;0,0700825
803,2065;0,0699981
804,1707;0,0699255
805,1349;0,069843
806,0992;0,0697369
807,0634;0,0696078
808,0276;0,0694674
808,9919;0,069329
809,9561;0,0692003
810,9203;0,0690824
811,8846;0,0689736
812,8488;0,0688747
813,8130;0,0687875
814,7773;0,0687101
815,7415;0,0686338
816,7057;0,0685463
817,6700;0,0684414
818,6342;0,0683253
819,5984;0,0682146
820,5627;0,0681249
821,5269;0,0680593
822,4911;0,0680049
823,4554;0,0679412
824,4196;0,0678542
825,3839;0,0677452
826,3481;0,067629
827,3123;0,0675257
828,2766;0,0674503
829,2408;0,0674085
830,2050;0,0673953
831,1693;0,0673965
832,1335;0,0673899
833,0977;0,0673498
834,0620;0,0672554
835,0262;0,0670998
835,9904;0,0668938
836,9547;0,0666597
837,9189;0,0664182
838,8831;0,0661789
839,8474;0,0659414
840,8116;0,0657051
841,7758;0,0654789
842,7401;0,0652816
843,7043;0,0651313
844,6685;0,0650325
845,6328;0,0649733
846,5970;0,0649333
847,5612;0,064897
848,5255;0,0648618
849,4897;0,0648333
850,4539;0,064815
851,4182;0,0647996
852,3824;0,064772
853,3466;0,0647191
854,3109;0,0646401
855,2751;0,0645481
856,2393;0,0644631
857,2036;0,0644022
858,1678;0,0643739
859,1320;0,0643787
860,0963;0,0644125
861,0605;0,0644706
862,0247;0,0645477
862,9890;0,0646375
863,9532;0,0647344
864,9174;0,0648356
865,8817;0,0649438
866,8459;0,0650664
867,8101;0,0652113
868,7744;0,0653828
869,7386;0,0655794
870,7028;0,0657952
871,6671;0,0660212
872,6313;0,0662457
873,5955;0,0664526
874,5598;0,0666213
875,5240;0,0667319
876,4882;0,0667746
877,4525;0,0667605
878,4167;0,0667238
879,3809;0,0667143
880,3452;0,0667817
881,3094;0,066959
882,2736;0,0672539
883,2379;0,0676524
884,2021;0,0681293
885,1663;0,0686609
886,1306;0,0692327
887,0948;0,0698401
888,0590;0,0704844
889,0233;0,0711672
889,9875;0,0718862
890,9517;0,0726321
891,9160;0,0733869
892,8802;0,0741233
893,8444;0,0748065
894,8087;0,0753969
895,7729;0,0758549
896,7371;0,0761462
897,7014;0,0762466
898,6656;0,0761471
899,6298;0,0758573
900,5941;0,0754055
901,5583;0,0748344
902,5225;0,0741932
903,4868;0,0735291
904,4510;0,0728825
905,4152;0,0722859
906,3795;0,0717649
907,3437;0,0713382
908,3079;0,0710143
909,2722;0,0707879
910,2364;0,0706415
911,2007;0,0705532
912,1649;0,0705079
913,1292;0,0705042
914,0934;0,0705508
915,0576;0,0706557
916,0219;0,0708149
916,9861;0,071011
917,9503;0,0712224
918,9146;0,0714366
919,8788;0,071657
920,8430;0,0718975
921,8073;0,072169
922,7715;0,0724681
923,7357;0,0727762
924,7000;0,0730699
925,6642;0,0733342
926,6284;0,0735688
927,5927;0,0737854
928,5569;0,0739983
929,5211;0,0742165
930,4854;0,074442
931,4496;0,0746733
932,4138;0,0749099
933,3781;0,0751541
934,3423;0,0754111
935,3065;0,0756867
936,2708;0,0759869
937,2350;0,0763175
938,1992;0,0766834
939,1635;0,0770881
940,1277;0,0775336
941,0919;0,0780212
942,0562;0,0785527
943,0204;0,0791301
943,9846;0,0797541
944,9489;0,0804229
945,9131;0,0811327
946,8773;0,0818803
947,8416;0,0826656
948,8058;0,0834914
949,7700;0,0843611
950,7343;0,0852765
951,6985;0,086239
952,6627;0,0872541
953,6270;0,0883347
954,5912;0,0894993
955,5554;0,090765
956,5197;0,0921387
957,4839;0,0936115
958,4481;0,0951612
959,4124;0,0967587
960,3766;0,0983762
961,3408;0,0999923
962,3051;0,101595
963,2693;0,103182
964,2335;0,104767
965,1978;0,106371
966,1620;0,108023
967,1262;0,109749
968,0905;0,111562
969,0547;0,113469
970,0189;0,115467
970,9832;0,117564
971,9474;0,119784
972,9116;0,122166
973,8759;0,124758
974,8401;0,127606
975,8043;0,130736
976,7686;0,134157
977,7328;0,137851
978,6970;0,141774
979,6613;0,14586
980,6255;0,150014
981,5897;0,154125
982,5540;0,158072
983,5182;0,161743
984,4824;0,165059
985,4467;0,167983
986,4109;0,170522
987,3751;0,172713
988,3394;0,174604
989,3036;0,176232
990,2678;0,177623
991,2321;0,178796
992,1963;0,179779
993,1605;0,18062
994,1248;0,181384
995,0890;0,182143
996,0532;0,182947
997,0175;0,183817
997,9817;0,184738
998,9459;0,185677
999,9102;0,186607
1000,8744;0,187527
1001,8386;0,188465
1002,8029;0,189467
1003,7671;0,190586
1004,7313;0,191858
1005,6956;0,193307
1006,6598;0,194949
1007,6240;0,196798
1008,5883;0,198874
1009,5525;0,20119
1010,5167;0,203738
1011,4810;0,206484
1012,4452;0,209366
1013,4094;0,212313
1014,3737;0,21525
1015,3379;0,218122
1016,3021;0,220887
1017,2664;0,223522
1018,2306;0,226018
1019,1948;0,228381
1020,1591;0,230628
1021,1233;0,232785
1022,0875;0,234877
1023,0518;0,23692
1024,0160;0,238918
1024,9802;0,240863
1025,9445;0,242736
1026,9087;0,24451
1027,8729;0,246148
1028,8372;0,247597
1029,8014;0,248787
1030,7656;0,249629
1031,7299;0,25003
1032,6941;0,249908
1033,6583;0,249216
1034,6226;0,247963
1035,5868;0,24623
1036,5510;0,244162
1037,5153;0,24195
1038,4795;0,239795
1039,4437;0,23787
1040,4080;0,236291
1041,3722;0,235106
1042,3364;0,234301
1043,3007;0,233811
1044,2649;0,233544
1045,2291;0,233398
1046,1934;0,233276
1047,1576;0,233097
1048,1218;0,232798
1049,0861;0,232333
1050,0503;0,231672
1051,0145;0,230789
1051,9788;0,229668
1052,9430;0,228293
1053,9072;0,226655
1054,8715;0,22475
1055,8357;0,222576
1056,7999;0,220125
1057,7642;0,21738
1058,7284;0,214316
1059,6926;0,210919
1060,6569;0,207205
1061,6211;0,203241
1062,5853;0,199147
1063,5496;0,195075
1064,5138;0,191176
1065,4780;0,187555
1066,4423;0,184255
1067,4065;0,181256
1068,3707;0,178502
1069,3350;0,175935
1070,2992;0,17351
1071,2634;0,171203
1072,2277;0,16899
1073,1919;0,166833
1074,1561;0,16468
1075,1204;0,162477
1076,0846;0,160192
1077,0488;0,157835
1078,0131;0,155457
1078,9773;0,153136
1079,9415;0,150951
1080,9058;0,148961
1081,8700;0,147196
1082,8342;0,145659
1083,7985;0,144336
1084,7627;0,143204
1085,7269;0,142237
1086,6912;0,14141
1087,6554;0,140701
1088,6196;0,140094
1089,5839;0,139582
1090,5481;0,139166
1091,5123;0,138851
1092,4766;0,138645
1093,4408;0,13855
1094,4050;0,138568
1095,3693;0,138691
1096,3335;0,13891
1097,2977;0,139211
1098,2620;0,139575
1099,2262;0,139978
1100,1904;0,140393
1101,1547;0,140789
1102,1189;0,141137
1103,0831;0,141411
1104,0474;0,14159
1105,0116;0,141655
1105,9758;0,141593
1106,9401;0,141393
1107,9043;0,141044
1108,8685;0,140533
1109,8328;0,139841
1110,7970;0,138952
1111,7612;0,137862
1112,7255;0,136584
1113,6897;0,135162
1114,6539;0,13366
1115,6182;0,132153
1116,5824;0,130705
1117,5466;0,129355
1118,5109;0,12811
1119,4751;0,126945
1120,4393;0,12581
1121,4036;0,124638
1122,3678;0,123355
1123,3320;0,121892
1124,2963;0,120202
1125,2605;0,118267
1126,2247;0,116108
1127,1890;0,113776
1128,1532;0,111341
1129,1174;0,108871
1130,0817;0,106416
1131,0459;0,104009
1132,0101;0,101667
1132,9744;0,0994031
1133,9386;0,0972418
1134,9028;0,0952221
1135,8671;0,0933934
1136,8313;0,0918042
1137,7955;0,0904892
1138,7598;0,0894602
1139,7240;0,0887057
1140,6882;0,0881961
1141,6525;0,087892
1142,6167;0,0877528
1143,5809;0,0877427
1144,5452;0,0878352
1145,5094;0,0880153
1146,4736;0,0882788
1147,4379;0,0886284
1148,4021;0,0890675
1149,3663;0,0895931
1150,3306;0,0901925
1151,2948;0,0908428
1152,2590;0,0915141
1153,2233;0,0921723
1154,1875;0,0927805
1155,1517;0,0932986
1156,1160;0,0936819
1157,0802;0,0938809
1158,0444;0,0938418
1159,0087;0,0935081
1159,9729;0,0928232
1160,9371;0,0917376
1161,9014;0,0902183
1162,8656;0,0882609
1163,8298;0,0858976
1164,7941;0,0831988
1165,7583;0,0802657
1166,7225;0,0772169
1167,6868;0,0741722
1168,6510;0,0712373
1169,6152;0,0684933
1170,5795;0,065991
1171,5437;0,0637517
1172,5079;0,0617734
1173,4722;0,0600397
1174,4364;0,0585284
1175,4006;0,0572175
1176,3649;0,0560872
1177,3291;0,0551206
1178,2933;0,0543015
1179,2576;0,0536143
1180,2218;0,0530441
1181,1860;0,0525772
1182,1503;0,0522022
1183,1145;0,0519105
1184,0787;0,051696
1185,0430;0,0515545
1186,0072;0,0514825
1186,9714;0,0514769
1187,9357;0,0515352
1188,8999;0,0516576
1189,8641;0,0518489
1190,8284;0,0521177
1191,7926;0,0524735
1192,7568;0,0529215
1193,7211;0,0534594
1194,6853;0,0540757
1195,6495;0,0547527
1196,6138;0,0554705
1197,5780;0,056211
1198,5422;0,05696
1199,5065;0,0576139
1200,4707;0,0583651
1201,4349;0,0591057
1202,3992;0,0598335
1203,3634;0,0605462
1204,3276;0,0612409
1205,2919;0,0619144
1206,2561;0,0625654
1207,2203;0,0631977
1208,1846;0,0638234
1209,1488;0,064463
1210,1130;0,0651432
1211,0773;0,065891
1212,0415;0,0667267
1213,0057;0,0676578
1213,9700;0,0686755
1214,9342;0,0697561
1215,8984;0,0708679
1216,8627;0,0719791
1217,8269;0,0730659
1218,7911;0,0741176
1219,7554;0,0751351
1220,7196;0,0761243
1221,6838;0,0770883
1222,6481;0,0780243
1223,6123;0,0789237
1224,5765;0,0797778
1225,5408;0,0805825
1226,5050;0,0813398
1227,4692;0,0820546
1228,4335;0,0827294
1229,3977;0,08336
1230,3619;0,0839357
1231,3262;0,0844442
1232,2904;0,0848776
1233,2546;0,085236
1234,2189;0,0855273
1235,1831;0,0857637
1236,1473;0,0859565
1237,1116;0,0861137
1238,0758;0,0862389
1239,0400;0,0863324
1240,0043;0,0863917
1240,9685;0,0864112
1241,9327;0,0863828
1242,8970;0,086297
1243,8612;0,0861464
1244,8254;0,085928
1245,7897;0,085645
1246,7539;0,0853053
1247,7181;0,0849192
1248,6824;0,0844972
1249,6466;0,0840485
1250,6108;0,0835823
1251,5751;0,0831074
1252,5393;0,082632
1253,5035;0,0821615
1254,4678;0,0816965
1255,4320;0,0812313
1256,3962;0,0807559
1257,3605;0,0802594
1258,3247;0,079734
1259,2889;0,0791766
1260,2532;0,0785883
1261,2174;0,077971
1262,1816;0,0773242
1263,1459;0,0766444
1264,1101;0,0759268
1265,0743;0,075169
1266,0386;0,0743721
1267,0028;0,0735409
1267,9670;0,0726817
1268,9313;0,0718018
1269,8955;0,0709087
1270,8597;0,0700111
1271,8240;0,0691177
1272,7882;0,0682362
1273,7524;0,067373
1274,7167;0,0665337
1275,6809;0,0657246
1276,6451;0,0649524
1277,6094;0,0642206
1278,5736;0,0635257
1279,5378;0,0628571
1280,5021;0,0622011
1281,4663;0,0615486
1282,4305;0,0609007
1283,3948;0,0602679
1284,3590;0,0596648
1285,3232;0,0591039
1286,2875;0,0585923
1287,2517;0,0581328
1288,2159;0,0577269
1289,1802;0,0573758
1290,1444;0,0570799
1291,1086;0,056838
1292,0729;0,0566484
1293,0371;0,0565117
1294,0013;0,0564333
1294,9656;0,0564216
1295,9298;0,0564842
1296,8940;0,0566238
1297,8583;0,0568375
1298,8225;0,0571199
1299,7867;0,057467
1300,7510;0,0578767
1301,7152;0,0583488
1302,6794;0,0588801
1303,6437;0,0594638
1304,6079;0,0600908
1305,5721;0,0607517
1306,5364;0,0614379
1307,5006;0,0621413
1308,4648;0,0628538
1309,4291;0,0635665
1310,3933;0,0642689
1311,3575;0,0649489
1312,3218;0,065592
1313,2860;0,066182
1314,2502;0,0667014
1315,2145;0,0671314
1316,1787;0,067452
1317,1429;0,0676437
1318,1072;0,0676942
1319,0714;0,0676074
1320,0356;0,0674087
1320,9999;0,06714
1321,9641;0,0668467
1322,9283;0,066566
1323,8926;0,0663207
1324,8568;0,0661193
1325,8210;0,065958
1326,7853;0,0658249
1327,7495;0,0657045
1328,7137;0,0655822
1329,6780;0,0654459
1330,6422;0,0652873
1331,6064;0,0651012
1332,5707;0,0648854
1333,5349;0,0646405
1334,4991;0,0643657
1335,4634;0,0640534
1336,4276;0,0636859
1337,3918;0,0632376
1338,3561;0,0626924
1339,3203;0,0620681
1340,2845;0,0614244
1341,2488;0,0608336
1342,2130;0,060341
1343,1772;0,0599535
1344,1415;0,0596567
1345,1057;0,0594354
1346,0699;0,0592839
1347,0342;0,0592056
1347,9984;0,0592085
1348,9626;0,0592984
1349,9269;0,0594748
1350,8911;0,0597302
1351,8553;0,0600532
1352,8196;0,0604331
1353,7838;0,060864
1354,7480;0,0613431
1355,7123;0,0618671
1356,6765;0,0624283
1357,6407;0,0630166
1358,6050;0,0636238
1359,5692;0,0642456
1360,5334;0,0648733
1361,4977;0,0654834
1362,4619;0,0660448
1363,4261;0,0665436
1364,3904;0,0669935
1365,3546;0,0674175
1366,3188;0,0678253
1367,2831;0,0682072
1368,2473;0,0685402
1369,2115;0,0687977
1370,1758;0,0689584
1371,1400;0,0690087
1372,1042;0,0689392
1373,0685;0,0687412
1374,0327;0,0684144
1374,9969;0,0679751
1375,9612;0,0674476
1376,9254;0,0668377
1377,8896;0,0661227
1378,8539;0,0652757
1379,8181;0,064304
1380,7823;0,0632652
1381,7466;0,0622406
1382,7108;0,061284
1383,6750;0,0603906
1384,6393;0,0595111
1385,6035;0,0585986
1386,5677;0,0576634
1387,5320;0,0567928
1388,4962;0,0560951
1389,4604;0,0556125
1390,4247;0,0553023
1391,3889;0,0550914
1392,3531;0,0549293
1393,3174;0,0548023
1394,2816;0,0547168
1395,2458;0,0546744
1396,2101;0,054662
1397,1743;0,0546653
1398,1385;0,0546869
1399,1028;0,0547477
1400,0670;0,0548696
1401,0313;0,0550575
1401,9955;0,0552972
1402,9597;0,0555673
1403,9240;0,0558542
1404,8882;0,0561596
1405,8524;0,0564976
1406,8167;0,0568829
1407,7809;0,0573192
1408,7451;0,0578012
1409,7094;0,0583243
1410,6736;0,0588896
1411,6378;0,0594964
1412,6021;0,0601306
1413,5663;0,0607639
1414,5305;0,0613639
1415,4948;0,061908
1416,4590;0,0623866
1417,4232;0,062793
1418,3875;0,0631234
1419,3517;0,0633962
1420,3159;0,0636424
1421,2802;0,0638525
1422,2444;0,0639664
1423,2086;0,0639201
1424,1729;0,063691
1425,1371;0,0633033
1426,1013;0,0627942
1427,0656;0,0621764
1428,0298;0,0614356
1428,9940;0,0605706
1429,9583;0,0596368
1430,9225;0,0587322
1431,8867;0,0579224
1432,8510;0,057185
1433,8152;0,0564289
1434,7794;0,0555619
1435,7437;0,0545764
1436,7079;0,0536115
1437,6721;0,0528855
1438,6364;0,0525093
1439,6006;0,0524192
1440,5648;0,0524862
1441,5291;0,0526234
1442,4933;0,0528097
1443,4575;0,05306
1444,4218;0,0533859
1445,3860;0,0537748
1446,3502;0,0541943
1447,3145;0,0546134
1448,2787;0,0550215
1449,2429;0,0554271
1450,2072;0,0558352
1451,1714;0,0562242
1452,1356;0,0565493
1453,0999;0,0567653
1454,0641;0,0568439
1455,0283;0,0567628
1455,9926;0,0564783
1456,9568;0,0559925
1457,9210;0,0555239
1458,8853;0,0553424
1459,8495;0,0554341
1460,8137;0,0555891
1461,7780;0,0556026
1462,7422;0,0553316
1463,7064;0,0547
1464,6707;0,0537457
1465,6349;0,052654
1466,5991;0,0516381
1467,5634;0,0507653
1468,5276;0,0499456
1469,4918;0,0490286
1470,4561;0,0478707
1471,4203;0,0463676
1472,3845;0,044533
1473,3488;0,042601
1474,3130;0,0409177
1475,2772;0,0396546
1476,2415;0,0387505
1477,2057;0,0380714
1478,1699;0,0375194
1479,1342;0,0370452
1480,0984;0,0366302
1481,0626;0,0362755
1482,0269;0,0359965
1482,9911;0,0358134
1483,9553;0,0357362
1484,9196;0,0357573
1485,8838;0,0358567
1486,8480;0,0360081
1487,8123;0,0361767
1488,7765;0,03633
1489,7407;0,0364854
1490,7050;0,0367142
1491,6692;0,0370606
1492,6334;0,0375043
1493,5977;0,0380093
1494,5619;0,038569
1495,5261;0,0392089
1496,4904;0,0399527
1497,4546;0,0407874
1498,4188;0,0416728
1499,3831;0,042566
1500,3473;0,0434135
1501,3115;0,0441479
1502,2758;0,044713
1503,2400;0,045095
1504,2042;0,0453344
1505,1685;0,0454864
1506,1327;0,0454991
1507,0969;0,0452028
1508,0612;0,0446722
1509,0254;0,044211
1509,9896;0,043903
1510,9539;0,0436406
1511,9181;0,0433186
1512,8823;0,0428857
1513,8466;0,0423281
1514,8108;0,0416526
1515,7750;0,0408857
1516,7393;0,0400702
1517,7035;0,0392433
1518,6677;0,0384128
1519,6320;0,0375649
1520,5962;0,0367097
1521,5604;0,0359174
1522,5247;0,0352831
1523,4889;0,0348434
1524,4531;0,0345534
1525,4174;0,0343444
1526,3816;0,0341845
1527,3458;0,0340844
1528,3101;0,0340596
1529,2743;0,0340989
1530,2385;0,0341702
1531,2028;0,0342434
1532,1670;0,0343067
1533,1312;0,0343711
1534,0955;0,034461
1535,0597;0,0345839
1536,0239;0,0347131
1536,9882;0,0348185
1537,9524;0,0349093
1538,9166;0,0350275
1539,8809;0,035158
1540,8451;0,0351923
1541,8093;0,0351358
1542,7736;0,0351358
1543,7378;0,0352444
1544,7020;0,035423
1545,6663;0,0356422
1546,6305;0,0358952
1547,5947;0,036171
1548,5590;0,0364429
1549,5232;0,0366825
1550,4874;0,0368827
1551,4517;0,0370657
1552,4159;0,0372631
1553,3801;0,0374816
1554,3444;0,0376909
1555,3086;0,0378446
1556,2728;0,0378999
1557,2371;0,0378011
1558,2013;0,0375016
1559,1655;0,0371997
1560,1298;0,0372845
1561,0940;0,0378088
1562,0582;0,0385369
1563,0225;0,0392619
1563,9867;0,0398875
1564,9509;0,0403928
1565,9152;0,0407962
1566,8794;0,0411388
1567,8436;0,041477
1568,8079;0,0418688
1569,7721;0,0423458
1570,7363;0,0428906
1571,7006;0,0434487
1572,6648;0,0439731
1573,6290;0,044463
1574,5933;0,0449681
1575,5575;0,045548
1576,5217;0,0462196
1577,4860;0,0469591
1578,4502;0,0477394
1579,4144;0,048537
1580,3787;0,0493334
1581,3429;0,0501225
1582,3071;0,0509078
1583,2714;0,0516935
1584,2356;0,0524821
1585,1998;0,0532772
1586,1641;0,0540788
1587,1283;0,0548752
1588,0925;0,0556388
1589,0568;0,056333
1590,0210;0,0569237
1590,9852;0,0573849
1591,9495;0,0576947
1592,9137;0,0578331
1593,8779;0,0577892
1594,8422;0,0575771
1595,8064;0,0572401
1596,7706;0,0568359
1597,7349;0,0564112
1598,6991;0,0559883
1599,6633;0,0555687
1600,6276;0,0551472
1601,5918;0,0547252
1602,5560;0,0543162
1603,5203;0,0539384
1604,4845;0,0536
1605,4487;0,0532895
1606,4130;0,0529803
1607,3772;0,052651
1608,3414;0,0523089
1609,3057;0,0519984
1610,2699;0,0517715
1611,2341;0,0516436
1612,1984;0,0515777
1613,1626;0,0515089
1614,1268;0,0513795
1615,0911;0,051168
1616,0553;0,0509214
1617,0195;0,0507586
1617,9838;0,050781
1618,9480;0,0509707
1619,9122;0,0512206
1620,8765;0,0514257
1621,8407;0,0515295
1622,8049;0,0515301
1623,7692;0,0514692
1624,7334;0,0514041
1625,6976;0,0513698
1626,6619;0,0513709
1627,6261;0,0514063
1628,5903;0,0514853
1629,5546;0,0516124
1630,5188;0,0517654
1631,4830;0,0518966
1632,4473;0,0519561
1633,4115;0,051908
1634,3757;0,0517301
1635,3400;0,051435
1636,3042;0,0511327
1637,2684;0,0509819
1638,2327;0,0510206
1639,1969;0,0511631
1640,1611;0,0513152
1641,1254;0,0514274
1642,0896;0,0514851
1643,0538;0,0514851
1644,0181;0,0514173
1644,9823;0,0512566
1645,9465;0,0509912
1646,9108;0,0506902
1647,8750;0,0504713
1648,8392;0,0503517
1649,8035;0,0502193
1650,7677;0,0499152
1651,7319;0,0492803
1652,6962;0,0482511
1653,6604;0,047153
1654,6246;0,0465522
1655,5889;0,0465284
1656,5531;0,0467452
1657,5173;0,0469079
1658,4816;0,0468779
1659,4458;0,0466169
1660,4100;0,0461373
1661,3743;0,0454983
1662,3385;0,0448244
1663,3027;0,0442645
1664,2670;0,0438896
1665,2312;0,0436537
1666,1954;0,0434445
1667,1597;0,0431407
1668,1239;0,0426518
1669,0881;0,0419708
1670,0524;0,0412149
1671,0166;0,040543
1671,9808;0,0400051
1672,9451;0,0395264
1673,9093;0,0390162
1674,8735;0,0384686
1675,8378;0,0379808
1676,8020;0,0376703
1677,7662;0,0375621
1678,7305;0,0375696
1679,6947;0,0375595
1680,6589;0,0374071
1681,6232;0,0370048
1682,5874;0,0362769
1683,5516;0,0352946
1684,5159;0,0343802
1685,4801;0,0338468
1686,4443;0,0336837
1687,4086;0,0336806
1688,3728;0,0336612
1689,3370;0,0335575
1690,3013;0,0333862
1691,2655;0,0331999
1692,2297;0,0330487
1693,1940;0,0329612
1694,1582;0,0329368
1695,1224;0,0329393
1696,0867;0,032897
1697,0509;0,0327333
1698,0151;0,0324304
1698,9794;0,0320812
1699,9436;0,0318539
1700,9078;0,0318717
1701,8721;0,0321292
1702,8363;0,0325254
1703,8005;0,0329485
1704,7648;0,033331
1705,7290;0,0336623
1706,6932;0,0339765
1707,6575;0,0343252
1708,6217;0,0347451
1709,5859;0,0352436
1710,5502;0,0358051
1711,5144;0,0364043
1712,4786;0,0370133
1713,4429;0,0376034
1714,4071;0,0381443
1715,3713;0,0386016
1716,3356;0,0389505
1717,2998;0,0392325
1718,2640;0,0395673
1719,2283;0,040042
1720,1925;0,0406412
1721,1567;0,0412983
1722,1210;0,0419542
1723,0852;0,042575
1724,0494;0,0431495
1725,0137;0,043686
1725,9779;0,0442067
1726,9421;0,0447332
1727,9064;0,0452675
1728,8706;0,0457822
1729,8348;0,0462214
1730,7991;0,0465064
1731,7633;0,0465471
1732,7275;0,046291
1733,6918;0,0458222
1734,6560;0,0453586
1735,6202;0,0450517
1736,5845;0,0448607
1737,5487;0,0446422
1738,5129;0,0442745
1739,4772;0,0437162
1740,4414;0,0430122
1741,4056;0,0422565
1742,3699;0,0415224
1743,3341;0,0408194
1744,2983;0,0401122
1745,2626;0,0393595
1746,2268;0,038524
1747,1910;0,0375522
1748,1553;0,0363715
1749,1195;0,0349549
1750,0837;0,033417
1751,0480;0,0319853
1752,0122;0,0308269
1752,9764;0,0299443
1753,9407;0,0292297
1754,9049;0,0285669
1755,8691;0,0278947
1756,8334;0,0272157
1757,7976;0,0265614
1758,7618;0,025944
1759,7261;0,0253397
1760,6903;0,0247201
1761,6545;0,0240976
1762,6188;0,0235318
1763,5830;0,0230826
1764,5472;0,0227614
1765,5115;0,022531
1766,4757;0,02234
1767,4399;0,0221523
1768,4042;0,0219521
1769,3684;0,0217283
1770,3326;0,0214583
1771,2969;0,0211203
1772,2611;0,0207392
1773,2253;0,0204032
1774,1896;0,0201989
1775,1538;0,0201403
1776,1180;0,0201744
1777,0823;0,02023
1778,0465;0,0202541
1779,0107;0,0202245
1779,9750;0,020146
1780,9392;0,0200379
1781,9034;0,0199189
1782,8677;0,0198016
1783,8319;0,0197001
1784,7961;0,0196371
1785,7604;0,0196362
1786,7246;0,0197035
1787,6888;0,0198184
1788,6531;0,0199401
1789,6173;0,0200205
1790,5815;0,0200164
1791,5458;0,019911
1792,5100;0,0197444
1793,4742;0,0196029
1794,4385;0,0195477
1795,4027;0,0195717
1796,3669;0,0196276
1797,3312;0,0196686
1798,2954;0,0196675
1799,2596;0,0196164
1800,2239;0,019525
1801,1881;0,0194175
1802,1523;0,0193257
1803,1166;0,0192745
1804,0808;0,0192731
1805,0450;0,0193151
1806,0093;0,0193827
1806,9735;0,0194518
1807,9377;0,0194974
1808,9020;0,019501
1809,8662;0,0194585
1810,8304;0,0193832
1811,7947;0,0192984
1812,7589;0,0192226
1813,7231;0,0191618
1814,6874;0,0191145
1815,6516;0,0190819
1816,6158;0,0190725
1817,5801;0,0190962
1818,5443;0,0191545
1819,5085;0,0192327
1820,4728;0,0193042
1821,4370;0,0193439
1822,4012;0,0193418
1823,3655;0,0193092
1824,3297;0,0192742
1825,2939;0,0192629
1826,2582;0,0192786
1827,2224;0,0192956
1828,1866;0,0192745
1829,1509;0,019193
1830,1151;0,0190716
1831,0793;0,0189681
1832,0436;0,0189329
1833,0078;0,018973
1833,9720;0,0190581
1834,9363;0,0191479
1835,9005;0,0192151
1836,8647;0,0192565
1837,8290;0,0192893
1838,7932;0,019334
1839,7574;0,0193978
1840,7217;0,019471
1841,6859;0,0195328
1842,6501;0,0195578
1843,6144;0,0195256
1844,5786;0,0194403
1845,5428;0,0193375
1846,5071;0,0192547
1847,4713;0,0192024
1848,4355;0,0191694
1849,3998;0,0191423
1850,3640;0,0191174
1851,3282;0,0190988
1852,2925;0,0190918
1853,2567;0,0190981
1854,2209;0,019116
1855,1852;0,0191433
1856,1494;0,0191781
1857,1136;0,0192173
1858,0779;0,0192545
1859,0421;0,0192818
1860,0063;0,0192964
1860,9706;0,0193052
1861,9348;0,0193245
1862,8990;0,0193718
1863,8633;0,0194556
1864,8275;0,0195698
1865,7917;0,0196903
1866,7560;0,0197731
1867,7202;0,0197666
1868,6844;0,0196466
1869,6487;0,0194491
1870,6129;0,0192474
1871,5771;0,0190994
1872,5414;0,0190229
1873,5056;0,0190078
1874,4698;0,0190338
1875,4341;0,0190795
1876,3983;0,0191283
1877,3625;0,0191723
1878,3268;0,0192135
1879,2910;0,019259
1880,2552;0,0193134
1881,2195;0,0193735
1882,1837;0,0194285
1883,1479;0,0194649
1884,1122;0,0194734
1885,0764;0,0194514
1886,0406;0,0194036
1887,0049;0,0193392
1887,9691;0,0192716
1888,9333;0,0192166
1889,8976;0,0191886
1890,8618;0,0191933
1891,8260;0,0192219
1892,7903;0,0192522
1893,7545;0,0192591
1894,7188;0,0192287
1895,6830;0,0191698
1896,6472;0,0191147
1897,6115;0,0191033
1898,5757;0,0191599
1899,5399;0,0192792
1900,5042;0,0194277
1901,4684;0,019559
1902,4326;0,0196349
1903,3969;0,0196403
1904,3611;0,0195861
1905,3253;0,0194976
1906,2896;0,0193996
1907,2538;0,0193089
1908,2180;0,0192346
1909,1823;0,0191826
1910,1465;0,0191582
1911,1107;0,0191643
1912,0750;0,0191981
1913,0392;0,0192523
1914,0034;0,0193186
1914,9677;0,0193897
1915,9319;0,0194566
1916,8961;0,0195052
1917,8604;0,0195185
1918,8246;0,019487
1919,7888;0,0194181
1920,7531;0,0193366
1921,7173;0,0192753
1922,6815;0,0192598
1923,6458;0,0192943
1924,6100;0,0193553
1925,5742;0,0194052
1926,5385;0,0194152
1927,5027;0,0193829
1928,4669;0,0193329
1929,4312;0,0193021
1930,3954;0,0193162
1931,3596;0,0193727
1932,3239;0,0194408
1933,2881;0,0194793
1934,2523;0,0194601
1935,2166;0,0193832
1936,1808;0,0192762
1937,1450;0,0191811
1938,1093;0,0191404
1939,0735;0,0191861
1940,0377;0,0193319
1941,0020;0,0195622
1941,9662;0,0198236
1942,9304;0,0200364
1943,8947;0,0201324
1944,8589;0,0200925
1945,8231;0,0199531
1946,7874;0,019781
1947,7516;0,0196363
1948,7158;0,0195445
1949,6801;0,0194911
1950,6443;0,0194418
1951,6085;0,0193771
1952,5728;0,0193154
1953,5370;0,019305
1954,5012;0,0193875
1955,4655;0,0195608
1956,4297;0,0197672
1957,3939;0,0199187
1958,3582;0,0199433
1959,3224;0,0198221
1960,2866;0,0195962
1961,2509;0,0193398
1962,2151;0,0191217
1963,1793;0,0189806
1964,1436;0,0189238
1965,1078;0,0189385
1966,0720;0,0189994
1967,0363;0,0190733
1968,0005;0,0191298
1968,9647;0,0191584
1969,9290;0,0191797
1970,8932;0,0192357
1971,8574;0,0193614
1972,8217;0,019554
1973,7859;0,0197615
1974,7501;0,0199051
1975,7144;0,0199285
1976,6786;0,0198392
1977,6428;0,019705
1978,6071;0,0196028
1979,5713;0,0195672
1980,5355;0,0195815
1981,4998;0,019613
1982,4640;0,0196535
1983,4282;0,0197323
1984,3925;0,0198923
1985,3567;0,0201471
1986,3209;0,0204498
1987,2852;0,0207007
1988,2494;0,0207931
1989,2136;0,020671
1990,1779;0,020366
1991,1421;0,0199901
1992,1063;0,0196815
1993,0706;0,0195348
1994,0348;0,0195624
1994,9990;0,0197099
1995,9633;0,0199005
1996,9275;0,0200729
1997,8917;0,0201934
1998,8560;0,0202504
1999,8202;0,0202456
2000,7844;0,0201913
2001,7487;0,0201147
2002,7129;0,0200576
2003,6771;0,0200644
2004,6414;0,020158
2005,6056;0,0203201
2006,5698;0,0204934
2007,5341;0,0206149
2008,4983;0,020657
2009,4625;0,0206454
2010,4268;0,0206348
2011,3910;0,020665
2012,3552;0,0207292
2013,3195;0,0207785
2014,2837;0,0207565
2015,2479;0,0206411
2016,2122;0,0204652
2017,1764;0,0203
2018,1406;0,020213
2019,1049;0,0202361
2020,0691;0,0203666
2021,0333;0,0205943
2021,9976;0,0209204
2022,9618;0,0213471
2023,9260;0,0218408
2024,8903;0,0223035
2025,8545;0,0225865
2026,8187;0,0225546
2027,7830;0,022166
2028,7472;0,0215154
2029,7114;0,0208055
2030,6757;0,0202563
2031,6399;0,0200064
2032,6041;0,0200622
2033,5684;0,0203247
2034,5326;0,0206647
2035,4968;0,0209931
2036,4611;0,0212792
2037,4253;0,0215217
2038,3895;0,0217095
2039,3538;0,0218088
2040,3180;0,0217845
2041,2822;0,0216357
2042,2465;0,0214135
2043,2107;0,0212073
2044,1749;0,0211048
2045,1392;0,0211524
2046,1034;0,0213343
2047,0676;0,0215766
2048,0320;0,0217789
2048,9961;0,021859
2049,9604;0,0217889
2050,9246;0,0216019
2051,8889;0,0213725
2052,8530;0,0211842
2053,8174;0,0210973
2054,7815;0,0211261
2055,7458;0,0212351
2056,7100;0,0213601
2057,6743;0,0214425
2058,6384;0,0214587
2059,6028;0,0214254
2060,5669;0,0213824
2061,5313;0,0213677
2062,4954;0,0214012
2063,4597;0,0214818
2064,4238;0,0215972
2065,3882;0,0217311
2066,3523;0,0218648
2067,3167;0,0219752
2068,2808;0,0220355
2069,2451;0,0220247
2070,2092;0,0219402
2071,1736;0,0218045
2072,1377;0,0216584
2073,1021;0,0215428
2074,0662;0,0214804
2075,0305;0,0214698
2075,9946;0,0214952
2076,9590;0,0215438
2077,9231;0,0216151
2078,8875;0,0217168
2079,8516;0,0218487
2080,8159;0,0219912
2081,7800;0,0221091
2082,7444;0,0221712
2083,7085;0,0221712
2084,6729;0,0221341
2085,6370;0,022101
2086,6013;0,0221025
2087,5654;0,0221386
2088,5298;0,0221812
2089,4939;0,0221967
2090,4583;0,0221716
2091,4224;0,022123
2092,3867;0,0220856
2093,3508;0,0220873
2094,3152;0,0221309
2095,2793;0,0221938
2096,2437;0,0222441
2097,2078;0,0222588
2098,1721;0,0222319
2099,1362;0,0221717
2100,1006;0,0220947
2101,0647;0,0220213
2102,0291;0,0219762
2102,9932;0,0219796
2103,9575;0,0220355
2104,9216;0,0221218
2105,8860;0,0221958
2106,8501;0,0222151
2107,8145;0,0221632
2108,7786;0,0220617
2109,7429;0,0219591
2110,7070;0,0219036
2111,6714;0,021917
2112,6355;0,0219859
2113,5999;0,0220731
2114,5640;0,0221394
2115,5283;0,0221625
2116,4924;0,022143
2117,4568;0,0220994
2118,4209;0,0220576
2119,3853;0,0220394
2120,3494;0,022055
2121,3137;0,0221016
2122,2778;0,0221657
2123,2422;0,0222308
2124,2063;0,0222859
2125,1707;0,0223298
2126,1348;0,02237
2127,0991;0,0224176
2128,0632;0,0224809
2129,0276;0,0225629
2129,9917;0,0226605
2130,9561;0,0227639
2131,9202;0,0228542
2132,8845;0,0229052
2133,8486;0,022893
2134,8130;0,0228144
2135,7771;0,0227022
2136,7415;0,0226201
2137,7056;0,0226328
2138,6699;0,0227668
2139,6340;0,0229885
2140,5984;0,0232165
2141,5625;0,0233643
2142,5269;0,0233865
2143,4910;0,0233015
2144,4553;0,0231768
2145,4194;0,0230905
2146,3838;0,0230942
2147,3479;0,0231969
2148,3123;0,0233719
2149,2764;0,0235725
2150,2407;0,023747
2151,2048;0,0238503
2152,1692;0,0238601
2153,1333;0,0237931
2154,0977;0,0237102
2155,0618;0,0236958
2156,0261;0,0238099
2156,9902;0,0240367
2157,9546;0,0242723
2158,9187;0,0243865
2159,8831;0,0243215
2160,8472;0,0241328
2161,8115;0,0239334
2162,7756;0,0238079
2163,7400;0,0237719
2164,7041;0,0237888
2165,6685;0,023813
2166,6326;0,0238188
2167,5969;0,0238003
2168,5610;0,0237525
2169,5254;0,0236621
2170,4895;0,0235198
2171,4539;0,0233447
2172,4180;0,0231916
2173,3823;0,0231279
2174,3464;0,0231892
2175,3108;0,0233498
2176,2749;0,0235375
2177,2393;0,0236855
2178,2034;0,0237812
2179,1677;0,0238691
2180,1318;0,024003
2181,0962;0,0241837
2182,0603;0,0243346
2183,0247;0,0243417
2183,9888;0,0241361
2184,9531;0,0237548
2185,9172;0,0233317
2186,8816;0,0230248
2187,8457;0,0229311
2188,8101;0,0230431
2189,7742;0,0232678
2190,7385;0,0234876
2191,7026;0,0236197
2192,6670;0,0236385
2193,6311;0,0235611
2194,5955;0,0234158
2195,5596;0,0232241
2196,5239;0,023002
2197,4880;0,0227726
2198,4524;0,0225695
2199,4165;0,0224248
2200,3809;0,0223511
2201,3450;0,0223334
2202,3093;0,0223402
2203,2734;0,0223458
2204,2378;0,022348
2205,2019;0,0223674
2206,1663;0,0224303
2207,1304;0,0225466
2208,0947;0,0226987
2209,0588;0,0228467
2210,0232;0,0229466
2210,9873;0,0229697
2211,9517;0,0229132
2212,9158;0,0228006
2213,8801;0,0226721
2214,8442;0,0225718
2215,8086;0,0225336
2216,7727;0,022571
2217,7371;0,0226725
2218,7012;0,0228062
2219,6655;0,0229343
2220,6296;0,0230301
2221,5940;0,0230895
2222,5581;0,0231269
2223,5225;0,0231574
2224,4866;0,0231781
2225,4509;0,0231632
2226,4150;0,023081
2227,3794;0,0229208
2228,3435;0,0227125
2229,3079;0,0225184
2230,2720;0,0224016
2231,2363;0,0223912
2232,2004;0,022469
2233,1648;0,0225864
2234,1289;0,0226991
2235,0933;0,0227928
2236,0574;0,0228839
2237,0217;0,0229964
2237,9858;0,0231375
2238,9502;0,0232865
2239,9143;0,0234062
2240,8787;0,0234634
2241,8428;0,0234449
2242,8071;0,0233606
2243,7712;0,0232382
2244,7356;0,023114
2245,6997;0,0230248
2246,6641;0,0229981
2247,6282;0,0230419
2248,5925;0,023137
2249,5566;0,0232407
2250,5210;0,0233029
2251,4851;0,0232909
2252,4495;0,0232058
2253,4136;0,0230824
2254,3779;0,0229694
2255,3420;0,0229025
2256,3064;0,0228868
2257,2705;0,0228989
2258,2349;0,0229055
2259,1990;0,0228859
2260,1633;0,0228446
2261,1274;0,0228063
2262,0918;0,0227989
2263,0559;0,0228346
2264,0203;0,0229025
2264,9844;0,0229763
2265,9487;0,0230319
2266,9128;0,0230618
2267,8772;0,0230749
2268,8413;0,0230843
2269,8057;0,023093
2270,7698;0,0230892
2271,7341;0,023057
2272,6982;0,0229919
2273,6626;0,0229098
2274,6267;0,0228396
2275,5911;0,0228061
2276,5552;0,0228137
2277,5195;0,0228447
2278,4836;0,0228709
2279,4480;0,0228736
2280,4121;0,0228552
2281,3765;0,0228378
2282,3406;0,0228492
2283,3049;0,0229058
2284,2690;0,0230028
2285,2334;0,0231168
2286,1975;0,0232197
2287,1619;0,0232953
2288,1260;0,0233502
2289,0903;0,02341
2290,0544;0,0235023
2291,0188;0,0236373
2291,9829;0,0237991
2292,9473;0,0239539
2293,9114;0,0240727
2294,8757;0,0241495
2295,8398;0,0242048
2296,8042;0,0242673
2297,7683;0,0243501
2298,7327;0,0244364
2299,6968;0,024489
2300,6611;0,0244763
2301,6252;0,024397
2302,5896;0,0242859
2303,5537;0,0241974
2304,5181;0,0241776
2305,4822;0,0242416
2306,4465;0,0243685
2307,4106;0,0245132
2308,3750;0,0246258
2309,3391;0,0246683
2310,3035;0,0246216
2311,2676;0,0244865
2312,2319;0,0242819
2313,1960;0,0240421
2314,1604;0,0238089
2315,1245;0,0236202
2316,0889;0,0234987
2317,0530;0,0234471
2318,0173;0,0234527
2318,9814;0,0234985
2319,9458;0,023577
2320,9099;0,023698
2321,8743;0,0238804
2322,8384;0,0241295
2323,8027;0,0244152
2324,7668;0,0246725
2325,7312;0,02483
2326,6953;0,0248469
2327,6597;0,0247379
2328,6238;0,0245707
2329,5881;0,0244374
2330,5522;0,0244102
2331,5166;0,0245061
2332,4807;0,0246821
2333,4451;0,0248636
2334,4092;0,0249888
2335,3735;0,0250433
2336,3376;0,0250691
2337,3020;0,0251417
2338,2661;0,0253218
2339,2305;0,0256057
2340,1946;0,0259003
2341,1589;0,0260409
2342,1230;0,0258652
2343,0874;0,0253556
2344,0515;0,0247613
2345,0159;0,0244837
2345,9800;0,0247386
2346,9443;0,0253897
2347,9084;0,0261067
2348,8728;0,0266025
2349,8369;0,0267633
2350,8013;0,0266588
2351,7654;0,0264667
2352,7297;0,026343
2353,6938;0,0263151
2354,6582;0,0263063
2355,6223;0,0262693
2356,5867;0,0262494
2357,5508;0,0263127
2358,5151;0,0264519
2359,4792;0,0265701
2360,4436;0,0265418
2361,4077;0,026287
2362,3721;0,0258058
2363,3362;0,0251728
2364,3005;0,0245055
2365,2646;0,0239118
2366,2290;0,0234423
2367,1931;0,0230799
2368,1575;0,0227729
2369,1216;0,0224821
2370,0859;0,0222039
2371,0500;0,0219615
2372,0144;0,0217834
2372,9785;0,0216893
2373,9429;0,0216893
2374,9070;0,0217873
2375,8713;0,0219807
2376,8354;0,0222546
2377,7998;0,02258
2378,7639;0,0229169
2379,7283;0,023224
2380,6924;0,0234687
2381,6567;0,0236335
2382,6208;0,0237174
2383,5852;0,0237329
2384,5493;0,0237009
2385,5137;0,0236455
2386,4778;0,0235889
2387,4421;0,0235466
2388,4063;0,0235255
2389,3706;0,0235246
2390,3347;0,0235379
2391,2991;0,0235582
2392,2632;0,0235803
2393,2275;0,0236014
2394,1917;0,0236206
2395,1560;0,0236378
2396,1201;0,0236543
2397,0845;0,0236729
2398,0486;0,0236973
2399,0129;0,0237271
2399,9771;0,0237561
2400,9414;0,0237731
2401,9055;0,0237676
2402,8699;0,0237373
2403,8340;0,0236927
2404,7983;0,0236538
2405,7625;0,0236415
2406,7268;0,023667
2407,6909;0,0237269
2408,6553;0,0238057
2409,6194;0,0238835
2410,5837;0,0239448
2411,5479;0,0239835
2412,5122;0,0240023
2413,4763;0,0240092
2414,4407;0,0240138
2415,4048;0,0240236
2416,3691;0,0240419
2417,3333;0,0240667
2418,2976;0,0240924
2419,2617;0,0241123
2420,2261;0,0241232
2421,1902;0,0241262
2422,1545;0,0241265
2423,1187;0,0241296
2424,0830;0,0241378
2425,0471;0,024149
2426,0115;0,0241607
2426,9756;0,0241729
2427,9399;0,02419
2428,9041;0,024218
2429,8684;0,0242596
2430,8325;0,0243114
2431,7969;0,0243652
2432,7610;0,0244135
2433,7253;0,0244539
2434,6895;0,0244895
2435,6538;0,0245246
2436,6179;0,0245598
2437,5823;0,0245899
2438,5464;0,024607
2439,5107;0,0246049
2440,4749;0,0245837
2441,4392;0,0245503
2442,4033;0,0245164
2443,3677;0,0244942
2444,3318;0,0244929
2445,2961;0,0245151
2446,2603;0,0245552
2447,2246;0,0246003
2448,1887;0,0246362
2449,1531;0,0246551
2450,1172;0,0246613
2451,0815;0,0246695
2452,0457;0,0246958
2453,0100;0,024746
2453,9741;0,0248096
2454,9385;0,0248647
2455,9026;0,0248906
2456,8669;0,0248807
2457,8311;0,0248468
2458,7954;0,0248122
2459,7595;0,0247982
2460,7239;0,024813
2461,6880;0,024849
2462,6523;0,0248897
2463,6165;0,0249201
2464,5808;0,0249361
2465,5449;0,0249461
2466,5093;0,0249652
2467,4734;0,0250052
2468,4377;0,0250668
2469,4019;0,0251366
2470,3662;0,0251927
2471,3303;0,025215
2472,2947;0,0251956
2473,2588;0,0251431
2474,2231;0,0250785
2475,1873;0,0250255
2476,1516;0,0250007
2477,1157;0,0250079
2478,0801;0,0250407
2479,0442;0,0250874
2480,0085;0,0251373
2480,9727;0,0251832
2481,9370;0,0252209
2482,9011;0,0252483
2483,8655;0,0252656
2484,8296;0,0252756
2485,7939;0,0252839
2486,7581;0,0252957
2487,7224;0,025312
2488,6865;0,0253275
2489,6509;0,0253339
2490,6150;0,025325
2491,5793;0,0253025
2492,5435;0,0252765
2493,5078;0,0252601
2494,4719;0,0252622
2495,4363;0,0252833
2496,4004;0,0253167
2497,3647;0,0253549
2498,3289;0,0253955
2499,2932;0,0254419
2500,2573;0,0254977
2501,2217;0,0255606
2502,1858;0,0256193
2503,1501;0,0256576
2504,1143;0,025663
2505,0786;0,0256349
2506,0427;0,0255863
2507,0071;0,0255392
2507,9712;0,0255147
2508,9355;0,0255245
2509,8997;0,0255663
2510,8640;0,0256252
2511,8281;0,0256812
2512,7925;0,0257171
2513,7566;0,0257265
2514,7209;0,0257145
2515,6851;0,0256948
2516,6494;0,0256812
2517,6135;0,0256813
2518,5779;0,0256937
2519,5420;0,0257112
2520,5063;0,0257269
2521,4705;0,0257395
2522,4348;0,025753
2523,3989;0,0257724
2524,3633;0,025799
2525,3274;0,0258275
2526,2917;0,02585
2527,2559;0,0258615
2528,2202;0,025864
2529,1843;0,0258664
2530,1487;0,0258781
2531,1128;0,0259023
2532,0771;0,0259316
2533,0413;0,0259519
2534,0056;0,02595
2534,9697;0,025923
2535,9341;0,0258817
2536,8982;0,0258463
2537,8625;0,025836
2538,8267;0,0258592
2539,7910;0,0259087
2540,7551;0,0259656
2541,7195;0,0260085
2542,6836;0,0260231
2543,6479;0,0260073
2544,6121;0,0259698
2545,5764;0,0259256
2546,5405;0,0258898
2547,5049;0,0258735
2548,4690;0,0258816
2549,4333;0,0259118
2550,3975;0,0259563
2551,3618;0,0260041
2552,3259;0,026045
2553,2903;0,0260733
2554,2544;0,0260886
2555,2188;0,026094
2556,1829;0,0260927
2557,1472;0,0260858
2558,1113;0,026073
2559,0757;0,0260556
2560,0398;0,0260376
2561,0042;0,0260247
2561,9683;0,0260206
2562,9326;0,0260244
2563,8967;0,0260317
2564,8611;0,0260393
2565,8252;0,0260482
2566,7896;0,0260643
2567,7537;0,0260927
2568,7180;0,0261319
2569,6821;0,0261718
2570,6465;0,0261979
2571,6106;0,0262007
2572,5750;0,0261821
2573,5391;0,0261549
2574,5034;0,0261353
2575,4675;0,0261325
2576,4319;0,0261437
2577,3960;0,0261575
2578,3604;0,0261638
2579,3245;0,026162
2580,2888;0,0261611
2581,2529;0,0261732
2582,2173;0,0262027
2583,1814;0,0262418
2584,1458;0,0262752
2585,1099;0,0262908
2586,0742;0,0262885
2587,0383;0,0262806
2588,0027;0,0262829
2588,9668;0,0263039
2589,9312;0,0263395
2590,8953;0,0263767
2591,8596;0,0264033
2592,8237;0,0264157
2593,7881;0,0264198
2594,7522;0,0264249
2595,7166;0,0264362
2596,6807;0,0264514
2597,6450;0,0264634
2598,6091;0,0264666
2599,5735;0,026461
2600,5376;0,026453
2601,5020;0,0264522
2602,4661;0,0264665
2603,4304;0,026499
2604,3945;0,0265465
2605,3589;0,0266006
2606,3230;0,0266513
2607,2874;0,0266908
2608,2515;0,0267171
2609,2158;0,0267347
2610,1799;0,0267518
2611,1443;0,0267756
2612,1084;0,0268078
2613,0728;0,0268444
2614,0369;0,026879
2615,0012;0,0269078
2615,9653;0,026932
2616,9297;0,0269567
2617,8938;0,0269861
2618,8582;0,0270201
2619,8223;0,0270533
2620,7866;0,0270786
2621,7507;0,0270923
2622,7151;0,0270969
2623,6792;0,0270999
2624,6436;0,0271095
2625,6077;0,0271296
2626,5720;0,0271584
2627,5361;0,0271892
2628,5005;0,0272154
2629,4646;0,0272341
2630,4290;0,0272475
2631,3931;0,0272604
2632,3574;0,027277
2633,3215;0,0272976
2634,2859;0,0273188
2635,2500;0,027336
2636,2144;0,0273469
2637,1785;0,0273536
2638,1428;0,0273621
2639,1069;0,0273793
2640,0713;0,0274099
2641,0354;0,0274537
2641,9998;0,027506
2642,9639;0,0275594
2643,9282;0,0276068
2644,8923;0,0276436
2645,8567;0,0276685
2646,8208;0,0276834
2647,7852;0,0276929
2648,7493;0,0277025
2649,7136;0,0277175
2650,6777;0,0277407
2651,6421;0,0277714
2652,6062;0,0278057
2653,5706;0,0278386
2654,5347;0,0278671
2655,4990;0,0278919
2656,4631;0,0279167
2657,4275;0,0279452
2658,3916;0,0279783
2659,3560;0,0280139
2660,3201;0,0280478
2661,2844;0,0280775
2662,2485;0,0281035
2663,2129;0,0281285
2664,1770;0,0281552
2665,1414;0,0281841
2666,1055;0,028213
2667,0698;0,0282391
2668,0339;0,0282603
2668,9983;0,0282772
2669,9624;0,0282925
2670,9268;0,0283102
2671,8909;0,028334
2672,8552;0,0283661
2673,8193;0,0284066
2674,7837;0,0284522
2675,7478;0,0284975
2676,7122;0,0285363
2677,6763;0,028565
2678,6406;0,0285842
2679,6047;0,0285983
2680,5691;0,0286138
2681,5332;0,0286355
2682,4976;0,0286645
2683,4617;0,0286982
2684,4260;0,0287328
2685,3901;0,0287657
2686,3545;0,028797
2687,3186;0,0288283
2688,2830;0,0288615
2689,2471;0,0288962
2690,2114;0,0289297
2691,1755;0,028959
2692,1399;0,028983
2693,1040;0,0290041
2694,0684;0,0290274
2695,0325;0,0290576
2695,9968;0,0290956
2696,9609;0,0291376
2697,9253;0,0291771
2698,8894;0,0292088
2699,8538;0,0292325
2700,8179;0,0292529
2701,7822;0,0292773
2702,7463;0,0293113
2703,7107;0,0293556
2704,6748;0,0294058
2705,6392;0,0294551
2706,6033;0,0294973
2707,5676;0,0295292
2708,5317;0,0295519
2709,4961;0,0295695
2710,4602;0,0295879
2711,4246;0,0296129
2712,3887;0,0296483
2713,3530;0,0296943
2714,3171;0,0297473
2715,2815;0,0298009
2716,2456;0,029848
2717,2100;0,0298835
2718,1741;0,0299057
2719,1384;0,0299173
2720,1025;0,0299237
2721,0669;0,0299316
2722,0310;0,0299472
2722,9954;0,0299743
2723,9595;0,0300135
2724,9238;0,0300625
2725,8879;0,0301166
2726,8523;0,0301707
2727,8164;0,0302215
2728,7808;0,0302683
2729,7449;0,0303128
2730,7092;0,0303569
2731,6733;0,0303999
2732,6377;0,0304382
2733,6018;0,0304665
2734,5662;0,030481
2735,5303;0,0304821
2736,4946;0,0304755
2737,4587;0,0304698
2738,4231;0,0304728
2739,3872;0,0304891
2740,3516;0,0305182
2741,3157;0,0305563
2742,2800;0,0305981
2743,2441;0,0306384
2744,2085;0,0306733
2745,1726;0,0307006
2746,1370;0,0307195
2747,1011;0,0307315
2748,0654;0,0307396
2749,0295;0,0307478
2749,9939;0,0307602
2750,9580;0,0307801
2751,9224;0,0308094
2752,8865;0,0308477
2753,8508;0,0308923
2754,8149;0,030938
2755,7793;0,0309788
2756,7434;0,0310098
2757,7078;0,0310303
2758,6719;0,0310442
2759,6362;0,0310589
2760,6003;0,0310812
2761,5647;0,0311146
2762,5288;0,0311574
2763,4932;0,0312045
2764,4573;0,0312504
2765,4216;0,0312923
2766,3857;0,0313315
2767,3501;0,0313714
2768,3142;0,0314156
2769,2786;0,0314652
2770,2427;0,0315183
2771,2070;0,0315711
2772,1711;0,0316198
2773,1355;0,0316627
2774,0996;0,0317012
2775,0640;0,031739
2776,0281;0,0317807
2776,9924;0,0318293
2777,9565;0,0318849
2778,9209;0,031945
2779,8850;0,0320059
2780,8494;0,0320646
2781,8135;0,0321208
2782,7778;0,032176
2783,7419;0,0322322
2784,7063;0,0322894
2785,6704;0,0323452
2786,6348;0,0323965
2787,5989;0,0324426
2788,5632;0,0324869
2789,5273;0,0325363
2790,4917;0,0325975
2791,4558;0,0326723
2792,4202;0,0327557
2793,3843;0,0328375
2794,3486;0,0329082
2795,3127;0,0329643
2796,2771;0,0330109
2797,2412;0,0330598
2798,2056;0,0331233
2799,1697;0,0332092
2800,1340;0,0333172
2801,0981;0,0334407
2802,0625;0,0335709
2803,0266;0,0336998
2803,9910;0,0338223
2804,9551;0,0339355
2805,9194;0,0340374
2806,8835;0,0341273
2807,8479;0,0342066
2808,8120;0,0342811
2809,7764;0,0343599
2810,7405;0,0344526
2811,7048;0,0345653
2812,6689;0,0346976
2813,6333;0,0348428
2814,5974;0,0349914
2815,5618;0,0351361
2816,5259;0,0352742
2817,4902;0,0354085
2818,4543;0,0355448
2819,4187;0,0356893
2820,3828;0,0358462
2821,3472;0,0360174
2822,3113;0,0362029
2823,2756;0,0364004
2824,2397;0,036607
2825,2041;0,036819
2826,1682;0,0370337
2827,1326;0,0372503
2828,0967;0,03747
2829,0610;0,0376957
2830,0251;0,0379309
2830,9895;0,0381788
2831,9536;0,0384419
2832,9180;0,038722
2833,8821;0,0390198
2834,8464;0,0393346
2835,8105;0,0396653
2836,7749;0,0400114
2837,7390;0,0403748
2838,7034;0,0407614
2839,6675;0,0411814
2840,6318;0,0416485
2841,5959;0,0421766
2842,5603;0,0427759
2843,5244;0,0434481
2844,4888;0,0441809
2845,4529;0,0449437
2846,4172;0,0456872
2847,3813;0,0463493
2848,3457;0,0468681
2849,3098;0,0471978
2850,2742;0,0473227
2851,2383;0,0472619
2852,2026;0,0470625
2853,1667;0,0467843
2854,1311;0,0464827
2855,0952;0,0461964
2856,0596;0,0459456
2857,0237;0,0457373
2857,9880;0,0455744
2858,9521;0,0454607
2859,9165;0,0454012
2860,8806;0,0453969
2861,8450;0,0454408
2862,8091;0,0455187
2863,7734;0,0456144
2864,7375;0,0457166
2865,7019;0,0458224
2866,6660;0,0459353
2867,6304;0,0460583
2868,5945;0,0461877
2869,5588;0,0463121
2870,5229;0,0464181
2871,4873;0,0464974
2872,4514;0,0465532
2873,4158;0,0465983
2874,3799;0,0466483
2875,3442;0,0467124
2876,3083;0,0467896
2877,2727;0,0468706
2878,2368;0,0469456
2879,2012;0,0470119
2880,1653;0,047076
2881,1296;0,0471502
2882,0938;0,0472445
2883,0581;0,0473603
2884,0222;0,0474899
2884,9866;0,047621
2885,9507;0,0477442
2886,9150;0,0478582
2887,8792;0,0479698
2888,8435;0,0480889
2889,8076;0,0482222
2890,7720;0,0483693
2891,7361;0,0485227
2892,7004;0,0486718
2893,6646;0,0488089
2894,6289;0,0489326
2895,5930;0,0490487
2896,5574;0,0491675
2897,5215;0,0492981
2898,4858;0,0494442
2899,4500;0,0496017
2900,4143;0,0497608
2901,3784;0,0499118
2902,3428;0,0500515
2903,3069;0,0501869
2904,2712;0,050334
2905,2354;0,0505112
2906,1997;0,0507323
2907,1638;0,0510028
2908,1282;0,0513212
2909,0923;0,0516843
2910,0566;0,0520907
2911,0208;0,0525399
2911,9851;0,0530254
2912,9492;0,0535279
2913,9136;0,0540126
2914,8777;0,0544344
2915,8420;0,0547509
2916,8062;0,0549341
2917,7705;0,0549778
2918,7346;0,0548953
2919,6990;0,0547105
2920,6631;0,0544478
2921,6274;0,0541265
2922,5916;0,0537598
2923,5559;0,053358
2924,5200;0,0529318
2925,4844;0,0524925
2926,4485;0,0520509
2927,4128;0,0516148
2928,3770;0,0511891
2929,3413;0,0507763
2930,3054;0,0503789
2931,2698;0,0499996
2932,2339;0,04964
2933,1982;0,049299
2934,1624;0,0489717
2935,1267;0,0486515
2936,0908;0,0483326
2937,0552;0,0480133
2938,0193;0,047696
2938,9836;0,0473845
2939,9478;0,0470799
2940,9121;0,0467783
2941,8762;0,0464734
2942,8406;0,0461606
2943,8047;0,0458424
2944,7690;0,0455294
2945,7332;0,0452363
2946,6975;0,0449757
2947,6616;0,044752
2948,6260;0,044561
2949,5901;0,0443926
2950,5544;0,0442362
2951,5186;0,0440843
2952,4829;0,0439323
2953,4470;0,0437782
2954,4114;0,0436206
2955,3755;0,0434596
2956,3398;0,0432966
2957,3040;0,0431342
2958,2683;0,0429733
2959,2324;0,0428111
2960,1968;0,0426404
2961,1609;0,0424525
2962,1252;0,042242
2963,0894;0,0420102
2964,0537;0,0417646
2965,0178;0,0415157
2965,9822;0,0412715
2966,9463;0,0410349
2967,9106;0,0408033
2968,8748;0,0405716
2969,8391;0,0403356
2970,8032;0,0400941
2971,7676;0,0398492
2972,7317;0,0396053
2973,6960;0,0393681
2974,6602;0,0391425
2975,6245;0,0389312
2976,5886;0,0387347
2977,5530;0,038551
2978,5171;0,038378
2979,4814;0,0382152
2980,4456;0,0380651
2981,4099;0,0379326
2982,3740;0,0378215
2983,3384;0,0377315
2984,3025;0,0376571
2985,2668;0,0375896
2986,2310;0,0375205
2987,1953;0,037445
2988,1594;0,0373639
2989,1238;0,0372819
2990,0879;0,037205
2991,0522;0,0371387
2992,0164;0,0370866
2992,9807;0,0370507
2993,9448;0,0370313
2994,9092;0,0370264
2995,8733;0,0370325
2996,8376;0,0370451
2997,8018;0,0370614
2998,7661;0,0370805
2999,7302;0,0371034
3000,6946;0,0371308
3001,6587;0,0371616
3002,6230;0,0371928
3003,5872;0,0372212
3004,5515;0,0372448
3005,5156;0,0372639
3006,4800;0,0372799
3007,4441;0,0372944
3008,4084;0,0373086
3009,3726;0,0373242
3010,3369;0,0373439
3011,3010;0,0373713
3012,2654;0,037409
3013,2295;0,0374572
3014,1938;0,0375127
3015,1580;0,0375706
3016,1223;0,037626
3017,0864;0,0376763
3018,0508;0,0377219
3019,0149;0,0377654
3019,9792;0,0378104
3020,9434;0,0378595
3021,9077;0,0379139
3022,8718;0,0379736
3023,8362;0,0380383
3024,8003;0,0381089
3025,7646;0,0381879
3026,7288;0,0382778
3027,6931;0,0383784
3028,6572;0,0384851
3029,6216;0,0385898
3030,5857;0,0386841
3031,5500;0,038764
3032,5142;0,0388313
3033,4785;0,038893
3034,4426;0,0389558
3035,4070;0,0390236
3036,3711;0,039096
3037,3354;0,0391706
3038,2996;0,0392462
3039,2639;0,0393235
3040,2280;0,0394051
3041,1924;0,0394937
3042,1565;0,0395913
3043,1208;0,0396992
3044,0850;0,0398177
3045,0493;0,0399452
3046,0134;0,0400765
3046,9778;0,040204
3047,9419;0,0403201
3048,9063;0,0404218
3049,8704;0,0405129
3050,8347;0,0406024
3051,7988;0,0406998
3052,7632;0,0408094
3053,7273;0,0409285
3054,6917;0,04105
3055,6558;0,0411677
3056,6201;0,0412802
3057,5842;0,0413919
3058,5486;0,0415089
3059,5127;0,0416353
3060,4771;0,0417695
3061,4412;0,0419053
3062,4055;0,0420344
3063,3696;0,0421497
3064,3340;0,0422485
3065,2981;0,0423332
3066,2625;0,0424112
3067,2266;0,0424915
3068,1909;0,0425824
3069,1550;0,0426875
3070,1194;0,0428048
3071,0835;0,042928
3072,0479;0,0430499
3073,0120;0,0431666
3073,9763;0,0432795
3074,9404;0,0433937
3075,9048;0,043514
3076,8689;0,0436404
3077,8333;0,0437674
3078,7974;0,0438855
3079,7617;0,0439875
3080,7258;0,0440723
3081,6902;0,0441461
3082,6543;0,0442193
3083,6187;0,0443015
3084,5828;0,0443977
3085,5471;0,0445074
3086,5112;0,0446268
3087,4756;0,0447511
3088,4397;0,0448769
3089,4041;0,0450025
3090,3682;0,0451276
3091,3325;0,0452527
3092,2966;0,0453793
3093,2610;0,0455097
3094,2251;0,0456459
3095,1895;0,0457877
3096,1536;0,0459307
3097,1179;0,0460673
3098,0820;0,0461899
3099,0464;0,0462951
3100,0105;0,0463877
3100,9749;0,04648
3101,9390;0,0465866
3102,9033;0,046717
3103,8674;0,0468701
3104,8318;0,0470348
3105,7959;0,047195
3106,7603;0,0473387
3107,7244;0,047464
3108,6887;0,0475797
3109,6528;0,0476999
3110,6172;0,0478352
3111,5813;0,047986
3112,5457;0,0481424
3113,5098;0,0482902
3114,4741;0,0484198
3115,4382;0,0485312
3116,4026;0,0486343
3117,3667;0,0487416
3118,3311;0,0488619
3119,2952;0,0489954
3120,2595;0,0491366
3121,2236;0,0492791
3122,1880;0,0494203
3123,1521;0,0495625
3124,1165;0,0497098
3125,0806;0,0498649
3126,0449;0,0500272
3127,0090;0,0501935
3127,9734;0,0503603
3128,9375;0,0505241
3129,9019;0,050682
3130,8660;0,0508302
3131,8303;0,0509663
3132,7944;0,0510915
3133,7588;0,0512132
3134,7229;0,0513429
3135,6873;0,0514919
3136,6514;0,0516642
3137,6157;0,0518532
3138,5798;0,0520443
3139,5442;0,052222
3140,5083;0,0523782
3141,4727;0,0525165
3142,4368;0,0526485
3143,4011;0,0527864
3144,3652;0,0529356
3145,3296;0,0530935
3146,2937;0,0532534
3147,2581;0,0534108
3148,2222;0,0535675
3149,1865;0,0537287
3150,1506;0,0538988
3151,1150;0,0540772
3152,0791;0,0542594
3153,0435;0,0544414
3154,0076;0,0546229
3154,9719;0,0548065
3155,9360;0,0549936
3156,9004;0,0551801
3157,8645;0,0553579
3158,8289;0,0555209
3159,7930;0,0556712
3160,7573;0,0558204
3161,7214;0,0559839
3162,6858;0,0561712
3163,6499;0,0563797
3164,6143;0,056596
3165,5784;0,0568039
3166,5427;0,0569932
3167,5068;0,0571642
3168,4712;0,0573253
3169,4353;0,0574439
3170,3997;0,0576125
3171,3638;0,0577882
3172,3281;0,0579656
3173,2922;0,0581374
3174,2566;0,0582982
3175,2207;0,0584465
3176,1851;0,0585859
3177,1492;0,0587241
3178,1135;0,0588703
3179,0776;0,0590308
3180,0420;0,0592062
3181,0061;0,0593905
3181,9705;0,059575
3182,9346;0,0597533
3183,8989;0,0599246
3184,8630;0,060094
3185,8274;0,0602691
3186,7915;0,0604538
3187,7559;0,0606464
3188,7200;0,0608396
3189,6843;0,0610249
3190,6484;0,0611968
3191,6128;0,0613554
3192,5769;0,0615055
3193,5413;0,0616537
3194,5054;0,0618062
3195,4697;0,0619671
3196,4338;0,0621382
3197,3982;0,0623189
3198,3623;0,0625061
3199,3267;0,0626946
3200,2908;0,0628785
3201,2551;0,0630535
3202,2192;0,0632188
3203,1836;0,0633772
3204,1477;0,0635339
3205,1121;0,0636937
3206,0762;0,0638579
3207,0405;0,0640245
3208,0046;0,0641895
3208,9690;0,0643492
3209,9331;0,0645027
3210,8975;0,0646527
3211,8616;0,0648041
3212,8259;0,0649617
3213,7900;0,0651265
3214,7544;0,0652951
3215,7185;0,0654612
3216,6829;0,0656201
3217,6470;0,0657728
3218,6113;0,0659267
3219,5754;0,0660905
3220,5398;0,0662674
3221,5039;0,0664504
3222,4683;0,0666254
3223,4324;0,0667803
3224,3967;0,0669142
3225,3608;0,0670391
3226,3252;0,0671736
3227,2893;0,0673307
3228,2537;0,06751
3229,2178;0,0676989
3230,1821;0,0678813
3231,1462;0,0680478
3232,1106;0,0681995
3233,0747;0,0683447
3234,0391;0,0684914
3235,0032;0,0686435
3235,9675;0,0688006
3236,9316;0,0689615
3237,8960;0,0691262
3238,8601;0,0692957
3239,8245;0,0694703
3240,7886;0,0696478
3241,7529;0,0698251
3242,7170;0,0700001
3243,6814;0,0701725
3244,6455;0,0703443
3245,6099;0,070518
3246,5740;0,0706964
3247,5383;0,0708812
3248,5024;0,0710731
3249,4668;0,0712702
3250,4309;0,0714678
3251,3953;0,0716592
3252,3594;0,0718383
3253,3237;0,072003
3254,2878;0,0721569
3255,2522;0,0723082
3256,2163;0,0724665
3257,1807;0,0726379
3258,1448;0,0728234
3259,1091;0,0730184
3260,0732;0,073215
3261,0376;0,0734059
3262,0017;0,073587
3262,9661;0,0737598
3263,9302;0,07393
3264,8945;0,0741048
3265,8586;0,0742888
3266,8230;0,0744803
3267,7871;0,0746715
3268,7515;0,074852
3269,7156;0,075013
3270,6799;0,0751511
3271,6440;0,0752685
3272,6084;0,0753707
3273,5725;0,0754634
3274,5369;0,0755517
3275,5010;0,0756402
3276,4653;0,0757336
3277,4294;0,075836
3278,3938;0,075948
3279,3579;0,0760643
3280,3223;0,0761737
3281,2864;0,0762639
3282,2507;0,0763282
3283,2148;0,0763703
3284,1792;0,076403
3285,1433;0,0764417
3286,1077;0,076495
3287,0718;0,0765603
3288,0361;0,0766261
3289,0002;0,0766798
3289,9646;0,0767157
3290,9287;0,0767375
3291,8931;0,0767537
3292,8572;0,0767709
3293,8215;0,076789
3294,7856;0,0768032
3295,7500;0,0768097
3296,7141;0,0768104
3297,6785;0,0768129
3298,6426;0,0768257
3299,6069;0,0768521
3300,5710;0,0768884
3301,5354;0,0769274
3302,4995;0,0769637
3303,4639;0,0769977
3304,4280;0,0770333
3305,3923;0,077074
3306,3564;0,077118
3307,3208;0,0771581
3308,2849;0,0771872
3309,2493;0,0772038
3310,2134;0,0772162
3311,1777;0,0772382
3312,1418;0,0772813
3313,1062;0,077347
3314,0703;0,0774247
3315,0347;0,0774979
3315,9988;0,0775547
3316,9631;0,0775961
3317,9272;0,0776369
3318,8916;0,0776982
3319,8557;0,0777956
3320,8201;0,0779305
3321,7842;0,0780894
3322,7485;0,0782506
3323,7126;0,0783937
3324,6770;0,0785065
3325,6411;0,078587
3326,6055;0,0786398
3327,5696;0,0786736
3328,5339;0,0786985
3329,4980;0,0787259
3330,4624;0,0787662
3331,4265;0,078825
3332,3909;0,0788996
3333,3550;0,0789773
3334,3193;0,0790394
3335,2834;0,0790694
3336,2478;0,0790608
3337,2119;0,0790194
3338,1763;0,0789591
3339,1404;0,0788932
3340,1047;0,0788279
3341,0688;0,0787615
3342,0332;0,0786875
3342,9973;0,0786006
3343,9617;0,0785006
3344,9258;0,0783916
3345,8901;0,0782797
3346,8542;0,0781691
3347,8186;0,0780599
3348,7827;0,0779473
3349,7471;0,0778233
3350,7112;0,0776796
3351,6755;0,077512
3352,6396;0,0773235
3353,6040;0,0771251
3354,5681;0,0769325
3355,5325;0,0767588
3356,4966;0,0766085
3357,4609;0,076476
3358,4250;0,0763492
3359,3894;0,0762172
3360,3535;0,0760761
3361,3179;0,0759292
3362,2820;0,0757837
3363,2463;0,075644
3364,2104;0,0755087
3365,1748;0,0753709
3366,1389;0,0752208
3367,1033;0,0750505
3368,0674;0,0748569
3369,0317;0,0746438
3369,9958;0,0744221
3370,9602;0,0742073
3371,9243;0,0740139
3372,8887;0,0738493
3373,8528;0,0737087
3374,8171;0,0735764
3375,7813;0,0734331
3376,7456;0,0732662
3377,7097;0,0730769
3378,6741;0,0728793
3379,6382;0,0726919
3380,6025;0,0725279
3381,5667;0,0723884
3382,5310;0,0722637
3383,4951;0,0721398
3384,4595;0,0720059
3385,4236;0,0718584
3386,3879;0,0717003
3387,3521;0,0715369
3388,3164;0,0713717
3389,2805;0,071206
3390,2449;0,07104
3391,2090;0,0708754
3392,1733;0,0707158
3393,1375;0,0705654
3394,1018;0,0704255
3395,0659;0,0702924
3396,0303;0,070158
3396,9944;0,0700129
3397,9587;0,0698511
3398,9229;0,0696728
3399,8872;0,0694848
3400,8513;0,0692961
3401,8157;0,0691133
3402,7798;0,068937
3403,7441;0,0687621
3404,7083;0,0685816
3405,6726;0,0683913
3406,6367;0,0681929
3407,6011;0,0679924
3408,5652;0,0677955
3409,5295;0,0676031
3410,4937;0,0674109
3411,4580;0,0672131
3412,4221;0,0670079
3413,3865;0,0667989
3414,3506;0,0665923
3415,3149;0,0663905
3416,2791;0,0661884
3417,2434;0,0659759
3418,2075;0,0657449
3419,1719;0,065497
3420,1360;0,0652443
3421,1003;0,0650029
3422,0645;0,0647825
3423,0288;0,0645803
3423,9929;0,0643839
3424,9573;0,0641798
3425,9214;0,0639609
3426,8857;0,063729
3427,8499;0,0634912
3428,8142;0,0632547
3429,7783;0,0630217
3430,7427;0,0627896
3431,7068;0,0625537
3432,6711;0,0623117
3433,6353;0,0620658
3434,5996;0,0618229
3435,5637;0,0615901
3436,5281;0,0613708
3437,4922;0,061162
3438,4565;0,0609563
3439,4207;0,0607469
3440,3850;0,0605321
3441,3491;0,0603158
3442,3135;0,0601018
3443,2776;0,0598883
3444,2419;0,0596661
3445,2061;0,059423
3446,1704;0,0591538
3447,1345;0,0588656
3448,0989;0,058575
3449,0630;0,0582973
3450,0273;0,0580382
3450,9915;0,0577941
3451,9558;0,0575585
3452,9199;0,0573292
3453,8843;0,0571085
3454,8484;0,0568988
3455,8127;0,0566973
3456,7769;0,0564962
3457,7412;0,0562874
3458,7053;0,0560679
3459,6697;0,0558411
3460,6338;0,0556121
3461,5981;0,0553819
3462,5623;0,0551455
3463,5266;0,0548949
3464,4907;0,054626
3465,4551;0,054344
3466,4192;0,0540629
3467,3835;0,0538002
3468,3477;0,0535688
3469,3120;0,0533692
3470,2761;0,0531874
3471,2405;0,0530002
3472,2046;0,0527855
3473,1689;0,0525345
3474,1331;0,0522595
3475,0974;0,0519884
3476,0615;0,0517494
3477,0259;0,0515533
3477,9900;0,0513858
3478,9543;0,0512155
3479,9185;0,0510113
3480,8828;0,0507615
3481,8469;0,050481
3482,8113;0,0501999
3483,7754;0,049943
3484,7397;0,049716
3485,7039;0,0495063
3486,6682;0,0492967
3487,6323;0,0490778
3488,5967;0,0488534
3489,5608;0,0486346
3490,5251;0,0484288
3491,4893;0,0482321
3492,4536;0,0480319
3493,4177;0,0478162
3494,3821;0,0475843
3495,3462;0,0473513
3496,3105;0,0471412
3497,2747;0,0469713
3498,2390;0,0468376
3499,2031;0,0467135
3500,1675;0,0465604
3501,1316;0,0463478
3502,0959;0,0460737
3503,0601;0,0457704
3504,0244;0,045486
3504,9885;0,0452508
3505,9529;0,0450596
3506,9170;0,0448789
3507,8813;0,0446702
3508,8455;0,0444145
3509,8098;0,0441229
3510,7739;0,0438288
3511,7383;0,043565
3512,7024;0,0433451
3513,6667;0,043162
3514,6309;0,0430005
3515,5952;0,0428502
3516,5593;0,04271
3517,5237;0,042583
3518,4878;0,042468
3519,4521;0,0423548
3520,4163;0,0422272
3521,3806;0,0420715
3522,3447;0,0418829
3523,3091;0,0416665
3524,2732;0,0414307
3525,2375;0,041179
3526,2017;0,0409088
3527,1660;0,0406188
3528,1301;0,0403184
3529,0945;0,0400292
3530,0586;0,039775
3531,0229;0,0395663
3531,9871;0,0393946
3532,9514;0,0392366
3533,9155;0,0390664
3534,8799;0,0388677
3535,8440;0,0386427
3536,8083;0,0384132
3537,7725;0,0382106
3538,7368;0,0380607
3539,7009;0,0379693
3540,6653;0,0379181
3541,6294;0,0378675
3542,5938;0,037767
3543,5579;0,0375742
3544,5222;0,0372813
3545,4863;0,0369316
3546,4507;0,0365987
3547,4148;0,0363378
3548,3792;0,0361514
3549,3433;0,0359967
3550,3076;0,035819
3551,2717;0,0355875
3552,2361;0,0353142
3553,2002;0,0350464
3554,1646;0,0348323
3555,1287;0,0346878
3556,0930;0,0345916
3557,0571;0,0345084
3558,0215;0,0344174
3558,9856;0,0343279
3559,9500;0,0342718
3560,9141;0,0342745
3561,8784;0,0343247
3562,8425;0,0343634
3563,8069;0,0342941
3564,7710;0,0340148
3565,7354;0,0334844
3566,6995;0,032802
3567,6638;0,0321843
3568,6279;0,0318008
3569,5923;0,031657
3570,5564;0,031644
3571,5208;0,031641
3572,4849;0,0315742
3573,4492;0,0314276
3574,4133;0,031228
3575,3777;0,0310147
3576,3418;0,0308125
3577,3062;0,0306263
3578,2703;0,030458
3579,2346;0,030326
3580,1987;0,0302632
3581,1631;0,0302927
3582,1272;0,0304001
3583,0916;0,0305254
3584,0557;0,0305748
3585,0200;0,0304502
3585,9841;0,030104
3586,9485;0,0296109
3587,9126;0,0291617
3588,8770;0,028922
3589,8411;0,0289082
3590,8054;0,0290155
3591,7695;0,0291127
3592,7339;0,0291086
3593,6980;0,0289794
3594,6624;0,0287672
3595,6265;0,0285421
3596,5908;0,0283446
3597,5549;0,0281611
3598,5193;0,0279537
3599,4834;0,0277114
3600,4478;0,0274737
3601,4119;0,0273035
3602,3762;0,0272314
3603,3403;0,0272251
3604,3047;0,027205
3605,2688;0,0270839
3606,2332;0,0268094
3607,1973;0,026398
3608,1616;0,0259364
3609,1257;0,0255331
3610,0901;0,0252552
3611,0542;0,0251087
3612,0186;0,0250645
3612,9827;0,0250874
3613,9470;0,0251424
3614,9111;0,0251853
3615,8755;0,0251582
3616,8396;0,0250027
3617,8040;0,0246984
3618,7681;0,0243101
3619,7324;0,0239896
3620,6965;0,023886
3621,6609;0,02404
3622,6250;0,0243736
3623,5894;0,0247532
3624,5535;0,0250423
3625,5178;0,0251141
3626,4819;0,024858
3627,4463;0,0242368
3628,4104;0,0234055
3629,3748;0,0226934
3630,3389;0,0223227
3631,3032;0,0222419
3632,2673;0,0222647
3633,2317;0,022242
3634,1958;0,0221203
3635,1602;0,0219245
3636,1243;0,0217113
3637,0886;0,0215207
3638,0527;0,0213584
3639,0171;0,0212132
3639,9812;0,0210886
3640,9456;0,0210156
3641,9097;0,0210345
3642,8740;0,0211625
3643,8381;0,0213723
3644,8025;0,0215898
3645,7666;0,021692
3646,7310;0,021505
3647,6951;0,0208726
3648,6594;0,0198898
3649,6235;0,0190027
3650,5879;0,0185794
3651,5520;0,0185794
3652,5164;0,0187488
3653,4805;0,018866
3654,4448;0,0188223
3655,4089;0,0186269
3656,3733;0,0183819
3657,3374;0,0182077
3658,3018;0,0181528
3659,2659;0,0181762
3660,2302;0,0182101
3661,1943;0,0182273
3662,1587;0,0182579
3663,1228;0,0183516
3664,0872;0,0185221
3665,0513;0,0187213
3666,0156;0,0188606
3666,9797;0,0188577
3667,9441;0,0186926
3668,9082;0,0184495
3669,8726;0,0182838
3670,8367;0,0182861
3671,8010;0,0183893
3672,7651;0,0184249
3673,7295;0,0182414
3674,6936;0,0178129
3675,6580;0,0173056
3676,6221;0,016976
3677,5864;0,0169387
3678,5505;0,0171096
3679,5149;0,0173504
3680,4790;0,0175846
3681,4434;0,0178097
3682,4075;0,0180533
3683,3718;0,0183218
3684,3359;0,0185785
3685,3003;0,0187543
3686,2644;0,0187759
3687,2288;0,0186
3688,1929;0,0182598
3689,1572;0,0178969
3690,1213;0,0176915
3691,0857;0,0177165
3692,0498;0,0179099
3693,0142;0,0181686
3693,9783;0,0184218
3694,9426;0,0186396
3695,9067;0,0188121
3696,8711;0,018929
3697,8352;0,0189743
3698,7996;0,0189357
3699,7637;0,0188225
3700,7280;0,0186812
3701,6921;0,0185899
3702,6565;0,0186215
3703,6206;0,018799
3704,5850;0,0190857
3705,5491;0,0194092
3706,5134;0,0196846
3707,4775;0,0198186
3708,4419;0,019705
3709,4060;0,0192572
3710,3704;0,0185144
3711,3345;0,0177229
3712,2988;0,0171959
3713,2629;0,0170686
3714,2273;0,0172656
3715,1914;0,0176345
3716,1558;0,0180493
3717,1199;0,0184405
3718,0842;0,0187872
3719,0483;0,0190965
3720,0127;0,0193792
3720,9768;0,0196304
3721,9412;0,0198256
3722,9053;0,0199374
3723,8696;0,019963
3724,8337;0,0199407
3725,7981;0,0199337
3726,7622;0,0199898
3727,7266;0,0201135
3728,6907;0,0202716
3729,6550;0,0204174
3730,6191;0,0205062
3731,5835;0,0204905
3732,5476;0,0203094
3733,5120;0,0199072
3734,4761;0,0193176
3735,4404;0,0187315
3736,4045;0,0183882
3737,3689;0,0183803
3738,3330;0,0186176
3739,2974;0,0189262
3740,2615;0,0191352
3741,2258;0,0191138
3742,1899;0,0188004
3743,1543;0,0182628
3744,1184;0,0177374
3745,0828;0,0174964
3746,0469;0,0176039
3747,0112;0,0178774
3747,9753;0,0180485
3748,9397;0,0179034
3749,9038;0,0173979
3750,8682;0,0167611
3751,8323;0,0163694
3752,7966;0,0163979
3753,7607;0,016725
3754,7251;0,0171231
3755,6892;0,0174116
3756,6536;0,0174983
3757,6177;0,0173873
3758,5820;0,0171756
3759,5461;0,0170036
3760,5105;0,0169662
3761,4746;0,0170668
3762,4390;0,0172457
3763,4031;0,0174318
3764,3674;0,0175709
3765,3315;0,0176311
3766,2959;0,0175967
3767,2600;0,0174645
3768,2244;0,0172489
3769,1885;0,0169953
3770,1528;0,0167829
3771,1169;0,0166937
3772,0813;0,0167657
3773,0454;0,01697
3774,0098;0,0172296
3774,9739;0,0174544
3775,9382;0,0175716
3776,9023;0,0175479
3777,8667;0,0174079
3778,8308;0,0172305
3779,7952;0,0171048
3780,7593;0,0170728
3781,7236;0,017114
3782,6877;0,017177
3783,6521;0,0172166
3784,6162;0,0172125
3785,5806;0,0171715
3786,5447;0,0171186
3787,5090;0,0170842
3788,4731;0,0170926
3789,4375;0,017152
3790,4016;0,0172516
3791,3660;0,0173664
3792,3301;0,0174706
3793,2944;0,0175545
3794,2585;0,0176327
3795,2229;0,017733
3796,1870;0,0178674
3797,1514;0,0180048
3798,1155;0,018073
3799,0798;0,0179971
3800,0439;0,0177625
3801,0083;0,0174576
3801,9724;0,0172251
3802,9368;0,0171358
3803,9009;0,0171296
3804,8652;0,0170858
3805,8293;0,0169346
3806,7937;0,0167271
3807,7578;0,0166114
3808,7222;0,016708
3809,6863;0,0170064
3810,6506;0,017388
3811,6147;0,0177169
3812,5791;0,017906
3813,5432;0,0179455
3814,5076;0,0179028
3815,4717;0,0178809
3816,4360;0,017933
3817,4001;0,018006
3818,3645;0,0179794
3819,3286;0,0177667
3820,2930;0,0174074
3821,2571;0,0170706
3822,2214;0,0169253
3823,1855;0,0170048
3824,1499;0,0172163
3825,1140;0,0174397
3826,0784;0,0175983
3827,0425;0,0176752
3828,0068;0,017697
3828,9709;0,017705
3829,9353;0,01773
3830,8994;0,0177839
3831,8638;0,0178628
3832,8279;0,0179531
3833,7922;0,0180342
3834,7563;0,01808
3835,7207;0,0180632
3836,6848;0,0179681
3837,6492;0,0178071
3838,6133;0,0176229
3839,5776;0,0174611
3840,5417;0,0173375
3841,5061;0,0172407
3842,4702;0,017166
3843,4346;0,0171414
3844,3987;0,0172195
3845,3630;0,0174413
3846,3271;0,017802
3847,2915;0,0182439
3848,2556;0,0186719
3849,2200;0,0189691
3850,1841;0,0189982
3851,1484;0,0186129
3852,1125;0,0177666
3853,0769;0,0167429
3854,0410;0,0160868
3855,0054;0,0160552
3855,9695;0,0164603
3856,9338;0,0170081
3857,8979;0,0175068
3858,8623;0,0178736
3859,8264;0,0180895
3860,7908;0,0181673
3861,7549;0,0181405
3862,7192;0,0180649
3863,6833;0,0180077
3864,6477;0,0180133
3865,6118;0,0180755
3866,5762;0,018146
3867,5403;0,0181651
3868,5046;0,0180901
3869,4688;0,0179153
3870,4331;0,0176813
3871,3972;0,0174626
3872,3616;0,0173317
3873,3257;0,0173237
3874,2900;0,0174276
3875,2542;0,0176
3876,2185;0,0177866
3877,1826;0,0179407
3878,1470;0,0180367
3879,1111;0,0180757
3880,0754;0,0180767
3881,0396;0,0180547
3882,0039;0,0180012
3882,9680;0,0178962
3883,9324;0,0177455
3884,8965;0,0176044
3885,8608;0,0175491
3886,8250;0,0176124
3887,7893;0,0177476
3888,7534;0,0178575
3889,7178;0,0178595
3890,6819;0,0177482
3891,6462;0,0176172
3892,6104;0,0175991
3893,5747;0,0177562
3894,5388;0,0180412
3895,5032;0,0183508
3896,4673;0,0185938
3897,4316;0,0187211
3898,3958;0,018726
3899,3601;0,0186285
3900,3242;0,0184513
3901,2886;0,0182045
3902,2527;0,0179002
3903,2170;0,0175817
3904,1812;0,0173246
3905,1455;0,0171916
3906,1096;0,0171901
3907,0740;0,0172779
3908,0381;0,0174012
3909,0024;0,0175263
3909,9666;0,0176474
3910,9309;0,0177752
3911,8950;0,0179169
3912,8594;0,0180603
3913,8235;0,0181731
3914,7878;0,0182179
3915,7520;0,0181769
3916,7163;0,0180737
3917,6804;0,0179706
3918,6448;0,0179308
3919,6089;0,0179736
3920,5732;0,0180648
3921,5374;0,0181438
3922,5017;0,0181623
3923,4658;0,0181141
3924,4302;0,0180399
3925,3943;0,018
3926,3586;0,0180299
3927,3228;0,0181167
3928,2871;0,0182095
3929,2512;0,0182482
3930,2156;0,0181937
3931,1797;0,0180515
3932,1440;0,0178737
3933,1082;0,0177298
3934,0725;0,0176676
3935,0366;0,017696
3936,0010;0,0177935
3936,9651;0,0179244
3937,9294;0,0180494
3938,8936;0,0181328
3939,8579;0,0181514
3940,8220;0,0181055
3941,7864;0,0180253
3942,7505;0,0179604
3943,7148;0,0179509
3944,6790;0,0180028
3945,6433;0,0180843
3946,6074;0,0181453
3947,5718;0,018145
3948,5359;0,0180744
3949,5002;0,0179624
3950,4644;0,0178573
3951,4287;0,0177979
3952,3928;0,0177945
3953,3572;0,0178323
3954,3213;0,0178865
3955,2856;0,0179359
3956,2498;0,0179686
3957,2141;0,0179821
3958,1782;0,0179782
3959,1426;0,0179601
3960,1067;0,0179317
3961,0710;0,0178989
3962,0352;0,0178705
3962,9995;0,0178558
3963,9636;0,0178607
3964,9280;0,0178848
3965,8921;0,0179219
3966,8564;0,017963
3967,8206;0,018
3968,7849;0,0180278
3969,7490;0,0180453
3970,7134;0,0180534
3971,6775;0,0180531
3972,6418;0,0180445
3973,6060;0,0180283
3974,5703;0,0180071
3975,5344;0,0179864
3976,4988;0,017972
3977,4629;0,0179677
3978,4272;0,0179718
3979,3914;0,0179779
3980,3557;0,0179775
3981,3198;0,0179647
3982,2842;0,0179409
3983,2483;0,0179152
3984,2126;0,0179012
3985,1768;0,0179101
3986,1411;0,0179447
3987,1052;0,0179971
3988,0696;0,0180513
3989,0337;0,0180902
3989,9980;0,018102
3990,9622;0,0180839
3991,9265;0,0180417
3992,8906;0,0179865
3993,8550;0,0179312
3994,8191;0,0178884
3995,7834;0,0178683
3996,7476;0,0178762
3997,7119;0,0179096
3998,6760;0,0179578
3999,6404;0,0180049
4000,6045;0,018111

##### Extended Information
[Comments]
Sample name
Comment
Username
Division
Organization;UNIVERSIDAD INDUSTRIAL DE SANTANDER

[Detailed Information]
Creation date;19/02/2025 3:33 p.m.

Data array type;Linear data array
Horizontal axis;Wavenumber [cm-1]
Vertical axis;Abs
Start;399,193 cm-1
End;4000,6 cm-1
Data interval;0,964233 cm-1
Data points;3736    

[Measurement Information]
Model name;FT/IR-4X1typeA
Serial No.;A035162111

Accessory;ATR PRO 4X
Accessory S/N;A021162126
Incident angle;45 deg

Measurement date;19/02/2025 3:32 p.m.

Light source;Standard
Detector;TGS
Accumulation;20
Resolution;4 cm-1
Zero filling;On
Apodization;Cosine
Gain;Auto (8)
Aperture;Auto (7 mm)
Scan speed;Auto (2 mm/sec)
Filter;Auto (12800 Hz)

