TITLE;
DATA TYPE;INFRARED SPECTRUM
ORIGIN;JASCO
OWNER;
DATE;25/02/19
TIME;15:18:18
SPECTROMETER/DATA SYSTEM;
LOCALE;9226
RESOLUTION;
DELTAX;0,964233
XUNITS;1/CM
YUNITS;ABSORBANCE
FIRSTX;  399,1927
LASTX; 4000,6047
NPOINTS;    3736
FIRSTY;     0,21006
MAXY;     0,29007
MINY;     0,01303
XYDATA
399,1927;0,210058
400,1569;0,205268
401,1211;0,200906
402,0854;0,197819
403,0496;0,196102
404,0138;0,195517
404,9781;0,195708
405,9423;0,196276
406,9065;0,196833
407,8708;0,197078
408,8350;0,196869
409,7992;0,196278
410,7635;0,195573
411,7277;0,195111
412,6919;0,195138
413,6562;0,195672
414,6204;0,196545
415,5846;0,197551
416,5489;0,198557
417,5131;0,199533
418,4773;0,200485
419,4416;0,201346
420,4058;0,20198
421,3700;0,202339
422,3343;0,202517
423,2985;0,202678
424,2627;0,202952
425,2270;0,203369
426,1912;0,203836
427,1554;0,204213
428,1197;0,204428
429,0839;0,204545
430,0481;0,204727
431,0124;0,205113
431,9766;0,205706
432,9408;0,206339
433,9051;0,206765
434,8693;0,206809
435,8335;0,206474
436,7978;0,205922
437,7620;0,205343
438,7262;0,204838
439,6905;0,204403
440,6547;0,204011
441,6189;0,203703
442,5832;0,203612
443,5474;0,203875
444,5116;0,204483
445,4759;0,205218
446,4401;0,205745
447,4043;0,205783
448,3686;0,20523
449,3328;0,204212
450,2970;0,20302
451,2613;0,201988
452,2255;0,201331
453,1897;0,201056
454,1540;0,200978
455,1182;0,200834
456,0824;0,200427
457,0467;0,199765
458,0109;0,199085
458,9751;0,198703
459,9394;0,198764
460,9036;0,19914
461,8678;0,199537
462,8321;0,199666
463,7963;0,199366
464,7605;0,198656
465,7248;0,197733
466,6890;0,196873
467,6532;0,196304
468,6175;0,196133
469,5817;0,196339
470,5459;0,196818
471,5102;0,197412
472,4744;0,197949
473,4386;0,198309
474,4029;0,19849
475,3671;0,198608
476,3313;0,198834
477,2956;0,199291
478,2598;0,19999
479,2240;0,200809
480,1883;0,201544
481,1525;0,202019
482,1167;0,202175
483,0810;0,202099
484,0452;0,201964
485,0094;0,201919
485,9737;0,202002
486,9379;0,202151
487,9021;0,202278
488,8664;0,202346
489,8306;0,202396
490,7948;0,202519
491,7591;0,202796
492,7233;0,203244
493,6875;0,203802
494,6518;0,204366
495,6160;0,204847
496,5802;0,205211
497,5445;0,205473
498,5087;0,20568
499,4729;0,20587
500,4372;0,206062
501,4014;0,206255
502,3656;0,206455
503,3299;0,206687
504,2941;0,206987
505,2583;0,207367
506,2226;0,207791
507,1868;0,208185
508,1510;0,208483
509,1153;0,208677
510,0795;0,208838
511,0437;0,209081
512,0080;0,209495
512,9722;0,210097
513,9365;0,210826
514,9007;0,211581
515,8649;0,212274
516,8292;0,212865
517,7934;0,213359
518,7576;0,213783
519,7219;0,214143
520,6861;0,214425
521,6503;0,214613
522,6146;0,214707
523,5788;0,214731
524,5430;0,214722
525,5073;0,21471
526,4715;0,214701
527,4357;0,214679
528,4000;0,214618
529,3642;0,214502
530,3284;0,214332
531,2927;0,214121
532,2569;0,213888
533,2211;0,213644
534,1854;0,213397
535,1496;0,213148
536,1138;0,212901
537,0781;0,212671
538,0423;0,212483
539,0065;0,212362
539,9708;0,212331
540,9350;0,212396
541,8992;0,212552
542,8635;0,212781
543,8277;0,213065
544,7919;0,213387
545,7562;0,213741
546,7204;0,214127
547,6846;0,214555
548,6489;0,215026
549,6131;0,215525
550,5773;0,216024
551,5416;0,216504
552,5058;0,216975
553,4700;0,217478
554,4343;0,218064
555,3985;0,218729
556,3627;0,219385
557,3270;0,219854
558,2912;0,219949
559,2554;0,219553
560,2197;0,218683
561,1839;0,217472
562,1481;0,2161
563,1124;0,214713
564,0766;0,213385
565,0408;0,21213
566,0051;0,210951
566,9693;0,209872
567,9335;0,208948
568,8978;0,208229
569,8620;0,207729
570,8262;0,207419
571,7905;0,207246
572,7547;0,207149
573,7189;0,207077
574,6832;0,20698
575,6474;0,206818
576,6116;0,206566
577,5759;0,206235
578,5401;0,205866
579,5043;0,205514
580,4686;0,205222
581,4328;0,205002
582,3970;0,204835
583,3613;0,204683
584,3255;0,204516
585,2897;0,204326
586,2540;0,204133
587,2182;0,203981
588,1824;0,203916
589,1467;0,20397
590,1109;0,20414
591,0751;0,204379
592,0394;0,204608
593,0036;0,204748
593,9678;0,204751
594,9321;0,204609
595,8963;0,204338
596,8605;0,203951
597,8248;0,20345
598,7890;0,202845
599,7532;0,202178
600,7175;0,201526
601,6817;0,200976
602,6459;0,20058
603,6102;0,200325
604,5744;0,200135
605,5386;0,199909
606,5029;0,199561
607,4671;0,199049
608,4313;0,198376
609,3956;0,197576
610,3598;0,196704
611,3240;0,195827
612,2883;0,195019
613,2525;0,194343
614,2167;0,193817
615,1810;0,193386
616,1452;0,192916
617,1094;0,192235
618,0737;0,19121
619,0379;0,18982
620,0021;0,188161
620,9664;0,18639
621,9306;0,184659
622,8948;0,183078
623,8591;0,181702
624,8233;0,180527
625,7875;0,179576
626,7518;0,178813
627,7160;0,178185
628,6802;0,177623
629,6445;0,177063
630,6087;0,176458
631,5729;0,175789
632,5372;0,175074
633,5014;0,17435
634,4656;0,173656
635,4299;0,173022
636,3941;0,17246
637,3583;0,171978
638,3226;0,17158
639,2868;0,17127
640,2510;0,171041
641,2153;0,170861
642,1795;0,170681
643,1437;0,170455
644,1080;0,170155
645,0722;0,169793
646,0364;0,169406
647,0007;0,169045
647,9649;0,168751
648,9291;0,168548
649,8934;0,168436
650,8576;0,168402
651,8218;0,168428
652,7861;0,168496
653,7503;0,168592
654,7145;0,168707
655,6788;0,168841
656,6430;0,168996
657,6072;0,169168
658,5715;0,169334
659,5357;0,169434
660,4999;0,169388
661,4642;0,169133
662,4284;0,168654
663,3926;0,167988
664,3569;0,167222
665,3211;0,166525
666,2853;0,166137
667,2496;0,166137
668,2138;0,166059
669,1780;0,165248
670,1423;0,163805
671,1065;0,162219
672,0707;0,160643
673,0350;0,158991
673,9992;0,157198
674,9634;0,155289
675,9277;0,15334
676,8919;0,151424
677,8561;0,149583
678,8204;0,147833
679,7846;0,146198
680,7488;0,144717
681,7131;0,143425
682,6773;0,142328
683,6415;0,141396
684,6058;0,140586
685,5700;0,139857
686,5342;0,139174
687,4985;0,138509
688,4627;0,137836
689,4269;0,137143
690,3912;0,136438
691,3554;0,135753
692,3196;0,13512
693,2839;0,134551
694,2481;0,134033
695,2123;0,133535
696,1766;0,133027
697,1408;0,132497
698,1050;0,13195
699,0693;0,131405
700,0335;0,130877
700,9977;0,130363
701,9620;0,129845
702,9262;0,129295
703,8904;0,128686
704,8547;0,12802
705,8189;0,127318
706,7831;0,126613
707,7474;0,125926
708,7116;0,125254
709,6758;0,124578
710,6401;0,123869
711,6043;0,123115
712,5685;0,122324
713,5328;0,121532
714,4970;0,120783
715,4612;0,119691
716,4255;0,119198
717,3897;0,11879
718,3539;0,118367
719,3182;0,117796
720,2824;0,116973
721,2466;0,115875
722,2109;0,114581
723,1751;0,113228
724,1393;0,111948
725,1036;0,110822
726,0678;0,109866
727,0320;0,109045
727,9963;0,108299
728,9605;0,107572
729,9247;0,106838
730,8890;0,106105
731,8532;0,1054
732,8174;0,104746
733,7817;0,104149
734,7459;0,103594
735,7101;0,103058
736,6744;0,102527
737,6386;0,102004
738,6028;0,101502
739,5671;0,101021
740,5313;0,100546
741,4955;0,100048
742,4598;0,0995031
743,4240;0,0989106
744,3882;0,0982994
745,3525;0,0977124
746,3167;0,097183
747,2809;0,0967155
748,2452;0,0962832
749,2094;0,0958426
750,1736;0,0953555
751,1379;0,0948066
752,1021;0,0942074
753,0663;0,0935872
754,0306;0,0929781
754,9948;0,0924017
755,9590;0,0918642
756,9233;0,0913594
757,8875;0,0908763
758,8517;0,0904058
759,8160;0,0899429
760,7802;0,0894857
761,7444;0,0890331
762,7087;0,0885834
763,6729;0,0881361
764,6371;0,0876929
765,6014;0,0872594
766,5656;0,0868431
767,5298;0,0864503
768,4941;0,086082
769,4583;0,0857334
770,4225;0,0853959
771,3868;0,0850616
772,3510;0,0847271
773,3152;0,0843935
774,2795;0,0840618
775,2437;0,0837286
776,2079;0,0833841
777,1722;0,0830179
778,1364;0,0826272
779,1006;0,0822222
780,0649;0,0818246
781,0291;0,0814572
781,9933;0,0811326
782,9576;0,0808482
783,9218;0,0805915
784,8860;0,0803509
785,8503;0,0801246
786,8145;0,0799183
787,7787;0,0797348
788,7430;0,0795618
789,7072;0,0793716
790,6714;0,079134
791,6357;0,0788364
792,5999;0,0784984
793,5641;0,0781673
794,5284;0,0778954
795,4926;0,0777116
796,4568;0,0776046
797,4211;0,077529
798,3853;0,0774301
799,3495;0,0772744
800,3138;0,0770648
801,2780;0,0768354
802,2422;0,0766293
803,2065;0,0764758
804,1707;0,0763774
805,1349;0,0763143
806,0992;0,0762569
807,0634;0,0761805
808,0276;0,0760714
808,9919;0,075928
809,9561;0,0757575
810,9203;0,0755725
811,8846;0,0753891
812,8488;0,0752235
813,8130;0,0750876
814,7773;0,0749859
815,7415;0,0749155
816,7057;0,0748698
817,6700;0,0748422
818,6342;0,074827
819,5984;0,0748164
820,5627;0,0747976
821,5269;0,0747539
822,4911;0,0746723
823,4554;0,074552
824,4196;0,0744064
825,3839;0,0742572
826,3481;0,0741217
827,3123;0,0740039
828,2766;0,0738942
829,2408;0,0737782
830,2050;0,0736467
831,1693;0,0735009
832,1335;0,0733483
833,0977;0,0731952
834,0620;0,0730399
835,0262;0,0728724
835,9904;0,0726787
836,9547;0,0724484
837,9189;0,0721799
838,8831;0,0718842
839,8474;0,0715835
840,8116;0,0713058
841,7758;0,0710744
842,7401;0,0708966
843,7043;0,0707586
844,6685;0,070629
845,6328;0,0704744
846,5970;0,0702756
847,5612;0,0700391
848,5255;0,0697943
849,4897;0,0695796
850,4539;0,0694252
851,4182;0,0693398
852,3824;0,0693084
853,3466;0,0692989
854,3109;0,0692754
855,2751;0,0692112
856,2393;0,069099
857,2036;0,068953
858,1678;0,068803
859,1320;0,0686817
860,0963;0,0686116
861,0605;0,068598
862,0247;0,0686322
862,9890;0,0687014
863,9532;0,0687988
864,9174;0,0689257
865,8817;0,0690853
866,8459;0,0692741
867,8101;0,0694783
868,7744;0,0696792
869,7386;0,0698645
870,7028;0,0700362
871,6671;0,0702094
872,6313;0,070401
873,5955;0,070618
874,5598;0,0708512
875,5240;0,0710817
876,4882;0,0712936
877,4525;0,0714878
878,4167;0,0716864
879,3809;0,0719258
880,3452;0,0722427
881,3094;0,0726595
882,2736;0,0731789
883,2379;0,0737875
884,2021;0,0744682
885,1663;0,0752118
886,1306;0,076021
887,0948;0,0769052
888,0590;0,0778685
889,0233;0,0789004
889,9875;0,0799732
890,9517;0,0810492
891,9160;0,0820902
892,8802;0,0830633
893,8444;0,0839388
894,8087;0,0846826
895,7729;0,0852518
896,7371;0,0855989
897,7014;0,085685
898,6656;0,0854963
899,6298;0,0850535
900,5941;0,0844084
901,5583;0,0836292
902,5225;0,0827827
903,4868;0,0819217
904,4510;0,0810818
905,4152;0,080287
906,3795;0,0795558
907,3437;0,0789042
908,3079;0,0783433
909,2722;0,0778757
910,2364;0,0774953
911,2007;0,077191
912,1649;0,0769533
913,1292;0,0767786
914,0934;0,0766688
915,0576;0,0766274
916,0219;0,0766535
916,9861;0,0767409
917,9503;0,0768802
918,9146;0,0770625
919,8788;0,0772824
920,8430;0,0775368
921,8073;0,0778212
922,7715;0,0781274
923,7357;0,0784428
924,7000;0,0787542
925,6642;0,0790514
926,6284;0,0793302
927,5927;0,079593
928,5569;0,0798463
929,5211;0,0800995
930,4854;0,0803632
931,4496;0,0806477
932,4138;0,0809611
933,3781;0,0813066
934,3423;0,0816823
935,3065;0,0820834
936,2708;0,0825097
937,2350;0,0829718
938,1992;0,0834932
939,1635;0,0841034
940,1277;0,0848263
941,0919;0,0856689
942,0562;0,0866189
943,0204;0,087652
943,9846;0,088745
944,9489;0,0898863
945,9131;0,0910777
946,8773;0,092329
947,8416;0,0936505
948,8058;0,0950476
949,7700;0,0965215
950,7343;0,0980715
951,6985;0,0996971
952,6627;0,101399
953,6270;0,10318
954,5912;0,105045
955,5554;0,107
956,5197;0,109047
957,4839;0,111181
958,4481;0,113381
959,4124;0,115612
960,3766;0,117841
961,3408;0,120045
962,3051;0,122227
963,2693;0,124405
964,2335;0,126606
965,1978;0,128844
966,1620;0,131121
967,1262;0,133428
968,0905;0,135765
969,0547;0,138152
970,0189;0,140631
970,9832;0,143261
971,9474;0,146097
972,9116;0,149186
973,8759;0,152555
974,8401;0,15622
975,8043;0,160184
976,7686;0,164439
977,7328;0,168962
978,6970;0,173698
979,6613;0,178559
980,6255;0,183415
981,5897;0,188111
982,5540;0,192494
983,5182;0,196443
984,4824;0,1999
985,4467;0,202877
986,4109;0,205441
987,3751;0,207687
988,3394;0,2097
989,3036;0,211529
990,2678;0,213189
991,2321;0,214672
992,1963;0,21598
993,1605;0,217139
994,1248;0,218208
995,0890;0,219257
996,0532;0,220346
997,0175;0,221499
997,9817;0,222704
998,9459;0,223918
999,9102;0,225102
1000,8744;0,226246
1001,8386;0,227378
1002,8029;0,228564
1003,7671;0,229886
1004,7313;0,231417
1005,6956;0,233206
1006,6598;0,235276
1007,6240;0,237634
1008,5883;0,240271
1009,5525;0,243175
1010,5167;0,246315
1011,4810;0,249641
1012,4452;0,253084
1013,4094;0,256561
1014,3737;0,259986
1015,3379;0,263285
1016,3021;0,266392
1017,2664;0,269259
1018,2306;0,271855
1019,1948;0,274172
1020,1591;0,276234
1021,1233;0,278096
1022,0875;0,279827
1023,0518;0,281491
1024,0160;0,283117
1024,9802;0,284697
1025,9445;0,286184
1026,9087;0,287515
1027,8729;0,288627
1028,8372;0,289465
1029,8014;0,28997
1030,7656;0,290073
1031,7299;0,289694
1032,6941;0,288753
1033,6583;0,287213
1034,6226;0,285102
1035,5868;0,282531
1036,5510;0,279681
1037,5153;0,276765
1038,4795;0,273993
1039,4437;0,271536
1040,4080;0,269508
1041,3722;0,267955
1042,3364;0,266858
1043,3007;0,266136
1044,2649;0,265671
1045,2291;0,265326
1046,1934;0,264982
1047,1576;0,264548
1048,1218;0,263964
1049,0861;0,26319
1050,0503;0,262184
1051,0145;0,260906
1051,9788;0,259322
1052,9430;0,257422
1053,9072;0,255221
1054,8715;0,252753
1055,8357;0,250039
1056,7999;0,247072
1057,7642;0,243808
1058,7284;0,240195
1059,6926;0,236205
1060,6569;0,23187
1061,6211;0,227288
1062,5853;0,222614
1063,5496;0,218017
1064,5138;0,213643
1065,4780;0,209593
1066,4423;0,20591
1067,4065;0,202589
1068,3707;0,199589
1069,3350;0,196853
1070,2992;0,194313
1071,2634;0,191898
1072,2277;0,189538
1073,1919;0,187169
1074,1561;0,184737
1075,1204;0,182211
1076,0846;0,179591
1077,0488;0,176909
1078,0131;0,174227
1078,9773;0,171627
1079,9415;0,169193
1080,9058;0,166995
1081,8700;0,165071
1082,8342;0,163424
1083,7985;0,162033
1084,7627;0,16086
1085,7269;0,159863
1086,6912;0,159012
1087,6554;0,158286
1088,6196;0,157674
1089,5839;0,157169
1090,5481;0,156764
1091,5123;0,156452
1092,4766;0,15623
1093,4408;0,156103
1094,4050;0,156077
1095,3693;0,156158
1096,3335;0,156337
1097,2977;0,156591
1098,2620;0,156884
1099,2262;0,157177
1100,1904;0,157434
1101,1547;0,157629
1102,1189;0,15774
1103,0831;0,157751
1104,0474;0,157653
1105,0116;0,157444
1105,9758;0,157133
1106,9401;0,156733
1107,9043;0,156243
1108,8685;0,15564
1109,8328;0,154875
1110,7970;0,15389
1111,7612;0,152642
1112,7255;0,151126
1113,6897;0,149393
1114,6539;0,147537
1115,6182;0,145671
1116,5824;0,143902
1117,5466;0,142293
1118,5109;0,140853
1119,4751;0,139534
1120,4393;0,138245
1121,4036;0,136878
1122,3678;0,135333
1123,3320;0,133539
1124,2963;0,131466
1125,2605;0,129121
1126,2247;0,126539
1127,1890;0,123773
1128,1532;0,120884
1129,1174;0,117934
1130,0817;0,114981
1131,0459;0,112072
1132,0101;0,109244
1132,9744;0,106527
1133,9386;0,103954
1134,9028;0,101565
1135,8671;0,0994113
1136,8313;0,0975488
1137,7955;0,0960247
1138,7598;0,0948646
1139,7240;0,094065
1140,6882;0,0935948
1141,6525;0,0934042
1142,6167;0,0934366
1143,5809;0,0936394
1144,5452;0,0939711
1145,5094;0,0944052
1146,4736;0,0949293
1147,4379;0,0955416
1148,4021;0,0962435
1149,3663;0,0970327
1150,3306;0,0978967
1151,2948;0,0988112
1152,2590;0,0997425
1153,2233;0,10065
1154,1875;0,101487
1155,1517;0,1022
1156,1160;0,102729
1157,0802;0,103005
1158,0444;0,102956
1159,0087;0,102515
1159,9729;0,101624
1160,9371;0,100239
1161,9014;0,0983391
1162,8656;0,095929
1163,8298;0,0930524
1164,7941;0,0897953
1165,7583;0,0862813
1166,7225;0,0826562
1167,6868;0,079065
1168,6510;0,0756297
1169,6152;0,0724355
1170,5795;0,0695282
1171,5437;0,0669222
1172,5079;0,0646119
1173,4722;0,0625819
1174,4364;0,0608132
1175,4006;0,0592848
1176,3649;0,0579748
1177,3291;0,0568602
1178,2933;0,0559187
1179,2576;0,0551288
1180,2218;0,054471
1181,1860;0,0539282
1182,1503;0,0534869
1183,1145;0,0531371
1184,0787;0,0528737
1185,0430;0,0526953
1186,0072;0,0526036
1186,9714;0,052603
1187,9357;0,0526994
1188,8999;0,0528995
1189,8641;0,0532089
1190,8284;0,0536309
1191,7926;0,0541647
1192,7568;0,0548054
1193,7211;0,0555442
1194,6853;0,0563685
1195,6495;0,057261
1196,6138;0,0582002
1197,5780;0,0591612
1198,5422;0,0601208
1199,5065;0,0609343
1200,4707;0,0618689
1201,4349;0,0627839
1202,3992;0,0636832
1203,3634;0,0645654
1204,3276;0,0654212
1205,2919;0,0662373
1206,2561;0,067006
1207,2203;0,0677341
1208,1846;0,0684471
1209,1488;0,0691849
1210,1130;0,0699914
1211,0773;0,0709015
1212,0415;0,0719322
1213,0057;0,0730782
1213,9700;0,0743168
1214,9342;0,0756165
1215,8984;0,0769461
1216,8627;0,0782805
1217,8269;0,0796012
1218,7911;0,0808966
1219,7554;0,0821579
1220,7196;0,0833782
1221,6838;0,0845513
1222,6481;0,0856725
1223,6123;0,0867374
1224,5765;0,0877421
1225,5408;0,0886828
1226,5050;0,0895569
1227,4692;0,0903644
1228,4335;0,091108
1229,3977;0,0917908
1230,3619;0,0924136
1231,3262;0,092973
1232,2904;0,0934634
1233,2546;0,0938804
1234,2189;0,0942244
1235,1831;0,0945011
1236,1473;0,0947186
1237,1116;0,094883
1238,0758;0,0949956
1239,0400;0,0950544
1240,0043;0,0950569
1240,9685;0,095002
1241,9327;0,0948903
1242,8970;0,0947206
1243,8612;0,0944885
1244,8254;0,0941867
1245,7897;0,0938097
1246,7539;0,0933593
1247,7181;0,092847
1248,6824;0,092292
1249,6466;0,0917151
1250,6108;0,0911326
1251,5751;0,0905529
1252,5393;0,0899773
1253,5035;0,0894042
1254,4678;0,0888306
1255,4320;0,0882528
1256,3962;0,0876645
1257,3605;0,0870568
1258,3247;0,0864203
1259,2889;0,0857491
1260,2532;0,085044
1261,2174;0,0843108
1262,1816;0,0835556
1263,1459;0,0827797
1264,1101;0,081978
1265,0743;0,0811418
1266,0386;0,080263
1267,0028;0,0793387
1267,9670;0,0783728
1268,9313;0,0773758
1269,8955;0,0763632
1270,8597;0,0753513
1271,8240;0,0743533
1272,7882;0,0733757
1273,7524;0,072418
1274,7167;0,0714773
1275,6809;0,0705538
1276,6451;0,0696534
1277,6094;0,0687853
1278,5736;0,0679557
1279,5378;0,0671626
1280,5021;0,0663961
1281,4663;0,0656456
1282,4305;0,0649067
1283,3948;0,0641852
1284,3590;0,0634946
1285,3232;0,0628508
1286,2875;0,0622668
1287,2517;0,0617508
1288,2159;0,0613066
1289,1802;0,0609345
1290,1444;0,0606314
1291,1086;0,0603924
1292,0729;0,0602133
1293,0371;0,0600951
1294,0013;0,0600457
1294,9656;0,0600778
1295,9298;0,0602039
1296,8940;0,0604296
1297,8583;0,0607517
1298,8225;0,0611599
1299,7867;0,0616416
1300,7510;0,0621855
1301,7152;0,0627855
1302,6794;0,0634383
1303,6437;0,0641431
1304,6079;0,0649016
1305,5721;0,0657142
1306,5364;0,0665767
1307,5006;0,067478
1308,4648;0,0684005
1309,4291;0,0693232
1310,3933;0,070225
1311,3575;0,0710856
1312,3218;0,0718857
1313,2860;0,0726049
1314,2502;0,0732207
1315,2145;0,0737078
1316,1787;0,0740397
1317,1429;0,0741957
1318,1072;0,0741716
1319,0714;0,0739903
1320,0356;0,0737013
1320,9999;0,0733655
1321,9641;0,0730343
1322,9283;0,072738
1323,8926;0,072487
1324,8568;0,0722794
1325,8210;0,0721078
1326,7853;0,0719618
1327,7495;0,0718282
1328,7137;0,0716913
1329,6780;0,0715352
1330,6422;0,0713473
1331,6064;0,0711218
1332,5707;0,0708577
1333,5349;0,0705547
1334,4991;0,070205
1335,4634;0,0697882
1336,4276;0,0692726
1337,3918;0,0686276
1338,3561;0,0678498
1339,3203;0,0669889
1340,2845;0,0661401
1341,2488;0,0653931
1342,2130;0,0647853
1343,1772;0,0643022
1344,1415;0,0639101
1345,1057;0,0635862
1346,0699;0,0633297
1347,0342;0,0631565
1347,9984;0,0630884
1348,9626;0,0631417
1349,9269;0,063319
1350,8911;0,0636077
1351,8553;0,0639843
1352,8196;0,0644233
1353,7838;0,0649065
1354,7480;0,0654277
1355,7123;0,0659903
1356,6765;0,0665985
1357,6407;0,0672506
1358,6050;0,0679389
1359,5692;0,0686506
1360,5334;0,0693636
1361,4977;0,0700414
1362,4619;0,0706474
1363,4261;0,0711745
1364,3904;0,0716485
1365,3546;0,0720983
1366,3188;0,0725317
1367,2831;0,0729352
1368,2473;0,0732827
1369,2115;0,0735441
1370,1758;0,0736888
1371,1400;0,0736866
1372,1042;0,0735092
1373,0685;0,0731394
1374,0327;0,0725927
1374,9969;0,0719254
1375,9612;0,071202
1376,9254;0,0704412
1377,8896;0,0696016
1378,8539;0,0686263
1379,8181;0,0675027
1380,7823;0,0662892
1381,7466;0,065082
1382,7108;0,0639474
1383,6750;0,0628795
1384,6393;0,0618166
1385,6035;0,0607011
1386,5677;0,0595504
1387,5320;0,0584819
1388,4962;0,0576373
1389,4604;0,0570674
1390,4247;0,0567089
1391,3889;0,0564573
1392,3531;0,0562393
1393,3174;0,0560354
1394,2816;0,0558609
1395,2458;0,0557335
1396,2101;0,0556558
1397,1743;0,0556228
1398,1385;0,0556415
1399,1028;0,0557345
1400,0670;0,0559218
1401,0313;0,0561999
1401,9955;0,0565397
1402,9597;0,0569046
1403,9240;0,0572712
1404,8882;0,0576421
1405,8524;0,0580415
1406,8167;0,0584957
1407,7809;0,0590135
1408,7451;0,0595879
1409,7094;0,060215
1410,6736;0,0609047
1411,6378;0,0616691
1412,6021;0,0624997
1413,5663;0,0633576
1414,5305;0,0641874
1415,4948;0,0649416
1416,4590;0,0655912
1417,4232;0,066119
1418,3875;0,0665267
1419,3517;0,0668591
1420,3159;0,0671755
1421,2802;0,0674699
1422,2444;0,0676614
1423,2086;0,0676654
1424,1729;0,0674543
1425,1371;0,0670592
1426,1013;0,0665235
1427,0656;0,0658539
1428,0298;0,0650217
1428,9940;0,0640182
1429,9583;0,0629135
1430,9225;0,0618363
1431,8867;0,0608726
1432,8510;0,0599911
1433,8152;0,0590692
1434,7794;0,0579842
1435,7437;0,0567304
1436,7079;0,0555047
1437,6721;0,0546084
1438,6364;0,0541886
1439,6006;0,0541493
1440,5648;0,0543037
1441,5291;0,0545242
1442,4933;0,0547757
1443,4575;0,0550778
1444,4218;0,0554521
1445,3860;0,0558912
1446,3502;0,0563631
1447,3145;0,0568388
1448,2787;0,0573179
1449,2429;0,0578235
1450,2072;0,0583652
1451,1714;0,0589085
1452,1356;0,0593829
1453,0999;0,0597175
1454,0641;0,0598658
1455,0283;0,0597927
1455,9926;0,0594386
1456,9568;0,058814
1457,9210;0,0582251
1458,8853;0,0580363
1459,8495;0,0582213
1460,8137;0,0584921
1461,7780;0,0585762
1462,7422;0,0582918
1463,7064;0,0575519
1464,6707;0,0564159
1465,6349;0,055123
1466,5991;0,053935
1467,5634;0,0529224
1468,5276;0,051959
1469,4918;0,0508491
1470,4561;0,0494137
1471,4203;0,0475336
1472,3845;0,0452487
1473,3488;0,0428759
1474,3130;0,0408538
1475,2772;0,039379
1476,2415;0,0383506
1477,2057;0,037584
1478,1699;0,0369504
1479,1342;0,0363902
1480,0984;0,0358868
1481,0626;0,0354494
1482,0269;0,0351028
1482,9911;0,0348734
1483,9553;0,0347709
1484,9196;0,0347806
1485,8838;0,0348732
1486,8480;0,0350135
1487,8123;0,0351599
1488,7765;0,0352824
1489,7407;0,0354208
1490,7050;0,0356786
1491,6692;0,0361078
1492,6334;0,0366694
1493,5977;0,037304
1494,5619;0,0379937
1495,5261;0,0387632
1496,4904;0,0396371
1497,4546;0,0406023
1498,4188;0,0416245
1499,3831;0,0426694
1500,3473;0,0436763
1501,3115;0,0445524
1502,2758;0,0452146
1503,2400;0,045633
1504,2042;0,0458445
1505,1685;0,0459003
1506,1327;0,045719
1507,0969;0,0451182
1508,0612;0,0442812
1509,0254;0,04363
1509,9896;0,0432335
1510,9539;0,0429149
1511,9181;0,0425259
1512,8823;0,0420054
1513,8466;0,0413469
1514,8108;0,0405645
1515,7750;0,0396831
1516,7393;0,0387369
1517,7035;0,0377569
1518,6677;0,0367571
1519,6320;0,0357437
1520,5962;0,0347538
1521,5604;0,0338746
1522,5247;0,0331926
1523,4889;0,0327132
1524,4531;0,032361
1525,4174;0,03206
1526,3816;0,0317989
1527,3458;0,0316196
1528,3101;0,0315535
1529,2743;0,0315811
1530,2385;0,0316493
1531,2028;0,0317125
1532,1670;0,0317605
1533,1312;0,0318228
1534,0955;0,0319446
1535,0597;0,0321358
1536,0239;0,0323518
1536,9882;0,0325444
1537,9524;0,0327193
1538,9166;0,0329155
1539,8809;0,033069
1540,8451;0,032988
1541,8093;0,0327076
1542,7736;0,032506
1543,7378;0,0324942
1544,7020;0,0326183
1545,6663;0,0328224
1546,6305;0,0330805
1547,5947;0,0333647
1548,5590;0,0336323
1549,5232;0,0338451
1550,4874;0,0340004
1551,4517;0,0341389
1552,4159;0,0343129
1553,3801;0,0345355
1554,3444;0,0347624
1555,3086;0,0349184
1556,2728;0,0349184
1557,2371;0,0346393
1558,2013;0,0339892
1559,1655;0,0333068
1560,1298;0,0332266
1561,0940;0,0338293
1562,0582;0,0347519
1563,0225;0,0356801
1563,9867;0,0364663
1564,9509;0,0370723
1565,9152;0,0375137
1566,8794;0,037834
1567,8436;0,0381024
1568,8079;0,0384109
1569,7721;0,038842
1570,7363;0,0394122
1571,7006;0,0400598
1572,6648;0,040704
1573,6290;0,0413104
1574,5933;0,041907
1575,5575;0,0425451
1576,5217;0,0432539
1577,4860;0,0440453
1578,4502;0,0449194
1579,4144;0,0458474
1580,3787;0,04679
1581,3429;0,047728
1582,3071;0,0486651
1583,2714;0,0496134
1584,2356;0,0505829
1585,1998;0,0515809
1586,1641;0,0526073
1587,1283;0,0536465
1588,0925;0,0546626
1589,0568;0,0556053
1590,0210;0,056423
1590,9852;0,0570735
1591,9495;0,0575245
1592,9137;0,0577519
1593,8779;0,0577482
1594,8422;0,0575359
1595,8064;0,0571708
1596,7706;0,0567227
1597,7349;0,056247
1598,6991;0,0557696
1599,6633;0,0552911
1600,6276;0,0548039
1601,5918;0,0543095
1602,5560;0,0538269
1603,5203;0,0533841
1604,4845;0,0529984
1605,4487;0,0526601
1606,4130;0,0523365
1607,3772;0,0519972
1608,3414;0,0516481
1609,3057;0,0513432
1610,2699;0,0511486
1611,2341;0,0510836
1612,1984;0,0510994
1613,1626;0,0511093
1614,1268;0,0510345
1615,0911;0,0508409
1616,0553;0,0505842
1617,0195;0,0504212
1617,9838;0,050493
1618,9480;0,050785
1619,9122;0,0511614
1620,8765;0,0514871
1621,8407;0,0516928
1622,8049;0,0517796
1623,7692;0,0517999
1624,7334;0,0518182
1625,6976;0,0518679
1626,6619;0,0519492
1627,6261;0,052064
1628,5903;0,0522337
1629,5546;0,0524741
1630,5188;0,052762
1631,4830;0,0530358
1632,4473;0,0532272
1633,4115;0,0532806
1634,3757;0,0531475
1635,3400;0,0528161
1636,3042;0,0524241
1637,2684;0,0522139
1638,2327;0,0522755
1639,1969;0,0525107
1640,1611;0,0527908
1641,1254;0,0530386
1642,0896;0,0532218
1643,0538;0,0533245
1644,0181;0,0533244
1644,9823;0,0531847
1645,9465;0,0528956
1646,9108;0,0525638
1647,8750;0,052359
1648,8392;0,0523057
1649,8035;0,0522482
1650,7677;0,0519614
1651,7319;0,0512036
1652,6962;0,0498485
1653,6604;0,0483329
1654,6246;0,0474881
1655,5889;0,0474727
1656,5531;0,0478331
1657,5173;0,0481547
1658,4816;0,048236
1659,4458;0,0480151
1660,4100;0,0475001
1661,3743;0,0467626
1662,3385;0,0459622
1663,3027;0,0452941
1664,2670;0,0448546
1665,2312;0,0445882
1666,1954;0,0443538
1667,1597;0,0440031
1668,1239;0,0434305
1669,0881;0,042635
1670,0524;0,0417618
1671,0166;0,0409978
1671,9808;0,0403907
1672,9451;0,0398367
1673,9093;0,0392205
1674,8735;0,0385409
1675,8378;0,0379344
1676,8020;0,0375637
1677,7662;0,037467
1678,7305;0,0375333
1679,6947;0,037591
1680,6589;0,0374821
1681,6232;0,0370718
1682,5874;0,0362545
1683,5516;0,0350885
1684,5159;0,0339526
1685,4801;0,0332582
1686,4443;0,0330322
1687,4086;0,0330371
1688,3728;0,0330587
1689,3370;0,0330061
1690,3013;0,0328846
1691,2655;0,032741
1692,2297;0,0326226
1693,1940;0,032559
1694,1582;0,032555
1695,1224;0,0325791
1696,0867;0,0325554
1697,0509;0,0323893
1698,0151;0,0320453
1698,9794;0,0316247
1699,9436;0,0313403
1700,9078;0,0313654
1701,8721;0,031709
1702,8363;0,0322448
1703,8005;0,0328217
1704,7648;0,0333434
1705,7290;0,0337912
1706,6932;0,0342121
1707,6575;0,0346793
1708,6217;0,0352452
1709,5859;0,0359179
1710,5502;0,0366724
1711,5144;0,0374713
1712,4786;0,0382758
1713,4429;0,0390485
1714,4071;0,039751
1715,3713;0,0403388
1716,3356;0,0407809
1717,2998;0,0411346
1718,2640;0,041559
1719,2283;0,0421629
1720,1925;0,0429153
1721,1567;0,0437184
1722,1210;0,0444911
1723,0852;0,0451956
1724,0494;0,0458334
1725,0137;0,0464331
1725,9779;0,0470318
1726,9421;0,0476509
1727,9064;0,0482775
1728,8706;0,0488627
1729,8348;0,0493315
1730,7991;0,0495914
1731,7633;0,0495438
1732,7275;0,0491394
1733,6918;0,0484924
1734,6560;0,047874
1735,6202;0,0474682
1736,5845;0,0472209
1737,5487;0,046955
1738,5129;0,0465236
1739,4772;0,0458797
1740,4414;0,0450802
1741,4056;0,0442362
1742,3699;0,0434295
1743,3341;0,0426642
1744,2983;0,0418914
1745,2626;0,041057
1746,2268;0,0401145
1747,1910;0,0390016
1748,1553;0,0376387
1749,1195;0,0360051
1750,0837;0,0342472
1751,0480;0,0326341
1752,0122;0,03135
1752,9764;0,0303788
1753,9407;0,0295765
1754,9049;0,028798
1755,8691;0,0279738
1756,8334;0,0271198
1757,7976;0,0262896
1758,7618;0,0255071
1759,7261;0,0247423
1760,6903;0,023952
1761,6545;0,0231464
1762,6188;0,0224035
1763,5830;0,0218095
1764,5472;0,0213899
1765,5115;0,0211018
1766,4757;0,0208762
1767,4399;0,0206568
1768,4042;0,0204116
1769,3684;0,0201187
1770,3326;0,0197502
1771,2969;0,0192889
1772,2611;0,0187779
1773,2253;0,0183311
1774,1896;0,0180506
1775,1538;0,0179458
1776,1180;0,0179473
1777,0823;0,0179698
1778,0465;0,0179562
1779,0107;0,0178876
1779,9750;0,0177743
1780,9392;0,0176357
1781,9034;0,0174855
1782,8677;0,0173315
1783,8319;0,0171903
1784,7961;0,017094
1785,7604;0,0170755
1786,7246;0,0171425
1787,6888;0,0172667
1788,6531;0,0173962
1789,6173;0,0174749
1790,5815;0,0174574
1791,5458;0,0173308
1792,5100;0,0171449
1793,4742;0,0169965
1794,4385;0,0169499
1795,4027;0,0169907
1796,3669;0,0170601
1797,3312;0,0171032
1798,2954;0,0170902
1799,2596;0,0170155
1800,2239;0,0168946
1801,1881;0,0167593
1802,1523;0,0166464
1803,1166;0,0165821
1804,0808;0,0165739
1805,0450;0,0166138
1806,0093;0,016684
1806,9735;0,016761
1807,9377;0,016817
1808,9020;0,0168259
1809,8662;0,0167751
1810,8304;0,0166768
1811,7947;0,0165655
1812,7589;0,0164765
1813,7231;0,0164252
1814,6874;0,0164034
1815,6516;0,0163921
1816,6158;0,0163774
1817,5801;0,0163616
1818,5443;0,0163619
1819,5085;0,0163964
1820,4728;0,0164666
1821,4370;0,0165536
1822,4012;0,0166291
1823,3655;0,0166731
1824,3297;0,0166884
1825,2939;0,016697
1826,2582;0,0167169
1827,2224;0,0167384
1828,1866;0,0167229
1829,1509;0,0166335
1830,1151;0,016479
1831,0793;0,0163245
1832,0436;0,0162428
1833,0078;0,0162592
1833,9720;0,0163457
1834,9363;0,0164516
1835,9005;0,0165353
1836,8647;0,0165826
1837,8290;0,0166071
1838,7932;0,0166304
1839,7574;0,0166599
1840,7217;0,0166835
1841,6859;0,0166817
1842,6501;0,01664
1843,6144;0,0165598
1844,5786;0,0164663
1845,5428;0,0163966
1846,5071;0,0163663
1847,4713;0,0163569
1848,4355;0,0163376
1849,3998;0,0162933
1850,3640;0,0162317
1851,3282;0,0161741
1852,2925;0,0161383
1853,2567;0,0161292
1854,2209;0,0161405
1855,1852;0,0161641
1856,1494;0,0161967
1857,1136;0,0162397
1858,0779;0,0162929
1859,0421;0,0163515
1860,0063;0,016408
1860,9706;0,0164589
1861,9348;0,0165086
1862,8990;0,0165672
1863,8633;0,0166423
1864,8275;0,0167325
1865,7917;0,0168209
1866,7560;0,0168732
1867,7202;0,0168485
1868,6844;0,0167344
1869,6487;0,0165731
1870,6129;0,0164318
1871,5771;0,0163478
1872,5414;0,0163119
1873,5056;0,0162907
1874,4698;0,0162553
1875,4341;0,0161984
1876,3983;0,0161385
1877,3625;0,0161085
1878,3268;0,0161346
1879,2910;0,0162193
1880,2552;0,0163394
1881,2195;0,0164603
1882,1837;0,0165543
1883,1479;0,0166136
1884,1122;0,0166478
1885,0764;0,0166712
1886,0406;0,0166901
1887,0049;0,0166988
1887,9691;0,016686
1888,9333;0,0166462
1889,8976;0,0165882
1890,8618;0,0165305
1891,8260;0,0164866
1892,7903;0,0164564
1893,7545;0,0164298
1894,7188;0,0163982
1895,6830;0,0163642
1896,6472;0,0163425
1897,6115;0,0163525
1898,5757;0,0164062
1899,5399;0,0165004
1900,5042;0,0166167
1901,4684;0,0167261
1902,4326;0,0167984
1903,3969;0,0168136
1904,3611;0,0167706
1905,3253;0,0166874
1906,2896;0,0165946
1907,2538;0,0165232
1908,2180;0,0164935
1909,1823;0,0165079
1910,1465;0,0165526
1911,1107;0,0166067
1912,0750;0,0166524
1913,0392;0,0166792
1914,0034;0,0166842
1914,9677;0,016671
1915,9319;0,0166482
1916,8961;0,0166277
1917,8604;0,0166207
1918,8246;0,016634
1919,7888;0,0166657
1920,7531;0,0167066
1921,7173;0,0167443
1922,6815;0,0167675
1923,6458;0,0167674
1924,6100;0,0167366
1925,5742;0,016671
1926,5385;0,0165738
1927,5027;0,0164621
1928,4669;0,0163677
1929,4312;0,016328
1930,3954;0,0163666
1931,3596;0,0164765
1932,3239;0,0166197
1933,2881;0,0167457
1934,2523;0,016817
1935,2166;0,0168243
1936,1808;0,0167837
1937,1450;0,0167233
1938,1093;0,0166697
1939,0735;0,0166444
1940,0377;0,0166639
1941,0020;0,0167347
1941,9662;0,0168411
1942,9304;0,0169412
1943,8947;0,016985
1944,8589;0,0169475
1945,8231;0,0168482
1946,7874;0,0167432
1947,7516;0,0166958
1948,7158;0,0167419
1949,6801;0,0168699
1950,6443;0,0170278
1951,6085;0,0171537
1952,5728;0,0172062
1953,5370;0,0171764
1954,5012;0,0170766
1955,4655;0,0169249
1956,4297;0,0167407
1957,3939;0,016551
1958,3582;0,0163956
1959,3224;0,0163149
1960,2866;0,016327
1961,2509;0,016414
1962,2151;0,0165374
1963,1793;0,0166704
1964,1436;0,0168173
1965,1078;0,0169934
1966,0720;0,0171789
1967,0363;0,01729
1968,0005;0,0172126
1968,9647;0,0168914
1969,9290;0,0164029
1970,8932;0,0159491
1971,8574;0,0157689
1972,8217;0,0160165
1973,7859;0,0166676
1974,7501;0,0175062
1975,7144;0,018219
1976,6786;0,0185571
1977,6428;0,0184658
1978,6071;0,0180851
1979,5713;0,0176325
1980,5355;0,0172711
1981,4998;0,0170592
1982,4640;0,0169811
1983,4282;0,0170044
1984,3925;0,0171141
1985,3567;0,0173046
1986,3209;0,0175467
1987,2852;0,0177674
1988,2494;0,0178693
1989,2136;0,0177876
1990,1779;0,0175498
1991,1421;0,0172893
1992,1063;0,0171822
1993,0706;0,0173374
1994,0348;0,0177197
1994,9990;0,0181682
1995,9633;0,0184866
1996,9275;0,0185439
1997,8917;0,0183308
1998,8560;0,0179554
1999,8202;0,0175828
2000,7844;0,0173585
2001,7487;0,0173589
2002,7129;0,0175881
2003,6771;0,0180016
2004,6414;0,0185255
2005,6056;0,0190626
2006,5698;0,0195009
2007,5341;0,0197419
2008,4983;0,0197425
2009,4625;0,0195394
2010,4268;0,0192317
2011,3910;0,0189315
2012,3552;0,0187137
2013,3195;0,0185957
2014,2837;0,0185522
2015,2479;0,0185479
2016,2122;0,0185632
2017,1764;0,0185949
2018,1406;0,0186382
2019,1049;0,0186717
2020,0691;0,0186651
2021,0333;0,0186042
2021,9976;0,0185102
2022,9618;0,0184319
2023,9260;0,0184122
2024,8903;0,0184507
2025,8545;0,018494
2026,8187;0,0184689
2027,7830;0,0183384
2028,7472;0,0181408
2029,7114;0,0179796
2030,6757;0,0179659
2031,6399;0,0181489
2032,6041;0,0184829
2033,5684;0,0188546
2034,5326;0,0191525
2035,4968;0,0193301
2036,4611;0,0194185
2037,4253;0,0194885
2038,3895;0,0195934
2039,3538;0,0197325
2040,3180;0,0198533
2041,2822;0,0198869
2042,2465;0,0197949
2043,2107;0,0195972
2044,1749;0,0193643
2045,1392;0,0191811
2046,1034;0,0191033
2047,0676;0,0191301
2048,0320;0,0192105
2048,9961;0,0192802
2049,9604;0,0193019
2050,9246;0,0192808
2051,8889;0,0192491
2052,8530;0,0192373
2053,8174;0,019253
2054,7815;0,0192783
2055,7458;0,0192861
2056,7100;0,0192627
2057,6743;0,0192205
2058,6384;0,019192
2059,6028;0,0192096
2060,5669;0,0192856
2061,5313;0,0194049
2062,4954;0,0195341
2063,4597;0,0196388
2064,4238;0,0197009
2065,3882;0,0197242
2066,3523;0,0197282
2067,3167;0,019734
2068,2808;0,0197517
2069,2451;0,0197752
2070,2092;0,0197855
2071,1736;0,0197601
2072,1377;0,0196839
2073,1021;0,0195577
2074,0662;0,0193998
2075,0305;0,0192397
2075,9946;0,0191093
2076,9590;0,019033
2077,9231;0,0190244
2078,8875;0,0190857
2079,8516;0,0192089
2080,8159;0,0193757
2081,7800;0,0195574
2082,7444;0,0197169
2083,7085;0,0198181
2084,6729;0,01984
2085,6370;0,0197877
2086,6013;0,0196925
2087,5654;0,0195971
2088,5298;0,0195332
2089,4939;0,0195042
2090,4583;0,0194859
2091,4224;0,0194461
2092,3867;0,01937
2093,3508;0,0192756
2094,3152;0,0192066
2095,2793;0,0192067
2096,2437;0,01929
2097,2078;0,0194299
2098,1721;0,0195728
2099,1362;0,0196673
2100,1006;0,0196891
2101,0647;0,0196461
2102,0291;0,0195703
2102,9932;0,0194974
2103,9575;0,0194521
2104,9216;0,0194423
2105,8860;0,0194629
2106,8501;0,019503
2107,8145;0,0195528
2108,7786;0,0196078
2109,7429;0,0196681
2110,7070;0,0197344
2111,6714;0,0198036
2112,6355;0,0198658
2113,5999;0,019906
2114,5640;0,0199111
2115,5283;0,0198779
2116,4924;0,019818
2117,4568;0,0197547
2118,4209;0,019713
2119,3853;0,019708
2120,3494;0,0197387
2121,3137;0,0197909
2122,2778;0,0198486
2123,2422;0,0199052
2124,2063;0,0199673
2125,1707;0,0200471
2126,1348;0,020149
2127,0991;0,0202594
2128,0632;0,0203488
2129,0276;0,0203871
2129,9917;0,0203626
2130,9561;0,0202932
2131,9202;0,02022
2132,8845;0,0201878
2133,8486;0,0202215
2134,8130;0,0203155
2135,7771;0,0204413
2136,7415;0,0205676
2137,7056;0,0206752
2138,6699;0,0207592
2139,6340;0,0208213
2140,5984;0,0208662
2141,5625;0,0209049
2142,5269;0,0209586
2143,4910;0,0210519
2144,4553;0,0211948
2145,4194;0,0213677
2146,3838;0,0215273
2147,3479;0,0216351
2148,3123;0,0216893
2149,2764;0,0217308
2150,2407;0,0218154
2151,2048;0,0219707
2152,1692;0,0221758
2153,1333;0,0223801
2154,0977;0,0225486
2155,0618;0,0226949
2156,0261;0,0228696
2156,9902;0,0231029
2157,9546;0,0233452
2158,9187;0,023475
2159,8831;0,0233926
2160,8472;0,0231152
2161,8115;0,0227737
2162,7756;0,022525
2163,7400;0,0224611
2164,7041;0,0225705
2165,6685;0,0227616
2166,6326;0,0229211
2167,5969;0,0229703
2168,5610;0,0228892
2169,5254;0,0227041
2170,4895;0,0224599
2171,4539;0,0221986
2172,4180;0,0219519
2173,3823;0,0217432
2174,3464;0,0215919
2175,3108;0,0215148
2176,2749;0,0215271
2177,2393;0,0216402
2178,2034;0,021856
2179,1677;0,0221531
2180,1318;0,0224735
2181,0962;0,0227228
2182,0603;0,0227971
2183,0247;0,0226343
2183,9888;0,022257
2184,9531;0,0217761
2185,9172;0,0213423
2186,8816;0,0210745
2187,8457;0,021005
2188,8101;0,021075
2189,7742;0,0211791
2190,7385;0,0212315
2191,7026;0,0212096
2192,6670;0,0211526
2193,6311;0,0211181
2194,5955;0,021133
2195,5596;0,0211705
2196,5239;0,0211697
2197,4880;0,0210796
2198,4524;0,0208962
2199,4165;0,0206671
2200,3809;0,0204629
2201,3450;0,0203371
2202,3093;0,0203015
2203,2734;0,0203314
2204,2378;0,0203913
2205,2019;0,0204597
2206,1663;0,020535
2207,1304;0,0206201
2208,0947;0,0207035
2209,0588;0,0207542
2210,0232;0,0207372
2210,9873;0,0206388
2211,9517;0,0204823
2212,9158;0,0203191
2213,8801;0,0202022
2214,8442;0,0201576
2215,8086;0,0201743
2216,7727;0,0202169
2217,7371;0,0202504
2218,7012;0,0202581
2219,6655;0,0202445
2220,6296;0,0202242
2221,5940;0,0202105
2222,5581;0,0202113
2223,5225;0,0202321
2224,4866;0,0202771
2225,4509;0,0203445
2226,4150;0,0204173
2227,3794;0,0204597
2228,3435;0,0204309
2229,3079;0,0203064
2230,2720;0,0200997
2231,2363;0,0198657
2232,2004;0,0196815
2233,1648;0,0196137
2234,1289;0,0196878
2235,0933;0,0198783
2236,0574;0,0201232
2237,0217;0,0203529
2237,9858;0,0205178
2238,9502;0,0206005
2239,9143;0,0206098
2240,8787;0,020566
2241,8428;0,0204893
2242,8071;0,0203987
2243,7712;0,0203178
2244,7356;0,0202756
2245,6997;0,0202973
2246,6641;0,0203888
2247,6282;0,0205265
2248,5925;0,020664
2249,5566;0,0207543
2250,5210;0,0207746
2251,4851;0,0207367
2252,4495;0,0206771
2253,4136;0,0206325
2254,3779;0,0206181
2255,3420;0,0206215
2256,3064;0,0206138
2257,2705;0,0205695
2258,2349;0,0204817
2259,1990;0,0203673
2260,1633;0,0202615
2261,1274;0,0202043
2262,0918;0,0202254
2263,0559;0,0203297
2264,0203;0,020492
2264,9844;0,0206657
2265,9487;0,0208038
2266,9128;0,0208799
2267,8772;0,0208974
2268,8413;0,0208776
2269,8057;0,0208387
2270,7698;0,0207814
2271,7341;0,020693
2272,6982;0,0205673
2273,6626;0,020421
2274,6267;0,0202914
2275,5911;0,0202141
2276,5552;0,0201964
2277,5195;0,0202098
2278,4836;0,0202079
2279,4480;0,0201595
2280,4121;0,0200731
2281,3765;0,0199948
2282,3406;0,0199815
2283,3049;0,0200673
2284,2690;0,0202447
2285,2334;0,0204696
2286,1975;0,0206861
2287,1619;0,0208547
2288,1260;0,0209693
2289,0903;0,0210537
2290,0544;0,0211417
2291,0188;0,0212546
2291,9829;0,0213898
2292,9473;0,0215263
2293,9114;0,0216416
2294,8757;0,0217279
2295,8398;0,0217944
2296,8042;0,0218546
2297,7683;0,0219094
2298,7327;0,0219398
2299,6968;0,0219169
2300,6611;0,0218254
2301,6252;0,021682
2302,5896;0,0215359
2303,5537;0,0214486
2304,5181;0,0214636
2305,4822;0,0215827
2306,4465;0,0217609
2307,4106;0,0219226
2308,3750;0,0219912
2309,3391;0,021919
2310,3035;0,0217041
2311,2676;0,021388
2312,2319;0,0210385
2313,1960;0,0207226
2314,1604;0,0204836
2315,1245;0,0203302
2316,0889;0,0202421
2317,0530;0,0201871
2318,0173;0,0201402
2318,9814;0,0200983
2319,9458;0,0200851
2320,9099;0,0201434
2321,8743;0,0203148
2322,8384;0,0206101
2323,8027;0,0209869
2324,7668;0,0213551
2325,7312;0,0216117
2326,6953;0,0216887
2327,6597;0,0215865
2328,6238;0,0213787
2329,5881;0,0211833
2330,5522;0,0211102
2331,5166;0,0212083
2332,4807;0,0214426
2333,4451;0,021718
2334,4092;0,0219377
2335,3735;0,0220589
2336,3376;0,022117
2337,3020;0,0222029
2338,2661;0,0224032
2339,2305;0,0227311
2340,1946;0,0230838
2341,1589;0,023253
2342,1230;0,0230139
2343,0874;0,0223215
2344,0515;0,0215023
2345,0159;0,0211145
2345,9800;0,021466
2346,9443;0,0223623
2347,9084;0,0233236
2348,8728;0,0239296
2349,8369;0,0240122
2350,8013;0,0236796
2351,7654;0,0232205
2352,7297;0,0229262
2353,6938;0,0229262
2354,6582;0,0231746
2355,6223;0,0235774
2356,5867;0,0240615
2357,5508;0,0245182
2358,5151;0,0247693
2359,4792;0,0246532
2360,4436;0,0241471
2361,4077;0,0233811
2362,3721;0,0225349
2363,3362;0,0217358
2364,3005;0,0210293
2365,2646;0,0204031
2366,2290;0,0198208
2367,1931;0,0192491
2368,1575;0,0186774
2369,1216;0,018127
2370,0859;0,0176405
2371,0500;0,0172609
2372,0144;0,0170138
2372,9785;0,0169075
2373,9429;0,0169426
2374,9070;0,0171191
2375,8713;0,0174334
2376,8354;0,0178691
2377,7998;0,0183915
2378,7639;0,0189504
2379,7283;0,0194894
2380,6924;0,0199577
2381,6567;0,0203191
2382,6208;0,0205569
2383,5852;0,0206746
2384,5493;0,0206947
2385,5137;0,0206522
2386,4778;0,0205871
2387,4421;0,0205335
2388,4063;0,0205114
2389,3706;0,0205223
2390,3347;0,0205524
2391,2991;0,0205815
2392,2632;0,020594
2393,2275;0,0205863
2394,1917;0,0205676
2395,1560;0,0205542
2396,1201;0,0205599
2397,0845;0,020589
2398,0486;0,020636
2399,0129;0,020687
2399,9771;0,0207284
2400,9414;0,0207547
2401,9055;0,0207696
2402,8699;0,0207833
2403,8340;0,0208048
2404,7983;0,0208361
2405,7625;0,0208716
2406,7268;0,0209022
2407,6909;0,0209234
2408,6553;0,020938
2409,6194;0,0209536
2410,5837;0,0209761
2411,5479;0,0210052
2412,5122;0,0210346
2413,4763;0,0210574
2414,4407;0,0210715
2415,4048;0,0210806
2416,3691;0,0210898
2417,3333;0,0211011
2418,2976;0,0211111
2419,2617;0,0211158
2420,2261;0,0211152
2421,1902;0,0211154
2422,1545;0,0211258
2423,1187;0,0211515
2424,0830;0,0211892
2425,0471;0,0212279
2426,0115;0,0212552
2426,9756;0,0212652
2427,9399;0,0212613
2428,9041;0,0212548
2429,8684;0,0212588
2430,8325;0,0212819
2431,7969;0,0213262
2432,7610;0,0213871
2433,7253;0,0214559
2434,6895;0,0215221
2435,6538;0,0215756
2436,6179;0,0216087
2437,5823;0,0216175
2438,5464;0,0216043
2439,5107;0,0215774
2440,4749;0,0215506
2441,4392;0,0215393
2442,4033;0,0215554
2443,3677;0,0216025
2444,3318;0,0216728
2445,2961;0,0217486
2446,2603;0,0218088
2447,2246;0,0218383
2448,1887;0,021836
2449,1531;0,0218165
2450,1172;0,0218031
2451,0815;0,021815
2452,0457;0,0218566
2453,0100;0,0219147
2453,9741;0,021966
2454,9385;0,0219915
2455,9026;0,0219862
2456,8669;0,0219612
2457,8311;0,0219355
2458,7954;0,0219248
2459,7595;0,0219336
2460,7239;0,0219554
2461,6880;0,0219793
2462,6523;0,0219971
2463,6165;0,0220082
2464,5808;0,022019
2465,5449;0,0220386
2466,5093;0,0220738
2467,4734;0,0221253
2468,4377;0,0221866
2469,4019;0,0222459
2470,3662;0,0222916
2471,3303;0,0223172
2472,2947;0,0223249
2473,2588;0,0223235
2474,2231;0,0223227
2475,1873;0,0223275
2476,1516;0,0223358
2477,1157;0,022342
2478,0801;0,0223423
2479,0442;0,0223387
2480,0085;0,0223368
2480,9727;0,022342
2481,9370;0,0223545
2482,9011;0,0223705
2483,8655;0,0223861
2484,8296;0,0224012
2485,7939;0,0224201
2486,7581;0,022447
2487,7224;0,0224815
2488,6865;0,0225169
2489,6509;0,0225436
2490,6150;0,0225551
2491,5793;0,0225528
2492,5435;0,0225452
2493,5078;0,0225426
2494,4719;0,0225509
2495,4363;0,0225683
2496,4004;0,0225882
2497,3647;0,0226048
2498,3289;0,0226184
2499,2932;0,0226366
2500,2573;0,0226687
2501,2217;0,0227187
2502,1858;0,022781
2503,1501;0,0228419
2504,1143;0,0228868
2505,0786;0,0229082
2506,0427;0,0229096
2507,0071;0,0229029
2507,9712;0,0229013
2508,9355;0,0229125
2509,8997;0,0229356
2510,8640;0,0229626
2511,8281;0,0229831
2512,7925;0,0229896
2513,7566;0,022981
2514,7209;0,0229631
2515,6851;0,0229465
2516,6494;0,022942
2517,6135;0,0229543
2518,5779;0,0229793
2519,5420;0,023006
2520,5063;0,0230221
2521,4705;0,0230219
2522,4348;0,0230099
2523,3989;0,0229983
2524,3633;0,0229998
2525,3274;0,0230208
2526,2917;0,0230583
2527,2559;0,0231027
2528,2202;0,0231434
2529,1843;0,0231732
2530,1487;0,0231893
2531,1128;0,0231924
2532,0771;0,023185
2533,0413;0,0231708
2534,0056;0,0231559
2534,9697;0,0231474
2535,9341;0,023152
2536,8982;0,0231719
2537,8625;0,0232028
2538,8267;0,0232337
2539,7910;0,0232512
2540,7551;0,0232457
2541,7195;0,0232159
2542,6836;0,0231708
2543,6479;0,0231258
2544,6121;0,0230964
2545,5764;0,0230923
2546,5405;0,0231148
2547,5049;0,0231587
2548,4690;0,0232167
2549,4333;0,0232818
2550,3975;0,0233474
2551,3618;0,0234053
2552,3259;0,0234456
2553,2903;0,0234589
2554,2544;0,0234419
2555,2188;0,0234004
2556,1829;0,0233481
2557,1472;0,0233004
2558,1113;0,0232679
2559,0757;0,0232531
2560,0398;0,0232526
2561,0042;0,0232627
2561,9683;0,0232827
2562,9326;0,0233143
2563,8967;0,0233563
2564,8611;0,0234013
2565,8252;0,0234356
2566,7896;0,0234467
2567,7537;0,0234308
2568,7180;0,0233969
2569,6821;0,0233629
2570,6465;0,0233463
2571,6106;0,0233555
2572,5750;0,023387
2573,5391;0,0234297
2574,5034;0,0234723
2575,4675;0,0235088
2576,4319;0,0235388
2577,3960;0,0235637
2578,3604;0,0235833
2579,3245;0,0235948
2580,2888;0,0235955
2581,2529;0,0235851
2582,2173;0,0235666
2583,1814;0,023546
2584,1458;0,0235301
2585,1099;0,0235253
2586,0742;0,0235369
2587,0383;0,023567
2588,0027;0,0236128
2588,9668;0,0236664
2589,9312;0,0237174
2590,8953;0,023757
2591,8596;0,0237829
2592,8237;0,0237992
2593,7881;0,0238129
2594,7522;0,0238283
2595,7166;0,0238445
2596,6807;0,0238561
2597,6450;0,0238585
2598,6091;0,0238521
2599,5735;0,0238434
2600,5376;0,0238416
2601,5020;0,0238539
2602,4661;0,0238813
2603,4304;0,023919
2604,3945;0,0239589
2605,3589;0,0239946
2606,3230;0,0240239
2607,2874;0,0240489
2608,2515;0,0240738
2609,2158;0,0241013
2610,1799;0,0241311
2611,1443;0,02416
2612,1084;0,0241845
2613,0728;0,0242023
2614,0369;0,0242141
2615,0012;0,024223
2615,9653;0,0242336
2616,9297;0,0242509
2617,8938;0,0242791
2618,8582;0,0243196
2619,8223;0,0243691
2620,7866;0,0244191
2621,7507;0,0244581
2622,7151;0,0244772
2623,6792;0,0244746
2624,6436;0,0244573
2625,6077;0,0244382
2626,5720;0,0244294
2627,5361;0,0244371
2628,5005;0,0244602
2629,4646;0,0244937
2630,4290;0,0245328
2631,3931;0,0245755
2632,3574;0,0246219
2633,3215;0,0246707
2634,2859;0,0247181
2635,2500;0,0247588
2636,2144;0,0247892
2637,1785;0,0248102
2638,1428;0,0248272
2639,1069;0,0248473
2640,0713;0,0248757
2641,0354;0,0249128
2641,9998;0,0249546
2642,9639;0,0249949
2643,9282;0,0250285
2644,8923;0,0250534
2645,8567;0,0250712
2646,8208;0,0250866
2647,7852;0,0251047
2648,7493;0,0251295
2649,7136;0,0251624
2650,6777;0,0252019
2651,6421;0,0252438
2652,6062;0,0252831
2653,5706;0,0253161
2654,5347;0,0253409
2655,4990;0,0253588
2656,4631;0,0253731
2657,4275;0,025388
2658,3916;0,0254072
2659,3560;0,025433
2660,3201;0,0254659
2661,2844;0,0255045
2662,2485;0,0255462
2663,2129;0,0255879
2664,1770;0,0256267
2665,1414;0,0256604
2666,1055;0,0256877
2667,0698;0,0257081
2668,0339;0,0257227
2668,9983;0,0257334
2669,9624;0,025744
2670,9268;0,0257591
2671,8909;0,0257827
2672,8552;0,0258158
2673,8193;0,0258558
2674,7837;0,0258962
2675,7478;0,0259302
2676,7122;0,0259537
2677,6763;0,025968
2678,6406;0,0259795
2679,6047;0,0259973
2680,5691;0,0260287
2681,5332;0,0260762
2682,4976;0,0261358
2683,4617;0,026198
2684,4260;0,0262512
2685,3901;0,026286
2686,3545;0,0262998
2687,3186;0,0262979
2688,2830;0,0262921
2689,2471;0,0262958
2690,2114;0,0263176
2691,1755;0,0263582
2692,1399;0,0264108
2693,1040;0,0264657
2694,0684;0,0265154
2695,0325;0,026558
2695,9968;0,0265962
2696,9609;0,0266344
2697,9253;0,0266753
2698,8894;0,0267183
2699,8538;0,0267611
2700,8179;0,0268016
2701,7822;0,0268399
2702,7463;0,026878
2703,7107;0,0269186
2704,6748;0,0269633
2705,6392;0,0270116
2706,6033;0,0270611
2707,5676;0,0271089
2708,5317;0,0271531
2709,4961;0,0271934
2710,4602;0,02723
2711,4246;0,0272637
2712,3887;0,0272946
2713,3530;0,0273229
2714,3171;0,0273501
2715,2815;0,0273794
2716,2456;0,0274143
2717,2100;0,0274561
2718,1741;0,0275027
2719,1384;0,0275482
2720,1025;0,0275858
2721,0669;0,0276113
2722,0310;0,0276257
2722,9954;0,0276348
2723,9595;0,0276462
2724,9238;0,0276665
2725,8879;0,0276987
2726,8523;0,0277418
2727,8164;0,0277926
2728,7808;0,0278465
2729,7449;0,0278997
2730,7092;0,0279486
2731,6733;0,0279904
2732,6377;0,0280235
2733,6018;0,0280472
2734,5662;0,0280627
2735,5303;0,0280728
2736,4946;0,0280819
2737,4587;0,0280951
2738,4231;0,0281173
2739,3872;0,0281518
2740,3516;0,028199
2741,3157;0,0282555
2742,2800;0,0283146
2743,2441;0,0283671
2744,2085;0,0284043
2745,1726;0,0284212
2746,1370;0,0284182
2747,1011;0,0284023
2748,0654;0,0283843
2749,0295;0,0283748
2749,9939;0,0283808
2750,9580;0,0284038
2751,9224;0,0284405
2752,8865;0,0284856
2753,8508;0,0285346
2754,8149;0,0285843
2755,7793;0,0286324
2756,7434;0,0286768
2757,7078;0,0287155
2758,6719;0,0287487
2759,6362;0,0287795
2760,6003;0,0288138
2761,5647;0,0288565
2762,5288;0,0289084
2763,4932;0,0289643
2764,4573;0,0290163
2765,4216;0,0290582
2766,3857;0,0290904
2767,3501;0,0291201
2768,3142;0,0291574
2769,2786;0,0292086
2770,2427;0,0292727
2771,2070;0,0293417
2772,1711;0,0294059
2773,1355;0,0294601
2774,0996;0,0295062
2775,0640;0,0295513
2776,0281;0,0296022
2776,9924;0,0296608
2777,9565;0,029723
2778,9209;0,0297818
2779,8850;0,0298322
2780,8494;0,0298746
2781,8135;0,0299146
2782,7778;0,0299598
2783,7419;0,0300153
2784,7063;0,0300811
2785,6704;0,0301523
2786,6348;0,0302227
2787,5989;0,0302877
2788,5632;0,0303477
2789,5273;0,0304075
2790,4917;0,0304736
2791,4558;0,0305512
2792,4202;0,0306409
2793,3843;0,030739
2794,3486;0,0308392
2795,3127;0,0309358
2796,2771;0,0310265
2797,2412;0,0311134
2798,2056;0,0312013
2799,1697;0,0312964
2800,1340;0,031403
2801,0981;0,0315228
2802,0625;0,0316539
2803,0266;0,0317908
2803,9910;0,0319254
2804,9551;0,0320492
2805,9194;0,0321561
2806,8835;0,0322458
2807,8479;0,0323258
2808,8120;0,0324092
2809,7764;0,0325096
2810,7405;0,0326354
2811,7048;0,0327857
2812,6689;0,0329509
2813,6333;0,0331182
2814,5974;0,0332779
2815,5618;0,0334274
2816,5259;0,0335708
2817,4902;0,0337156
2818,4543;0,0338685
2819,4187;0,0340335
2820,3828;0,0342124
2821,3472;0,034406
2822,3113;0,0346142
2823,2756;0,0348351
2824,2397;0,0350643
2825,2041;0,0352961
2826,1682;0,035526
2827,1326;0,0357537
2828,0967;0,0359841
2829,0610;0,0362254
2830,0251;0,0364859
2830,9895;0,0367707
2831,9536;0,0370802
2832,9180;0,0374108
2833,8821;0,0377572
2834,8464;0,0381145
2835,8105;0,0384802
2836,7749;0,0388554
2837,7390;0,0392449
2838,7034;0,0396571
2839,6675;0,0401026
2840,6318;0,040593
2841,5959;0,0411382
2842,5603;0,0417436
2843,5244;0,0424065
2844,4888;0,0431127
2845,4529;0,0438352
2846,4172;0,044536
2847,3813;0,045172
2848,3457;0,0457028
2849,3098;0,0460996
2850,2742;0,0463499
2851,2383;0,0464595
2852,2026;0,0464499
2853,1667;0,0463529
2854,1311;0,0462049
2855,0952;0,0460398
2856,0596;0,0458845
2857,0237;0,0457561
2857,9880;0,0456629
2858,9521;0,0456077
2859,9165;0,0455906
2860,8806;0,0456114
2861,8450;0,0456693
2862,8091;0,0457623
2863,7734;0,0458866
2864,7375;0,0460376
2865,7019;0,0462105
2866,6660;0,0463999
2867,6304;0,0465986
2868,5945;0,0467966
2869,5588;0,046982
2870,5229;0,0471445
2871,4873;0,0472791
2872,4514;0,047388
2873,4158;0,0474795
2874,3799;0,0475638
2875,3442;0,0476482
2876,3083;0,0477354
2877,2727;0,0478244
2878,2368;0,0479129
2879,2012;0,0480003
2880,1653;0,0480889
2881,1296;0,0481822
2882,0938;0,0482832
2883,0581;0,0483933
2884,0222;0,0485116
2884,9866;0,0486368
2885,9507;0,0487679
2886,9150;0,0489045
2887,8792;0,0490468
2888,8435;0,0491942
2889,8076;0,0493454
2890,7720;0,049498
2891,7361;0,0496488
2892,7004;0,0497952
2893,6646;0,0499353
2894,6289;0,0500696
2895,5930;0,0502016
2896,5574;0,050337
2897,5215;0,0504816
2898,4858;0,0506375
2899,4500;0,0508008
2900,4143;0,0509619
2901,3784;0,0511104
2902,3428;0,0512406
2903,3069;0,0513555
2904,2712;0,051467
2905,2354;0,051591
2906,1997;0,0517421
2907,1638;0,0519307
2908,1282;0,0521632
2909,0923;0,0524449
2910,0566;0,0527793
2911,0208;0,0531657
2911,9851;0,0535938
2912,9492;0,0540403
2913,9136;0,0544715
2914,8777;0,05485
2915,8420;0,0551439
2916,8062;0,0553336
2917,7705;0,0554131
2918,7346;0,0553873
2919,6990;0,0552675
2920,6631;0,0550675
2921,6274;0,0548018
2922,5916;0,0544859
2923,5559;0,0541347
2924,5200;0,0537618
2925,4844;0,053377
2926,4485;0,052986
2927,4128;0,0525913
2928,3770;0,0521955
2929,3413;0,0518029
2930,3054;0,0514193
2931,2698;0,0510488
2932,2339;0,0506902
2933,1982;0,0503359
2934,1624;0,0499744
2935,1267;0,0495972
2936,0908;0,0492043
2937,0552;0,0488053
2938,0193;0,0484142
2938,9836;0,0480412
2939,9478;0,0476864
2940,9121;0,0473402
2941,8762;0,0469902
2942,8406;0,0466295
2943,8047;0,0462618
2944,7690;0,0458992
2945,7332;0,0455546
2946,6975;0,0452343
2947,6616;0,0449361
2948,6260;0,0446534
2949,5901;0,044382
2950,5544;0,0441245
2951,5186;0,0438883
2952,4829;0,0436793
2953,4470;0,0434951
2954,4114;0,0433236
2955,3755;0,0431476
2956,3398;0,0429523
2957,3040;0,0427318
2958,2683;0,0424891
2959,2324;0,0422323
2960,1968;0,0419686
2961,1609;0,041702
2962,1252;0,0414342
2963,0894;0,0411674
2964,0537;0,0409052
2965,0178;0,0406504
2965,9822;0,0404018
2966,9463;0,0401527
2967,9106;0,0398941
2968,8748;0,0396207
2969,8391;0,0393353
2970,8032;0,0390485
2971,7676;0,0387723
2972,7317;0,0385144
2973,6960;0,0382741
2974,6602;0,038045
2975,6245;0,0378213
2976,5886;0,0376022
2977,5530;0,0373927
2978,5171;0,0371988
2979,4814;0,0370227
2980,4456;0,0368618
2981,4099;0,0367113
2982,3740;0,0365697
2983,3384;0,0364409
2984,3025;0,0363313
2985,2668;0,0362447
2986,2310;0,0361768
2987,1953;0,0361161
2988,1594;0,0360496
2989,1238;0,0359694
2990,0879;0,0358775
2991,0522;0,0357846
2992,0164;0,035704
2992,9807;0,0356459
2993,9448;0,0356136
2994,9092;0,0356049
2995,8733;0,0356147
2996,8376;0,0356385
2997,8018;0,0356727
2998,7661;0,0357136
2999,7302;0,0357563
3000,6946;0,0357958
3001,6587;0,0358289
3002,6230;0,0358561
3003,5872;0,0358813
3004,5515;0,0359095
3005,5156;0,0359433
3006,4800;0,035982
3007,4441;0,036022
3008,4084;0,0360599
3009,3726;0,0360941
3010,3369;0,0361251
3011,3010;0,0361537
3012,2654;0,0361793
3013,2295;0,0362012
3014,1938;0,0362203
3015,1580;0,0362416
3016,1223;0,0362733
3017,0864;0,0363235
3018,0508;0,0363951
3019,0149;0,0364832
3019,9792;0,0365766
3020,9434;0,0366625
3021,9077;0,0367335
3022,8718;0,0367907
3023,8362;0,036843
3024,8003;0,0369027
3025,7646;0,0369786
3026,7288;0,0370724
3027,6931;0,0371784
3028,6572;0,0372865
3029,6216;0,0373881
3030,5857;0,0374797
3031,5500;0,0375646
3032,5142;0,0376504
3033,4785;0,0377445
3034,4426;0,0378511
3035,4070;0,0379688
3036,3711;0,0380919
3037,3354;0,0382126
3038,2996;0,0383237
3039,2639;0,0384218
3040,2280;0,0385089
3041,1924;0,038593
3042,1565;0,0386864
3043,1208;0,0387998
3044,0850;0,0389378
3045,0493;0,0390954
3046,0134;0,0392599
3046,9778;0,0394183
3047,9419;0,0395633
3048,9063;0,0396974
3049,8704;0,0398286
3050,8347;0,0399642
3051,7988;0,040104
3052,7632;0,0402409
3053,7273;0,0403659
3054,6917;0,0404761
3055,6558;0,040579
3056,6201;0,0406897
3057,5842;0,0408241
3058,5486;0,0409906
3059,5127;0,041186
3060,4771;0,0413962
3061,4412;0,0416016
3062,4055;0,0417829
3063,3696;0,0419285
3064,3340;0,0420378
3065,2981;0,042122
3066,2625;0,0421996
3067,2266;0,0422886
3068,1909;0,0423995
3069,1550;0,0425331
3070,1194;0,0426837
3071,0835;0,0428449
3072,0479;0,0430141
3073,0120;0,043192
3073,9763;0,0433779
3074,9404;0,0435661
3075,9048;0,0437453
3076,8689;0,0439037
3077,8333;0,0440353
3078,7974;0,0441438
3079,7617;0,0442402
3080,7258;0,0443373
3081,6902;0,0444436
3082,6543;0,0445618
3083,6187;0,0446902
3084,5828;0,0448269
3085,5471;0,0449707
3086,5112;0,0451214
3087,4756;0,0452777
3088,4397;0,0454378
3089,4041;0,0456
3090,3682;0,0457644
3091,3325;0,0459319
3092,2966;0,0461033
3093,2610;0,046277
3094,2251;0,0464494
3095,1895;0,0466156
3096,1536;0,046772
3097,1179;0,0469169
3098,0820;0,0470514
3099,0464;0,0471799
3100,0105;0,0473099
3100,9749;0,0474517
3101,9390;0,0476148
3102,9033;0,0478039
3103,8674;0,0480149
3104,8318;0,0482353
3105,7959;0,0484489
3106,7603;0,0486431
3107,7244;0,0488142
3108,6887;0,0489689
3109,6528;0,0491197
3110,6172;0,0492776
3111,5813;0,0494479
3112,5457;0,049629
3113,5098;0,0498168
3114,4741;0,0500075
3115,4382;0,0501994
3116,4026;0,0503913
3117,3667;0,0505804
3118,3311;0,0507619
3119,2952;0,0509323
3120,2595;0,0510916
3121,2236;0,0512454
3122,1880;0,0514022
3123,1521;0,051569
3124,1165;0,0517482
3125,0806;0,0519372
3126,0449;0,0521315
3127,0090;0,0523281
3127,9734;0,0525263
3128,9375;0,0527272
3129,9019;0,0529304
3130,8660;0,0531333
3131,8303;0,0533312
3132,7944;0,0535205
3133,7588;0,0537005
3134,7229;0,0538748
3135,6873;0,0540494
3136,6514;0,054231
3137,6157;0,0544248
3138,5798;0,0546324
3139,5442;0,0548516
3140,5083;0,0550771
3141,4727;0,0553036
3142,4368;0,055528
3143,4011;0,0557509
3144,3652;0,0559752
3145,3296;0,0562023
3146,2937;0,0564291
3147,2581;0,0566483
3148,2222;0,0568525
3149,1865;0,057039
3150,1506;0,0572132
3151,1150;0,0573869
3152,0791;0,0575735
3153,0435;0,0577819
3154,0076;0,0580132
3154,9719;0,0582604
3155,9360;0,0585122
3156,9004;0,0587574
3157,8645;0,0589892
3158,8289;0,059208
3159,7930;0,0594208
3160,7573;0,059637
3161,7214;0,0598633
3162,6858;0,0600991
3163,6499;0,0603372
3164,6143;0,0605687
3165,5784;0,0607891
3166,5427;0,0610016
3167,5068;0,061214
3168,4712;0,0614332
3169,4353;0,061592
3170,3997;0,0618244
3171,3638;0,0620576
3172,3281;0,0622903
3173,2922;0,0625238
3174,2566;0,0627587
3175,2207;0,0629921
3176,1851;0,0632187
3177,1492;0,0634348
3178,1135;0,063643
3179,0776;0,0638512
3180,0420;0,0640667
3181,0061;0,0642905
3181,9705;0,0645165
3182,9346;0,0647368
3183,8989;0,0649483
3184,8630;0,0651561
3185,8274;0,0653699
3186,7915;0,0655971
3187,7559;0,0658376
3188,7200;0,0660841
3189,6843;0,0663273
3190,6484;0,0665605
3191,6128;0,0667815
3192,5769;0,0669906
3193,5413;0,0671892
3194,5054;0,0673789
3195,4697;0,067564
3196,4338;0,0677522
3197,3982;0,0679521
3198,3623;0,0681682
3199,3267;0,0683973
3200,2908;0,0686294
3201,2551;0,0688535
3202,2192;0,0690654
3203,1836;0,0692699
3204,1477;0,0694788
3205,1121;0,0697025
3206,0762;0,0699433
3207,0405;0,0701926
3208,0046;0,0704349
3208,9690;0,0706567
3209,9331;0,070854
3210,8975;0,0710351
3211,8616;0,071216
3212,8259;0,0714119
3213,7900;0,0716283
3214,7544;0,0718575
3215,7185;0,0720826
3216,6829;0,0722878
3217,6470;0,0724686
3218,6113;0,0726348
3219,5754;0,0728063
3220,5398;0,0730004
3221,5039;0,0732219
3222,4683;0,0734597
3223,4324;0,0736942
3224,3967;0,0739085
3225,3608;0,0740974
3226,3252;0,0742693
3227,2893;0,0744394
3228,2537;0,0746214
3229,2178;0,0748219
3230,1821;0,0750392
3231,1462;0,0752657
3232,1106;0,0754914
3233,0747;0,0757062
3234,0391;0,0759037
3235,0032;0,0760842
3235,9675;0,0762576
3236,9316;0,0764405
3237,8960;0,0766481
3238,8601;0,0768842
3239,8245;0,0771366
3240,7886;0,0773819
3241,7529;0,0775978
3242,7170;0,0777761
3243,6814;0,0779271
3244,6455;0,0780733
3245,6099;0,078237
3246,5740;0,0784298
3247,5383;0,0786503
3248,5024;0,0788903
3249,4668;0,0791422
3250,4309;0,0794014
3251,3953;0,0796644
3252,3594;0,0799251
3253,3237;0,080175
3254,2878;0,0804074
3255,2522;0,0806226
3256,2163;0,0808283
3257,1807;0,0810352
3258,1448;0,0812502
3259,1091;0,0814721
3260,0732;0,0816931
3261,0376;0,0819048
3262,0017;0,0821036
3262,9661;0,0822936
3263,9302;0,0824838
3264,8945;0,0826833
3265,8586;0,0828972
3266,8230;0,083124
3267,7871;0,0833574
3268,7515;0,0835879
3269,7156;0,0838055
3270,6799;0,0840015
3271,6440;0,0841686
3272,6084;0,0843032
3273,5725;0,0844061
3274,5369;0,0844842
3275,5010;0,0845501
3276,4653;0,0846197
3277,4294;0,0847077
3278,3938;0,0848215
3279,3579;0,0849585
3280,3223;0,0851062
3281,2864;0,0852475
3282,2507;0,085368
3283,2148;0,085462
3284,1792;0,0855338
3285,1433;0,085594
3286,1077;0,0856523
3287,0718;0,0857123
3288,0361;0,0857711
3289,0002;0,0858224
3289,9646;0,0858621
3290,9287;0,0858903
3291,8931;0,0859103
3292,8572;0,0859259
3293,8215;0,0859389
3294,7856;0,08595
3295,7500;0,0859606
3296,7141;0,0859741
3297,6785;0,0859939
3298,6426;0,0860211
3299,6069;0,0860528
3300,5710;0,0860843
3301,5354;0,0861135
3302,4995;0,0861425
3303,4639;0,0861756
3304,4280;0,0862137
3305,3923;0,0862512
3306,3564;0,0862774
3307,3208;0,0862843
3308,2849;0,0862733
3309,2493;0,0862577
3310,2134;0,0862561
3311,1777;0,0862821
3312,1418;0,0863372
3313,1062;0,0864116
3314,0703;0,0864916
3315,0347;0,086568
3315,9988;0,0866408
3316,9631;0,086717
3317,9272;0,086805
3318,8916;0,0869094
3319,8557;0,0870292
3320,8201;0,0871588
3321,7842;0,0872917
3322,7485;0,0874226
3323,7126;0,0875482
3324,6770;0,087666
3325,6411;0,0877738
3326,6055;0,0878686
3327,5696;0,0879483
3328,5339;0,0880143
3329,4980;0,0880724
3330,4624;0,0881319
3331,4265;0,0882006
3332,3909;0,0882798
3333,3550;0,0883604
3334,3193;0,0884263
3335,2834;0,0884617
3336,2478;0,0884595
3337,2119;0,0884244
3338,1763;0,0883685
3339,1404;0,0883033
3340,1047;0,0882319
3341,0688;0,0881493
3342,0332;0,0880473
3342,9973;0,0879208
3343,9617;0,0877723
3344,9258;0,0876101
3345,8901;0,0874447
3346,8542;0,0872845
3347,8186;0,0871335
3348,7827;0,08699
3349,7471;0,0868482
3350,7112;0,0866997
3351,6755;0,0865376
3352,6396;0,0863608
3353,6040;0,0861751
3354,5681;0,0859913
3355,5325;0,0858194
3356,4966;0,0856641
3357,4609;0,0855226
3358,4250;0,0853887
3359,3894;0,085257
3360,3535;0,0851256
3361,3179;0,084994
3362,2820;0,0848588
3363,2463;0,0847125
3364,2104;0,0845474
3365,1748;0,0843609
3366,1389;0,0841586
3367,1033;0,0839519
3368,0674;0,0837504
3369,0317;0,0835572
3369,9958;0,0833689
3370,9602;0,0831819
3371,9243;0,0829976
3372,8887;0,0828225
3373,8528;0,0826623
3374,8171;0,082515
3375,7813;0,0823701
3376,7456;0,082215
3377,7097;0,0820438
3378,6741;0,0818621
3379,6382;0,0816824
3380,6025;0,081515
3381,5667;0,0813608
3382,5310;0,0812127
3383,4951;0,0810635
3384,4595;0,0809136
3385,4236;0,0807707
3386,3879;0,0806413
3387,3521;0,0805218
3388,3164;0,0803966
3389,2805;0,0802476
3390,2449;0,0800666
3391,2090;0,0798627
3392,1733;0,079658
3393,1375;0,079474
3394,1018;0,0793178
3395,0659;0,079179
3396,0303;0,0790371
3396,9944;0,0788741
3397,9587;0,0786823
3398,9229;0,0784659
3399,8872;0,0782362
3400,8513;0,0780063
3401,8157;0,0777863
3402,7798;0,0775817
3403,7441;0,0773911
3404,7083;0,0772067
3405,6726;0,0770184
3406,6367;0,0768188
3407,6011;0,0766076
3408,5652;0,0763913
3409,5295;0,0761769
3410,4937;0,075966
3411,4580;0,0757536
3412,4221;0,0755332
3413,3865;0,0753037
3414,3506;0,0750709
3415,3149;0,0748423
3416,2791;0,074619
3417,2434;0,0743919
3418,2075;0,0741463
3419,1719;0,0738718
3420,1360;0,0735719
3421,1003;0,0732635
3422,0645;0,0729685
3423,0288;0,0727003
3423,9929;0,072458
3424,9573;0,0722287
3425,9214;0,0719964
3426,8857;0,0717493
3427,8499;0,0714846
3428,8142;0,071207
3429,7783;0,0709243
3430,7427;0,070643
3431,7068;0,0703656
3432,6711;0,0700923
3433,6353;0,0698236
3434,5996;0,0695611
3435,5637;0,0693065
3436,5281;0,0690588
3437,4922;0,0688144
3438,4565;0,0685707
3439,4207;0,0683298
3440,3850;0,0680988
3441,3491;0,0678831
3442,3135;0,0676773
3443,2776;0,067461
3444,2419;0,0672063
3445,2061;0,0668939
3446,1704;0,066528
3447,1345;0,0661378
3448,0989;0,0657616
3449,0630;0,0654246
3450,0273;0,0651275
3450,9915;0,0648543
3451,9558;0,0645881
3452,9199;0,0643231
3453,8843;0,0640633
3454,8484;0,0638136
3455,8127;0,0635709
3456,7769;0,0633237
3457,7412;0,0630605
3458,7053;0,0627775
3459,6697;0,0624817
3460,6338;0,0621848
3461,5981;0,0618951
3462,5623;0,0616118
3463,5266;0,0613268
3464,4907;0,0610311
3465,4551;0,0607213
3466,4192;0,0604036
3467,3835;0,0600909
3468,3477;0,0597968
3469,3120;0,0595273
3470,2761;0,0592764
3471,2405;0,059029
3472,2046;0,0587708
3473,1689;0,058499
3474,1331;0,0582261
3475,0974;0,0579724
3476,0615;0,0577489
3477,0259;0,057545
3477,9900;0,0573306
3478,9543;0,0570725
3479,9185;0,0567559
3480,8828;0,0563972
3481,8469;0,0560367
3482,8113;0,0557125
3483,7754;0,0554369
3484,7397;0,0551915
3485,7039;0,0549436
3486,6682;0,0546705
3487,6323;0,0543736
3488,5967;0,0540764
3489,5608;0,053806
3490,5251;0,0535731
3491,4893;0,0533633
3492,4536;0,0531462
3493,4177;0,0528948
3494,3821;0,0526052
3495,3462;0,0523036
3496,3105;0,0520333
3497,2747;0,0518269
3498,2390;0,0516814
3499,2031;0,0515543
3500,1675;0,0513829
3501,1316;0,0511182
3502,0959;0,0507577
3503,0601;0,0503535
3504,0244;0,0499808
3504,9885;0,0496858
3505,9529;0,0494584
3506,9170;0,0492474
3507,8813;0,048998
3508,8455;0,0486866
3509,8098;0,0483326
3510,7739;0,047982
3511,7383;0,0476731
3512,7024;0,0474136
3513,6667;0,0471866
3514,6309;0,0469723
3515,5952;0,0467671
3516,5593;0,0465839
3517,5237;0,0464382
3518,4878;0,0463306
3519,4521;0,0462403
3520,4163;0,0461336
3521,3806;0,0459793
3522,3447;0,0457624
3523,3091;0,0454857
3524,2732;0,0451609
3525,2375;0,0447977
3526,2017;0,0444017
3527,1660;0,043984
3528,1301;0,043572
3529,0945;0,0432056
3530,0586;0,0429186
3531,0229;0,042717
3531,9871;0,0425734
3532,9514;0,0424386
3533,9155;0,0422643
3534,8799;0,0420242
3535,8440;0,0417283
3536,8083;0,0414199
3537,7725;0,0411543
3538,7368;0,0409697
3539,7009;0,0408673
3540,6653;0,0408111
3541,6294;0,0407414
3542,5938;0,0405952
3543,5579;0,0403324
3544,5222;0,0399631
3545,4863;0,0395536
3546,4507;0,0391903
3547,4148;0,0389199
3548,3792;0,0387211
3549,3433;0,0385261
3550,3076;0,0382684
3551,2717;0,0379247
3552,2361;0,0375323
3553,2002;0,0371679
3554,1646;0,0368978
3555,1287;0,0367369
3556,0930;0,0366497
3557,0571;0,0365849
3558,0215;0,0365121
3558,9856;0,0364388
3559,9500;0,0363985
3560,9141;0,0364158
3561,8784;0,0364726
3562,8425;0,0364971
3563,8069;0,0363776
3564,7710;0,0359999
3565,7354;0,0353238
3566,6995;0,0344754
3567,6638;0,0337185
3568,6279;0,0332559
3569,5923;0,0330892
3570,5564;0,0330814
3571,5208;0,033084
3572,4849;0,0330085
3573,4492;0,0328399
3574,4133;0,0326138
3575,3777;0,0323788
3576,3418;0,0321623
3577,3062;0,031966
3578,2703;0,0317895
3579,2346;0,0316538
3580,1987;0,0315983
3581,1631;0,0316472
3582,1272;0,0317748
3583,0916;0,0318972
3584,0557;0,0318936
3585,0200;0,0316512
3585,9841;0,0311406
3586,9485;0,0304959
3587,9126;0,0299777
3588,8770;0,0297747
3589,8411;0,0298641
3590,8054;0,0300764
3591,7695;0,03023
3592,7339;0,0302153
3593,6980;0,0300254
3594,6624;0,0297433
3595,6265;0,029478
3596,5908;0,0292807
3597,5549;0,0291164
3598,5193;0,0289127
3599,4834;0,0286343
3600,4478;0,0283199
3601,4119;0,0280515
3602,3762;0,0278822
3603,3403;0,0277914
3604,3047;0,0277006
3605,2688;0,02752
3606,2332;0,0271959
3607,1973;0,0267428
3608,1616;0,0262409
3609,1257;0,0257895
3610,0901;0,0254509
3611,0542;0,0252364
3612,0186;0,0251324
3612,9827;0,0251196
3613,9470;0,0251663
3614,9111;0,0252132
3615,8755;0,0251747
3616,8396;0,0249706
3617,8040;0,0245831
3618,7681;0,0241138
3619,7324;0,0237681
3620,6965;0,0237266
3621,6609;0,0240154
3622,6250;0,0245105
3623,5894;0,0250293
3624,5535;0,0253979
3625,5178;0,0254648
3626,4819;0,0251033
3627,4463;0,0242783
3628,4104;0,0231894
3629,3748;0,0222506
3630,3389;0,0217426
3631,3032;0,0216023
3632,2673;0,0215976
3633,2317;0,0215433
3634,1958;0,0213735
3635,1602;0,0211174
3636,1243;0,0208398
3637,0886;0,0205846
3638,0527;0,0203582
3639,0171;0,0201535
3639,9812;0,0199847
3640,9456;0,0198946
3641,9097;0,0199266
3642,8740;0,0200862
3643,8381;0,020323
3644,8025;0,0205365
3645,7666;0,0205789
3646,7310;0,0202546
3647,6951;0,0194011
3648,6594;0,018162
3649,6235;0,0170913
3650,5879;0,0166249
3651,5520;0,0166918
3652,5164;0,0169649
3653,4805;0,0171611
3654,4448;0,0171365
3655,4089;0,0168926
3656,3733;0,0165513
3657,3374;0,0162718
3658,3018;0,0161358
3659,2659;0,0161137
3660,2302;0,0161328
3661,1943;0,0161604
3662,1587;0,0162257
3663,1228;0,0163773
3664,0872;0,0166186
3665,0513;0,0168832
3666,0156;0,0170629
3666,9797;0,017065
3667,9441;0,0168731
3668,9082;0,0165917
3669,8726;0,0164027
3670,8367;0,0164078
3671,8010;0,0165235
3672,7651;0,0165496
3673,7295;0,0163089
3674,6936;0,0157739
3675,6580;0,015144
3676,6221;0,0147275
3677,5864;0,0146646
3678,5505;0,0148564
3679,5149;0,0151377
3680,4790;0,0154176
3681,4434;0,0156941
3682,4075;0,015998
3683,3718;0,0163328
3684,3359;0,0166499
3685,3003;0,0168665
3686,2644;0,0169017
3687,2288;0,0167127
3688,1929;0,016341
3689,1572;0,0159435
3690,1213;0,0157203
3691,0857;0,0157568
3692,0498;0,0159889
3693,0142;0,0163054
3693,9783;0,016629
3694,9426;0,0169249
3695,9067;0,0171744
3696,8711;0,0173533
3697,8352;0,0174304
3698,7996;0,0173844
3699,7637;0,0172293
3700,7280;0,0170316
3701,6921;0,0168976
3702,6565;0,0169211
3703,6206;0,0171275
3704,5850;0,0174653
3705,5491;0,0178411
3706,5134;0,0181515
3707,4775;0,0182871
3708,4419;0,0181241
3709,4060;0,0175586
3710,3704;0,0166329
3711,3345;0,0156421
3712,2988;0,0149714
3713,2629;0,0147953
3714,2273;0,0150282
3715,1914;0,0154861
3716,1558;0,0160159
3717,1199;0,0165332
3718,0842;0,017012
3719,0483;0,017456
3720,0127;0,0178692
3720,9768;0,0182328
3721,9412;0,0185061
3722,9053;0,0186507
3723,8696;0,0186671
3724,8337;0,0186132
3725,7981;0,0185811
3726,7622;0,0186401
3727,7266;0,0187986
3728,6907;0,0190123
3729,6550;0,0192181
3730,6191;0,0193542
3731,5835;0,0193542
3732,5476;0,0191311
3733,5120;0,0186012
3734,4761;0,0177988
3735,4404;0,0169738
3736,4045;0,016451
3737,3689;0,0163646
3738,3330;0,016604
3739,2974;0,0169455
3740,2615;0,0171715
3741,2258;0,017122
3742,1899;0,0167311
3743,1543;0,0160927
3744,1184;0,0154944
3745,0828;0,0152492
3746,0469;0,015411
3747,0112;0,0157442
3747,9753;0,0159233
3748,9397;0,0157023
3749,9038;0,0150513
3750,8682;0,0142687
3751,8323;0,0138087
3752,7966;0,0138602
3753,7607;0,0142506
3754,7251;0,0146928
3755,6892;0,0149732
3756,6536;0,0150011
3757,6177;0,0148113
3758,5820;0,0145436
3759,5461;0,0143648
3760,5105;0,0143617
3761,4746;0,0145065
3762,4390;0,0147096
3763,4031;0,0148865
3764,3674;0,0149883
3765,3315;0,0149994
3766,2959;0,0149205
3767,2600;0,0147552
3768,2244;0,0145151
3769,1885;0,0142412
3770,1528;0,0140149
3771,1169;0,0139265
3772,0813;0,0140188
3773,0454;0,0142579
3774,0098;0,0145533
3774,9739;0,0148007
3775,9382;0,0149189
3776,9023;0,014877
3777,8667;0,0147135
3778,8308;0,0145275
3779,7952;0,0144212
3780,7593;0,0144316
3781,7236;0,0145179
3782,6877;0,0146045
3783,6521;0,0146314
3784,6162;0,0145811
3785,5806;0,0144801
3786,5447;0,0143799
3787,5090;0,0143302
3788,4731;0,0143582
3789,4375;0,0144617
3790,4016;0,0146149
3791,3660;0,0147817
3792,3301;0,0149342
3793,2944;0,015067
3794,2585;0,0151997
3795,2229;0,0153594
3796,1870;0,0155479
3797,1514;0,0157192
3798,1155;0,0157883
3799,0798;0,0156767
3800,0439;0,0153798
3801,0083;0,015009
3801,9724;0,0147291
3802,9368;0,0146137
3803,9009;0,014584
3804,8652;0,0144957
3805,8293;0,0142718
3806,7937;0,0139845
3807,7578;0,0138218
3808,7222;0,013932
3809,6863;0,0142989
3810,6506;0,0147725
3811,6147;0,0151831
3812,5791;0,0154226
3813,5432;0,0154769
3814,5076;0,0154263
3815,4717;0,0153963
3816,4360;0,0154565
3817,4001;0,0155495
3818,3645;0,0155328
3819,3286;0,0152969
3820,2930;0,0148763
3821,2571;0,014462
3822,2214;0,0142556
3823,1855;0,014307
3824,1499;0,0145173
3825,1140;0,014753
3826,0784;0,0149295
3827,0425;0,0150307
3828,0068;0,0150871
3828,9709;0,0151416
3829,9353;0,0152226
3830,8994;0,0153362
3831,8638;0,0154731
3832,8279;0,0156144
3833,7922;0,0157321
3834,7563;0,0157886
3835,7207;0,015745
3836,6848;0,0155821
3837,6492;0,0153268
3838,6133;0,0150533
3839,5776;0,0148345
3840,5417;0,0146886
3841,5061;0,0145856
3842,4702;0,0145014
3843,4346;0,0144615
3844,3987;0,0145346
3845,3630;0,0147837
3846,3271;0,0152158
3847,2915;0,0157667
3848,2556;0,0163199
3849,2200;0,0167269
3850,1841;0,0168099
3851,1484;0,0163717
3852,1125;0,0153286
3853,0769;0,0140158
3854,0410;0,0131311
3855,0054;0,013034
3855,9695;0,0135101
3856,9338;0,0141901
3857,8979;0,0148248
3858,8623;0,0153018
3859,8264;0,0155908
3860,7908;0,0157032
3861,7549;0,0156786
3862,7192;0,0155858
3863,6833;0,0155092
3864,6477;0,0155062
3865,6118;0,0155712
3866,5762;0,0156468
3867,5403;0,0156617
3868,5046;0,0155651
3869,4688;0,0153492
3870,4331;0,0150608
3871,3972;0,0147886
3872,3616;0,0146214
3873,3257;0,014604
3874,2900;0,0147238
3875,2542;0,0149258
3876,2185;0,0151401
3877,1826;0,0153077
3878,1470;0,0153994
3879,1111;0,0154239
3880,0754;0,0154142
3881,0396;0,0153938
3882,0039;0,0153494
3882,9680;0,0152466
3883,9324;0,0150817
3884,8965;0,0149159
3885,8608;0,0148426
3886,8250;0,0149056
3887,7893;0,0150518
3888,7534;0,0151637
3889,7178;0,0151408
3890,6819;0,0149783
3891,6462;0,0147948
3892,6104;0,014757
3893,5747;0,0149433
3894,5388;0,0152937
3895,5032;0,0156792
3896,4673;0,0159864
3897,4316;0,0161546
3898,3958;0,0161755
3899,3601;0,0160722
3900,3242;0,015868
3901,2886;0,0155694
3902,2527;0,0151851
3903,2170;0,0147664
3904,1812;0,0144105
3905,1455;0,0142038
3906,1096;0,0141653
3907,0740;0,0142502
3908,0381;0,0143959
3909,0024;0,0145611
3909,9666;0,0147362
3910,9309;0,0149291
3911,8950;0,0151407
3912,8594;0,0153476
3913,8235;0,0155023
3914,7878;0,0155537
3915,7520;0,0154793
3916,7163;0,0153136
3917,6804;0,0151436
3918,6448;0,0150575
3919,6089;0,0150847
3920,5732;0,0151827
3921,5374;0,0152744
3922,5017;0,0152989
3923,4658;0,0152494
3924,4302;0,0151767
3925,3943;0,0151518
3926,3586;0,0152099
3927,3228;0,0153248
3928,2871;0,0154271
3929,2512;0,015445
3930,2156;0,0153438
3931,1797;0,0151494
3932,1440;0,0149382
3933,1082;0,0147911
3934,0725;0,0147477
3935,0366;0,0147988
3936,0010;0,0149093
3936,9651;0,0150407
3937,9294;0,0151611
3938,8936;0,015245
3939,8579;0,0152763
3940,8220;0,0152562
3941,7864;0,0152109
3942,7505;0,0151837
3943,7148;0,0152078
3944,6790;0,0152812
3945,6433;0,0153635
3946,6074;0,0153988
3947,5718;0,0153484
3948,5359;0,0152167
3949,5002;0,0150527
3950,4644;0,0149211
3951,4287;0,0148631
3952,3928;0,0148786
3953,3572;0,0149377
3954,3213;0,0150047
3955,2856;0,0150559
3956,2498;0,0150851
3957,2141;0,0150975
3958,1782;0,0150998
3959,1426;0,0150947
3960,1067;0,0150806
3961,0710;0,0150571
3962,0352;0,0150281
3962,9995;0,0150016
3963,9636;0,0149861
3964,9280;0,0149871
3965,8921;0,0150059
3966,8564;0,0150406
3967,8206;0,0150869
3968,7849;0,0151394
3969,7490;0,0151911
3970,7134;0,0152336
3971,6775;0,0152582
3972,6418;0,0152588
3973,6060;0,015234
3974,5703;0,0151896
3975,5344;0,0151364
3976,4988;0,0150868
3977,4629;0,0150494
3978,4272;0,0150258
3979,3914;0,0150114
3980,3557;0,014999
3981,3198;0,0149835
3982,2842;0,0149663
3983,2483;0,0149555
3984,2126;0,0149621
3985,1768;0,0149942
3986,1411;0,0150504
3987,1052;0,0151187
3988,0696;0,0151798
3989,0337;0,0152139
3989,9980;0,0152096
3990,9622;0,0151686
3991,9265;0,0151053
3992,8906;0,0150407
3993,8550;0,0149948
3994,8191;0,0149792
3995,7834;0,0149941
3996,7476;0,0150289
3997,7119;0,0150678
3998,6760;0,015097
3999,6404;0,0151113
4000,6045;0,0152038

##### Extended Information
[Comments]
Sample name
Comment
Username
Division
Organization;UNIVERSIDAD INDUSTRIAL DE SANTANDER

[Detailed Information]
Creation date;19/02/2025 3:18 p.m.

Data array type;Linear data array
Horizontal axis;Wavenumber [cm-1]
Vertical axis;Abs
Start;399,193 cm-1
End;4000,6 cm-1
Data interval;0,964233 cm-1
Data points;3736    

[Measurement Information]
Model name;FT/IR-4X1typeA
Serial No.;A035162111

Accessory;ATR PRO 4X
Accessory S/N;A021162126
Incident angle;45 deg

Measurement date;19/02/2025 3:17 p.m.

Light source;Standard
Detector;TGS
Accumulation;20
Resolution;4 cm-1
Zero filling;On
Apodization;Cosine
Gain;Auto (8)
Aperture;Auto (7 mm)
Scan speed;Auto (2 mm/sec)
Filter;Auto (12800 Hz)

