TITLE;
DATA TYPE;INFRARED SPECTRUM
ORIGIN;JASCO
OWNER;
DATE;25/03/14
TIME;15:55:40
SPECTROMETER/DATA SYSTEM;
LOCALE;9226
RESOLUTION;
DELTAX;0,964233
XUNITS;1/CM
YUNITS;ABSORBANCE
FIRSTX;  399,1927
LASTX; 4000,6047
NPOINTS;    3736
FIRSTY;     0,16482
MAXY;     0,20875
MINY;     0,00959
XYDATA
399,1927;0,164816
400,1569;0,165535
401,1211;0,165971
402,0854;0,165928
403,0496;0,165443
404,0138;0,164649
404,9781;0,163713
405,9423;0,162803
406,9065;0,162083
407,8708;0,161695
408,8350;0,161739
409,7992;0,162236
410,7635;0,163075
411,7277;0,164018
412,6919;0,164796
413,6562;0,165245
414,6204;0,165352
415,5846;0,165215
416,5489;0,164971
417,5131;0,164744
418,4773;0,164619
419,4416;0,164629
420,4058;0,164787
421,3700;0,165127
422,3343;0,165687
423,2985;0,166467
424,2627;0,167385
425,2270;0,16829
426,1912;0,169014
427,1554;0,169463
428,1197;0,169656
429,0839;0,169699
430,0481;0,169727
431,0124;0,169856
431,9766;0,170156
432,9408;0,170636
433,9051;0,171234
434,8693;0,171818
435,8335;0,172237
436,7978;0,172386
437,7620;0,172268
438,7262;0,171984
439,6905;0,171663
440,6547;0,171383
441,6189;0,17114
442,5832;0,170874
443,5474;0,170553
444,5116;0,17024
445,4759;0,170068
446,4401;0,170136
447,4043;0,170422
448,3686;0,17078
449,3328;0,171017
450,2970;0,170997
451,2613;0,170712
452,2255;0,170264
453,1897;0,169778
454,1540;0,16931
455,1182;0,168829
456,0824;0,168284
457,0467;0,167703
458,0109;0,167236
458,9751;0,167061
459,9394;0,167235
460,9036;0,167632
461,8678;0,168027
462,8321;0,168218
463,7963;0,168095
464,7605;0,16767
465,7248;0,167067
466,6890;0,166454
467,6532;0,16597
468,6175;0,165678
469,5817;0,165578
470,5459;0,165639
471,5102;0,165826
472,4744;0,166088
473,4386;0,166345
474,4029;0,166503
475,3671;0,166496
476,3313;0,166322
477,2956;0,166047
478,2598;0,165779
479,2240;0,165614
480,1883;0,165585
481,1525;0,165644
482,1167;0,165695
483,0810;0,165665
484,0452;0,165556
485,0094;0,165457
485,9737;0,165487
486,9379;0,16572
487,9021;0,166147
488,8664;0,166687
489,8306;0,167217
490,7948;0,167616
491,7591;0,167814
492,7233;0,167816
493,6875;0,167702
494,6518;0,167579
495,6160;0,167525
496,5802;0,167562
497,5445;0,167664
498,5087;0,16779
499,4729;0,167909
500,4372;0,168009
501,4014;0,168075
502,3656;0,168084
503,3299;0,168007
504,2941;0,167835
505,2583;0,167603
506,2226;0,167379
507,1868;0,167237
508,1510;0,167226
509,1153;0,16736
510,0795;0,167635
511,0437;0,168047
512,0080;0,168601
512,9722;0,16928
513,9365;0,170019
514,9007;0,170695
515,8649;0,17117
516,8292;0,171362
517,7934;0,171316
518,7576;0,171194
519,7219;0,171177
520,6861;0,171344
521,6503;0,171647
522,6146;0,171967
523,5788;0,1722
524,5430;0,172313
525,5073;0,172363
526,4715;0,172437
527,4357;0,172579
528,4000;0,172743
529,3642;0,172822
530,3284;0,172724
531,2927;0,172428
532,2569;0,171992
533,2211;0,171522
534,1854;0,171101
535,1496;0,170756
536,1138;0,170451
537,0781;0,170138
538,0423;0,169794
539,0065;0,169436
539,9708;0,169108
540,9350;0,168843
541,8992;0,168662
542,8635;0,168572
543,8277;0,168578
544,7919;0,16868
545,7562;0,168855
546,7204;0,169047
547,6846;0,169189
548,6489;0,169241
549,6131;0,169226
550,5773;0,169232
551,5416;0,169366
552,5058;0,169688
553,4700;0,170175
554,4343;0,17072
555,3985;0,171178
556,3627;0,171429
557,3270;0,171409
558,2912;0,171117
559,2554;0,170592
560,2197;0,169887
561,1839;0,169063
562,1481;0,168186
563,1124;0,167319
564,0766;0,16651
565,0408;0,165773
566,0051;0,165098
566,9693;0,164466
567,9335;0,163875
568,8978;0,163346
569,8620;0,162905
570,8262;0,162564
571,7905;0,162305
572,7547;0,16209
573,7189;0,161882
574,6832;0,161658
575,6474;0,161415
576,6116;0,161166
577,5759;0,160926
578,5401;0,160714
579,5043;0,160545
580,4686;0,160432
581,4328;0,160375
582,3970;0,160361
583,3613;0,160367
584,3255;0,160363
585,2897;0,160327
586,2540;0,160246
587,2182;0,160111
588,1824;0,159924
589,1467;0,159691
590,1109;0,159434
591,0751;0,159182
592,0394;0,15896
593,0036;0,158771
593,9678;0,158583
594,9321;0,158346
595,8963;0,158017
596,8605;0,157584
597,8248;0,157075
598,7890;0,156556
599,7532;0,1561
600,7175;0,155758
601,6817;0,155534
602,6459;0,155387
603,6102;0,155253
604,5744;0,155068
605,5386;0,154795
606,5029;0,154432
607,4671;0,154001
608,4313;0,153528
609,3956;0,153027
610,3598;0,152489
611,3240;0,151896
612,2883;0,151244
613,2525;0,150548
614,2167;0,149843
615,1810;0,149166
616,1452;0,148529
617,1094;0,14791
618,0737;0,147262
619,0379;0,146537
620,0021;0,14571
620,9664;0,144789
621,9306;0,143802
622,8948;0,142791
623,8591;0,141801
624,8233;0,140854
625,7875;0,140012
626,7518;0,139283
627,7160;0,138656
628,6802;0,138101
629,6445;0,137588
630,6087;0,137094
631,5729;0,136608
632,5372;0,136126
633,5014;0,135648
634,4656;0,135166
635,4299;0,134674
636,3941;0,134164
637,3583;0,133641
638,3226;0,133118
639,2868;0,132613
640,2510;0,132142
641,2153;0,131708
642,1795;0,131306
643,1437;0,13093
644,1080;0,130579
645,0722;0,130255
646,0364;0,129961
647,0007;0,129686
647,9649;0,129413
648,9291;0,129128
649,8934;0,128824
650,8576;0,128518
651,8218;0,128236
652,7861;0,128003
653,7503;0,127837
654,7145;0,127739
655,6788;0,127694
656,6430;0,127677
657,6072;0,127667
658,5715;0,127654
659,5357;0,127638
660,4999;0,127615
661,4642;0,127546
662,4284;0,127352
663,3926;0,126918
664,3569;0,126128
665,3211;0,124923
666,2853;0,123351
667,2496;0,121617
668,2138;0,120092
669,1780;0,119164
670,1423;0,118892
671,1065;0,118892
672,0707;0,1187
673,0350;0,11806
673,9992;0,116954
674,9634;0,115532
675,9277;0,114018
676,8919;0,112592
677,8561;0,111322
678,8204;0,110182
679,7846;0,109139
680,7488;0,108192
681,7131;0,107371
682,6773;0,106681
683,6415;0,106092
684,6058;0,105556
685,5700;0,105041
686,5342;0,104544
687,4985;0,104089
688,4627;0,103703
689,4269;0,103399
690,3912;0,103169
691,3554;0,102991
692,3196;0,102831
693,2839;0,102651
694,2481;0,102428
695,2123;0,102158
696,1766;0,101861
697,1408;0,101564
698,1050;0,10128
699,0693;0,101003
700,0335;0,10071
700,9977;0,100387
701,9620;0,100038
702,9262;0,0996804
703,8904;0,0993252
704,8547;0,0989749
705,8189;0,0986159
706,7831;0,0982326
707,7474;0,0978221
708,7116;0,0973974
709,6758;0,0969789
710,6401;0,0965793
711,6043;0,0961946
712,5685;0,0958068
713,5328;0,0953953
714,4970;0,0949471
715,4612;0,0941262
716,4255;0,0936772
717,3897;0,0932242
718,3539;0,0927464
719,3182;0,0922137
720,2824;0,0916078
721,2466;0,0909395
722,2109;0,0902452
723,1751;0,089567
724,1393;0,0889309
725,1036;0,0883375
726,0678;0,0877667
727,0320;0,0871905
727,9963;0,0865892
728,9605;0,0859613
729,9247;0,0853246
730,8890;0,084707
731,8532;0,0841327
732,8174;0,0836113
733,7817;0,083136
734,7459;0,0826912
735,7101;0,0822645
736,6744;0,0818547
737,6386;0,0814703
738,6028;0,0811191
739,5671;0,0807978
740,5313;0,0804892
741,4955;0,0801696
742,4598;0,0798223
743,4240;0,0794451
744,3882;0,0790484
745,3525;0,0786442
746,3167;0,0782354
747,2809;0,077814
748,2452;0,0773693
749,2094;0,0769002
750,1736;0,0764213
751,1379;0,0759576
752,1021;0,0755317
753,0663;0,0751519
754,0306;0,0748091
754,9948;0,0744845
755,9590;0,074161
756,9233;0,0738295
757,8875;0,0734883
758,8517;0,073139
759,8160;0,0727837
760,7802;0,072428
761,7444;0,072083
762,7087;0,0717642
763,6729;0,0714824
764,6371;0,0712354
765,6014;0,0710053
766,5656;0,0707667
767,5298;0,0704997
768,4941;0,0701985
769,4583;0,0698721
770,4225;0,0695365
771,3868;0,0692061
772,3510;0,0688902
773,3152;0,0685939
774,2795;0,0683206
775,2437;0,068072
776,2079;0,0678467
777,1722;0,0676399
778,1364;0,067445
779,1006;0,0672558
780,0649;0,0670654
781,0291;0,0668639
781,9933;0,0666368
782,9576;0,0663692
783,9218;0,0660562
784,8860;0,0657108
785,8503;0,0653633
786,8145;0,0650486
787,7787;0,0647897
788,7430;0,0645861
789,7072;0,064418
790,6714;0,0642602
791,6357;0,0640988
792,5999;0,0639368
793,5641;0,0637872
794,5284;0,0636598
795,4926;0,0635522
796,4568;0,0634508
797,4211;0,0633412
798,3853;0,0632175
799,3495;0,0630843
800,3138;0,0629508
801,2780;0,062822
802,2422;0,0626958
803,2065;0,0625664
804,1707;0,0624314
805,1349;0,0622968
806,0992;0,062176
807,0634;0,0620829
808,0276;0,0620234
808,9919;0,06199
809,9561;0,0619607
810,9203;0,0619061
811,8846;0,0618009
812,8488;0,0616364
813,8130;0,061427
814,7773;0,061206
815,7415;0,0610101
816,7057;0,0608608
817,6700;0,060753
818,6342;0,0606583
819,5984;0,0605422
820,5627;0,0603833
821,5269;0,0601842
822,4911;0,0599679
823,4554;0,0597637
824,4196;0,059593
825,3839;0,0594616
826,3481;0,059362
827,3123;0,0592785
828,2766;0,059194
829,2408;0,059093
830,2050;0,0589647
831,1693;0,0588059
832,1335;0,0586225
833,0977;0,0584266
834,0620;0,0582307
835,0262;0,0580402
835,9904;0,0578511
836,9547;0,0576539
837,9189;0,0574421
838,8831;0,0572177
839,8474;0,0569912
840,8116;0,0567751
841,7758;0,0565769
842,7401;0,0563956
843,7043;0,0562252
844,6685;0,0560615
845,6328;0,0559072
846,5970;0,0557722
847,5612;0,0556694
848,5255;0,0556079
849,4897;0,055588
850,4539;0,0555989
851,4182;0,0556218
852,3824;0,0556364
853,3466;0,0556288
854,3109;0,0555976
855,2751;0,0555532
856,2393;0,0555123
857,2036;0,0554882
858,1678;0,055484
859,1320;0,0554927
860,0963;0,055504
861,0605;0,0555125
862,0247;0,0555224
862,9890;0,0555447
863,9532;0,055591
864,9174;0,0556673
865,8817;0,0557733
866,8459;0,0559052
867,8101;0,0560599
868,7744;0,0562345
869,7386;0,0564248
870,7028;0,056623
871,6671;0,0568192
872,6313;0,057005
873,5955;0,0571771
874,5598;0,0573381
875,5240;0,0574936
876,4882;0,0576495
877,4525;0,0578116
878,4167;0,0579872
879,3809;0,0581859
880,3452;0,0584196
881,3094;0,0587
882,2736;0,0590385
883,2379;0,0594468
884,2021;0,0599395
885,1663;0,0605311
886,1306;0,0612306
887,0948;0,0620333
888,0590;0,0629182
889,0233;0,063853
889,9875;0,0648039
890,9517;0,0657429
891,9160;0,0666477
892,8802;0,067494
893,8444;0,0682482
894,8087;0,0688672
895,7729;0,0693058
896,7371;0,0695288
897,7014;0,0695199
898,6656;0,0692828
899,6298;0,0688381
900,5941;0,0682178
901,5583;0,0674617
902,5225;0,0666135
903,4868;0,0657162
904,4510;0,0648085
905,4152;0,063923
906,3795;0,0630881
907,3437;0,062332
908,3079;0,061683
909,2722;0,0611636
910,2364;0,0607809
911,2007;0,0605205
912,1649;0,0603503
913,1292;0,060234
914,0934;0,0601467
915,0576;0,0600841
916,0219;0,0600588
916,9861;0,0600879
917,9503;0,0601797
918,9146;0,0603281
919,8788;0,0605171
920,8430;0,0607294
921,8073;0,0609531
922,7715;0,0611829
923,7357;0,0614168
924,7000;0,0616533
925,6642;0,0618918
926,6284;0,0621358
927,5927;0,0623929
928,5569;0,0626718
929,5211;0,062976
930,4854;0,0633005
931,4496;0,0636347
932,4138;0,0639709
933,3781;0,0643116
934,3423;0,0646714
935,3065;0,0650698
936,2708;0,0655223
937,2350;0,0660339
938,1992;0,066601
939,1635;0,0672182
940,1277;0,067885
941,0919;0,0686063
942,0562;0,0693886
943,0204;0,0702342
943,9846;0,0711397
944,9489;0,0720987
945,9131;0,0731075
946,8773;0,074169
947,8416;0,0752925
948,8058;0,0764903
949,7700;0,0777725
950,7343;0,0791418
951,6985;0,0805921
952,6627;0,0821094
953,6270;0,083676
954,5912;0,0852764
955,5554;0,0869024
956,5197;0,0885534
957,4839;0,0902327
958,4481;0,091941
959,4124;0,0936719
960,3766;0,0954119
961,3408;0,0971445
962,3051;0,098856
963,2693;0,100539
964,2335;0,102193
965,1978;0,103823
966,1620;0,105435
967,1262;0,10704
968,0905;0,10865
969,0547;0,110281
970,0189;0,111952
970,9832;0,113689
971,9474;0,115522
972,9116;0,117483
973,8759;0,119598
974,8401;0,121886
975,8043;0,124348
976,7686;0,126967
977,7328;0,129714
978,6970;0,132548
979,6613;0,135419
980,6255;0,138267
981,5897;0,141027
982,5540;0,143633
983,5182;0,146033
984,4824;0,148194
985,4467;0,15011
986,4109;0,151795
987,3751;0,153274
988,3394;0,154576
989,3036;0,155726
990,2678;0,156749
991,2321;0,157672
992,1963;0,15852
993,1605;0,159315
994,1248;0,16008
995,0890;0,160834
996,0532;0,161592
997,0175;0,162374
997,9817;0,163194
998,9459;0,164064
999,9102;0,164989
1000,8744;0,165966
1001,8386;0,166994
1002,8029;0,168076
1003,7671;0,169223
1004,7313;0,170459
1005,6956;0,171812
1006,6598;0,173315
1007,6240;0,174995
1008,5883;0,176877
1009,5525;0,178969
1010,5167;0,181263
1011,4810;0,183728
1012,4452;0,186301
1013,4094;0,188896
1014,3737;0,191415
1015,3379;0,193771
1016,3021;0,195896
1017,2664;0,197763
1018,2306;0,199372
1019,1948;0,200754
1020,1591;0,201948
1021,1233;0,202997
1022,0875;0,203942
1023,0518;0,204811
1024,0160;0,205621
1024,9802;0,206377
1025,9445;0,20707
1026,9087;0,207683
1027,8729;0,208189
1028,8372;0,208557
1029,8014;0,208747
1030,7656;0,208717
1031,7299;0,208423
1032,6941;0,207832
1033,6583;0,206929
1034,6226;0,205734
1035,5868;0,204302
1036,5510;0,202719
1037,5153;0,201089
1038,4795;0,199521
1039,4437;0,198105
1040,4080;0,1969
1041,3722;0,195922
1042,3364;0,195143
1043,3007;0,194503
1044,2649;0,193927
1045,2291;0,193341
1046,1934;0,192685
1047,1576;0,191924
1048,1218;0,191039
1049,0861;0,190016
1050,0503;0,188847
1051,0145;0,187518
1051,9788;0,186027
1052,9430;0,184383
1053,9072;0,182612
1054,8715;0,180747
1055,8357;0,178809
1056,7999;0,176798
1057,7642;0,174685
1058,7284;0,172429
1059,6926;0,17
1060,6569;0,167402
1061,6211;0,164677
1062,5853;0,161902
1063,5496;0,159167
1064,5138;0,156553
1065,4780;0,154117
1066,4423;0,151884
1067,4065;0,149855
1068,3707;0,14801
1069,3350;0,146316
1070,2992;0,144733
1071,2634;0,143217
1072,2277;0,14173
1073,1919;0,140238
1074,1561;0,138716
1075,1204;0,13715
1076,0846;0,135542
1077,0488;0,133906
1078,0131;0,132271
1078,9773;0,130679
1079,9415;0,129177
1080,9058;0,127806
1081,8700;0,126592
1082,8342;0,125542
1083,7985;0,124642
1084,7627;0,123862
1085,7269;0,123166
1086,6912;0,122522
1087,6554;0,121909
1088,6196;0,121319
1089,5839;0,120755
1090,5481;0,120226
1091,5123;0,119744
1092,4766;0,119319
1093,4408;0,118956
1094,4050;0,11865
1095,3693;0,118393
1096,3335;0,11817
1097,2977;0,117968
1098,2620;0,117782
1099,2262;0,117614
1100,1904;0,117471
1101,1547;0,117358
1102,1189;0,117271
1103,0831;0,117191
1104,0474;0,117091
1105,0116;0,116942
1105,9758;0,11672
1106,9401;0,116417
1107,9043;0,116028
1108,8685;0,115551
1109,8328;0,114971
1110,7970;0,114271
1111,7612;0,113433
1112,7255;0,112454
1113,6897;0,111357
1114,6539;0,110188
1115,6182;0,109007
1116,5824;0,107871
1117,5466;0,106815
1118,5109;0,105845
1119,4751;0,104934
1120,4393;0,104033
1121,4036;0,103079
1122,3678;0,102009
1123,3320;0,100779
1124,2963;0,099363
1125,2605;0,0977635
1126,2247;0,0960038
1127,1890;0,0941205
1128,1532;0,0921535
1129,1174;0,0901394
1130,0817;0,0881095
1131,0459;0,086092
1132,0101;0,0841163
1132,9744;0,0822166
1133,9386;0,0804313
1134,9028;0,0788001
1135,8671;0,077358
1136,8313;0,0761299
1137,7955;0,075128
1138,7598;0,0743519
1139,7240;0,0737913
1140,6882;0,0734285
1141,6525;0,0732407
1142,6167;0,0732019
1143,5809;0,0732848
1144,5452;0,0734655
1145,5094;0,0737269
1146,4736;0,0740613
1147,4379;0,0744684
1148,4021;0,0749503
1149,3663;0,0755042
1150,3306;0,0761185
1151,2948;0,0767715
1152,2590;0,0774342
1153,2233;0,0780718
1154,1875;0,0786458
1155,1517;0,079114
1156,1160;0,0794311
1157,0802;0,0795511
1158,0444;0,079431
1159,0087;0,079034
1159,9729;0,0783305
1160,9371;0,0772997
1161,9014;0,0759322
1162,8656;0,0742354
1163,8298;0,0722397
1164,7941;0,070001
1165,7583;0,0675971
1166,7225;0,0651167
1167,6868;0,0626452
1168,6510;0,060253
1169,6152;0,0579898
1170,5795;0,0558865
1171,5437;0,0539605
1172,5079;0,0522214
1173,4722;0,0506729
1174,4364;0,0493116
1175,4006;0,0481255
1176,3649;0,0470957
1177,3291;0,0462015
1178,2933;0,0454262
1179,2576;0,0447604
1180,2218;0,0442014
1181,1860;0,0437477
1182,1503;0,043395
1183,1145;0,0431331
1184,0787;0,0429487
1185,0430;0,0428297
1186,0072;0,0427695
1186,9714;0,0427688
1187,9357;0,0428346
1188,8999;0,0429751
1189,8641;0,0431958
1190,8284;0,0434964
1191,7926;0,0438716
1192,7568;0,0443139
1193,7211;0,0448167
1194,6853;0,0453755
1195,6495;0,0459851
1196,6138;0,0466368
1197,5780;0,0473167
1198,5422;0,0480083
1199,5065;0,0487813
1200,4707;0,0494486
1201,4349;0,0501025
1202,3992;0,0507453
1203,3634;0,0513784
1204,3276;0,0519994
1205,2919;0,0526038
1206,2561;0,0531894
1207,2203;0,0537597
1208,1846;0,0543257
1209,1488;0,054904
1210,1130;0,0555137
1211,0773;0,0561719
1212,0415;0,0568896
1213,0057;0,0576683
1213,9700;0,0584987
1214,9342;0,059362
1215,8984;0,0602347
1216,8627;0,0610946
1217,8269;0,0619255
1218,7911;0,062717
1219,7554;0,0634647
1220,7196;0,0641676
1221,6838;0,0648277
1222,6481;0,0654491
1223,6123;0,0660372
1224,5765;0,0665974
1225,5408;0,0671312
1226,5050;0,0676353
1227,4692;0,0681029
1228,4335;0,0685274
1229,3977;0,0689062
1230,3619;0,0692418
1231,3262;0,0695391
1232,2904;0,0698011
1233,2546;0,0700278
1234,2189;0,0702171
1235,1831;0,0703687
1236,1473;0,0704867
1237,1116;0,0705784
1238,0758;0,0706502
1239,0400;0,0707037
1240,0043;0,0707341
1240,9685;0,0707334
1241,9327;0,0706951
1242,8970;0,0706167
1243,8612;0,0704996
1244,8254;0,070346
1245,7897;0,0701568
1246,7539;0,0699313
1247,7181;0,06967
1248,6824;0,0693783
1249,6466;0,0690677
1250,6108;0,0687534
1251,5751;0,0684506
1252,5393;0,0681698
1253,5035;0,0679134
1254,4678;0,0676759
1255,4320;0,067446
1256,3962;0,0672106
1257,3605;0,0669588
1258,3247;0,0666837
1259,2889;0,0663827
1260,2532;0,0660544
1261,2174;0,0656959
1262,1816;0,0653001
1263,1459;0,0648575
1264,1101;0,0643593
1265,0743;0,0638009
1266,0386;0,0631838
1267,0028;0,062514
1267,9670;0,0618003
1268,9313;0,0610527
1269,8955;0,0602808
1270,8597;0,059494
1271,8240;0,0587002
1272,7882;0,0579036
1273,7524;0,0571053
1274,7167;0,056305
1275,6809;0,055505
1276,6451;0,0547125
1277,6094;0,0539383
1278,5736;0,0531932
1279,5378;0,0524829
1280,5021;0,0518068
1281,4663;0,0511599
1282,4305;0,0505376
1283,3948;0,0499391
1284,3590;0,0493681
1285,3232;0,0488319
1286,2875;0,0483401
1287,2517;0,0479046
1288,2159;0,0475381
1289,1802;0,0472508
1290,1444;0,0470461
1291,1086;0,0469185
1292,0729;0,0468553
1293,0371;0,0468422
1294,0013;0,0468703
1294,9656;0,0469386
1295,9298;0,0470533
1296,8940;0,0472226
1297,8583;0,0474512
1298,8225;0,047738
1299,7867;0,0480766
1300,7510;0,0484578
1301,7152;0,048872
1302,6794;0,049313
1303,6437;0,0497793
1304,6079;0,0502729
1305,5721;0,0507969
1306,5364;0,0513512
1307,5006;0,0519288
1308,4648;0,0525172
1309,4291;0,0531029
1310,3933;0,053676
1311,3575;0,0542315
1312,3218;0,0547646
1313,2860;0,0552637
1314,2502;0,0557065
1315,2145;0,0560632
1316,1787;0,0563063
1317,1429;0,0564232
1318,1072;0,0564244
1319,0714;0,0563414
1320,0356;0,0562139
1320,9999;0,0560732
1321,9641;0,0559323
1322,9283;0,0557898
1323,8926;0,0556387
1324,8568;0,0554761
1325,8210;0,0553051
1326,7853;0,0551319
1327,7495;0,0549608
1328,7137;0,0547904
1329,6780;0,0546152
1330,6422;0,0544276
1331,6064;0,0542206
1332,5707;0,053987
1333,5349;0,0537142
1334,4991;0,0533809
1335,4634;0,0529591
1336,4276;0,052426
1337,3918;0,051789
1338,3561;0,0511073
1339,3203;0,0504809
1340,2845;0,0499948
1341,2488;0,0496674
1342,2130;0,0494548
1343,1772;0,0492938
1344,1415;0,0491378
1345,1057;0,0489699
1346,0699;0,0488017
1347,0342;0,0486631
1347,9984;0,0485871
1348,9626;0,0485938
1349,9269;0,0486831
1350,8911;0,0488379
1351,8553;0,0490354
1352,8196;0,0492601
1353,7838;0,049513
1354,7480;0,0498099
1355,7123;0,050167
1356,6765;0,0505839
1357,6407;0,0510362
1358,6050;0,051484
1359,5692;0,0518897
1360,5334;0,0522402
1361,4977;0,0525617
1362,4619;0,0529036
1363,4261;0,0532931
1364,3904;0,053711
1365,3546;0,054114
1366,3188;0,0544669
1367,2831;0,0547545
1368,2473;0,0549754
1369,2115;0,0551307
1370,1758;0,0552118
1371,1400;0,0551956
1372,1042;0,0550558
1373,0685;0,054789
1374,0327;0,0544356
1374,9969;0,0540637
1375,9612;0,0537167
1376,9254;0,0533779
1377,8896;0,0529869
1378,8539;0,0524845
1379,8181;0,0518536
1380,7823;0,0511333
1381,7466;0,0503936
1382,7108;0,0496843
1383,6750;0,0489976
1384,6393;0,0482781
1385,6035;0,0474777
1386,5677;0,0466266
1387,5320;0,0458437
1388,4962;0,0452502
1389,4604;0,044878
1390,4247;0,044671
1391,3889;0,0445381
1392,3531;0,0443938
1393,3174;0,0441862
1394,2816;0,0439214
1395,2458;0,0436636
1396,2101;0,0434941
1397,1743;0,0434609
1398,1385;0,043561
1399,1028;0,0437586
1400,0670;0,0440111
1401,0313;0,0442837
1401,9955;0,0445551
1402,9597;0,0448189
1403,9240;0,0450848
1404,8882;0,0453758
1405,8524;0,0457141
1406,8167;0,0461048
1407,7809;0,046537
1408,7451;0,0469998
1409,7094;0,0474935
1410,6736;0,0480282
1411,6378;0,0486122
1412,6021;0,0492412
1413,5663;0,0498969
1414,5305;0,0505496
1415,4948;0,051158
1416,4590;0,0516704
1417,4232;0,0520511
1418,3875;0,0523128
1419,3517;0,0524957
1420,3159;0,0526103
1421,2802;0,052636
1422,2444;0,05256
1423,2086;0,0523925
1424,1729;0,052158
1425,1371;0,0518768
1426,1013;0,0515404
1427,0656;0,0511007
1428,0298;0,0504969
1428,9940;0,0497178
1429,9583;0,0488495
1430,9225;0,0480412
1431,8867;0,047401
1432,8510;0,0469201
1433,8152;0,0464785
1434,7794;0,0459186
1435,7437;0,0451707
1436,7079;0,044352
1437,6721;0,0436786
1438,6364;0,0432678
1439,6006;0,0430981
1440,5648;0,043103
1441,5291;0,0432288
1442,4933;0,0434402
1443,4575;0,0437128
1444,4218;0,0440296
1445,3860;0,0443772
1446,3502;0,0447444
1447,3145;0,0451203
1448,2787;0,0454947
1449,2429;0,0458615
1450,2072;0,0462279
1451,1714;0,0466157
1452,1356;0,0470425
1453,0999;0,0474794
1454,0641;0,0478052
1455,0283;0,0478052
1455,9926;0,047329
1456,9568;0,0466071
1457,9210;0,0461453
1458,8853;0,046097
1459,8495;0,046267
1460,8137;0,0464798
1461,7780;0,0466155
1462,7422;0,0465343
1463,7064;0,0461021
1464,6707;0,0453146
1465,6349;0,0443554
1466,5991;0,043451
1467,5634;0,0426933
1468,5276;0,0420135
1469,4918;0,0412269
1470,4561;0,0400838
1471,4203;0,0383935
1472,3845;0,036263
1473,3488;0,0341784
1474,3130;0,032595
1475,2772;0,0315491
1476,2415;0,0308274
1477,2057;0,0302488
1478,1699;0,0297314
1479,1342;0,0292549
1480,0984;0,0288265
1481,0626;0,0284666
1482,0269;0,028199
1482,9911;0,0280379
1483,9553;0,0279739
1484,9196;0,027966
1485,8838;0,0279481
1486,8480;0,0278615
1487,8123;0,0277295
1488,7765;0,0277087
1489,7407;0,0279697
1490,7050;0,0285025
1491,6692;0,0291652
1492,6334;0,0298547
1493,5977;0,0305391
1494,5619;0,0312058
1495,5261;0,0318444
1496,4904;0,0324772
1497,4546;0,0331706
1498,4188;0,0339645
1499,3831;0,0348261
1500,3473;0,035716
1501,3115;0,0366378
1502,2758;0,0375971
1503,2400;0,0385274
1504,2042;0,0392229
1505,1685;0,0393362
1506,1327;0,0386434
1507,0969;0,037569
1508,0612;0,0368798
1509,0254;0,0366777
1509,9896;0,036651
1510,9539;0,0366114
1511,9181;0,0364798
1512,8823;0,0361843
1513,8466;0,0356552
1514,8108;0,0348793
1515,7750;0,033944
1516,7393;0,032997
1517,7035;0,0321366
1518,6677;0,0313377
1519,6320;0,0304955
1520,5962;0,0295528
1521,5604;0,0285878
1522,5247;0,0277565
1523,4889;0,0271584
1524,4531;0,0267902
1525,4174;0,0265947
1526,3816;0,0265171
1527,3458;0,0265267
1528,3101;0,0266087
1529,2743;0,0267442
1530,2385;0,0268956
1531,2028;0,0270133
1532,1670;0,027079
1533,1312;0,0271498
1534,0955;0,0273278
1535,0597;0,0276741
1536,0239;0,0281694
1536,9882;0,028708
1537,9524;0,0290694
1538,9166;0,0289397
1539,8809;0,0281833
1540,8451;0,0272652
1541,8093;0,0268546
1542,7736;0,0269746
1543,7378;0,0272966
1544,7020;0,0276283
1545,6663;0,0279151
1546,6305;0,0281483
1547,5947;0,0283304
1548,5590;0,0284673
1549,5232;0,0285661
1550,4874;0,0286402
1551,4517;0,0287192
1552,4159;0,0288471
1553,3801;0,0290643
1554,3444;0,0293754
1555,3086;0,0297052
1556,2728;0,0298634
1557,2371;0,0296289
1558,2013;0,0291016
1559,1655;0,0287827
1560,1298;0,0288008
1561,0940;0,0288988
1562,0582;0,0289991
1563,0225;0,0291675
1563,9867;0,0294432
1564,9509;0,0297957
1565,9152;0,0301491
1566,8794;0,0304344
1567,8436;0,0306517
1568,8079;0,03089
1569,7721;0,0312494
1570,7363;0,031746
1571,7006;0,0323256
1572,6648;0,0329243
1573,6290;0,0334847
1574,5933;0,0339628
1575,5575;0,0343768
1576,5217;0,0348235
1577,4860;0,0353683
1578,4502;0,0359827
1579,4144;0,0366306
1580,3787;0,0373118
1581,3429;0,0380277
1582,3071;0,0387608
1583,2714;0,039488
1584,2356;0,0402016
1585,1998;0,0409103
1586,1641;0,0416234
1587,1283;0,0423343
1588,0925;0,043017
1589,0568;0,0436369
1590,0210;0,0441631
1590,9852;0,0445739
1591,9495;0,0448538
1592,9137;0,0449933
1593,8779;0,0449958
1594,8422;0,0448841
1595,8064;0,0446945
1596,7706;0,0444596
1597,7349;0,0441961
1598,6991;0,0439074
1599,6633;0,0435959
1600,6276;0,043274
1601,5918;0,0429649
1602,5560;0,0426919
1603,5203;0,0424641
1604,4845;0,0422706
1605,4487;0,042086
1606,4130;0,0418871
1607,3772;0,0416711
1608,3414;0,04147
1609,3057;0,0413419
1610,2699;0,0413358
1611,2341;0,0414606
1612,1984;0,0416788
1613,1626;0,0419102
1614,1268;0,0420465
1615,0911;0,0420112
1616,0553;0,0418552
1617,0195;0,0417426
1617,9838;0,0417785
1618,9480;0,0419372
1619,9122;0,0421465
1620,8765;0,0423433
1621,8407;0,0424857
1622,8049;0,0425746
1623,7692;0,0426598
1624,7334;0,0427928
1625,6976;0,0429797
1626,6619;0,0431935
1627,6261;0,0434148
1628,5903;0,0436528
1629,5546;0,0439388
1630,5188;0,0442995
1631,4830;0,0447212
1632,4473;0,0451122
1633,4115;0,0452905
1634,3757;0,0450742
1635,3400;0,0445184
1636,3042;0,0439916
1637,2684;0,0437781
1638,2327;0,043839
1639,1969;0,0440416
1640,1611;0,0443196
1641,1254;0,0446526
1642,0896;0,0450094
1643,0538;0,0453008
1644,0181;0,0453636
1644,9823;0,0450409
1645,9465;0,0443958
1646,9108;0,0438061
1647,8750;0,0436367
1648,8392;0,0439323
1649,8035;0,0444929
1650,7677;0,0449678
1651,7319;0,0448785
1652,6962;0,0439405
1653,6604;0,0426244
1654,6246;0,0416543
1655,5889;0,0411234
1656,5531;0,0408445
1657,5173;0,0407003
1658,4816;0,0405969
1659,4458;0,0404071
1660,4100;0,0400042
1661,3743;0,0393667
1662,3385;0,0386409
1663,3027;0,0380328
1664,2670;0,0376375
1665,2312;0,0374022
1666,1954;0,037181
1667,1597;0,0367906
1668,1239;0,0360981
1669,0881;0,0351581
1670,0524;0,0342345
1671,0166;0,0335712
1671,9808;0,0331835
1672,9451;0,0329148
1673,9093;0,0325877
1674,8735;0,0321066
1675,8378;0,0315048
1676,8020;0,03091
1677,7662;0,030448
1678,7305;0,0301786
1679,6947;0,0300767
1680,6589;0,0300177
1681,6232;0,0297778
1682,5874;0,0291443
1683,5516;0,0281718
1684,5159;0,0272223
1685,4801;0,0265369
1686,4443;0,0260662
1687,4086;0,0257131
1688,3728;0,0254513
1689,3370;0,0252974
1690,3013;0,0252692
1691,2655;0,0253576
1692,2297;0,0255121
1693,1940;0,0256449
1694,1582;0,0256604
1695,1224;0,0255064
1696,0867;0,0252216
1697,0509;0,0249255
1698,0151;0,0247299
1698,9794;0,0246452
1699,9436;0,0245822
1700,9078;0,0244535
1701,8721;0,024257
1702,8363;0,0240633
1703,8005;0,0239532
1704,7648;0,0239745
1705,7290;0,0241359
1706,6932;0,0244149
1707,6575;0,0247725
1708,6217;0,025176
1709,5859;0,0256147
1710,5502;0,0260917
1711,5144;0,0265999
1712,4786;0,0271039
1713,4429;0,0275376
1714,4071;0,0278282
1715,3713;0,0279664
1716,3356;0,0280861
1717,2998;0,0283803
1718,2640;0,028861
1719,2283;0,029376
1720,1925;0,0298347
1721,1567;0,0302567
1722,1210;0,0306894
1723,0852;0,0311518
1724,0494;0,0316267
1725,0137;0,0320788
1725,9779;0,0324794
1726,9421;0,0328255
1727,9064;0,0331403
1728,8706;0,0334513
1729,8348;0,0337537
1730,7991;0,0339816
1731,7633;0,0340213
1732,7275;0,0338033
1733,6918;0,0334036
1734,6560;0,0329829
1735,6202;0,0326256
1736,5845;0,0323152
1737,5487;0,0319898
1738,5129;0,0315736
1739,4772;0,0310089
1740,4414;0,0303009
1741,4056;0,0295253
1742,3699;0,0287699
1743,3341;0,0280743
1744,2983;0,0274262
1745,2626;0,0267901
1746,2268;0,026122
1747,1910;0,0253741
1748,1553;0,0245152
1749,1195;0,0235756
1750,0837;0,0226556
1751,0480;0,0218567
1752,0122;0,0212087
1752,9764;0,0206759
1753,9407;0,0201989
1754,9049;0,0197261
1755,8691;0,0192338
1756,8334;0,0187326
1757,7976;0,0182477
1758,7618;0,0177867
1759,7261;0,0173296
1760,6903;0,0168562
1761,6545;0,0163829
1762,6188;0,0159617
1763,5830;0,0156397
1764,5472;0,0154248
1765,5115;0,0152857
1766,4757;0,0151726
1767,4399;0,0150351
1768,4042;0,0148331
1769,3684;0,0145415
1770,3326;0,0141613
1771,2969;0,0137388
1772,2611;0,0133607
1773,2253;0,0130998
1774,1896;0,012966
1775,1538;0,0129242
1776,1180;0,0129312
1777,0823;0,0129476
1778,0465;0,0129401
1779,0107;0,0128948
1779,9750;0,012828
1780,9392;0,0127718
1781,9034;0,0127438
1782,8677;0,0127348
1783,8319;0,0127248
1784,7961;0,0127086
1785,7604;0,0127038
1786,7246;0,0127368
1787,6888;0,0128162
1788,6531;0,0129112
1789,6173;0,0129513
1790,5815;0,0128643
1791,5458;0,0126458
1792,5100;0,0123874
1793,4742;0,0121975
1794,4385;0,0121162
1795,4027;0,0121234
1796,3669;0,0121798
1797,3312;0,0122411
1798,2954;0,0122668
1799,2596;0,0122396
1800,2239;0,0121777
1801,1881;0,0121198
1802,1523;0,012095
1803,1166;0,0121088
1804,0808;0,0121513
1805,0450;0,0122072
1806,0093;0,0122584
1806,9735;0,0122847
1807,9377;0,0122683
1808,9020;0,0122058
1809,8662;0,012116
1810,8304;0,0120348
1811,7947;0,0119942
1812,7589;0,0120045
1813,7231;0,0120533
1814,6874;0,0121155
1815,6516;0,0121656
1816,6158;0,0121901
1817,5801;0,012195
1818,5443;0,0122011
1819,5085;0,0122273
1820,4728;0,0122765
1821,4370;0,0123329
1822,4012;0,0123726
1823,3655;0,0123792
1824,3297;0,0123532
1825,2939;0,0123059
1826,2582;0,0122423
1827,2224;0,0121563
1828,1866;0,0120431
1829,1509;0,0119214
1830,1151;0,0118338
1831,0793;0,011815
1832,0436;0,0118646
1833,0078;0,0119538
1833,9720;0,0120463
1834,9363;0,0121114
1835,9005;0,0121366
1836,8647;0,0121388
1837,8290;0,0121567
1838,7932;0,0122233
1839,7574;0,0123401
1840,7217;0,0124681
1841,6859;0,0125392
1842,6501;0,0124932
1843,6144;0,0123319
1844,5786;0,012132
1845,5428;0,0119819
1846,5071;0,0119162
1847,4713;0,0119204
1848,4355;0,0119646
1849,3998;0,0120204
1850,3640;0,0120676
1851,3282;0,0120982
1852,2925;0,0121173
1853,2567;0,0121371
1854,2209;0,0121698
1855,1852;0,0122207
1856,1494;0,0122877
1857,1136;0,0123614
1858,0779;0,0124284
1859,0421;0,0124759
1860,0063;0,0124954
1860,9706;0,0124854
1861,9348;0,0124517
1862,8990;0,0124022
1863,8633;0,0123401
1864,8275;0,0122597
1865,7917;0,0121523
1866,7560;0,0120261
1867,7202;0,0119245
1868,6844;0,0119041
1869,6487;0,0119786
1870,6129;0,0121018
1871,5771;0,0122148
1872,5414;0,0122865
1873,5056;0,0123135
1874,4698;0,0123075
1875,4341;0,0122871
1876,3983;0,0122718
1877,3625;0,0122735
1878,3268;0,0122899
1879,2910;0,0123086
1880,2552;0,0123181
1881,2195;0,0123171
1882,1837;0,0123158
1883,1479;0,0123276
1884,1122;0,0123578
1885,0764;0,0123975
1886,0406;0,0124273
1887,0049;0,0124274
1887,9691;0,012391
1888,9333;0,0123294
1889,8976;0,0122638
1890,8618;0,0122103
1891,8260;0,0121737
1892,7903;0,0121542
1893,7545;0,0121555
1894,7188;0,012185
1895,6830;0,0122465
1896,6472;0,0123306
1897,6115;0,0124146
1898,5757;0,0124749
1899,5399;0,0125027
1900,5042;0,012509
1901,4684;0,0125159
1902,4326;0,0125398
1903,3969;0,0125772
1904,3611;0,012607
1905,3253;0,0126055
1906,2896;0,0125654
1907,2538;0,0125022
1908,2180;0,0124467
1909,1823;0,0124251
1910,1465;0,0124431
1911,1107;0,0124853
1912,0750;0,0125317
1913,0392;0,0125714
1914,0034;0,0126031
1914,9677;0,012628
1915,9319;0,0126457
1916,8961;0,0126574
1917,8604;0,0126671
1918,8246;0,0126772
1919,7888;0,0126842
1920,7531;0,0126795
1921,7173;0,0126542
1922,6815;0,0126056
1923,6458;0,012542
1924,6100;0,0124801
1925,5742;0,0124356
1926,5385;0,0124157
1927,5027;0,0124186
1928,4669;0,0124396
1929,4312;0,012477
1930,3954;0,0125344
1931,3596;0,012615
1932,3239;0,0127158
1933,2881;0,0128234
1934,2523;0,012918
1935,2166;0,0129803
1936,1808;0,0129997
1937,1450;0,0129783
1938,1093;0,0129291
1939,0735;0,0128708
1940,0377;0,0128217
1941,0020;0,0127938
1941,9662;0,0127895
1942,9304;0,0127991
1943,8947;0,0128088
1944,8589;0,0128146
1945,8231;0,0128295
1946,7874;0,0128743
1947,7516;0,0129586
1948,7158;0,0130681
1949,6801;0,0131693
1950,6443;0,0132286
1951,6085;0,0132357
1952,5728;0,0132118
1953,5370;0,0131975
1954,5012;0,0132278
1955,4655;0,013311
1956,4297;0,0134246
1957,3939;0,0135294
1958,3582;0,0135915
1959,3224;0,0135981
1960,2866;0,0135605
1961,2509;0,0135044
1962,2151;0,0134585
1963,1793;0,0134476
1964,1436;0,0134933
1965,1078;0,0136131
1966,0720;0,0138106
1967,0363;0,0140579
1968,0005;0,0142862
1968,9647;0,0144025
1969,9290;0,0143307
1970,8932;0,0140521
1971,8574;0,0136252
1972,8217;0,0131747
1973,7859;0,0128493
1974,7501;0,0127593
1975,7144;0,0129205
1976,6786;0,0132439
1977,6428;0,0135873
1978,6071;0,0138347
1979,5713;0,0139464
1980,5355;0,0139513
1981,4998;0,0139048
1982,4640;0,0138539
1983,4282;0,0138256
1984,3925;0,0138333
1985,3567;0,0138851
1986,3209;0,0139852
1987,2852;0,0141268
1988,2494;0,0142869
1989,2136;0,014426
1990,1779;0,0144981
1991,1421;0,0144659
1992,1063;0,014315
1993,0706;0,0140631
1994,0348;0,0137583
1994,9990;0,0134702
1995,9633;0,0132724
1996,9275;0,0132201
1997,8917;0,0133256
1998,8560;0,0135441
1999,8202;0,0137869
2000,7844;0,0139649
2001,7487;0,0140402
2002,7129;0,0140486
2003,6771;0,0140783
2004,6414;0,0142125
2005,6056;0,0144736
2006,5698;0,0148018
2007,5341;0,0150897
2008,4983;0,0152477
2009,4625;0,0152509
2010,4268;0,0151348
2011,3910;0,0149572
2012,3552;0,0147642
2013,3195;0,0145838
2014,2837;0,0144407
2015,2479;0,0143681
2016,2122;0,0143967
2017,1764;0,0145271
2018,1406;0,0147127
2019,1049;0,0148785
2020,0691;0,0149642
2021,0333;0,014962
2021,9976;0,0149202
2022,9618;0,0149112
2023,9260;0,0149847
2024,8903;0,0151334
2025,8545;0,015296
2026,8187;0,015395
2027,7830;0,0153843
2028,7472;0,0152749
2029,7114;0,0151246
2030,6757;0,0150034
2031,6399;0,01496
2032,6041;0,0150108
2033,5684;0,0151503
2034,5326;0,0153639
2035,4968;0,0156259
2036,4611;0,0158883
2037,4253;0,0160776
2038,3895;0,0161196
2039,3538;0,0159815
2040,3180;0,015704
2041,2822;0,0153928
2042,2465;0,0151643
2043,2107;0,0150789
2044,1749;0,0151106
2045,1392;0,0151743
2046,1034;0,0151879
2047,0676;0,0151247
2048,0320;0,0150189
2048,9961;0,0149252
2049,9604;0,0148719
2050,9246;0,0148488
2051,8889;0,0148293
2052,8530;0,0148006
2053,8174;0,0147753
2054,7815;0,0147806
2055,7458;0,0148359
2056,7100;0,0149376
2057,6743;0,0150604
2058,6384;0,0151718
2059,6028;0,0152451
2060,5669;0,0152656
2061,5313;0,015231
2062,4954;0,0151533
2063,4597;0,0150596
2064,4238;0,014986
2065,3882;0,0149615
2066,3523;0,0149898
2067,3167;0,0150438
2068,2808;0,0150803
2069,2451;0,0150666
2070,2092;0,0150011
2071,1736;0,0149116
2072,1377;0,0148356
2073,1021;0,0147936
2074,0662;0,0147775
2075,0305;0,0147595
2075,9946;0,0147143
2076,9590;0,0146361
2077,9231;0,0145411
2078,8875;0,0144564
2079,8516;0,0144054
2080,8159;0,0143996
2081,7800;0,0144389
2082,7444;0,0145153
2083,7085;0,0146175
2084,6729;0,0147321
2085,6370;0,0148443
2086,6013;0,0149387
2087,5654;0,0150012
2088,5298;0,0150213
2089,4939;0,0149951
2090,4583;0,0149274
2091,4224;0,0148333
2092,3867;0,0147368
2093,3508;0,0146651
2094,3152;0,0146389
2095,2793;0,0146641
2096,2437;0,0147287
2097,2078;0,0148098
2098,1721;0,014884
2099,1362;0,0149366
2100,1006;0,0149628
2101,0647;0,0149693
2102,0291;0,0149612
2102,9932;0,0149444
2103,9575;0,0149232
2104,9216;0,0148993
2105,8860;0,0148717
2106,8501;0,0148382
2107,8145;0,0147983
2108,7786;0,0147573
2109,7429;0,0147261
2110,7070;0,0147169
2111,6714;0,014734
2112,6355;0,0147688
2113,5999;0,0148018
2114,5640;0,0148132
2115,5283;0,0147956
2116,4924;0,01476
2117,4568;0,014732
2118,4209;0,0147377
2119,3853;0,0147894
2120,3494;0,0148778
2121,3137;0,0149752
2122,2778;0,0150486
2123,2422;0,0150753
2124,2063;0,0150538
2125,1707;0,0150051
2126,1348;0,014964
2127,0991;0,0149642
2128,0632;0,0150243
2129,0276;0,0151401
2129,9917;0,0152871
2130,9561;0,015432
2131,9202;0,0155483
2132,8845;0,0156279
2133,8486;0,015683
2134,8130;0,0157356
2135,7771;0,0158009
2136,7415;0,0158754
2137,7056;0,01594
2138,6699;0,0159762
2139,6340;0,0159847
2140,5984;0,0159929
2141,5625;0,0160451
2142,5269;0,0161784
2143,4910;0,0163994
2144,4553;0,0166731
2145,4194;0,0169352
2146,3838;0,0171213
2147,3479;0,0171984
2148,3123;0,0171826
2149,2764;0,0171321
2150,2407;0,0171212
2151,2048;0,0172081
2152,1692;0,0174119
2153,1333;0,0177062
2154,0977;0,0180292
2155,0618;0,0183032
2156,0261;0,0184593
2156,9902;0,0184658
2157,9546;0,0183517
2158,9187;0,0182016
2159,8831;0,0181106
2160,8472;0,0181262
2161,8115;0,0182269
2162,7756;0,0183476
2163,7400;0,0184196
2164,7041;0,0184013
2165,6685;0,0182861
2166,6326;0,0180927
2167,5969;0,017847
2168,5610;0,017571
2169,5254;0,0172851
2170,4895;0,0170157
2171,4539;0,016798
2172,4180;0,0166675
2173,3823;0,0166441
2174,3464;0,0167227
2175,3108;0,0168758
2176,2749;0,017065
2177,2393;0,0172518
2178,2034;0,017397
2179,1677;0,0174593
2180,1318;0,0174018
2181,0962;0,0172125
2182,0603;0,0169243
2183,0247;0,0166144
2183,9888;0,0163714
2184,9531;0,016252
2185,9172;0,0162556
2186,8816;0,0163355
2187,8457;0,0164338
2188,8101;0,0165132
2189,7742;0,016565
2190,7385;0,0165918
2191,7026;0,0165864
2192,6670;0,0165265
2193,6311;0,016392
2194,5955;0,0161883
2195,5596;0,0159564
2196,5239;0,0157575
2197,4880;0,0156435
2198,4524;0,0156322
2199,4165;0,0157021
2200,3809;0,0158081
2201,3450;0,0159039
2202,3093;0,0159592
2203,2734;0,0159664
2204,2378;0,0159369
2205,2019;0,0158943
2206,1663;0,0158649
2207,1304;0,0158675
2208,0947;0,0159045
2209,0588;0,0159586
2210,0232;0,0160001
2210,9873;0,0160024
2211,9517;0,0159585
2212,9158;0,0158864
2213,8801;0,0158206
2214,8442;0,015792
2215,8086;0,015811
2216,7727;0,0158616
2217,7371;0,0159103
2218,7012;0,0159235
2219,6655;0,0158823
2220,6296;0,0157904
2221,5940;0,0156715
2222,5581;0,0155619
2223,5225;0,0154984
2224,4866;0,0155063
2225,4509;0,0155868
2226,4150;0,0157116
2227,3794;0,0158289
2228,3435;0,0158834
2229,3079;0,0158422
2230,2720;0,0157136
2231,2363;0,0155452
2232,2004;0,0154007
2233,1648;0,0153269
2234,1289;0,0153312
2235,0933;0,0153825
2236,0574;0,015435
2237,0217;0,0154563
2237,9858;0,0154432
2238,9502;0,0154149
2239,9143;0,0153927
2240,8787;0,015382
2241,8428;0,0153714
2242,8071;0,0153456
2243,7712;0,0153016
2244,7356;0,0152538
2245,6997;0,0152227
2246,6641;0,0152193
2247,6282;0,0152357
2248,5925;0,0152514
2249,5566;0,0152488
2250,5210;0,015226
2251,4851;0,0151968
2252,4495;0,015179
2253,4136;0,0151809
2254,3779;0,0151969
2255,3420;0,0152144
2256,3064;0,015224
2257,2705;0,0152251
2258,2349;0,01522
2259,1990;0,015206
2260,1633;0,0151726
2261,1274;0,0151085
2262,0918;0,0150151
2263,0559;0,0149128
2264,0203;0,0148347
2264,9844;0,0148088
2265,9487;0,01484
2266,9128;0,014906
2267,8772;0,0149694
2268,8413;0,0149986
2269,8057;0,0149831
2270,7698;0,0149341
2271,7341;0,0148732
2272,6982;0,014818
2273,6626;0,0147746
2274,6267;0,0147405
2275,5911;0,014712
2276,5552;0,0146897
2277,5195;0,0146771
2278,4836;0,0146749
2279,4480;0,0146772
2280,4121;0,0146727
2281,3765;0,0146516
2282,3406;0,0146132
2283,3049;0,0145684
2284,2690;0,0145371
2285,2334;0,0145391
2286,1975;0,0145848
2287,1619;0,0146687
2288,1260;0,0147701
2289,0903;0,014861
2290,0544;0,0149186
2291,0188;0,0149365
2291,9829;0,0149273
2292,9473;0,0149164
2293,9114;0,0149285
2294,8757;0,0149749
2295,8398;0,0150483
2296,8042;0,0151277
2297,7683;0,0151903
2298,7327;0,0152229
2299,6968;0,0152269
2300,6611;0,0152151
2301,6252;0,0152041
2302,5896;0,0152075
2303,5537;0,0152317
2304,5181;0,0152757
2305,4822;0,0153317
2306,4465;0,0153859
2307,4106;0,0154198
2308,3750;0,0154152
2309,3391;0,015362
2310,3035;0,0152666
2311,2676;0,0151539
2312,2319;0,0150599
2313,1960;0,0150169
2314,1604;0,0150383
2315,1245;0,0151128
2316,0889;0,0152103
2317,0530;0,0152939
2318,0173;0,0153344
2318,9814;0,0153211
2319,9458;0,0152658
2320,9099;0,0151976
2321,8743;0,015149
2322,8384;0,0151379
2323,8027;0,0151587
2324,7668;0,015187
2325,7312;0,0151946
2326,6953;0,0151639
2327,6597;0,0150972
2328,6238;0,0150171
2329,5881;0,0149567
2330,5522;0,0149427
2331,5166;0,0149796
2332,4807;0,0150458
2333,4451;0,0151056
2334,4092;0,0151275
2335,3735;0,0151
2336,3376;0,0150365
2337,3020;0,0149685
2338,2661;0,014927
2339,2305;0,0149207
2340,1946;0,0149231
2341,1589;0,0148824
2342,1230;0,0147546
2343,0874;0,0145547
2344,0515;0,0143811
2345,0159;0,0143571
2345,9800;0,0145293
2346,9443;0,0148413
2347,9084;0,0151903
2348,8728;0,0154891
2349,8369;0,0156926
2350,8013;0,0157976
2351,7654;0,0158307
2352,7297;0,0158307
2353,6938;0,0158361
2354,6582;0,0158809
2355,6223;0,0159898
2356,5867;0,0161611
2357,5508;0,0163486
2358,5151;0,0164669
2359,4792;0,0164294
2360,4436;0,0161972
2361,4077;0,0158011
2362,3721;0,0153216
2363,3362;0,0148518
2364,3005;0,0144641
2365,2646;0,0141919
2366,2290;0,0140283
2367,1931;0,0139423
2368,1575;0,0139
2369,1216;0,0138799
2370,0859;0,0138739
2371,0500;0,0138806
2372,0144;0,0138967
2372,9785;0,0139166
2373,9429;0,0139352
2374,9070;0,0139538
2375,8713;0,0139811
2376,8354;0,0140299
2377,7998;0,0141102
2378,7639;0,0142245
2379,7283;0,014366
2380,6924;0,0145211
2381,6567;0,0146741
2382,6208;0,0148105
2383,5852;0,0149196
2384,5493;0,0149959
2385,5137;0,0150394
2386,4778;0,0150559
2387,4421;0,0150567
2388,4063;0,0150543
2389,3706;0,0150582
2390,3347;0,0150704
2391,2991;0,0150857
2392,2632;0,0150973
2393,2275;0,0151025
2394,1917;0,0151072
2395,1560;0,0151219
2396,1201;0,0151548
2397,0845;0,0152048
2398,0486;0,0152604
2399,0129;0,0153063
2399,9771;0,0153313
2400,9414;0,0153346
2401,9055;0,0153252
2402,8699;0,0153165
2403,8340;0,01532
2404,7983;0,0153418
2405,7625;0,0153821
2406,7268;0,0154361
2407,6909;0,015496
2408,6553;0,0155521
2409,6194;0,0155942
2410,5837;0,0156146
2411,5479;0,0156108
2412,5122;0,0155873
2413,4763;0,0155549
2414,4407;0,0155277
2415,4048;0,015518
2416,3691;0,0155317
2417,3333;0,0155665
2418,2976;0,0156124
2419,2617;0,0156565
2420,2261;0,0156877
2421,1902;0,0157018
2422,1545;0,0157016
2423,1187;0,0156943
2424,0830;0,0156867
2425,0471;0,0156811
2426,0115;0,0156764
2426,9756;0,0156719
2427,9399;0,0156708
2428,9041;0,0156808
2429,8684;0,0157095
2430,8325;0,0157573
2431,7969;0,0158148
2432,7610;0,0158654
2433,7253;0,0158949
2434,6895;0,0158992
2435,6538;0,0158878
2436,6179;0,0158771
2437,5823;0,015881
2438,5464;0,0159025
2439,5107;0,0159336
2440,4749;0,0159622
2441,4392;0,0159807
2442,4033;0,015991
2443,3677;0,0160029
2444,3318;0,0160269
2445,2961;0,0160672
2446,2603;0,016118
2447,2246;0,0161655
2448,1887;0,0161941
2449,1531;0,0161931
2450,1172;0,0161624
2451,0815;0,0161134
2452,0457;0,0160658
2453,0100;0,0160394
2453,9741;0,0160451
2454,9385;0,0160804
2455,9026;0,0161309
2456,8669;0,0161782
2457,8311;0,0162106
2458,7954;0,0162279
2459,7595;0,0162398
2460,7239;0,0162576
2461,6880;0,0162861
2462,6523;0,0163199
2463,6165;0,0163482
2464,5808;0,0163624
2465,5449;0,0163624
2466,5093;0,0163565
2467,4734;0,0163552
2468,4377;0,0163647
2469,4019;0,0163831
2470,3662;0,0164018
2471,3303;0,0164112
2472,2947;0,0164067
2473,2588;0,0163908
2474,2231;0,016373
2475,1873;0,0163652
2476,1516;0,0163775
2477,1157;0,0164135
2478,0801;0,0164682
2479,0442;0,0165289
2480,0085;0,0165794
2480,9727;0,0166065
2481,9370;0,0166056
2482,9011;0,0165824
2483,8655;0,0165503
2484,8296;0,0165242
2485,7939;0,0165147
2486,7581;0,0165252
2487,7224;0,0165524
2488,6865;0,0165892
2489,6509;0,0166264
2490,6150;0,016656
2491,5793;0,0166721
2492,5435;0,0166739
2493,5078;0,0166665
2494,4719;0,016659
2495,4363;0,0166603
2496,4004;0,0166739
2497,3647;0,0166953
2498,3289;0,016715
2499,2932;0,0167251
2500,2573;0,0167248
2501,2217;0,0167205
2502,1858;0,0167215
2503,1501;0,0167336
2504,1143;0,0167565
2505,0786;0,0167851
2506,0427;0,0168144
2507,0071;0,0168421
2507,9712;0,0168675
2508,9355;0,0168886
2509,8997;0,0169015
2510,8640;0,0169029
2511,8281;0,0168943
2512,7925;0,0168839
2513,7566;0,0168826
2514,7209;0,0168966
2515,6851;0,016922
2516,6494;0,016946
2517,6135;0,0169542
2518,5779;0,0169399
2519,5420;0,0169082
2520,5063;0,016873
2521,4705;0,0168495
2522,4348;0,0168469
2523,3989;0,0168663
2524,3633;0,0169023
2525,3274;0,0169467
2526,2917;0,0169907
2527,2559;0,0170256
2528,2202;0,0170442
2529,1843;0,017043
2530,1487;0,0170251
2531,1128;0,0169999
2532,0771;0,0169798
2533,0413;0,0169738
2534,0056;0,0169834
2534,9697;0,0170028
2535,9341;0,017023
2536,8982;0,0170364
2537,8625;0,0170401
2538,8267;0,0170341
2539,7910;0,0170206
2540,7551;0,0170022
2541,7195;0,0169836
2542,6836;0,0169716
2543,6479;0,0169741
2544,6121;0,0169953
2545,5764;0,0170325
2546,5405;0,0170758
2547,5049;0,0171125
2548,4690;0,0171334
2549,4333;0,0171373
2550,3975;0,0171301
2551,3618;0,0171213
2552,3259;0,0171189
2553,2903;0,0171262
2554,2544;0,0171426
2555,2188;0,0171647
2556,1829;0,0171883
2557,1472;0,0172086
2558,1113;0,0172213
2559,0757;0,0172232
2560,0398;0,0172146
2561,0042;0,0172002
2561,9683;0,0171877
2562,9326;0,0171844
2563,8967;0,0171932
2564,8611;0,0172113
2565,8252;0,0172315
2566,7896;0,0172465
2567,7537;0,017252
2568,7180;0,0172472
2569,6821;0,0172335
2570,6465;0,0172131
2571,6106;0,0171884
2572,5750;0,0171636
2573,5391;0,0171454
2574,5034;0,0171411
2575,4675;0,0171545
2576,4319;0,0171826
2577,3960;0,0172161
2578,3604;0,0172434
2579,3245;0,0172578
2580,2888;0,01726
2581,2529;0,017257
2582,2173;0,0172561
2583,1814;0,0172595
2584,1458;0,0172628
2585,1099;0,0172593
2586,0742;0,0172454
2587,0383;0,0172243
2588,0027;0,017205
2588,9668;0,0171981
2589,9312;0,0172104
2590,8953;0,0172415
2591,8596;0,0172847
2592,8237;0,017329
2593,7881;0,0173636
2594,7522;0,0173813
2595,7166;0,0173812
2596,6807;0,0173687
2597,6450;0,0173536
2598,6091;0,0173457
2599,5735;0,0173499
2600,5376;0,0173648
2601,5020;0,0173842
2602,4661;0,0174017
2603,4304;0,0174146
2604,3945;0,0174255
2605,3589;0,0174395
2606,3230;0,0174596
2607,2874;0,0174844
2608,2515;0,0175086
2609,2158;0,0175266
2610,1799;0,0175364
2611,1443;0,01754
2612,1084;0,0175419
2613,0728;0,0175454
2614,0369;0,0175516
2615,0012;0,0175601
2615,9653;0,0175707
2616,9297;0,0175851
2617,8938;0,0176052
2618,8582;0,0176312
2619,8223;0,0176594
2620,7866;0,0176836
2621,7507;0,0176985
2622,7151;0,0177026
2623,6792;0,0177005
2624,6436;0,0177006
2625,6077;0,0177112
2626,5720;0,0177366
2627,5361;0,0177749
2628,5005;0,0178187
2629,4646;0,0178588
2630,4290;0,0178876
2631,3931;0,0179024
2632,3574;0,0179062
2633,3215;0,0179057
2634,2859;0,0179078
2635,2500;0,0179168
2636,2144;0,0179332
2637,1785;0,0179544
2638,1428;0,0179774
2639,1069;0,0180009
2640,0713;0,0180245
2641,0354;0,018048
2641,9998;0,0180699
2642,9639;0,018088
2643,9282;0,0181013
2644,8923;0,0181113
2645,8567;0,0181212
2646,8208;0,0181341
2647,7852;0,0181502
2648,7493;0,0181665
2649,7136;0,0181796
2650,6777;0,0181883
2651,6421;0,0181954
2652,6062;0,0182057
2653,5706;0,0182233
2654,5347;0,0182484
2655,4990;0,0182782
2656,4631;0,0183086
2657,4275;0,018337
2658,3916;0,0183628
2659,3560;0,0183863
2660,3201;0,0184069
2661,2844;0,0184233
2662,2485;0,0184354
2663,2129;0,0184455
2664,1770;0,0184579
2665,1414;0,0184759
2666,1055;0,018499
2667,0698;0,0185221
2668,0339;0,0185386
2668,9983;0,0185449
2669,9624;0,0185438
2670,9268;0,0185431
2671,8909;0,0185512
2672,8552;0,0185719
2673,8193;0,0186018
2674,7837;0,0186329
2675,7478;0,0186569
2676,7122;0,0186697
2677,6763;0,0186732
2678,6406;0,0186736
2679,6047;0,0186787
2680,5691;0,018694
2681,5332;0,0187215
2682,4976;0,0187589
2683,4617;0,0188011
2684,4260;0,0188425
2685,3901;0,0188787
2686,3545;0,018909
2687,3186;0,0189354
2688,2830;0,0189617
2689,2471;0,0189901
2690,2114;0,0190201
2691,1755;0,0190489
2692,1399;0,0190733
2693,1040;0,0190926
2694,0684;0,019109
2695,0325;0,0191266
2695,9968;0,0191484
2696,9609;0,0191745
2697,9253;0,0192029
2698,8894;0,0192306
2699,8538;0,0192566
2700,8179;0,0192819
2701,7822;0,0193088
2702,7463;0,0193382
2703,7107;0,0193686
2704,6748;0,0193968
2705,6392;0,0194196
2706,6033;0,0194359
2707,5676;0,0194475
2708,5317;0,0194583
2709,4961;0,0194728
2710,4602;0,0194941
2711,4246;0,0195236
2712,3887;0,0195602
2713,3530;0,0196014
2714,3171;0,0196436
2715,2815;0,0196835
2716,2456;0,0197187
2717,2100;0,0197484
2718,1741;0,0197732
2719,1384;0,0197945
2720,1025;0,0198133
2721,0669;0,01983
2722,0310;0,0198451
2722,9954;0,0198594
2723,9595;0,0198753
2724,9238;0,0198951
2725,8879;0,0199203
2726,8523;0,0199504
2727,8164;0,0199834
2728,7808;0,0200173
2729,7449;0,0200512
2730,7092;0,0200854
2731,6733;0,0201196
2732,6377;0,0201518
2733,6018;0,0201778
2734,5662;0,0201938
2735,5303;0,0201988
2736,4946;0,0201965
2737,4587;0,0201941
2738,4231;0,0201988
2739,3872;0,0202151
2740,3516;0,0202426
2741,3157;0,0202775
2742,2800;0,0203142
2743,2441;0,0203476
2744,2085;0,020374
2745,1726;0,0203915
2746,1370;0,0203996
2747,1011;0,0204007
2748,0654;0,0203993
2749,0295;0,0204021
2749,9939;0,0204155
2750,9580;0,0204429
2751,9224;0,0204825
2752,8865;0,0205281
2753,8508;0,0205716
2754,8149;0,0206069
2755,7793;0,0206326
2756,7434;0,0206523
2757,7078;0,0206713
2758,6719;0,0206935
2759,6362;0,0207192
2760,6003;0,0207452
2761,5647;0,0207683
2762,5288;0,0207877
2763,4932;0,0208067
2764,4573;0,020831
2765,4216;0,0208654
2766,3857;0,0209106
2767,3501;0,0209629
2768,3142;0,0210155
2769,2786;0,0210618
2770,2427;0,0210985
2771,2070;0,0211264
2772,1711;0,0211495
2773,1355;0,0211726
2774,0996;0,0211998
2775,0640;0,0212328
2776,0281;0,0212712
2776,9924;0,0213133
2777,9565;0,0213567
2778,9209;0,0213996
2779,8850;0,0214411
2780,8494;0,0214816
2781,8135;0,0215235
2782,7778;0,0215698
2783,7419;0,0216231
2784,7063;0,0216827
2785,6704;0,0217443
2786,6348;0,0218017
2787,5989;0,0218497
2788,5632;0,0218886
2789,5273;0,0219252
2790,4917;0,0219695
2791,4558;0,0220295
2792,4202;0,0221053
2793,3843;0,0221886
2794,3486;0,0222668
2795,3127;0,0223304
2796,2771;0,022378
2797,2412;0,0224176
2798,2056;0,022461
2799,1697;0,0225181
2800,1340;0,0225915
2801,0981;0,0226777
2802,0625;0,0227707
2803,0266;0,0228657
2803,9910;0,0229604
2804,9551;0,0230539
2805,9194;0,0231442
2806,8835;0,0232283
2807,8479;0,0233039
2808,8120;0,0233726
2809,7764;0,0234401
2810,7405;0,0235146
2811,7048;0,023602
2812,6689;0,0237042
2813,6333;0,0238184
2814,5974;0,02394
2815,5618;0,0240644
2816,5259;0,0241894
2817,4902;0,0243143
2818,4543;0,0244393
2819,4187;0,024565
2820,3828;0,0246925
2821,3472;0,0248237
2822,3113;0,0249605
2823,2756;0,0251049
2824,2397;0,0252587
2825,2041;0,0254236
2826,1682;0,0256014
2827,1326;0,0257929
2828,0967;0,0259968
2829,0610;0,0262094
2830,0251;0,0264261
2830,9895;0,0266445
2831,9536;0,0268659
2832,9180;0,0270956
2833,8821;0,0273392
2834,8464;0,0275999
2835,8105;0,0278769
2836,7749;0,0281677
2837,7390;0,0284726
2838,7034;0,0287965
2839,6675;0,0291499
2840,6318;0,029545
2841,5959;0,0299923
2842,5603;0,0304971
2843,5244;0,0310578
2844,4888;0,0316634
2845,4529;0,0322916
2846,4172;0,0329074
2847,3813;0,0334659
2848,3457;0,0339206
2849,3098;0,0342361
2850,2742;0,0343983
2851,2383;0,0344192
2852,2026;0,0343316
2853,1667;0,0341768
2854,1311;0,0339919
2855,0952;0,0338029
2856,0596;0,0336245
2857,0237;0,0334652
2857,9880;0,033333
2858,9521;0,0332367
2859,9165;0,0331838
2860,8806;0,0331766
2861,8450;0,0332106
2862,8091;0,033276
2863,7734;0,033362
2864,7375;0,0334615
2865,7019;0,0335719
2866,6660;0,0336934
2867,6304;0,0338251
2868,5945;0,0339621
2869,5588;0,0340946
2870,5229;0,034211
2871,4873;0,0343021
2872,4514;0,0343655
2873,4158;0,0344068
2874,3799;0,0344374
2875,3442;0,03447
2876,3083;0,0345138
2877,2727;0,034572
2878,2368;0,0346419
2879,2012;0,0347179
2880,1653;0,0347945
2881,1296;0,0348692
2882,0938;0,0349426
2883,0581;0,0350176
2884,0222;0,0350971
2884,9866;0,0351821
2885,9507;0,0352713
2886,9150;0,0353625
2887,8792;0,0354539
2888,8435;0,0355458
2889,8076;0,0356397
2890,7720;0,0357367
2891,7361;0,0358361
2892,7004;0,0359354
2893,6646;0,036032
2894,6289;0,036126
2895,5930;0,036221
2896,5574;0,0363226
2897,5215;0,0364353
2898,4858;0,0365586
2899,4500;0,0366873
2900,4143;0,0368143
2901,3784;0,0369351
2902,3428;0,0370508
2903,3069;0,0371686
2904,2712;0,0372984
2905,2354;0,0374498
2906,1997;0,0376295
2907,1638;0,0378427
2908,1282;0,0380952
2909,0923;0,0383945
2910,0566;0,0387475
2911,0208;0,0391543
2911,9851;0,0396032
2912,9492;0,0400678
2913,9136;0,0405111
2914,8777;0,0408945
2915,8420;0,0411878
2916,8062;0,0413745
2917,7705;0,0414527
2918,7346;0,0414311
2919,6990;0,0413236
2920,6631;0,0411466
2921,6274;0,0409175
2922,5916;0,0406537
2923,5559;0,0403698
2924,5200;0,0400743
2925,4844;0,0397678
2926,4485;0,0394455
2927,4128;0,0391033
2928,3770;0,0387441
2929,3413;0,0383793
2930,3054;0,0380252
2931,2698;0,0376949
2932,2339;0,0373917
2933,1982;0,037108
2934,1624;0,0368294
2935,1267;0,0365428
2936,0908;0,0362419
2937,0552;0,0359288
2938,0193;0,0356107
2938,9836;0,035295
2939,9478;0,0349859
2940,9121;0,0346842
2941,8762;0,034389
2942,8406;0,0341004
2943,8047;0,0338199
2944,7690;0,0335506
2945,7332;0,033296
2946,6975;0,0330591
2947,6616;0,0328421
2948,6260;0,0326461
2949,5901;0,03247
2950,5544;0,0323106
2951,5186;0,0321625
2952,4829;0,0320194
2953,4470;0,0318769
2954,4114;0,0317326
2955,3755;0,0315856
2956,3398;0,0314345
2957,3040;0,0312759
2958,2683;0,0311048
2959,2324;0,0309169
2960,1968;0,0307126
2961,1609;0,0304973
2962,1252;0,03028
2963,0894;0,0300687
2964,0537;0,0298671
2965,0178;0,0296733
2965,9822;0,0294825
2966,9463;0,0292907
2967,9106;0,0290963
2968,8748;0,0289002
2969,8391;0,028703
2970,8032;0,0285042
2971,7676;0,0283031
2972,7317;0,0281015
2973,6960;0,0279052
2974,6602;0,0277223
2975,6245;0,0275588
2976,5886;0,0274148
2977,5530;0,0272846
2978,5171;0,0271605
2979,4814;0,0270381
2980,4456;0,0269186
2981,4099;0,0268072
2982,3740;0,0267086
2983,3384;0,0266233
2984,3025;0,0265477
2985,2668;0,0264767
2986,2310;0,0264068
2987,1953;0,0263365
2988,1594;0,0262664
2989,1238;0,0261972
2990,0879;0,0261302
2991,0522;0,0260681
2992,0164;0,0260146
2992,9807;0,025974
2993,9448;0,0259486
2994,9092;0,0259381
2995,8733;0,0259406
2996,8376;0,025954
2997,8018;0,0259764
2998,7661;0,0260053
2999,7302;0,0260362
3000,6946;0,0260633
3001,6587;0,0260819
3002,6230;0,0260917
3003,5872;0,0260977
3004,5515;0,0261074
3005,5156;0,0261257
3006,4800;0,0261512
3007,4441;0,0261773
3008,4084;0,0261956
3009,3726;0,0262021
3010,3369;0,0261993
3011,3010;0,0261954
3012,2654;0,0261992
3013,2295;0,0262154
3014,1938;0,0262437
3015,1580;0,0262809
3016,1223;0,0263248
3017,0864;0,026376
3018,0508;0,0264361
3019,0149;0,0265043
3019,9792;0,026575
3020,9434;0,0266397
3021,9077;0,0266921
3022,8718;0,0267332
3023,8362;0,0267715
3024,8003;0,0268183
3025,7646;0,0268801
3026,7288;0,0269541
3027,6931;0,0270294
3028,6572;0,0270934
3029,6216;0,0271389
3030,5857;0,0271684
3031,5500;0,0271927
3032,5142;0,0272265
3033,4785;0,0272819
3034,4426;0,0273652
3035,4070;0,0274753
3036,3711;0,0276041
3037,3354;0,0277386
3038,2996;0,0278647
3039,2639;0,0279718
3040,2280;0,0280569
3041,1924;0,0281257
3042,1565;0,0281892
3043,1208;0,028258
3044,0850;0,0283369
3045,0493;0,0284238
3046,0134;0,0285136
3046,9778;0,0286029
3047,9419;0,0286933
3048,9063;0,0287898
3049,8704;0,0288964
3050,8347;0,0290111
3051,7988;0,0291256
3052,7632;0,0292294
3053,7273;0,0293159
3054,6917;0,0293878
3055,6558;0,0294567
3056,6201;0,0295373
3057,5842;0,0296395
3058,5486;0,0297628
3059,5127;0,0298964
3060,4771;0,0300251
3061,4412;0,0301367
3062,4055;0,0302276
3063,3696;0,0303034
3064,3340;0,030376
3065,2981;0,0304571
3066,2625;0,0305533
3067,2266;0,0306638
3068,1909;0,0307824
3069,1550;0,030902
3070,1194;0,0310179
3071,0835;0,03113
3072,0479;0,0312406
3073,0120;0,031352
3073,9763;0,0314636
3074,9404;0,0315718
3075,9048;0,0316719
3076,8689;0,0317613
3077,8333;0,0318416
3078,7974;0,0319178
3079,7617;0,0319957
3080,7258;0,0320789
3081,6902;0,0321673
3082,6543;0,0322578
3083,6187;0,0323471
3084,5828;0,032434
3085,5471;0,0325213
3086,5112;0,032615
3087,4756;0,032721
3088,4397;0,032841
3089,4041;0,0329701
3090,3682;0,0330982
3091,3325;0,033215
3092,2966;0,0333154
3093,2610;0,0334032
3094,2251;0,033488
3095,1895;0,0335785
3096,1536;0,0336756
3097,1179;0,0337727
3098,0820;0,033861
3099,0464;0,033939
3100,0105;0,0340154
3100,9749;0,034106
3101,9390;0,0342226
3102,9033;0,0343648
3103,8674;0,0345194
3104,8318;0,034668
3105,7959;0,0347984
3106,7603;0,0349104
3107,7244;0,0350138
3108,6887;0,0351207
3109,6528;0,0352369
3110,6172;0,0353591
3111,5813;0,0354786
3112,5457;0,0355879
3113,5098;0,0356858
3114,4741;0,035778
3115,4382;0,0358726
3116,4026;0,0359759
3117,3667;0,0360897
3118,3311;0,0362116
3119,2952;0,0363377
3120,2595;0,0364655
3121,2236;0,0365945
3122,1880;0,0367259
3123,1521;0,0368616
3124,1165;0,0370032
3125,0806;0,0371513
3126,0449;0,0373043
3127,0090;0,037458
3127,9734;0,0376069
3128,9375;0,0377466
3129,9019;0,0378769
3130,8660;0,0380036
3131,8303;0,038136
3132,7944;0,0382817
3133,7588;0,0384412
3134,7229;0,0386062
3135,6873;0,0387637
3136,6514;0,0389036
3137,6157;0,0390244
3138,5798;0,0391339
3139,5442;0,0392447
3140,5083;0,0393672
3141,4727;0,0395049
3142,4368;0,0396545
3143,4011;0,0398103
3144,3652;0,0399685
3145,3296;0,0401286
3146,2937;0,0402915
3147,2581;0,0404573
3148,2222;0,0406227
3149,1865;0,0407821
3150,1506;0,0409308
3151,1150;0,0410672
3152,0791;0,0411951
3153,0435;0,0413218
3154,0076;0,0414553
3154,9719;0,0416004
3155,9360;0,0417572
3156,9004;0,041921
3157,8645;0,0420853
3158,8289;0,0422448
3159,7930;0,0423976
3160,7573;0,0425456
3161,7214;0,0426925
3162,6858;0,0428423
3163,6499;0,0429975
3164,6143;0,0431586
3165,5784;0,0433241
3166,5427;0,0434903
3167,5068;0,0436533
3168,4712;0,0438109
3169,4353;0,0440412
3170,3997;0,0441964
3171,3638;0,0443594
3172,3281;0,0445341
3173,2922;0,0447178
3174,2566;0,0449019
3175,2207;0,0450762
3176,1851;0,0452352
3177,1492;0,0453813
3178,1135;0,0455227
3179,0776;0,0456675
3180,0420;0,0458185
3181,0061;0,0459729
3181,9705;0,0461257
3182,9346;0,046275
3183,8989;0,0464242
3184,8630;0,0465796
3185,8274;0,0467453
3186,7915;0,0469204
3187,7559;0,0470992
3188,7200;0,047275
3189,6843;0,0474431
3190,6484;0,0476024
3191,6128;0,0477538
3192,5769;0,0478986
3193,5413;0,0480383
3194,5054;0,0481751
3195,4697;0,048312
3196,4338;0,0484519
3197,3982;0,048596
3198,3623;0,048743
3199,3267;0,0488899
3200,2908;0,0490348
3201,2551;0,0491776
3202,2192;0,04932
3203,1836;0,0494633
3204,1477;0,0496072
3205,1121;0,0497502
3206,0762;0,0498908
3207,0405;0,0500292
3208,0046;0,0501659
3208,9690;0,0503002
3209,9331;0,0504304
3210,8975;0,0505547
3211,8616;0,0506743
3212,8259;0,050794
3213,7900;0,05092
3214,7544;0,0510558
3215,7185;0,0511993
3216,6829;0,051344
3217,6470;0,0514833
3218,6113;0,0516153
3219,5754;0,0517446
3220,5398;0,0518789
3221,5039;0,0520244
3222,4683;0,0521812
3223,4324;0,0523435
3224,3967;0,0525027
3225,3608;0,0526522
3226,3252;0,0527899
3227,2893;0,0529187
3228,2537;0,0530437
3229,2178;0,0531686
3230,1821;0,0532935
3231,1462;0,0534153
3232,1106;0,0535301
3233,0747;0,0536372
3234,0391;0,0537409
3235,0032;0,0538502
3235,9675;0,0539748
3236,9316;0,0541201
3237,8960;0,0542834
3238,8601;0,054454
3239,8245;0,0546169
3240,7886;0,0547595
3241,7529;0,0548772
3242,7170;0,0549758
3243,6814;0,0550709
3244,6455;0,0551809
3245,6099;0,05532
3246,5740;0,0554915
3247,5383;0,0556866
3248,5024;0,0558884
3249,4668;0,0560788
3250,4309;0,0562446
3251,3953;0,0563814
3252,3594;0,0564938
3253,3237;0,056593
3254,2878;0,0566924
3255,2522;0,0568036
3256,2163;0,0569334
3257,1807;0,057082
3258,1448;0,0572441
3259,1091;0,0574112
3260,0732;0,0575752
3261,0376;0,0577306
3262,0017;0,0578762
3262,9661;0,0580133
3263,9302;0,0581446
3264,8945;0,0582719
3265,8586;0,0583965
3266,8230;0,0585192
3267,7871;0,0586398
3268,7515;0,0587562
3269,7156;0,058864
3270,6799;0,0589576
3271,6440;0,0590333
3272,6084;0,0590923
3273,5725;0,0591422
3274,5369;0,059194
3275,5010;0,0592575
3276,4653;0,0593375
3277,4294;0,0594323
3278,3938;0,0595356
3279,3579;0,059639
3280,3223;0,0597353
3281,2864;0,0598199
3282,2507;0,0598924
3283,2148;0,0599565
3284,1792;0,0600177
3285,1433;0,0600798
3286,1077;0,0601412
3287,0718;0,0601946
3288,0361;0,0602301
3289,0002;0,060242
3289,9646;0,0602328
3290,9287;0,060213
3291,8931;0,0601958
3292,8572;0,0601911
3293,8215;0,0602024
3294,7856;0,0602282
3295,7500;0,0602656
3296,7141;0,0603111
3297,6785;0,0603599
3298,6426;0,0604047
3299,6069;0,0604384
3300,5710;0,0604582
3301,5354;0,0604693
3302,4995;0,0604824
3303,4639;0,0605074
3304,4280;0,0605448
3305,3923;0,060584
3306,3564;0,0606089
3307,3208;0,0606079
3308,2849;0,0605819
3309,2493;0,0605456
3310,2134;0,0605205
3311,1777;0,0605241
3312,1418;0,0605631
3313,1062;0,0606313
3314,0703;0,0607138
3315,0347;0,0607939
3315,9988;0,0608603
3316,9631;0,0609104
3317,9272;0,0609503
3318,8916;0,0609898
3319,8557;0,061036
3320,8201;0,0610895
3321,7842;0,0611446
3322,7485;0,0611947
3323,7126;0,0612373
3324,6770;0,0612765
3325,6411;0,0613195
3326,6055;0,0613719
3327,5696;0,0614331
3328,5339;0,0614973
3329,4980;0,0615569
3330,4624;0,0616059
3331,4265;0,0616414
3332,3909;0,0616625
3333,3550;0,0616694
3334,3193;0,0616641
3335,2834;0,0616511
3336,2478;0,0616356
3337,2119;0,0616203
3338,1763;0,0616025
3339,1404;0,0615752
3340,1047;0,0615317
3341,0688;0,0614722
3342,0332;0,0614052
3342,9973;0,0613436
3343,9617;0,0612963
3344,9258;0,0612612
3345,8901;0,0612262
3346,8542;0,0611756
3347,8186;0,0610994
3348,7827;0,0609984
3349,7471;0,0608831
3350,7112;0,0607667
3351,6755;0,060659
3352,6396;0,0605629
3353,6040;0,0604765
3354,5681;0,0603961
3355,5325;0,060319
3356,4966;0,0602442
3357,4609;0,0601706
3358,4250;0,0600966
3359,3894;0,0600199
3360,3535;0,0599384
3361,3179;0,0598511
3362,2820;0,0597583
3363,2463;0,0596615
3364,2104;0,0595626
3365,1748;0,0594642
3366,1389;0,0593682
3367,1033;0,059276
3368,0674;0,0591873
3369,0317;0,0591003
3369,9958;0,0590126
3370,9602;0,058923
3371,9243;0,0588318
3372,8887;0,05874
3373,8528;0,0586478
3374,8171;0,0585532
3375,7813;0,0584526
3376,7456;0,0583441
3377,7097;0,0582291
3378,6741;0,0581124
3379,6382;0,0579988
3380,6025;0,0578893
3381,5667;0,0577805
3382,5310;0,0576686
3383,4951;0,0575548
3384,4595;0,0574473
3385,4236;0,0573568
3386,3879;0,0572874
3387,3521;0,0572311
3388,3164;0,0571694
3389,2805;0,0570834
3390,2449;0,0569654
3391,2090;0,0568236
3392,1733;0,0566781
3393,1375;0,0565479
3394,1018;0,0564411
3395,0659;0,0563531
3396,0303;0,0562724
3396,9944;0,0561891
3397,9587;0,0560986
3398,9229;0,0560012
3399,8872;0,0558989
3400,8513;0,0557935
3401,8157;0,055686
3402,7798;0,0555773
3403,7441;0,0554678
3404,7083;0,0553563
3405,6726;0,0552401
3406,6367;0,0551156
3407,6011;0,0549802
3408,5652;0,054833
3409,5295;0,0546758
3410,4937;0,0545132
3411,4580;0,0543538
3412,4221;0,0542084
3413,3865;0,0540855
3414,3506;0,0539841
3415,3149;0,0538902
3416,2791;0,0537786
3417,2434;0,0536254
3418,2075;0,0534215
3419,1719;0,0531809
3420,1360;0,0529362
3421,1003;0,0527221
3422,0645;0,0525572
3423,0288;0,0524367
3423,9929;0,052339
3424,9573;0,0522393
3425,9214;0,0521211
3426,8857;0,0519798
3427,8499;0,0518207
3428,8142;0,0516541
3429,7783;0,051489
3430,7427;0,0513302
3431,7068;0,0511772
3432,6711;0,0510256
3433,6353;0,050869
3434,5996;0,0507016
3435,5637;0,0505201
3436,5281;0,0503244
3437,4922;0,0501192
3438,4565;0,049914
3439,4207;0,0497214
3440,3850;0,049551
3441,3491;0,0494024
3442,3135;0,0492596
3443,2776;0,0490956
3444,2419;0,0488863
3445,2061;0,0486277
3446,1704;0,0483445
3447,1345;0,048081
3448,0989;0,0478751
3449,0630;0,0477356
3450,0273;0,0476394
3450,9915;0,047548
3451,9558;0,04743
3452,9199;0,0472752
3453,8843;0,0470949
3454,8484;0,0469087
3455,8127;0,0467285
3456,7769;0,0465506
3457,7412;0,0463608
3458,7053;0,0461478
3459,6697;0,0459141
3460,6338;0,0456772
3461,5981;0,0454593
3462,5623;0,0452734
3463,5266;0,0451153
3464,4907;0,0449661
3465,4551;0,0448045
3466,4192;0,0446196
3467,3835;0,0444158
3468,3477;0,0442076
3469,3120;0,0440082
3470,2761;0,04382
3471,2405;0,0436351
3472,2046;0,0434435
3473,1689;0,0432441
3474,1331;0,0430465
3475,0974;0,0428636
3476,0615;0,0426982
3477,0259;0,0425373
3477,9900;0,0423583
3478,9543;0,0421444
3479,9185;0,0418988
3480,8828;0,0416455
3481,8469;0,0414145
3482,8113;0,041221
3483,7754;0,0410562
3484,7397;0,0408963
3485,7039;0,0407211
3486,6682;0,040528
3487,6323;0,0403327
3488,5967;0,0401561
3489,5608;0,0400064
3490,5251;0,0398704
3491,4893;0,0397202
3492,4536;0,0395305
3493,4177;0,0392967
3494,3821;0,0390428
3495,3462;0,0388114
3496,3105;0,0386383
3497,2747;0,0385258
3498,2390;0,038436
3499,2031;0,0383077
3500,1675;0,0380898
3501,1316;0,0377743
3502,0959;0,0374111
3503,0601;0,037083
3504,0244;0,0368519
3504,9885;0,0367195
3505,9529;0,036634
3506,9170;0,036528
3507,8813;0,0363575
3508,8455;0,036124
3509,8098;0,0358689
3510,7739;0,0356418
3511,7383;0,0354676
3512,7024;0,0353366
3513,6667;0,0352215
3514,6309;0,0350999
3515,5952;0,0349665
3516,5593;0,0348296
3517,5237;0,0346969
3518,4878;0,0345632
3519,4521;0,0344101
3520,4163;0,0342181
3521,3806;0,0339806
3522,3447;0,0337109
3523,3091;0,0334336
3524,2732;0,0331675
3525,2375;0,0329156
3526,2017;0,0326705
3527,1660;0,0324313
3528,1301;0,0322137
3529,0945;0,0320416
3530,0586;0,0319272
3531,0229;0,0318569
3531,9871;0,0317939
3532,9514;0,0316947
3533,9155;0,0315306
3534,8799;0,0313052
3535,8440;0,0310561
3536,8083;0,0308376
3537,7725;0,0306909
3538,7368;0,0306228
3539,7009;0,0306033
3540,6653;0,0305767
3541,6294;0,0304785
3542,5938;0,0302575
3543,5579;0,0299068
3544,5222;0,0294841
3545,4863;0,0290922
3546,4507;0,0288151
3547,4148;0,0286637
3548,3792;0,0285794
3549,3433;0,0284794
3550,3076;0,0283037
3551,2717;0,0280463
3552,2361;0,0277603
3553,2002;0,027524
3554,1646;0,0273869
3555,1287;0,0273396
3556,0930;0,0273272
3557,0571;0,0272869
3558,0215;0,0271835
3558,9856;0,0270298
3559,9500;0,0268764
3560,9141;0,0267727
3561,8784;0,0267229
3562,8425;0,0266646
3563,8069;0,0264842
3564,7710;0,0260796
3565,7354;0,025465
3566,6995;0,0248215
3567,6638;0,024369
3568,6279;0,0241816
3569,5923;0,0241816
3570,5564;0,0242527
3571,5208;0,0243037
3572,4849;0,0242789
3573,4492;0,0241611
3574,4133;0,0239736
3575,3777;0,0237636
3576,3418;0,0235709
3577,3062;0,0234088
3578,2703;0,0232732
3579,2346;0,0231662
3580,1987;0,0231075
3581,1631;0,0231202
3582,1272;0,0231998
3583,0916;0,0232903
3584,0557;0,0232843
3585,0200;0,0230695
3585,9841;0,022625
3586,9485;0,0220923
3587,9126;0,0216856
3588,8770;0,0215048
3589,8411;0,0214921
3590,8054;0,0215277
3591,7695;0,0215058
3592,7339;0,0213656
3593,6980;0,0211132
3594,6624;0,0208169
3595,6265;0,0205523
3596,5908;0,0203417
3597,5549;0,0201526
3598,5193;0,0199493
3599,4834;0,0197411
3600,4478;0,0195849
3601,4119;0,0195389
3602,3762;0,019611
3603,3403;0,0197478
3604,3047;0,0198599
3605,2688;0,0198594
3606,2332;0,019701
3607,1973;0,0194112
3608,1616;0,0190679
3609,1257;0,0187378
3610,0901;0,018438
3611,0542;0,0181609
3612,0186;0,0179174
3612,9827;0,0177443
3613,9470;0,017669
3614,9111;0,017667
3615,8755;0,0176534
3616,8396;0,0175214
3617,8040;0,0172203
3618,7681;0,0168223
3619,7324;0,0164977
3620,6965;0,0163908
3621,6609;0,0165381
3622,6250;0,0168967
3623,5894;0,0173874
3624,5535;0,0178861
3625,5178;0,0181984
3626,4819;0,0180934
3627,4463;0,0174706
3628,4104;0,0165543
3629,3748;0,015755
3630,3389;0,0152743
3631,3032;0,0150432
3632,2673;0,0149298
3633,2317;0,0148464
3634,1958;0,0147517
3635,1602;0,0146372
3636,1243;0,0145139
3637,0886;0,0143946
3638,0527;0,0142831
3639,0171;0,0141807
3639,9812;0,0141027
3640,9456;0,0140878
3641,9097;0,0141862
3642,8740;0,0144283
3643,8381;0,0147869
3644,8025;0,0151416
3645,7666;0,0152599
3646,7310;0,0148614
3647,6951;0,0138779
3648,6594;0,0127433
3649,6235;0,0120699
3650,5879;0,0119764
3651,5520;0,0121861
3652,5164;0,0124477
3653,4805;0,0126198
3654,4448;0,0126202
3655,4089;0,0124324
3656,3733;0,0121351
3657,3374;0,0118607
3658,3018;0,011697
3659,2659;0,0116473
3660,2302;0,011668
3661,1943;0,0117234
3662,1587;0,0118147
3663,1228;0,0119746
3664,0872;0,0122284
3665,0513;0,0125476
3666,0156;0,0128301
3666,9797;0,0129299
3667,9441;0,0127592
3668,9082;0,0124175
3669,8726;0,0121597
3670,8367;0,0121549
3671,8010;0,0123308
3672,7651;0,0124514
3673,7295;0,0122741
3674,6936;0,0117289
3675,6580;0,0110332
3676,6221;0,0105128
3677,5864;0,0102957
3678,5505;0,0103054
3679,5149;0,0104311
3680,4790;0,0106094
3681,4434;0,0108272
3682,4075;0,0111039
3683,3718;0,0114597
3684,3359;0,0118734
3685,3003;0,0122469
3686,2644;0,012406
3687,2288;0,0121783
3688,1929;0,011566
3689,1572;0,0108483
3690,1213;0,0103684
3691,0857;0,0102304
3692,0498;0,0103255
3693,0142;0,0105234
3693,9783;0,0107551
3694,9426;0,0110011
3695,9067;0,0112592
3696,8711;0,0115162
3697,8352;0,0117289
3698,7996;0,0118302
3699,7637;0,0117662
3700,7280;0,0115505
3701,6921;0,0112875
3702,6565;0,0111181
3703,6206;0,0111342
3704,5850;0,011342
3705,5491;0,0116785
3706,5134;0,0120299
3707,4775;0,012238
3708,4419;0,0121333
3709,4060;0,0116407
3710,3704;0,0109126
3711,3345;0,0102792
3712,2988;0,00996867
3713,2629;0,00997011
3714,2273;0,0101659
3715,1914;0,0104563
3716,1558;0,0107729
3717,1199;0,01106
3718,0842;0,011276
3719,0483;0,0114087
3720,0127;0,0114793
3720,9768;0,0115199
3721,9412;0,0115438
3722,9053;0,0115414
3723,8696;0,0115081
3724,8337;0,0114722
3725,7981;0,0114895
3726,7622;0,01161
3727,7266;0,0118496
3728,6907;0,0121829
3729,6550;0,012543
3730,6191;0,0128228
3731,5835;0,0128862
3732,5476;0,0126153
3733,5120;0,0120052
3734,4761;0,0112414
3735,4404;0,0106084
3736,4045;0,0102767
3737,3689;0,0102539
3738,3330;0,0104983
3739,2974;0,0109718
3740,2615;0,0115981
3741,2258;0,0122132
3742,1899;0,0125828
3743,1543;0,0125419
3744,1184;0,0121805
3745,0828;0,0117928
3746,0469;0,0115828
3747,0112;0,0115218
3747,9753;0,0114262
3748,9397;0,0110955
3749,9038;0,0105041
3750,8682;0,00991257
3751,8323;0,00962018
3752,7966;0,00965665
3753,7607;0,00986892
3754,7251;0,0101079
3755,6892;0,0102643
3756,6536;0,0102674
3757,6177;0,010124
3758,5820;0,00993828
3759,5461;0,0098418
3760,5105;0,00989263
3761,4746;0,0100584
3762,4390;0,0102681
3763,4031;0,0104561
3764,3674;0,0105776
3765,3315;0,01061
3766,2959;0,010546
3767,2600;0,0103888
3768,2244;0,0101587
3769,1885;0,00990948
3770,1528;0,00972322
3771,1169;0,00967339
3772,0813;0,00978389
3773,0454;0,0100218
3774,0098;0,0103156
3774,9739;0,0105734
3775,9382;0,010704
3776,9023;0,0106548
3777,8667;0,0104548
3778,8308;0,0102097
3779,7952;0,0100248
3780,7593;0,00993416
3781,7236;0,00990585
3782,6877;0,00989333
3783,6521;0,00987245
3784,6162;0,00984838
3785,5806;0,00984093
3786,5447;0,00986604
3787,5090;0,00992881
3788,4731;0,0100294
3789,4375;0,0101679
3790,4016;0,0103377
3791,3660;0,0105161
3792,3301;0,010665
3793,2944;0,010751
3794,2585;0,0107756
3795,2229;0,0107841
3796,1870;0,0108314
3797,1514;0,0109235
3798,1155;0,0109907
3799,0798;0,0109298
3800,0439;0,0107037
3801,0083;0,0104098
3801,9724;0,0102079
3802,9368;0,0101678
3803,9009;0,0102249
3804,8652;0,0102542
3805,8293;0,0101681
3806,7937;0,00998762
3807,7578;0,00983921
3808,7222;0,00985507
3809,6863;0,0100833
3810,6506;0,010483
3811,6147;0,0109507
3812,5791;0,0113442
3813,5432;0,011533
3814,5076;0,0114861
3815,4717;0,0113057
3816,4360;0,0111259
3817,4001;0,0109772
3818,3645;0,0107832
3819,3286;0,0104725
3820,2930;0,0100869
3821,2571;0,00976637
3822,2214;0,00961229
3823,1855;0,00961232
3824,1499;0,00970032
3825,1140;0,00982573
3826,0784;0,00996837
3827,0425;0,0101267
3828,0068;0,0103026
3828,9709;0,0104907
3829,9353;0,0106787
3830,8994;0,0108592
3831,8638;0,0110369
3832,8279;0,0112183
3833,7922;0,0113845
3834,7563;0,0114726
3835,7207;0,0113923
3836,6848;0,0110901
3837,6492;0,0106199
3838,6133;0,0101362
3839,5776;0,00978582
3840,5417;0,00961668
3841,5061;0,00959082
3842,4702;0,00964861
3843,4346;0,00975408
3844,3987;0,00990882
3845,3630;0,0101456
3846,3271;0,0105111
3847,2915;0,0110415
3848,2556;0,0117276
3849,2200;0,0124678
3850,1841;0,0130216
3851,1484;0,0130406
3852,1125;0,0123271
3853,0769;0,0112112
3854,0410;0,0103206
3855,0054;0,00989819
3855,9695;0,00982941
3856,9338;0,00998739
3857,8979;0,0102913
3858,8623;0,0106473
3859,8264;0,0109303
3860,7908;0,011026
3861,7549;0,0109094
3862,7192;0,0106931
3863,6833;0,0105605
3864,6477;0,0106211
3865,6118;0,0108417
3866,5762;0,011095
3867,5403;0,0112386
3868,5046;0,0111754
3869,4688;0,0109002
3870,4331;0,0105117
3871,3972;0,0101617
3872,3616;0,00997179
3873,3257;0,00998793
3874,2900;0,0101875
3875,2542;0,010504
3876,2185;0,0108442
3877,1826;0,0111064
3878,1470;0,0112121
3879,1111;0,01115
3880,0754;0,0109919
3881,0396;0,0108431
3882,0039;0,0107609
3882,9680;0,0107291
3883,9324;0,0107067
3884,8965;0,010686
3885,8608;0,0106973
3886,8250;0,0107616
3887,7893;0,0108489
3888,7534;0,0108817
3889,7178;0,0107837
3890,6819;0,0105557
3891,6462;0,0103159
3892,6104;0,0102253
3893,5747;0,0103621
3894,5388;0,0106893
3895,5032;0,0111073
3896,4673;0,0115012
3897,4316;0,0117693
3898,3958;0,0118549
3899,3601;0,0117595
3900,3242;0,0115157
3901,2886;0,0111511
3902,2527;0,0107014
3903,2170;0,0102492
3904,1812;0,00990743
3905,1455;0,00974988
3906,1096;0,00977231
3907,0740;0,00991717
3908,0381;0,0101171
3909,0024;0,0103218
3909,9666;0,0105085
3910,9309;0,0106783
3911,8950;0,0108407
3912,8594;0,0109913
3913,8235;0,0111007
3914,7878;0,0111275
3915,7520;0,011052
3916,7163;0,0109055
3917,6804;0,0107595
3918,6448;0,0106742
3919,6089;0,0106565
3920,5732;0,0106676
3921,5374;0,0106562
3922,5017;0,0105949
3923,4658;0,0105011
3924,4302;0,010429
3925,3943;0,0104285
3926,3586;0,0105058
3927,3228;0,0106185
3928,2871;0,0107006
3929,2512;0,0106958
3930,2156;0,0105906
3931,1797;0,0104298
3932,1440;0,0102913
3933,1082;0,0102365
3934,0725;0,0102805
3935,0366;0,0104032
3936,0010;0,0105696
3936,9651;0,0107412
3937,9294;0,010878
3938,8936;0,0109442
3939,8579;0,010922
3940,8220;0,0108275
3941,7864;0,0107126
3942,7505;0,010639
3943,7148;0,0106383
3944,6790;0,0106929
3945,6433;0,0107507
3946,6074;0,0107592
3947,5718;0,0106977
3948,5359;0,0105914
3949,5002;0,010494
3950,4644;0,0104503
3951,4287;0,0104677
3952,3928;0,0105216
3953,3572;0,0105787
3954,3213;0,0106187
3955,2856;0,0106401
3956,2498;0,010653
3957,2141;0,0106649
3958,1782;0,0106726
3959,1426;0,0106666
3960,1067;0,0106431
3961,0710;0,0106117
3962,0352;0,010592
3962,9995;0,0106008
3963,9636;0,0106407
3964,9280;0,0106985
3965,8921;0,0107542
3966,8564;0,0107918
3967,8206;0,0108061
3968,7849;0,0108015
3969,7490;0,0107859
3970,7134;0,0107645
3971,6775;0,0107381
3972,6418;0,0107073
3973,6060;0,0106769
3974,5703;0,010656
3975,5344;0,0106537
3976,4988;0,0106727
3977,4629;0,0107069
3978,4272;0,0107444
3979,3914;0,0107738
3980,3557;0,0107896
3981,3198;0,0107937
3982,2842;0,0107934
3983,2483;0,0107959
3984,2126;0,0108044
3985,1768;0,0108171
3986,1411;0,0108296
3987,1052;0,0108376
3988,0696;0,0108389
3989,0337;0,0108335
3989,9980;0,0108225
3990,9622;0,0108074
3991,9265;0,0107902
3992,8906;0,0107749
3993,8550;0,0107676
3994,8191;0,0107745
3995,7834;0,0107969
3996,7476;0,0108294
3997,7119;0,0108604
3998,6760;0,0108783
3999,6404;0,010878
4000,6045;0,010622

##### Extended Information
[Comments]
Sample name
Comment
Username
Division
Organization;UNIVERSIDAD INDUSTRIAL DE SANTANDER

[Detailed Information]
Creation date;14/03/2025 3:55 p.m.

Data array type;Linear data array
Horizontal axis;Wavenumber [cm-1]
Vertical axis;Abs
Start;399,193 cm-1
End;4000,6 cm-1
Data interval;0,964233 cm-1
Data points;3736    

[Measurement Information]
Model name;FT/IR-4X1typeA
Serial No.;A035162111

Accessory;ATR PRO 4X
Accessory S/N;A021162126
Incident angle;45 deg

Measurement date;14/03/2025 3:55 p.m.

Light source;Standard
Detector;TGS
Accumulation;40
Resolution;4 cm-1
Zero filling;On
Apodization;Cosine
Gain;Auto (8)
Aperture;Auto (7 mm)
Scan speed;Auto (2 mm/sec)
Filter;Auto (12800 Hz)

