TITLE;
DATA TYPE;INFRARED SPECTRUM
ORIGIN;JASCO
OWNER;
DATE;25/03/17
TIME;11:28:20
SPECTROMETER/DATA SYSTEM;
LOCALE;9226
RESOLUTION;
DELTAX;0,964233
XUNITS;1/CM
YUNITS;ABSORBANCE
FIRSTX;  399,1927
LASTX; 4000,6047
NPOINTS;    3736
FIRSTY;     0,14730
MAXY;     0,19177
MINY;     0,00461
XYDATA
399,1927;0,147301
400,1569;0,147163
401,1211;0,147436
402,0854;0,148085
403,0496;0,148941
404,0138;0,149831
404,9781;0,150619
405,9423;0,151202
406,9065;0,151513
407,8708;0,151536
408,8350;0,15132
409,7992;0,150986
410,7635;0,150721
411,7277;0,15072
412,6919;0,151104
413,6562;0,151862
414,6204;0,152886
415,5846;0,154018
416,5489;0,155096
417,5131;0,155979
418,4773;0,156632
419,4416;0,157222
420,4058;0,158004
421,3700;0,159079
422,3343;0,160369
423,2985;0,161722
424,2627;0,162994
425,2270;0,164077
426,1912;0,164908
427,1554;0,165464
428,1197;0,165737
429,0839;0,165731
430,0481;0,165492
431,0124;0,165141
431,9766;0,164864
432,9408;0,164834
433,9051;0,165105
434,8693;0,165569
435,8335;0,166017
436,7978;0,166277
437,7620;0,16633
438,7262;0,166298
439,6905;0,166357
440,6547;0,166617
441,6189;0,167067
442,5832;0,167569
443,5474;0,167923
444,5116;0,167964
445,4759;0,167629
446,4401;0,166956
447,4043;0,166042
448,3686;0,165015
449,3328;0,164019
450,2970;0,163198
451,2613;0,162644
452,2255;0,162359
453,1897;0,162247
454,1540;0,16217
455,1182;0,162025
456,0824;0,161814
457,0467;0,161656
458,0109;0,161703
458,9751;0,161993
459,9394;0,162387
460,9036;0,162663
461,8678;0,162677
462,8321;0,162443
463,7963;0,162132
464,7605;0,161982
465,7248;0,162168
466,6890;0,16268
467,6532;0,163312
468,6175;0,163779
469,5817;0,16386
470,5459;0,163518
471,5102;0,162923
472,4744;0,162381
473,4386;0,162163
474,4029;0,162354
475,3671;0,162857
476,3313;0,16349
477,2956;0,164079
478,2598;0,164499
479,2240;0,164676
480,1883;0,164596
481,1525;0,164311
482,1167;0,163931
483,0810;0,163601
484,0452;0,163454
485,0094;0,163557
485,9737;0,163891
486,9379;0,164376
487,9021;0,164926
488,8664;0,165465
489,8306;0,165918
490,7948;0,166197
491,7591;0,166212
492,7233;0,165927
493,6875;0,16541
494,6518;0,164833
495,6160;0,164401
496,5802;0,16426
497,5445;0,164435
498,5087;0,16484
499,4729;0,165326
500,4372;0,165755
501,4014;0,166059
502,3656;0,166243
503,3299;0,166356
504,2941;0,16644
505,2583;0,166508
506,2226;0,166558
507,1868;0,166602
508,1510;0,166674
509,1153;0,166815
510,0795;0,167045
511,0437;0,167357
512,0080;0,167718
512,9722;0,168092
513,9365;0,168446
514,9007;0,16875
515,8649;0,168971
516,8292;0,169085
517,7934;0,169086
518,7576;0,169005
519,7219;0,168896
520,6861;0,168811
521,6503;0,168771
522,6146;0,168763
523,5788;0,168759
524,5430;0,168724
525,5073;0,168633
526,4715;0,16848
527,4357;0,168265
528,4000;0,167996
529,3642;0,167677
530,3284;0,167314
531,2927;0,166919
532,2569;0,166508
533,2211;0,166103
534,1854;0,165724
535,1496;0,165395
536,1138;0,165147
537,0781;0,16502
538,0423;0,165052
539,0065;0,165252
539,9708;0,165591
540,9350;0,165991
541,8992;0,166361
542,8635;0,166626
543,8277;0,16676
544,7919;0,166798
545,7562;0,166814
546,7204;0,166887
547,6846;0,167064
548,6489;0,167344
549,6131;0,167691
550,5773;0,168063
551,5416;0,168432
552,5058;0,168792
553,4700;0,169144
554,4343;0,169468
555,3985;0,169702
556,3627;0,169746
557,3270;0,169493
558,2912;0,168875
559,2554;0,167907
560,2197;0,166687
561,1839;0,165372
562,1481;0,164114
563,1124;0,163015
564,0766;0,162101
565,0408;0,161335
566,0051;0,160654
566,9693;0,160003
567,9335;0,15935
568,8978;0,158683
569,8620;0,15801
570,8262;0,157353
571,7905;0,156754
572,7547;0,156265
573,7189;0,155933
574,6832;0,155771
575,6474;0,15574
576,6116;0,155762
577,5759;0,155765
578,5401;0,155715
579,5043;0,155631
580,4686;0,155556
581,4328;0,15551
582,3970;0,155471
583,3613;0,155384
584,3255;0,155202
585,2897;0,154925
586,2540;0,154606
587,2182;0,15432
588,1824;0,154125
589,1467;0,15403
590,1109;0,153993
591,0751;0,153946
592,0394;0,15383
593,0036;0,153623
593,9678;0,153343
594,9321;0,153027
595,8963;0,152706
596,8605;0,15239
597,8248;0,152071
598,7890;0,15173
599,7532;0,151352
600,7175;0,150938
601,6817;0,150507
602,6459;0,150087
603,6102;0,149707
604,5744;0,149383
605,5386;0,149108
606,5029;0,148856
607,4671;0,148584
608,4313;0,148248
609,3956;0,147822
610,3598;0,147309
611,3240;0,146747
612,2883;0,146197
613,2525;0,145711
614,2167;0,145302
615,1810;0,144916
616,1452;0,144437
617,1094;0,143737
618,0737;0,142742
619,0379;0,141488
620,0021;0,140104
620,9664;0,138749
621,9306;0,137549
622,8948;0,136565
623,8591;0,135794
624,8233;0,135187
625,7875;0,134715
626,7518;0,134326
627,7160;0,133966
628,6802;0,13358
629,6445;0,133122
630,6087;0,132578
631,5729;0,131975
632,5372;0,131378
633,5014;0,130855
634,4656;0,130444
635,4299;0,130133
636,3941;0,129875
637,3583;0,12962
638,3226;0,129338
639,2868;0,129027
640,2510;0,128696
641,2153;0,128351
642,1795;0,127996
643,1437;0,127635
644,1080;0,127287
645,0722;0,126971
646,0364;0,126696
647,0007;0,126438
647,9649;0,126157
648,9291;0,12582
649,8934;0,125441
650,8576;0,125084
651,8218;0,124844
652,7861;0,124794
653,7503;0,124953
654,7145;0,125275
655,6788;0,125672
656,6430;0,126055
657,6072;0,126364
658,5715;0,126572
659,5357;0,126664
660,4999;0,126624
661,4642;0,126442
662,4284;0,126132
663,3926;0,12573
664,3569;0,125296
665,3211;0,124932
666,2853;0,124759
667,2496;0,124759
668,2138;0,124552
669,1780;0,123717
670,1423;0,122402
671,1065;0,120988
672,0707;0,119591
673,0350;0,118159
673,9992;0,116672
674,9634;0,115187
675,9277;0,113792
676,8919;0,11254
677,8561;0,111413
678,8204;0,110361
679,7846;0,109356
680,7488;0,108421
681,7131;0,107594
682,6773;0,106894
683,6415;0,1063
684,6058;0,10577
685,5700;0,105275
686,5342;0,104819
687,4985;0,104423
688,4627;0,104108
689,4269;0,10387
690,3912;0,103683
691,3554;0,103514
692,3196;0,103336
693,2839;0,103132
694,2481;0,10289
695,2123;0,102601
696,1766;0,102258
697,1408;0,101863
698,1050;0,101434
699,0693;0,100994
700,0335;0,100565
700,9977;0,100151
701,9620;0,0997397
702,9262;0,0993113
703,8904;0,0988503
704,8547;0,098364
705,8189;0,097871
706,7831;0,0973857
707,7474;0,0969041
708,7116;0,0964027
709,6758;0,0958507
710,6401;0,0952261
711,6043;0,0945276
712,5685;0,0937771
713,5328;0,0930127
714,4970;0,0922757
715,4612;0,0913377
716,4255;0,0907675
717,3897;0,0902406
718,3539;0,0896806
719,3182;0,0890013
720,2824;0,0881522
721,2466;0,0871523
722,2109;0,0860815
723,1751;0,0850358
724,1393;0,08408
725,1036;0,0832301
726,0678;0,0824639
727,0320;0,0817469
727,9963;0,0810531
728,9605;0,0803734
729,9247;0,0797117
730,8890;0,0790777
731,8532;0,0784815
732,8174;0,0779315
733,7817;0,0774319
734,7459;0,0769793
735,7101;0,0765622
736,6744;0,0761636
737,6386;0,0757686
738,6028;0,0753694
739,5671;0,0749666
740,5313;0,0745649
741,4955;0,0741697
742,4598;0,0737855
743,4240;0,073416
744,3882;0,0730641
745,3525;0,0727288
746,3167;0,0724022
747,2809;0,0720694
748,2452;0,0717145
749,2094;0,0713287
750,1736;0,0709159
751,1379;0,0704917
752,1021;0,0700771
753,0663;0,0696893
754,0306;0,0693353
754,9948;0,0690109
755,9590;0,0687032
756,9233;0,0683967
757,8875;0,0680789
758,8517;0,0677444
759,8160;0,0673966
760,7802;0,0670449
761,7444;0,0667005
762,7087;0,066371
763,6729;0,0660595
764,6371;0,0657659
765,6014;0,0654902
766,5656;0,0652339
767,5298;0,0649987
768,4941;0,0647831
769,4583;0,0645816
770,4225;0,0643858
771,3868;0,0641884
772,3510;0,0639846
773,3152;0,0637711
774,2795;0,0635444
775,2437;0,0633015
776,2079;0,0630431
777,1722;0,0627774
778,1364;0,0625181
779,1006;0,0622766
780,0649;0,0620531
781,0291;0,0618317
781,9933;0,0615865
782,9576;0,0612935
783,9218;0,0609427
784,8860;0,0605433
785,8503;0,0601202
786,8145;0,0597047
787,7787;0,0593251
788,7430;0,0589995
789,7072;0,0587328
790,6714;0,058517
791,6357;0,0583341
792,5999;0,0581629
793,5641;0,0579865
794,5284;0,0577966
795,4926;0,0575937
796,4568;0,0573818
797,4211;0,0571638
798,3853;0,0569396
799,3495;0,0567095
800,3138;0,0564784
801,2780;0,0562565
802,2422;0,0560547
803,2065;0,0558788
804,1707;0,0557262
805,1349;0,055588
806,0992;0,0554545
807,0634;0,0553199
808,0276;0,055183
808,9919;0,0550451
809,9561;0,0549076
810,9203;0,0547713
811,8846;0,0546382
812,8488;0,054511
813,8130;0,0543921
814,7773;0,0542812
815,7415;0,0541753
816,7057;0,0540724
817,6700;0,0539764
818,6342;0,0538992
819,5984;0,0538557
820,5627;0,0538547
821,5269;0,0538897
822,4911;0,0539387
823,4554;0,0539723
824,4196;0,053967
825,3839;0,0539154
826,3481;0,0538268
827,3123;0,0537187
828,2766;0,0536054
829,2408;0,0534915
830,2050;0,0533721
831,1693;0,0532407
832,1335;0,0530955
833,0977;0,0529415
834,0620;0,0527867
835,0262;0,0526376
835,9904;0,052495
836,9547;0,0523549
837,9189;0,0522123
838,8831;0,0520638
839,8474;0,0519093
840,8116;0,0517514
841,7758;0,0515936
842,7401;0,0514397
843,7043;0,0512932
844,6685;0,051158
845,6328;0,0510378
846,5970;0,0509364
847,5612;0,0508555
848,5255;0,050794
849,4897;0,0507467
850,4539;0,0507048
851,4182;0,0506589
852,3824;0,0506025
853,3466;0,0505353
854,3109;0,0504636
855,2751;0,0503976
856,2393;0,050346
857,2036;0,0503115
858,1678;0,0502887
859,1320;0,050266
860,0963;0,0502319
861,0605;0,0501816
862,0247;0,0501221
862,9890;0,0500714
863,9532;0,0500507
864,9174;0,0500746
865,8817;0,050143
866,8459;0,0502404
867,8101;0,0503444
868,7744;0,0504375
869,7386;0,050515
870,7028;0,0505846
871,6671;0,0506585
872,6313;0,0507453
873,5955;0,0508463
874,5598;0,0509604
875,5240;0,0510887
876,4882;0,0512368
877,4525;0,0514112
878,4167;0,0516144
879,3809;0,0518455
880,3452;0,0521051
881,3094;0,0524018
882,2736;0,052753
883,2379;0,0531778
884,2021;0,0536868
885,1663;0,0542765
886,1306;0,0549316
887,0948;0,0556336
888,0590;0,0563673
889,0233;0,0571211
889,9875;0,0578823
890,9517;0,0586316
891,9160;0,0593434
892,8802;0,0599902
893,8444;0,0605491
894,8087;0,0610042
895,7729;0,0613463
896,7371;0,0615704
897,7014;0,0616748
898,6656;0,0616617
899,6298;0,0615385
900,5941;0,0613176
901,5583;0,0610152
902,5225;0,0606497
903,4868;0,0602431
904,4510;0,0598213
905,4152;0,0594129
906,3795;0,0590448
907,3437;0,0587359
908,3079;0,0584938
909,2722;0,0583156
910,2364;0,0581941
911,2007;0,0581231
912,1649;0,0581004
913,1292;0,0581276
914,0934;0,0582069
915,0576;0,0583414
916,0219;0,058535
916,9861;0,058793
917,9503;0,0591184
918,9146;0,0595056
919,8788;0,0599362
920,8430;0,0603797
921,8073;0,0608017
922,7715;0,0611747
923,7357;0,0614854
924,7000;0,0617344
925,6642;0,0619324
926,6284;0,0620934
927,5927;0,0622321
928,5569;0,0623625
929,5211;0,0624967
930,4854;0,0626416
931,4496;0,0627975
932,4138;0,0629605
933,3781;0,0631293
934,3423;0,0633119
935,3065;0,0635262
936,2708;0,0637919
937,2350;0,0641193
938,1992;0,064505
939,1635;0,0649365
940,1277;0,0654057
941,0919;0,065918
942,0562;0,0664912
943,0204;0,0671441
943,9846;0,0678833
944,9489;0,0686988
945,9131;0,0695707
946,8773;0,0704814
947,8416;0,0714226
948,8058;0,0723948
949,7700;0,0734005
950,7343;0,074439
951,6985;0,0755083
952,6627;0,0766105
953,6270;0,0777568
954,5912;0,0789655
955,5554;0,0802545
956,5197;0,0816336
957,4839;0,0831005
958,4481;0,0846436
959,4124;0,0862474
960,3766;0,0878976
961,3408;0,0895844
962,3051;0,0913029
963,2693;0,0930517
964,2335;0,0948313
965,1978;0,0966421
966,1620;0,0984843
967,1262;0,10036
968,0905;0,102276
969,0547;0,104253
970,0189;0,106323
970,9832;0,108527
971,9474;0,110906
972,9116;0,113487
973,8759;0,11628
974,8401;0,119281
975,8043;0,122467
976,7686;0,125808
977,7328;0,129264
978,6970;0,132777
979,6613;0,136271
980,6255;0,139652
981,5897;0,142814
982,5540;0,145657
983,5182;0,148113
984,4824;0,150158
985,4467;0,151827
986,4109;0,153203
987,3751;0,154392
988,3394;0,155489
989,3036;0,156555
990,2678;0,157602
991,2321;0,158601
992,1963;0,159512
993,1605;0,160304
994,1248;0,160973
995,0890;0,161535
996,0532;0,162014
997,0175;0,162426
997,9817;0,162769
998,9459;0,163034
999,9102;0,163218
1000,8744;0,163341
1001,8386;0,16345
1002,8029;0,163609
1003,7671;0,163884
1004,7313;0,164333
1005,6956;0,164991
1006,6598;0,165881
1007,6240;0,167007
1008,5883;0,168361
1009,5525;0,169919
1010,5167;0,171637
1011,4810;0,173453
1012,4452;0,175298
1013,4094;0,1771
1014,3737;0,178803
1015,3379;0,180366
1016,3021;0,181769
1017,2664;0,183008
1018,2306;0,184095
1019,1948;0,185048
1020,1591;0,185896
1021,1233;0,186669
1022,0875;0,187398
1023,0518;0,188105
1024,0160;0,188802
1024,9802;0,189484
1025,9445;0,190132
1026,9087;0,190719
1027,8729;0,191213
1028,8372;0,191579
1029,8014;0,191774
1030,7656;0,191742
1031,7299;0,191411
1032,6941;0,190715
1033,6583;0,189615
1034,6226;0,188128
1035,5868;0,186338
1036,5510;0,184383
1037,5153;0,182429
1038,4795;0,180632
1039,4437;0,179115
1040,4080;0,177952
1041,3722;0,177166
1042,3364;0,176735
1043,3007;0,176602
1044,2649;0,176689
1045,2291;0,176912
1046,1934;0,177195
1047,1576;0,177478
1048,1218;0,177714
1049,0861;0,177861
1050,0503;0,17787
1051,0145;0,177686
1051,9788;0,177264
1052,9430;0,17658
1053,9072;0,17564
1054,8715;0,174469
1055,8357;0,17308
1056,7999;0,171459
1057,7642;0,169555
1058,7284;0,167304
1059,6926;0,164666
1060,6569;0,161665
1061,6211;0,158401
1062,5853;0,155028
1063,5496;0,151714
1064,5138;0,148598
1065,4780;0,145753
1066,4423;0,143192
1067,4065;0,140881
1068,3707;0,138768
1069,3350;0,136802
1070,2992;0,134944
1071,2634;0,13316
1072,2277;0,131412
1073,1919;0,12966
1074,1561;0,127863
1075,1204;0,125989
1076,0846;0,124031
1077,0488;0,122007
1078,0131;0,119959
1078,9773;0,117947
1079,9415;0,116037
1080,9058;0,114289
1081,8700;0,112754
1082,8342;0,111464
1083,7985;0,110426
1084,7627;0,109624
1085,7269;0,109025
1086,6912;0,108585
1087,6554;0,108268
1088,6196;0,108052
1089,5839;0,107932
1090,5481;0,107915
1091,5123;0,10801
1092,4766;0,108219
1093,4408;0,108535
1094,4050;0,108935
1095,3693;0,109393
1096,3335;0,109878
1097,2977;0,110363
1098,2620;0,110826
1099,2262;0,111244
1100,1904;0,111595
1101,1547;0,111854
1102,1189;0,111999
1103,0831;0,11202
1104,0474;0,111921
1105,0116;0,111724
1105,9758;0,111458
1106,9401;0,111143
1107,9043;0,110776
1108,8685;0,110319
1109,8328;0,109706
1110,7970;0,108867
1111,7612;0,107748
1112,7255;0,106337
1113,6897;0,104672
1114,6539;0,102845
1115,6182;0,100973
1116,5824;0,0991801
1117,5466;0,0975581
1118,5109;0,0961449
1119,4751;0,0949143
1120,4393;0,0937856
1121,4036;0,0926529
1122,3678;0,0914181
1123,3320;0,0900194
1124,2963;0,0884405
1125,2605;0,0867043
1126,2247;0,0848557
1127,1890;0,0829448
1128,1532;0,081016
1129,1174;0,079105
1130,0817;0,0772385
1131,0459;0,0754357
1132,0101;0,0737101
1132,9744;0,0720741
1133,9386;0,0705438
1134,9028;0,0691441
1135,8671;0,0679073
1136,8313;0,0668679
1137,7955;0,0660529
1138,7598;0,065476
1139,7240;0,0651353
1140,6882;0,0650163
1141,6525;0,0650962
1142,6167;0,0653464
1143,5809;0,0657333
1144,5452;0,0662191
1145,5094;0,0667659
1146,4736;0,0673422
1147,4379;0,0679298
1148,4021;0,0685259
1149,3663;0,0691395
1150,3306;0,0697822
1151,2948;0,0704583
1152,2590;0,0711584
1153,2233;0,0718585
1154,1875;0,0725236
1155,1517;0,0731129
1156,1160;0,0735819
1157,0802;0,0738813
1158,0444;0,0739542
1159,0087;0,073735
1159,9729;0,0731543
1160,9371;0,0721502
1161,9014;0,0706837
1162,8656;0,0687532
1163,8298;0,0664023
1164,7941;0,0637173
1165,7583;0,0608164
1166,7225;0,0578313
1167,6868;0,0548889
1168,6510;0,0520947
1169,6152;0,0495226
1170,5795;0,0472129
1171,5437;0,0451766
1172,5079;0,0434045
1173,4722;0,0418755
1174,4364;0,0405627
1175,4006;0,0394366
1176,3649;0,0384664
1177,3291;0,0376237
1178,2933;0,0368859
1179,2576;0,0362399
1180,2218;0,0356825
1181,1860;0,0352155
1182,1503;0,0348404
1183,1145;0,0345528
1184,0787;0,0343423
1185,0430;0,0341967
1186,0072;0,0341077
1186,9714;0,0340753
1187,9357;0,0341084
1188,8999;0,0342208
1189,8641;0,0344257
1190,8284;0,0347296
1191,7926;0,0351289
1192,7568;0,0356102
1193,7211;0,0361533
1194,6853;0,0367357
1195,6495;0,0373363
1196,6138;0,0379377
1197,5780;0,0385257
1198,5422;0,0390898
1199,5065;0,0395154
1200,4707;0,0400231
1201,4349;0,0404903
1202,3992;0,0409107
1203,3634;0,0412748
1204,3276;0,0415694
1205,2919;0,0417823
1206,2561;0,0419094
1207,2203;0,0419615
1208,1846;0,0419658
1209,1488;0,0419614
1210,1130;0,04199
1211,0773;0,0420867
1212,0415;0,0422745
1213,0057;0,0425636
1213,9700;0,0429539
1214,9342;0,0434384
1215,8984;0,0440044
1216,8627;0,0446341
1217,8269;0,0453061
1218,7911;0,0459999
1219,7554;0,0466988
1220,7196;0,0473923
1221,6838;0,0480742
1222,6481;0,0487403
1223,6123;0,0493853
1224,5765;0,0500031
1225,5408;0,050589
1226,5050;0,0511421
1227,4692;0,0516669
1228,4335;0,0521705
1229,3977;0,0526591
1230,3619;0,0531329
1231,3262;0,0535835
1232,2904;0,0539944
1233,2546;0,054346
1234,2189;0,0546238
1235,1831;0,0548249
1236,1473;0,0549611
1237,1116;0,0550546
1238,0758;0,0551293
1239,0400;0,0552005
1240,0043;0,0552702
1240,9685;0,0553287
1241,9327;0,0553611
1242,8970;0,0553541
1243,8612;0,0553006
1244,8254;0,0551995
1245,7897;0,0550538
1246,7539;0,0548688
1247,7181;0,0546511
1248,6824;0,0544086
1249,6466;0,054149
1250,6108;0,0538795
1251,5751;0,0536071
1252,5393;0,0533396
1253,5035;0,0530862
1254,4678;0,052856
1255,4320;0,052653
1256,3962;0,0524726
1257,3605;0,0523008
1258,3247;0,0521187
1259,2889;0,05191
1260,2532;0,0516673
1261,2174;0,051393
1262,1816;0,0510951
1263,1459;0,0507814
1264,1101;0,0504556
1265,0743;0,0501178
1266,0386;0,0497666
1267,0028;0,0494015
1267,9670;0,0490226
1268,9313;0,04863
1269,8955;0,048223
1270,8597;0,0478016
1271,8240;0,0473679
1272,7882;0,0469279
1273,7524;0,0464913
1274,7167;0,0460692
1275,6809;0,0456714
1276,6451;0,045302
1277,6094;0,0449558
1278,5736;0,0446179
1279,5378;0,0442681
1280,5021;0,0438895
1281,4663;0,0434778
1282,4305;0,0430448
1283,3948;0,0426147
1284,3590;0,0422137
1285,3232;0,0418604
1286,2875;0,0415599
1287,2517;0,0413071
1288,2159;0,0410932
1289,1802;0,0409131
1290,1444;0,0407689
1291,1086;0,040668
1292,0729;0,0406186
1293,0371;0,0406271
1294,0013;0,040698
1294,9656;0,0408342
1295,9298;0,0410384
1296,8940;0,0413124
1297,8583;0,0416563
1298,8225;0,0420674
1299,7867;0,042541
1300,7510;0,043071
1301,7152;0,043653
1302,6794;0,0442833
1303,6437;0,044959
1304,6079;0,045677
1305,5721;0,0464325
1306,5364;0,0472187
1307,5006;0,0480279
1308,4648;0,0488528
1309,4291;0,0496848
1310,3933;0,0505104
1311,3575;0,051306
1312,3218;0,0520372
1313,2860;0,0526637
1314,2502;0,0531472
1315,2145;0,0534574
1316,1787;0,0535745
1317,1429;0,0534921
1318,1072;0,0532228
1319,0714;0,0528053
1320,0356;0,0522997
1320,9999;0,0517725
1321,9641;0,051276
1322,9283;0,0508394
1323,8926;0,0504732
1324,8568;0,0501796
1325,8210;0,0499598
1326,7853;0,0498149
1327,7495;0,0497411
1328,7137;0,0497256
1329,6780;0,0497461
1330,6422;0,0497775
1331,6064;0,0498007
1332,5707;0,0498084
1333,5349;0,0498045
1334,4991;0,0497921
1335,4634;0,0497586
1336,4276;0,0496632
1337,3918;0,0494388
1338,3561;0,0490197
1339,3203;0,0483929
1340,2845;0,0476287
1341,2488;0,0468471
1342,2130;0,0461492
1343,1772;0,0455796
1344,1415;0,0451383
1345,1057;0,0448075
1346,0699;0,0445713
1347,0342;0,044422
1347,9984;0,04436
1348,9626;0,0443895
1349,9269;0,044513
1350,8911;0,0447251
1351,8553;0,04501
1352,8196;0,0453434
1353,7838;0,045701
1354,7480;0,0460687
1355,7123;0,0464497
1356,6765;0,0468601
1357,6407;0,0473152
1358,6050;0,0478152
1359,5692;0,0483351
1360,5334;0,0488224
1361,4977;0,0492114
1362,4619;0,0494658
1363,4261;0,0496178
1364,3904;0,0497463
1365,3546;0,0499139
1366,3188;0,0501327
1367,2831;0,0503746
1368,2473;0,0505978
1369,2115;0,0507659
1370,1758;0,0508535
1371,1400;0,0508381
1372,1042;0,0506914
1373,0685;0,0503833
1374,0327;0,0499082
1374,9969;0,0493083
1375,9612;0,0486539
1376,9254;0,0479875
1377,8896;0,0472948
1378,8539;0,0465338
1379,8181;0,0456886
1380,7823;0,0448003
1381,7466;0,0439483
1382,7108;0,0431964
1383,6750;0,0425498
1384,6393;0,0419566
1385,6035;0,0413435
1386,5677;0,0406723
1387,5320;0,0399865
1388,4962;0,0393893
1389,4604;0,0389602
1390,4247;0,0387045
1391,3889;0,0385819
1392,3531;0,0385525
1393,3174;0,0385917
1394,2816;0,0386732
1395,2458;0,0387537
1396,2101;0,0387838
1397,1743;0,0387422
1398,1385;0,0386565
1399,1028;0,0385916
1400,0670;0,0386104
1401,0313;0,0387402
1401,9955;0,0389643
1402,9597;0,0392385
1403,9240;0,0395172
1404,8882;0,0397776
1405,8524;0,0400295
1406,8167;0,0403027
1407,7809;0,0406174
1408,7451;0,0409709
1409,7094;0,0413495
1410,6736;0,0417503
1411,6378;0,0421877
1412,6021;0,0426803
1413,5663;0,0432289
1414,5305;0,0438072
1415,4948;0,0443705
1416,4590;0,0448646
1417,4232;0,045232
1418,3875;0,0454465
1419,3517;0,0455656
1420,3159;0,0456967
1421,2802;0,045882
1422,2444;0,0460645
1423,2086;0,0461573
1424,1729;0,0461133
1425,1371;0,0459414
1426,1013;0,0456767
1427,0656;0,0453378
1428,0298;0,0449138
1428,9940;0,0443928
1429,9583;0,0438021
1430,9225;0,0432077
1431,8867;0,0426569
1432,8510;0,0421275
1433,8152;0,0415346
1434,7794;0,0407845
1435,7437;0,039857
1436,7079;0,0388838
1437,6721;0,0381027
1438,6364;0,0376585
1439,6006;0,0375039
1440,5648;0,0375011
1441,5291;0,0375471
1442,4933;0,0376115
1443,4575;0,0377106
1444,4218;0,0378611
1445,3860;0,0380511
1446,3502;0,0382426
1447,3145;0,0384037
1448,2787;0,0385418
1449,2429;0,0387036
1450,2072;0,0389311
1451,1714;0,0392188
1452,1356;0,0395152
1453,0999;0,039757
1454,0641;0,0398923
1455,0283;0,0398574
1455,9926;0,0395263
1456,9568;0,038816
1457,9210;0,037993
1458,8853;0,0374901
1459,8495;0,0373805
1460,8137;0,0374377
1461,7780;0,0374221
1462,7422;0,037182
1463,7064;0,0366575
1464,6707;0,0359012
1465,6349;0,0350828
1466,5991;0,0343758
1467,5634;0,0338168
1468,5276;0,0333131
1469,4918;0,0327388
1470,4561;0,0319901
1471,4203;0,030993
1472,3845;0,0297349
1473,3488;0,0283507
1474,3130;0,0270946
1475,2772;0,0261301
1476,2415;0,0254407
1477,2057;0,0249305
1478,1699;0,0245171
1479,1342;0,0241498
1480,0984;0,0237991
1481,0626;0,0234524
1482,0269;0,0231205
1482,9911;0,0228362
1483,9553;0,0226379
1484,9196;0,022549
1485,8838;0,0225638
1486,8480;0,0226325
1487,8123;0,0226449
1488,7765;0,0224773
1489,7407;0,0221369
1490,7050;0,021804
1491,6692;0,0216427
1492,6334;0,021675
1493,5977;0,0218402
1494,5619;0,0220786
1495,5261;0,0223537
1496,4904;0,0226362
1497,4546;0,0229076
1498,4188;0,0231943
1499,3831;0,0235425
1500,3473;0,0239406
1501,3115;0,0243142
1502,2758;0,0245906
1503,2400;0,0247593
1504,2042;0,024897
1505,1685;0,0251182
1506,1327;0,0253789
1507,0969;0,0253582
1508,0612;0,0249415
1509,0254;0,0244506
1509,9896;0,0240931
1510,9539;0,0238374
1511,9181;0,0236104
1512,8823;0,0233799
1513,8466;0,0231408
1514,8108;0,0228831
1515,7750;0,0225808
1516,7393;0,0222076
1517,7035;0,0217563
1518,6677;0,0212418
1519,6320;0,0206964
1520,5962;0,0201717
1521,5604;0,0197353
1522,5247;0,019437
1523,4889;0,0192663
1524,4531;0,0191601
1525,4174;0,0190594
1526,3816;0,0189559
1527,3458;0,0188863
1528,3101;0,0188865
1529,2743;0,0189566
1530,2385;0,0190677
1531,2028;0,0191863
1532,1670;0,019288
1533,1312;0,0193653
1534,0955;0,0194303
1535,0597;0,0194934
1536,0239;0,0195377
1536,9882;0,0195429
1537,9524;0,0195352
1538,9166;0,0195918
1539,8809;0,0197428
1540,8451;0,0198856
1541,8093;0,0199645
1542,7736;0,0200607
1543,7378;0,0202019
1544,7020;0,0203559
1545,6663;0,020517
1546,6305;0,0207077
1547,5947;0,0209394
1548,5590;0,0211922
1549,5232;0,0214292
1550,4874;0,0216278
1551,4517;0,0217991
1552,4159;0,0219729
1553,3801;0,0221603
1554,3444;0,022334
1555,3086;0,0224478
1556,2728;0,0224602
1557,2371;0,0223177
1558,2013;0,0219735
1559,1655;0,0216404
1560,1298;0,0217434
1561,0940;0,0223363
1562,0582;0,0231484
1563,0225;0,0239437
1563,9867;0,0246165
1564,9509;0,0251504
1565,9152;0,0255727
1566,8794;0,0259289
1567,8436;0,0262699
1568,8079;0,0266429
1569,7721;0,0270774
1570,7363;0,0275663
1571,7006;0,0280645
1572,6648;0,0285222
1573,6290;0,0289257
1574,5933;0,0293063
1575,5575;0,0297088
1576,5217;0,0301589
1577,4860;0,0306711
1578,4502;0,0312499
1579,4144;0,0318684
1580,3787;0,032486
1581,3429;0,0330812
1582,3071;0,033656
1583,2714;0,0342229
1584,2356;0,034792
1585,1998;0,0353667
1586,1641;0,0359416
1587,1283;0,0365018
1588,0925;0,0370253
1589,0568;0,0374894
1590,0210;0,0378767
1590,9852;0,0381774
1591,9495;0,0383838
1592,9137;0,0384871
1593,8779;0,0384811
1594,8422;0,0383715
1595,8064;0,0381824
1596,7706;0,0379484
1597,7349;0,0377006
1598,6991;0,0374555
1599,6633;0,0372134
1600,6276;0,0369664
1601,5918;0,0367089
1602,5560;0,0364463
1603,5203;0,0361935
1604,4845;0,0359615
1605,4487;0,0357427
1606,4130;0,0355099
1607,3772;0,035235
1608,3414;0,034919
1609,3057;0,0346092
1610,2699;0,0343716
1611,2341;0,0342357
1612,1984;0,0341679
1613,1626;0,0340943
1614,1268;0,0339405
1615,0911;0,0336701
1616,0553;0,0333324
1617,0195;0,0330785
1617,9838;0,0330479
1618,9480;0,0332291
1619,9122;0,03349
1620,8765;0,0336965
1621,8407;0,0337779
1622,8049;0,0337377
1623,7692;0,0336353
1624,7334;0,0335409
1625,6976;0,0334851
1626,6619;0,0334575
1627,6261;0,0334487
1628,5903;0,0334768
1629,5546;0,033565
1630,5188;0,0337036
1631,4830;0,0338437
1632,4473;0,0339237
1633,4115;0,0338903
1634,3757;0,0336943
1635,3400;0,0333196
1636,3042;0,0328876
1637,2684;0,0326219
1638,2327;0,0326119
1639,1969;0,0327747
1640,1611;0,0329959
1641,1254;0,033205
1642,0896;0,0333687
1643,0538;0,0334645
1644,0181;0,0334583
1644,9823;0,0332955
1645,9465;0,0329467
1646,9108;0,0325121
1647,8750;0,0321806
1648,8392;0,0320156
1649,8035;0,0319077
1650,7677;0,0316931
1651,7319;0,031215
1652,6962;0,030385
1653,6604;0,0294608
1654,6246;0,0289949
1655,5889;0,0291173
1656,5531;0,0295123
1657,5173;0,0298736
1658,4816;0,0300489
1659,4458;0,0299926
1660,4100;0,0297106
1661,3743;0,0292526
1662,3385;0,0287358
1663,3027;0,0283136
1664,2670;0,0280694
1665,2312;0,0279647
1666,1954;0,0278887
1667,1597;0,0277215
1668,1239;0,0273752
1669,0881;0,0268432
1670,0524;0,0262405
1671,0166;0,025725
1671,9808;0,025346
1672,9451;0,0250235
1673,9093;0,0246606
1674,8735;0,0242492
1675,8378;0,023894
1676,8020;0,0237261
1677,7662;0,0237778
1678,7305;0,0239558
1679,6947;0,0241119
1680,6589;0,0241059
1681,6232;0,0238147
1682,5874;0,0231422
1683,5516;0,0221458
1684,5159;0,0211809
1685,4801;0,0206285
1686,4443;0,0205059
1687,4086;0,0205806
1688,3728;0,0206442
1689,3370;0,0206098
1690,3013;0,0204886
1691,2655;0,0203371
1692,2297;0,0202125
1693,1940;0,0201494
1694,1582;0,0201498
1695,1224;0,0201741
1696,0867;0,0201411
1697,0509;0,0199638
1698,0151;0,0196229
1698,9794;0,0192253
1699,9436;0,0189621
1700,9078;0,0189704
1701,8721;0,0192367
1702,8363;0,0196345
1703,8005;0,0200236
1704,7648;0,0203187
1705,7290;0,0205105
1706,6932;0,0206541
1707,6575;0,0208286
1708,6217;0,0210863
1709,5859;0,021432
1710,5502;0,0218404
1711,5144;0,0222816
1712,4786;0,0227306
1713,4429;0,0231596
1714,4071;0,0235189
1715,3713;0,0237216
1716,3356;0,0236877
1717,2998;0,023483
1718,2640;0,0233479
1719,2283;0,0234647
1720,1925;0,0238139
1721,1567;0,0242719
1722,1210;0,0247285
1723,0852;0,0251289
1724,0494;0,0254727
1725,0137;0,0257993
1725,9779;0,0261623
1726,9421;0,0265973
1727,9064;0,0270978
1728,8706;0,0276122
1729,8348;0,0280558
1730,7991;0,0283254
1731,7633;0,028319
1732,7275;0,0279955
1733,6918;0,0274796
1734,6560;0,0270384
1735,6202;0,0268445
1736,5845;0,0268445
1737,5487;0,0268763
1738,5129;0,0268108
1739,4772;0,0266072
1740,4414;0,0263053
1741,4056;0,025982
1742,3699;0,025689
1743,3341;0,025422
1744,2983;0,0251407
1745,2626;0,024804
1746,2268;0,024375
1747,1910;0,0237997
1748,1553;0,0229988
1749,1195;0,0219283
1750,0837;0,0206827
1751,0480;0,0194867
1752,0122;0,0185304
1752,9764;0,0178489
1753,9407;0,0173573
1754,9049;0,0169439
1755,8691;0,0165328
1756,8334;0,0161004
1757,7976;0,0156547
1758,7618;0,0152004
1759,7261;0,0147225
1760,6903;0,0142069
1761,6545;0,0136773
1762,6188;0,013202
1763,5830;0,0128509
1764,5472;0,0126458
1765,5115;0,0125522
1766,4757;0,0125083
1767,4399;0,0124556
1768,4042;0,0123523
1769,3684;0,0121736
1770,3326;0,0119094
1771,2969;0,0115747
1772,2611;0,0112285
1773,2253;0,0109607
1774,1896;0,0108299
1775,1538;0,0108208
1776,1180;0,0108682
1777,0823;0,0109069
1778,0465;0,0109015
1779,0107;0,0108501
1779,9750;0,0107717
1780,9392;0,0106858
1781,9034;0,0105974
1782,8677;0,0105002
1783,8319;0,0103959
1784,7961;0,0103085
1785,7604;0,0102753
1786,7246;0,01032
1787,6888;0,0104337
1788,6531;0,0105773
1789,6173;0,0106952
1790,5815;0,0107291
1791,5458;0,0106446
1792,5100;0,010473
1793,4742;0,0103101
1794,4385;0,0102332
1795,4027;0,0102422
1796,3669;0,010287
1797,3312;0,0103187
1798,2954;0,0103141
1799,2596;0,0102717
1800,2239;0,0102001
1801,1881;0,0101112
1802,1523;0,0100183
1803,1166;0,00993641
1804,0808;0,00987996
1805,0450;0,00985987
1806,0093;0,00987803
1806,9735;0,00992165
1807,9377;0,00996198
1808,9020;0,00996281
1809,8662;0,00990054
1810,8304;0,0097847
1811,7947;0,00965745
1812,7589;0,00956627
1813,7231;0,00953403
1814,6874;0,0095508
1815,6516;0,00958607
1816,6158;0,00960843
1817,5801;0,00960359
1818,5443;0,00958213
1819,5085;0,00956927
1820,4728;0,00958383
1821,4370;0,00962463
1822,4012;0,00967303
1823,3655;0,00970688
1824,3297;0,00971648
1825,2939;0,00971024
1826,2582;0,00970217
1827,2224;0,00969173
1828,1866;0,00965794
1829,1509;0,00957818
1830,1151;0,00946017
1831,0793;0,00935113
1832,0436;0,00930183
1833,0078;0,00932413
1833,9720;0,0093877
1834,9363;0,00944788
1835,9005;0,00947514
1836,8647;0,00947199
1837,8290;0,00946859
1838,7932;0,00949649
1839,7574;0,00956193
1840,7217;0,00964186
1841,6859;0,00969759
1842,6501;0,00969154
1843,6144;0,00960791
1844,5786;0,00947441
1845,5428;0,00935153
1846,5071;0,0092809
1847,4713;0,00925415
1848,4355;0,00923425
1849,3998;0,00919184
1850,3640;0,00912284
1851,3282;0,00904451
1852,2925;0,00898004
1853,2567;0,00894493
1854,2209;0,00894256
1855,1852;0,00896788
1856,1494;0,00901165
1857,1136;0,00906215
1858,0779;0,00910526
1859,0421;0,0091285
1860,0063;0,00912944
1860,9706;0,00912237
1861,9348;0,00913484
1862,8990;0,00919399
1863,8633;0,00931155
1864,8275;0,009476
1865,7917;0,0096507
1866,7560;0,009776
1867,7202;0,00978693
1868,6844;0,00965704
1869,6487;0,00943236
1870,6129;0,00920017
1871,5771;0,00902461
1872,5414;0,0089229
1873,5056;0,00888371
1874,4698;0,00888845
1875,4341;0,00891801
1876,3983;0,00895225
1877,3625;0,0089714
1878,3268;0,00896277
1879,2910;0,00892706
1880,2552;0,00887999
1881,2195;0,00884671
1882,1837;0,00885054
1883,1479;0,00890074
1884,1122;0,0089868
1885,0764;0,0090834
1886,0406;0,00916269
1887,0049;0,00920671
1887,9691;0,00921469
1888,9333;0,00920274
1889,8976;0,00919441
1890,8618;0,00920505
1891,8260;0,00923056
1892,7903;0,00924945
1893,7545;0,00923619
1894,7188;0,00917639
1895,6830;0,0090764
1896,6472;0,00896181
1897,6115;0,00886438
1898,5757;0,00880573
1899,5399;0,00878896
1900,5042;0,00880152
1901,4684;0,00882432
1902,4326;0,00884169
1903,3969;0,00884826
1904,3611;0,00884985
1905,3253;0,008858
1906,2896;0,00888132
1907,2538;0,00891814
1908,2180;0,00895461
1909,1823;0,00897117
1910,1465;0,00895484
1911,1107;0,00890811
1912,0750;0,00884605
1913,0392;0,00878605
1914,0034;0,00874055
1914,9677;0,00871665
1915,9319;0,00871861
1916,8961;0,00874867
1917,8604;0,00880463
1918,8246;0,00887545
1919,7888;0,00893853
1920,7531;0,00896367
1921,7173;0,00892522
1922,6815;0,00881717
1923,6458;0,00866169
1924,6100;0,00850139
1925,5742;0,00837701
1926,5385;0,00830727
1927,5027;0,00828609
1928,4669;0,00829484
1929,4312;0,00831632
1930,3954;0,00834158
1931,3596;0,00836813
1932,3239;0,00839345
1933,2881;0,00841188
1934,2523;0,0084185
1935,2166;0,00841626
1936,1808;0,00841832
1937,1450;0,00844094
1938,1093;0,00849042
1939,0735;0,00855309
1940,0377;0,0085954
1941,0020;0,00857683
1941,9662;0,00847361
1942,9304;0,00830048
1943,8947;0,00810835
1944,8589;0,00795355
1945,8231;0,00786466
1946,7874;0,00783341
1947,7516;0,00782952
1948,7158;0,00782395
1949,6801;0,00780603
1950,6443;0,007786
1951,6085;0,00778296
1952,5728;0,00780743
1953,5370;0,00785134
1954,5012;0,00789172
1955,4655;0,00790477
1956,4297;0,00787991
1957,3939;0,00782478
1958,3582;0,00775904
1959,3224;0,00770216
1960,2866;0,00766269
1961,2509;0,00763484
1962,2151;0,0076028
1963,1793;0,00754927
1964,1436;0,00746294
1965,1078;0,00734281
1966,0720;0,00719881
1967,0363;0,00704832
1968,0005;0,0069078
1968,9647;0,00678274
1969,9290;0,00666254
1970,8932;0,00652573
1971,8574;0,00635442
1972,8217;0,00615207
1973,7859;0,00595627
1974,7501;0,00583618
1975,7144;0,00586929
1976,6786;0,00610122
1977,6428;0,00651154
1978,6071;0,0070124
1979,5713;0,00748469
1980,5355;0,00782604
1981,4998;0,00798185
1982,4640;0,00795273
1983,4282;0,00778798
1984,3925;0,00757201
1985,3567;0,00740242
1986,3209;0,00736018
1987,2852;0,00748101
1988,2494;0,0077409
1989,2136;0,00806233
1990,1779;0,00833986
1991,1421;0,00847959
1992,1063;0,00843972
1993,0706;0,00825045
1994,0348;0,00799897
1994,9990;0,00778958
1995,9633;0,00770236
1996,9275;0,00776423
1997,8917;0,0079358
1998,8560;0,00812025
1999,8202;0,00820174
2000,7844;0,00810424
2001,7487;0,00783971
2002,7129;0,00751289
2003,6771;0,00727402
2004,6414;0,00723879
2005,6056;0,00741575
2006,5698;0,00768963
2007,5341;0,00788425
2008,4983;0,0078716
2009,4625;0,00764889
2010,4268;0,00732919
2011,3910;0,00706284
2012,3552;0,0069522
2013,3195;0,00701127
2014,2837;0,00718024
2015,2479;0,00737226
2016,2122;0,00751905
2017,1764;0,00759075
2018,1406;0,00758666
2019,1049;0,0075145
2020,0691;0,00737947
2021,0333;0,00718894
2021,9976;0,00696152
2022,9618;0,00672799
2023,9260;0,00652179
2024,8903;0,00636816
2025,8545;0,00628192
2026,8187;0,00627445
2027,7830;0,00635987
2028,7472;0,00655058
2029,7114;0,0068436
2030,6757;0,0072096
2031,6399;0,00759576
2032,6041;0,00794163
2033,5684;0,00819699
2034,5326;0,00833059
2035,4968;0,00833056
2036,4611;0,00820546
2037,4253;0,00799154
2038,3895;0,00775712
2039,3538;0,00759023
2040,3180;0,00756457
2041,2822;0,00769927
2042,2465;0,00794385
2043,2107;0,00820745
2044,1749;0,00841627
2045,1392;0,00855696
2046,1034;0,00867359
2047,0676;0,00882103
2048,0320;0,00901118
2048,9961;0,00919777
2049,9604;0,00931225
2050,9246;0,00931621
2051,8889;0,00922681
2052,8530;0,00910342
2053,8174;0,00901199
2054,7815;0,00899109
2055,7458;0,00903836
2056,7100;0,00912225
2057,6743;0,00920883
2058,6384;0,00928399
2059,6028;0,00935746
2060,5669;0,00944959
2061,5313;0,00957226
2062,4954;0,00971617
2063,4597;0,00985139
2064,4238;0,00994067
2065,3882;0,00995804
2066,3523;0,00990217
2067,3167;0,00979701
2068,2808;0,00968037
2069,2451;0,00958857
2070,2092;0,0095453
2071,1736;0,00955826
2072,1377;0,00962104
2073,1021;0,00971671
2074,0662;0,00982079
2075,0305;0,00990541
2075,9946;0,00994713
2076,9590;0,00993718
2077,9231;0,00988799
2078,8875;0,00982922
2079,8516;0,00979344
2080,8159;0,00979956
2081,7800;0,00984497
2082,7444;0,00991131
2083,7085;0,00997878
2084,6729;0,0100378
2085,6370;0,0100904
2086,6013;0,0101419
2087,5654;0,0101913
2088,5298;0,0102292
2089,4939;0,0102442
2090,4583;0,0102313
2091,4224;0,010197
2092,3867;0,0101567
2093,3508;0,0101279
2094,3152;0,0101255
2095,2793;0,0101581
2096,2437;0,0102254
2097,2078;0,0103149
2098,1721;0,0104002
2099,1362;0,0104463
2100,1006;0,0104227
2101,0647;0,0103176
2102,0291;0,0101499
2102,9932;0,00996282
2103,9575;0,00980653
2104,9216;0,00971774
2105,8860;0,00970728
2106,8501;0,00976203
2107,8145;0,00985694
2108,7786;0,00996782
2109,7429;0,010078
2110,7070;0,0101777
2111,6714;0,0102606
2112,6355;0,0103209
2113,5999;0,0103541
2114,5640;0,0103578
2115,5283;0,0103341
2116,4924;0,0102909
2117,4568;0,0102434
2118,4209;0,0102127
2119,3853;0,0102199
2120,3494;0,0102759
2121,3137;0,0103727
2122,2778;0,0104826
2123,2422;0,0105702
2124,2063;0,0106115
2125,1707;0,0106085
2126,1348;0,0105886
2127,0991;0,0105884
2128,0632;0,010631
2129,0276;0,0107119
2129,9917;0,0108014
2130,9561;0,0108617
2131,9202;0,0108657
2132,8845;0,0108084
2133,8486;0,0107054
2134,8130;0,0105825
2135,7771;0,0104676
2136,7415;0,0103859
2137,7056;0,0103593
2138,6699;0,0104013
2139,6340;0,0105075
2140,5984;0,0106478
2141,5625;0,0107706
2142,5269;0,0108223
2143,4910;0,0107737
2144,4553;0,0106362
2145,4194;0,0104545
2146,3838;0,0102786
2147,3479;0,0101341
2148,3123;0,010013
2149,2764;0,00989395
2150,2407;0,00977467
2151,2048;0,0096892
2152,1692;0,00969113
2153,1333;0,00981203
2154,0977;0,0100262
2155,0618;0,0102534
2156,0261;0,0104065
2156,9902;0,0104596
2157,9546;0,0104799
2158,9187;0,0105735
2159,8831;0,0107756
2160,8472;0,0109971
2161,8115;0,0110912
2162,7756;0,0109714
2163,7400;0,0106793
2164,7041;0,0103629
2165,6685;0,0101864
2166,6326;0,0102327
2167,5969;0,0104613
2168,5610;0,0107461
2169,5254;0,0109586
2170,4895;0,0110359
2171,4539;0,0109954
2172,4180;0,0108982
2173,3823;0,0107964
2174,3464;0,010701
2175,3108;0,0105882
2176,2749;0,0104329
2177,2393;0,0102403
2178,2034;0,0100524
2179,1677;0,00992742
2180,1318;0,00990976
2181,0962;0,0100076
2182,0603;0,0101883
2183,0247;0,0103937
2183,9888;0,0105649
2184,9531;0,010665
2185,9172;0,0106889
2186,8816;0,0106566
2187,8457;0,0105975
2188,8101;0,010533
2189,7742;0,0104698
2190,7385;0,0104038
2191,7026;0,0103321
2192,6670;0,0102608
2193,6311;0,0102014
2194,5955;0,0101599
2195,5596;0,0101286
2196,5239;0,0100934
2197,4880;0,010051
2198,4524;0,010024
2199,4165;0,0100544
2200,3809;0,0101758
2201,3450;0,0103818
2202,3093;0,010615
2203,2734;0,0107905
2204,2378;0,0108408
2205,2019;0,0107547
2206,1663;0,0105835
2207,1304;0,0104122
2208,0947;0,0103144
2209,0588;0,0103181
2210,0232;0,0104004
2210,9873;0,0105082
2211,9517;0,0105886
2212,9158;0,0106112
2213,8801;0,0105761
2214,8442;0,0105069
2215,8086;0,0104372
2216,7727;0,0103945
2217,7371;0,0103895
2218,7012;0,0104115
2219,6655;0,010436
2220,6296;0,0104398
2221,5940;0,0104164
2222,5581;0,0103825
2223,5225;0,01037
2224,4866;0,0104075
2225,4509;0,0105033
2226,4150;0,0106397
2227,3794;0,0107832
2228,3435;0,0109025
2229,3079;0,0109822
2230,2720;0,0110249
2231,2363;0,0110411
2232,2004;0,0110388
2233,1648;0,0110182
2234,1289;0,0109768
2235,0933;0,0109179
2236,0574;0,0108539
2237,0217;0,0108015
2237,9858;0,0107721
2238,9502;0,0107657
2239,9143;0,0107722
2240,8787;0,0107802
2241,8428;0,0107837
2242,8071;0,0107829
2243,7712;0,0107794
2244,7356;0,0107722
2245,6997;0,0107595
2246,6641;0,0107456
2247,6282;0,0107442
2248,5925;0,0107725
2249,5566;0,0108388
2250,5210;0,010931
2251,4851;0,0110185
2252,4495;0,011068
2253,4136;0,0110626
2254,3779;0,0110118
2255,3420;0,0109438
2256,3064;0,0108871
2257,2705;0,010854
2258,2349;0,0108386
2259,1990;0,0108281
2260,1633;0,0108161
2261,1274;0,0108074
2262,0918;0,0108124
2263,0559;0,0108363
2264,0203;0,0108743
2264,9844;0,0109154
2265,9487;0,0109515
2266,9128;0,0109811
2267,8772;0,011006
2268,8413;0,0110241
2269,8057;0,0110267
2270,7698;0,0110045
2271,7341;0,0109576
2272,6982;0,0109011
2273,6626;0,0108592
2274,6267;0,0108513
2275,5911;0,0108808
2276,5552;0,0109344
2277,5195;0,0109922
2278,4836;0,0110405
2279,4480;0,0110778
2280,4121;0,0111108
2281,3765;0,011147
2282,3406;0,0111906
2283,3049;0,011245
2284,2690;0,0113167
2285,2334;0,0114157
2286,1975;0,0115499
2287,1619;0,0117186
2288,1260;0,0119102
2289,0903;0,012109
2290,0544;0,0123043
2291,0188;0,0124961
2291,9829;0,0126933
2292,9473;0,0129057
2293,9114;0,0131365
2294,8757;0,0133799
2295,8398;0,0136243
2296,8042;0,0138568
2297,7683;0,0140659
2298,7327;0,0142426
2299,6968;0,0143831
2300,6611;0,0144923
2301,6252;0,0145878
2302,5896;0,0146982
2303,5537;0,0148543
2304,5181;0,0150758
2305,4822;0,015359
2306,4465;0,0156724
2307,4106;0,0159636
2308,3750;0,016176
2309,3391;0,0162688
2310,3035;0,0162322
2311,2676;0,0160911
2312,2319;0,015895
2313,1960;0,0156999
2314,1604;0,0155485
2315,1245;0,0154595
2316,0889;0,0154277
2317,0530;0,0154336
2318,0173;0,0154537
2318,9814;0,0154697
2319,9458;0,0154747
2320,9099;0,0154747
2321,8743;0,0154861
2322,8384;0,015523
2323,8027;0,0155811
2324,7668;0,0156308
2325,7312;0,0156276
2326,6953;0,0155331
2327,6597;0,0153332
2328,6238;0,0150446
2329,5881;0,0147086
2330,5522;0,0143767
2331,5166;0,0140922
2332,4807;0,013874
2333,4451;0,0137129
2334,4092;0,0135832
2335,3735;0,0134643
2336,3376;0,013359
2337,3020;0,0132995
2338,2661;0,0133332
2339,2305;0,013491
2340,1946;0,013751
2341,1589;0,0140225
2342,1230;0,0141758
2343,0874;0,0141442
2344,0515;0,0140439
2345,0159;0,0141303
2345,9800;0,0145604
2346,9443;0,015246
2347,9084;0,0159467
2348,8728;0,0164416
2349,8369;0,0166277
2350,8013;0,0165341
2351,7654;0,0162741
2352,7297;0,0159629
2353,6938;0,0156518
2354,6582;0,0153442
2355,6223;0,0150668
2356,5867;0,0148861
2357,5508;0,014848
2358,5151;0,0149261
2359,4792;0,0150316
2360,4436;0,0150707
2361,4077;0,0149915
2362,3721;0,014793
2363,3362;0,0145123
2364,3005;0,0142069
2365,2646;0,0139322
2366,2290;0,0137179
2367,1931;0,0135581
2368,1575;0,0134243
2369,1216;0,0132909
2370,0859;0,0131519
2371,0500;0,0130208
2372,0144;0,0129192
2372,9785;0,0128653
2373,9429;0,0128685
2374,9070;0,0129283
2375,8713;0,0130358
2376,8354;0,0131747
2377,7998;0,013322
2378,7639;0,013449
2379,7283;0,013525
2380,6924;0,0135221
2381,6567;0,0134232
2382,6208;0,0132289
2383,5852;0,0129601
2384,5493;0,0126541
2385,5137;0,0123536
2386,4778;0,012093
2387,4421;0,0118883
2388,4063;0,0117355
2389,3706;0,0116175
2390,3347;0,0115173
2391,2991;0,0114279
2392,2632;0,0113548
2393,2275;0,0113103
2394,1917;0,011303
2395,1560;0,0113312
2396,1201;0,0113816
2397,0845;0,0114356
2398,0486;0,0114776
2399,0129;0,0114994
2399,9771;0,0115017
2400,9414;0,0114911
2401,9055;0,0114755
2402,8699;0,0114625
2403,8340;0,0114585
2404,7983;0,0114694
2405,7625;0,0114993
2406,7268;0,0115473
2407,6909;0,0116053
2408,6553;0,0116592
2409,6194;0,0116939
2410,5837;0,0117011
2411,5479;0,0116836
2412,5122;0,0116547
2413,4763;0,0116307
2414,4407;0,011623
2415,4048;0,0116338
2416,3691;0,0116573
2417,3333;0,0116852
2418,2976;0,0117121
2419,2617;0,0117363
2420,2261;0,0117579
2421,1902;0,0117762
2422,1545;0,0117894
2423,1187;0,0117975
2424,0830;0,0118035
2425,0471;0,0118127
2426,0115;0,0118291
2426,9756;0,0118522
2427,9399;0,0118775
2428,9041;0,0118999
2429,8684;0,0119177
2430,8325;0,0119332
2431,7969;0,0119501
2432,7610;0,0119691
2433,7253;0,0119873
2434,6895;0,0119999
2435,6538;0,0120047
2436,6179;0,012004
2437,5823;0,0120022
2438,5464;0,0120021
2439,5107;0,0120026
2440,4749;0,0120016
2441,4392;0,0119996
2442,4033;0,0120031
2443,3677;0,0120217
2444,3318;0,0120622
2445,2961;0,0121225
2446,2603;0,0121912
2447,2246;0,0122524
2448,1887;0,0122936
2449,1531;0,012311
2450,1172;0,0123102
2451,0815;0,0123015
2452,0457;0,0122947
2453,0100;0,0122941
2453,9741;0,0122978
2454,9385;0,0122986
2455,9026;0,012289
2456,8669;0,0122657
2457,8311;0,0122336
2458,7954;0,0122055
2459,7595;0,0121971
2460,7239;0,0122191
2461,6880;0,0122698
2462,6523;0,0123352
2463,6165;0,012394
2464,5808;0,012429
2465,5449;0,0124342
2466,5093;0,0124169
2467,4734;0,0123925
2468,4377;0,0123758
2469,4019;0,0123751
2470,3662;0,0123899
2471,3303;0,0124139
2472,2947;0,0124389
2473,2588;0,0124596
2474,2231;0,012476
2475,1873;0,0124935
2476,1516;0,0125201
2477,1157;0,0125615
2478,0801;0,0126155
2479,0442;0,012671
2480,0085;0,0127125
2480,9727;0,0127281
2481,9370;0,012718
2482,9011;0,0126944
2483,8655;0,0126751
2484,8296;0,0126723
2485,7939;0,0126857
2486,7581;0,012704
2487,7224;0,0127143
2488,6865;0,0127119
2489,6509;0,0127033
2490,6150;0,0127012
2491,5793;0,0127152
2492,5435;0,0127449
2493,5078;0,0127809
2494,4719;0,0128113
2495,4363;0,0128281
2496,4004;0,012831
2497,3647;0,0128253
2498,3289;0,0128173
2499,2932;0,0128122
2500,2573;0,0128127
2501,2217;0,0128202
2502,1858;0,0128353
2503,1501;0,0128577
2504,1143;0,0128856
2505,0786;0,0129166
2506,0427;0,0129485
2507,0071;0,0129805
2507,9712;0,0130121
2508,9355;0,0130425
2509,8997;0,0130702
2510,8640;0,0130937
2511,8281;0,0131121
2512,7925;0,0131251
2513,7566;0,0131315
2514,7209;0,0131281
2515,6851;0,013111
2516,6494;0,0130799
2517,6135;0,0130414
2518,5779;0,0130097
2519,5420;0,0130011
2520,5063;0,0130248
2521,4705;0,0130766
2522,4348;0,013139
2523,3989;0,0131891
2524,3633;0,0132101
2525,3274;0,0131997
2526,2917;0,0131707
2527,2559;0,0131428
2528,2202;0,0131316
2529,1843;0,0131402
2530,1487;0,013159
2531,1128;0,0131733
2532,0771;0,0131725
2533,0413;0,0131572
2534,0056;0,0131387
2534,9697;0,0131316
2535,9341;0,013145
2536,8982;0,0131766
2537,8625;0,0132151
2538,8267;0,0132464
2539,7910;0,0132623
2540,7551;0,0132636
2541,7195;0,0132585
2542,6836;0,0132563
2543,6479;0,0132623
2544,6121;0,0132762
2545,5764;0,013295
2546,5405;0,0133164
2547,5049;0,0133403
2548,4690;0,0133665
2549,4333;0,0133911
2550,3975;0,0134061
2551,3618;0,0134019
2552,3259;0,0133733
2553,2903;0,0133249
2554,2544;0,013271
2555,2188;0,0132306
2556,1829;0,0132189
2557,1472;0,0132412
2558,1113;0,0132917
2559,0757;0,013357
2560,0398;0,0134221
2561,0042;0,0134756
2561,9683;0,0135108
2562,9326;0,013525
2563,8967;0,0135182
2564,8611;0,0134931
2565,8252;0,0134566
2566,7896;0,013419
2567,7537;0,0133922
2568,7180;0,0133843
2569,6821;0,0133965
2570,6465;0,0134217
2571,6106;0,0134489
2572,5750;0,0134694
2573,5391;0,0134806
2574,5034;0,013486
2575,4675;0,013491
2576,4319;0,0134979
2577,3960;0,0135047
2578,3604;0,0135076
2579,3245;0,0135055
2580,2888;0,0135029
2581,2529;0,0135075
2582,2173;0,0135251
2583,1814;0,0135551
2584,1458;0,0135898
2585,1099;0,0136194
2586,0742;0,0136376
2587,0383;0,013646
2588,0027;0,0136527
2588,9668;0,0136676
2589,9312;0,0136954
2590,8953;0,0137334
2591,8596;0,0137719
2592,8237;0,0137998
2593,7881;0,0138103
2594,7522;0,0138037
2595,7166;0,013788
2596,6807;0,0137743
2597,6450;0,0137719
2598,6091;0,0137841
2599,5735;0,0138072
2600,5376;0,0138334
2601,5020;0,0138549
2602,4661;0,0138679
2603,4304;0,0138738
2604,3945;0,0138773
2605,3589;0,0138824
2606,3230;0,0138905
2607,2874;0,0139004
2608,2515;0,0139104
2609,2158;0,0139206
2610,1799;0,013933
2611,1443;0,0139501
2612,1084;0,013972
2613,0728;0,0139961
2614,0369;0,0140187
2615,0012;0,0140376
2615,9653;0,0140546
2616,9297;0,0140743
2617,8938;0,0141016
2618,8582;0,0141379
2619,8223;0,0141806
2620,7866;0,0142235
2621,7507;0,0142605
2622,7151;0,0142876
2623,6792;0,0143041
2624,6436;0,0143122
2625,6077;0,0143158
2626,5720;0,0143193
2627,5361;0,0143261
2628,5005;0,0143386
2629,4646;0,0143571
2630,4290;0,0143807
2631,3931;0,0144082
2632,3574;0,0144391
2633,3215;0,0144735
2634,2859;0,0145107
2635,2500;0,0145477
2636,2144;0,0145792
2637,1785;0,0145994
2638,1428;0,0146058
2639,1069;0,0146009
2640,0713;0,0145922
2641,0354;0,0145891
2641,9998;0,0145988
2642,9639;0,0146239
2643,9282;0,0146623
2644,8923;0,0147086
2645,8567;0,0147566
2646,8208;0,0148018
2647,7852;0,0148415
2648,7493;0,0148752
2649,7136;0,0149039
2650,6777;0,0149291
2651,6421;0,0149518
2652,6062;0,0149721
2653,5706;0,0149896
2654,5347;0,0150046
2655,4990;0,0150189
2656,4631;0,0150356
2657,4275;0,0150576
2658,3916;0,0150862
2659,3560;0,0151205
2660,3201;0,0151575
2661,2844;0,015194
2662,2485;0,0152277
2663,2129;0,0152575
2664,1770;0,0152835
2665,1414;0,0153067
2666,1055;0,0153287
2667,0698;0,0153513
2668,0339;0,0153758
2668,9983;0,015403
2669,9624;0,0154321
2670,9268;0,0154617
2671,8909;0,0154902
2672,8552;0,0155169
2673,8193;0,0155417
2674,7837;0,0155648
2675,7478;0,0155863
2676,7122;0,0156062
2677,6763;0,0156251
2678,6406;0,0156447
2679,6047;0,0156673
2680,5691;0,015695
2681,5332;0,015728
2682,4976;0,0157643
2683,4617;0,0158008
2684,4260;0,0158349
2685,3901;0,0158655
2686,3545;0,0158935
2687,3186;0,0159205
2688,2830;0,0159476
2689,2471;0,0159752
2690,2114;0,0160028
2691,1755;0,0160306
2692,1399;0,0160588
2693,1040;0,0160875
2694,0684;0,0161159
2695,0325;0,0161421
2695,9968;0,0161644
2696,9609;0,0161831
2697,9253;0,0162007
2698,8894;0,0162214
2699,8538;0,0162487
2700,8179;0,0162834
2701,7822;0,0163234
2702,7463;0,0163651
2703,7107;0,0164049
2704,6748;0,0164411
2705,6392;0,0164736
2706,6033;0,0165034
2707,5676;0,0165316
2708,5317;0,0165599
2709,4961;0,0165898
2710,4602;0,0166231
2711,4246;0,0166604
2712,3887;0,0167006
2713,3530;0,0167412
2714,3171;0,0167786
2715,2815;0,0168102
2716,2456;0,016835
2717,2100;0,0168538
2718,1741;0,0168693
2719,1384;0,0168844
2720,1025;0,0169019
2721,0669;0,016923
2722,0310;0,0169474
2722,9954;0,0169731
2723,9595;0,0169979
2724,9238;0,0170205
2725,8879;0,0170419
2726,8523;0,0170649
2727,8164;0,0170929
2728,7808;0,0171269
2729,7449;0,0171652
2730,7092;0,0172035
2731,6733;0,0172372
2732,6377;0,0172634
2733,6018;0,0172821
2734,5662;0,0172956
2735,5303;0,0173067
2736,4946;0,0173174
2737,4587;0,017328
2738,4231;0,0173384
2739,3872;0,0173487
2740,3516;0,0173606
2741,3157;0,0173768
2742,2800;0,0173994
2743,2441;0,0174277
2744,2085;0,0174582
2745,1726;0,017485
2746,1370;0,0175036
2747,1011;0,0175128
2748,0654;0,0175162
2749,0295;0,0175197
2749,9939;0,0175294
2750,9580;0,0175486
2751,9224;0,0175775
2752,8865;0,0176144
2753,8508;0,0176566
2754,8149;0,0177007
2755,7793;0,0177425
2756,7434;0,0177777
2757,7078;0,0178038
2758,6719;0,017822
2759,6362;0,0178374
2760,6003;0,0178564
2761,5647;0,017883
2762,5288;0,0179165
2763,4932;0,0179525
2764,4573;0,0179867
2765,4216;0,0180184
2766,3857;0,0180509
2767,3501;0,0180881
2768,3142;0,018131
2769,2786;0,018176
2770,2427;0,0182169
2771,2070;0,0182494
2772,1711;0,0182744
2773,1355;0,0182977
2774,0996;0,0183271
2775,0640;0,0183683
2776,0281;0,0184221
2776,9924;0,018484
2777,9565;0,0185467
2778,9209;0,0186026
2779,8850;0,0186477
2780,8494;0,0186825
2781,8135;0,0187129
2782,7778;0,0187471
2783,7419;0,0187923
2784,7063;0,0188509
2785,6704;0,0189185
2786,6348;0,0189863
2787,5989;0,0190453
2788,5632;0,0190912
2789,5273;0,0191267
2790,4917;0,0191604
2791,4558;0,0192021
2792,4202;0,0192577
2793,3843;0,0193272
2794,3486;0,0194051
2795,3127;0,0194845
2796,2771;0,019561
2797,2412;0,0196345
2798,2056;0,0197079
2799,1697;0,0197848
2800,1340;0,0198665
2801,0981;0,0199516
2802,0625;0,0200373
2803,0266;0,0201212
2803,9910;0,0202028
2804,9551;0,0202825
2805,9194;0,0203615
2806,8835;0,0204398
2807,8479;0,0205173
2808,8120;0,0205939
2809,7764;0,0206706
2810,7405;0,0207498
2811,7048;0,0208349
2812,6689;0,0209291
2813,6333;0,0210349
2814,5974;0,0211528
2815,5618;0,0212813
2816,5259;0,021417
2817,4902;0,0215558
2818,4543;0,0216941
2819,4187;0,0218298
2820,3828;0,0219628
2821,3472;0,0220942
2822,3113;0,0222261
2823,2756;0,0223615
2824,2397;0,0225037
2825,2041;0,022656
2826,1682;0,0228198
2827,1326;0,0229938
2828,0967;0,0231741
2829,0610;0,0233569
2830,0251;0,0235411
2830,9895;0,0237311
2831,9536;0,0239351
2832,9180;0,0241609
2833,8821;0,0244118
2834,8464;0,0246836
2835,8105;0,0249672
2836,7749;0,0252538
2837,7390;0,025541
2838,7034;0,0258356
2839,6675;0,0261522
2840,6318;0,0265081
2841,5959;0,0269165
2842,5603;0,0273818
2843,5244;0,0278984
2844,4888;0,0284516
2845,4529;0,0290211
2846,4172;0,0295831
2847,3813;0,0301128
2848,3457;0,0305859
2849,3098;0,0309805
2850,2742;0,0312804
2851,2383;0,0314786
2852,2026;0,0315785
2853,1667;0,0315935
2854,1311;0,0315429
2855,0952;0,0314476
2856,0596;0,0313262
2857,0237;0,0311946
2857,9880;0,0310671
2858,9521;0,0309574
2859,9165;0,0308781
2860,8806;0,0308382
2861,8450;0,0308409
2862,8091;0,030883
2863,7734;0,0309573
2864,7375;0,0310559
2865,7019;0,0311731
2866,6660;0,0313045
2867,6304;0,0314445
2868,5945;0,0315842
2869,5588;0,0317116
2870,5229;0,0318152
2871,4873;0,0318891
2872,4514;0,0319358
2873,4158;0,0319662
2874,3799;0,0319946
2875,3442;0,0320341
2876,3083;0,0320931
2877,2727;0,0321738
2878,2368;0,032274
2879,2012;0,0323885
2880,1653;0,0325109
2881,1296;0,0326345
2882,0938;0,0327548
2883,0581;0,0328707
2884,0222;0,0329852
2884,9866;0,0331034
2885,9507;0,0332297
2886,9150;0,0333652
2887,8792;0,0335079
2888,8435;0,0336548
2889,8076;0,0338043
2890,7720;0,0339564
2891,7361;0,0341107
2892,7004;0,0342638
2893,6646;0,0344096
2894,6289;0,0345425
2895,5930;0,0346617
2896,5574;0,034772
2897,5215;0,0348817
2898,4858;0,034996
2899,4500;0,0351143
2900,4143;0,0352299
2901,3784;0,0353357
2902,3428;0,0354288
2903,3069;0,0355124
2904,2712;0,035594
2905,2354;0,0356809
2906,1997;0,0357783
2907,1638;0,0358898
2908,1282;0,0360197
2909,0923;0,0361749
2910,0566;0,036363
2911,0208;0,0365888
2911,9851;0,0368499
2912,9492;0,0371346
2913,9136;0,0374229
2914,8777;0,0376904
2915,8420;0,0379131
2916,8062;0,0380732
2917,7705;0,038162
2918,7346;0,0381805
2919,6990;0,038137
2920,6631;0,0380429
2921,6274;0,0379083
2922,5916;0,0377392
2923,5559;0,0375377
2924,5200;0,0373038
2925,4844;0,0370377
2926,4485;0,0367405
2927,4128;0,0364159
2928,3770;0,0360692
2929,3413;0,0357077
2930,3054;0,0353396
2931,2698;0,0349734
2932,2339;0,0346156
2933,1982;0,0342697
2934,1624;0,0339363
2935,1267;0,0336139
2936,0908;0,0333004
2937,0552;0,0329942
2938,0193;0,0326939
2938,9836;0,032397
2939,9478;0,0321004
2940,9121;0,0318005
2941,8762;0,0314958
2942,8406;0,0311882
2943,8047;0,030884
2944,7690;0,030592
2945,7332;0,0303199
2946,6975;0,0300712
2947,6616;0,0298431
2948,6260;0,029629
2949,5901;0,0294216
2950,5544;0,0292167
2951,5186;0,0290147
2952,4829;0,0288188
2953,4470;0,0286322
2954,4114;0,0284542
2955,3755;0,0282809
2956,3398;0,0281064
2957,3040;0,0279273
2958,2683;0,027744
2959,2324;0,0275606
2960,1968;0,0273819
2961,1609;0,0272103
2962,1252;0,0270441
2963,0894;0,0268788
2964,0537;0,0267095
2965,0178;0,0265341
2965,9822;0,0263533
2966,9463;0,0261688
2967,9106;0,0259812
2968,8748;0,025789
2969,8391;0,0255903
2970,8032;0,0253857
2971,7676;0,0251803
2972,7317;0,0249823
2973,6960;0,0247999
2974,6602;0,0246362
2975,6245;0,0244887
2976,5886;0,0243509
2977,5530;0,0242177
2978,5171;0,0240886
2979,4814;0,0239682
2980,4456;0,023862
2981,4099;0,0237726
2982,3740;0,0236971
2983,3384;0,0236296
2984,3025;0,0235649
2985,2668;0,0235016
2986,2310;0,0234419
2987,1953;0,0233894
2988,1594;0,0233453
2989,1238;0,0233082
2990,0879;0,0232753
2991,0522;0,0232451
2992,0164;0,0232183
2992,9807;0,0231973
2993,9448;0,023184
2994,9092;0,0231787
2995,8733;0,0231811
2996,8376;0,0231918
2997,8018;0,0232132
2998,7661;0,0232477
2999,7302;0,0232953
3000,6946;0,0233521
3001,6587;0,0234115
3002,6230;0,0234679
3003,5872;0,0235194
3004,5515;0,0235677
3005,5156;0,023616
3006,4800;0,0236645
3007,4441;0,0237102
3008,4084;0,0237489
3009,3726;0,0237793
3010,3369;0,0238058
3011,3010;0,0238362
3012,2654;0,0238767
3013,2295;0,0239272
3014,1938;0,02398
3015,1580;0,0240248
3016,1223;0,0240553
3017,0864;0,0240739
3018,0508;0,0240914
3019,0149;0,024121
3019,9792;0,0241715
3020,9434;0,0242433
3021,9077;0,0243297
3022,8718;0,0244217
3023,8362;0,0245135
3024,8003;0,0246045
3025,7646;0,0246975
3026,7288;0,0247943
3027,6931;0,0248931
3028,6572;0,0249885
3029,6216;0,025075
3030,5857;0,0251505
3031,5500;0,0252181
3032,5142;0,025284
3033,4785;0,0253543
3034,4426;0,0254314
3035,4070;0,025514
3036,3711;0,0255991
3037,3354;0,0256845
3038,2996;0,0257703
3039,2639;0,0258584
3040,2280;0,0259506
3041,1924;0,0260474
3042,1565;0,0261481
3043,1208;0,0262517
3044,0850;0,0263573
3045,0493;0,0264639
3046,0134;0,0265702
3046,9778;0,0266746
3047,9419;0,0267764
3048,9063;0,0268779
3049,8704;0,0269839
3050,8347;0,0270999
3051,7988;0,0272285
3052,7632;0,0273672
3053,7273;0,0275084
3054,6917;0,0276433
3055,6558;0,0277662
3056,6201;0,0278771
3057,5842;0,0279815
3058,5486;0,0280877
3059,5127;0,0282028
3060,4771;0,0283307
3061,4412;0,0284708
3062,4055;0,0286184
3063,3696;0,0287655
3064,3340;0,0289027
3065,2981;0,0290223
3066,2625;0,0291226
3067,2266;0,0292095
3068,1909;0,0292943
3069,1550;0,0293891
3070,1194;0,029501
3071,0835;0,0296298
3072,0479;0,0297692
3073,0120;0,0299119
3073,9763;0,0300532
3074,9404;0,0301928
3075,9048;0,0303318
3076,8689;0,0304706
3077,8333;0,0306066
3078,7974;0,0307359
3079,7617;0,0308563
3080,7258;0,030969
3081,6902;0,0310786
3082,6543;0,0311893
3083,6187;0,0313028
3084,5828;0,0314178
3085,5471;0,0315324
3086,5112;0,0316473
3087,4756;0,0317668
3088,4397;0,0318966
3089,4041;0,0320397
3090,3682;0,0321927
3091,3325;0,0323471
3092,2966;0,0324934
3093,2610;0,0326279
3094,2251;0,0327554
3095,1895;0,0328871
3096,1536;0,0330333
3097,1179;0,033196
3098,0820;0,0333661
3099,0464;0,0335281
3100,0105;0,0336687
3100,9749;0,0337849
3101,9390;0,0338857
3102,9033;0,033987
3103,8674;0,034103
3104,8318;0,0342394
3105,7959;0,0343925
3106,7603;0,0345532
3107,7244;0,0347128
3108,6887;0,0348666
3109,6528;0,0350147
3110,6172;0,0351607
3111,5813;0,0353094
3112,5457;0,0354648
3113,5098;0,0356289
3114,4741;0,0358008
3115,4382;0,0359758
3116,4026;0,0361462
3117,3667;0,036304
3118,3311;0,0364444
3119,2952;0,0365677
3120,2595;0,0366796
3121,2236;0,0367883
3122,1880;0,0369016
3123,1521;0,0370251
3124,1165;0,037162
3125,0806;0,0373135
3126,0449;0,0374795
3127,0090;0,0376571
3127,9734;0,0378406
3128,9375;0,0380216
3129,9019;0,0381913
3130,8660;0,0383435
3131,8303;0,0384776
3132,7944;0,0385982
3133,7588;0,0387138
3134,7229;0,0388328
3135,6873;0,0389614
3136,6514;0,0391023
3137,6157;0,0392553
3138,5798;0,0394178
3139,5442;0,039586
3140,5083;0,0397554
3141,4727;0,0399222
3142,4368;0,0400845
3143,4011;0,0402438
3144,3652;0,0404039
3145,3296;0,0405687
3146,2937;0,0407392
3147,2581;0,0409117
3148,2222;0,0410796
3149,1865;0,0412369
3150,1506;0,041383
3151,1150;0,0415233
3152,0791;0,0416672
3153,0435;0,0418223
3154,0076;0,0419896
3154,9719;0,0421625
3155,9360;0,0423314
3156,9004;0,0424892
3157,8645;0,0426363
3158,8289;0,0427803
3159,7930;0,0429315
3160,7573;0,043097
3161,7214;0,0432765
3162,6858;0,043463
3163,6499;0,0436466
3164,6143;0,0438196
3165,5784;0,0439797
3166,5427;0,0441299
3167,5068;0,0442762
3168,4712;0,0444246
3169,4353;0,0445103
3170,3997;0,0446748
3171,3638;0,0448489
3172,3281;0,0450299
3173,2922;0,0452127
3174,2566;0,0453904
3175,2207;0,0455567
3176,1851;0,0457077
3177,1492;0,0458445
3178,1135;0,0459727
3179,0776;0,0461001
3180,0420;0,0462339
3181,0061;0,0463771
3181,9705;0,0465293
3182,9346;0,0466879
3183,8989;0,0468503
3184,8630;0,0470152
3185,8274;0,0471813
3186,7915;0,0473467
3187,7559;0,0475083
3188,7200;0,0476638
3189,6843;0,0478139
3190,6484;0,0479631
3191,6128;0,0481178
3192,5769;0,0482815
3193,5413;0,0484522
3194,5054;0,0486222
3195,4697;0,0487822
3196,4338;0,0489269
3197,3982;0,0490586
3198,3623;0,0491864
3199,3267;0,0493214
3200,2908;0,0494718
3201,2551;0,0496393
3202,2192;0,049819
3203,1836;0,0500018
3204,1477;0,0501773
3205,1121;0,0503377
3206,0762;0,0504807
3207,0405;0,050611
3208,0046;0,0507385
3208,9690;0,0508734
3209,9331;0,0510206
3210,8975;0,0511764
3211,8616;0,0513308
3212,8259;0,0514735
3213,7900;0,0515995
3214,7544;0,051712
3215,7185;0,0518197
3216,6829;0,0519317
3217,6470;0,0520537
3218,6113;0,0521876
3219,5754;0,0523333
3220,5398;0,0524899
3221,5039;0,0526555
3222,4683;0,0528263
3223,4324;0,0529955
3224,3967;0,0531562
3225,3608;0,0533042
3226,3252;0,0534414
3227,2893;0,0535747
3228,2537;0,0537132
3229,2178;0,053862
3230,1821;0,0540191
3231,1462;0,0541754
3232,1106;0,0543182
3233,0747;0,0544393
3234,0391;0,05454
3235,0032;0,0546324
3235,9675;0,0547348
3236,9316;0,054862
3237,8960;0,0550174
3238,8601;0,0551908
3239,8245;0,0553644
3240,7886;0,0555227
3241,7529;0,0556595
3242,7170;0,0557789
3243,6814;0,0558904
3244,6455;0,0560019
3245,6099;0,0561174
3246,5740;0,0562391
3247,5383;0,056371
3248,5024;0,0565195
3249,4668;0,05669
3250,4309;0,0568812
3251,3953;0,0570831
3252,3594;0,0572802
3253,3237;0,0574596
3254,2878;0,0576174
3255,2522;0,0577602
3256,2163;0,0578998
3257,1807;0,0580465
3258,1448;0,0582029
3259,1091;0,0583647
3260,0732;0,0585241
3261,0376;0,0586754
3262,0017;0,0588188
3262,9661;0,0589602
3263,9302;0,059109
3264,8945;0,0592725
3265,8586;0,0594518
3266,8230;0,0596393
3267,7871;0,0598207
3268,7515;0,05998
3269,7156;0,0601064
3270,6799;0,0601986
3271,6440;0,0602651
3272,6084;0,0603191
3273,5725;0,0603722
3274,5369;0,0604289
3275,5010;0,0604865
3276,4653;0,0605394
3277,4294;0,060584
3278,3938;0,0606217
3279,3579;0,0606577
3280,3223;0,0606975
3281,2864;0,0607438
3282,2507;0,0607955
3283,2148;0,0608495
3284,1792;0,0609036
3285,1433;0,0609572
3286,1077;0,0610111
3287,0718;0,0610657
3288,0361;0,0611199
3289,0002;0,0611713
3289,9646;0,0612162
3290,9287;0,061251
3291,8931;0,0612725
3292,8572;0,0612779
3293,8215;0,0612668
3294,7856;0,0612424
3295,7500;0,0612121
3296,7141;0,0611864
3297,6785;0,0611753
3298,6426;0,0611839
3299,6069;0,0612101
3300,5710;0,0612455
3301,5354;0,0612785
3302,4995;0,0612995
3303,4639;0,0613028
3304,4280;0,0612882
3305,3923;0,0612593
3306,3564;0,0612223
3307,3208;0,0611843
3308,2849;0,0611518
3309,2493;0,0611298
3310,2134;0,0611213
3311,1777;0,0611279
3312,1418;0,0611502
3313,1062;0,0611886
3314,0703;0,0612432
3315,0347;0,0613123
3315,9988;0,0613918
3316,9631;0,0614754
3317,9272;0,061557
3318,8916;0,0616334
3319,8557;0,0617066
3320,8201;0,061783
3321,7842;0,0618705
3322,7485;0,0619745
3323,7126;0,0620951
3324,6770;0,0622267
3325,6411;0,0623605
3326,6055;0,0624884
3327,5696;0,0626063
3328,5339;0,0627157
3329,4980;0,0628212
3330,4624;0,0629274
3331,4265;0,0630345
3332,3909;0,0631352
3333,3550;0,0632155
3334,3193;0,0632591
3335,2834;0,063254
3336,2478;0,0631994
3337,2119;0,0631076
3338,1763;0,0629999
3339,1404;0,0628977
3340,1047;0,0628135
3341,0688;0,0627464
3342,0332;0,0626846
3342,9973;0,0626119
3343,9617;0,062516
3344,9258;0,062393
3345,8901;0,0622477
3346,8542;0,0620892
3347,8186;0,0619262
3348,7827;0,0617639
3349,7471;0,0616028
3350,7112;0,0614406
3351,6755;0,0612752
3352,6396;0,0611072
3353,6040;0,0609418
3354,5681;0,0607862
3355,5325;0,0606468
3356,4966;0,0605242
3357,4609;0,0604113
3358,4250;0,060296
3359,3894;0,0601674
3360,3535;0,0600221
3361,3179;0,0598658
3362,2820;0,05971
3363,2463;0,059564
3364,2104;0,0594297
3365,1748;0,0593004
3366,1389;0,0591652
3367,1033;0,0590164
3368,0674;0,0588523
3369,0317;0,0586774
3369,9958;0,0584989
3370,9602;0,0583234
3371,9243;0,0581558
3372,8887;0,0580003
3373,8528;0,0578598
3374,8171;0,0577352
3375,7813;0,0576235
3376,7456;0,0575177
3377,7097;0,0574086
3378,6741;0,0572877
3379,6382;0,0571502
3380,6025;0,0569952
3381,5667;0,0568259
3382,5310;0,0566491
3383,4951;0,056475
3384,4595;0,0563165
3385,4236;0,0561859
3386,3879;0,0560892
3387,3521;0,0560228
3388,3164;0,0559723
3389,2805;0,055918
3390,2449;0,0558421
3391,2090;0,0557357
3392,1733;0,0556012
3393,1375;0,0554493
3394,1018;0,0552929
3395,0659;0,0551415
3396,0303;0,0549994
3396,9944;0,0548665
3397,9587;0,0547394
3398,9229;0,0546123
3399,8872;0,0544768
3400,8513;0,0543252
3401,8157;0,0541538
3402,7798;0,0539674
3403,7441;0,0537791
3404,7083;0,053605
3405,6726;0,0534566
3406,6367;0,0533339
3407,6011;0,0532245
3408,5652;0,053108
3409,5295;0,0529649
3410,4937;0,0527844
3411,4580;0,0525691
3412,4221;0,0523344
3413,3865;0,0521024
3414,3506;0,0518927
3415,3149;0,051714
3416,2791;0,0515607
3417,2434;0,0514153
3418,2075;0,051256
3419,1719;0,0510669
3420,1360;0,0508455
3421,1003;0,0506039
3422,0645;0,0503618
3423,0288;0,0501368
3423,9929;0,0499363
3424,9573;0,0497566
3425,9214;0,0495866
3426,8857;0,0494135
3427,8499;0,0492269
3428,8142;0,0490218
3429,7783;0,0487977
3430,7427;0,0485578
3431,7068;0,0483079
3432,6711;0,0480558
3433,6353;0,0478101
3434,5996;0,0475784
3435,5637;0,0473637
3436,5281;0,0471636
3437,4922;0,0469721
3438,4565;0,0467852
3439,4207;0,0466051
3440,3850;0,0464394
3441,3491;0,0462933
3442,3135;0,0461598
3443,2776;0,0460168
3444,2419;0,0458346
3445,2061;0,0455932
3446,1704;0,0452976
3447,1345;0,0449798
3448,0989;0,0446824
3449,0630;0,0444344
3450,0273;0,0442363
3450,9915;0,0440666
3451,9558;0,0438983
3452,9199;0,0437159
3453,8843;0,0435193
3454,8484;0,0433184
3455,8127;0,0431213
3456,7769;0,0429279
3457,7412;0,0427315
3458,7053;0,0425254
3459,6697;0,042309
3460,6338;0,0420882
3461,5981;0,0418696
3462,5623;0,0416556
3463,5266;0,0414416
3464,4907;0,0412199
3465,4551;0,0409855
3466,4192;0,0407402
3467,3835;0,040493
3468,3477;0,0402542
3469,3120;0,0400296
3470,2761;0,0398167
3471,2405;0,0396067
3472,2046;0,0393924
3473,1689;0,0391743
3474,1331;0,0389635
3475,0974;0,0387745
3476,0615;0,0386149
3477,0259;0,0384777
3477,9900;0,0383424
3478,9543;0,0381852
3479,9185;0,0379925
3480,8828;0,037769
3481,8469;0,0375358
3482,8113;0,0373159
3483,7754;0,0371191
3484,7397;0,0369357
3485,7039;0,0367449
3486,6682;0,0365292
3487,6323;0,0362878
3488,5967;0,0360381
3489,5608;0,0358059
3490,5251;0,0356081
3491,4893;0,0354422
3492,4536;0,0352891
3493,4177;0,0351268
3494,3821;0,0349472
3495,3462;0,0347655
3496,3105;0,0346124
3497,2747;0,0345119
3498,2390;0,0344604
3499,2031;0,0344217
3500,1675;0,034341
3501,1316;0,0341726
3502,0959;0,0339077
3503,0601;0,0335858
3504,0244;0,0332721
3504,9885;0,0330151
3505,9529;0,0328188
3506,9170;0,0326491
3507,8813;0,0324616
3508,8455;0,03223
3509,8098;0,0319609
3510,7739;0,0316859
3511,7383;0,0314376
3512,7024;0,0312284
3513,6667;0,031049
3514,6309;0,0308826
3515,5952;0,0307215
3516,5593;0,0305726
3517,5237;0,0304514
3518,4878;0,0303689
3519,4521;0,0303218
3520,4163;0,0302925
3521,3806;0,0302562
3522,3447;0,0301893
3523,3091;0,0300756
3524,2732;0,0299068
3525,2375;0,0296795
3526,2017;0,029395
3527,1660;0,0290647
3528,1301;0,0287155
3529,0945;0,0283865
3530,0586;0,0281139
3531,0229;0,0279126
3531,9871;0,027769
3532,9514;0,0276496
3533,9155;0,027516
3534,8799;0,0273428
3535,8440;0,0271302
3536,8083;0,0269064
3537,7725;0,0267158
3538,7368;0,0265971
3539,7009;0,0265655
3540,6653;0,0266055
3541,6294;0,026674
3542,5938;0,0267092
3543,5579;0,0266471
3544,5222;0,0264503
3545,4863;0,0261362
3546,4507;0,0257745
3547,4148;0,0254422
3548,3792;0,025176
3549,3433;0,024961
3550,3076;0,0247537
3551,2717;0,0245171
3552,2361;0,0242469
3553,2002;0,0239755
3554,1646;0,0237486
3555,1287;0,023591
3556,0930;0,023494
3557,0571;0,0234296
3558,0215;0,0233772
3558,9856;0,023342
3559,9500;0,023353
3560,9141;0,0234376
3561,8784;0,023591
3562,8425;0,0237592
3563,8069;0,0238407
3564,7710;0,0237073
3565,7354;0,0232652
3566,6995;0,0225595
3567,6638;0,021804
3568,6279;0,0212289
3569,5923;0,0209114
3570,5564;0,0207799
3571,5208;0,020719
3572,4849;0,0206453
3573,4492;0,0205294
3574,4133;0,0203831
3575,3777;0,0202322
3576,3418;0,0200916
3577,3062;0,0199604
3578,2703;0,0198367
3579,2346;0,0197357
3580,1987;0,0196896
3581,1631;0,0197246
3582,1272;0,0198322
3583,0916;0,0199579
3584,0557;0,0200098
3585,0200;0,0198849
3585,9841;0,0195235
3586,9485;0,0189896
3587,9126;0,0184818
3588,8770;0,0181926
3589,8411;0,018159
3590,8054;0,0182736
3591,7695;0,0183902
3592,7339;0,018403
3593,6980;0,0182792
3594,6624;0,0180572
3595,6265;0,0178071
3596,5908;0,0175724
3597,5549;0,0173446
3598,5193;0,0170953
3599,4834;0,0168268
3600,4478;0,01659
3601,4119;0,0164496
3602,3762;0,0164258
3603,3403;0,0164705
3604,3047;0,0164942
3605,2688;0,0164114
3606,2332;0,0161805
3607,1973;0,015826
3608,1616;0,0154318
3609,1257;0,0150943
3610,0901;0,0148692
3611,0542;0,0147581
3612,0186;0,0147323
3612,9827;0,0147565
3613,9470;0,0147926
3614,9111;0,0147911
3615,8755;0,0146916
3616,8396;0,0144409
3617,8040;0,0140325
3618,7681;0,0135504
3619,7324;0,013165
3620,6965;0,0130355
3621,6609;0,0131974
3622,6250;0,0135528
3623,5894;0,0139436
3624,5535;0,0142155
3625,5178;0,0142389
3626,4819;0,0139166
3627,4463;0,0132359
3628,4104;0,0123759
3629,3748;0,0116806
3630,3389;0,0113704
3631,3032;0,0113704
3632,2673;0,0114638
3633,2317;0,0114843
3634,1958;0,0113818
3635,1602;0,0111994
3636,1243;0,0110131
3637,0886;0,010876
3638,0527;0,0107959
3639,0171;0,0107567
3639,9812;0,010752
3640,9456;0,0107988
3641,9097;0,0109196
3642,8740;0,0111129
3643,8381;0,0113373
3644,8025;0,0115123
3645,7666;0,0115189
3646,7310;0,0111963
3647,6951;0,0104074
3648,6594;0,00927647
3649,6235;0,00829802
3650,5879;0,0078777
3651,5520;0,00795638
3652,5164;0,00822658
3653,4805;0,0084219
3654,4448;0,00841528
3655,4089;0,00822272
3656,3733;0,00796856
3657,3374;0,0077968
3658,3018;0,00776575
3659,2659;0,0078261
3660,2302;0,00789528
3661,1943;0,00793823
3662,1587;0,00798765
3663,1228;0,00810044
3664,0872;0,00829218
3665,0513;0,00850883
3666,0156;0,00865189
3666,9797;0,00863296
3667,9441;0,00843075
3668,9082;0,00813281
3669,8726;0,00790487
3670,8367;0,00785369
3671,8010;0,00792261
3672,7651;0,00794552
3673,7295;0,00777197
3674,6936;0,00737287
3675,6580;0,0068983
3676,6221;0,00658739
3677,5864;0,00655026
3678,5505;0,00670422
3679,5149;0,00691251
3680,4790;0,00710595
3681,4434;0,00729657
3682,4075;0,00752499
3683,3718;0,0078003
3684,3359;0,00807489
3685,3003;0,00826163
3686,2644;0,0082704
3687,2288;0,00804701
3688,1929;0,00762329
3689,1572;0,00715792
3690,1213;0,00686518
3691,0857;0,0068416
3692,0498;0,00701732
3693,0142;0,00726798
3693,9783;0,00751232
3694,9426;0,00772707
3695,9067;0,00791603
3696,8711;0,0080752
3697,8352;0,00817751
3698,7996;0,00818377
3699,7637;0,00807379
3700,7280;0,00788097
3701,6921;0,00770061
3702,6565;0,00764416
3703,6206;0,00776507
3704,5850;0,00802684
3705,5491;0,00833367
3706,5134;0,00857658
3707,4775;0,00865628
3708,4419;0,00848776
3709,4060;0,00802466
3710,3704;0,00733575
3711,3345;0,00665574
3712,2988;0,0062532
3713,2629;0,00622385
3714,2273;0,00647479
3715,1914;0,00685291
3716,1558;0,00724085
3717,1199;0,00758244
3718,0842;0,00787122
3719,0483;0,0081263
3720,0127;0,00836577
3720,9768;0,00858663
3721,9412;0,00876163
3722,9053;0,00885667
3723,8696;0,00885909
3724,8337;0,00879709
3725,7981;0,00873
3726,7622;0,00871173
3727,7266;0,00876031
3728,6907;0,00885958
3729,6550;0,0089808
3730,6191;0,00909535
3731,5835;0,00916354
3732,5476;0,00911095
3733,5120;0,00884033
3734,4761;0,00833522
3735,4404;0,00777416
3736,4045;0,00743608
3737,3689;0,00745486
3738,3330;0,00773929
3739,2974;0,0080827
3740,2615;0,00828109
3741,2258;0,00819245
3742,1899;0,00777525
3743,1543;0,00714227
3744,1184;0,00657373
3745,0828;0,00635144
3746,0469;0,00650859
3747,0112;0,00681912
3747,9753;0,00699216
3748,9397;0,00682821
3749,9038;0,0063224
3750,8682;0,00573402
3751,8323;0,00543318
3752,7966;0,00556004
3753,7607;0,00595348
3754,7251;0,00636277
3755,6892;0,00660898
3756,6536;0,00662485
3757,6177;0,00645124
3758,5820;0,00621435
3759,5461;0,00605945
3760,5105;0,00606285
3761,4746;0,00620205
3762,4390;0,00640002
3763,4031;0,00658109
3764,3674;0,00669635
3765,3315;0,0067218
3766,2959;0,00664713
3767,2600;0,0064706
3768,2244;0,00620853
3769,1885;0,00591364
3770,1528;0,00567702
3771,1169;0,00559082
3772,0813;0,00569216
3773,0454;0,00593918
3774,0098;0,00623629
3774,9739;0,00647883
3775,9382;0,00658933
3776,9023;0,00654191
3777,8667;0,00637716
3778,8308;0,00619166
3779,7952;0,00608416
3780,7593;0,00609231
3781,7236;0,00618036
3782,6877;0,00627887
3783,6521;0,00633004
3784,6162;0,00631128
3785,5806;0,00623737
3786,5447;0,00614755
3787,5090;0,00608591
3788,4731;0,00608323
3789,4375;0,00614645
3790,4016;0,00625851
3791,3660;0,0063886
3792,3301;0,00650958
3793,2944;0,00661394
3794,2585;0,0067167
3795,2229;0,00683749
3796,1870;0,00696974
3797,1514;0,00706179
3798,1155;0,00703292
3799,0798;0,00682453
3800,0439;0,00646429
3801,0083;0,00608989
3801,9724;0,00586461
3802,9368;0,00583244
3803,9009;0,00588256
3804,8652;0,00585784
3805,8293;0,00568859
3806,7937;0,00545982
3807,7578;0,00536032
3808,7222;0,00552436
3809,6863;0,00591649
3810,6506;0,00637524
3811,6147;0,00673182
3812,5791;0,00689176
3813,5432;0,00686417
3814,5076;0,00675192
3815,4717;0,00668863
3816,4360;0,0067319
3817,4001;0,00680577
3818,3645;0,00676193
3819,3286;0,00650534
3820,2930;0,00609516
3821,2571;0,00573467
3822,2214;0,00561374
3823,1855;0,00575703
3824,1499;0,00604536
3825,1140;0,00633588
3826,0784;0,00654271
3827,0425;0,00665039
3828,0068;0,00668936
3828,9709;0,00670165
3829,9353;0,00671695
3830,8994;0,00674781
3831,8638;0,00679612
3832,8279;0,00685721
3833,7922;0,00691686
3834,7563;0,00694842
3835,7207;0,00691944
3836,6848;0,00681072
3837,6492;0,00663901
3838,6133;0,00645816
3839,5776;0,00631987
3840,5417;0,00623093
3841,5061;0,00616093
3842,4702;0,00609109
3843,4346;0,00605097
3844,3987;0,00610973
3845,3630;0,00632808
3846,3271;0,00670979
3847,2915;0,00718892
3848,2556;0,00765105
3849,2200;0,00795837
3850,1841;0,00795838
3851,1484;0,00749661
3852,1125;0,00652734
3853,0769;0,00536257
3854,0410;0,00461832
3855,0054;0,00460621
3855,9695;0,00512057
3856,9338;0,0058127
3857,8979;0,00644747
3858,8623;0,00692059
3859,8264;0,00720702
3860,7908;0,00732044
3861,7549;0,00729706
3862,7192;0,00719627
3863,6833;0,00709361
3864,6477;0,00704714
3865,6118;0,00706429
3866,5762;0,00710637
3867,5403;0,00711919
3868,5046;0,00705901
3869,4688;0,00690746
3870,4331;0,00668343
3871,3972;0,00644623
3872,3616;0,00627482
3873,3257;0,00622909
3874,2900;0,00632182
3875,2542;0,00651803
3876,2185;0,00675518
3877,1826;0,00696946
3878,1470;0,00711801
3879,1111;0,00719008
3880,0754;0,00720037
3881,0396;0,00716347
3882,0039;0,00706996
3882,9680;0,00689706
3883,9324;0,00665403
3884,8965;0,00641455
3885,8608;0,00628514
3886,8250;0,00632237
3887,7893;0,00648143
3888,7534;0,00664641
3889,7178;0,0067088
3890,6819;0,00664226
3891,6462;0,0065331
3892,6104;0,00652214
3893,5747;0,00668637
3894,5388;0,00698494
3895,5032;0,00731218
3896,4673;0,00757372
3897,4316;0,00772315
3898,3958;0,00775985
3899,3601;0,0077053
3900,3242;0,00757271
3901,2886;0,00735324
3902,2527;0,00703876
3903,2170;0,00666356
3904,1812;0,00631261
3905,1455;0,00607149
3906,1096;0,00596921
3907,0740;0,0059743
3908,0381;0,00603504
3909,0024;0,00611789
3909,9666;0,0062198
3910,9309;0,00635598
3911,8950;0,00653609
3912,8594;0,00674511
3913,8235;0,0069404
3914,7878;0,0070666
3915,7520;0,00708347
3916,7163;0,00699637
3917,6804;0,00686589
3918,6448;0,00677458
3919,6089;0,00677078
3920,5732;0,00684049
3921,5374;0,0069262
3922,5017;0,00696856
3923,4658;0,00694429
3924,4302;0,00688164
3925,3943;0,0068398
3926,3586;0,00686344
3927,3228;0,0069507
3928,2871;0,00705682
3929,2512;0,007121
3930,2156;0,00709719
3931,1797;0,00697837
3932,1440;0,00680211
3933,1082;0,00662849
3934,0725;0,00650621
3935,0366;0,00645634
3936,0010;0,00647827
3936,9651;0,00656027
3937,9294;0,0066824
3938,8936;0,00681505
3939,8579;0,00692278
3940,8220;0,0069786
3941,7864;0,00698252
3942,7505;0,00696654
3943,7148;0,00697429
3944,6790;0,00702772
3945,6433;0,00710929
3946,6074;0,00717149
3947,5718;0,00716468
3948,5359;0,00706748
3949,5002;0,00690221
3950,4644;0,00672209
3951,4287;0,00657816
3952,3928;0,00649383
3953,3572;0,00646375
3954,3213;0,00646899
3955,2856;0,00649229
3956,2498;0,0065243
3957,2141;0,0065608
3958,1782;0,00659633
3959,1426;0,00662092
3960,1067;0,00662316
3961,0710;0,00659757
3962,0352;0,00655033
3962,9995;0,0064983
3963,9636;0,00646082
3964,9280;0,00645042
3965,8921;0,00646762
3966,8564;0,0065025
3967,8206;0,00654084
3968,7849;0,0065711
3969,7490;0,00658869
3970,7134;0,0065956
3971,6775;0,00659624
3972,6418;0,0065929
3973,6060;0,00658406
3974,5703;0,00656641
3975,5344;0,00653878
3976,4988;0,00650477
3977,4629;0,00647191
3978,4272;0,00644793
3979,3914;0,00643642
3980,3557;0,00643493
3981,3198;0,00643659
3982,2842;0,00643483
3983,2483;0,00642792
3984,2126;0,00642028
3985,1768;0,00641943
3986,1411;0,00643093
3987,1052;0,00645492
3988,0696;0,00648605
3989,0337;0,00651663
3989,9980;0,0065399
3990,9622;0,00655165
3991,9265;0,00654963
3992,8906;0,00653249
3993,8550;0,00650006
3994,8191;0,00645494
3995,7834;0,00640364
3996,7476;0,00635544
3997,7119;0,0063193
3998,6760;0,0063006
3999,6404;0,00629988
4000,6045;0,00641334

##### Extended Information
[Comments]
Sample name
Comment
Username
Division
Organization;UNIVERSIDAD INDUSTRIAL DE SANTANDER

[Detailed Information]
Creation date;17/03/2025 11:28 a.m.

Data array type;Linear data array
Horizontal axis;Wavenumber [cm-1]
Vertical axis;Abs
Start;399,193 cm-1
End;4000,6 cm-1
Data interval;0,964233 cm-1
Data points;3736    

[Measurement Information]
Model name;FT/IR-4X1typeA
Serial No.;A035162111

Accessory;ATR PRO 4X
Accessory S/N;A021162126
Incident angle;45 deg

Measurement date;17/03/2025 11:28 a.m.

Light source;Standard
Detector;TGS
Accumulation;40
Resolution;4 cm-1
Zero filling;On
Apodization;Cosine
Gain;Auto (8)
Aperture;Auto (7 mm)
Scan speed;Auto (2 mm/sec)
Filter;Auto (12800 Hz)

