TITLE;
DATA TYPE;INFRARED SPECTRUM
ORIGIN;JASCO
OWNER;
DATE;25/03/17
TIME;11:37:09
SPECTROMETER/DATA SYSTEM;
LOCALE;9226
RESOLUTION;
DELTAX;0,964233
XUNITS;1/CM
YUNITS;ABSORBANCE
FIRSTX;  399,1927
LASTX; 4000,6047
NPOINTS;    3736
FIRSTY;     0,10399
MAXY;     0,13245
MINY;     0,00246
XYDATA
399,1927;0,103991
400,1569;0,104276
401,1211;0,103902
402,0854;0,1031
403,0496;0,102171
404,0138;0,101409
404,9781;0,101024
405,9423;0,101061
406,9065;0,101358
407,8708;0,101633
408,8350;0,101663
409,7992;0,101437
410,7635;0,101195
411,7277;0,101301
412,6919;0,102017
413,6562;0,103353
414,6204;0,105097
415,5846;0,106944
416,5489;0,108585
417,5131;0,10977
418,4773;0,110421
419,4416;0,110732
420,4058;0,111
421,3700;0,111314
422,3343;0,111571
423,2985;0,111668
424,2627;0,11161
425,2270;0,1115
426,1912;0,111444
427,1554;0,111444
428,1197;0,111391
429,0839;0,111147
430,0481;0,110673
431,0124;0,110082
431,9766;0,109583
432,9408;0,109342
433,9051;0,109379
434,8693;0,109557
435,8335;0,109682
436,7978;0,109623
437,7620;0,109366
438,7262;0,108973
439,6905;0,108525
440,6547;0,108086
441,6189;0,107715
442,5832;0,107462
443,5474;0,10734
444,5116;0,107287
445,4759;0,107173
446,4401;0,106867
447,4043;0,106308
448,3686;0,10554
449,3328;0,104696
450,2970;0,103934
451,2613;0,103362
452,2255;0,10299
453,1897;0,102738
454,1540;0,102493
455,1182;0,102182
456,0824;0,101803
457,0467;0,101414
458,0109;0,101066
458,9751;0,100741
459,9394;0,100358
460,9036;0,0998642
461,8678;0,0993011
462,8321;0,0988029
463,7963;0,0985328
464,7605;0,0985896
465,7248;0,0989349
466,6890;0,0994008
467,6532;0,0997898
468,6175;0,0999853
469,5817;0,0999924
470,5459;0,0998957
471,5102;0,0997844
472,4744;0,0997007
473,4386;0,0996461
474,4029;0,0996278
475,3671;0,0996852
476,3313;0,0998635
477,2956;0,100169
478,2598;0,100545
479,2240;0,100894
480,1883;0,101128
481,1525;0,101212
482,1167;0,10118
483,0810;0,101113
484,0452;0,101102
485,0094;0,10123
485,9737;0,101564
486,9379;0,102138
487,9021;0,102938
488,8664;0,103872
489,8306;0,10476
490,7948;0,105383
491,7591;0,105586
492,7233;0,105378
493,6875;0,104954
494,6518;0,104596
495,6160;0,104521
496,5802;0,104787
497,5445;0,105303
498,5087;0,105902
499,4729;0,106434
500,4372;0,106815
501,4014;0,107038
502,3656;0,107147
503,3299;0,107203
504,2941;0,107267
505,2583;0,107392
506,2226;0,107626
507,1868;0,107994
508,1510;0,108473
509,1153;0,108986
510,0795;0,109436
511,0437;0,10976
512,0080;0,109973
512,9722;0,110158
513,9365;0,110419
514,9007;0,110815
515,8649;0,111313
516,8292;0,111792
517,7934;0,112106
518,7576;0,112174
519,7219;0,112041
520,6861;0,111831
521,6503;0,111663
522,6146;0,111588
523,5788;0,111587
524,5430;0,1116
525,5073;0,111565
526,4715;0,111462
527,4357;0,111323
528,4000;0,1112
529,3642;0,111134
530,3284;0,111127
531,2927;0,111143
532,2569;0,111118
533,2211;0,110996
534,1854;0,110763
535,1496;0,11047
536,1138;0,110221
537,0781;0,110126
538,0423;0,110245
539,0065;0,110551
539,9708;0,110952
540,9350;0,111344
541,8992;0,111663
542,8635;0,111907
543,8277;0,112113
544,7919;0,112323
545,7562;0,112554
546,7204;0,112806
547,6846;0,113079
548,6489;0,113385
549,6131;0,113731
550,5773;0,114109
551,5416;0,114485
552,5058;0,114826
553,4700;0,11512
554,4343;0,115387
555,3985;0,11565
556,3627;0,115903
557,3270;0,116094
558,2912;0,116142
559,2554;0,115985
560,2197;0,11561
561,1839;0,115061
562,1481;0,114416
563,1124;0,113756
564,0766;0,113139
565,0408;0,1126
566,0051;0,112147
566,9693;0,111773
567,9335;0,11145
568,8978;0,11115
569,8620;0,110853
570,8262;0,110562
571,7905;0,110307
572,7547;0,110128
573,7189;0,110046
574,6832;0,110051
575,6474;0,110099
576,6116;0,110133
577,5759;0,110111
578,5401;0,110025
579,5043;0,109902
580,4686;0,109773
581,4328;0,109657
582,3970;0,109542
583,3613;0,109397
584,3255;0,109196
585,2897;0,108942
586,2540;0,108678
587,2182;0,108471
588,1824;0,108377
589,1467;0,10841
590,1109;0,108528
591,0751;0,108647
592,0394;0,108681
593,0036;0,108581
593,9678;0,108362
594,9321;0,10808
595,8963;0,107792
596,8605;0,10753
597,8248;0,107292
598,7890;0,107059
599,7532;0,106817
600,7175;0,106571
601,6817;0,106338
602,6459;0,106134
603,6102;0,105959
604,5744;0,105805
605,5386;0,105655
606,5029;0,105491
607,4671;0,105298
608,4313;0,105053
609,3956;0,104741
610,3598;0,104366
611,3240;0,103966
612,2883;0,10361
613,2525;0,103365
614,2167;0,103253
615,1810;0,103216
616,1452;0,103118
617,1094;0,102794
618,0737;0,102136
619,0379;0,101153
620,0021;0,0999664
620,9664;0,0987516
621,9306;0,0976675
622,8948;0,0968173
623,8591;0,0962351
624,8233;0,0958582
625,7875;0,0956656
626,7518;0,0955544
627,7160;0,095432
628,6802;0,0952347
629,6445;0,0949428
630,6087;0,0945712
631,5729;0,0941582
632,5372;0,0937461
633,5014;0,0933689
634,4656;0,0930477
635,4299;0,0927908
636,3941;0,0925963
637,3583;0,0924536
638,3226;0,0923451
639,2868;0,092249
640,2510;0,0921451
641,2153;0,092021
642,1795;0,0918766
643,1437;0,0917223
644,1080;0,0915708
645,0722;0,0914268
646,0364;0,0912802
647,0007;0,091109
647,9649;0,0908924
648,9291;0,0906299
649,8934;0,0903548
650,8576;0,0901302
651,8218;0,0900257
652,7861;0,0900869
653,7503;0,0903125
654,7145;0,090649
655,6788;0,0910116
656,6430;0,0913273
657,6072;0,0915731
658,5715;0,091777
659,5357;0,091973
660,4999;0,0921403
661,4642;0,0921806
662,4284;0,0919549
663,3926;0,0913568
664,3569;0,0903947
665,3211;0,0892886
666,2853;0,0885058
667,2496;0,0885058
668,2138;0,0890936
669,1780;0,0894166
670,1423;0,0891167
671,1065;0,088434
672,0707;0,0875155
673,0350;0,0863778
673,9992;0,0850985
674,9634;0,0838366
675,9277;0,0827396
676,8919;0,0818564
677,8561;0,0811322
678,8204;0,0804731
679,7846;0,0798125
680,7488;0,0791277
681,7131;0,0784318
682,6773;0,0777511
683,6415;0,0771194
684,6058;0,0765713
685,5700;0,0761317
686,5342;0,0758028
687,4985;0,0755589
688,4627;0,0753639
689,4269;0,0751808
690,3912;0,0749989
691,3554;0,0748314
692,3196;0,0746957
693,2839;0,0745935
694,2481;0,0745048
695,2123;0,0743961
696,1766;0,0742346
697,1408;0,0740004
698,1050;0,0736896
699,0693;0,0733128
700,0335;0,0728889
700,9977;0,0724412
701,9620;0,0719942
702,9262;0,0715711
703,8904;0,0711794
704,8547;0,0708313
705,8189;0,0705241
706,7831;0,0702406
707,7474;0,0699521
708,7116;0,0696266
709,6758;0,0692378
710,6401;0,0687696
711,6043;0,0682197
712,5685;0,0676013
713,5328;0,066947
714,4970;0,0663059
715,4612;0,0650939
716,4255;0,0647472
717,3897;0,0645298
718,3539;0,0643335
719,3182;0,0640015
720,2824;0,0634066
721,2466;0,0625296
722,2109;0,0614751
723,1751;0,0604105
724,1393;0,0594779
725,1036;0,0587397
726,0678;0,0581749
727,0320;0,0577132
727,9963;0,057279
728,9605;0,0568244
729,9247;0,0563394
730,8890;0,0558416
731,8532;0,0553597
732,8174;0,0549177
733,7817;0,0545268
734,7459;0,0541829
735,7101;0,0538714
736,6744;0,0535771
737,6386;0,0532924
738,6028;0,0530188
739,5671;0,0527596
740,5313;0,0525097
741,4955;0,0522524
742,4598;0,0519677
743,4240;0,0516462
744,3882;0,0512988
745,3525;0,0509515
746,3167;0,050631
747,2809;0,0503491
748,2452;0,0500982
749,2094;0,0498591
750,1736;0,0496142
751,1379;0,0493567
752,1021;0,0490921
753,0663;0,0488329
754,0306;0,0485914
754,9948;0,0483744
755,9590;0,0481791
756,9233;0,0479928
757,8875;0,0477956
758,8517;0,0475678
759,8160;0,0472998
760,7802;0,0469982
761,7444;0,046685
762,7087;0,0463884
763,6729;0,0461298
764,6371;0,045916
765,6014;0,0457388
766,5656;0,0455816
767,5298;0,0454294
768,4941;0,0452746
769,4583;0,0451191
770,4225;0,0449717
771,3868;0,044841
772,3510;0,0447289
773,3152;0,0446256
774,2795;0,0445122
775,2437;0,0443705
776,2079;0,0441951
777,1722;0,0440003
778,1364;0,0438132
779,1006;0,0436568
780,0649;0,0435328
781,0291;0,0434175
781,9933;0,0432745
782,9576;0,0430765
783,9218;0,0428216
784,8860;0,0425326
785,8503;0,042242
786,8145;0,0419731
787,7787;0,0417324
788,7430;0,0415143
789,7072;0,0413134
790,6714;0,0411309
791,6357;0,0409726
792,5999;0,0408401
793,5641;0,0407254
794,5284;0,0406143
795,4926;0,0404959
796,4568;0,0403693
797,4211;0,0402422
798,3853;0,0401219
799,3495;0,040007
800,3138;0,0398874
801,2780;0,0397533
802,2422;0,0396047
803,2065;0,0394551
804,1707;0,0393238
805,1349;0,0392224
806,0992;0,0391461
807,0634;0,0390762
808,0276;0,0389907
808,9919;0,038878
809,9561;0,0387421
810,9203;0,0385991
811,8846;0,0384679
812,8488;0,038361
813,8130;0,0382817
814,7773;0,0382248
815,7415;0,0381813
816,7057;0,0381426
817,6700;0,0381047
818,6342;0,0380702
819,5984;0,0380465
820,5627;0,0380399
821,5269;0,0380483
822,4911;0,0380572
823,4554;0,0380446
824,4196;0,0379925
825,3839;0,0378987
826,3481;0,037779
827,3123;0,0376578
828,2766;0,0375526
829,2408;0,0374634
830,2050;0,0373746
831,1693;0,0372671
832,1335;0,0371328
833,0977;0,0369802
834,0620;0,0368291
835,0262;0,0366982
835,9904;0,0365954
836,9547;0,0365153
837,9189;0,0364442
838,8831;0,0363682
839,8474;0,0362783
840,8116;0,0361721
841,7758;0,0360519
842,7401;0,0359217
843,7043;0,035785
844,6685;0,0356452
845,6328;0,0355069
846,5970;0,0353771
847,5612;0,0352646
848,5255;0,0351767
849,4897;0,0351141
850,4539;0,0350676
851,4182;0,0350207
852,3824;0,0349567
853,3466;0,0348678
854,3109;0,0347603
855,2751;0,034651
856,2393;0,034559
857,2036;0,034495
858,1678;0,0344575
859,1320;0,0344351
860,0963;0,0344148
861,0605;0,0343902
862,0247;0,0343646
862,9890;0,0343497
863,9532;0,0343582
864,9174;0,0343965
865,8817;0,0344618
866,8459;0,034544
867,8101;0,0346325
868,7744;0,0347231
869,7386;0,0348197
870,7028;0,0349295
871,6671;0,0350547
872,6313;0,0351882
873,5955;0,0353169
874,5598;0,035431
875,5240;0,0355332
876,4882;0,035639
877,4525;0,0357683
878,4167;0,0359344
879,3809;0,0361386
880,3452;0,0363738
881,3094;0,0366341
882,2736;0,0369212
883,2379;0,0372436
884,2021;0,0376107
885,1663;0,0380268
886,1306;0,0384904
887,0948;0,038998
888,0590;0,0395456
889,0233;0,0401263
889,9875;0,0407255
890,9517;0,0413177
891,9160;0,0418711
892,8802;0,0423569
893,8444;0,0427574
894,8087;0,0430676
895,7729;0,0432907
896,7371;0,0434306
897,7014;0,0434878
898,6656;0,0434603
899,6298;0,0433475
900,5941;0,0431526
901,5583;0,0428842
902,5225;0,0425562
903,4868;0,0421878
904,4510;0,0418029
905,4152;0,0414267
906,3795;0,04108
907,3437;0,0407726
908,3079;0,0405015
909,2722;0,0402565
910,2364;0,0400292
911,2007;0,0398213
912,1649;0,0396452
913,1292;0,0395165
914,0934;0,0394448
915,0576;0,0394293
916,0219;0,0394618
916,9861;0,0395339
917,9503;0,0396422
918,9146;0,0397863
919,8788;0,0399621
920,8430;0,0401566
921,8073;0,0403486
922,7715;0,0405169
923,7357;0,0406491
924,7000;0,0407461
925,6642;0,0408188
926,6284;0,0408822
927,5927;0,0409491
928,5569;0,0410277
929,5211;0,041122
930,4854;0,0412321
931,4496;0,0413545
932,4138;0,0414832
933,3781;0,0416139
934,3423;0,0417475
935,3065;0,0418927
936,2708;0,0420613
937,2350;0,0422626
938,1992;0,0424984
939,1635;0,0427654
940,1277;0,0430625
941,0919;0,0433978
942,0562;0,0437883
943,0204;0,0442523
943,9846;0,0447983
944,9489;0,0454184
945,9131;0,0460897
946,8773;0,0467826
947,8416;0,0474707
948,8058;0,0481377
949,7700;0,0487799
950,7343;0,0494055
951,6985;0,0500323
952,6627;0,0506841
953,6270;0,0513853
954,5912;0,052154
955,5554;0,0529967
956,5197;0,053907
957,4839;0,0548686
958,4481;0,0558631
959,4124;0,0568762
960,3766;0,0579019
961,3408;0,0589418
962,3051;0,0600016
963,2693;0,0610853
964,2335;0,0621917
965,1978;0,063315
966,1620;0,0644488
967,1262;0,0655939
968,0905;0,0667642
969,0547;0,067988
970,0189;0,0693013
970,9832;0,0707372
971,9474;0,0723154
972,9116;0,0740383
973,8759;0,0758946
974,8401;0,0778688
975,8043;0,0799493
976,7686;0,0821293
977,7328;0,0844001
978,6970;0,086738
979,6613;0,0890936
980,6255;0,0913923
981,5897;0,093546
982,5540;0,0954757
983,5182;0,097135
984,4824;0,098523
985,4467;0,099683
986,4109;0,100686
987,3751;0,101604
988,3394;0,102494
989,3036;0,103378
990,2678;0,104251
991,2321;0,105087
992,1963;0,105859
993,1605;0,106551
994,1248;0,107166
995,0890;0,107718
996,0532;0,108221
997,0175;0,108678
997,9817;0,109076
998,9459;0,109397
999,9102;0,109638
1000,8744;0,109819
1001,8386;0,10999
1002,8029;0,110214
1003,7671;0,110547
1004,7313;0,111024
1005,6956;0,111655
1006,6598;0,112433
1007,6240;0,113348
1008,5883;0,114388
1009,5525;0,115539
1010,5167;0,116774
1011,4810;0,118057
1012,4452;0,119344
1013,4094;0,120592
1014,3737;0,121774
1015,3379;0,122874
1016,3021;0,123891
1017,2664;0,124825
1018,2306;0,125678
1019,1948;0,126454
1020,1591;0,12716
1021,1233;0,127814
1022,0875;0,128436
1023,0518;0,129048
1024,0160;0,129662
1024,9802;0,130272
1025,9445;0,130861
1026,9087;0,131399
1027,8729;0,131859
1028,8372;0,132211
1029,8014;0,132423
1030,7656;0,132451
1031,7299;0,132242
1032,6941;0,131738
1033,6583;0,130904
1034,6226;0,129741
1035,5868;0,128305
1036,5510;0,126699
1037,5153;0,125053
1038,4795;0,123499
1039,4437;0,122144
1040,4080;0,121061
1041,3722;0,120281
1042,3364;0,119797
1043,3007;0,11957
1044,2649;0,119544
1045,2291;0,119651
1046,1934;0,119829
1047,1576;0,120027
1048,1218;0,120204
1049,0861;0,120326
1050,0503;0,120362
1051,0145;0,120278
1051,9788;0,120045
1052,9430;0,119645
1053,9072;0,119072
1054,8715;0,118329
1055,8357;0,117409
1056,7999;0,116292
1057,7642;0,114941
1058,7284;0,113317
1059,6926;0,111404
1060,6569;0,109229
1061,6211;0,106868
1062,5853;0,10443
1063,5496;0,102033
1064,5138;0,0997675
1065,4780;0,0976837
1066,4423;0,095787
1067,4065;0,0940526
1068,3707;0,0924455
1069,3350;0,0909359
1070,2992;0,0895049
1071,2634;0,0881404
1072,2277;0,0868286
1073,1919;0,0855481
1074,1561;0,08427
1075,1204;0,0829647
1076,0846;0,0816127
1077,0488;0,0802142
1078,0131;0,0787943
1078,9773;0,0774002
1079,9415;0,0760918
1080,9058;0,0749277
1081,8700;0,0739507
1082,8342;0,0731785
1083,7985;0,0726018
1084,7627;0,0721898
1085,7269;0,0719026
1086,6912;0,0717036
1087,6554;0,0715696
1088,6196;0,0714939
1089,5839;0,0714836
1090,5481;0,0715499
1091,5123;0,0716988
1092,4766;0,0719236
1093,4408;0,0722046
1094,4050;0,0725165
1095,3693;0,0728376
1096,3335;0,0731575
1097,2977;0,0734769
1098,2620;0,0737988
1099,2262;0,0741173
1100,1904;0,0744108
1101,1547;0,0746466
1102,1189;0,0747946
1103,0831;0,0748434
1104,0474;0,0748082
1105,0116;0,0747238
1105,9758;0,0746256
1106,9401;0,0745288
1107,9043;0,0744148
1108,8685;0,0742344
1109,8328;0,0739219
1110,7970;0,0734173
1111,7612;0,0726838
1112,7255;0,0717199
1113,6897;0,0705607
1114,6539;0,0692729
1115,6182;0,0679425
1116,5824;0,0666567
1117,5466;0,0654837
1118,5109;0,0644546
1119,4751;0,0635544
1120,4393;0,0627283
1121,4036;0,0619005
1122,3678;0,0610005
1123,3320;0,0599851
1124,2963;0,058848
1125,2605;0,0576143
1126,2247;0,0563256
1127,1890;0,0550236
1128,1532;0,053738
1129,1174;0,0524826
1130,0817;0,0512588
1131,0459;0,0500623
1132,0101;0,0488913
1132,9744;0,0477538
1133,9386;0,0466711
1134,9028;0,0456761
1135,8671;0,0448076
1136,8313;0,0440999
1137,7955;0,0435749
1138,7598;0,0432376
1139,7240;0,0430785
1140,6882;0,04308
1141,6525;0,0432226
1142,6167;0,0434884
1143,5809;0,04386
1144,5452;0,0443174
1145,5094;0,0448354
1146,4736;0,0453862
1147,4379;0,0459441
1148,4021;0,0464926
1149,3663;0,0470277
1150,3306;0,0475563
1151,2948;0,0480901
1152,2590;0,0486374
1153,2233;0,0491967
1154,1875;0,0497548
1155,1517;0,0502878
1156,1160;0,0507634
1157,0802;0,0511417
1158,0444;0,0513754
1159,0087;0,0514098
1159,9729;0,0511864
1160,9371;0,0506507
1161,9014;0,0497632
1162,8656;0,0485113
1163,8298;0,0469175
1164,7941;0,0450408
1165,7583;0,0429713
1166,7225;0,0408174
1167,6868;0,0386878
1168,6510;0,036673
1169,6152;0,0348324
1170,5795;0,0331905
1171,5437;0,0317434
1172,5079;0,0304721
1173,4722;0,0293553
1174,4364;0,0283762
1175,4006;0,0275219
1176,3649;0,0267795
1177,3291;0,026133
1178,2933;0,0255657
1179,2576;0,0250651
1180,2218;0,0246265
1181,1860;0,0242527
1182,1503;0,0239489
1183,1145;0,0237171
1184,0787;0,0235525
1185,0430;0,0234457
1186,0072;0,0233871
1186,9714;0,0233718
1187,9357;0,0234024
1188,8999;0,0234877
1189,8641;0,0236386
1190,8284;0,0238625
1191,7926;0,0241583
1192,7568;0,0245146
1193,7211;0,0249113
1194,6853;0,0253258
1195,6495;0,0257387
1196,6138;0,0261382
1197,5780;0,0265194
1198,5422;0,0268814
1199,5065;0,0271088
1200,4707;0,0274383
1201,4349;0,0277374
1202,3992;0,0279984
1203,3634;0,0282136
1204,3276;0,0283753
1205,2919;0,028476
1206,2561;0,0285125
1207,2203;0,0284901
1208,1846;0,0284262
1209,1488;0,0283489
1210,1130;0,0282908
1211,0773;0,0282807
1212,0415;0,0283374
1213,0057;0,028468
1213,9700;0,0286711
1214,9342;0,0289409
1215,8984;0,0292696
1216,8627;0,0296475
1217,8269;0,0300624
1218,7911;0,0305017
1219,7554;0,0309544
1220,7196;0,0314129
1221,6838;0,031872
1222,6481;0,0323276
1223,6123;0,0327739
1224,5765;0,0332036
1225,5408;0,0336099
1226,5050;0,0339902
1227,4692;0,0343469
1228,4335;0,0346864
1229,3977;0,0350152
1230,3619;0,0353352
1231,3262;0,0356411
1232,2904;0,0359212
1233,2546;0,0361613
1234,2189;0,03635
1235,1831;0,0364838
1236,1473;0,0365687
1237,1116;0,0366185
1238,0758;0,0366503
1239,0400;0,0366783
1240,0043;0,0367097
1240,9685;0,0367434
1241,9327;0,0367711
1242,8970;0,0367812
1243,8612;0,0367624
1244,8254;0,0367079
1245,7897;0,0366173
1246,7539;0,0364972
1247,7181;0,0363582
1248,6824;0,0362108
1249,6466;0,0360606
1250,6108;0,0359081
1251,5751;0,035751
1252,5393;0,0355905
1253,5035;0,0354342
1254,4678;0,035295
1255,4320;0,0351843
1256,3962;0,0351039
1257,3605;0,0350437
1258,3247;0,0349851
1259,2889;0,0349097
1260,2532;0,0348082
1261,2174;0,0346823
1262,1816;0,0345412
1263,1459;0,0343943
1264,1101;0,0342468
1265,0743;0,0340997
1266,0386;0,0339527
1267,0028;0,0338055
1267,9670;0,0336572
1268,9313;0,0335035
1269,8955;0,0333368
1270,8597;0,0331484
1271,8240;0,0329336
1272,7882;0,0326963
1273,7524;0,032449
1274,7167;0,0322087
1275,6809;0,0319909
1276,6451;0,0318023
1277,6094;0,0316376
1278,5736;0,0314802
1279,5378;0,0313085
1280,5021;0,031105
1281,4663;0,0308656
1282,4305;0,0306024
1283,3948;0,0303389
1284,3590;0,0301
1285,3232;0,0299018
1286,2875;0,0297457
1287,2517;0,0296213
1288,2159;0,0295138
1289,1802;0,0294141
1290,1444;0,0293241
1291,1086;0,0292553
1292,0729;0,0292235
1293,0371;0,0292426
1294,0013;0,0293209
1294,9656;0,0294602
1295,9298;0,0296577
1296,8940;0,0299077
1297,8583;0,0302039
1298,8225;0,0305405
1299,7867;0,0309129
1300,7510;0,0313187
1301,7152;0,0317587
1302,6794;0,0322343
1303,6437;0,0327457
1304,6079;0,0332915
1305,5721;0,0338675
1306,5364;0,0344693
1307,5006;0,0350941
1308,4648;0,0357414
1309,4291;0,0364076
1310,3933;0,0370799
1311,3575;0,0377318
1312,3218;0,038326
1313,2860;0,0388243
1314,2502;0,0391972
1315,2145;0,0394267
1316,1787;0,0395018
1317,1429;0,0394156
1318,1072;0,0391705
1319,0714;0,0387894
1320,0356;0,0383201
1320,9999;0,0378248
1321,9641;0,0373592
1322,9283;0,0369579
1323,8926;0,0366334
1324,8568;0,036385
1325,8210;0,0362083
1326,7853;0,0361002
1327,7495;0,0360559
1328,7137;0,0360649
1329,6780;0,036108
1330,6422;0,036163
1331,6064;0,0362144
1332,5707;0,036261
1333,5349;0,0363167
1334,4991;0,0363966
1335,4634;0,0364968
1336,4276;0,0365755
1337,3918;0,0365474
1338,3561;0,0363124
1339,3203;0,0358208
1340,2845;0,0351277
1341,2488;0,034369
1342,2130;0,0336779
1343,1772;0,0331261
1344,1415;0,0327234
1345,1057;0,0324451
1346,0699;0,0322588
1347,0342;0,0321398
1347,9984;0,0320784
1348,9626;0,0320781
1349,9269;0,0321478
1350,8911;0,03229
1351,8553;0,0324943
1352,8196;0,0327371
1353,7838;0,0329918
1354,7480;0,0332419
1355,7123;0,0334928
1356,6765;0,0337696
1357,6407;0,0340998
1358,6050;0,0344937
1359,5692;0,0349276
1360,5334;0,0353376
1361,4977;0,0356365
1362,4619;0,0357705
1363,4261;0,0357739
1364,3904;0,0357469
1365,3546;0,0357767
1366,3188;0,0358898
1367,2831;0,0360604
1368,2473;0,0362427
1369,2115;0,0363968
1370,1758;0,0364988
1371,1400;0,0365322
1372,1042;0,0364739
1373,0685;0,0362916
1374,0327;0,0359653
1374,9969;0,0355175
1375,9612;0,0350074
1376,9254;0,0344822
1377,8896;0,0339425
1378,8539;0,0333598
1379,8181;0,0327219
1380,7823;0,0320638
1381,7466;0,0314548
1382,7108;0,0309524
1383,6750;0,0305625
1384,6393;0,0302349
1385,6035;0,0298886
1386,5677;0,029463
1387,5320;0,0289744
1388,4962;0,0285172
1389,4604;0,0281867
1390,4247;0,0280132
1391,3889;0,0279745
1392,3531;0,0280361
1393,3174;0,0281666
1394,2816;0,0283256
1395,2458;0,0284543
1396,2101;0,0284962
1397,1743;0,0284328
1398,1385;0,0283026
1399,1028;0,0281833
1400,0670;0,0281505
1401,0313;0,0282396
1401,9955;0,0284343
1402,9597;0,0286815
1403,9240;0,02892
1404,8882;0,0291132
1405,8524;0,02927
1406,8167;0,0294343
1407,7809;0,0296449
1408,7451;0,029907
1409,7094;0,0302005
1410,6736;0,0305072
1411,6378;0,0308321
1412,6021;0,031198
1413,5663;0,0316221
1414,5305;0,0320942
1415,4948;0,0325746
1416,4590;0,0329977
1417,4232;0,0332801
1418,3875;0,033373
1419,3517;0,0333436
1420,3159;0,0333413
1421,2802;0,033446
1422,2444;0,0336106
1423,2086;0,0337359
1424,1729;0,0337548
1425,1371;0,0336608
1426,1013;0,0334847
1427,0656;0,0332519
1428,0298;0,032962
1428,9940;0,0326049
1429,9583;0,032196
1430,9225;0,0317823
1431,8867;0,0314007
1432,8510;0,0310341
1433,8152;0,0306121
1434,7794;0,0300505
1435,7437;0,0293163
1436,7079;0,028507
1437,6721;0,0278344
1438,6364;0,0274508
1439,6006;0,0273338
1440,5648;0,0273631
1441,5291;0,0274391
1442,4933;0,027527
1443,4575;0,0276367
1444,4218;0,0277805
1445,3860;0,0279431
1446,3502;0,0280835
1447,3145;0,0281681
1448,2787;0,0282086
1449,2429;0,0282651
1450,2072;0,0283986
1451,1714;0,0286189
1452,1356;0,0288835
1453,0999;0,0291359
1454,0641;0,0293322
1455,0283;0,0294109
1455,9926;0,0292136
1456,9568;0,028576
1457,9210;0,0277167
1458,8853;0,0271264
1459,8495;0,0269521
1460,8137;0,0269907
1461,7780;0,0269999
1462,7422;0,0268269
1463,7064;0,0264155
1464,6707;0,0258189
1465,6349;0,0251976
1466,5991;0,0247124
1467,5634;0,0243937
1468,5276;0,0241535
1469,4918;0,0238779
1470,4561;0,0234744
1471,4203;0,022861
1472,3845;0,021978
1473,3488;0,0208944
1474,3130;0,0198462
1475,2772;0,0190385
1476,2415;0,0185005
1477,2057;0,0181538
1478,1699;0,0179126
1479,1342;0,0177152
1480,0984;0,0175228
1481,0626;0,017319
1482,0269;0,0171176
1482,9911;0,0169588
1483,9553;0,016888
1484,9196;0,0169306
1485,8838;0,0170739
1486,8480;0,0172469
1487,8123;0,0173053
1488,7765;0,0171004
1489,7407;0,016664
1490,7050;0,0162432
1491,6692;0,0160499
1492,6334;0,0161062
1493,5977;0,0163219
1494,5619;0,0165989
1495,5261;0,0168601
1496,4904;0,0170453
1497,4546;0,0171441
1498,4188;0,0172425
1499,3831;0,0174527
1500,3473;0,0177842
1501,3115;0,0181446
1502,2758;0,0184362
1503,2400;0,0186353
1504,2042;0,0188216
1505,1685;0,0191186
1506,1327;0,0194722
1507,0969;0,01952
1508,0612;0,0191426
1509,0254;0,0187121
1509,9896;0,018463
1510,9539;0,0183559
1511,9181;0,0183033
1512,8823;0,0182629
1513,8466;0,0182217
1514,8108;0,0181605
1515,7750;0,0180414
1516,7393;0,017827
1517,7035;0,0175034
1518,6677;0,0170837
1519,6320;0,0166037
1520,5962;0,0161262
1521,5604;0,0157385
1522,5247;0,0155101
1523,4889;0,015436
1524,4531;0,0154415
1525,4174;0,0154498
1526,3816;0,0154412
1527,3458;0,0154515
1528,3101;0,0155206
1529,2743;0,0156481
1530,2385;0,0157956
1531,2028;0,0159129
1532,1670;0,0159631
1533,1312;0,0159471
1534,0955;0,0159114
1535,0597;0,0158997
1536,0239;0,0159003
1536,9882;0,0158718
1537,9524;0,0158089
1538,9166;0,0157572
1539,8809;0,0157362
1540,8451;0,0157017
1541,8093;0,0157017
1542,7736;0,0158373
1543,7378;0,0160709
1544,7020;0,0163107
1545,6663;0,0165256
1546,6305;0,0167348
1547,5947;0,016953
1548,5590;0,0171598
1549,5232;0,0173137
1550,4874;0,0173894
1551,4517;0,0174065
1552,4159;0,0174165
1553,3801;0,0174539
1554,3444;0,0175027
1555,3086;0,0175071
1556,2728;0,0173887
1557,2371;0,0170213
1558,2013;0,0162994
1559,1655;0,015541
1560,1298;0,01537
1561,0940;0,0158694
1562,0582;0,0166754
1563,0225;0,0174726
1563,9867;0,0181173
1564,9509;0,0185812
1565,9152;0,0188881
1566,8794;0,019076
1567,8436;0,0191854
1568,8079;0,0192702
1569,7721;0,0194027
1570,7363;0,0196334
1571,7006;0,0199467
1572,6648;0,0202822
1573,6290;0,0205909
1574,5933;0,0208597
1575,5575;0,021097
1576,5217;0,0213305
1577,4860;0,0216253
1578,4502;0,0220316
1579,4144;0,0225224
1580,3787;0,0230285
1581,3429;0,023502
1582,3071;0,0239325
1583,2714;0,0243347
1584,2356;0,0247283
1585,1998;0,0251267
1586,1641;0,0255313
1587,1283;0,0259327
1588,0925;0,0263165
1589,0568;0,0266688
1590,0210;0,0269796
1590,9852;0,0272413
1591,9495;0,0274449
1592,9137;0,0275773
1593,8779;0,0276265
1594,8422;0,0275904
1595,8064;0,0274851
1596,7706;0,0273406
1597,7349;0,0271882
1598,6991;0,0270479
1599,6633;0,026923
1600,6276;0,0268048
1601,5918;0,0266829
1602,5560;0,0265574
1603,5203;0,0264403
1604,4845;0,0263443
1605,4487;0,0262651
1606,4130;0,0261767
1607,3772;0,026046
1608,3414;0,025863
1609,3057;0,0256618
1610,2699;0,0255019
1611,2341;0,0254162
1612,1984;0,0253807
1613,1626;0,0253326
1614,1268;0,0252077
1615,0911;0,0249738
1616,0553;0,0246751
1617,0195;0,0244553
1617,9838;0,0244563
1618,9480;0,0246753
1619,9122;0,0249836
1620,8765;0,0252446
1621,8407;0,0253813
1622,8049;0,0253877
1623,7692;0,0253158
1624,7334;0,0252364
1625,6976;0,0251878
1626,6619;0,0251644
1627,6261;0,025155
1628,5903;0,025172
1629,5546;0,0252354
1630,5188;0,0253369
1631,4830;0,0254327
1632,4473;0,0254714
1633,4115;0,0254168
1634,3757;0,0252408
1635,3400;0,0249333
1636,3042;0,0245952
1637,2684;0,024423
1638,2327;0,0244937
1639,1969;0,0247204
1640,1611;0,0249859
1641,1254;0,0252199
1642,0896;0,0253953
1643,0538;0,025502
1644,0181;0,0255216
1644,9823;0,025407
1645,9465;0,0251117
1646,9108;0,0247017
1647,8750;0,0243535
1648,8392;0,024148
1649,8035;0,0240011
1650,7677;0,0237753
1651,7319;0,0233408
1652,6962;0,0226054
1653,6604;0,02177
1654,6246;0,0213556
1655,5889;0,0215183
1656,5531;0,0219586
1657,5173;0,0223656
1658,4816;0,0225815
1659,4458;0,0225613
1660,4100;0,0223151
1661,3743;0,021896
1662,3385;0,0214228
1663,3027;0,0210511
1664,2670;0,0208667
1665,2312;0,0208316
1666,1954;0,0208343
1667,1597;0,0207543
1668,1239;0,0205006
1669,0881;0,0200575
1670,0524;0,0195312
1671,0166;0,0190814
1671,9808;0,0187664
1672,9451;0,0185116
1673,9093;0,0182208
1674,8735;0,0178888
1675,8378;0,0176285
1676,8020;0,0175799
1677,7662;0,0177753
1678,7305;0,0181095
1679,6947;0,0184177
1680,6589;0,0185444
1681,6232;0,0183538
1682,5874;0,0177396
1683,5516;0,0167618
1684,5159;0,0158091
1685,4801;0,0153031
1686,4443;0,0152634
1687,4086;0,0154306
1688,3728;0,0155737
1689,3370;0,0155991
1690,3013;0,0155246
1691,2655;0,0154169
1692,2297;0,0153391
1693,1940;0,0153243
1694,1582;0,0153649
1695,1224;0,0154045
1696,0867;0,0153427
1697,0509;0,0150808
1698,0151;0,0146082
1698,9794;0,0140662
1699,9436;0,0136936
1700,9078;0,0136592
1701,8721;0,0139456
1702,8363;0,0143945
1703,8005;0,0148266
1704,7648;0,0151263
1705,7290;0,015273
1706,6932;0,0153334
1707,6575;0,0154112
1708,6217;0,0155777
1709,5859;0,0158406
1710,5502;0,0161672
1711,5144;0,0165204
1712,4786;0,0168735
1713,4429;0,0171972
1714,4071;0,0174285
1715,3713;0,0174476
1716,3356;0,0171441
1717,2998;0,0166136
1718,2640;0,0161885
1719,2283;0,0161127
1720,1925;0,0163522
1721,1567;0,0167326
1722,1210;0,0170994
1723,0852;0,0173766
1724,0494;0,0175664
1725,0137;0,0177264
1725,9779;0,0179309
1726,9421;0,0182269
1727,9064;0,0186087
1728,8706;0,0190202
1729,8348;0,0193748
1730,7991;0,0195719
1731,7633;0,0195114
1732,7275;0,0191448
1733,6918;0,0185812
1734,6560;0,018086
1735,6202;0,017849
1736,5845;0,0178369
1737,5487;0,0179012
1738,5129;0,0179236
1739,4772;0,0178696
1740,4414;0,0177731
1741,4056;0,0176885
1742,3699;0,017641
1743,3341;0,0176112
1744,2983;0,0175583
1745,2626;0,0174486
1746,2268;0,0172548
1747,1910;0,0169317
1748,1553;0,016405
1749,1195;0,0156244
1750,0837;0,0146654
1751,0480;0,0137341
1752,0122;0,0130167
1752,9764;0,0125596
1753,9407;0,0122941
1754,9049;0,0121203
1755,8691;0,0119632
1756,8334;0,0117857
1757,7976;0,0115751
1758,7618;0,0113205
1759,7261;0,0110046
1760,6903;0,0106237
1761,6545;0,0102164
1762,6188;0,00986311
1763,5830;0,00963981
1764,5472;0,00956834
1765,5115;0,00961031
1766,4757;0,00969657
1767,4399;0,00975742
1768,4042;0,0097369
1769,3684;0,00959678
1770,3326;0,0093233
1771,2969;0,00894789
1772,2611;0,00856656
1773,2253;0,00830667
1774,1896;0,00823902
1775,1538;0,00833235
1776,1180;0,00849501
1777,0823;0,00863981
1778,0465;0,00871859
1779,0107;0,00872508
1779,9750;0,00867969
1780,9392;0,00860644
1781,9034;0,00851546
1782,8677;0,00840605
1783,8319;0,00828805
1784,7961;0,00819692
1785,7604;0,00818014
1786,7246;0,00826305
1787,6888;0,00842637
1788,6531;0,00861255
1789,6173;0,00874703
1790,5815;0,00876128
1791,5458;0,00862913
1792,5100;0,00841216
1793,4742;0,00823827
1794,4385;0,0081928
1795,4027;0,00825795
1796,3669;0,00835886
1797,3312;0,00842967
1798,2954;0,00844017
1799,2596;0,00839026
1800,2239;0,0082949
1801,1881;0,00817478
1802,1523;0,00805327
1803,1166;0,00795426
1804,0808;0,00789884
1805,0450;0,00790077
1806,0093;0,00796022
1806,9735;0,00805784
1807,9377;0,00815437
1808,9020;0,00820208
1809,8662;0,00816921
1810,8304;0,0080642
1811,7947;0,00793455
1812,7589;0,00783457
1813,7231;0,00779112
1814,6874;0,00779521
1815,6516;0,00781673
1816,6158;0,00782571
1817,5801;0,00780994
1818,5443;0,00778106
1819,5085;0,00776394
1820,4728;0,00777755
1821,4370;0,00782394
1822,4012;0,00789078
1823,3655;0,00796087
1824,3297;0,00802111
1825,2939;0,00806504
1826,2582;0,00808572
1827,2224;0,00806696
1828,1866;0,00798769
1829,1509;0,00784493
1830,1151;0,00767823
1831,0793;0,00755902
1832,0436;0,00753846
1833,0078;0,00760801
1833,9720;0,00771258
1834,9363;0,00779227
1835,9005;0,00781745
1836,8647;0,0078036
1837,8290;0,00779753
1838,7932;0,00783977
1839,7574;0,00793386
1840,7217;0,00804778
1841,6859;0,00813542
1842,6501;0,00815696
1843,6144;0,00809789
1844,5786;0,00798683
1845,5428;0,00788162
1846,5071;0,00781714
1847,4713;0,00777746
1848,4355;0,00772252
1849,3998;0,00762808
1850,3640;0,00750298
1851,3282;0,00738039
1852,2925;0,00729558
1853,2567;0,0072674
1854,2209;0,0072937
1855,1852;0,00735869
1856,1494;0,00744228
1857,1136;0,00752587
1858,0779;0,00759427
1859,0421;0,0076388
1860,0063;0,00766241
1860,9706;0,00768212
1861,9348;0,007723
1862,8990;0,00780499
1863,8633;0,00793104
1864,8275;0,00808285
1865,7917;0,00822142
1866,7560;0,00829061
1867,7202;0,00823568
1868,6844;0,00804619
1869,6487;0,0077838
1870,6129;0,00754242
1871,5771;0,00738136
1872,5414;0,00730687
1873,5056;0,00729729
1874,4698;0,00732825
1875,4341;0,0073803
1876,3983;0,00743702
1877,3625;0,00748236
1878,3268;0,00750268
1879,2910;0,00749118
1880,2552;0,00745343
1881,2195;0,00740969
1882,1837;0,00738988
1883,1479;0,00741988
1884,1122;0,00750566
1885,0764;0,00762617
1886,0406;0,0077411
1887,0049;0,00781004
1887,9691;0,0078148
1888,9333;0,00777351
1889,8976;0,00773251
1890,8618;0,00773407
1891,8260;0,0077838
1892,7903;0,00784623
1893,7545;0,00786968
1894,7188;0,00782043
1895,6830;0,00770548
1896,6472;0,00756981
1897,6115;0,00746795
1898,5757;0,00743078
1899,5399;0,00745296
1900,5042;0,00750552
1901,4684;0,00755955
1902,4326;0,0076043
1903,3969;0,00764993
1904,3611;0,00771487
1905,3253;0,0078074
1906,2896;0,00791401
1907,2538;0,00800084
1908,2180;0,0080289
1909,1823;0,00797734
1910,1465;0,00786118
1911,1107;0,00772672
1912,0750;0,00762461
1913,0392;0,00758243
1914,0034;0,00759625
1914,9677;0,0076409
1915,9319;0,00768829
1916,8961;0,00772524
1917,8604;0,00776144
1918,8246;0,00781802
1919,7888;0,00790286
1920,7531;0,00799585
1921,7173;0,0080583
1922,6815;0,00805784
1923,6458;0,00798974
1924,6100;0,00787863
1925,5742;0,00775831
1926,5385;0,00764853
1927,5027;0,00755001
1928,4669;0,00745828
1929,4312;0,00737951
1930,3954;0,00733323
1931,3596;0,00733959
1932,3239;0,00740171
1933,2881;0,00749986
1934,2523;0,00760235
1935,2166;0,00768403
1936,1808;0,00773845
1937,1450;0,00777606
1938,1093;0,00781258
1939,0735;0,00785775
1940,0377;0,00791031
1941,0020;0,00795843
1941,9662;0,00798386
1942,9304;0,00796969
1943,8947;0,00790868
1944,8589;0,00780637
1945,8231;0,00767903
1946,7874;0,00755065
1947,7516;0,00744992
1948,7158;0,00740393
1949,6801;0,00742799
1950,6443;0,00751648
1951,6085;0,00764135
1952,5728;0,00776085
1953,5370;0,0078356
1954,5012;0,00784487
1955,4655;0,00779527
1956,4297;0,00771699
1957,3939;0,00764885
1958,3582;0,00762044
1959,3224;0,00764106
1960,2866;0,00770081
1961,2509;0,00778136
1962,2151;0,00786732
1963,1793;0,0079497
1964,1436;0,00802132
1965,1078;0,00807178
1966,0720;0,00808912
1967,0363;0,00806854
1968,0005;0,0080197
1968,9647;0,00796308
1969,9290;0,00791697
1970,8932;0,00788632
1971,8574;0,00786148
1972,8217;0,0078251
1973,7859;0,00776181
1974,7501;0,00766734
1975,7144;0,00755725
1976,6786;0,00746935
1977,6428;0,00745346
1978,6071;0,00754781
1979,5713;0,00775545
1980,5355;0,00803835
1981,4998;0,00833355
1982,4640;0,00858019
1983,4282;0,00874209
1984,3925;0,00881571
1985,3567;0,00882071
1986,3209;0,00878109
1987,2852;0,00871194
1988,2494;0,00862222
1989,2136;0,00852938
1990,1779;0,00846884
1991,1421;0,00848443
1992,1063;0,00860214
1993,0706;0,00880905
1994,0348;0,00905806
1994,9990;0,00929525
1995,9633;0,00948598
1996,9275;0,00962095
1997,8917;0,00970259
1998,8560;0,00972677
1999,8202;0,00967727
2000,7844;0,00953974
2001,7487;0,00932492
2002,7129;0,00908188
2003,6771;0,00888824
2004,6414;0,00881839
2005,6056;0,0089043
2006,5698;0,00911286
2007,5341;0,00935906
2008,4983;0,00955176
2009,4625;0,0096421
2010,4268;0,00964161
2011,3910;0,00960223
2012,3552;0,00957671
2013,3195;0,0095861
2014,2837;0,00961204
2015,2479;0,00961548
2016,2122;0,00956957
2017,1764;0,00948442
2018,1406;0,00940502
2019,1049;0,00938325
2020,0691;0,00944588
2021,0333;0,00958008
2021,9976;0,0097411
2022,9618;0,00987266
2023,9260;0,00992851
2024,8903;0,00988769
2025,8545;0,00975982
2026,8187;0,00957973
2027,7830;0,00939353
2028,7472;0,00924154
2029,7114;0,00914639
2030,6757;0,00911343
2031,6399;0,00914253
2032,6041;0,00923856
2033,5684;0,00940584
2034,5326;0,00962558
2035,4968;0,00983801
2036,4611;0,00995452
2037,4253;0,00990394
2038,3895;0,00968294
2039,3538;0,00937377
2040,3180;0,00910918
2041,2822;0,00899944
2042,2465;0,00906788
2043,2107;0,00924322
2044,1749;0,00941542
2045,1392;0,00951131
2046,1034;0,00953416
2047,0676;0,00954165
2048,0320;0,00958425
2048,9961;0,0096585
2049,9604;0,00971551
2050,9246;0,00971058
2051,8889;0,0096452
2052,8530;0,00956904
2053,8174;0,00954576
2054,7815;0,00960883
2055,7458;0,00973887
2056,7100;0,00987851
2057,6743;0,00997435
2058,6384;0,010013
2059,6028;0,0100243
2060,5669;0,0100521
2061,5313;0,0101169
2062,4954;0,0101983
2063,4597;0,0102492
2064,4238;0,0102292
2065,3882;0,0101322
2066,3523;0,00998753
2067,3167;0,00983751
2068,2808;0,00971182
2069,2451;0,00961765
2070,2092;0,00954891
2071,1736;0,00950152
2072,1377;0,00947924
2073,1021;0,00948643
2074,0662;0,0095156
2075,0305;0,00954375
2075,9946;0,00954343
2076,9590;0,00950105
2077,9231;0,0094282
2078,8875;0,00935632
2079,8516;0,00931804
2080,8159;0,00932806
2081,7800;0,0093765
2082,7444;0,00943773
2083,7085;0,00948786
2084,6729;0,00951863
2085,6370;0,00954014
2086,6013;0,00957168
2087,5654;0,00962765
2088,5298;0,00970697
2089,4939;0,00979188
2090,4583;0,00985628
2091,4224;0,009879
2092,3867;0,00985506
2093,3508;0,00979948
2094,3152;0,00974161
2095,2793;0,00971175
2096,2437;0,00972607
2097,2078;0,00977786
2098,1721;0,00984032
2099,1362;0,00987925
2100,1006;0,00986914
2101,0647;0,00980114
2102,0291;0,00968885
2102,9932;0,00955872
2103,9575;0,0094399
2104,9216;0,00935491
2105,8860;0,00931552
2106,8501;0,00932403
2107,8145;0,00937623
2108,7786;0,00946286
2109,7429;0,00956912
2110,7070;0,00967511
2111,6714;0,00976014
2112,6355;0,00980995
2113,5999;0,00982221
2114,5640;0,00980577
2115,5283;0,00977377
2116,4924;0,00973639
2117,4568;0,00969928
2118,4209;0,00966897
2119,3853;0,00965893
2120,3494;0,00968831
2121,3137;0,00977061
2122,2778;0,00989976
2123,2422;0,0100456
2124,2063;0,0101659
2125,1707;0,0102289
2126,1348;0,0102321
2127,0991;0,0102021
2128,0632;0,0101772
2129,0276;0,0101837
2129,9917;0,0102232
2130,9561;0,0102796
2131,9202;0,0103372
2132,8845;0,0103962
2133,8486;0,0104715
2134,8130;0,0105755
2135,7771;0,010699
2136,7415;0,0108066
2137,7056;0,0108545
2138,6699;0,0108179
2139,6340;0,0107108
2140,5984;0,0105865
2141,5625;0,0105173
2142,5269;0,0105636
2143,4910;0,010744
2144,4553;0,0110189
2145,4194;0,0112961
2146,3838;0,0114615
2147,3479;0,011426
2148,3123;0,0111717
2149,2764;0,0107719
2150,2407;0,0103719
2151,2048;0,0101349
2152,1692;0,0101743
2153,1333;0,0105069
2154,0977;0,0110489
2155,0618;0,0116557
2156,0261;0,0121831
2156,9902;0,0125408
2157,9546;0,0127102
2158,9187;0,0127171
2159,8831;0,0125836
2160,8472;0,0123093
2161,8115;0,0118975
2162,7756;0,0113933
2163,7400;0,0108929
2164,7041;0,0105153
2165,6685;0,010353
2166,6326;0,010431
2167,5969;0,0106985
2168,5610;0,011055
2169,5254;0,0113936
2170,4895;0,0116349
2171,4539;0,0117442
2172,4180;0,0117311
2173,3823;0,0116364
2174,3464;0,011511
2175,3108;0,0113943
2176,2749;0,0112999
2177,2393;0,0112194
2178,2034;0,0111378
2179,1677;0,0110506
2180,1318;0,0109681
2181,0962;0,0109072
2182,0603;0,0108774
2183,0247;0,0108739
2183,9888;0,0108832
2184,9531;0,0108937
2185,9172;0,0108991
2186,8816;0,0108933
2187,8457;0,0108631
2188,8101;0,0107906
2189,7742;0,0106655
2190,7385;0,0104996
2191,7026;0,0103274
2192,6670;0,0101902
2193,6311;0,0101115
2194,5955;0,0100824
2195,5596;0,010068
2196,5239;0,0100339
2197,4880;0,0099737
2198,4524;0,00991794
2199,4165;0,00991502
2200,3809;0,00999541
2201,3450;0,0101437
2202,3093;0,0103001
2203,2734;0,0103937
2204,2378;0,0103869
2205,2019;0,0103012
2206,1663;0,0102053
2207,1304;0,0101714
2208,0947;0,0102286
2209,0588;0,0103446
2210,0232;0,0104468
2210,9873;0,0104696
2211,9517;0,0103941
2212,9158;0,0102568
2213,8801;0,0101235
2214,8442;0,0100485
2215,8086;0,010046
2216,7727;0,0100886
2217,7371;0,0101295
2218,7012;0,0101313
2219,6655;0,0100845
2220,6296;0,0100088
2221,5940;0,00993952
2222,5581;0,00990901
2223,5225;0,00993128
2224,4866;0,00999633
2225,4509;0,0100765
2226,4150;0,0101418
2227,3794;0,0101759
2228,3435;0,0101854
2229,3079;0,0101913
2230,2720;0,0102104
2231,2363;0,0102382
2232,2004;0,0102473
2233,1648;0,0102056
2234,1289;0,0101021
2235,0933;0,00996214
2236,0574;0,00983733
2237,0217;0,00977504
2237,9858;0,00978758
2238,9502;0,0098431
2239,9143;0,00988642
2240,8787;0,00987617
2241,8428;0,00981259
2242,8071;0,00973618
2243,7712;0,00969821
2244,7356;0,00972428
2245,6997;0,00979719
2246,6641;0,00987045
2247,6282;0,00990146
2248,5925;0,00987967
2249,5566;0,00983028
2250,5210;0,00979294
2251,4851;0,00979304
2252,4495;0,00982638
2253,4136;0,00986599
2254,3779;0,00988297
2255,3420;0,0098644
2256,3064;0,00981656
2257,2705;0,00975513
2258,2349;0,00969434
2259,1990;0,00964394
2260,1633;0,00961302
2261,1274;0,00961206
2262,0918;0,00964744
2263,0559;0,00971205
2264,0203;0,00978221
2264,9844;0,00982755
2265,9487;0,00982919
2266,9128;0,00979229
2267,8772;0,00974215
2268,8413;0,009706
2269,8057;0,00969464
2270,7698;0,0096981
2271,7341;0,00969709
2272,6982;0,00967964
2273,6626;0,00964857
2274,6267;0,00961537
2275,5911;0,00958805
2276,5552;0,00956498
2277,5195;0,00954014
2278,4836;0,00951354
2279,4480;0,00949608
2280,4121;0,00950434
2281,3765;0,00955027
2282,3406;0,00963548
2283,3049;0,00975399
2284,2690;0,0098996
2285,2334;0,01007
2286,1975;0,0102651
2287,1619;0,0104815
2288,1260;0,0107116
2289,0903;0,010947
2290,0544;0,0111844
2291,0188;0,0114274
2291,9829;0,0116836
2292,9473;0,0119574
2293,9114;0,0122469
2294,8757;0,0125439
2295,8398;0,0128369
2296,8042;0,0131125
2297,7683;0,0133557
2298,7327;0,0135527
2299,6968;0,0136976
2300,6611;0,0138014
2301,6252;0,0138962
2302,5896;0,0140274
2303,5537;0,0142371
2304,5181;0,0145431
2305,4822;0,014925
2306,4465;0,0153238
2307,4106;0,0156571
2308,3750;0,0158465
2309,3391;0,0158467
2310,3035;0,0156653
2311,2676;0,0153633
2312,2319;0,0150327
2313,1960;0,0147606
2314,1604;0,0145963
2315,1245;0,014538
2316,0889;0,0145445
2317,0530;0,0145606
2318,0173;0,0145434
2318,9814;0,0144782
2319,9458;0,014382
2320,9099;0,014296
2321,8743;0,0142687
2322,8384;0,0143306
2323,8027;0,0144726
2324,7668;0,0146404
2325,7312;0,0147544
2326,6953;0,0147409
2327,6597;0,0145588
2328,6238;0,0142125
2329,5881;0,0137515
2330,5522;0,013258
2331,5166;0,0128194
2332,4807;0,0124933
2333,4451;0,0122853
2334,4092;0,0121588
2335,3735;0,0120703
2336,3376;0,0120083
2337,3020;0,012011
2338,2661;0,0121492
2339,2305;0,0124713
2340,1946;0,0129345
2341,1589;0,0133696
2342,1230;0,0135342
2343,0874;0,0133008
2344,0515;0,0128803
2345,0159;0,0127473
2345,9800;0,0132125
2346,9443;0,0141586
2347,9084;0,0151969
2348,8728;0,015957
2349,8369;0,016255
2350,8013;0,016122
2351,7654;0,0157356
2352,7297;0,0152961
2353,6938;0,0149163
2354,6582;0,0146194
2355,6223;0,0144171
2356,5867;0,0143326
2357,5508;0,0143449
2358,5151;0,0143653
2359,4792;0,0142949
2360,4436;0,0140983
2361,4077;0,0138091
2362,3721;0,013475
2363,3362;0,0131218
2364,3005;0,0127618
2365,2646;0,0124149
2366,2290;0,0121056
2367,1931;0,0118448
2368,1575;0,0116224
2369,1216;0,0114181
2370,0859;0,0112173
2371,0500;0,0110205
2372,0144;0,0108436
2372,9785;0,0107144
2373,9429;0,0106661
2374,9070;0,0107264
2375,8713;0,0109036
2376,8354;0,0111779
2377,7998;0,0115013
2378,7639;0,0118089
2379,7283;0,0120353
2380,6924;0,0121308
2381,6567;0,012072
2382,6208;0,0118649
2383,5852;0,011541
2384,5493;0,0111484
2385,5137;0,0107398
2386,4778;0,0103612
2387,4421;0,0100431
2388,4063;0,00979828
2389,3706;0,00962388
2390,3347;0,00950857
2391,2991;0,00943925
2392,2632;0,00940542
2393,2275;0,00939987
2394,1917;0,00941652
2395,1560;0,00944807
2396,1201;0,00948526
2397,0845;0,00951876
2398,0486;0,0095435
2399,0129;0,00955868
2399,9771;0,009568
2400,9414;0,00957699
2401,9055;0,00958801
2402,8699;0,00959932
2403,8340;0,00960666
2404,7983;0,00960789
2405,7625;0,00960643
2406,7268;0,00961016
2407,6909;0,00962684
2408,6553;0,00965809
2409,6194;0,00969615
2410,5837;0,00972773
2411,5479;0,00974088
2412,5122;0,00973152
2413,4763;0,00970532
2414,4407;0,00967445
2415,4048;0,00965137
2416,3691;0,0096438
2417,3333;0,00965269
2418,2976;0,00967331
2419,2617;0,00969796
2420,2261;0,00971912
2421,1902;0,00973223
2422,1545;0,00973865
2423,1187;0,00974569
2424,0830;0,00976346
2425,0471;0,009799
2426,0115;0,00985081
2426,9756;0,00990775
2427,9399;0,00995374
2428,9041;0,00997582
2429,8684;0,00997061
2430,8325;0,00994534
2431,7969;0,0099133
2432,7610;0,00988748
2433,7253;0,00987611
2434,6895;0,00988177
2435,6538;0,00990249
2436,6179;0,00993289
2437,5823;0,00996494
2438,5464;0,00998968
2439,5107;0,0100008
2440,4749;0,00999857
2441,4392;0,00999136
2442,4033;0,00999173
2443,3677;0,0100094
2444,3318;0,0100451
2445,2961;0,0100897
2446,2603;0,0101298
2447,2246;0,0101555
2448,1887;0,0101654
2449,1531;0,0101658
2450,1172;0,0101652
2451,0815;0,010169
2452,0457;0,0101773
2453,0100;0,0101866
2453,9741;0,0101929
2454,9385;0,0101935
2455,9026;0,0101883
2456,8669;0,0101788
2457,8311;0,0101686
2458,7954;0,010163
2459,7595;0,0101679
2460,7239;0,0101876
2461,6880;0,0102219
2462,6523;0,0102651
2463,6165;0,0103085
2464,5808;0,010344
2465,5449;0,0103672
2466,5093;0,0103782
2467,4734;0,0103792
2468,4377;0,0103733
2469,4019;0,0103638
2470,3662;0,0103553
2471,3303;0,0103545
2472,2947;0,010368
2473,2588;0,0103984
2474,2231;0,0104415
2475,1873;0,0104866
2476,1516;0,0105219
2477,1157;0,0105405
2478,0801;0,0105439
2479,0442;0,0105396
2480,0085;0,010536
2480,9727;0,0105383
2481,9370;0,0105478
2482,9011;0,0105638
2483,8655;0,0105856
2484,8296;0,0106118
2485,7939;0,0106377
2486,7581;0,0106551
2487,7224;0,0106558
2488,6865;0,0106383
2489,6509;0,0106109
2490,6150;0,0105884
2491,5793;0,0105828
2492,5435;0,0105958
2493,5078;0,0106174
2494,4719;0,0106337
2495,4363;0,0106369
2496,4004;0,010631
2497,3647;0,010628
2498,3289;0,0106396
2499,2932;0,0106697
2500,2573;0,0107131
2501,2217;0,0107608
2502,1858;0,0108057
2503,1501;0,010845
2504,1143;0,0108788
2505,0786;0,010907
2506,0427;0,0109281
2507,0071;0,0109411
2507,9712;0,0109473
2508,9355;0,0109494
2509,8997;0,0109498
2510,8640;0,010948
2511,8281;0,0109419
2512,7925;0,0109298
2513,7566;0,0109134
2514,7209;0,0108972
2515,6851;0,0108859
2516,6494;0,0108822
2517,6135;0,0108861
2518,5779;0,010897
2519,5420;0,010916
2520,5063;0,0109457
2521,4705;0,0109863
2522,4348;0,0110327
2523,3989;0,0110739
2524,3633;0,0110971
2525,3274;0,011095
2526,2917;0,0110709
2527,2559;0,0110385
2528,2202;0,011015
2529,1843;0,0110123
2530,1487;0,0110309
2531,1128;0,0110607
2532,0771;0,0110884
2533,0413;0,0111058
2534,0056;0,011114
2534,9697;0,0111209
2535,9341;0,0111338
2536,8982;0,0111534
2537,8625;0,0111732
2538,8267;0,0111838
2539,7910;0,0111801
2540,7551;0,0111648
2541,7195;0,0111469
2542,6836;0,0111366
2543,6479;0,0111411
2544,6121;0,0111621
2545,5764;0,0111968
2546,5405;0,011239
2547,5049;0,0112798
2548,4690;0,0113088
2549,4333;0,0113158
2550,3975;0,0112952
2551,3618;0,0112497
2552,3259;0,0111904
2553,2903;0,0111322
2554,2544;0,0110881
2555,2188;0,0110643
2556,1829;0,0110613
2557,1472;0,0110774
2558,1113;0,0111118
2559,0757;0,0111636
2560,0398;0,0112281
2561,0042;0,0112931
2561,9683;0,011341
2562,9326;0,0113557
2563,8967;0,0113322
2564,8611;0,0112804
2565,8252;0,0112221
2566,7896;0,0111812
2567,7537;0,0111721
2568,7180;0,0111949
2569,6821;0,0112366
2570,6465;0,0112804
2571,6106;0,0113135
2572,5750;0,0113326
2573,5391;0,0113423
2574,5034;0,0113495
2575,4675;0,0113576
2576,4319;0,0113647
2577,3960;0,0113659
2578,3604;0,0113581
2579,3245;0,0113437
2580,2888;0,0113301
2581,2529;0,011326
2582,2173;0,0113364
2583,1814;0,0113595
2584,1458;0,0113874
2585,1099;0,0114096
2586,0742;0,011418
2587,0383;0,0114105
2588,0027;0,0113928
2588,9668;0,0113764
2589,9312;0,0113745
2590,8953;0,0113957
2591,8596;0,011439
2592,8237;0,0114924
2593,7881;0,0115372
2594,7522;0,0115571
2595,7166;0,0115463
2596,6807;0,0115138
2597,6450;0,0114789
2598,6091;0,0114609
2599,5735;0,0114689
2600,5376;0,011498
2601,5020;0,0115332
2602,4661;0,0115592
2603,4304;0,0115694
2604,3945;0,0115683
2605,3589;0,0115668
2606,3230;0,011574
2607,2874;0,0115911
2608,2515;0,0116112
2609,2158;0,0116252
2610,1799;0,0116279
2611,1443;0,0116221
2612,1084;0,0116165
2613,0728;0,0116205
2614,0369;0,0116384
2615,0012;0,0116675
2615,9653;0,0116995
2616,9297;0,011725
2617,8938;0,0117378
2618,8582;0,011738
2619,8223;0,011732
2620,7866;0,0117296
2621,7507;0,0117398
2622,7151;0,0117669
2623,6792;0,011808
2624,6436;0,0118544
2625,6077;0,011896
2626,5720;0,0119254
2627,5361;0,0119412
2628,5005;0,0119466
2629,4646;0,011947
2630,4290;0,0119465
2631,3931;0,0119472
2632,3574;0,0119504
2633,3215;0,0119576
2634,2859;0,0119704
2635,2500;0,0119888
2636,2144;0,0120101
2637,1785;0,012029
2638,1428;0,012041
2639,1069;0,0120447
2640,0713;0,0120431
2641,0354;0,0120419
2641,9998;0,0120459
2642,9639;0,0120569
2643,9282;0,0120736
2644,8923;0,0120939
2645,8567;0,0121166
2646,8208;0,0121421
2647,7852;0,0121713
2648,7493;0,0122039
2649,7136;0,0122369
2650,6777;0,0122663
2651,6421;0,0122887
2652,6062;0,0123039
2653,5706;0,0123149
2654,5347;0,0123268
2655,4990;0,0123439
2656,4631;0,0123675
2657,4275;0,012395
2658,3916;0,012422
2659,3560;0,0124446
2660,3201;0,0124615
2661,2844;0,0124746
2662,2485;0,0124875
2663,2129;0,0125032
2664,1770;0,0125232
2665,1414;0,0125468
2666,1055;0,0125727
2667,0698;0,0126
2668,0339;0,0126286
2668,9983;0,0126589
2669,9624;0,0126903
2670,9268;0,0127204
2671,8909;0,0127456
2672,8552;0,012762
2673,8193;0,0127683
2674,7837;0,012767
2675,7478;0,0127644
2676,7122;0,0127679
2677,6763;0,012782
2678,6406;0,0128065
2679,6047;0,0128369
2680,5691;0,0128672
2681,5332;0,0128938
2682,4976;0,0129175
2683,4617;0,0129412
2684,4260;0,0129671
2685,3901;0,0129938
2686,3545;0,0130168
2687,3186;0,0130318
2688,2830;0,0130382
2689,2471;0,0130403
2690,2114;0,0130449
2691,1755;0,0130577
2692,1399;0,0130798
2693,1040;0,0131076
2694,0684;0,013135
2695,0325;0,0131569
2695,9968;0,0131713
2696,9609;0,0131797
2697,9253;0,0131855
2698,8894;0,0131931
2699,8538;0,0132057
2700,8179;0,0132249
2701,7822;0,0132506
2702,7463;0,0132811
2703,7107;0,0133135
2704,6748;0,0133447
2705,6392;0,0133724
2706,6033;0,0133963
2707,5676;0,0134177
2708,5317;0,0134389
2709,4961;0,0134617
2710,4602;0,0134864
2711,4246;0,0135112
2712,3887;0,0135339
2713,3530;0,0135533
2714,3171;0,01357
2715,2815;0,0135865
2716,2456;0,0136055
2717,2100;0,013628
2718,1741;0,0136526
2719,1384;0,0136764
2720,1025;0,0136965
2721,0669;0,0137114
2722,0310;0,0137215
2722,9954;0,0137288
2723,9595;0,0137364
2724,9238;0,0137475
2725,8879;0,0137653
2726,8523;0,0137916
2727,8164;0,0138258
2728,7808;0,0138641
2729,7449;0,0139004
2730,7092;0,0139282
2731,6733;0,0139432
2732,6377;0,0139456
2733,6018;0,0139399
2734,5662;0,0139334
2735,5303;0,0139329
2736,4946;0,0139421
2737,4587;0,0139605
2738,4231;0,0139833
2739,3872;0,0140045
2740,3516;0,0140197
2741,3157;0,0140277
2742,2800;0,0140312
2743,2441;0,0140342
2744,2085;0,0140394
2745,1726;0,0140471
2746,1370;0,014055
2747,1011;0,0140617
2748,0654;0,0140676
2749,0295;0,0140761
2749,9939;0,0140911
2750,9580;0,0141145
2751,9224;0,0141452
2752,8865;0,0141795
2753,8508;0,014213
2754,8149;0,0142423
2755,7793;0,014265
2756,7434;0,0142801
2757,7078;0,0142881
2758,6719;0,0142913
2759,6362;0,014294
2760,6003;0,0143016
2761,5647;0,0143183
2762,5288;0,014345
2763,4932;0,0143785
2764,4573;0,0144134
2765,4216;0,0144449
2766,3857;0,0144702
2767,3501;0,0144893
2768,3142;0,0145038
2769,2786;0,0145158
2770,2427;0,0145272
2771,2070;0,0145405
2772,1711;0,0145587
2773,1355;0,0145849
2774,0996;0,0146211
2775,0640;0,0146671
2776,0281;0,0147197
2776,9924;0,0147734
2777,9565;0,0148219
2778,9209;0,0148601
2779,8850;0,0148855
2780,8494;0,0148994
2781,8135;0,0149065
2782,7778;0,0149131
2783,7419;0,0149252
2784,7063;0,0149464
2785,6704;0,0149765
2786,6348;0,0150128
2787,5989;0,0150516
2788,5632;0,0150902
2789,5273;0,0151282
2790,4917;0,0151666
2791,4558;0,0152074
2792,4202;0,0152512
2793,3843;0,0152967
2794,3486;0,0153411
2795,3127;0,0153822
2796,2771;0,0154205
2797,2412;0,0154607
2798,2056;0,0155097
2799,1697;0,0155736
2800,1340;0,0156534
2801,0981;0,0157434
2802,0625;0,0158326
2803,0266;0,0159095
2803,9910;0,0159671
2804,9551;0,016006
2805,9194;0,0160344
2806,8835;0,0160639
2807,8479;0,0161046
2808,8120;0,0161619
2809,7764;0,0162344
2810,7405;0,0163165
2811,7048;0,0164012
2812,6689;0,0164837
2813,6333;0,0165624
2814,5974;0,016639
2815,5618;0,0167159
2816,5259;0,0167954
2817,4902;0,0168786
2818,4543;0,0169668
2819,4187;0,0170613
2820,3828;0,0171634
2821,3472;0,0172727
2822,3113;0,0173863
2823,2756;0,0174996
2824,2397;0,0176084
2825,2041;0,0177114
2826,1682;0,017811
2827,1326;0,0179124
2828,0967;0,0180203
2829,0610;0,0181373
2830,0251;0,0182637
2830,9895;0,0183989
2831,9536;0,018543
2832,9180;0,0186975
2833,8821;0,0188642
2834,8464;0,0190444
2835,8105;0,0192378
2836,7749;0,0194445
2837,7390;0,0196656
2838,7034;0,0199041
2839,6675;0,0201646
2840,6318;0,0204512
2841,5959;0,0207667
2842,5603;0,0211113
2843,5244;0,0214826
2844,4888;0,0218755
2845,4529;0,0222818
2846,4172;0,0226893
2847,3813;0,023081
2848,3457;0,0234367
2849,3098;0,023736
2850,2742;0,0239627
2851,2383;0,0241095
2852,2026;0,024179
2853,1667;0,0241825
2854,1311;0,0241356
2855,0952;0,0240534
2856,0596;0,023949
2857,0237;0,0238332
2857,9880;0,0237168
2858,9521;0,0236116
2859,9165;0,0235293
2860,8806;0,0234784
2861,8450;0,0234617
2862,8091;0,0234759
2863,7734;0,0235136
2864,7375;0,0235676
2865,7019;0,0236326
2866,6660;0,0237055
2867,6304;0,023783
2868,5945;0,0238597
2869,5588;0,0239275
2870,5229;0,0239786
2871,4873;0,0240083
2872,4514;0,0240182
2873,4158;0,0240157
2874,3799;0,0240117
2875,3442;0,0240163
2876,3083;0,024036
2877,2727;0,024073
2878,2368;0,0241255
2879,2012;0,0241905
2880,1653;0,0242648
2881,1296;0,0243459
2882,0938;0,0244323
2883,0581;0,0245227
2884,0222;0,0246159
2884,9866;0,0247103
2885,9507;0,0248046
2886,9150;0,0248986
2887,8792;0,024994
2888,8435;0,0250938
2889,8076;0,0252011
2890,7720;0,0253155
2891,7361;0,0254321
2892,7004;0,0255419
2893,6646;0,0256363
2894,6289;0,0257123
2895,5930;0,0257756
2896,5574;0,0258381
2897,5215;0,0259113
2898,4858;0,0259994
2899,4500;0,0260958
2900,4143;0,0261875
2901,3784;0,0262623
2902,3428;0,0263166
2903,3069;0,0263575
2904,2712;0,0263987
2905,2354;0,0264533
2906,1997;0,0265279
2907,1638;0,0266214
2908,1282;0,0267288
2909,0923;0,0268464
2910,0566;0,0269754
2911,0208;0,0271203
2911,9851;0,0272851
2912,9492;0,0274674
2913,9136;0,027656
2914,8777;0,0278331
2915,8420;0,0279803
2916,8062;0,0280848
2917,7705;0,0281425
2918,7346;0,0281568
2919,6990;0,0281336
2920,6631;0,028077
2921,6274;0,0279877
2922,5916;0,0278646
2923,5559;0,0277086
2924,5200;0,0275236
2925,4844;0,0273154
2926,4485;0,0270885
2927,4128;0,026844
2928,3770;0,0265807
2929,3413;0,0262976
2930,3054;0,0259975
2931,2698;0,0256877
2932,2339;0,0253781
2933,1982;0,0250779
2934,1624;0,0247927
2935,1267;0,0245239
2936,0908;0,0242692
2937,0552;0,024025
2938,0193;0,023788
2938,9836;0,023556
2939,9478;0,0233279
2940,9121;0,0231026
2941,8762;0,0228798
2942,8406;0,0226607
2943,8047;0,0224485
2944,7690;0,0222485
2945,7332;0,0220661
2946,6975;0,0219038
2947,6616;0,02176
2948,6260;0,0216291
2949,5901;0,0215039
2950,5544;0,0213791
2951,5186;0,0212524
2952,4829;0,0211241
2953,4470;0,0209952
2954,4114;0,0208654
2955,3755;0,0207334
2956,3398;0,020597
2957,3040;0,0204554
2958,2683;0,0203094
2959,2324;0,0201621
2960,1968;0,0200176
2961,1609;0,0198807
2962,1252;0,0197544
2963,0894;0,0196387
2964,0537;0,0195294
2965,0178;0,0194189
2965,9822;0,019299
2966,9463;0,0191644
2967,9106;0,0190148
2968,8748;0,0188552
2969,8391;0,0186935
2970,8032;0,0185375
2971,7676;0,0183923
2972,7317;0,0182594
2973,6960;0,0181375
2974,6602;0,0180237
2975,6245;0,0179149
2976,5886;0,017809
2977,5530;0,017705
2978,5171;0,0176034
2979,4814;0,0175061
2980,4456;0,0174163
2981,4099;0,017338
2982,3740;0,0172751
2983,3384;0,0172294
2984,3025;0,0171992
2985,2668;0,0171789
2986,2310;0,0171608
2987,1953;0,0171378
2988,1594;0,0171066
2989,1238;0,0170692
2990,0879;0,0170315
2991,0522;0,0170001
2992,0164;0,0169801
2992,9807;0,016973
2993,9448;0,0169775
2994,9092;0,0169918
2995,8733;0,0170142
2996,8376;0,0170436
2997,8018;0,0170785
2998,7661;0,0171159
2999,7302;0,0171518
3000,6946;0,0171819
3001,6587;0,0172044
3002,6230;0,0172205
3003,5872;0,017235
3004,5515;0,017254
3005,5156;0,0172819
3006,4800;0,0173191
3007,4441;0,0173623
3008,4084;0,0174068
3009,3726;0,0174491
3010,3369;0,0174882
3011,3010;0,0175247
3012,2654;0,0175578
3013,2295;0,017584
3014,1938;0,0175988
3015,1580;0,0175999
3016,1223;0,017591
3017,0864;0,0175821
3018,0508;0,0175852
3019,0149;0,0176092
3019,9792;0,0176551
3020,9434;0,0177168
3021,9077;0,0177848
3022,8718;0,0178526
3023,8362;0,0179192
3024,8003;0,0179886
3025,7646;0,0180653
3026,7288;0,0181504
3027,6931;0,018239
3028,6572;0,0183223
3029,6216;0,0183919
3030,5857;0,0184431
3031,5500;0,0184777
3032,5142;0,0185019
3033,4785;0,0185239
3034,4426;0,0185507
3035,4070;0,0185863
3036,3711;0,0186321
3037,3354;0,0186871
3038,2996;0,0187491
3039,2639;0,0188148
3040,2280;0,0188814
3041,1924;0,0189476
3042,1565;0,0190137
3043,1208;0,0190817
3044,0850;0,0191529
3045,0493;0,0192269
3046,0134;0,0193013
3046,9778;0,0193731
3047,9419;0,0194416
3048,9063;0,0195097
3049,8704;0,0195829
3050,8347;0,0196659
3051,7988;0,0197596
3052,7632;0,0198595
3053,7273;0,0199579
3054,6917;0,0200478
3055,6558;0,0201263
3056,6201;0,0201964
3057,5842;0,0202651
3058,5486;0,0203397
3059,5127;0,020424
3060,4771;0,0205166
3061,4412;0,0206112
3062,4055;0,0206991
3063,3696;0,0207726
3064,3340;0,0208286
3065,2981;0,0208703
3066,2625;0,0209072
3067,2266;0,0209515
3068,1909;0,0210127
3069,1550;0,0210938
3070,1194;0,0211893
3071,0835;0,0212886
3072,0479;0,0213813
3073,0120;0,0214631
3073,9763;0,0215382
3074,9404;0,0216161
3075,9048;0,0217058
3076,8689;0,0218091
3077,8333;0,0219191
3078,7974;0,0220231
3079,7617;0,0221098
3080,7258;0,0221756
3081,6902;0,0222262
3082,6543;0,0222731
3083,6187;0,0223281
3084,5828;0,0223976
3085,5471;0,022482
3086,5112;0,0225778
3087,4756;0,0226813
3088,4397;0,0227905
3089,4041;0,022904
3090,3682;0,0230189
3091,3325;0,0231289
3092,2966;0,023227
3093,2610;0,0233093
3094,2251;0,0233792
3095,1895;0,0234477
3096,1536;0,0235281
3097,1179;0,0236278
3098,0820;0,0237437
3099,0464;0,0238625
3100,0105;0,0239686
3100,9749;0,0240533
3101,9390;0,0241194
3102,9033;0,0241792
3103,8674;0,0242467
3104,8318;0,0243294
3105,7959;0,0244257
3106,7603;0,0245273
3107,7244;0,0246255
3108,6887;0,0247165
3109,6528;0,0248028
3110,6172;0,0248913
3111,5813;0,0249891
3112,5457;0,0251007
3113,5098;0,0252264
3114,4741;0,0253619
3115,4382;0,0254996
3116,4026;0,02563
3117,3667;0,0257451
3118,3311;0,0258409
3119,2952;0,0259195
3120,2595;0,0259883
3121,2236;0,0260568
3122,1880;0,0261322
3123,1521;0,0262168
3124,1165;0,0263085
3125,0806;0,0264037
3126,0449;0,0265012
3127,0090;0,0266025
3127,9734;0,0267102
3128,9375;0,0268238
3129,9019;0,0269383
3130,8660;0,0270457
3131,8303;0,0271399
3132,7944;0,0272215
3133,7588;0,0272983
3134,7229;0,0273819
3135,6873;0,0274812
3136,6514;0,0275976
3137,6157;0,0277249
3138,5798;0,027852
3139,5442;0,0279686
3140,5083;0,0280695
3141,4727;0,0281561
3142,4368;0,028236
3143,4011;0,028319
3144,3652;0,028413
3145,3296;0,0285212
3146,2937;0,0286403
3147,2581;0,0287632
3148,2222;0,028882
3149,1865;0,0289928
3150,1506;0,0290976
3151,1150;0,0292025
3152,0791;0,0293144
3153,0435;0,0294369
3154,0076;0,0295681
3154,9719;0,0297022
3155,9360;0,0298322
3156,9004;0,0299534
3157,8645;0,0300648
3158,8289;0,0301696
3159,7930;0,0302733
3160,7573;0,0303813
3161,7214;0,0304964
3162,6858;0,0306171
3163,6499;0,0307382
3164,6143;0,030853
3165,5784;0,0309573
3166,5427;0,031052
3167,5068;0,0311429
3168,4712;0,0312384
3169,4353;0,0312371
3170,3997;0,0313576
3171,3638;0,031489
3172,3281;0,0316247
3173,2922;0,0317585
3174,2566;0,0318864
3175,2207;0,0320073
3176,1851;0,0321221
3177,1492;0,0322318
3178,1135;0,0323375
3179,0776;0,0324402
3180,0420;0,0325409
3181,0061;0,0326412
3181,9705;0,0327428
3182,9346;0,0328477
3183,8989;0,0329577
3184,8630;0,0330742
3185,8274;0,0331967
3186,7915;0,0333221
3187,7559;0,0334455
3188,7200;0,033562
3189,6843;0,0336702
3190,6484;0,033774
3191,6128;0,0338811
3192,5769;0,033998
3193,5413;0,0341259
3194,5054;0,0342581
3195,4697;0,0343832
3196,4338;0,0344909
3197,3982;0,0345781
3198,3623;0,0346509
3199,3267;0,0347217
3200,2908;0,0348039
3201,2551;0,0349074
3202,2192;0,0350351
3203,1836;0,0351825
3204,1477;0,0353384
3205,1121;0,0354879
3206,0762;0,0356179
3207,0405;0,0357223
3208,0046;0,0358064
3208,9690;0,0358839
3209,9331;0,0359698
3210,8975;0,0360716
3211,8616;0,0361852
3212,8259;0,036299
3213,7900;0,036402
3214,7544;0,0364921
3215,7185;0,0365767
3216,6829;0,0366676
3217,6470;0,0367725
3218,6113;0,0368909
3219,5754;0,0370157
3220,5398;0,0371382
3221,5039;0,0372535
3222,4683;0,037362
3223,4324;0,0374661
3224,3967;0,0375677
3225,3608;0,0376664
3226,3252;0,0377616
3227,2893;0,0378549
3228,2537;0,0379517
3229,2178;0,0380598
3230,1821;0,0381842
3231,1462;0,0383235
3232,1106;0,038468
3233,0747;0,0386032
3234,0391;0,0387166
3235,0032;0,0388049
3235,9675;0,0388768
3236,9316;0,0389491
3237,8960;0,0390385
3238,8601;0,0391529
3239,8245;0,0392888
3240,7886;0,0394338
3241,7529;0,0395738
3242,7170;0,0396999
3243,6814;0,0398098
3244,6455;0,0399076
3245,6099;0,0400007
3246,5740;0,0400975
3247,5383;0,0402057
3248,5024;0,0403303
3249,4668;0,0404719
3250,4309;0,0406249
3251,3953;0,0407786
3252,3594;0,0409215
3253,3237;0,0410474
3254,2878;0,0411586
3255,2522;0,0412647
3256,2163;0,0413766
3257,1807;0,0415006
3258,1448;0,0416364
3259,1091;0,041779
3260,0732;0,0419229
3261,0376;0,0420636
3262,0017;0,0421981
3262,9661;0,0423243
3263,9302;0,0424409
3264,8945;0,0425499
3265,8586;0,0426573
3266,8230;0,0427705
3267,7871;0,0428941
3268,7515;0,0430245
3269,7156;0,0431504
3270,6799;0,0432574
3271,6440;0,0433353
3272,6084;0,0433831
3273,5725;0,0434089
3274,5369;0,0434245
3275,5010;0,0434393
3276,4653;0,0434577
3277,4294;0,0434803
3278,3938;0,0435068
3279,3579;0,0435375
3280,3223;0,0435732
3281,2864;0,0436131
3282,2507;0,0436548
3283,2148;0,0436953
3284,1792;0,0437333
3285,1433;0,0437704
3286,1077;0,0438098
3287,0718;0,0438538
3288,0361;0,0439022
3289,0002;0,0439516
3289,9646;0,0439961
3290,9287;0,044029
3291,8931;0,0440443
3292,8572;0,0440385
3293,8215;0,044013
3294,7856;0,0439747
3295,7500;0,0439345
3296,7141;0,0439041
3297,6785;0,0438909
3298,6426;0,0438943
3299,6069;0,0439067
3300,5710;0,0439182
3301,5354;0,0439222
3302,4995;0,0439183
3303,4639;0,0439106
3304,4280;0,0439035
3305,3923;0,0438974
3306,3564;0,0438898
3307,3208;0,0438778
3308,2849;0,0438614
3309,2493;0,0438438
3310,2134;0,0438288
3311,1777;0,043819
3312,1418;0,0438149
3313,1062;0,0438178
3314,0703;0,0438309
3315,0347;0,0438584
3315,9988;0,043902
3316,9631;0,0439589
3317,9272;0,0440225
3318,8916;0,0440873
3319,8557;0,0441526
3320,8201;0,0442227
3321,7842;0,0443028
3322,7485;0,0443944
3323,7126;0,0444933
3324,6770;0,0445923
3325,6411;0,0446851
3326,6055;0,044769
3327,5696;0,0448443
3328,5339;0,0449131
3329,4980;0,044978
3330,4624;0,0450424
3331,4265;0,0451106
3332,3909;0,0451844
3333,3550;0,0452591
3334,3193;0,0453211
3335,2834;0,0453523
3336,2478;0,0453391
3337,2119;0,0452807
3338,1763;0,0451905
3339,1404;0,045088
3340,1047;0,0449881
3341,0688;0,044894
3342,0332;0,0447989
3342,9973;0,0446933
3343,9617;0,0445733
3344,9258;0,0444433
3345,8901;0,0443132
3346,8542;0,0441916
3347,8186;0,0440807
3348,7827;0,0439754
3349,7471;0,0438655
3350,7112;0,0437403
3351,6755;0,0435934
3352,6396;0,0434269
3353,6040;0,0432523
3354,5681;0,0430872
3355,5325;0,0429481
3356,4966;0,042842
3357,4609;0,0427621
3358,4250;0,0426906
3359,3894;0,0426071
3360,3535;0,0424994
3361,3179;0,042368
3362,2820;0,0422245
3363,2463;0,0420835
3364,2104;0,0419547
3365,1748;0,0418402
3366,1389;0,0417353
3367,1033;0,0416329
3368,0674;0,0415267
3369,0317;0,0414122
3369,9958;0,0412874
3370,9602;0,0411537
3371,9243;0,0410163
3372,8887;0,0408841
3373,8528;0,0407659
3374,8171;0,0406659
3375,7813;0,0405803
3376,7456;0,0404993
3377,7097;0,040412
3378,6741;0,0403122
3379,6382;0,0402007
3380,6025;0,040082
3381,5667;0,0399605
3382,5310;0,0398372
3383,4951;0,0397124
3384,4595;0,0395891
3385,4236;0,0394758
3386,3879;0,0393829
3387,3521;0,0393154
3388,3164;0,0392675
3389,2805;0,0392231
3390,2449;0,0391636
3391,2090;0,0390778
3392,1733;0,0389683
3393,1375;0,0388496
3394,1018;0,0387388
3395,0659;0,0386451
3396,0303;0,038566
3396,9944;0,0384902
3397,9587;0,0384053
3398,9229;0,0383035
3399,8872;0,0381839
3400,8513;0,0380509
3401,8157;0,0379119
3402,7798;0,0377753
3403,7441;0,0376487
3404,7083;0,0375363
3405,6726;0,0374375
3406,6367;0,0373463
3407,6011;0,0372533
3408,5652;0,0371494
3409,5295;0,0370282
3410,4937;0,0368872
3411,4580;0,0367278
3412,4221;0,0365558
3413,3865;0,0363815
3414,3506;0,0362183
3415,3149;0,0360783
3416,2791;0,0359671
3417,2434;0,0358781
3418,2075;0,0357935
3419,1719;0,0356904
3420,1360;0,0355507
3421,1003;0,0353699
3422,0645;0,0351585
3423,0288;0,0349354
3423,9929;0,0347191
3424,9573;0,0345218
3425,9214;0,0343484
3426,8857;0,0341973
3427,8499;0,034062
3428,8142;0,0339328
3429,7783;0,0337988
3430,7427;0,0336509
3431,7068;0,0334851
3432,6711;0,0333036
3433,6353;0,0331145
3434,5996;0,0329284
3435,5637;0,0327537
3436,5281;0,0325937
3437,4922;0,0324475
3438,4565;0,0323128
3439,4207;0,0321903
3440,3850;0,0320836
3441,3491;0,0319947
3442,3135;0,0319164
3443,2776;0,0318293
3444,2419;0,0317061
3445,2061;0,0315254
3446,1704;0,031287
3447,1345;0,0310181
3448,0989;0,0307618
3449,0630;0,0305527
3450,0273;0,0303986
3450,9915;0,0302802
3451,9558;0,0301676
3452,9199;0,0300388
3453,8843;0,029891
3454,8484;0,0297378
3455,8127;0,0295961
3456,7769;0,0294725
3457,7412;0,0293584
3458,7053;0,0292362
3459,6697;0,0290906
3460,6338;0,0289179
3461,5981;0,0287267
3462,5623;0,0285318
3463,5266;0,0283442
3464,4907;0,0281664
3465,4551;0,0279942
3466,4192;0,0278226
3467,3835;0,0276516
3468,3477;0,0274862
3469,3120;0,0273318
3470,2761;0,0271874
3471,2405;0,0270449
3472,2046;0,0268945
3473,1689;0,0267342
3474,1331;0,0265754
3475,0974;0,0264378
3476,0615;0,0263356
3477,0259;0,0262647
3477,9900;0,0262008
3478,9543;0,0261109
3479,9185;0,0259723
3480,8828;0,0257883
3481,8469;0,0255883
3482,8113;0,0254086
3483,7754;0,0252685
3484,7397;0,0251578
3485,7039;0,0250453
3486,6682;0,0249002
3487,6323;0,024712
3488,5967;0,0244984
3489,5608;0,0242939
3490,5251;0,0241279
3491,4893;0,0240065
3492,4536;0,0239116
3493,4177;0,0238149
3494,3821;0,0236994
3495,3462;0,0235746
3496,3105;0,0234728
3497,2747;0,0234252
3498,2390;0,0234353
3499,2031;0,0234675
3500,1675;0,0234592
3501,1316;0,0233532
3502,0959;0,0231339
3503,0601;0,0228466
3504,0244;0,0225737
3504,9885;0,0223806
3505,9529;0,0222765
3506,9170;0,0222166
3507,8813;0,0221351
3508,8455;0,0219845
3509,8098;0,0217606
3510,7739;0,0215012
3511,7383;0,0212577
3512,7024;0,0210625
3513,6667;0,0209182
3514,6309;0,0208088
3515,5952;0,0207196
3516,5593;0,0206487
3517,5237;0,0206056
3518,4878;0,0206004
3519,4521;0,0206328
3520,4163;0,0206871
3521,3806;0,0207365
3522,3447;0,020752
3523,3091;0,0207103
3524,2732;0,0205983
3525,2375;0,0204117
3526,2017;0,0201534
3527,1660;0,0198377
3528,1301;0,0194974
3529,0945;0,0191812
3530,0586;0,018938
3531,0229;0,0187931
3531,9871;0,018735
3532,9514;0,0187203
3533,9155;0,018692
3534,8799;0,0186033
3535,8440;0,0184413
3536,8083;0,0182373
3537,7725;0,0180546
3538,7368;0,0179567
3539,7009;0,0179768
3540,6653;0,0181036
3541,6294;0,0182841
3542,5938;0,0184347
3543,5579;0,0184644
3544,5222;0,0183152
3545,4863;0,0180044
3546,4507;0,0176262
3547,4148;0,0172938
3548,3792;0,0170691
3549,3433;0,0169406
3550,3076;0,0168481
3551,2717;0,0167273
3552,2361;0,0165504
3553,2002;0,0163416
3554,1646;0,0161563
3555,1287;0,0160361
3556,0930;0,0159829
3557,0571;0,0159687
3558,0215;0,0159675
3558,9856;0,0159822
3559,9500;0,016049
3560,9141;0,0162094
3561,8784;0,0164698
3562,8425;0,0167736
3563,8069;0,0169973
3564,7710;0,0169718
3565,7354;0,0165595
3566,6995;0,0157971
3567,6638;0,0149512
3568,6279;0,014327
3569,5923;0,0140373
3570,5564;0,0139949
3571,5208;0,0140453
3572,4849;0,0140706
3573,4492;0,0140245
3574,4133;0,0139233
3575,3777;0,0138113
3576,3418;0,0137228
3577,3062;0,0136648
3578,2703;0,0136304
3579,2346;0,0136253
3580,1987;0,0136772
3581,1631;0,0138155
3582,1272;0,0140369
3583,0916;0,0142854
3584,0557;0,0144544
3585,0200;0,0144131
3585,9841;0,0140734
3586,9485;0,0135003
3587,9126;0,0129443
3588,8770;0,0126664
3589,8411;0,0127332
3590,8054;0,0130152
3591,7695;0,0133168
3592,7339;0,0134819
3593,6980;0,0134474
3594,6624;0,0132558
3595,6265;0,0130115
3596,5908;0,0127942
3597,5549;0,0126057
3598,5193;0,012399
3599,4834;0,0121517
3600,4478;0,0119105
3601,4119;0,0117629
3602,3762;0,0117598
3603,3403;0,0118663
3604,3047;0,0119782
3605,2688;0,0119755
3606,2332;0,0117792
3607,1973;0,0113958
3608,1616;0,0109265
3609,1257;0,0105121
3610,0901;0,0102503
3611,0542;0,0101598
3612,0186;0,0102056
3612,9827;0,0103357
3613,9470;0,010494
3614,9111;0,0106141
3615,8755;0,0106169
3616,8396;0,0104294
3617,8040;0,0100339
3618,7681;0,00952936
3619,7324;0,00913238
3620,6965;0,00905476
3621,6609;0,009353
3622,6250;0,00990968
3623,5894;0,0105263
3624,5535;0,0110057
3625,5178;0,0111775
3626,4819;0,0109027
3627,4463;0,0101381
3628,4104;0,00908878
3629,3748;0,00820271
3630,3389;0,00780149
3631,3032;0,00782526
3632,2673;0,00800845
3633,2317;0,00812976
3634,1958;0,00810614
3635,1602;0,0079724
3636,1243;0,0078135
3637,0886;0,00769484
3638,0527;0,00763147
3639,0171;0,00760811
3639,9812;0,00761984
3640,9456;0,00769138
3641,9097;0,00785807
3642,8740;0,00812729
3643,8381;0,00845248
3644,8025;0,00872822
3645,7666;0,0087868
3646,7310;0,00839585
3647,6951;0,00736215
3648,6594;0,00586952
3649,6235;0,00461364
3650,5879;0,00414851
3651,5520;0,00438455
3652,5164;0,00489917
3653,4805;0,00532614
3654,4448;0,00548057
3655,4089;0,00536307
3656,3733;0,00512305
3657,3374;0,00495331
3658,3018;0,00494966
3659,2659;0,00506691
3660,2302;0,00520339
3661,1943;0,00530616
3662,1587;0,00540639
3663,1228;0,00557318
3664,0872;0,00583279
3665,0513;0,00612616
3666,0156;0,00633175
3666,9797;0,00633001
3667,9441;0,00608054
3668,9082;0,00569008
3669,8726;0,00538577
3670,8367;0,00532989
3671,8010;0,00546237
3672,7651;0,00555937
3673,7295;0,00540044
3674,6936;0,00492235
3675,6580;0,00431869
3676,6221;0,00392938
3677,5864;0,0039291
3678,5505;0,00421789
3679,5149;0,00460336
3680,4790;0,00497168
3681,4434;0,00531653
3682,4075;0,00567915
3683,3718;0,00607311
3684,3359;0,00644626
3685,3003;0,00669279
3686,2644;0,00669322
3687,2288;0,00636732
3688,1929;0,00575446
3689,1572;0,00508369
3690,1213;0,00467114
3691,0857;0,004663
3692,0498;0,00496193
3693,0142;0,00538633
3693,9783;0,00580951
3694,9426;0,00618387
3695,9067;0,00650297
3696,8711;0,0067575
3697,8352;0,0069141
3698,7996;0,00692637
3699,7637;0,00677243
3700,7280;0,00649965
3701,6921;0,00623738
3702,6565;0,0061385
3703,6206;0,00628162
3704,5850;0,00662679
3705,5491;0,00705293
3706,5134;0,00741553
3707,4775;0,00757391
3708,4419;0,00739637
3709,4060;0,00679808
3710,3704;0,00585872
3711,3345;0,00490485
3712,2988;0,00432469
3713,2629;0,00426911
3714,2273;0,00462115
3715,1914;0,00517138
3716,1558;0,00575098
3717,1199;0,00626919
3718,0842;0,00670275
3719,0483;0,00706996
3720,0127;0,00739917
3720,9768;0,0076989
3721,9412;0,0079443
3722,9053;0,00809268
3723,8696;0,00812182
3724,8337;0,0080632
3725,7981;0,00799562
3726,7622;0,00799609
3727,7266;0,00809317
3728,6907;0,00826385
3729,6550;0,00846112
3730,6191;0,00863359
3731,5835;0,00871619
3732,5476;0,00860576
3733,5120;0,00818097
3734,4761;0,00743391
3735,4404;0,00660818
3736,4045;0,0060718
3737,3689;0,00600713
3738,3330;0,00631193
3739,2974;0,00673489
3740,2615;0,00701914
3741,2258;0,00697136
3742,1899;0,0065068
3743,1543;0,00572442
3744,1184;0,00495092
3745,0828;0,00455782
3746,0469;0,00462983
3747,0112;0,00491168
3747,9753;0,00503959
3748,9397;0,00475251
3749,9038;0,00404563
3750,8682;0,00326851
3751,8323;0,00290841
3752,7966;0,00313622
3753,7607;0,0037283
3754,7251;0,00435019
3755,6892;0,0047603
3756,6536;0,00485674
3757,6177;0,00467625
3758,5820;0,00437527
3759,5461;0,00415069
3760,5105;0,00411985
3761,4746;0,00426946
3762,4390;0,0045061
3763,4031;0,00473007
3764,3674;0,00487364
3765,3315;0,00490442
3766,2959;0,00481353
3767,2600;0,00460618
3768,2244;0,00430679
3769,1885;0,00397642
3770,1528;0,00371648
3771,1169;0,00363027
3772,0813;0,00376095
3773,0454;0,00406222
3774,0098;0,00442394
3774,9739;0,00472146
3775,9382;0,00485827
3776,9023;0,00479839
3777,8667;0,00458988
3778,8308;0,00435519
3779,7952;0,00422218
3780,7593;0,00423938
3781,7236;0,00435785
3782,6877;0,00448297
3783,6521;0,00453644
3784,6162;0,004491
3785,5806;0,00437447
3786,5447;0,00424884
3787,5090;0,00417789
3788,4731;0,00419993
3789,4375;0,00431611
3790,4016;0,00449464
3791,3660;0,00468699
3792,3301;0,00485082
3793,2944;0,00497048
3794,2585;0,00506311
3795,2229;0,00515966
3796,1870;0,00526625
3797,1514;0,00533456
3798,1155;0,00527333
3799,0798;0,00500754
3800,0439;0,00456106
3801,0083;0,00409501
3801,9724;0,00381077
3802,9368;0,00376975
3803,9009;0,00384139
3804,8652;0,00383069
3805,8293;0,00364353
3806,7937;0,00337595
3807,7578;0,00325957
3808,7222;0,00346807
3809,6863;0,00396845
3810,6506;0,00456594
3811,6147;0,00504524
3812,5791;0,00527136
3813,5432;0,00523344
3814,5076;0,00504926
3815,4717;0,00490187
3816,4360;0,00489901
3817,4001;0,00497394
3818,3645;0,0049436
3819,3286;0,00466897
3820,2930;0,00419645
3821,2571;0,00376241
3822,2214;0,00360508
3823,1855;0,00376861
3824,1499;0,00411693
3825,1140;0,00447637
3826,0784;0,00473613
3827,0425;0,0048691
3828,0068;0,00490635
3828,9709;0,00489839
3829,9353;0,00488688
3830,8994;0,00489754
3831,8638;0,00494503
3832,8279;0,00503312
3833,7922;0,00514543
3834,7563;0,00523817
3835,7207;0,00524971
3836,6848;0,00513302
3837,6492;0,00489855
3838,6133;0,00462564
3839,5776;0,00440616
3840,5417;0,0042716
3841,5061;0,00419017
3842,4702;0,0041287
3843,4346;0,0041068
3844,3987;0,00419588
3845,3630;0,00446734
3846,3271;0,00493441
3847,2915;0,00553148
3848,2556;0,0061321
3849,2200;0,00657219
3850,1841;0,006654
3851,1484;0,00615892
3852,1125;0,0049945
3853,0769;0,00353078
3854,0410;0,00254877
3855,0054;0,00246469
3855,9695;0,00304656
3856,9338;0,00387476
3857,8979;0,00465976
3858,8623;0,0052646
3859,8264;0,00564367
3860,7908;0,00579801
3861,7549;0,00576381
3862,7192;0,00562052
3863,6833;0,0054792
3864,6477;0,00542701
3865,6118;0,00547481
3866,5762;0,005563
3867,5403;0,00560656
3868,5046;0,00553645
3869,4688;0,00532699
3870,4331;0,00501334
3871,3972;0,00468664
3872,3616;0,00445489
3873,3257;0,00439107
3874,2900;0,00450536
3875,2542;0,00475105
3876,2185;0,00505048
3877,1826;0,00532505
3878,1470;0,00552107
3879,1111;0,00562492
3880,0754;0,00565678
3881,0396;0,00563767
3882,0039;0,00555498
3882,9680;0,00537221
3883,9324;0,00508735
3884,8965;0,00478151
3885,8608;0,00458863
3886,8250;0,00459324
3887,7893;0,00475667
3888,7534;0,00494303
3889,7178;0,00501209
3890,6819;0,0049179
3891,6462;0,00475907
3892,6104;0,00471542
3893,5747;0,00489742
3894,5388;0,00526772
3895,5032;0,00569849
3896,4673;0,00606436
3897,4316;0,00629224
3898,3958;0,00636766
3899,3601;0,00631394
3900,3242;0,00615449
3901,2886;0,00588609
3902,2527;0,00549856
3903,2170;0,00502884
3904,1812;0,00457974
3905,1455;0,00426246
3906,1096;0,00412197
3907,0740;0,00412541
3908,0381;0,00420812
3909,0024;0,00432218
3909,9666;0,00445604
3910,9309;0,00462415
3911,8950;0,00483948
3912,8594;0,00508749
3913,8235;0,0053179
3914,7878;0,00546063
3915,7520;0,00546241
3916,7163;0,00532985
3917,6804;0,00514458
3918,6448;0,00501877
3919,6089;0,00501876
3920,5732;0,00512569
3921,5374;0,00525883
3922,5017;0,005331
3923,4658;0,00530261
3924,4302;0,00520825
3925,3943;0,00513258
3926,3586;0,00514689
3927,3228;0,00525873
3928,2871;0,00540998
3929,2512;0,00551079
3930,2156;0,00548579
3931,1797;0,00531654
3932,1440;0,00505697
3933,1082;0,00480155
3934,0725;0,00462931
3935,0366;0,00457261
3936,0010;0,00462372
3936,9651;0,00475415
3937,9294;0,00492597
3938,8936;0,00509541
3939,8579;0,00521897
3940,8220;0,00526939
3941,7864;0,00525479
3942,7505;0,00522095
3943,7148;0,0052237
3944,6790;0,00528776
3945,6433;0,00538617
3946,6074;0,00545425
3947,5718;0,00542706
3948,5359;0,00528017
3949,5002;0,00504946
3950,4644;0,00481118
3951,4287;0,00463523
3952,3928;0,00455049
3953,3572;0,00454473
3954,3213;0,0045866
3955,2856;0,00464753
3956,2498;0,00471063
3957,2141;0,00476688
3958,1782;0,00480665
3959,1426;0,00481654
3960,1067;0,00478509
3961,0710;0,00471301
3962,0352;0,00461868
3962,9995;0,00453239
3963,9636;0,00448223
3964,9280;0,00448103
3965,8921;0,004522
3966,8564;0,00458408
3967,8206;0,00464259
3968,7849;0,00467977
3969,7490;0,00469051
3970,7134;0,00468086
3971,6775;0,00466125
3972,6418;0,00463936
3973,6060;0,00461706
3974,5703;0,00459256
3975,5344;0,00456514
3976,4988;0,00453809
3977,4629;0,00451729
3978,4272;0,00450653
3979,3914;0,00450359
3980,3557;0,00450031
3981,3198;0,00448754
3982,2842;0,00446196
3983,2483;0,00442982
3984,2126;0,00440427
3985,1768;0,00439779
3986,1411;0,00441489
3987,1052;0,00444983
3988,0696;0,00449014
3989,0337;0,00452314
3989,9980;0,00454065
3990,9622;0,00453963
3991,9265;0,0045198
3992,8906;0,00448186
3993,8550;0,00442852
3994,8191;0,00436697
3995,7834;0,00430922
3996,7476;0,00426825
3997,7119;0,00425208
3998,6760;0,0042601
3999,6404;0,00428457
4000,6045;0,00439774

##### Extended Information
[Comments]
Sample name
Comment
Username
Division
Organization;UNIVERSIDAD INDUSTRIAL DE SANTANDER

[Detailed Information]
Creation date;17/03/2025 11:37 a.m.

Data array type;Linear data array
Horizontal axis;Wavenumber [cm-1]
Vertical axis;Abs
Start;399,193 cm-1
End;4000,6 cm-1
Data interval;0,964233 cm-1
Data points;3736    

[Measurement Information]
Model name;FT/IR-4X1typeA
Serial No.;A035162111

Accessory;ATR PRO 4X
Accessory S/N;A021162126
Incident angle;45 deg

Measurement date;17/03/2025 11:36 a.m.

Light source;Standard
Detector;TGS
Accumulation;40
Resolution;4 cm-1
Zero filling;On
Apodization;Cosine
Gain;Auto (8)
Aperture;Auto (7 mm)
Scan speed;Auto (2 mm/sec)
Filter;Auto (12800 Hz)

