TITLE;
DATA TYPE;INFRARED SPECTRUM
ORIGIN;JASCO
OWNER;
DATE;25/02/19
TIME;13:58:36
SPECTROMETER/DATA SYSTEM;
LOCALE;9226
RESOLUTION;
DELTAX;0,964233
XUNITS;1/CM
YUNITS;ABSORBANCE
FIRSTX;  399,1927
LASTX; 4000,6047
NPOINTS;    3736
FIRSTY;     0,11665
MAXY;     0,14498
MINY;     0,01110
XYDATA
399,1927;0,11665
400,1569;0,11359
401,1211;0,109827
402,0854;0,106652
403,0496;0,10463
404,0138;0,103788
404,9781;0,103808
405,9423;0,104218
406,9065;0,104604
407,8708;0,104786
408,8350;0,104803
409,7992;0,104762
410,7635;0,10467
411,7277;0,104416
412,6919;0,103888
413,6562;0,103106
414,6204;0,102238
415,5846;0,101553
416,5489;0,101377
417,5131;0,102017
418,4773;0,103505
419,4416;0,105338
420,4058;0,106769
421,3700;0,107432
422,3343;0,107408
423,2985;0,106953
424,2627;0,106354
425,2270;0,105898
426,1912;0,105805
427,1554;0,106123
428,1197;0,106676
429,0839;0,10715
430,0481;0,107248
431,0124;0,106847
431,9766;0,106079
432,9408;0,10527
433,9051;0,104789
434,8693;0,104852
435,8335;0,105423
436,7978;0,10624
437,7620;0,106958
438,7262;0,107304
439,6905;0,107162
440,6547;0,106573
441,6189;0,105703
442,5832;0,104795
443,5474;0,104077
444,5116;0,103666
445,4759;0,103523
446,4401;0,103517
447,4043;0,103513
448,3686;0,103423
449,3328;0,103196
450,2970;0,102805
451,2613;0,10223
452,2255;0,101481
453,1897;0,100619
454,1540;0,099755
455,1182;0,0990259
456,0824;0,098551
457,0467;0,0983741
458,0109;0,0984199
458,9751;0,0985185
459,9394;0,0985104
460,9036;0,0983357
461,8678;0,0980351
462,8321;0,0976994
463,7963;0,0974247
464,7605;0,0972873
465,7248;0,0973312
466,6890;0,0975712
467,6532;0,0980072
468,6175;0,0986358
469,5817;0,0994371
470,5459;0,100334
471,5102;0,10116
472,4744;0,101689
473,4386;0,10176
474,4029;0,101385
475,3671;0,100757
476,3313;0,10014
477,2956;0,0997608
478,2598;0,099738
479,2240;0,100059
480,1883;0,1006
481,1525;0,101179
482,1167;0,101618
483,0810;0,101803
484,0452;0,101711
485,0094;0,101417
485,9737;0,101065
486,9379;0,10081
487,9021;0,100762
488,8664;0,100953
489,8306;0,101326
490,7948;0,10174
491,7591;0,102019
492,7233;0,10203
493,6875;0,101759
494,6518;0,101334
495,6160;0,100953
496,5802;0,100796
497,5445;0,100941
498,5087;0,101358
499,4729;0,101933
500,4372;0,102544
501,4014;0,103117
502,3656;0,103659
503,3299;0,104224
504,2941;0,104845
505,2583;0,105477
506,2226;0,106014
507,1868;0,106347
508,1510;0,106448
509,1153;0,106399
510,0795;0,106365
511,0437;0,1065
512,0080;0,106872
512,9722;0,107446
513,9365;0,10812
514,9007;0,108784
515,8649;0,109364
516,8292;0,109833
517,7934;0,110197
518,7576;0,110463
519,7219;0,110641
520,6861;0,110748
521,6503;0,110818
522,6146;0,110899
523,5788;0,11103
524,5430;0,11122
525,5073;0,111434
526,4715;0,111596
527,4357;0,111631
528,4000;0,111503
529,3642;0,111229
530,3284;0,110867
531,2927;0,110491
532,2569;0,110168
533,2211;0,109934
534,1854;0,109786
535,1496;0,109682
536,1138;0,109572
537,0781;0,109428
538,0423;0,109257
539,0065;0,109094
539,9708;0,108979
540,9350;0,108933
541,8992;0,108956
542,8635;0,109033
543,8277;0,109153
544,7919;0,109313
545,7562;0,10952
546,7204;0,109782
547,6846;0,110098
548,6489;0,110454
549,6131;0,110815
550,5773;0,111136
551,5416;0,111381
552,5058;0,111541
553,4700;0,111654
554,4343;0,111797
555,3985;0,112048
556,3627;0,112436
557,3270;0,112901
558,2912;0,113311
559,2554;0,113517
560,2197;0,113425
561,1839;0,113049
562,1481;0,112497
563,1124;0,111921
564,0766;0,111441
565,0408;0,111098
566,0051;0,110857
566,9693;0,110642
567,9335;0,110391
568,8978;0,110095
569,8620;0,109798
570,8262;0,109569
571,7905;0,109456
572,7547;0,109466
573,7189;0,109558
574,6832;0,109667
575,6474;0,10973
576,6116;0,109718
577,5759;0,109641
578,5401;0,109547
579,5043;0,109489
580,4686;0,109504
581,4328;0,109592
582,3970;0,109716
583,3613;0,109816
584,3255;0,109836
585,2897;0,109751
586,2540;0,10958
587,2182;0,109378
588,1824;0,109216
589,1467;0,109151
590,1109;0,109212
591,0751;0,109384
592,0394;0,109618
593,0036;0,109837
593,9678;0,109958
594,9321;0,109911
595,8963;0,109662
596,8605;0,109227
597,8248;0,108684
598,7890;0,108156
599,7532;0,107767
600,7175;0,107581
601,6817;0,107563
602,6459;0,107595
603,6102;0,107541
604,5744;0,107317
605,5386;0,106925
606,5029;0,10644
607,4671;0,105955
608,4313;0,105522
609,3956;0,105134
610,3598;0,104754
611,3240;0,104365
612,2883;0,104006
613,2525;0,103749
614,2167;0,103646
615,1810;0,103676
616,1452;0,103718
617,1094;0,1036
618,0737;0,103186
619,0379;0,102453
620,0021;0,101497
620,9664;0,100471
621,9306;0,0995074
622,8948;0,0986884
623,8591;0,0980421
624,8233;0,0975276
625,7875;0,0971859
626,7518;0,0969768
627,7160;0,096846
628,6802;0,096726
629,6445;0,0965599
630,6087;0,0963173
631,5729;0,0960088
632,5372;0,0956754
633,5014;0,0953662
634,4656;0,0951142
635,4299;0,0949245
636,3941;0,0947812
637,3583;0,0946645
638,3226;0,0945646
639,2868;0,0944849
640,2510;0,094435
641,2153;0,0944215
642,1795;0,0944432
643,1437;0,0944906
644,1080;0,0945458
645,0722;0,0945832
646,0364;0,0945732
647,0007;0,0944907
647,9649;0,0943288
648,9291;0,0941095
649,8934;0,0938832
650,8576;0,0937111
651,8218;0,0936411
652,7861;0,0936875
653,7503;0,0938255
654,7145;0,0939968
655,6788;0,0941302
656,6430;0,0941744
657,6072;0,0941281
658,5715;0,0940409
659,5357;0,0939763
660,4999;0,0939484
661,4642;0,0938778
662,4284;0,0936071
663,3926;0,0929785
664,3569;0,0919476
665,3211;0,0907174
666,2853;0,0898071
667,2496;0,0898071
668,2138;0,0906589
669,1780;0,0914898
670,1423;0,0917671
671,1065;0,0915927
672,0707;0,091075
673,0350;0,0902413
673,9992;0,0891867
674,9634;0,0880757
675,9277;0,0870474
676,8919;0,086144
677,8561;0,085324
678,8204;0,0845287
679,7846;0,0837352
680,7488;0,0829547
681,7131;0,0822111
682,6773;0,0815142
683,6415;0,0808642
684,6058;0,0802607
685,5700;0,0797088
686,5342;0,0792122
687,4985;0,0787628
688,4627;0,0783467
689,4269;0,0779387
690,3912;0,077529
691,3554;0,0771285
692,3196;0,0767604
693,2839;0,0764466
694,2481;0,0761958
695,2123;0,0759986
696,1766;0,0758287
697,1408;0,0756511
698,1050;0,0754332
699,0693;0,0751569
700,0335;0,0748237
700,9977;0,0744514
701,9620;0,0740654
702,9262;0,0736898
703,8904;0,0733292
704,8547;0,0729971
705,8189;0,0726999
706,7831;0,0724378
707,7474;0,0722022
708,7116;0,0719738
709,6758;0,0717249
710,6401;0,0714249
711,6043;0,0710499
712,5685;0,0705944
713,5328;0,0700814
714,4970;0,069562
715,4612;0,0683937
716,4255;0,0681856
717,3897;0,0681419
718,3539;0,068166
719,3182;0,0680998
720,2824;0,0677994
721,2466;0,0672163
722,2109;0,0664234
723,1751;0,0655652
724,1393;0,0647754
725,1036;0,0641216
726,0678;0,0636
727,0320;0,0631663
727,9963;0,0627746
728,9605;0,0624023
729,9247;0,0620487
730,8890;0,0617176
731,8532;0,0614032
732,8174;0,0610887
733,7817;0,0607586
734,7459;0,0604115
735,7101;0,0600649
736,6744;0,0597474
737,6386;0,0594847
738,6028;0,059286
739,5671;0,0591372
740,5313;0,0590041
741,4955;0,0588442
742,4598;0,0586247
743,4240;0,0583369
744,3882;0,0580024
745,3525;0,0576647
746,3167;0,0573699
747,2809;0,0571447
748,2452;0,056984
749,2094;0,0568528
750,1736;0,0567036
751,1379;0,0564977
752,1021;0,0562208
753,0663;0,0558856
754,0306;0,0555225
754,9948;0,0551643
755,9590;0,054834
756,9233;0,0545404
757,8875;0,0542816
758,8517;0,0540529
759,8160;0,0538529
760,7802;0,0536835
761,7444;0,0535435
762,7087;0,0534186
763,6729;0,0532784
764,6371;0,0530852
765,6014;0,0528135
766,5656;0,0524702
767,5298;0,0520998
768,4941;0,0517678
769,4583;0,0515278
770,4225;0,0513932
771,3868;0,0513301
772,3510;0,0512795
773,3152;0,0511914
774,2795;0,0510516
775,2437;0,0508819
776,2079;0,050719
777,1722;0,0505859
778,1364;0,0504766
779,1006;0,0503622
780,0649;0,050211
781,0291;0,0500087
781,9933;0,0497656
782,9576;0,0495102
783,9218;0,049274
784,8860;0,0490788
785,8503;0,0489302
786,8145;0,0488184
787,7787;0,0487248
788,7430;0,0486293
789,7072;0,048517
790,6714;0,0483836
791,6357;0,0482357
792,5999;0,0480889
793,5641;0,04796
794,5284;0,0478594
795,4926;0,0477859
796,4568;0,0477265
797,4211;0,0476637
798,3853;0,0475853
799,3495;0,0474911
800,3138;0,0473934
801,2780;0,0473079
802,2422;0,0472436
803,2065;0,0471953
804,1707;0,0471456
805,1349;0,0470759
806,0992;0,0469783
807,0634;0,0468616
808,0276;0,0467473
808,9919;0,0466571
809,9561;0,0465996
810,9203;0,0465643
811,8846;0,0465257
812,8488;0,046457
813,8130;0,0463442
814,7773;0,0461946
815,7415;0,0460339
816,7057;0,0458925
817,6700;0,0457887
818,6342;0,0457191
819,5984;0,0456604
820,5627;0,0455842
821,5269;0,0454749
822,4911;0,0453396
823,4554;0,0452038
824,4196;0,0450961
825,3839;0,0450319
826,3481;0,0450063
827,3123;0,0449998
828,2766;0,0449908
829,2408;0,0449658
830,2050;0,0449224
831,1693;0,0448645
832,1335;0,0447969
833,0977;0,0447224
834,0620;0,0446418
835,0262;0,0445542
835,9904;0,0444563
836,9547;0,0443427
837,9189;0,0442086
838,8831;0,0440549
839,8474;0,0438926
840,8116;0,0437398
841,7758;0,0436148
842,7401;0,0435262
843,7043;0,0434688
844,6685;0,0434271
845,6328;0,0433839
846,5970;0,043328
847,5612;0,0432566
848,5255;0,0431746
849,4897;0,0430911
850,4539;0,0430176
851,4182;0,0429652
852,3824;0,042942
853,3466;0,0429484
854,3109;0,0429744
855,2751;0,0430012
856,2393;0,0430078
857,2036;0,0429796
858,1678;0,042915
859,1320;0,0428265
860,0963;0,0427363
861,0605;0,0426702
862,0247;0,0426491
862,9890;0,0426842
863,9532;0,042774
864,9174;0,0429075
865,8817;0,0430699
866,8459;0,0432506
867,8101;0,0434473
868,7744;0,0436635
869,7386;0,0439007
870,7028;0,0441493
871,6671;0,0443857
872,6313;0,0445782
873,5955;0,0446988
874,5598;0,0447351
875,5240;0,0446955
876,4882;0,0446057
877,4525;0,0445002
878,4167;0,0444129
879,3809;0,0443716
880,3452;0,0443956
881,3094;0,0444958
882,2736;0,0446755
883,2379;0,0449299
884,2021;0,0452482
885,1663;0,0456162
886,1306;0,0460215
887,0948;0,0464566
888,0590;0,0469205
889,0233;0,0474149
889,9875;0,0479385
890,9517;0,0484815
891,9160;0,0490237
892,8802;0,0495373
893,8444;0,0499922
894,8087;0,050362
895,7729;0,0506274
896,7371;0,0507763
897,7014;0,050803
898,6656;0,050707
899,6298;0,0504931
900,5941;0,0501731
901,5583;0,0497663
902,5225;0,0492983
903,4868;0,0487975
904,4510;0,0482905
905,4152;0,0478
906,3795;0,0473441
907,3437;0,0469374
908,3079;0,0465911
909,2722;0,0463116
910,2364;0,0460972
911,2007;0,045938
912,1649;0,0458187
913,1292;0,0457256
914,0934;0,0456524
915,0576;0,0456018
916,0219;0,0455808
916,9861;0,0455943
917,9503;0,0456413
918,9146;0,0457156
919,8788;0,0458104
920,8430;0,0459219
921,8073;0,0460489
922,7715;0,0461891
923,7357;0,0463361
924,7000;0,0464802
925,6642;0,0466129
926,6284;0,0467314
927,5927;0,0468391
928,5569;0,0469434
929,5211;0,0470516
930,4854;0,0471686
931,4496;0,0472964
932,4138;0,0474352
933,3781;0,0475829
934,3423;0,0477365
935,3065;0,0478935
936,2708;0,0480556
937,2350;0,0482316
938,1992;0,0484362
939,1635;0,0486842
940,1277;0,0489839
941,0919;0,0493333
942,0562;0,0497222
943,0204;0,0501392
943,9846;0,0505779
944,9489;0,0510389
945,9131;0,0515273
946,8773;0,0520484
947,8416;0,0526042
948,8058;0,0531946
949,7700;0,05382
950,7343;0,0544841
951,6985;0,0551944
952,6627;0,0559594
953,6270;0,0567838
954,5912;0,0576638
955,5554;0,058585
956,5197;0,0595261
957,4839;0,0604662
958,4481;0,0613948
959,4124;0,0623159
960,3766;0,0632447
961,3408;0,0641969
962,3051;0,065178
963,2693;0,0661781
964,2335;0,0671782
965,1978;0,0681626
966,1620;0,0691303
967,1262;0,0700977
968,0905;0,071092
969,0547;0,0721396
970,0189;0,0732571
970,9832;0,0744504
971,9474;0,0757211
972,9116;0,0770752
973,8759;0,078528
974,8401;0,0801025
975,8043;0,0818213
976,7686;0,0836959
977,7328;0,0857189
978,6970;0,0878617
979,6613;0,0900785
980,6255;0,0923137
981,5897;0,0945091
982,5540;0,0966096
983,5182;0,0985675
984,4824;0,100347
985,4467;0,101928
986,4109;0,103312
987,3751;0,104521
988,3394;0,105585
989,3036;0,106533
990,2678;0,107384
991,2321;0,10814
992,1963;0,1088
993,1605;0,109368
994,1248;0,109863
995,0890;0,110317
996,0532;0,110767
997,0175;0,111242
997,9817;0,111755
998,9459;0,112301
999,9102;0,112871
1000,8744;0,113458
1001,8386;0,114063
1002,8029;0,114699
1003,7671;0,115386
1004,7313;0,116146
1005,6956;0,116995
1006,6598;0,117948
1007,6240;0,119012
1008,5883;0,120188
1009,5525;0,121477
1010,5167;0,122869
1011,4810;0,124351
1012,4452;0,125899
1013,4094;0,127484
1014,3737;0,129072
1015,3379;0,130634
1016,3021;0,132145
1017,2664;0,133588
1018,2306;0,13495
1019,1948;0,136223
1020,1591;0,137403
1021,1233;0,138489
1022,0875;0,139485
1023,0518;0,140398
1024,0160;0,141238
1024,9802;0,142014
1025,9445;0,142728
1026,9087;0,14338
1027,8729;0,143959
1028,8372;0,144443
1029,8014;0,144798
1030,7656;0,144977
1031,7299;0,144929
1032,6941;0,14461
1033,6583;0,144001
1034,6226;0,14312
1035,5868;0,142023
1036,5510;0,140799
1037,5153;0,139542
1038,4795;0,138345
1039,4437;0,137273
1040,4080;0,13637
1041,3722;0,135649
1042,3364;0,135098
1043,3007;0,134681
1044,2649;0,134345
1045,2291;0,134032
1046,1934;0,133687
1047,1576;0,133272
1048,1218;0,132766
1049,0861;0,132162
1050,0503;0,131459
1051,0145;0,130655
1051,9788;0,129747
1052,9430;0,128738
1053,9072;0,127636
1054,8715;0,126451
1055,8357;0,125188
1056,7999;0,123834
1057,7642;0,122363
1058,7284;0,120743
1059,6926;0,118959
1060,6569;0,117024
1061,6211;0,114985
1062,5853;0,112916
1063,5496;0,110894
1064,5138;0,108984
1065,4780;0,107221
1066,4423;0,10561
1067,4065;0,104131
1068,3707;0,102753
1069,3350;0,101448
1070,2992;0,100195
1071,2634;0,0989873
1072,2277;0,097819
1073,1919;0,0966813
1074,1561;0,0955572
1075,1204;0,0944258
1076,0846;0,093272
1077,0488;0,0920959
1078,0131;0,0909164
1078,9773;0,0897664
1079,9415;0,0886817
1080,9058;0,0876911
1081,8700;0,0868097
1082,8342;0,0860402
1083,7985;0,0853766
1084,7627;0,0848082
1085,7269;0,0843228
1086,6912;0,0839068
1087,6554;0,0835478
1088,6196;0,0832361
1089,5839;0,0829674
1090,5481;0,0827424
1091,5123;0,0825642
1092,4766;0,0824343
1093,4408;0,0823497
1094,4050;0,0823034
1095,3693;0,0822873
1096,3335;0,0822957
1097,2977;0,0823264
1098,2620;0,0823794
1099,2262;0,0824516
1100,1904;0,0825331
1101,1547;0,0826071
1102,1189;0,0826533
1103,0831;0,0826554
1104,0474;0,0826057
1105,0116;0,0825064
1105,9758;0,0823649
1106,9401;0,082186
1107,9043;0,0819654
1108,8685;0,0816875
1109,8328;0,0813294
1110,7970;0,080869
1111,7612;0,0802936
1112,7255;0,0796074
1113,6897;0,0788332
1114,6539;0,0780086
1115,6182;0,0771787
1116,5824;0,0763846
1117,5466;0,0756532
1118,5109;0,0749897
1119,4751;0,074376
1120,4393;0,0737747
1121,4036;0,0731398
1122,3678;0,0724282
1123,3320;0,0716108
1124,2963;0,0706768
1125,2605;0,0696329
1126,2247;0,0684968
1127,1890;0,0672899
1128,1532;0,0660319
1129,1174;0,0647395
1130,0817;0,063428
1131,0459;0,0621143
1132,0101;0,0608196
1132,9744;0,0595693
1133,9386;0,058392
1134,9028;0,0573167
1135,8671;0,0563689
1136,8313;0,0555668
1137,7955;0,0549188
1138,7598;0,0544241
1139,7240;0,0540747
1140,6882;0,0538588
1141,6525;0,0537633
1142,6167;0,0537743
1143,5809;0,0538764
1144,5452;0,0540537
1145,5094;0,0542913
1146,4736;0,0545793
1147,4379;0,0549138
1148,4021;0,055296
1149,3663;0,0557266
1150,3306;0,0561992
1151,2948;0,0566972
1152,2590;0,0571942
1153,2233;0,0576602
1154,1875;0,058067
1155,1517;0,0583929
1156,1160;0,0586201
1157,0802;0,0587307
1158,0444;0,0587003
1159,0087;0,0584961
1159,9729;0,0580805
1160,9371;0,0574209
1161,9014;0,0565003
1162,8656;0,0553254
1163,8298;0,0539282
1164,7941;0,0523602
1165,7583;0,0506838
1166,7225;0,0489628
1167,6868;0,0472559
1168,6510;0,045612
1169,6152;0,0440679
1170,5795;0,0426468
1171,5437;0,0413596
1172,5079;0,040208
1173,4722;0,0391887
1174,4364;0,0382969
1175,4006;0,0375267
1176,3649;0,036869
1177,3291;0,036311
1178,2933;0,0358371
1179,2576;0,0354331
1180,2218;0,03509
1181,1860;0,0348044
1182,1503;0,0345757
1183,1145;0,0344015
1184,0787;0,0342763
1185,0430;0,0341931
1186,0072;0,0341483
1186,9714;0,0341441
1187,9357;0,034188
1188,8999;0,0342878
1189,8641;0,0344474
1190,8284;0,0346658
1191,7926;0,0349393
1192,7568;0,0352653
1193,7211;0,0356424
1194,6853;0,0360681
1195,6495;0,0365344
1196,6138;0,0370253
1197,5780;0,0375202
1198,5422;0,0380012
1199,5065;0,0383184
1200,4707;0,0387734
1201,4349;0,0392209
1202,3992;0,0396714
1203,3634;0,0401286
1204,3276;0,0405863
1205,2919;0,0410321
1206,2561;0,0414554
1207,2203;0,0418552
1208,1846;0,0422427
1209,1488;0,0426393
1210,1130;0,0430692
1211,0773;0,0435511
1212,0415;0,0440929
1213,0057;0,0446909
1213,9700;0,0453328
1214,9342;0,0460029
1215,8984;0,0466871
1216,8627;0,047373
1217,8269;0,0480507
1218,7911;0,0487127
1219,7554;0,0493532
1220,7196;0,0499674
1221,6838;0,050552
1222,6481;0,0511047
1223,6123;0,0516247
1224,5765;0,0521124
1225,5408;0,0525699
1226,5050;0,053
1227,4692;0,0534053
1228,4335;0,0537873
1229,3977;0,0541454
1230,3619;0,0544767
1231,3262;0,0547768
1232,2904;0,0550415
1233,2546;0,0552683
1234,2189;0,0554569
1235,1831;0,0556104
1236,1473;0,0557336
1237,1116;0,0558326
1238,0758;0,0559123
1239,0400;0,0559752
1240,0043;0,0560205
1240,9685;0,0560435
1241,9327;0,0560377
1242,8970;0,0559961
1243,8612;0,0559142
1244,8254;0,0557906
1245,7897;0,0556276
1246,7539;0,055429
1247,7181;0,0551996
1248,6824;0,0549442
1249,6466;0,0546679
1250,6108;0,0543777
1251,5751;0,0540825
1252,5393;0,053791
1253,5035;0,0535091
1254,4678;0,0532361
1255,4320;0,0529645
1256,3962;0,0526814
1257,3605;0,052374
1258,3247;0,0520344
1259,2889;0,0516619
1260,2532;0,0512618
1261,2174;0,0508414
1262,1816;0,0504058
1263,1459;0,0499562
1264,1101;0,0494915
1265,0743;0,0490114
1266,0386;0,0485176
1267,0028;0,0480123
1267,9670;0,0474962
1268,9313;0,0469666
1269,8955;0,0464189
1270,8597;0,0458499
1271,8240;0,0452614
1272,7882;0,0446615
1273,7524;0,0440635
1274,7167;0,0434823
1275,6809;0,0429309
1276,6451;0,0424176
1277,6094;0,041943
1278,5736;0,0415003
1279,5378;0,0410772
1280,5021;0,0406622
1281,4663;0,0402506
1282,4305;0,0398472
1283,3948;0,0394646
1284,3590;0,039116
1285,3232;0,0388091
1286,2875;0,038542
1287,2517;0,038306
1288,2159;0,0380912
1289,1802;0,0378932
1290,1444;0,0377164
1291,1086;0,0375718
1292,0729;0,0374718
1293,0371;0,0374257
1294,0013;0,0374366
1294,9656;0,0375015
1295,9298;0,0376134
1296,8940;0,0377642
1297,8583;0,0379471
1298,8225;0,0381588
1299,7867;0,0383989
1300,7510;0,0386685
1301,7152;0,0389706
1302,6794;0,0393054
1303,6437;0,0396707
1304,6079;0,040062
1305,5721;0,0404736
1306,5364;0,0409002
1307,5006;0,0413389
1308,4648;0,0417902
1309,4291;0,0422549
1310,3933;0,0427293
1311,3575;0,0432013
1312,3218;0,0436508
1313,2860;0,044055
1314,2502;0,0443971
1315,2145;0,0446686
1316,1787;0,0448662
1317,1429;0,0449854
1318,1072;0,0450197
1319,0714;0,0449662
1320,0356;0,0448351
1320,9999;0,044652
1321,9641;0,0444495
1322,9283;0,044256
1323,8926;0,0440879
1324,8568;0,0439489
1325,8210;0,0438346
1326,7853;0,0437382
1327,7495;0,0436537
1328,7137;0,0435755
1329,6780;0,0434961
1330,6422;0,0434054
1331,6064;0,0432946
1332,5707;0,0431608
1333,5349;0,0430107
1334,4991;0,0428562
1335,4634;0,0427051
1336,4276;0,0425499
1337,3918;0,0423614
1338,3561;0,0420974
1339,3203;0,0417352
1340,2845;0,0413021
1341,2488;0,0408646
1342,2130;0,0404849
1343,1772;0,0401918
1344,1415;0,0399856
1345,1057;0,0398545
1346,0699;0,0397853
1347,0342;0,0397667
1347,9984;0,0397911
1348,9626;0,0398552
1349,9269;0,0399599
1350,8911;0,0401083
1351,8553;0,0403027
1352,8196;0,0405426
1353,7838;0,0408233
1354,7480;0,0411364
1355,7123;0,0414725
1356,6765;0,0418255
1357,6407;0,0421961
1358,6050;0,0425922
1359,5692;0,0430222
1360,5334;0,0434785
1361,4977;0,0439228
1362,4619;0,044302
1363,4261;0,0445939
1364,3904;0,044824
1365,3546;0,0450332
1366,3188;0,0452435
1367,2831;0,0454514
1368,2473;0,0456395
1369,2115;0,0457894
1370,1758;0,0458907
1371,1400;0,0459404
1372,1042;0,0459327
1373,0685;0,0458504
1374,0327;0,0456715
1374,9969;0,0453908
1375,9612;0,04503
1376,9254;0,0446136
1377,8896;0,0441434
1378,8539;0,0436048
1379,8181;0,0429945
1380,7823;0,0423394
1381,7466;0,0416879
1382,7108;0,0410797
1383,6750;0,0405235
1384,6393;0,0399979
1385,6035;0,0394709
1386,5677;0,0389267
1387,5320;0,0383929
1388,4962;0,0379323
1389,4604;0,037589
1390,4247;0,0373559
1391,3889;0,0372007
1392,3531;0,0371046
1393,3174;0,0370689
1394,2816;0,0370915
1395,2458;0,0371453
1396,2101;0,0371863
1397,1743;0,0371855
1398,1385;0,037151
1399,1028;0,0371201
1400,0670;0,0371332
1401,0313;0,0372099
1401,9955;0,0373441
1402,9597;0,0375161
1403,9240;0,0377069
1404,8882;0,0379084
1405,8524;0,0381268
1406,8167;0,0383761
1407,7809;0,0386649
1408,7451;0,0389903
1409,7094;0,039346
1410,6736;0,0397294
1411,6378;0,0401394
1412,6021;0,0405678
1413,5663;0,0409953
1414,5305;0,0413999
1415,4948;0,0417715
1416,4590;0,0421137
1417,4232;0,0424208
1418,3875;0,0426688
1419,3517;0,0428578
1420,3159;0,043031
1421,2802;0,0432052
1422,2444;0,0433316
1423,2086;0,0433411
1424,1729;0,0432015
1425,1371;0,0429329
1426,1013;0,0425816
1427,0656;0,0421827
1428,0298;0,041745
1428,9940;0,0412655
1429,9583;0,0407554
1430,9225;0,0402443
1431,8867;0,0397501
1432,8510;0,039254
1433,8152;0,0387143
1434,7794;0,0381021
1435,7437;0,037434
1436,7079;0,0368015
1437,6721;0,0363456
1438,6364;0,0361447
1439,6006;0,0361477
1440,5648;0,0362443
1441,5291;0,0363584
1442,4933;0,0364757
1443,4575;0,0366189
1444,4218;0,0368089
1445,3860;0,0370422
1446,3502;0,0372944
1447,3145;0,0375414
1448,2787;0,037779
1449,2429;0,0380225
1450,2072;0,0382774
1451,1714;0,0385147
1452,1356;0,038682
1453,0999;0,0387484
1454,0641;0,0387436
1455,0283;0,0387433
1455,9926;0,0387532
1456,9568;0,0386283
1457,9210;0,0383475
1458,8853;0,0381598
1459,8495;0,0381793
1460,8137;0,038275
1461,7780;0,0382819
1462,7422;0,0381088
1463,7064;0,0377303
1464,6707;0,0371762
1465,6349;0,0365431
1466,5991;0,035945
1467,5634;0,0354119
1468,5276;0,0348828
1469,4918;0,0342831
1470,4561;0,0335721
1471,4203;0,0327234
1472,3845;0,0317044
1473,3488;0,0305534
1474,3130;0,0294473
1475,2772;0,0285579
1476,2415;0,0279094
1477,2057;0,0274304
1478,1699;0,0270465
1479,1342;0,0267131
1480,0984;0,0264113
1481,0626;0,0261404
1482,0269;0,0259154
1482,9911;0,0257592
1483,9553;0,0256908
1484,9196;0,0257194
1485,8838;0,0258481
1486,8480;0,0260637
1487,8123;0,0263007
1488,7765;0,026438
1489,7407;0,0264212
1490,7050;0,0263576
1491,6692;0,0263814
1492,6334;0,0265227
1493,5977;0,0267517
1494,5619;0,0270595
1495,5261;0,0274701
1496,4904;0,0279889
1497,4546;0,0285643
1498,4188;0,0291377
1499,3831;0,0296912
1500,3473;0,0301965
1501,3115;0,0305832
1502,2758;0,0307892
1503,2400;0,0308326
1504,2042;0,0308557
1505,1685;0,0310725
1506,1327;0,0314903
1507,0969;0,0316639
1508,0612;0,0313213
1509,0254;0,0308216
1509,9896;0,0304455
1510,9539;0,0301631
1511,9181;0,0298824
1512,8823;0,0295671
1513,8466;0,0292221
1514,8108;0,0288503
1515,7750;0,0284343
1516,7393;0,0279542
1517,7035;0,0274122
1518,6677;0,0268332
1519,6320;0,0262485
1520,5962;0,0256894
1521,5604;0,0251952
1522,5247;0,0248073
1523,4889;0,0245333
1524,4531;0,0243348
1525,4174;0,0241647
1526,3816;0,0240106
1527,3458;0,0238946
1528,3101;0,0238371
1529,2743;0,0238332
1530,2385;0,0238659
1531,2028;0,0239287
1532,1670;0,0240213
1533,1312;0,0241304
1534,0955;0,0242316
1535,0597;0,0242991
1536,0239;0,0243102
1536,9882;0,0242815
1537,9524;0,0243224
1538,9166;0,0246023
1539,8809;0,0251117
1540,8451;0,0254648
1541,8093;0,0254036
1542,7736;0,0251753
1543,7378;0,0250197
1544,7020;0,0249623
1545,6663;0,0249734
1546,6305;0,0250401
1547,5947;0,025152
1548,5590;0,0252848
1549,5232;0,0254096
1550,4874;0,025514
1551,4517;0,0256074
1552,4159;0,0257034
1553,3801;0,0257933
1554,3444;0,0258452
1555,3086;0,0258423
1556,2728;0,0258096
1557,2371;0,0257413
1558,2013;0,025481
1559,1655;0,0250478
1560,1298;0,0249349
1561,0940;0,0253691
1562,0582;0,0260938
1563,0225;0,0268093
1563,9867;0,0273661
1564,9509;0,0277421
1565,9152;0,0279866
1566,8794;0,0281736
1567,8436;0,0283653
1568,8079;0,0285929
1569,7721;0,0288643
1570,7363;0,0291736
1571,7006;0,0294948
1572,6648;0,0298
1573,6290;0,0300991
1574,5933;0,0304406
1575,5575;0,0308476
1576,5217;0,0312743
1577,4860;0,0316824
1578,4502;0,0320916
1579,4144;0,0325117
1580,3787;0,032921
1581,3429;0,0333085
1582,3071;0,0336903
1583,2714;0,0340941
1584,2356;0,0345379
1585,1998;0,0350228
1586,1641;0,0355349
1587,1283;0,0360511
1588,0925;0,036544
1589,0568;0,0369878
1590,0210;0,0373635
1590,9852;0,0376594
1591,9495;0,0378652
1592,9137;0,0379672
1593,8779;0,0379523
1594,8422;0,0378217
1595,8064;0,0376004
1596,7706;0,0373316
1597,7349;0,037058
1598,6991;0,0368047
1599,6633;0,036575
1600,6276;0,0363578
1601,5918;0,0361415
1602,5560;0,0359262
1603,5203;0,0357253
1604,4845;0,0355539
1605,4487;0,0354131
1606,4130;0,0352844
1607,3772;0,0351397
1608,3414;0,034962
1609,3057;0,0347631
1610,2699;0,0345765
1611,2341;0,0344229
1612,1984;0,0342921
1613,1626;0,0341621
1614,1268;0,0340271
1615,0911;0,0338979
1616,0553;0,033787
1617,0195;0,0337277
1617,9838;0,0337737
1618,9480;0,033926
1619,9122;0,0341131
1620,8765;0,034259
1621,8407;0,0343308
1622,8049;0,0343358
1623,7692;0,0343028
1624,7334;0,0342665
1625,6976;0,0342478
1626,6619;0,0342451
1627,6261;0,0342498
1628,5903;0,0342615
1629,5546;0,0342779
1630,5188;0,0342793
1631,4830;0,0342386
1632,4473;0,0341576
1633,4115;0,0340882
1634,3757;0,0340819
1635,3400;0,0340954
1636,3042;0,0340479
1637,2684;0,0339926
1638,2327;0,0340258
1639,1969;0,034135
1640,1611;0,034245
1641,1254;0,0342979
1642,0896;0,0342781
1643,0538;0,034213
1644,0181;0,0341606
1644,9823;0,0341626
1645,9465;0,0341778
1646,9108;0,0341196
1647,8750;0,0339705
1648,8392;0,0337474
1649,8035;0,0334303
1650,7677;0,0330121
1651,7319;0,0325248
1652,6962;0,0319602
1653,6604;0,0313662
1654,6246;0,0310559
1655,5889;0,0311785
1656,5531;0,0315004
1657,5173;0,0317493
1658,4816;0,031802
1659,4458;0,0316616
1660,4100;0,031386
1661,3743;0,031033
1662,3385;0,0306568
1663,3027;0,0303243
1664,2670;0,0300809
1665,2312;0,0299145
1666,1954;0,0297793
1667,1597;0,0296354
1668,1239;0,0294506
1669,0881;0,0291895
1670,0524;0,0288437
1671,0166;0,0284563
1671,9808;0,0280641
1672,9451;0,0276539
1673,9093;0,02721
1674,8735;0,0267773
1675,8378;0,026463
1676,8020;0,0263564
1677,7662;0,0264375
1678,7305;0,0265812
1679,6947;0,0266452
1680,6589;0,0265438
1681,6232;0,0262585
1682,5874;0,025797
1683,5516;0,0251955
1684,5159;0,0246273
1685,4801;0,0243352
1686,4443;0,0243507
1687,4086;0,0244998
1688,3728;0,0246046
1689,3370;0,0245821
1690,3013;0,0244369
1691,2655;0,0242223
1692,2297;0,0240084
1693,1940;0,0238635
1694,1582;0,023836
1695,1224;0,0239219
1696,0867;0,0240349
1697,0509;0,0240311
1698,0151;0,023817
1698,9794;0,0234688
1699,9436;0,0232175
1700,9078;0,0232679
1701,8721;0,0236366
1702,8363;0,0241746
1703,8005;0,0246961
1704,7648;0,0250777
1705,7290;0,025294
1706,6932;0,0254109
1707,6575;0,0255372
1708,6217;0,0257534
1709,5859;0,0260734
1710,5502;0,0264624
1711,5144;0,0268775
1712,4786;0,0272937
1713,4429;0,0277081
1714,4071;0,0281212
1715,3713;0,0284909
1716,3356;0,0287108
1717,2998;0,0287337
1718,2640;0,0287143
1719,2283;0,0288497
1720,1925;0,0291688
1721,1567;0,0295728
1722,1210;0,0299576
1723,0852;0,0302708
1724,0494;0,0305157
1725,0137;0,0307342
1725,9779;0,0309784
1726,9421;0,0312763
1727,9064;0,0316123
1728,8706;0,0319333
1729,8348;0,0321746
1730,7991;0,0322817
1731,7633;0,0322154
1732,7275;0,031958
1733,6918;0,0315705
1734,6560;0,0312176
1735,6202;0,031026
1736,5845;0,0309578
1737,5487;0,0308827
1738,5129;0,0307007
1739,4772;0,03039
1740,4414;0,0299954
1741,4056;0,0295856
1742,3699;0,0292061
1743,3341;0,028856
1744,2983;0,0285037
1745,2626;0,0281152
1746,2268;0,0276605
1747,1910;0,0270948
1748,1553;0,0263499
1749,1195;0,0253858
1750,0837;0,0242865
1751,0480;0,0232538
1752,0122;0,0224521
1752,9764;0,0218962
1753,9407;0,0214934
1754,9049;0,0211384
1755,8691;0,0207715
1756,8334;0,0203844
1757,7976;0,0199944
1758,7618;0,0196102
1759,7261;0,0192173
1760,6903;0,0187971
1761,6545;0,0183588
1762,6188;0,0179478
1763,5830;0,0176143
1764,5472;0,0173749
1765,5115;0,0172088
1766,4757;0,0170833
1767,4399;0,0169773
1768,4042;0,0168828
1769,3684;0,0167877
1770,3326;0,0166593
1771,2969;0,0164544
1772,2611;0,0161726
1773,2253;0,0158909
1774,1896;0,0157049
1775,1538;0,0156414
1776,1180;0,0156541
1777,0823;0,0156796
1778,0465;0,0156779
1779,0107;0,0156376
1779,9750;0,0155622
1780,9392;0,015458
1781,9034;0,01533
1782,8677;0,0151873
1783,8319;0,0150508
1784,7961;0,0149514
1785,7604;0,0149151
1786,7246;0,0149438
1787,6888;0,0150142
1788,6531;0,0150957
1789,6173;0,0151683
1790,5815;0,0152194
1791,5458;0,0152328
1792,5100;0,0152056
1793,4742;0,0151727
1794,4385;0,0151726
1795,4027;0,0152001
1796,3669;0,0152184
1797,3312;0,0151993
1798,2954;0,0151407
1799,2596;0,0150574
1800,2239;0,014966
1801,1881;0,0148793
1802,1523;0,0148084
1803,1166;0,0147618
1804,0808;0,0147434
1805,0450;0,0147535
1806,0093;0,0147896
1806,9735;0,0148445
1807,9377;0,014903
1808,9020;0,0149416
1809,8662;0,0149386
1810,8304;0,0148892
1811,7947;0,014812
1812,7589;0,0147346
1813,7231;0,0146733
1814,6874;0,0146268
1815,6516;0,0145848
1816,6158;0,0145398
1817,5801;0,014495
1818,5443;0,0144633
1819,5085;0,0144586
1820,4728;0,0144851
1821,4370;0,014534
1822,4012;0,0145909
1823,3655;0,0146435
1824,3297;0,014688
1825,2939;0,0147296
1826,2582;0,0147724
1827,2224;0,0148063
1828,1866;0,0148037
1829,1509;0,0147373
1830,1151;0,0146119
1831,0793;0,0144786
1832,0436;0,0143989
1833,0078;0,0143983
1833,9720;0,0144595
1834,9363;0,0145496
1835,9005;0,0146404
1836,8647;0,0147154
1837,8290;0,0147684
1838,7932;0,0147979
1839,7574;0,0148025
1840,7217;0,0147863
1841,6859;0,0147667
1842,6501;0,0147679
1843,6144;0,0147987
1844,5786;0,014843
1845,5428;0,0148759
1846,5071;0,0148759
1847,4713;0,0148255
1848,4355;0,0147201
1849,3998;0,0145801
1850,3640;0,0144472
1851,3282;0,0143627
1852,2925;0,014344
1853,2567;0,0143766
1854,2209;0,0144274
1855,1852;0,0144651
1856,1494;0,0144732
1857,1136;0,0144506
1858,0779;0,0144045
1859,0421;0,0143456
1860,0063;0,0142896
1860,9706;0,014258
1861,9348;0,0142734
1862,8990;0,0143483
1863,8633;0,0144781
1864,8275;0,0146428
1865,7917;0,0148113
1866,7560;0,0149419
1867,7202;0,0149882
1868,6844;0,0149302
1869,6487;0,0148037
1870,6129;0,0146757
1871,5771;0,014589
1872,5414;0,0145457
1873,5056;0,0145296
1874,4698;0,0145286
1875,4341;0,014537
1876,3983;0,0145509
1877,3625;0,0145647
1878,3268;0,0145743
1879,2910;0,01458
1880,2552;0,014587
1881,2195;0,014602
1882,1837;0,0146291
1883,1479;0,0146668
1884,1122;0,0147095
1885,0764;0,0147491
1886,0406;0,0147781
1887,0049;0,0147906
1887,9691;0,0147835
1888,9333;0,0147596
1889,8976;0,0147299
1890,8618;0,0147092
1891,8260;0,0147037
1892,7903;0,0147042
1893,7545;0,0146915
1894,7188;0,0146491
1895,6830;0,0145763
1896,6472;0,0144916
1897,6115;0,0144228
1898,5757;0,0143913
1899,5399;0,0144019
1900,5042;0,0144445
1901,4684;0,0145027
1902,4326;0,0145627
1903,3969;0,0146171
1904,3611;0,0146652
1905,3253;0,0147087
1906,2896;0,0147486
1907,2538;0,0147833
1908,2180;0,0148079
1909,1823;0,0148159
1910,1465;0,0148032
1911,1107;0,0147729
1912,0750;0,0147356
1913,0392;0,0147082
1914,0034;0,0147108
1914,9677;0,014762
1915,9319;0,0148667
1916,8961;0,0150049
1917,8604;0,0151352
1918,8246;0,0152192
1919,7888;0,0152428
1920,7531;0,0152187
1921,7173;0,0151702
1922,6815;0,0151153
1923,6458;0,0150582
1924,6100;0,0149942
1925,5742;0,0149213
1926,5385;0,0148496
1927,5027;0,014798
1928,4669;0,0147811
1929,4312;0,0147938
1930,3954;0,0148063
1931,3596;0,0147784
1932,3239;0,0146868
1933,2881;0,0145455
1934,2523;0,0144016
1935,2166;0,014307
1936,1808;0,0142859
1937,1450;0,0143203
1938,1093;0,014365
1939,0735;0,0143788
1940,0377;0,0143504
1941,0020;0,0143029
1941,9662;0,014278
1942,9304;0,0143105
1943,8947;0,0144109
1944,8589;0,0145671
1945,8231;0,0147584
1946,7874;0,0149651
1947,7516;0,0151669
1948,7158;0,0153361
1949,6801;0,0154378
1950,6443;0,0154427
1951,6085;0,0153482
1952,5728;0,0151907
1953,5370;0,0150391
1954,5012;0,0149689
1955,4655;0,0150284
1956,4297;0,0152155
1957,3939;0,0154774
1958,3582;0,0157332
1959,3224;0,0159076
1960,2866;0,0159586
1961,2509;0,0158867
1962,2151;0,0157225
1963,1793;0,0155061
1964,1436;0,0152736
1965,1078;0,0150566
1966,0720;0,0148845
1967,0363;0,0147788
1968,0005;0,0147396
1968,9647;0,0147394
1969,9290;0,0147341
1970,8932;0,0146869
1971,8574;0,014588
1972,8217;0,0144576
1973,7859;0,0143334
1974,7501;0,0142524
1975,7144;0,0142406
1976,6786;0,0143105
1977,6428;0,0144613
1978,6071;0,0146739
1979,5713;0,014908
1980,5355;0,0151101
1981,4998;0,0152318
1982,4640;0,0152513
1983,4282;0,0151865
1984,3925;0,0150939
1985,3567;0,0150514
1986,3209;0,0151306
1987,2852;0,0153671
1988,2494;0,0157389
1989,2136;0,0161602
1990,1779;0,0164988
1991,1421;0,0166251
1992,1063;0,0164816
1993,0706;0,0161301
1994,0348;0,0157297
1994,9990;0,0154565
1995,9633;0,0154183
1996,9275;0,0156131
1997,8917;0,0159422
1998,8560;0,016266
1999,8202;0,0164714
2000,7844;0,0165119
2001,7487;0,0164026
2002,7129;0,016188
2003,6771;0,0159198
2004,6414;0,0156593
2005,6056;0,0154843
2006,5698;0,015471
2007,5341;0,0156446
2008,4983;0,0159419
2009,4625;0,0162294
2010,4268;0,0163771
2011,3910;0,0163338
2012,3552;0,0161469
2013,3195;0,0159204
2014,2837;0,0157461
2015,2479;0,015657
2016,2122;0,015632
2017,1764;0,0156396
2018,1406;0,0156776
2019,1049;0,0157736
2020,0691;0,0159511
2021,0333;0,0162003
2021,9976;0,0164801
2022,9618;0,0167447
2023,9260;0,0169679
2024,8903;0,0171459
2025,8545;0,0172801
2026,8187;0,0173617
2027,7830;0,0173755
2028,7472;0,0173202
2029,7114;0,017223
2030,6757;0,0171306
2031,6399;0,01708
2032,6041;0,0170705
2033,5684;0,0170627
2034,5326;0,0170091
2035,4968;0,0168932
2036,4611;0,0167469
2037,4253;0,0166353
2038,3895;0,016616
2039,3538;0,0166996
2040,3180;0,0168332
2041,2822;0,0169175
2042,2465;0,0168558
2043,2107;0,0166083
2044,1749;0,0162209
2045,1392;0,0158102
2046,1034;0,0155101
2047,0676;0,0154051
2048,0320;0,0154857
2048,9961;0,0156598
2049,9604;0,0158154
2050,9246;0,0158871
2051,8889;0,0158847
2052,8530;0,0158761
2053,8174;0,0159441
2054,7815;0,0161399
2055,7458;0,0164537
2056,7100;0,0168156
2057,6743;0,0171275
2058,6384;0,0173064
2059,6028;0,0173174
2060,5669;0,0171835
2061,5313;0,0169717
2062,4954;0,0167646
2063,4597;0,0166297
2064,4238;0,0165967
2065,3882;0,0166521
2066,3523;0,0167512
2067,3167;0,0168409
2068,2808;0,0168818
2069,2451;0,0168599
2070,2092;0,0167866
2071,1736;0,0166895
2072,1377;0,0165983
2073,1021;0,0165324
2074,0662;0,0164921
2075,0305;0,0164584
2075,9946;0,016402
2076,9590;0,0162979
2077,9231;0,0161405
2078,8875;0,0159487
2079,8516;0,0157588
2080,8159;0,0156089
2081,7800;0,0155218
2082,7444;0,015499
2083,7085;0,015525
2084,6729;0,0155801
2085,6370;0,0156494
2086,6013;0,0157238
2087,5654;0,0157944
2088,5298;0,0158498
2089,4939;0,01588
2090,4583;0,0158872
2091,4224;0,0158919
2092,3867;0,0159275
2093,3508;0,016023
2094,3152;0,0161841
2095,2793;0,0163866
2096,2437;0,016588
2097,2078;0,0167512
2098,1721;0,0168619
2099,1362;0,0169306
2100,1006;0,0169789
2101,0647;0,0170205
2102,0291;0,0170619
2102,9932;0,0171024
2103,9575;0,017143
2104,9216;0,017189
2105,8860;0,0172427
2106,8501;0,0172954
2107,8145;0,0173243
2108,7786;0,0172999
2109,7429;0,0172002
2110,7070;0,0170227
2111,6714;0,0167878
2112,6355;0,0165324
2113,5999;0,0162967
2114,5640;0,0161114
2115,5283;0,0159902
2116,4924;0,0159284
2117,4568;0,0159091
2118,4209;0,015911
2119,3853;0,0159172
2120,3494;0,0159195
2121,3137;0,0159175
2122,2778;0,0159137
2123,2422;0,015908
2124,2063;0,0158969
2125,1707;0,0158774
2126,1348;0,0158557
2127,0991;0,0158521
2128,0632;0,0158991
2129,0276;0,0160302
2129,9917;0,0162639
2130,9561;0,0165916
2131,9202;0,0169742
2132,8845;0,0173538
2133,8486;0,0176734
2134,8130;0,0178999
2135,7771;0,0180332
2136,7415;0,0180982
2137,7056;0,0181255
2138,6699;0,0181354
2139,6340;0,018139
2140,5984;0,0181528
2141,5625;0,0182112
2142,5269;0,0183608
2143,4910;0,018631
2144,4553;0,0189977
2145,4194;0,0193665
2146,3838;0,0195975
2147,3479;0,0195675
2148,3123;0,0192374
2149,2764;0,0186795
2150,2407;0,0180457
2151,2048;0,0174912
2152,1692;0,0170981
2153,1333;0,0168397
2154,0977;0,0166002
2155,0618;0,0162315
2156,0261;0,0156221
2156,9902;0,0147575
2157,9546;0,0137508
2158,9187;0,0128133
2159,8831;0,0121625
2160,8472;0,0119252
2161,8115;0,0121031
2162,7756;0,0126023
2163,7400;0,0132805
2164,7041;0,0139892
2165,6685;0,014611
2166,6326;0,0150868
2167,5969;0,0154231
2168,5610;0,0156727
2169,5254;0,0159035
2170,4895;0,0161705
2171,4539;0,0165029
2172,4180;0,0169039
2173,3823;0,0173581
2174,3464;0,0178426
2175,3108;0,0183381
2176,2749;0,0188378
2177,2393;0,0193452
2178,2034;0,0198594
2179,1677;0,0203523
2180,1318;0,0207562
2181,0962;0,0209763
2182,0603;0,0209353
2183,0247;0,0206271
2183,9888;0,020142
2184,9531;0,0196377
2185,9172;0,0192692
2186,8816;0,0191156
2187,8457;0,019146
2188,8101;0,0192379
2189,7742;0,0192373
2190,7385;0,0190262
2191,7026;0,0185655
2192,6670;0,0178992
2193,6311;0,0171266
2194,5955;0,0163645
2195,5596;0,015714
2196,5239;0,0152409
2197,4880;0,0149659
2198,4524;0,0148625
2199,4165;0,0148646
2200,3809;0,0148863
2201,3450;0,0148541
2202,3093;0,0147395
2203,2734;0,0145747
2204,2378;0,0144387
2205,2019;0,0144181
2206,1663;0,0145636
2207,1304;0,0148666
2208,0947;0,0152691
2209,0588;0,015699
2210,0232;0,016105
2210,9873;0,0164695
2211,9517;0,0167922
2212,9158;0,0170635
2213,8801;0,0172507
2214,8442;0,0173133
2215,8086;0,0172397
2216,7727;0,0170758
2217,7371;0,0169224
2218,7012;0,0168925
2219,6655;0,0170533
2220,6296;0,0173861
2221,5940;0,0177898
2222,5581;0,0181257
2223,5225;0,0182776
2224,4866;0,0181972
2225,4509;0,0179152
2226,4150;0,0175215
2227,3794;0,0171288
2228,3435;0,0168377
2229,3079;0,0167089
2230,2720;0,0167474
2231,2363;0,016901
2232,2004;0,0170747
2233,1648;0,0171632
2234,1289;0,017091
2235,0933;0,0168443
2236,0574;0,0164774
2237,0217;0,0160883
2237,9858;0,0157765
2238,9502;0,0156041
2239,9143;0,0155801
2240,8787;0,0156696
2241,8428;0,0158179
2242,8071;0,0159728
2243,7712;0,016097
2244,7356;0,0161689
2245,6997;0,0161799
2246,6641;0,0161329
2247,6282;0,0160415
2248,5925;0,0159301
2249,5566;0,0158311
2250,5210;0,0157815
2251,4851;0,0158169
2252,4495;0,0159627
2253,4136;0,0162225
2254,3779;0,0165669
2255,3420;0,0169332
2256,3064;0,0172392
2257,2705;0,0174125
2258,2349;0,0174193
2259,1990;0,0172803
2260,1633;0,0170639
2261,1274;0,0168586
2262,0918;0,0167386
2263,0559;0,0167365
2264,0203;0,0168352
2264,9844;0,0169806
2265,9487;0,0171066
2266,9128;0,0171617
2267,8772;0,0171248
2268,8413;0,0170083
2269,8057;0,0168496
2270,7698;0,0166951
2271,7341;0,0165844
2272,6982;0,0165363
2273,6626;0,0165431
2274,6267;0,0165742
2275,5911;0,0165895
2276,5552;0,016557
2277,5195;0,0164677
2278,4836;0,0163397
2279,4480;0,0162099
2280,4121;0,0161179
2281,3765;0,0160907
2282,3406;0,0161357
2283,3049;0,0162427
2284,2690;0,0163925
2285,2334;0,0165627
2286,1975;0,0167324
2287,1619;0,016884
2288,1260;0,0170061
2289,0903;0,0170973
2290,0544;0,0171669
2291,0188;0,0172322
2291,9829;0,0173108
2292,9473;0,0174139
2293,9114;0,0175421
2294,8757;0,017687
2295,8398;0,0178336
2296,8042;0,0179633
2297,7683;0,0180542
2298,7327;0,0180831
2299,6968;0,0180313
2300,6611;0,0178946
2301,6252;0,0176917
2302,5896;0,017464
2303,5537;0,017265
2304,5181;0,0171407
2305,4822;0,0171091
2306,4465;0,0171484
2307,4106;0,017201
2308,3750;0,017194
2309,3391;0,0170696
2310,3035;0,0168114
2311,2676;0,0164524
2312,2319;0,0160604
2313,1960;0,0157067
2314,1604;0,0154353
2315,1245;0,0152509
2316,0889;0,0151281
2317,0530;0,0150354
2318,0173;0,0149563
2318,9814;0,0149005
2319,9458;0,0149005
2320,9099;0,0149984
2321,8743;0,0152253
2322,8384;0,0155775
2323,8027;0,0160005
2324,7668;0,016395
2325,7312;0,0166511
2326,6953;0,0166955
2327,6597;0,0165289
2328,6238;0,0162357
2329,5881;0,0159583
2330,5522;0,0158416
2331,5166;0,0159679
2332,4807;0,0163199
2333,4451;0,0167929
2334,4092;0,01725
2335,3735;0,0175826
2336,3376;0,0177491
2337,3020;0,0177811
2338,2661;0,0177593
2339,2305;0,0177646
2340,1946;0,0178186
2341,1589;0,0178421
2342,1230;0,01768
2343,0874;0,0172463
2344,0515;0,0167262
2345,0159;0,0165315
2345,9800;0,0169122
2346,9443;0,0176978
2347,9084;0,0184575
2348,8728;0,0188099
2349,8369;0,0186143
2350,8013;0,0180036
2351,7654;0,0172934
2352,7297;0,0168035
2353,6938;0,0166825
2354,6582;0,016888
2355,6223;0,0173201
2356,5867;0,0179072
2357,5508;0,018557
2358,5151;0,0191093
2359,4792;0,0193977
2360,4436;0,0193582
2361,4077;0,0190536
2362,3721;0,0185995
2363,3362;0,0180865
2364,3005;0,0175623
2365,2646;0,0170465
2366,2290;0,0165375
2367,1931;0,0160124
2368,1575;0,0154376
2369,1216;0,0147976
2370,0859;0,0141177
2371,0500;0,0134648
2372,0144;0,0129271
2372,9785;0,0125857
2373,9429;0,0124926
2374,9070;0,0126576
2375,8713;0,0130477
2376,8354;0,0135959
2377,7998;0,014219
2378,7639;0,0148363
2379,7283;0,0153839
2380,6924;0,0158206
2381,6567;0,016127
2382,6208;0,0163015
2383,5852;0,0163573
2384,5493;0,0163198
2385,5137;0,0162245
2386,4778;0,0161119
2387,4421;0,0160192
2388,4063;0,0159712
2389,3706;0,0159732
2390,3347;0,016011
2391,2991;0,0160584
2392,2632;0,01609
2393,2275;0,0160935
2394,1917;0,0160746
2395,1560;0,0160529
2396,1201;0,0160516
2397,0845;0,0160861
2398,0486;0,0161593
2399,0129;0,0162582
2399,9771;0,0163612
2400,9414;0,0164468
2401,9055;0,0164999
2402,8699;0,0165179
2403,8340;0,0165112
2404,7983;0,0165
2405,7625;0,0165069
2406,7268;0,016548
2407,6909;0,0166251
2408,6553;0,0167237
2409,6194;0,0168166
2410,5837;0,0168758
2411,5479;0,0168839
2412,5122;0,0168424
2413,4763;0,0167713
2414,4407;0,0166987
2415,4048;0,0166475
2416,3691;0,0166243
2417,3333;0,0166179
2418,2976;0,0166081
2419,2617;0,0165784
2420,2261;0,0165255
2421,1902;0,0164594
2422,1545;0,016397
2423,1187;0,0163516
2424,0830;0,0163279
2425,0471;0,0163219
2426,0115;0,0163262
2426,9756;0,0163345
2427,9399;0,0163435
2428,9041;0,016352
2429,8684;0,016359
2430,8325;0,0163632
2431,7969;0,0163642
2432,7610;0,016364
2433,7253;0,0163675
2434,6895;0,0163817
2435,6538;0,0164137
2436,6179;0,0164684
2437,5823;0,0165466
2438,5464;0,0166441
2439,5107;0,0167524
2440,4749;0,016861
2441,4392;0,0169604
2442,4033;0,0170444
2443,3677;0,0171102
2444,3318;0,0171582
2445,2961;0,0171908
2446,2603;0,0172126
2447,2246;0,0172303
2448,1887;0,0172518
2449,1531;0,0172833
2450,1172;0,0173249
2451,0815;0,0173692
2452,0457;0,0174029
2453,0100;0,0174132
2453,9741;0,0173948
2454,9385;0,0173534
2455,9026;0,0173034
2456,8669;0,0172591
2457,8311;0,0172275
2458,7954;0,0172039
2459,7595;0,0171753
2460,7239;0,0171287
2461,6880;0,0170596
2462,6523;0,0169752
2463,6165;0,0168916
2464,5808;0,0168264
2465,5449;0,0167917
2466,5093;0,0167901
2467,4734;0,0168152
2468,4377;0,0168549
2469,4019;0,0168948
2470,3662;0,0169224
2471,3303;0,0169301
2472,2947;0,016919
2473,2588;0,0169006
2474,2231;0,0168942
2475,1873;0,0169199
2476,1516;0,0169893
2477,1157;0,017098
2478,0801;0,0172257
2479,0442;0,0173439
2480,0085;0,0174289
2480,9727;0,0174713
2481,9370;0,0174792
2482,9011;0,0174721
2483,8655;0,0174714
2484,8296;0,0174911
2485,7939;0,017534
2486,7581;0,0175931
2487,7224;0,0176559
2488,6865;0,0177091
2489,6509;0,0177415
2490,6150;0,0177466
2491,5793;0,0177242
2492,5435;0,0176812
2493,5078;0,0176308
2494,4719;0,0175882
2495,4363;0,0175648
2496,4004;0,0175629
2497,3647;0,0175732
2498,3289;0,0175781
2499,2932;0,017559
2500,2573;0,0175046
2501,2217;0,0174173
2502,1858;0,0173132
2503,1501;0,017216
2504,1143;0,0171485
2505,0786;0,0171233
2506,0427;0,0171386
2507,0071;0,017181
2507,9712;0,0172325
2508,9355;0,0172788
2509,8997;0,0173148
2510,8640;0,0173433
2511,8281;0,01737
2512,7925;0,0173979
2513,7566;0,0174246
2514,7209;0,0174462
2515,6851;0,0174619
2516,6494;0,0174782
2517,6135;0,0175066
2518,5779;0,0175576
2519,5420;0,0176326
2520,5063;0,0177211
2521,4705;0,0178041
2522,4348;0,0178624
2523,3989;0,0178852
2524,3633;0,0178747
2525,3274;0,0178439
2526,2917;0,0178101
2527,2559;0,0177874
2528,2202;0,0177823
2529,1843;0,017793
2530,1487;0,0178132
2531,1128;0,0178354
2532,0771;0,0178536
2533,0413;0,0178628
2534,0056;0,0178581
2534,9697;0,0178344
2535,9341;0,0177889
2536,8982;0,0177238
2537,8625;0,0176478
2538,8267;0,017573
2539,7910;0,0175101
2540,7551;0,0174627
2541,7195;0,0174275
2542,6836;0,0173988
2543,6479;0,0173739
2544,6121;0,0173559
2545,5764;0,0173498
2546,5405;0,017356
2547,5049;0,0173668
2548,4690;0,01737
2549,4333;0,0173575
2550,3975;0,017334
2551,3618;0,0173174
2552,3259;0,0173307
2553,2903;0,0173895
2554,2544;0,0174929
2555,2188;0,0176234
2556,1829;0,0177543
2557,1472;0,0178602
2558,1113;0,0179246
2559,0757;0,017944
2560,0398;0,0179269
2561,0042;0,0178925
2561,9683;0,0178664
2562,9326;0,0178736
2563,8967;0,0179299
2564,8611;0,0180337
2565,8252;0,0181644
2566,7896;0,0182887
2567,7537;0,0183738
2568,7180;0,0184
2569,6821;0,0183682
2570,6465;0,0182973
2571,6106;0,0182145
2572,5750;0,0181427
2573,5391;0,0180904
2574,5034;0,0180509
2575,4675;0,0180077
2576,4319;0,0179459
2577,3960;0,0178614
2578,3604;0,0177653
2579,3245;0,0176778
2580,2888;0,0176185
2581,2529;0,0175956
2582,2173;0,0176029
2583,1814;0,0176236
2584,1458;0,0176399
2585,1099;0,0176419
2586,0742;0,0176312
2587,0383;0,0176184
2588,0027;0,017617
2588,9668;0,0176367
2589,9312;0,0176788
2590,8953;0,0177343
2591,8596;0,0177868
2592,8237;0,0178191
2593,7881;0,0178225
2594,7522;0,0178035
2595,7166;0,0177845
2596,6807;0,0177952
2597,6450;0,0178585
2598,6091;0,0179783
2599,5735;0,0181348
2600,5376;0,0182917
2601,5020;0,0184096
2602,4661;0,0184621
2603,4304;0,0184454
2604,3945;0,0183807
2605,3589;0,0183068
2606,3230;0,0182667
2607,2874;0,0182901
2608,2515;0,018381
2609,2158;0,0185138
2610,1799;0,0186433
2611,1443;0,0187241
2612,1084;0,0187306
2613,0728;0,0186669
2614,0369;0,0185617
2615,0012;0,0184515
2615,9653;0,0183627
2616,9297;0,0183018
2617,8938;0,018259
2618,8582;0,01822
2619,8223;0,0181784
2620,7866;0,0181403
2621,7507;0,0181197
2622,7151;0,0181263
2623,6792;0,0181559
2624,6436;0,0181879
2625,6077;0,018193
2626,5720;0,0181491
2627,5361;0,0180556
2628,5005;0,0179402
2629,4646;0,0178504
2630,4290;0,0178343
2631,3931;0,0179167
2632,3574;0,0180846
2633,3215;0,0182886
2634,2859;0,0184615
2635,2500;0,0185464
2636,2144;0,0185213
2637,1785;0,0184089
2638,1428;0,0182677
2639,1069;0,0181673
2640,0713;0,0181592
2641,0354;0,0182556
2641,9998;0,018425
2642,9639;0,018607
2643,9282;0,0187385
2644,8923;0,0187802
2645,8567;0,0187308
2646,8208;0,0186254
2647,7852;0,0185169
2648,7493;0,0184529
2649,7136;0,0184564
2650,6777;0,0185197
2651,6421;0,0186126
2652,6062;0,0186996
2653,5706;0,018756
2654,5347;0,0187756
2655,4990;0,018768
2656,4631;0,0187485
2657,4275;0,0187286
2658,3916;0,018712
2659,3560;0,0186976
2660,3201;0,0186859
2661,2844;0,0186833
2662,2485;0,0187001
2663,2129;0,0187447
2664,1770;0,0188163
2665,1414;0,0189023
2666,1055;0,0189815
2667,0698;0,0190332
2668,0339;0,0190472
2668,9983;0,0190293
2669,9624;0,0190007
2670,9268;0,0189894
2671,8909;0,0190177
2672,8552;0,019091
2673,8193;0,0191933
2674,7837;0,0192932
2675,7478;0,0193574
2676,7122;0,0193662
2677,6763;0,0193228
2678,6406;0,0192526
2679,6047;0,0191909
2680,5691;0,0191665
2681,5332;0,0191885
2682,4976;0,0192434
2683,4617;0,0193033
2684,4260;0,0193404
2685,3901;0,0193401
2686,3545;0,0193061
2687,3186;0,0192558
2688,2830;0,0192104
2689,2471;0,0191837
2690,2114;0,0191778
2691,1755;0,019185
2692,1399;0,0191956
2693,1040;0,0192037
2694,0684;0,0192109
2695,0325;0,0192235
2695,9968;0,0192473
2696,9609;0,0192832
2697,9253;0,0193259
2698,8894;0,0193658
2699,8538;0,0193936
2700,8179;0,0194044
2701,7822;0,0194004
2702,7463;0,0193911
2703,7107;0,019389
2704,6748;0,0194043
2705,6392;0,0194397
2706,6033;0,0194883
2707,5676;0,0195371
2708,5317;0,0195739
2709,4961;0,0195933
2710,4602;0,0195999
2711,4246;0,0196044
2712,3887;0,019618
2713,3530;0,0196455
2714,3171;0,0196838
2715,2815;0,0197242
2716,2456;0,0197574
2717,2100;0,0197779
2718,1741;0,0197858
2719,1384;0,0197864
2720,1025;0,0197867
2721,0669;0,0197928
2722,0310;0,0198075
2722,9954;0,0198295
2723,9595;0,0198546
2724,9238;0,0198786
2725,8879;0,0198995
2726,8523;0,0199185
2727,8164;0,0199387
2728,7808;0,0199629
2729,7449;0,0199909
2730,7092;0,0200205
2731,6733;0,0200484
2732,6377;0,0200726
2733,6018;0,0200931
2734,5662;0,0201107
2735,5303;0,0201263
2736,4946;0,0201399
2737,4587;0,0201517
2738,4231;0,0201627
2739,3872;0,0201744
2740,3516;0,0201874
2741,3157;0,0202007
2742,2800;0,0202114
2743,2441;0,0202166
2744,2085;0,0202152
2745,1726;0,0202084
2746,1370;0,0201992
2747,1011;0,0201908
2748,0654;0,0201854
2749,0295;0,020184
2749,9939;0,0201869
2750,9580;0,0201947
2751,9224;0,0202075
2752,8865;0,0202249
2753,8508;0,0202455
2754,8149;0,0202672
2755,7793;0,020288
2756,7434;0,0203062
2757,7078;0,0203204
2758,6719;0,0203297
2759,6362;0,0203339
2760,6003;0,0203345
2761,5647;0,0203351
2762,5288;0,0203408
2763,4932;0,020356
2764,4573;0,0203819
2765,4216;0,0204155
2766,3857;0,0204506
2767,3501;0,0204809
2768,3142;0,0205035
2769,2786;0,0205199
2770,2427;0,0205353
2771,2070;0,0205553
2772,1711;0,0205834
2773,1355;0,0206199
2774,0996;0,0206626
2775,0640;0,0207085
2776,0281;0,0207551
2776,9924;0,0208007
2777,9565;0,020844
2778,9209;0,0208845
2779,8850;0,0209224
2780,8494;0,0209584
2781,8135;0,0209931
2782,7778;0,0210272
2783,7419;0,0210605
2784,7063;0,0210928
2785,6704;0,0211242
2786,6348;0,0211552
2787,5989;0,0211859
2788,5632;0,0212149
2789,5273;0,0212394
2790,4917;0,0212562
2791,4558;0,0212646
2792,4202;0,0212677
2793,3843;0,0212728
2794,3486;0,0212889
2795,3127;0,0213231
2796,2771;0,021377
2797,2412;0,0214449
2798,2056;0,0215154
2799,1697;0,0215745
2800,1340;0,0216118
2801,0981;0,0216249
2802,0625;0,0216219
2803,0266;0,0216189
2803,9910;0,0216337
2804,9551;0,0216784
2805,9194;0,0217535
2806,8835;0,0218483
2807,8479;0,0219456
2808,8120;0,0220303
2809,7764;0,0220953
2810,7405;0,0221447
2811,7048;0,0221901
2812,6689;0,0222452
2813,6333;0,0223191
2814,5974;0,0224131
2815,5618;0,0225205
2816,5259;0,0226305
2817,4902;0,0227332
2818,4543;0,022824
2819,4187;0,0229052
2820,3828;0,0229845
2821,3472;0,0230705
2822,3113;0,0231686
2823,2756;0,0232787
2824,2397;0,0233968
2825,2041;0,0235173
2826,1682;0,0236366
2827,1326;0,0237544
2828,0967;0,023873
2829,0610;0,0239966
2830,0251;0,024129
2830,9895;0,0242726
2831,9536;0,0244267
2832,9180;0,0245872
2833,8821;0,0247477
2834,8464;0,0249026
2835,8105;0,0250514
2836,7749;0,0252017
2837,7390;0,0253672
2838,7034;0,0255628
2839,6675;0,0257975
2840,6318;0,0260718
2841,5959;0,0263782
2842,5603;0,0267075
2843,5244;0,0270524
2844,4888;0,0274084
2845,4529;0,0277692
2846,4172;0,0281218
2847,3813;0,0284452
2848,3457;0,0287141
2849,3098;0,0289068
2850,2742;0,0290127
2851,2383;0,0290364
2852,2026;0,0289948
2853,1667;0,0289118
2854,1311;0,0288106
2855,0952;0,0287094
2856,0596;0,0286184
2857,0237;0,0285414
2857,9880;0,0284782
2858,9521;0,0284286
2859,9165;0,0283948
2860,8806;0,0283821
2861,8450;0,0283963
2862,8091;0,0284403
2863,7734;0,028511
2864,7375;0,0285988
2865,7019;0,0286902
2866,6660;0,0287718
2867,6304;0,0288359
2868,5945;0,0288821
2869,5588;0,0289174
2870,5229;0,0289519
2871,4873;0,0289942
2872,4514;0,0290478
2873,4158;0,0291091
2874,3799;0,0291694
2875,3442;0,0292189
2876,3083;0,0292506
2877,2727;0,0292639
2878,2368;0,0292648
2879,2012;0,0292641
2880,1653;0,0292729
2881,1296;0,0292986
2882,0938;0,0293427
2883,0581;0,0294012
2884,0222;0,0294671
2884,9866;0,0295339
2885,9507;0,0295978
2886,9150;0,0296581
2887,8792;0,0297165
2888,8435;0,0297754
2889,8076;0,0298368
2890,7720;0,0299016
2891,7361;0,0299694
2892,7004;0,0300395
2893,6646;0,0301114
2894,6289;0,0301857
2895,5930;0,0302646
2896,5574;0,0303504
2897,5215;0,0304437
2898,4858;0,0305416
2899,4500;0,0306375
2900,4143;0,0307239
2901,3784;0,0307965
2902,3428;0,030856
2903,3069;0,0309088
2904,2712;0,030964
2905,2354;0,0310302
2906,1997;0,0311144
2907,1638;0,0312215
2908,1282;0,0313553
2909,0923;0,0315186
2910,0566;0,0317109
2911,0208;0,0319266
2911,9851;0,0321544
2912,9492;0,0323789
2913,9136;0,0325836
2914,8777;0,0327541
2915,8420;0,0328802
2916,8062;0,0329568
2917,7705;0,0329832
2918,7346;0,0329626
2919,6990;0,0328999
2920,6631;0,0327998
2921,6274;0,0326658
2922,5916;0,0324998
2923,5559;0,0323044
2924,5200;0,0320851
2925,4844;0,0318515
2926,4485;0,0316161
2927,4128;0,0313914
2928,3770;0,0311856
2929,3413;0,0310008
2930,3054;0,0308319
2931,2698;0,0306693
2932,2339;0,030502
2933,1982;0,0303218
2934,1624;0,0301264
2935,1267;0,0299201
2936,0908;0,0297123
2937,0552;0,0295127
2938,0193;0,0293275
2938,9836;0,029157
2939,9478;0,0289961
2940,9121;0,0288369
2941,8762;0,028673
2942,8406;0,0285011
2943,8047;0,0283222
2944,7690;0,028141
2945,7332;0,0279647
2946,6975;0,0278007
2947,6616;0,0276549
2948,6260;0,0275286
2949,5901;0,0274181
2950,5544;0,0273156
2951,5186;0,0272127
2952,4829;0,0271035
2953,4470;0,0269866
2954,4114;0,0268637
2955,3755;0,0267366
2956,3398;0,0266058
2957,3040;0,0264705
2958,2683;0,0263316
2959,2324;0,026193
2960,1968;0,0260604
2961,1609;0,0259377
2962,1252;0,0258236
2963,0894;0,0257118
2964,0537;0,0255945
2965,0178;0,0254681
2965,9822;0,0253352
2966,9463;0,0252027
2967,9106;0,0250766
2968,8748;0,0249581
2969,8391;0,0248429
2970,8032;0,0247253
2971,7676;0,0246025
2972,7317;0,0244771
2973,6960;0,0243561
2974,6602;0,0242463
2975,6245;0,0241508
2976,5886;0,024067
2977,5530;0,0239882
2978,5171;0,0239074
2979,4814;0,0238204
2980,4456;0,0237283
2981,4099;0,0236365
2982,3740;0,0235527
2983,3384;0,023483
2984,3025;0,0234295
2985,2668;0,0233892
2986,2310;0,0233561
2987,1953;0,023324
2988,1594;0,02329
2989,1238;0,0232549
2990,0879;0,023222
2991,0522;0,0231938
2992,0164;0,0231703
2992,9807;0,0231489
2993,9448;0,0231271
2994,9092;0,0231053
2995,8733;0,0230871
2996,8376;0,0230785
2997,8018;0,0230835
2998,7661;0,0231014
2999,7302;0,023127
3000,6946;0,0231529
3001,6587;0,0231737
3002,6230;0,0231883
3003,5872;0,0232005
3004,5515;0,0232156
3005,5156;0,0232383
3006,4800;0,0232698
3007,4441;0,0233084
3008,4084;0,0233505
3009,3726;0,0233918
3010,3369;0,0234281
3011,3010;0,0234561
3012,2654;0,0234742
3013,2295;0,0234835
3014,1938;0,0234875
3015,1580;0,0234906
3016,1223;0,0234963
3017,0864;0,0235066
3018,0508;0,023522
3019,0149;0,0235431
3019,9792;0,0235709
3020,9434;0,0236056
3021,9077;0,0236454
3022,8718;0,0236872
3023,8362;0,0237282
3024,8003;0,023769
3025,7646;0,0238139
3026,7288;0,0238682
3027,6931;0,0239328
3028,6572;0,0240021
3029,6216;0,0240652
3030,5857;0,0241121
3031,5500;0,0241403
3032,5142;0,0241558
3033,4785;0,0241704
3034,4426;0,024194
3035,4070;0,0242308
3036,3711;0,0242789
3037,3354;0,0243338
3038,2996;0,0243924
3039,2639;0,024453
3040,2280;0,0245146
3041,1924;0,0245749
3042,1565;0,0246316
3043,1208;0,024684
3044,0850;0,0247346
3045,0493;0,0247872
3046,0134;0,0248437
3046,9778;0,0249022
3047,9419;0,0249582
3048,9063;0,0250086
3049,8704;0,0250562
3050,8347;0,0251088
3051,7988;0,0251755
3052,7632;0,0252604
3053,7273;0,0253599
3054,6917;0,0254636
3055,6558;0,0255598
3056,6201;0,0256408
3057,5842;0,0257057
3058,5486;0,0257595
3059,5127;0,0258101
3060,4771;0,0258643
3061,4412;0,0259261
3062,4055;0,0259963
3063,3696;0,0260725
3064,3340;0,0261504
3065,2981;0,0262266
3066,2625;0,026299
3067,2266;0,0263679
3068,1909;0,0264343
3069,1550;0,0264974
3070,1194;0,0265547
3071,0835;0,0266039
3072,0479;0,0266461
3073,0120;0,0266874
3073,9763;0,0267375
3074,9404;0,0268049
3075,9048;0,0268919
3076,8689;0,0269923
3077,8333;0,0270942
3078,7974;0,0271854
3079,7617;0,0272588
3080,7258;0,0273149
3081,6902;0,0273605
3082,6543;0,0274045
3083,6187;0,0274535
3084,5828;0,02751
3085,5471;0,0275722
3086,5112;0,0276366
3087,4756;0,0277013
3088,4397;0,0277681
3089,4041;0,027843
3090,3682;0,0279321
3091,3325;0,0280374
3092,2966;0,0281532
3093,2610;0,0282672
3094,2251;0,028366
3095,1895;0,0284422
3096,1536;0,0284983
3097,1179;0,0285447
3098,0820;0,0285933
3099,0464;0,0286507
3100,0105;0,0287159
3100,9749;0,0287834
3101,9390;0,028849
3102,9033;0,0289135
3103,8674;0,028982
3104,8318;0,0290593
3105,7959;0,0291457
3106,7603;0,0292364
3107,7244;0,0293243
3108,6887;0,0294052
3109,6528;0,0294804
3110,6172;0,0295559
3111,5813;0,0296386
3112,5457;0,0297325
3113,5098;0,0298371
3114,4741;0,0299486
3115,4382;0,0300616
3116,4026;0,0301715
3117,3667;0,0302754
3118,3311;0,0303714
3119,2952;0,0304593
3120,2595;0,0305401
3121,2236;0,0306161
3122,1880;0,0306894
3123,1521;0,0307618
3124,1165;0,0308341
3125,0806;0,0309075
3126,0449;0,0309849
3127,0090;0,0310706
3127,9734;0,0311679
3128,9375;0,031276
3129,9019;0,0313891
3130,8660;0,0314978
3131,8303;0,031594
3132,7944;0,0316758
3133,7588;0,0317482
3134,7229;0,03182
3135,6873;0,0318983
3136,6514;0,0319851
3137,6157;0,0320772
3138,5798;0,0321695
3139,5442;0,0322588
3140,5083;0,0323456
3141,4727;0,0324324
3142,4368;0,0325219
3143,4011;0,0326154
3144,3652;0,0327125
3145,3296;0,0328126
3146,2937;0,0329152
3147,2581;0,0330195
3148,2222;0,0331229
3149,1865;0,0332211
3150,1506;0,0333092
3151,1150;0,0333849
3152,0791;0,0334514
3153,0435;0,033517
3154,0076;0,0335928
3154,9719;0,0336879
3155,9360;0,0338045
3156,9004;0,0339369
3157,8645;0,0340743
3158,8289;0,0342058
3159,7930;0,0343259
3160,7573;0,0344354
3161,7214;0,03454
3162,6858;0,0346454
3163,6499;0,0347541
3164,6143;0,0348647
3165,5784;0,0349743
3166,5427;0,0350804
3167,5068;0,0351826
3168,4712;0,035282
3169,4353;0,0352899
3170,3997;0,0353881
3171,3638;0,0354888
3172,3281;0,0355943
3173,2922;0,035707
3174,2566;0,0358278
3175,2207;0,0359537
3176,1851;0,0360787
3177,1492;0,0361949
3178,1135;0,0362967
3179,0776;0,0363831
3180,0420;0,0364586
3181,0061;0,0365307
3181,9705;0,0366077
3182,9346;0,0366956
3183,8989;0,0367971
3184,8630;0,0369108
3185,8274;0,0370317
3186,7915;0,0371517
3187,7559;0,0372627
3188,7200;0,03736
3189,6843;0,0374452
3190,6484;0,0375269
3191,6128;0,0376167
3192,5769;0,0377228
3193,5413;0,0378449
3194,5054;0,0379735
3195,4697;0,0380951
3196,4338;0,0381998
3197,3982;0,0382873
3198,3623;0,0383661
3199,3267;0,0384475
3200,2908;0,0385386
3201,2551;0,038639
3202,2192;0,038743
3203,1836;0,0388445
3204,1477;0,0389409
3205,1121;0,0390334
3206,0762;0,0391258
3207,0405;0,0392216
3208,0046;0,0393237
3208,9690;0,039434
3209,9331;0,039552
3210,8975;0,0396744
3211,8616;0,0397941
3212,8259;0,0399022
3213,7900;0,0399916
3214,7544;0,0400606
3215,7185;0,0401143
3216,6829;0,040162
3217,6470;0,0402139
3218,6113;0,0402776
3219,5754;0,0403571
3220,5398;0,0404527
3221,5039;0,0405616
3222,4683;0,0406792
3223,4324;0,0407996
3224,3967;0,0409176
3225,3608;0,0410304
3226,3252;0,0411374
3227,2893;0,0412394
3228,2537;0,0413363
3229,2178;0,0414259
3230,1821;0,0415056
3231,1462;0,0415756
3232,1106;0,0416412
3233,0747;0,0417114
3234,0391;0,0417941
3235,0032;0,0418916
3235,9675;0,0419984
3236,9316;0,0421046
3237,8960;0,0422024
3238,8601;0,0422908
3239,8245;0,0423753
3240,7886;0,0424632
3241,7529;0,0425575
3242,7170;0,0426547
3243,6814;0,0427471
3244,6455;0,0428301
3245,6099;0,0429062
3246,5740;0,0429848
3247,5383;0,0430756
3248,5024;0,0431819
3249,4668;0,0432988
3250,4309;0,0434158
3251,3953;0,0435237
3252,3594;0,0436195
3253,3237;0,0437065
3254,2878;0,0437914
3255,2522;0,0438798
3256,2163;0,0439736
3257,1807;0,0440724
3258,1448;0,0441743
3259,1091;0,0442774
3260,0732;0,0443788
3261,0376;0,0444745
3262,0017;0,0445612
3262,9661;0,0446394
3263,9302;0,0447147
3264,8945;0,0447966
3265,8586;0,0448927
3266,8230;0,0450033
3267,7871;0,0451207
3268,7515;0,0452332
3269,7156;0,0453316
3270,6799;0,0454141
3271,6440;0,0454856
3272,6084;0,0455527
3273,5725;0,0456176
3274,5369;0,0456772
3275,5010;0,0457265
3276,4653;0,0457646
3277,4294;0,0457971
3278,3938;0,0458328
3279,3579;0,0458775
3280,3223;0,0459293
3281,2864;0,0459795
3282,2507;0,0460185
3283,2148;0,0460426
3284,1792;0,0460579
3285,1433;0,046077
3286,1077;0,0461114
3287,0718;0,0461648
3288,0361;0,046231
3289,0002;0,0462969
3289,9646;0,0463496
3290,9287;0,0463824
3291,8931;0,0463975
3292,8572;0,0464029
3293,8215;0,0464067
3294,7856;0,0464123
3295,7500;0,0464176
3296,7141;0,0464183
3297,6785;0,0464128
3298,6426;0,0464053
3299,6069;0,0464041
3300,5710;0,0464165
3301,5354;0,0464443
3302,4995;0,0464821
3303,4639;0,0465209
3304,4280;0,0465532
3305,3923;0,0465771
3306,3564;0,0465957
3307,3208;0,0466132
3308,2849;0,046631
3309,2493;0,0466461
3310,2134;0,0466543
3311,1777;0,0466546
3312,1418;0,0466518
3313,1062;0,0466553
3314,0703;0,046674
3315,0347;0,0467122
3315,9988;0,0467665
3316,9631;0,0468283
3317,9272;0,0468875
3318,8916;0,046938
3319,8557;0,0469798
3320,8201;0,0470185
3321,7842;0,0470618
3322,7485;0,0471152
3323,7126;0,0471793
3324,6770;0,0472495
3325,6411;0,0473179
3326,6055;0,0473762
3327,5696;0,0474183
3328,5339;0,0474422
3329,4980;0,0474505
3330,4624;0,0474501
3331,4265;0,0474503
3332,3909;0,0474608
3333,3550;0,0474875
3334,3193;0,047529
3335,2834;0,0475756
3336,2478;0,0476121
3337,2119;0,0476234
3338,1763;0,0476012
3339,1404;0,047547
3340,1047;0,0474714
3341,0688;0,0473895
3342,0332;0,0473155
3342,9973;0,0472584
3343,9617;0,0472201
3344,9258;0,0471961
3345,8901;0,0471771
3346,8542;0,0471528
3347,8186;0,0471146
3348,7827;0,0470575
3349,7471;0,0469812
3350,7112;0,0468893
3351,6755;0,046788
3352,6396;0,0466838
3353,6040;0,0465834
3354,5681;0,0464922
3355,5325;0,0464137
3356,4966;0,0463483
3357,4609;0,0462927
3358,4250;0,0462408
3359,3894;0,0461868
3360,3535;0,0461271
3361,3179;0,0460621
3362,2820;0,0459939
3363,2463;0,0459242
3364,2104;0,0458521
3365,1748;0,0457744
3366,1389;0,045689
3367,1033;0,045596
3368,0674;0,0454983
3369,0317;0,0453995
3369,9958;0,045301
3370,9602;0,0452022
3371,9243;0,0451026
3372,8887;0,0450034
3373,8528;0,0449078
3374,8171;0,0448187
3375,7813;0,0447357
3376,7456;0,0446553
3377,7097;0,0445728
3378,6741;0,0444868
3379,6382;0,0444008
3380,6025;0,044321
3381,5667;0,0442522
3382,5310;0,0441927
3383,4951;0,0441349
3384,4595;0,0440699
3385,4236;0,0439935
3386,3879;0,0439096
3387,3521;0,0438276
3388,3164;0,0437555
3389,2805;0,0436947
3390,2449;0,0436391
3391,2090;0,043579
3392,1733;0,0435074
3393,1375;0,0434237
3394,1018;0,0433323
3395,0659;0,0432379
3396,0303;0,0431417
3396,9944;0,0430421
3397,9587;0,042938
3398,9229;0,042831
3399,8872;0,0427256
3400,8513;0,0426251
3401,8157;0,0425291
3402,7798;0,042433
3403,7441;0,0423308
3404,7083;0,0422186
3405,6726;0,0420971
3406,6367;0,0419714
3407,6011;0,0418485
3408,5652;0,0417344
3409,5295;0,0416311
3410,4937;0,0415355
3411,4580;0,0414402
3412,4221;0,0413371
3413,3865;0,0412227
3414,3506;0,0411005
3415,3149;0,04098
3416,2791;0,0408721
3417,2434;0,0407808
3418,2075;0,0407
3419,1719;0,0406147
3420,1360;0,0405091
3421,1003;0,0403761
3422,0645;0,040221
3423,0288;0,0400577
3423,9929;0,0398996
3424,9573;0,0397532
3425,9214;0,0396172
3426,8857;0,0394856
3427,8499;0,0393528
3428,8142;0,0392168
3429,7783;0,039079
3430,7427;0,0389422
3431,7068;0,038808
3432,6711;0,038676
3433,6353;0,0385455
3434,5996;0,0384169
3435,5637;0,0382916
3436,5281;0,0381701
3437,4922;0,0380509
3438,4565;0,0379303
3439,4207;0,0378063
3440,3850;0,0376817
3441,3491;0,0375638
3442,3135;0,0374593
3443,2776;0,0373672
3444,2419;0,0372749
3445,2061;0,0371622
3446,1704;0,0370122
3447,1345;0,0368232
3448,0989;0,0366125
3449,0630;0,0364059
3450,0273;0,0362236
3450,9915;0,036072
3451,9558;0,0359452
3452,9199;0,0358327
3453,8843;0,0357256
3454,8484;0,0356185
3455,8127;0,0355083
3456,7769;0,0353918
3457,7412;0,0352657
3458,7053;0,0351284
3459,6697;0,0349822
3460,6338;0,0348326
3461,5981;0,0346856
3462,5623;0,0345448
3463,5266;0,0344094
3464,4907;0,0342752
3465,4551;0,0341378
3466,4192;0,0339957
3467,3835;0,0338508
3468,3477;0,0337079
3469,3120;0,0335705
3470,2761;0,0334377
3471,2405;0,0333037
3472,2046;0,0331609
3473,1689;0,0330061
3474,1331;0,0328456
3475,0974;0,0326942
3476,0615;0,0325674
3477,0259;0,0324711
3477,9900;0,0323963
3478,9543;0,0323211
3479,9185;0,0322217
3480,8828;0,032085
3481,8469;0,0319165
3482,8113;0,0317363
3483,7754;0,0315653
3484,7397;0,0314123
3485,7039;0,0312715
3486,6682;0,03113
3487,6323;0,030979
3488,5967;0,0308212
3489,5608;0,0306695
3490,5251;0,0305371
3491,4893;0,0304273
3492,4536;0,0303291
3493,4177;0,0302235
3494,3821;0,0300966
3495,3462;0,0299515
3496,3105;0,029811
3497,2747;0,0297045
3498,2390;0,0296483
3499,2031;0,0296323
3500,1675;0,0296206
3501,1316;0,0295674
3502,0959;0,0294414
3503,0601;0,0292483
3504,0244;0,0290298
3504,9885;0,0288344
3505,9529;0,0286868
3506,9170;0,0285783
3507,8813;0,0284797
3508,8455;0,028361
3509,8098;0,02821
3510,7739;0,0280382
3511,7383;0,0278708
3512,7024;0,0277279
3513,6667;0,0276139
3514,6309;0,0275194
3515,5952;0,0274311
3516,5593;0,0273415
3517,5237;0,0272526
3518,4878;0,0271729
3519,4521;0,0271098
3520,4163;0,0270634
3521,3806;0,0270244
3522,3447;0,0269779
3523,3091;0,0269093
3524,2732;0,0268101
3525,2375;0,0266776
3526,2017;0,0265125
3527,1660;0,0263182
3528,1301;0,0261034
3529,0945;0,0258857
3530,0586;0,0256872
3531,0229;0,0255244
3531,9871;0,0253994
3532,9514;0,0253
3533,9155;0,0252056
3534,8799;0,0250964
3535,8440;0,0249643
3536,8083;0,0248198
3537,7725;0,0246892
3538,7368;0,0246019
3539,7009;0,0245743
3540,6653;0,0246022
3541,6294;0,0246596
3542,5938;0,0247024
3543,5579;0,024679
3544,5222;0,0245538
3545,4863;0,0243353
3546,4507;0,0240808
3547,4148;0,0238584
3548,3792;0,023702
3549,3433;0,0235979
3550,3076;0,0235044
3551,2717;0,0233818
3552,2361;0,0232175
3553,2002;0,0230333
3554,1646;0,0228689
3555,1287;0,0227528
3556,0930;0,0226872
3557,0571;0,0226558
3558,0215;0,0226428
3558,9856;0,0226444
3559,9500;0,0226692
3560,9141;0,0227256
3561,8784;0,0228071
3562,8425;0,022885
3563,8069;0,0229086
3564,7710;0,0228086
3565,7354;0,0225221
3566,6995;0,0220639
3567,6638;0,0215724
3568,6279;0,0212155
3569,5923;0,0210536
3570,5564;0,0210304
3571,5208;0,0210542
3572,4849;0,0210597
3573,4492;0,0210229
3574,4133;0,0209497
3575,3777;0,0208566
3576,3418;0,0207565
3577,3062;0,0206576
3578,2703;0,0205712
3579,2346;0,0205186
3580,1987;0,0205243
3581,1631;0,0205978
3582,1272;0,02072
3583,0916;0,0208447
3584,0557;0,0209116
3585,0200;0,0208609
3585,9841;0,0206574
3586,9485;0,0203402
3587,9126;0,0200473
3588,8770;0,0199251
3589,8411;0,0200088
3590,8054;0,0202199
3591,7695;0,0204461
3592,7339;0,0206019
3593,6980;0,020651
3594,6624;0,0206077
3595,6265;0,0205197
3596,5908;0,0204274
3597,5549;0,0203326
3598,5193;0,0202059
3599,4834;0,0200253
3600,4478;0,0198074
3601,4119;0,0196023
3602,3762;0,0194533
3603,3403;0,0193621
3604,3047;0,0192884
3605,2688;0,0191747
3606,2332;0,0189728
3607,1973;0,01867
3608,1616;0,0183078
3609,1257;0,0179684
3610,0901;0,017728
3611,0542;0,0176186
3612,0186;0,0176267
3612,9827;0,017712
3613,9470;0,017825
3614,9111;0,0179186
3615,8755;0,0179534
3616,8396;0,0179045
3617,8040;0,0177727
3618,7681;0,0176043
3619,7324;0,0174956
3620,6965;0,0175427
3621,6609;0,0177641
3622,6250;0,0180826
3623,5894;0,0183787
3624,5535;0,0185478
3625,5178;0,0185244
3626,4819;0,018274
3627,4463;0,0177958
3628,4104;0,017183
3629,3748;0,0166566
3630,3389;0,0163938
3631,3032;0,0163596
3632,2673;0,0163876
3633,2317;0,0163395
3634,1958;0,016173
3635,1602;0,0159278
3636,1243;0,0156738
3637,0886;0,0154601
3638,0527;0,0152959
3639,0171;0,0151672
3639,9812;0,0150663
3640,9456;0,0150029
3641,9097;0,0149904
3642,8740;0,0150261
3643,8381;0,0150859
3644,8025;0,0151371
3645,7666;0,015144
3646,7310;0,0150388
3647,6951;0,01469
3648,6594;0,0140361
3649,6235;0,0133227
3650,5879;0,0129052
3651,5520;0,0128488
3652,5164;0,0129719
3653,4805;0,0130806
3654,4448;0,0130764
3655,4089;0,0129618
3656,3733;0,0128083
3657,3374;0,0127018
3658,3018;0,0126805
3659,2659;0,0127181
3660,2302;0,0127662
3661,1943;0,0128049
3662,1587;0,0128532
3663,1228;0,012939
3664,0872;0,0130594
3665,0513;0,0131753
3666,0156;0,0132383
3666,9797;0,0132252
3667,9441;0,0131512
3668,9082;0,0130637
3669,8726;0,0130247
3670,8367;0,0130686
3671,8010;0,0131611
3672,7651;0,0132184
3673,7295;0,0131626
3674,6936;0,0129676
3675,6580;0,0127007
3676,6221;0,0125122
3677,5864;0,0125033
3678,5505;0,0126372
3679,5149;0,0128122
3680,4790;0,0129641
3681,4434;0,0130911
3682,4075;0,0132192
3683,3718;0,0133597
3684,3359;0,0134955
3685,3003;0,0136006
3686,2644;0,0136653
3687,2288;0,0136948
3688,1929;0,0136879
3689,1572;0,013646
3690,1213;0,013616
3691,0857;0,013661
3692,0498;0,0137899
3693,0142;0,013963
3693,9783;0,0141412
3694,9426;0,0143062
3695,9067;0,0144515
3696,8711;0,0145686
3697,8352;0,0146436
3698,7996;0,014665
3699,7637;0,0146344
3700,7280;0,0145742
3701,6921;0,0145274
3702,6565;0,0145417
3703,6206;0,0146402
3704,5850;0,0148044
3705,5491;0,0149879
3706,5134;0,01514
3707,4775;0,0152122
3708,4419;0,0151413
3709,4060;0,0148396
3710,3704;0,0142646
3711,3345;0,0135519
3712,2988;0,0129845
3713,2629;0,0127571
3714,2273;0,01286
3715,1914;0,0131708
3716,1558;0,0135699
3717,1199;0,013986
3718,0842;0,0143923
3719,0483;0,0147843
3720,0127;0,0151602
3720,9768;0,0155104
3721,9412;0,0158165
3722,9053;0,0160559
3723,8696;0,016212
3724,8337;0,0162882
3725,7981;0,0163128
3726,7622;0,016322
3727,7266;0,016336
3728,6907;0,0163535
3729,6550;0,0163653
3730,6191;0,0163649
3731,5835;0,016338
3732,5476;0,0162332
3733,5120;0,015956
3734,4761;0,0154561
3735,4404;0,0148599
3736,4045;0,0144155
3737,3689;0,0142565
3738,3330;0,0143048
3739,2974;0,014374
3740,2615;0,0142965
3741,2258;0,01399
3742,1899;0,0134834
3743,1543;0,0129214
3744,1184;0,0125223
3745,0828;0,0124474
3746,0469;0,0126646
3747,0112;0,0129773
3747,9753;0,0131692
3748,9397;0,013098
3749,9038;0,0127407
3750,8682;0,0122538
3751,8323;0,0119242
3752,7966;0,0119161
3753,7607;0,0121466
3754,7251;0,0124258
3755,6892;0,0126083
3756,6536;0,0126371
3757,6177;0,0125321
3758,5820;0,012367
3759,5461;0,0122344
3760,5105;0,0121926
3761,4746;0,0122373
3762,4390;0,0123232
3763,4031;0,012403
3764,3674;0,0124486
3765,3315;0,0124512
3766,2959;0,0124108
3767,2600;0,0123269
3768,2244;0,0121999
3769,1885;0,0120427
3770,1528;0,0118933
3771,1169;0,0118055
3772,0813;0,0118156
3773,0454;0,0119162
3774,0098;0,0120629
3774,9739;0,0122004
3775,9382;0,0122856
3776,9023;0,0122961
3777,8667;0,0122365
3778,8308;0,0121441
3779,7952;0,0120779
3780,7593;0,0120807
3781,7236;0,0121503
3782,6877;0,0122448
3783,6521;0,0123102
3784,6162;0,0123073
3785,5806;0,0122311
3786,5447;0,0121134
3787,5090;0,0120054
3788,4731;0,0119496
3789,4375;0,0119598
3790,4016;0,012021
3791,3660;0,0121055
3792,3301;0,012194
3793,2944;0,0122867
3794,2585;0,0123981
3795,2229;0,0125377
3796,1870;0,0126917
3797,1514;0,0128213
3798,1155;0,0128808
3799,0798;0,0128413
3800,0439;0,0127121
3801,0083;0,0125477
3801,9724;0,012421
3802,9368;0,0123589
3803,9009;0,0123126
3804,8652;0,0122052
3805,8293;0,0120095
3806,7937;0,0117912
3807,7578;0,0116771
3808,7222;0,0117519
3809,6863;0,0119813
3810,6506;0,0122455
3811,6147;0,012432
3812,5791;0,0125
3813,5432;0,0124899
3814,5076;0,0124871
3815,4717;0,0125625
3816,4360;0,0127189
3817,4001;0,012884
3818,3645;0,0129545
3819,3286;0,0128599
3820,2930;0,0126204
3821,2571;0,0123588
3822,2214;0,0122192
3823,1855;0,0122494
3824,1499;0,0123843
3825,1140;0,0125241
3826,0784;0,0126035
3827,0425;0,0126126
3828,0068;0,0125821
3828,9709;0,0125544
3829,9353;0,0125604
3830,8994;0,0126092
3831,8638;0,0126919
3832,8279;0,0127895
3833,7922;0,0128812
3834,7563;0,0129489
3835,7207;0,0129781
3836,6848;0,0129575
3837,6492;0,0128838
3838,6133;0,0127723
3839,5776;0,012651
3840,5417;0,0125358
3841,5061;0,012422
3842,4702;0,0123087
3843,4346;0,0122246
3844,3987;0,0122219
3845,3630;0,0123394
3846,3271;0,0125665
3847,2915;0,012839
3848,2556;0,0130667
3849,2200;0,0131674
3850,1841;0,0130839
3851,1484;0,0127741
3852,1125;0,0122188
3853,0769;0,0115451
3854,0410;0,0111033
3855,0054;0,0111372
3855,9695;0,0115362
3856,9338;0,012041
3857,8979;0,0124646
3858,8623;0,0127373
3859,8264;0,0128709
3860,7908;0,0129109
3861,7549;0,012899
3862,7192;0,0128584
3863,6833;0,012807
3864,6477;0,0127672
3865,6118;0,0127543
3866,5762;0,0127651
3867,5403;0,0127824
3868,5046;0,0127824
3869,4688;0,0127399
3870,4331;0,0126424
3871,3972;0,0125085
3872,3616;0,0123844
3873,3257;0,0123135
3874,2900;0,0123102
3875,2542;0,012359
3876,2185;0,0124331
3877,1826;0,0125123
3878,1470;0,0125905
3879,1111;0,0126671
3880,0754;0,0127332
3881,0396;0,0127637
3882,0039;0,0127244
3882,9680;0,0125941
3883,9324;0,012391
3884,8965;0,0121828
3885,8608;0,0120566
3886,8250;0,0120599
3887,7893;0,0121658
3888,7534;0,012297
3889,7178;0,0123781
3890,6819;0,012379
3891,6462;0,0123353
3892,6104;0,0123245
3893,5747;0,0123994
3894,5388;0,0125442
3895,5032;0,012701
3896,4673;0,0128217
3897,4316;0,0128918
3898,3958;0,0129192
3899,3601;0,0129124
3900,3242;0,0128656
3901,2886;0,0127621
3902,2527;0,0125905
3903,2170;0,0123687
3904,1812;0,0121511
3905,1455;0,0119993
3906,1096;0,011939
3907,0740;0,0119515
3908,0381;0,0119996
3909,0024;0,0120569
3909,9666;0,0121174
3910,9309;0,0121877
3911,8950;0,0122728
3912,8594;0,0123652
3913,8235;0,0124452
3914,7878;0,0124884
3915,7520;0,012479
3916,7163;0,0124243
3917,6804;0,0123602
3918,6448;0,0123333
3919,6089;0,0123684
3920,5732;0,0124509
3921,5374;0,01254
3922,5017;0,0125957
3923,4658;0,0126016
3924,4302;0,0125746
3925,3943;0,0125524
3926,3586;0,0125645
3927,3228;0,0126106
3928,2871;0,012663
3929,2512;0,012684
3930,2156;0,0126458
3931,1797;0,0125454
3932,1440;0,0124104
3933,1082;0,0122853
3934,0725;0,012204
3935,0366;0,0121769
3936,0010;0,0121959
3936,9651;0,0122477
3937,9294;0,0123195
3938,8936;0,0123972
3939,8579;0,0124641
3940,8220;0,0125039
3941,7864;0,0125106
3942,7505;0,012495
3943,7148;0,0124794
3944,6790;0,0124802
3945,6433;0,0124959
3946,6074;0,0125093
3947,5718;0,0125003
3948,5359;0,0124602
3949,5002;0,0123989
3950,4644;0,012339
3951,4287;0,0122986
3952,3928;0,0122803
3953,3572;0,0122735
3954,3213;0,0122652
3955,2856;0,0122496
3956,2498;0,0122303
3957,2141;0,0122148
3958,1782;0,0122074
3959,1426;0,0122052
3960,1067;0,0121996
3961,0710;0,0121832
3962,0352;0,0121555
3962,9995;0,0121245
3963,9636;0,0121023
3964,9280;0,0120982
3965,8921;0,0121144
3966,8564;0,0121455
3967,8206;0,0121817
3968,7849;0,0122133
3969,7490;0,012234
3970,7134;0,0122419
3971,6775;0,0122379
3972,6418;0,0122236
3973,6060;0,0122006
3974,5703;0,0121718
3975,5344;0,0121433
3976,4988;0,012123
3977,4629;0,0121179
3978,4272;0,012129
3979,3914;0,0121492
3980,3557;0,0121659
3981,3198;0,0121673
3982,2842;0,0121504
3983,2483;0,012124
3984,2126;0,0121045
3985,1768;0,0121056
3986,1411;0,0121299
3987,1052;0,0121661
3988,0696;0,0121961
3989,0337;0,012206
3989,9980;0,0121951
3990,9622;0,0121754
3991,9265;0,012163
3992,8906;0,0121671
3993,8550;0,012184
3994,8191;0,0122
3995,7834;0,0122004
3996,7476;0,0121778
3997,7119;0,0121353
3998,6760;0,0120837
3999,6404;0,012037
4000,6045;0,0121719

##### Extended Information
[Comments]
Sample name
Comment
Username
Division
Organization;UNIVERSIDAD INDUSTRIAL DE SANTANDER

[Detailed Information]
Creation date;19/02/2025 1:58 p.m.

Data array type;Linear data array
Horizontal axis;Wavenumber [cm-1]
Vertical axis;Abs
Start;399,193 cm-1
End;4000,6 cm-1
Data interval;0,964233 cm-1
Data points;3736    

[Measurement Information]
Model name;FT/IR-4X1typeA
Serial No.;A035162111

Accessory;ATR PRO 4X
Accessory S/N;A021162126
Incident angle;45 deg

Measurement date;19/02/2025 1:57 p.m.

Light source;Standard
Detector;TGS
Accumulation;40
Resolution;4 cm-1
Zero filling;On
Apodization;Cosine
Gain;Auto (8)
Aperture;Auto (7 mm)
Scan speed;Auto (2 mm/sec)
Filter;Auto (12800 Hz)

