TITLE;
DATA TYPE;INFRARED SPECTRUM
ORIGIN;JASCO
OWNER;
DATE;25/02/19
TIME;11:51:35
SPECTROMETER/DATA SYSTEM;
LOCALE;9226
RESOLUTION;
DELTAX;0,964233
XUNITS;1/CM
YUNITS;ABSORBANCE
FIRSTX;  399,1927
LASTX; 4000,6047
NPOINTS;    3736
FIRSTY;     0,21431
MAXY;     0,23544
MINY;     0,01241
XYDATA
399,1927;0,214307
400,1569;0,212134
401,1211;0,208782
402,0854;0,205272
403,0496;0,20224
404,0138;0,200002
404,9781;0,19863
405,9423;0,197971
406,9065;0,197686
407,8708;0,197401
408,8350;0,196888
409,7992;0,196163
410,7635;0,195449
411,7277;0,195023
412,6919;0,195052
413,6562;0,195528
414,6204;0,196335
415,5846;0,197346
416,5489;0,198445
417,5131;0,199461
418,4773;0,20012
419,4416;0,200193
420,4058;0,19974
421,3700;0,19904
422,3343;0,19832
423,2985;0,197675
424,2627;0,197119
425,2270;0,196639
426,1912;0,196221
427,1554;0,195863
428,1197;0,195576
429,0839;0,195377
430,0481;0,195282
431,0124;0,195286
431,9766;0,195354
432,9408;0,195412
433,9051;0,195354
434,8693;0,195063
435,8335;0,194454
436,7978;0,193526
437,7620;0,192385
438,7262;0,191232
439,6905;0,190293
440,6547;0,189753
441,6189;0,18967
442,5832;0,189922
443,5474;0,190226
444,5116;0,190286
445,4759;0,189957
446,4401;0,189297
447,4043;0,188478
448,3686;0,187666
449,3328;0,186944
450,2970;0,186312
451,2613;0,185724
452,2255;0,185134
453,1897;0,184509
454,1540;0,183833
455,1182;0,183098
456,0824;0,18233
457,0467;0,181611
458,0109;0,181062
458,9751;0,180762
459,9394;0,180678
460,9036;0,18069
461,8678;0,180676
462,8321;0,180577
463,7963;0,180415
464,7605;0,180271
465,7248;0,180241
466,6890;0,180384
467,6532;0,180683
468,6175;0,181049
469,5817;0,181343
470,5459;0,181408
471,5102;0,181128
472,4744;0,1805
473,4386;0,179658
474,4029;0,178801
475,3671;0,178079
476,3313;0,177533
477,2956;0,177125
478,2598;0,176803
479,2240;0,176548
480,1883;0,176399
481,1525;0,176422
482,1167;0,176665
483,0810;0,177119
484,0452;0,177702
485,0094;0,178289
485,9737;0,178762
486,9379;0,179062
487,9021;0,179186
488,8664;0,179179
489,8306;0,179112
490,7948;0,179072
491,7591;0,179139
492,7233;0,179358
493,6875;0,179708
494,6518;0,180101
495,6160;0,180423
496,5802;0,180592
497,5445;0,180602
498,5087;0,180529
499,4729;0,180505
500,4372;0,180648
501,4014;0,180993
502,3656;0,181464
503,3299;0,181922
504,2941;0,182264
505,2583;0,182496
506,2226;0,182719
507,1868;0,183053
508,1510;0,183541
509,1153;0,184118
510,0795;0,184651
511,0437;0,185032
512,0080;0,185259
512,9722;0,185429
513,9365;0,18568
514,9007;0,186108
515,8649;0,186718
516,8292;0,187414
517,7934;0,188061
518,7576;0,188556
519,7219;0,188871
520,6861;0,189028
521,6503;0,189055
522,6146;0,188961
523,5788;0,188752
524,5430;0,188469
525,5073;0,188196
526,4715;0,188019
527,4357;0,18796
528,4000;0,187951
529,3642;0,187875
530,3284;0,187645
531,2927;0,187256
532,2569;0,186788
533,2211;0,186355
534,1854;0,186034
535,1496;0,185816
536,1138;0,18562
537,0781;0,18535
538,0423;0,184968
539,0065;0,184516
539,9708;0,184086
540,9350;0,183763
541,8992;0,18358
542,8635;0,183514
543,8277;0,18351
544,7919;0,18352
545,7562;0,18353
546,7204;0,183555
547,6846;0,183629
548,6489;0,18378
549,6131;0,184022
550,5773;0,184352
551,5416;0,184758
552,5058;0,185217
553,4700;0,1857
554,4343;0,186169
555,3985;0,186577
556,3627;0,186878
557,3270;0,187037
558,2912;0,187039
559,2554;0,186893
560,2197;0,186623
561,1839;0,186254
562,1481;0,1858
563,1124;0,185264
564,0766;0,184656
565,0408;0,18401
566,0051;0,183392
566,9693;0,182889
567,9335;0,182572
568,8978;0,182454
569,8620;0,182479
570,8262;0,182551
571,7905;0,182581
572,7547;0,182525
573,7189;0,182388
574,6832;0,182201
575,6474;0,181985
576,6116;0,181731
577,5759;0,1814
578,5401;0,180958
579,5043;0,180397
580,4686;0,179753
581,4328;0,179095
582,3970;0,178504
583,3613;0,178042
584,3255;0,177739
585,2897;0,17758
586,2540;0,177514
587,2182;0,177475
588,1824;0,177403
589,1467;0,177267
590,1109;0,177074
591,0751;0,176864
592,0394;0,17668
593,0036;0,176539
593,9678;0,176416
594,9321;0,176261
595,8963;0,176023
596,8605;0,175686
597,8248;0,175271
598,7890;0,174825
599,7532;0,174392
600,7175;0,173996
601,6817;0,17363
602,6459;0,173268
603,6102;0,172884
604,5744;0,172465
605,5386;0,172016
606,5029;0,171549
607,4671;0,171076
608,4313;0,170591
609,3956;0,170069
610,3598;0,169479
611,3240;0,168808
612,2883;0,168073
613,2525;0,167321
614,2167;0,166596
615,1810;0,165906
616,1452;0,165203
617,1094;0,164408
618,0737;0,163457
619,0379;0,162357
620,0021;0,16118
620,9664;0,160025
621,9306;0,158968
622,8948;0,158033
623,8591;0,157205
624,8233;0,156451
625,7875;0,155755
626,7518;0,155105
627,7160;0,154493
628,6802;0,1539
629,6445;0,153299
630,6087;0,15267
631,5729;0,152012
632,5372;0,151347
633,5014;0,15071
634,4656;0,150132
635,4299;0,149629
636,3941;0,149198
637,3583;0,148816
638,3226;0,148448
639,2868;0,148052
640,2510;0,147593
641,2153;0,147063
642,1795;0,14649
643,1437;0,14593
644,1080;0,145441
645,0722;0,145059
646,0364;0,144774
647,0007;0,144543
647,9649;0,144317
648,9291;0,144075
649,8934;0,143835
650,8576;0,143638
651,8218;0,143512
652,7861;0,143456
653,7503;0,143439
654,7145;0,143432
655,6788;0,143428
656,6430;0,143446
657,6072;0,143518
658,5715;0,143649
659,5357;0,143803
660,4999;0,143917
661,4642;0,143939
662,4284;0,143866
663,3926;0,143742
664,3569;0,143625
665,3211;0,143567
666,2853;0,143567
667,2496;0,143491
668,2138;0,143039
669,1780;0,142048
670,1423;0,140757
671,1065;0,139436
672,0707;0,138113
673,0350;0,136696
673,9992;0,135133
674,9634;0,13346
675,9277;0,131795
676,8919;0,130254
677,8561;0,128879
678,8204;0,127631
679,7846;0,126456
680,7488;0,125339
681,7131;0,12431
682,6773;0,123409
683,6415;0,122647
684,6058;0,121996
685,5700;0,12141
686,5342;0,120857
687,4985;0,120325
688,4627;0,119823
689,4269;0,119372
690,3912;0,118983
691,3554;0,118659
692,3196;0,118389
693,2839;0,11815
694,2481;0,117918
695,2123;0,117666
696,1766;0,117371
697,1408;0,117018
698,1050;0,116604
699,0693;0,116146
700,0335;0,115681
700,9977;0,115251
701,9620;0,114887
702,9262;0,114589
703,8904;0,114323
704,8547;0,114028
705,8189;0,113653
706,7831;0,113172
707,7474;0,112599
708,7116;0,111971
709,6758;0,111332
710,6401;0,110711
711,6043;0,11012
712,5685;0,109562
713,5328;0,109039
714,4970;0,108554
715,4612;0,108014
716,4255;0,107582
717,3897;0,107116
718,3539;0,106566
719,3182;0,105904
720,2824;0,105146
721,2466;0,104341
722,2109;0,103546
723,1751;0,102787
724,1393;0,102061
725,1036;0,101348
726,0678;0,100634
727,0320;0,0999209
727,9963;0,0992165
728,9605;0,0985226
729,9247;0,0978309
730,8890;0,0971355
731,8532;0,0964484
732,8174;0,095802
733,7817;0,0952321
734,7459;0,0947528
735,7101;0,0943445
736,6744;0,0939648
737,6386;0,0935736
738,6028;0,0931561
739,5671;0,0927265
740,5313;0,092313
741,4955;0,0919368
742,4598;0,0916006
743,4240;0,0912911
744,3882;0,0909918
745,3525;0,0906924
746,3167;0,0903899
747,2809;0,0900829
748,2452;0,0897659
749,2094;0,0894304
750,1736;0,0890704
751,1379;0,0886889
752,1021;0,0882994
753,0663;0,08792
754,0306;0,0875653
754,9948;0,0872384
755,9590;0,0869297
756,9233;0,0866202
757,8875;0,0862891
758,8517;0,0859217
759,8160;0,0855159
760,7802;0,0850836
761,7444;0,0846458
762,7087;0,084224
763,6729;0,0838298
764,6371;0,08346
765,6014;0,0831004
766,5656;0,0827357
767,5298;0,0823597
768,4941;0,0819777
769,4583;0,0815996
770,4225;0,081229
771,3868;0,0808578
772,3510;0,080471
773,3152;0,0800587
774,2795;0,0796262
775,2437;0,0791936
776,2079;0,0787871
777,1722;0,0784245
778,1364;0,0781086
779,1006;0,0778273
780,0649;0,077562
781,0291;0,0772944
781,9933;0,0770105
782,9576;0,0767021
783,9218;0,0763674
784,8860;0,0760143
785,8503;0,0756607
786,8145;0,0753303
787,7787;0,075043
788,7430;0,074805
789,7072;0,0746047
790,6714;0,0744191
791,6357;0,0742262
792,5999;0,0740168
793,5641;0,0737975
794,5284;0,0735838
795,4926;0,0733886
796,4568;0,0732147
797,4211;0,0730535
798,3853;0,0728919
799,3495;0,0727204
800,3138;0,0725376
801,2780;0,072349
802,2422;0,0721631
803,2065;0,0719859
804,1707;0,0718189
805,1349;0,071659
806,0992;0,0715017
807,0634;0,0713434
808,0276;0,0711853
808,9919;0,0710337
809,9561;0,0708983
810,9203;0,0707874
811,8846;0,070702
812,8488;0,0706329
813,8130;0,0705635
814,7773;0,0704785
815,7415;0,0703725
816,7057;0,0702547
817,6700;0,0701437
818,6342;0,070056
819,5984;0,0699952
820,5627;0,0699498
821,5269;0,0699007
822,4911;0,0698336
823,4554;0,069747
824,4196;0,0696498
825,3839;0,0695522
826,3481;0,0694561
827,3123;0,0693542
828,2766;0,0692374
829,2408;0,0691047
830,2050;0,0689658
831,1693;0,0688359
832,1335;0,0687255
833,0977;0,0686338
834,0620;0,0685496
835,0262;0,0684585
835,9904;0,06835
836,9547;0,0682199
837,9189;0,0680682
838,8831;0,0678959
839,8474;0,0677052
840,8116;0,0675019
841,7758;0,0672969
842,7401;0,0671052
843,7043;0,0669409
844,6685;0,066812
845,6328;0,0667169
846,5970;0,0666455
847,5612;0,066582
848,5255;0,066509
849,4897;0,0664113
850,4539;0,0662802
851,4182;0,066117
852,3824;0,0659349
853,3466;0,0657571
854,3109;0,0656109
855,2751;0,0655186
856,2393;0,0654895
857,2036;0,0655162
858,1678;0,0655764
859,1320;0,065641
860,0963;0,0656839
861,0605;0,0656903
862,0247;0,0656601
862,9890;0,065605
863,9532;0,0655435
864,9174;0,0654948
865,8817;0,0654749
866,8459;0,0654957
867,8101;0,0655645
868,7744;0,0656836
869,7386;0,0658479
870,7028;0,0660438
871,6671;0,0662493
872,6313;0,0664379
873,5955;0,0665855
874,5598;0,0666779
875,5240;0,0667166
876,4882;0,0667205
877,4525;0,066721
878,4167;0,0667528
879,3809;0,066844
880,3452;0,0670108
881,3094;0,0672584
882,2736;0,0675878
883,2379;0,0680014
884,2021;0,068505
885,1663;0,0691024
886,1306;0,0697894
887,0948;0,0705493
888,0590;0,0713557
889,0233;0,0721795
889,9875;0,0729958
890,9517;0,0737866
891,9160;0,0745401
892,8802;0,0752477
893,8444;0,0758997
894,8087;0,0764822
895,7729;0,0769722
896,7371;0,0773365
897,7014;0,0775353
898,6656;0,0775345
899,6298;0,0773211
900,5941;0,0769142
901,5583;0,0763636
902,5225;0,075734
903,4868;0,0750845
904,4510;0,0744545
905,4152;0,0738634
906,3795;0,0733204
907,3437;0,0728367
908,3079;0,0724283
909,2722;0,072109
910,2364;0,0718816
911,2007;0,0717338
912,1649;0,071645
913,1292;0,0715988
914,0934;0,0715911
915,0576;0,0716301
916,0219;0,0717263
916,9861;0,0718818
917,9503;0,0720854
918,9146;0,0723176
919,8788;0,0725606
920,8430;0,0728071
921,8073;0,0730608
922,7715;0,0733296
923,7357;0,073616
924,7000;0,0739126
925,6642;0,0742045
926,6284;0,0744783
927,5927;0,0747291
928,5569;0,0749623
929,5211;0,0751878
930,4854;0,0754116
931,4496;0,0756324
932,4138;0,075844
933,3781;0,0760432
934,3423;0,076237
935,3065;0,0764432
936,2708;0,0766852
937,2350;0,0769839
938,1992;0,077351
939,1635;0,0777883
940,1277;0,0782898
941,0919;0,078846
942,0562;0,0794474
943,0204;0,0800881
943,9846;0,0807685
944,9489;0,0814985
945,9131;0,0822977
946,8773;0,0831924
947,8416;0,0842063
948,8058;0,0853512
949,7700;0,0866197
950,7343;0,0879862
951,6985;0,0894158
952,6627;0,0908782
953,6270;0,0923587
954,5912;0,093861
955,5554;0,0954004
956,5197;0,0969915
957,4839;0,0986372
958,4481;0,100326
959,4124;0,102039
960,3766;0,103755
961,3408;0,105463
962,3051;0,107159
963,2693;0,108845
964,2335;0,110522
965,1978;0,112195
966,1620;0,113869
967,1262;0,115557
968,0905;0,117279
969,0547;0,119061
970,0189;0,120931
970,9832;0,12292
971,9474;0,125055
972,9116;0,127356
973,8759;0,129841
974,8401;0,132518
975,8043;0,135392
976,7686;0,138464
977,7328;0,141731
978,6970;0,145177
979,6613;0,148766
980,6255;0,152441
981,5897;0,156119
982,5540;0,159714
983,5182;0,163143
984,4824;0,166353
985,4467;0,169322
986,4109;0,172058
987,3751;0,174587
988,3394;0,176937
989,3036;0,179123
990,2678;0,181148
991,2321;0,182997
992,1963;0,184662
993,1605;0,186142
994,1248;0,187458
995,0890;0,188643
996,0532;0,189734
997,0175;0,19076
997,9817;0,191742
998,9459;0,192696
999,9102;0,193651
1000,8744;0,194644
1001,8386;0,195725
1002,8029;0,196937
1003,7671;0,198309
1004,7313;0,199852
1005,6956;0,20157
1006,6598;0,203462
1007,6240;0,205537
1008,5883;0,207798
1009,5525;0,21024
1010,5167;0,212831
1011,4810;0,215522
1012,4452;0,218243
1013,4094;0,220925
1014,3737;0,2235
1015,3379;0,225911
1016,3021;0,228102
1017,2664;0,230027
1018,2306;0,231649
1019,1948;0,232947
1020,1591;0,233925
1021,1233;0,234612
1022,0875;0,235053
1023,0518;0,235303
1024,0160;0,235418
1024,9802;0,235439
1025,9445;0,235395
1026,9087;0,235291
1027,8729;0,23511
1028,8372;0,234815
1029,8014;0,234356
1030,7656;0,233683
1031,7299;0,232753
1032,6941;0,231544
1033,6583;0,230052
1034,6226;0,228302
1035,5868;0,226348
1036,5510;0,224271
1037,5153;0,222171
1038,4795;0,220155
1039,4437;0,218317
1040,4080;0,216712
1041,3722;0,215357
1042,3364;0,214219
1043,3007;0,213237
1044,2649;0,212335
1045,2291;0,211443
1046,1934;0,210509
1047,1576;0,209504
1048,1218;0,208412
1049,0861;0,20722
1050,0503;0,205912
1051,0145;0,204467
1051,9788;0,202867
1052,9430;0,201106
1053,9072;0,199192
1054,8715;0,197146
1055,8357;0,194988
1056,7999;0,192721
1057,7642;0,190326
1058,7284;0,187776
1059,6926;0,185049
1060,6569;0,182153
1061,6211;0,179137
1062,5853;0,17609
1063,5496;0,173119
1064,5138;0,170329
1065,4780;0,167792
1066,4423;0,165541
1067,4065;0,163568
1068,3707;0,161836
1069,3350;0,160295
1070,2992;0,15889
1071,2634;0,157571
1072,2277;0,156286
1073,1919;0,154982
1074,1561;0,153602
1075,1204;0,152101
1076,0846;0,150452
1077,0488;0,148658
1078,0131;0,146759
1078,9773;0,144818
1079,9415;0,142909
1080,9058;0,141099
1081,8700;0,139427
1082,8342;0,137909
1083,7985;0,136538
1084,7627;0,135297
1085,7269;0,134163
1086,6912;0,133117
1087,6554;0,132146
1088,6196;0,131249
1089,5839;0,130436
1090,5481;0,129726
1091,5123;0,129143
1092,4766;0,128698
1093,4408;0,128389
1094,4050;0,128193
1095,3693;0,128079
1096,3335;0,12802
1097,2977;0,127994
1098,2620;0,127987
1099,2262;0,12799
1100,1904;0,127987
1101,1547;0,127959
1102,1189;0,127888
1103,0831;0,127761
1104,0474;0,127568
1105,0116;0,12731
1105,9758;0,126988
1106,9401;0,126608
1107,9043;0,126176
1108,8685;0,125688
1109,8328;0,125131
1110,7970;0,124479
1111,7612;0,123706
1112,7255;0,1228
1113,6897;0,121783
1114,6539;0,120702
1115,6182;0,119625
1116,5824;0,118609
1117,5466;0,117682
1118,5109;0,116834
1119,4751;0,116023
1120,4393;0,115193
1121,4036;0,114287
1122,3678;0,11326
1123,3320;0,112082
1124,2963;0,110733
1125,2605;0,109202
1126,2247;0,107492
1127,1890;0,105615
1128,1532;0,103599
1129,1174;0,101482
1130,0817;0,0993149
1131,0459;0,0971495
1132,0101;0,0950362
1132,9744;0,0930193
1133,9386;0,0911368
1134,9028;0,0894238
1135,8671;0,0879162
1136,8313;0,0866492
1137,7955;0,0856511
1138,7598;0,0849348
1139,7240;0,084492
1140,6882;0,0842954
1141,6525;0,0843084
1142,6167;0,0844964
1143,5809;0,0848332
1144,5452;0,0852998
1145,5094;0,0858764
1146,4736;0,0865359
1147,4379;0,0872429
1148,4021;0,0879598
1149,3663;0,0886552
1150,3306;0,0893074
1151,2948;0,0899017
1152,2590;0,0904222
1153,2233;0,0908451
1154,1875;0,0911374
1155,1517;0,0912608
1156,1160;0,0911776
1157,0802;0,0908548
1158,0444;0,0902633
1159,0087;0,0893757
1159,9729;0,0881667
1160,9371;0,0866171
1161,9014;0,0847221
1162,8656;0,0825001
1163,8298;0,0799961
1164,7941;0,077281
1165,7583;0,074444
1166,7225;0,0715831
1167,6868;0,068792
1168,6510;0,0661488
1169,6152;0,0637058
1170,5795;0,0614878
1171,5437;0,0594956
1172,5079;0,0577175
1173,4722;0,0561391
1174,4364;0,0547499
1175,4006;0,0535428
1176,3649;0,0525101
1177,3291;0,0516406
1178,2933;0,0509191
1179,2576;0,0503287
1180,2218;0,0498518
1181,1860;0,0494708
1182,1503;0,0491672
1183,1145;0,0489251
1184,0787;0,0487352
1185,0430;0,0485999
1186,0072;0,0485318
1186,9714;0,0485483
1187,9357;0,0486616
1188,8999;0,0488737
1189,8641;0,0491766
1190,8284;0,04956
1191,7926;0,0500172
1192,7568;0,0505474
1193,7211;0,0511502
1194,6853;0,0518199
1195,6495;0,0525414
1196,6138;0,0532942
1197,5780;0,0540593
1198,5422;0,0548263
1199,5065;0,0555624
1200,4707;0,056339
1201,4349;0,0571218
1202,3992;0,0579059
1203,3634;0,0586813
1204,3276;0,0594399
1205,2919;0,0601814
1206,2561;0,0609162
1207,2203;0,0616621
1208,1846;0,0624391
1209,1488;0,0632639
1210,1130;0,0641485
1211,0773;0,0651013
1212,0415;0,066128
1213,0057;0,0672311
1213,9700;0,0684067
1214,9342;0,069641
1215,8984;0,0709101
1216,8627;0,0721832
1217,8269;0,0734297
1218,7911;0,0746267
1219,7554;0,0757637
1220,7196;0,0768402
1221,6838;0,0778612
1222,6481;0,07883
1223,6123;0,0797443
1224,5765;0,080596
1225,5408;0,0813756
1226,5050;0,0820771
1227,4692;0,0827022
1228,4335;0,0832602
1229,3977;0,0837631
1230,3619;0,0842203
1231,3262;0,0846324
1232,2904;0,0849908
1233,2546;0,0852819
1234,2189;0,0854949
1235,1831;0,0856294
1236,1473;0,0856973
1237,1116;0,0857184
1238,0758;0,0857109
1239,0400;0,0856827
1240,0043;0,0856281
1240,9685;0,0855309
1241,9327;0,0853735
1242,8970;0,0851441
1243,8612;0,084841
1244,8254;0,0844708
1245,7897;0,0840445
1246,7539;0,0835734
1247,7181;0,0830679
1248,6824;0,082538
1249,6466;0,081994
1250,6108;0,0814462
1251,5751;0,0809032
1252,5393;0,0803705
1253,5035;0,0798498
1254,4678;0,0793385
1255,4320;0,0788301
1256,3962;0,0783149
1257,3605;0,0777826
1258,3247;0,0772246
1259,2889;0,076637
1260,2532;0,0760208
1261,2174;0,0753792
1262,1816;0,0747132
1263,1459;0,0740194
1264,1101;0,0732912
1265,0743;0,0725231
1266,0386;0,0717132
1267,0028;0,0708643
1267,9670;0,0699813
1268,9313;0,0690685
1269,8955;0,0681294
1270,8597;0,0671684
1271,8240;0,0661933
1272,7882;0,0652153
1273,7524;0,0642481
1274,7167;0,0633054
1275,6809;0,0623992
1276,6451;0,0615393
1277,6094;0,0607315
1278,5736;0,0599752
1279,5378;0,0592624
1280,5021;0,0585791
1281,4663;0,0579115
1282,4305;0,057253
1283,3948;0,0566087
1284,3590;0,0559944
1285,3232;0,0554303
1286,2875;0,0549342
1287,2517;0,0545147
1288,2159;0,0541705
1289,1802;0,0538934
1290,1444;0,0536739
1291,1086;0,0535057
1292,0729;0,0533879
1293,0371;0,0533241
1294,0013;0,0533198
1294,9656;0,0533792
1295,9298;0,0535029
1296,8940;0,0536872
1297,8583;0,0539258
1298,8225;0,0542117
1299,7867;0,0545402
1300,7510;0,0549086
1301,7152;0,0553162
1302,6794;0,0557623
1303,6437;0,0562462
1304,6079;0,0567671
1305,5721;0,0573238
1306,5364;0,0579136
1307,5006;0,0585316
1308,4648;0,0591702
1309,4291;0,0598204
1310,3933;0,0604732
1311,3575;0,0611204
1312,3218;0,0617527
1313,2860;0,0623572
1314,2502;0,0629154
1315,2145;0,0634029
1316,1787;0,0637935
1317,1429;0,0640667
1318,1072;0,0642169
1319,0714;0,0642599
1320,0356;0,0642298
1320,9999;0,0641656
1321,9641;0,0640957
1322,9283;0,064032
1323,8926;0,0639732
1324,8568;0,0639137
1325,8210;0,0638499
1326,7853;0,0637819
1327,7495;0,0637096
1328,7137;0,0636284
1329,6780;0,0635277
1330,6422;0,0633943
1331,6064;0,063218
1332,5707;0,0629949
1333,5349;0,0627262
1334,4991;0,0624103
1335,4634;0,062037
1336,4276;0,061588
1337,3918;0,0610479
1338,3561;0,0604255
1339,3203;0,0597678
1340,2845;0,0591465
1341,2488;0,05862
1342,2130;0,058207
1343,1772;0,0578931
1344,1415;0,0576532
1345,1057;0,0574692
1346,0699;0,0573356
1347,0342;0,0572569
1347,9984;0,0572434
1348,9626;0,0573053
1349,9269;0,0574479
1350,8911;0,0576685
1351,8553;0,0579575
1352,8196;0,0583043
1353,7838;0,0587042
1354,7480;0,0591618
1355,7123;0,0596844
1356,6765;0,0602724
1357,6407;0,0609134
1358,6050;0,0615847
1359,5692;0,06226
1360,5334;0,0629133
1361,4977;0,0635216
1362,4619;0,0640717
1363,4261;0,0645663
1364,3904;0,065019
1365,3546;0,0654395
1366,3188;0,0658263
1367,2831;0,0661692
1368,2473;0,0664543
1369,2115;0,0666674
1370,1758;0,0667925
1371,1400;0,0668065
1372,1042;0,0666801
1373,0685;0,0663905
1374,0327;0,0659442
1374,9969;0,0653876
1375,9612;0,0647773
1376,9254;0,0641334
1377,8896;0,0634263
1378,8539;0,0626112
1379,8181;0,061676
1380,7823;0,0606665
1381,7466;0,0596627
1382,7108;0,0587237
1383,6750;0,0578477
1384,6393;0,05698
1385,6035;0,0560639
1386,5677;0,0551063
1387,5320;0,0542037
1388,4962;0,0534782
1389,4604;0,052981
1390,4247;0,0526705
1391,3889;0,0524641
1392,3531;0,0522907
1393,3174;0,0521132
1394,2816;0,0519296
1395,2458;0,0517599
1396,2101;0,0516288
1397,1743;0,0515559
1398,1385;0,0515561
1399,1028;0,0516418
1400,0670;0,0518159
1401,0313;0,0520645
1401,9955;0,0523593
1402,9597;0,0526702
1403,9240;0,0529815
1404,8882;0,0533005
1405,8524;0,0536522
1406,8167;0,0540604
1407,7809;0,0545312
1408,7451;0,0550551
1409,7094;0,0556211
1410,6736;0,0562262
1411,6378;0,0568719
1412,6021;0,0575547
1413,5663;0,058259
1414,5305;0,0589596
1415,4948;0,0596255
1416,4590;0,0602208
1417,4232;0,0607059
1418,3875;0,0610578
1419,3517;0,0612962
1420,3159;0,0614648
1421,2802;0,0615752
1422,2444;0,0615951
1423,2086;0,0614869
1424,1729;0,0612435
1425,1371;0,0608893
1426,1013;0,0604485
1427,0656;0,0599127
1428,0298;0,0592475
1428,9940;0,0584412
1429,9583;0,0575545
1430,9225;0,0567027
1431,8867;0,0559682
1432,8510;0,0553327
1433,8152;0,0546892
1434,7794;0,0539131
1435,7437;0,0529688
1436,7079;0,0519969
1437,6721;0,0512399
1438,6364;0,0508305
1439,6006;0,0507182
1440,5648;0,0507801
1441,5291;0,0509251
1442,4933;0,051119
1443,4575;0,0513646
1444,4218;0,051672
1445,3860;0,0520382
1446,3502;0,0524446
1447,3145;0,0528674
1448,2787;0,0532913
1449,2429;0,0537153
1450,2072;0,0541438
1451,1714;0,0545732
1452,1356;0,0549847
1453,0999;0,0553435
1454,0641;0,0555938
1455,0283;0,0556442
1455,9926;0,0553898
1456,9568;0,0548675
1457,9210;0,0543903
1458,8853;0,0542405
1459,8495;0,0543799
1460,8137;0,0546063
1461,7780;0,0547246
1462,7422;0,0545732
1463,7064;0,0540403
1464,6707;0,0531447
1465,6349;0,0520847
1466,5991;0,0510999
1467,5634;0,0502765
1468,5276;0,0495244
1469,4918;0,0486643
1470,4561;0,0474908
1471,4203;0,0458375
1472,3845;0,0437238
1473,3488;0,0414837
1474,3130;0,0395588
1475,2772;0,0381249
1476,2415;0,0370804
1477,2057;0,0362631
1478,1699;0,0355651
1479,1342;0,0349369
1480,0984;0,0343649
1481,0626;0,0338605
1482,0269;0,0334527
1482,9911;0,0331715
1483,9553;0,0330252
1484,9196;0,032988
1485,8838;0,0330058
1486,8480;0,0330167
1487,8123;0,0329867
1488,7765;0,0329565
1489,7407;0,0330411
1490,7050;0,033331
1491,6692;0,0338142
1492,6334;0,0344185
1493,5977;0,0350808
1494,5619;0,0357714
1495,5261;0,0364886
1496,4904;0,0372449
1497,4546;0,0380553
1498,4188;0,0389249
1499,3831;0,0398363
1500,3473;0,0407478
1501,3115;0,0416072
1502,2758;0,0423657
1503,2400;0,0429796
1504,2042;0,0433932
1505,1685;0,0435026
1506,1327;0,0431599
1507,0969;0,0423941
1508,0612;0,0416026
1509,0254;0,0411007
1509,9896;0,0408324
1510,9539;0,0406272
1511,9181;0,0403648
1512,8823;0,0399766
1513,8466;0,0394246
1514,8108;0,0387041
1515,7750;0,0378559
1516,7393;0,0369549
1517,7035;0,0360603
1518,6677;0,0351743
1519,6320;0,0342596
1520,5962;0,0333119
1521,5604;0,0324126
1522,5247;0,0316823
1523,4889;0,0311796
1524,4531;0,0308733
1525,4174;0,0307017
1526,3816;0,0306291
1527,3458;0,0306502
1528,3101;0,0307587
1529,2743;0,0309276
1530,2385;0,0311174
1531,2028;0,0313025
1532,1670;0,0314952
1533,1312;0,0317469
1534,0955;0,0321079
1535,0597;0,0325753
1536,0239;0,0330923
1536,9882;0,0335831
1537,9524;0,0339657
1538,9166;0,0341284
1539,8809;0,0339387
1540,8451;0,0334269
1541,8093;0,0329161
1542,7736;0,0326539
1543,7378;0,0325996
1544,7020;0,0326361
1545,6663;0,0327016
1546,6305;0,0327788
1547,5947;0,0328553
1548,5590;0,0329072
1549,5232;0,0329104
1550,4874;0,032866
1551,4517;0,0328133
1552,4159;0,0328097
1553,3801;0,0328862
1554,3444;0,0330186
1555,3086;0,0331262
1556,2728;0,033075
1557,2371;0,0327
1558,2013;0,0319945
1559,1655;0,0313867
1560,1298;0,0313188
1561,0940;0,0317176
1562,0582;0,032312
1563,0225;0,0329299
1563,9867;0,0334988
1564,9509;0,0339907
1565,9152;0,0343945
1566,8794;0,0347164
1567,8436;0,0349959
1568,8079;0,0353093
1569,7721;0,0357283
1570,7363;0,0362639
1571,7006;0,0368663
1572,6648;0,0374749
1573,6290;0,0380553
1574,5933;0,0386035
1575,5575;0,0391341
1576,5217;0,0396658
1577,4860;0,0402136
1578,4502;0,0407814
1579,4144;0,0413599
1580,3787;0,0419379
1581,3429;0,0425124
1582,3071;0,0430919
1583,2714;0,0436932
1584,2356;0,0443344
1585,1998;0,0450261
1586,1641;0,0457643
1587,1283;0,046528
1588,0925;0,0472831
1589,0568;0,0479904
1590,0210;0,0486142
1590,9852;0,0491243
1591,9495;0,0494944
1592,9137;0,0497006
1593,8779;0,0497315
1594,8422;0,0496001
1595,8064;0,0493474
1596,7706;0,0490257
1597,7349;0,0486777
1598,6991;0,0483245
1599,6633;0,0479698
1600,6276;0,0476127
1601,5918;0,0472595
1602,5560;0,0469282
1603,5203;0,0466402
1604,4845;0,0464058
1605,4487;0,0462147
1606,4130;0,0460413
1607,3772;0,0458639
1608,3414;0,045689
1609,3057;0,0455569
1610,2699;0,0455151
1611,2341;0,0455776
1612,1984;0,0457104
1613,1626;0,0458493
1614,1268;0,0459271
1615,0911;0,0459091
1616,0553;0,0458372
1617,0195;0,0458299
1617,9838;0,0459792
1618,9480;0,0462673
1619,9122;0,0466074
1620,8765;0,0469191
1621,8407;0,0471611
1622,8049;0,0473371
1623,7692;0,0474853
1624,7334;0,0476475
1625,6976;0,0478376
1626,6619;0,0480447
1627,6261;0,0482607
1628,5903;0,0484945
1629,5546;0,0487598
1630,5188;0,0490518
1631,4830;0,049337
1632,4473;0,0495569
1633,4115;0,0496347
1634,3757;0,0495012
1635,3400;0,0491793
1636,3042;0,048858
1637,2684;0,0487424
1638,2327;0,0488525
1639,1969;0,049086
1640,1611;0,0493516
1641,1254;0,0496036
1642,0896;0,0498171
1643,0538;0,0499563
1644,0181;0,0499565
1644,9823;0,0497469
1645,9465;0,0493459
1646,9108;0,0489452
1647,8750;0,0487661
1648,8392;0,0488319
1649,8035;0,0489754
1650,7677;0,0489422
1651,7319;0,0484336
1652,6962;0,0472979
1653,6604;0,0459738
1654,6246;0,0451919
1655,5889;0,0450497
1656,5531;0,0451963
1657,5173;0,0453403
1658,4816;0,045331
1659,4458;0,0450919
1660,4100;0,0445929
1661,3743;0,0438837
1662,3385;0,0431264
1663,3027;0,0425182
1664,2670;0,0421453
1665,2312;0,0419434
1666,1954;0,0417641
1667,1597;0,0414432
1668,1239;0,040862
1669,0881;0,0400364
1670,0524;0,039157
1671,0166;0,03844
1671,9808;0,0379293
1672,9451;0,0375028
1673,9093;0,0370182
1674,8735;0,0364344
1675,8378;0,0358472
1676,8020;0,0354084
1677,7662;0,0351927
1678,7305;0,0351531
1679,6947;0,03517
1680,6589;0,0350933
1681,6232;0,0347485
1682,5874;0,0339814
1683,5516;0,0328469
1684,5159;0,0317407
1685,4801;0,0310422
1686,4443;0,0307549
1687,4086;0,0306754
1688,3728;0,03064
1689,3370;0,0305849
1690,3013;0,030515
1691,2655;0,0304573
1692,2297;0,0304264
1693,1940;0,0304123
1694,1582;0,0303846
1695,1224;0,0303041
1696,0867;0,0301382
1697,0509;0,0298764
1698,0151;0,0295477
1698,9794;0,0292301
1699,9436;0,029029
1700,9078;0,0290183
1701,8721;0,0291976
1702,8363;0,0295096
1703,8005;0,0298867
1704,7648;0,0302828
1705,7290;0,0306831
1706,6932;0,0311006
1707,6575;0,0315623
1708,6217;0,0320897
1709,5859;0,0326883
1710,5502;0,0333461
1711,5144;0,0340369
1712,4786;0,0347225
1713,4429;0,0353577
1714,4071;0,0359034
1715,3713;0,0363494
1716,3356;0,0367439
1717,2998;0,0371864
1718,2640;0,0377489
1719,2283;0,0384176
1720,1925;0,0391344
1721,1567;0,03985
1722,1210;0,0405365
1723,0852;0,0411797
1724,0494;0,041775
1725,0137;0,0423283
1725,9779;0,0428543
1726,9421;0,0433679
1727,9064;0,0438704
1728,8706;0,0443404
1729,8348;0,0447298
1730,7991;0,0449631
1731,7633;0,0449513
1732,7275;0,0446532
1733,6918;0,0441668
1734,6560;0,0436983
1735,6202;0,0433681
1736,5845;0,0431245
1737,5487;0,0428346
1738,5129;0,0423855
1739,4772;0,0417354
1740,4414;0,0409296
1741,4056;0,040069
1742,3699;0,0392373
1743,3341;0,038451
1744,2983;0,0376769
1745,2626;0,0368738
1746,2268;0,036004
1747,1910;0,0350173
1748,1553;0,033853
1749,1195;0,0325001
1750,0837;0,0310719
1751,0480;0,0297635
1752,0122;0,0286998
1752,9764;0,0278619
1753,9407;0,0271419
1754,9049;0,0264334
1755,8691;0,0256865
1756,8334;0,0249158
1757,7976;0,0241624
1758,7618;0,0234418
1759,7261;0,0227286
1760,6903;0,021996
1761,6545;0,0212682
1762,6188;0,0206207
1763,5830;0,02012
1764,5472;0,0197684
1765,5115;0,0195078
1766,4757;0,0192613
1767,4399;0,0189694
1768,4042;0,0186015
1769,3684;0,0181478
1770,3326;0,0176135
1771,2969;0,017034
1772,2611;0,0164977
1773,2253;0,0161159
1774,1896;0,0159436
1775,1538;0,0159437
1776,1180;0,0160257
1777,0823;0,0160975
1778,0465;0,0160964
1779,0107;0,0160026
1779,9750;0,0158389
1780,9392;0,0156509
1781,9034;0,0154758
1782,8677;0,0153283
1783,8319;0,0152132
1784,7961;0,0151431
1785,7604;0,0151382
1786,7246;0,0152068
1787,6888;0,0153284
1788,6531;0,0154535
1789,6173;0,0155146
1790,5815;0,0154524
1791,5458;0,0152595
1792,5100;0,015014
1793,4742;0,0148334
1794,4385;0,0147773
1795,4027;0,0148179
1796,3669;0,0148859
1797,3312;0,0149187
1798,2954;0,0148822
1799,2596;0,0147788
1800,2239;0,0146435
1801,1881;0,0145243
1802,1523;0,0144561
1803,1166;0,0144485
1804,0808;0,0144923
1805,0450;0,0145701
1806,0093;0,0146597
1806,9735;0,0147339
1807,9377;0,0147623
1808,9020;0,0147222
1809,8662;0,0146141
1810,8304;0,0144692
1811,7947;0,0143351
1812,7589;0,0142475
1813,7231;0,0142129
1814,6874;0,0142145
1815,6516;0,0142298
1816,6158;0,0142479
1817,5801;0,0142756
1818,5443;0,0143299
1819,5085;0,0144208
1820,4728;0,0145387
1821,4370;0,0146563
1822,4012;0,0147411
1823,3655;0,0147709
1824,3297;0,0147448
1825,2939;0,01468
1826,2582;0,0145939
1827,2224;0,0144903
1828,1866;0,0143644
1829,1509;0,0142226
1830,1151;0,0140972
1831,0793;0,0140307
1832,0436;0,0140419
1833,0078;0,0141119
1833,9720;0,0142006
1834,9363;0,0142723
1835,9005;0,0143152
1836,8647;0,0143455
1837,8290;0,0143943
1838,7932;0,0144809
1839,7574;0,0145953
1840,7217;0,0147012
1841,6859;0,0147523
1842,6501;0,0147125
1843,6144;0,0145828
1844,5786;0,0144138
1845,5428;0,0142768
1846,5071;0,0142109
1847,4713;0,0142084
1848,4355;0,0142394
1849,3998;0,0142785
1850,3640;0,0143132
1851,3282;0,0143408
1852,2925;0,0143619
1853,2567;0,0143765
1854,2209;0,0143856
1855,1852;0,0143931
1856,1494;0,0144045
1857,1136;0,0144229
1858,0779;0,0144444
1859,0421;0,0144608
1860,0063;0,0144673
1860,9706;0,014469
1861,9348;0,0144794
1862,8990;0,0145096
1863,8633;0,0145589
1864,8275;0,0146122
1865,7917;0,0146478
1866,7560;0,0146498
1867,7202;0,014621
1868,6844;0,0145844
1869,6487;0,0145643
1870,6129;0,0145627
1871,5771;0,01456
1872,5414;0,0145354
1873,5056;0,0144842
1874,4698;0,0144223
1875,4341;0,0143774
1876,3983;0,0143718
1877,3625;0,0144066
1878,3268;0,01446
1879,2910;0,014503
1880,2552;0,014519
1881,2195;0,0145135
1882,1837;0,0145092
1883,1479;0,0145282
1884,1122;0,0145756
1885,0764;0,0146346
1886,0406;0,0146763
1887,0049;0,014677
1887,9691;0,0146354
1888,9333;0,0145777
1889,8976;0,0145449
1890,8618;0,0145653
1891,8260;0,0146355
1892,7903;0,0147233
1893,7545;0,014787
1894,7188;0,014799
1895,6830;0,0147604
1896,6472;0,0147013
1897,6115;0,0146626
1898,5757;0,0146721
1899,5399;0,0147304
1900,5042;0,0148142
1901,4684;0,014891
1902,4326;0,0149374
1903,3969;0,0149497
1904,3611;0,0149439
1905,3253;0,0149428
1906,2896;0,0149612
1907,2538;0,0149974
1908,2180;0,0150352
1909,1823;0,0150544
1910,1465;0,0150452
1911,1107;0,0150145
1912,0750;0,0149808
1913,0392;0,0149634
1914,0034;0,0149741
1914,9677;0,0150152
1915,9319;0,0150795
1916,8961;0,0151508
1917,8604;0,0152076
1918,8246;0,0152301
1919,7888;0,0152086
1920,7531;0,0151461
1921,7173;0,0150575
1922,6815;0,0149665
1923,6458;0,0148974
1924,6100;0,0148661
1925,5742;0,014873
1926,5385;0,0149068
1927,5027;0,0149544
1928,4669;0,0150109
1929,4312;0,015083
1930,3954;0,0151841
1931,3596;0,0153224
1932,3239;0,015489
1933,2881;0,0156551
1934,2523;0,0157818
1935,2166;0,0158406
1936,1808;0,0158316
1937,1450;0,0157865
1938,1093;0,0157524
1939,0735;0,0157649
1940,0377;0,0158286
1941,0020;0,0159125
1941,9662;0,0159678
1942,9304;0,0159586
1943,8947;0,0158858
1944,8589;0,0157831
1945,8231;0,0156928
1946,7874;0,0156454
1947,7516;0,0156529
1948,7158;0,0157093
1949,6801;0,0157926
1950,6443;0,0158668
1951,6085;0,015895
1952,5728;0,0158612
1953,5370;0,015791
1954,5012;0,0157514
1955,4655;0,015821
1956,4297;0,0160411
1957,3939;0,0163793
1958,3582;0,0167332
1959,3224;0,0169784
1960,2866;0,0170387
1961,2509;0,0169335
1962,2151;0,0167722
1963,1793;0,0166978
1964,1436;0,0168207
1965,1078;0,0171706
1966,0720;0,0176784
1967,0363;0,0181917
1968,0005;0,0185292
1968,9647;0,0185575
1969,9290;0,0182508
1970,8932;0,0177028
1971,8574;0,0170941
1972,8217;0,0166283
1973,7859;0,01646
1974,7501;0,0166353
1975,7144;0,0170806
1976,6786;0,017648
1977,6428;0,0181926
1978,6071;0,0186265
1979,5713;0,0189184
1980,5355;0,0190582
1981,4998;0,019032
1982,4640;0,0188266
1983,4282;0,0184553
1984,3925;0,0179783
1985,3567;0,0174987
1986,3209;0,0171328
1987,2852;0,0169713
1988,2494;0,0170525
1989,2136;0,0173556
1990,1779;0,0178063
1991,1421;0,0182926
1992,1063;0,0186937
1993,0706;0,0189216
1994,0348;0,0189539
1994,9990;0,0188392
1995,9633;0,0186704
1996,9275;0,0185427
1997,8917;0,0185112
1998,8560;0,0185661
1999,8202;0,0186426
2000,7844;0,0186651
2001,7487;0,0186022
2002,7129;0,0184987
2003,6771;0,0184648
2004,6414;0,0186262
2005,6056;0,019055
2006,5698;0,0197158
2007,5341;0,0204601
2008,4983;0,0210814
2009,4625;0,0214001
2010,4268;0,0213317
2011,3910;0,0209081
2012,3552;0,0202566
2013,3195;0,0195598
2014,2837;0,0190085
2015,2479;0,0187552
2016,2122;0,0188693
2017,1764;0,0193096
2018,1406;0,0199337
2019,1049;0,0205508
2020,0691;0,0209957
2021,0333;0,0211898
2021,9976;0,0211672
2022,9618;0,0210561
2023,9260;0,0210157
2024,8903;0,0211514
2025,8545;0,0214514
2026,8187;0,0217857
2027,7830;0,0219773
2028,7472;0,0219053
2029,7114;0,0215793
2030,6757;0,0211403
2031,6399;0,0207857
2032,6041;0,0206647
2033,5684;0,0208046
2034,5326;0,0211102
2035,4968;0,0214276
2036,4611;0,021624
2037,4253;0,0216333
2038,3895;0,0214525
2039,3538;0,0211144
2040,3180;0,0206656
2041,2822;0,0201597
2042,2465;0,0196622
2043,2107;0,01925
2044,1749;0,0190005
2045,1392;0,0189684
2046,1034;0,0191606
2047,0676;0,0195193
2048,0320;0,0199333
2048,9961;0,0202785
2049,9604;0,0204689
2050,9246;0,0204818
2051,8889;0,0203482
2052,8530;0,0201232
2053,8174;0,0198557
2054,7815;0,0195723
2055,7458;0,0192792
2056,7100;0,0189815
2057,6743;0,018705
2058,6384;0,0185022
2059,6028;0,0184346
2060,5669;0,018537
2061,5313;0,0187863
2062,4954;0,0190972
2063,4597;0,0193518
2064,4238;0,0194512
2065,3882;0,0193617
2066,3523;0,0191288
2067,3167;0,0188525
2068,2808;0,0186414
2069,2451;0,0185705
2070,2092;0,0186584
2071,1736;0,0188673
2072,1377;0,0191199
2073,1021;0,0193281
2074,0662;0,0194227
2075,0305;0,019376
2075,9946;0,0192065
2076,9590;0,018966
2077,9231;0,018716
2078,8875;0,0185062
2079,8516;0,0183652
2080,8159;0,0183042
2081,7800;0,0183244
2082,7444;0,0184195
2083,7085;0,0185707
2084,6729;0,0187418
2085,6370;0,018884
2086,6013;0,0189516
2087,5654;0,0189215
2088,5298;0,0188045
2089,4939;0,0186403
2090,4583;0,0184804
2091,4224;0,0183678
2092,3867;0,0183248
2093,3508;0,0183516
2094,3152;0,0184309
2095,2793;0,0185345
2096,2437;0,0186304
2097,2078;0,0186905
2098,1721;0,0187001
2099,1362;0,0186653
2100,1006;0,0186151
2101,0647;0,0185914
2102,0291;0,0186324
2102,9932;0,0187508
2103,9575;0,018921
2104,9216;0,0190818
2105,8860;0,0191606
2106,8501;0,0191084
2107,8145;0,01893
2108,7786;0,0186889
2109,7429;0,0184803
2110,7070;0,0183835
2111,6714;0,0184201
2112,6355;0,0185438
2113,5999;0,0186697
2114,5640;0,0187239
2115,5283;0,018684
2116,4924;0,0185844
2117,4568;0,0184872
2118,4209;0,0184404
2119,3853;0,0184508
2120,3494;0,0184864
2121,3137;0,0185038
2122,2778;0,0184776
2123,2422;0,0184128
2124,2063;0,0183345
2125,1707;0,0182687
2126,1348;0,0182293
2127,0991;0,0182192
2128,0632;0,0182411
2129,0276;0,0183046
2129,9917;0,0184238
2130,9561;0,0186077
2131,9202;0,0188505
2132,8845;0,0191296
2133,8486;0,0194096
2134,8130;0,0196479
2135,7771;0,0198017
2136,7415;0,0198372
2137,7056;0,0197434
2138,6699;0,0195471
2139,6340;0,0193167
2140,5984;0,0191459
2141,5625;0,0191214
2142,5269;0,0192876
2143,4910;0,0196307
2144,4553;0,0200897
2145,4194;0,0205851
2146,3838;0,021048
2147,3479;0,0214309
2148,3123;0,0217045
2149,2764;0,021851
2150,2407;0,0218636
2151,2048;0,021756
2152,1692;0,0215713
2153,1333;0,0213838
2154,0977;0,0212924
2155,0618;0,021405
2156,0261;0,0218105
2156,9902;0,0225318
2157,9546;0,0234732
2158,9187;0,0244187
2159,8831;0,0251201
2160,8472;0,0254258
2161,8115;0,0253372
2162,7756;0,0249671
2163,7400;0,0244582
2164,7041;0,023926
2165,6685;0,0234407
2166,6326;0,0230382
2167,5969;0,0227399
2168,5610;0,0225612
2169,5254;0,0225048
2170,4895;0,0225466
2171,4539;0,0226313
2172,4180;0,0226854
2173,3823;0,0226453
2174,3464;0,0224874
2175,3108;0,022242
2176,2749;0,0219805
2177,2393;0,02178
2178,2034;0,0216833
2179,1677;0,0216753
2180,1318;0,0216915
2181,0962;0,0216581
2182,0603;0,0215423
2183,0247;0,0213809
2183,9888;0,0212599
2184,9531;0,0212533
2185,9172;0,0213639
2186,8816;0,0215102
2187,8457;0,0215698
2188,8101;0,0214529
2189,7742;0,0211572
2190,7385;0,0207711
2191,7026;0,0204242
2192,6670;0,0202208
2193,6311;0,0201947
2194,5955;0,0203059
2195,5596;0,0204709
2196,5239;0,0206027
2197,4880;0,020642
2198,4524;0,0205724
2199,4165;0,0204225
2200,3809;0,0202535
2201,3450;0,0201353
2202,3093;0,0201138
2203,2734;0,0201842
2204,2378;0,0202906
2205,2019;0,0203555
2206,1663;0,0203269
2207,1304;0,0202121
2208,0947;0,020075
2209,0588;0,0199958
2210,0232;0,0200192
2210,9873;0,0201256
2211,9517;0,0202435
2212,9158;0,0202941
2213,8801;0,0202372
2214,8442;0,0200892
2215,8086;0,0199075
2216,7727;0,019754
2217,7371;0,0196651
2218,7012;0,019643
2219,6655;0,019666
2220,6296;0,0197066
2221,5940;0,0197422
2222,5581;0,0197579
2223,5225;0,0197447
2224,4866;0,0196999
2225,4509;0,0196296
2226,4150;0,0195491
2227,3794;0,0194763
2228,3435;0,0194224
2229,3079;0,0193836
2230,2720;0,0193422
2231,2363;0,0192776
2232,2004;0,0191817
2233,1648;0,0190692
2234,1289;0,0189743
2235,0933;0,0189343
2236,0574;0,0189674
2237,0217;0,0190575
2237,9858;0,0191576
2238,9502;0,0192114
2239,9143;0,0191836
2240,8787;0,0190797
2241,8428;0,0189446
2242,8071;0,0188376
2243,7712;0,0187998
2244,7356;0,0188337
2245,6997;0,0189056
2246,6641;0,0189679
2247,6282;0,018985
2248,5925;0,0189478
2249,5566;0,0188708
2250,5210;0,0187804
2251,4851;0,0187026
2252,4495;0,0186583
2253,4136;0,0186607
2254,3779;0,0187123
2255,3420;0,0187988
2256,3064;0,018886
2257,2705;0,0189283
2258,2349;0,0188864
2259,1990;0,0187486
2260,1633;0,0185416
2261,1274;0,0183237
2262,0918;0,018162
2263,0559;0,0181047
2264,0203;0,0181616
2264,9844;0,0183032
2265,9487;0,0184758
2266,9128;0,0186262
2267,8772;0,0187198
2268,8413;0,0187476
2269,8057;0,0187206
2270,7698;0,0186573
2271,7341;0,0185746
2272,6982;0,0184829
2273,6626;0,0183881
2274,6267;0,018295
2275,5911;0,0182107
2276,5552;0,0181442
2277,5195;0,0181041
2278,4836;0,0180949
2279,4480;0,0181142
2280,4121;0,0181531
2281,3765;0,0182001
2282,3406;0,0182465
2283,3049;0,0182907
2284,2690;0,0183377
2285,2334;0,0183945
2286,1975;0,018463
2287,1619;0,0185351
2288,1260;0,0185951
2289,0903;0,0186267
2290,0544;0,0186226
2291,0188;0,0185903
2291,9829;0,0185503
2292,9473;0,0185272
2293,9114;0,0185386
2294,8757;0,0185865
2295,8398;0,0186556
2296,8042;0,0187211
2297,7683;0,0187609
2298,7327;0,0187675
2299,6968;0,0187532
2300,6611;0,0187449
2301,6252;0,0187703
2302,5896;0,0188434
2303,5537;0,0189579
2304,5181;0,0190916
2305,4822;0,0192178
2306,4465;0,0193172
2307,4106;0,0193822
2308,3750;0,0194136
2309,3391;0,0194144
2310,3035;0,019388
2311,2676;0,0193408
2312,2319;0,0192862
2313,1960;0,0192412
2314,1604;0,019217
2315,1245;0,0192104
2316,0889;0,0192061
2317,0530;0,0191903
2318,0173;0,0191649
2318,9814;0,0191519
2319,9458;0,0191788
2320,9099;0,0192538
2321,8743;0,0193486
2322,8384;0,019411
2323,8027;0,0193959
2324,7668;0,019291
2325,7312;0,0191195
2326,6953;0,0189252
2327,6597;0,0187523
2328,6238;0,0186283
2329,5881;0,0185574
2330,5522;0,0185265
2331,5166;0,0185188
2332,4807;0,0185193
2333,4451;0,0185116
2334,4092;0,0184753
2335,3735;0,0183948
2336,3376;0,0182753
2337,3020;0,0181527
2338,2661;0,0180814
2339,2305;0,0180988
2340,1946;0,0181877
2341,1589;0,0182665
2342,1230;0,0182294
2343,0874;0,0180369
2344,0515;0,017796
2345,0159;0,0177082
2345,9800;0,0178968
2346,9443;0,0183147
2347,9084;0,0188105
2348,8728;0,0192342
2349,8369;0,0194959
2350,8013;0,0195762
2351,7654;0,0195122
2352,7297;0,0193778
2353,6938;0,0192666
2354,6582;0,0192741
2355,6223;0,0194604
2356,5867;0,0198016
2357,5508;0,0201742
2358,5151;0,0204067
2359,4792;0,0203764
2360,4436;0,0200804
2361,4077;0,0196188
2362,3721;0,019112
2363,3362;0,0186355
2364,3005;0,0182127
2365,2646;0,0178458
2366,2290;0,0175433
2367,1931;0,0173224
2368,1575;0,0171942
2369,1216;0,0171491
2370,0859;0,0171558
2371,0500;0,0171744
2372,0144;0,0171744
2372,9785;0,0171467
2373,9429;0,0171039
2374,9070;0,0170706
2375,8713;0,0170701
2376,8354;0,0171149
2377,7998;0,0172039
2378,7639;0,0173257
2379,7283;0,0174635
2380,6924;0,0175998
2381,6567;0,0177194
2382,6208;0,017811
2383,5852;0,0178687
2384,5493;0,0178932
2385,5137;0,0178919
2386,4778;0,0178767
2387,4421;0,0178611
2388,4063;0,0178547
2389,3706;0,0178605
2390,3347;0,0178738
2391,2991;0,0178862
2392,2632;0,0178908
2393,2275;0,0178865
2394,1917;0,0178789
2395,1560;0,0178778
2396,1201;0,0178911
2397,0845;0,0179219
2398,0486;0,0179668
2399,0129;0,0180171
2399,9771;0,0180627
2400,9414;0,0180956
2401,9055;0,0181128
2402,8699;0,0181188
2403,8340;0,0181238
2404,7983;0,0181402
2405,7625;0,0181758
2406,7268;0,0182285
2407,6909;0,0182868
2408,6553;0,0183351
2409,6194;0,0183631
2410,5837;0,0183713
2411,5479;0,0183704
2412,5122;0,0183738
2413,4763;0,0183897
2414,4407;0,0184173
2415,4048;0,0184495
2416,3691;0,0184792
2417,3333;0,0185034
2418,2976;0,0185238
2419,2617;0,0185433
2420,2261;0,018563
2421,1902;0,0185825
2422,1545;0,0186018
2423,1187;0,018623
2424,0830;0,0186492
2425,0471;0,0186816
2426,0115;0,0187175
2426,9756;0,0187514
2427,9399;0,0187791
2428,9041;0,0188013
2429,8684;0,0188237
2430,8325;0,0188532
2431,7969;0,0188939
2432,7610;0,0189437
2433,7253;0,0189956
2434,6895;0,0190416
2435,6538;0,0190761
2436,6179;0,0190975
2437,5823;0,0191077
2438,5464;0,0191105
2439,5107;0,0191118
2440,4749;0,0191197
2441,4392;0,0191426
2442,4033;0,0191867
2443,3677;0,0192507
2444,3318;0,0193243
2445,2961;0,019391
2446,2603;0,019436
2447,2246;0,0194541
2448,1887;0,0194524
2449,1531;0,0194466
2450,1172;0,0194522
2451,0815;0,0194763
2452,0457;0,0195141
2453,0100;0,0195531
2453,9741;0,0195791
2454,9385;0,0195837
2455,9026;0,0195668
2456,8669;0,0195368
2457,8311;0,0195071
2458,7954;0,019492
2459,7595;0,0195017
2460,7239;0,0195379
2461,6880;0,0195928
2462,6523;0,0196508
2463,6165;0,0196948
2464,5808;0,0197135
2465,5449;0,019706
2466,5093;0,019682
2467,4734;0,0196563
2468,4377;0,019642
2469,4019;0,0196447
2470,3662;0,0196623
2471,3303;0,019688
2472,2947;0,0197154
2473,2588;0,0197423
2474,2231;0,0197707
2475,1873;0,0198036
2476,1516;0,0198421
2477,1157;0,0198829
2478,0801;0,0199201
2479,0442;0,019948
2480,0085;0,0199644
2480,9727;0,0199707
2481,9370;0,0199702
2482,9011;0,0199661
2483,8655;0,0199603
2484,8296;0,0199544
2485,7939;0,0199513
2486,7581;0,0199557
2487,7224;0,0199724
2488,6865;0,0200034
2489,6509;0,0200456
2490,6150;0,020092
2491,5793;0,0201335
2492,5435;0,0201623
2493,5078;0,0201746
2494,4719;0,0201707
2495,4363;0,0201555
2496,4004;0,0201367
2497,3647;0,0201232
2498,3289;0,0201224
2499,2932;0,020138
2500,2573;0,0201678
2501,2217;0,0202048
2502,1858;0,0202397
2503,1501;0,0202642
2504,1143;0,0202742
2505,0786;0,0202704
2506,0427;0,0202569
2507,0071;0,0202398
2507,9712;0,0202253
2508,9355;0,0202193
2509,8997;0,0202261
2510,8640;0,0202472
2511,8281;0,0202795
2512,7925;0,0203164
2513,7566;0,0203504
2514,7209;0,0203774
2515,6851;0,0203996
2516,6494;0,0204232
2517,6135;0,0204532
2518,5779;0,0204872
2519,5420;0,020514
2520,5063;0,0205192
2521,4705;0,0204945
2522,4348;0,0204448
2523,3989;0,0203882
2524,3633;0,0203473
2525,3274;0,0203382
2526,2917;0,0203623
2527,2559;0,0204072
2528,2202;0,020454
2529,1843;0,0204876
2530,1487;0,0205038
2531,1128;0,0205099
2532,0771;0,0205191
2533,0413;0,0205434
2534,0056;0,0205865
2534,9697;0,0206425
2535,9341;0,0206994
2536,8982;0,0207456
2537,8625;0,0207747
2538,8267;0,0207859
2539,7910;0,0207801
2540,7551;0,020757
2541,7195;0,0207155
2542,6836;0,020659
2543,6479;0,0205993
2544,6121;0,0205552
2545,5764;0,0205426
2546,5405;0,0205635
2547,5049;0,0206022
2548,4690;0,0206339
2549,4333;0,0206395
2550,3975;0,0206195
2551,3618;0,0205932
2552,3259;0,020586
2553,2903;0,0206127
2554,2544;0,0206676
2555,2188;0,0207283
2556,1829;0,0207695
2557,1472;0,020777
2558,1113;0,0207543
2559,0757;0,0207186
2560,0398;0,0206907
2561,0042;0,0206848
2561,9683;0,020703
2562,9326;0,0207357
2563,8967;0,0207678
2564,8611;0,0207854
2565,8252;0,0207823
2566,7896;0,020762
2567,7537;0,0207353
2568,7180;0,0207137
2569,6821;0,0207037
2570,6465;0,0207035
2571,6106;0,0207064
2572,5750;0,0207068
2573,5391;0,0207065
2574,5034;0,0207144
2575,4675;0,0207415
2576,4319;0,0207918
2577,3960;0,0208573
2578,3604;0,0209199
2579,3245;0,0209605
2580,2888;0,0209698
2581,2529;0,0209533
2582,2173;0,0209273
2583,1814;0,0209092
2584,1458;0,0209083
2585,1099;0,020924
2586,0742;0,0209503
2587,0383;0,0209828
2588,0027;0,021021
2588,9668;0,0210657
2589,9312;0,0211134
2590,8953;0,0211553
2591,8596;0,0211814
2592,8237;0,0211877
2593,7881;0,0211799
2594,7522;0,0211698
2595,7166;0,0211685
2596,6807;0,0211796
2597,6450;0,0211992
2598,6091;0,0212212
2599,5735;0,0212425
2600,5376;0,0212653
2601,5020;0,0212936
2602,4661;0,0213278
2603,4304;0,0213621
2604,3945;0,0213876
2605,3589;0,0213986
2606,3230;0,0213981
2607,2874;0,021398
2608,2515;0,0214138
2609,2158;0,0214545
2610,1799;0,0215163
2611,1443;0,0215816
2612,1084;0,0216275
2613,0728;0,0216377
2614,0369;0,0216122
2615,0012;0,021568
2615,9653;0,0215306
2616,9297;0,0215211
2617,8938;0,021546
2618,8582;0,0215964
2619,8223;0,0216541
2620,7866;0,0217021
2621,7507;0,0217317
2622,7151;0,0217432
2623,6792;0,0217433
2624,6436;0,0217403
2625,6077;0,0217413
2626,5720;0,0217518
2627,5361;0,021775
2628,5005;0,0218119
2629,4646;0,0218602
2630,4290;0,0219147
2631,3931;0,0219682
2632,3574;0,0220138
2633,3215;0,0220466
2634,2859;0,0220655
2635,2500;0,0220725
2636,2144;0,0220728
2637,1785;0,0220735
2638,1428;0,0220818
2639,1069;0,0221029
2640,0713;0,0221387
2641,0354;0,022186
2641,9998;0,0222376
2642,9639;0,0222842
2643,9282;0,0223176
2644,8923;0,0223343
2645,8567;0,022337
2646,8208;0,022334
2647,7852;0,0223358
2648,7493;0,0223503
2649,7136;0,0223793
2650,6777;0,0224176
2651,6421;0,022456
2652,6062;0,0224853
2653,5706;0,0225008
2654,5347;0,0225039
2655,4990;0,022501
2656,4631;0,0225001
2657,4275;0,0225074
2658,3916;0,0225249
2659,3560;0,02255
2660,3201;0,0225772
2661,2844;0,0226005
2662,2485;0,0226156
2663,2129;0,0226215
2664,1770;0,0226202
2665,1414;0,0226161
2666,1055;0,0226136
2667,0698;0,022616
2668,0339;0,0226244
2668,9983;0,0226382
2669,9624;0,0226567
2670,9268;0,0226795
2671,8909;0,022707
2672,8552;0,0227395
2673,8193;0,0227758
2674,7837;0,0228125
2675,7478;0,0228446
2676,7122;0,022868
2677,6763;0,0228818
2678,6406;0,0228899
2679,6047;0,0228998
2680,5691;0,0229199
2681,5332;0,0229553
2682,4976;0,0230052
2683,4617;0,0230632
2684,4260;0,0231198
2685,3901;0,0231665
2686,3545;0,0231988
2687,3186;0,023218
2688,2830;0,0232297
2689,2471;0,023241
2690,2114;0,0232573
2691,1755;0,0232805
2692,1399;0,0233085
2693,1040;0,0233376
2694,0684;0,0233647
2695,0325;0,0233893
2695,9968;0,0234139
2696,9609;0,023442
2697,9253;0,023476
2698,8894;0,0235161
2699,8538;0,0235601
2700,8179;0,0236057
2701,7822;0,0236515
2702,7463;0,0236972
2703,7107;0,0237425
2704,6748;0,023786
2705,6392;0,0238251
2706,6033;0,0238579
2707,5676;0,0238848
2708,5317;0,0239094
2709,4961;0,0239368
2710,4602;0,0239705
2711,4246;0,0240103
2712,3887;0,0240521
2713,3530;0,0240902
2714,3171;0,0241204
2715,2815;0,0241423
2716,2456;0,0241599
2717,2100;0,0241788
2718,1741;0,024204
2719,1384;0,0242363
2720,1025;0,0242722
2721,0669;0,024305
2722,0310;0,0243285
2722,9954;0,0243404
2723,9595;0,024345
2724,9238;0,0243511
2725,8879;0,0243687
2726,8523;0,024403
2727,8164;0,0244524
2728,7808;0,0245097
2729,7449;0,024566
2730,7092;0,0246156
2731,6733;0,0246573
2732,6377;0,0246923
2733,6018;0,0247209
2734,5662;0,0247411
2735,5303;0,0247501
2736,4946;0,0247481
2737,4587;0,0247407
2738,4231;0,024737
2739,3872;0,0247454
2740,3516;0,02477
2741,3157;0,0248084
2742,2800;0,0248546
2743,2441;0,0249023
2744,2085;0,0249465
2745,1726;0,0249838
2746,1370;0,0250121
2747,1011;0,0250307
2748,0654;0,025042
2749,0295;0,0250521
2749,9939;0,0250693
2750,9580;0,0250994
2751,9224;0,0251421
2752,8865;0,0251901
2753,8508;0,0252334
2754,8149;0,0252654
2755,7793;0,0252868
2756,7434;0,025305
2757,7078;0,0253284
2758,6719;0,0253613
2759,6362;0,0254012
2760,6003;0,0254411
2761,5647;0,0254739
2762,5288;0,0254967
2763,4932;0,0255117
2764,4573;0,0255251
2765,4216;0,0255446
2766,3857;0,0255771
2767,3501;0,0256265
2768,3142;0,0256916
2769,2786;0,0257649
2770,2427;0,0258344
2771,2070;0,0258883
2772,1711;0,0259208
2773,1355;0,025936
2774,0996;0,0259464
2775,0640;0,0259662
2776,0281;0,0260039
2776,9924;0,0260583
2777,9565;0,026121
2778,9209;0,0261825
2779,8850;0,0262378
2780,8494;0,0262882
2781,8135;0,0263383
2782,7778;0,0263917
2783,7419;0,0264485
2784,7063;0,0265057
2785,6704;0,0265595
2786,6348;0,026607
2787,5989;0,026648
2788,5632;0,026685
2789,5273;0,0267232
2790,4917;0,0267692
2791,4558;0,0268287
2792,4202;0,0269039
2793,3843;0,0269913
2794,3486;0,027083
2795,3127;0,0271698
2796,2771;0,0272466
2797,2412;0,027314
2798,2056;0,0273782
2799,1697;0,0274465
2800,1340;0,0275242
2801,0981;0,0276127
2802,0625;0,0277106
2803,0266;0,0278154
2803,9910;0,0279243
2804,9551;0,0280343
2805,9194;0,0281418
2806,8835;0,0282437
2807,8479;0,0283398
2808,8120;0,0284333
2809,7764;0,0285303
2810,7405;0,0286365
2811,7048;0,0287542
2812,6689;0,028881
2813,6333;0,029012
2814,5974;0,0291431
2815,5618;0,0292732
2816,5259;0,0294043
2817,4902;0,0295387
2818,4543;0,0296769
2819,4187;0,0298177
2820,3828;0,0299599
2821,3472;0,0301052
2822,3113;0,0302588
2823,2756;0,030427
2824,2397;0,0306139
2825,2041;0,0308187
2826,1682;0,0310359
2827,1326;0,0312588
2828,0967;0,0314826
2829,0610;0,0317077
2830,0251;0,0319384
2830,9895;0,0321809
2831,9536;0,0324409
2832,9180;0,0327214
2833,8821;0,0330229
2834,8464;0,033344
2835,8105;0,0336826
2836,7749;0,034038
2837,7390;0,0344121
2838,7034;0,0348123
2839,6675;0,035252
2840,6318;0,0357502
2841,5959;0,0363275
2842,5603;0,0369989
2843,5244;0,0377646
2844,4888;0,0386021
2845,4529;0,0394626
2846,4172;0,0402749
2847,3813;0,0409583
2848,3457;0,0414417
2849,3098;0,0416833
2850,2742;0,0416825
2851,2383;0,0414796
2852,2026;0,0411429
2853,1667;0,0407485
2854,1311;0,040362
2855,0952;0,0400269
2856,0596;0,0397633
2857,0237;0,0395742
2857,9880;0,0394534
2858,9521;0,0393921
2859,9165;0,0393813
2860,8806;0,0394116
2861,8450;0,0394739
2862,8091;0,0395602
2863,7734;0,0396665
2864,7375;0,0397923
2865,7019;0,0399395
2866,6660;0,040108
2867,6304;0,0402925
2868,5945;0,0404825
2869,5588;0,0406647
2870,5229;0,0408285
2871,4873;0,040969
2872,4514;0,041088
2873,4158;0,0411918
2874,3799;0,0412877
2875,3442;0,0413813
2876,3083;0,041476
2877,2727;0,0415733
2878,2368;0,0416746
2879,2012;0,0417808
2880,1653;0,0418925
2881,1296;0,0420094
2882,0938;0,04213
2883,0581;0,0422521
2884,0222;0,0423744
2884,9866;0,0424968
2885,9507;0,0426207
2886,9150;0,0427482
2887,8792;0,0428804
2888,8435;0,0430162
2889,8076;0,0431516
2890,7720;0,0432811
2891,7361;0,0434005
2892,7004;0,0435092
2893,6646;0,0436122
2894,6289;0,0437184
2895,5930;0,0438372
2896,5574;0,0439736
2897,5215;0,0441254
2898,4858;0,0442838
2899,4500;0,0444375
2900,4143;0,0445791
2901,3784;0,0447099
2902,3428;0,04484
2903,3069;0,0449849
2904,2712;0,0451591
2905,2354;0,0453722
2906,1997;0,0456286
2907,1638;0,045932
2908,1282;0,0462906
2909,0923;0,0467178
2910,0566;0,0472273
2911,0208;0,0478227
2911,9851;0,0484865
2912,9492;0,0491752
2913,9136;0,0498247
2914,8777;0,0503639
2915,8420;0,0507337
2916,8062;0,0509016
2917,7705;0,0508671
2918,7346;0,0506566
2919,6990;0,050311
2920,6631;0,0498723
2921,6274;0,049375
2922,5916;0,0488441
2923,5559;0,0482978
2924,5200;0,0477514
2925,4844;0,0472189
2926,4485;0,0467124
2927,4128;0,0462414
2928,3770;0,0458112
2929,3413;0,0454234
2930,3054;0,0450765
2931,2698;0,0447649
2932,2339;0,0444793
2933,1982;0,0442064
2934,1624;0,0439324
2935,1267;0,0436459
2936,0908;0,0433422
2937,0552;0,0430232
2938,0193;0,0426954
2938,9836;0,042366
2939,9478;0,0420395
2940,9121;0,0417162
2941,8762;0,0413942
2942,8406;0,0410717
2943,8047;0,0407502
2944,7690;0,040435
2945,7332;0,0401348
2946,6975;0,0398579
2947,6616;0,0396096
2948,6260;0,0393889
2949,5901;0,039189
2950,5544;0,0389991
2951,5186;0,0388091
2952,4829;0,0386122
2953,4470;0,0384064
2954,4114;0,0381935
2955,3755;0,0379761
2956,3398;0,0377559
2957,3040;0,0375333
2958,2683;0,037308
2959,2324;0,0370803
2960,1968;0,0368503
2961,1609;0,0366173
2962,1252;0,0363792
2963,0894;0,0361338
2964,0537;0,0358809
2965,0178;0,0356245
2965,9822;0,0353719
2966,9463;0,0351307
2967,9106;0,0349045
2968,8748;0,0346911
2969,8391;0,0344837
2970,8032;0,0342751
2971,7676;0,0340621
2972,7317;0,0338476
2973,6960;0,0336382
2974,6602;0,0334406
2975,6245;0,0332572
2976,5886;0,0330859
2977,5530;0,0329223
2978,5171;0,0327634
2979,4814;0,0326094
2980,4456;0,0324639
2981,4099;0,0323313
2982,3740;0,0322145
2983,3384;0,0321134
2984,3025;0,0320248
2985,2668;0,0319425
2986,2310;0,0318589
2987,1953;0,0317678
2988,1594;0,0316672
2989,1238;0,0315618
2990,0879;0,0314622
2991,0522;0,0313809
2992,0164;0,031326
2992,9807;0,0312973
2993,9448;0,0312865
2994,9092;0,0312825
2995,8733;0,0312778
2996,8376;0,0312721
2997,8018;0,0312707
2998,7661;0,0312797
2999,7302;0,0313009
3000,6946;0,0313307
3001,6587;0,0313626
3002,6230;0,0313911
3003,5872;0,0314144
3004,5515;0,0314344
3005,5156;0,0314539
3006,4800;0,031474
3007,4441;0,031493
3008,4084;0,0315083
3009,3726;0,031519
3010,3369;0,0315275
3011,3010;0,0315401
3012,2654;0,0315636
3013,2295;0,0316017
3014,1938;0,0316524
3015,1580;0,0317098
3016,1223;0,0317678
3017,0864;0,0318248
3018,0508;0,0318847
3019,0149;0,0319539
3019,9792;0,0320352
3020,9434;0,0321243
3021,9077;0,032211
3022,8718;0,0322852
3023,8362;0,0323442
3024,8003;0,0323949
3025,7646;0,0324505
3026,7288;0,0325219
3027,6931;0,0326108
3028,6572;0,032709
3029,6216;0,032803
3030,5857;0,0328824
3031,5500;0,0329453
3032,5142;0,0329989
3033,4785;0,0330547
3034,4426;0,0331224
3035,4070;0,0332054
3036,3711;0,0333011
3037,3354;0,0334037
3038,2996;0,0335084
3039,2639;0,0336135
3040,2280;0,0337205
3041,1924;0,033832
3042,1565;0,0339496
3043,1208;0,0340723
3044,0850;0,0341974
3045,0493;0,0343214
3046,0134;0,0344415
3046,9778;0,0345572
3047,9419;0,0346698
3048,9063;0,0347822
3049,8704;0,0348978
3050,8347;0,0350189
3051,7988;0,0351455
3052,7632;0,0352747
3053,7273;0,0354011
3054,6917;0,0355199
3055,6558;0,0356298
3056,6201;0,0357351
3057,5842;0,0358448
3058,5486;0,035969
3059,5127;0,0361133
3060,4771;0,0362758
3061,4412;0,0364463
3062,4055;0,0366097
3063,3696;0,0367517
3064,3340;0,0368652
3065,2981;0,0369541
3066,2625;0,0370324
3067,2266;0,0371184
3068,1909;0,0372268
3069,1550;0,0373619
3070,1194;0,0375163
3071,0835;0,0376755
3072,0479;0,0378249
3073,0120;0,037957
3073,9763;0,0380739
3074,9404;0,0381843
3075,9048;0,0382982
3076,8689;0,0384215
3077,8333;0,0385542
3078,7974;0,0386921
3079,7617;0,0388299
3080,7258;0,0389641
3081,6902;0,0390939
3082,6543;0,0392205
3083,6187;0,0393462
3084,5828;0,039473
3085,5471;0,0396031
3086,5112;0,0397375
3087,4756;0,0398765
3088,4397;0,0400189
3089,4041;0,0401624
3090,3682;0,0403043
3091,3325;0,0404435
3092,2966;0,0405812
3093,2610;0,0407206
3094,2251;0,040865
3095,1895;0,0410152
3096,1536;0,0411681
3097,1179;0,0413174
3098,0820;0,0414573
3099,0464;0,0415864
3100,0105;0,0417101
3100,9749;0,0418385
3101,9390;0,0419812
3102,9033;0,0421422
3103,8674;0,0423167
3104,8318;0,0424941
3105,7959;0,0426628
3106,7603;0,0428169
3107,7244;0,0429585
3108,6887;0,0430967
3109,6528;0,0432421
3110,6172;0,0434007
3111,5813;0,0435704
3112,5457;0,0437434
3113,5098;0,0439105
3114,4741;0,0440677
3115,4382;0,0442181
3116,4026;0,04437
3117,3667;0,0445312
3118,3311;0,044704
3119,2952;0,0448836
3120,2595;0,0450613
3121,2236;0,0452298
3122,1880;0,0453864
3123,1521;0,0455331
3124,1165;0,0456743
3125,0806;0,0458145
3126,0449;0,0459574
3127,0090;0,046106
3127,9734;0,0462631
3128,9375;0,0464308
3129,9019;0,0466088
3130,8660;0,0467947
3131,8303;0,0469847
3132,7944;0,0471753
3133,7588;0,0473645
3134,7229;0,0475519
3135,6873;0,0477375
3136,6514;0,0479212
3137,6157;0,0481031
3138,5798;0,0482842
3139,5442;0,0484662
3140,5083;0,0486507
3141,4727;0,0488379
3142,4368;0,0490265
3143,4011;0,0492149
3144,3652;0,0494029
3145,3296;0,0495918
3146,2937;0,0497836
3147,2581;0,0499787
3148,2222;0,0501762
3149,1865;0,0503745
3150,1506;0,0505737
3151,1150;0,0507756
3152,0791;0,0509826
3153,0435;0,0511942
3154,0076;0,051406
3154,9719;0,0516101
3155,9360;0,0517996
3156,9004;0,0519719
3157,8645;0,0521309
3158,8289;0,052285
3159,7930;0,052444
3160,7573;0,0526152
3161,7214;0,0528019
3162,6858;0,0530037
3163,6499;0,0532179
3164,6143;0,0534408
3165,5784;0,0536677
3166,5427;0,0538936
3167,5068;0,0541137
3168,4712;0,0543248
3169,4353;0,0545093
3170,3997;0,0547042
3171,3638;0,0548957
3172,3281;0,0550864
3173,2922;0,0552764
3174,2566;0,0554639
3175,2207;0,0556475
3176,1851;0,0558282
3177,1492;0,0560104
3178,1135;0,0561996
3179,0776;0,0563984
3180,0420;0,0566039
3181,0061;0,0568088
3181,9705;0,0570052
3182,9346;0,0571899
3183,8989;0,0573663
3184,8630;0,0575427
3185,8274;0,057727
3186,7915;0,0579229
3187,7559;0,0581279
3188,7200;0,0583365
3189,6843;0,0585432
3190,6484;0,0587451
3191,6128;0,0589414
3192,5769;0,0591313
3193,5413;0,0593137
3194,5054;0,0594881
3195,4697;0,0596561
3196,4338;0,0598221
3197,3982;0,0599904
3198,3623;0,0601631
3199,3267;0,0603384
3200,2908;0,060513
3201,2551;0,0606853
3202,2192;0,0608573
3203,1836;0,0610335
3204,1477;0,0612171
3205,1121;0,061408
3206,0762;0,061602
3207,0405;0,0617938
3208,0046;0,0619803
3208,9690;0,0621621
3209,9331;0,0623419
3210,8975;0,0625229
3211,8616;0,0627061
3212,8259;0,0628905
3213,7900;0,0630725
3214,7544;0,0632476
3215,7185;0,0634109
3216,6829;0,06356
3217,6470;0,0636972
3218,6113;0,0638312
3219,5754;0,0639745
3220,5398;0,0641384
3221,5039;0,064327
3222,4683;0,0645344
3223,4324;0,0647484
3224,3967;0,0649559
3225,3608;0,0651486
3226,3252;0,0653242
3227,2893;0,0654849
3228,2537;0,0656344
3229,2178;0,0657776
3230,1821;0,0659208
3231,1462;0,0660721
3232,1106;0,0662386
3233,0747;0,0664214
3234,0391;0,0666134
3235,0032;0,0668017
3235,9675;0,0669752
3236,9316;0,0671321
3237,8960;0,0672821
3238,8601;0,0674401
3239,8245;0,0676166
3240,7886;0,06781
3241,7529;0,0680071
3242,7170;0,0681914
3243,6814;0,0683536
3244,6455;0,0684977
3245,6099;0,068639
3246,5740;0,0687946
3247,5383;0,0689727
3248,5024;0,0691681
3249,4668;0,0693652
3250,4309;0,0695474
3251,3953;0,0697061
3252,3594;0,0698451
3253,3237;0,0699786
3254,2878;0,0701225
3255,2522;0,0702864
3256,2163;0,0704698
3257,1807;0,0706648
3258,1448;0,070863
3259,1091;0,0710611
3260,0732;0,0712608
3261,0376;0,071464
3262,0017;0,0716674
3262,9661;0,0718611
3263,9302;0,0720335
3264,8945;0,0721787
3265,8586;0,0723018
3266,8230;0,0724162
3267,7871;0,0725353
3268,7515;0,0726641
3269,7156;0,0727969
3270,6799;0,0729228
3271,6440;0,0730344
3272,6084;0,0731341
3273,5725;0,073232
3274,5369;0,0733384
3275,5010;0,0734546
3276,4653;0,0735719
3277,4294;0,0736766
3278,3938;0,0737596
3279,3579;0,0738221
3280,3223;0,0738743
3281,2864;0,073929
3282,2507;0,073994
3283,2148;0,0740688
3284,1792;0,0741468
3285,1433;0,074221
3286,1077;0,0742879
3287,0718;0,0743482
3288,0361;0,0744044
3289,0002;0,0744579
3289,9646;0,0745074
3290,9287;0,0745504
3291,8931;0,074585
3292,8572;0,0746121
3293,8215;0,0746345
3294,7856;0,0746558
3295,7500;0,0746786
3296,7141;0,0747038
3297,6785;0,0747314
3298,6426;0,0747616
3299,6069;0,0747954
3300,5710;0,0748348
3301,5354;0,0748811
3302,4995;0,0749324
3303,4639;0,0749824
3304,4280;0,0750208
3305,3923;0,0750376
3306,3564;0,0750278
3307,3208;0,0749965
3308,2849;0,0749587
3309,2493;0,0749343
3310,2134;0,0749402
3311,1777;0,074983
3312,1418;0,0750575
3313,1062;0,0751496
3314,0703;0,0752428
3315,0347;0,0753237
3315,9988;0,0753858
3316,9631;0,0754303
3317,9272;0,0754647
3318,8916;0,0755018
3319,8557;0,0755549
3320,8201;0,0756337
3321,7842;0,0757392
3322,7485;0,0758615
3323,7126;0,0759833
3324,6770;0,076087
3325,6411;0,0761627
3326,6055;0,0762124
3327,5696;0,0762468
3328,5339;0,0762788
3329,4980;0,0763164
3330,4624;0,0763599
3331,4265;0,0764045
3332,3909;0,0764449
3333,3550;0,0764787
3334,3193;0,0765062
3335,2834;0,0765281
3336,2478;0,0765422
3337,2119;0,0765427
3338,1763;0,0765216
3339,1404;0,0764728
3340,1047;0,076396
3341,0688;0,0762976
3342,0332;0,0761895
3342,9973;0,0760843
3343,9617;0,0759896
3344,9258;0,0759044
3345,8901;0,0758206
3346,8542;0,0757279
3347,8186;0,0756207
3348,7827;0,0755013
3349,7471;0,0753784
3350,7112;0,0752611
3351,6755;0,0751536
3352,6396;0,0750536
3353,6040;0,074956
3354,5681;0,074857
3355,5325;0,0747567
3356,4966;0,0746572
3357,4609;0,0745586
3358,4250;0,074458
3359,3894;0,074351
3360,3535;0,0742366
3361,3179;0,0741189
3362,2820;0,0740061
3363,2463;0,0739048
3364,2104;0,0738159
3365,1748;0,0737333
3366,1389;0,073647
3367,1033;0,073549
3368,0674;0,0734359
3369,0317;0,0733097
3369,9958;0,0731747
3370,9602;0,0730352
3371,9243;0,0728938
3372,8887;0,0727519
3373,8528;0,0726106
3374,8171;0,0724707
3375,7813;0,0723332
3376,7456;0,0721998
3377,7097;0,0720731
3378,6741;0,0719559
3379,6382;0,0718489
3380,6025;0,0717479
3381,5667;0,0716437
3382,5310;0,0715251
3383,4951;0,0713866
3384,4595;0,071234
3385,4236;0,0710838
3386,3879;0,0709549
3387,3521;0,0708569
3388,3164;0,0707819
3389,2805;0,0707075
3390,2449;0,0706084
3391,2090;0,0704715
3392,1733;0,0703033
3393,1375;0,0701259
3394,1018;0,0699628
3395,0659;0,0698245
3396,0303;0,0697045
3396,9944;0,069586
3397,9587;0,0694543
3398,9229;0,0693053
3399,8872;0,0691455
3400,8513;0,0689847
3401,8157;0,0688282
3402,7798;0,0686737
3403,7441;0,0685153
3404,7083;0,0683497
3405,6726;0,0681802
3406,6367;0,0680151
3407,6011;0,067861
3408,5652;0,0677171
3409,5295;0,0675741
3410,4937;0,0674191
3411,4580;0,0672442
3412,4221;0,0670517
3413,3865;0,0668534
3414,3506;0,0666622
3415,3149;0,0664831
3416,2791;0,0663082
3417,2434;0,0661208
3418,2075;0,0659053
3419,1719;0,0656578
3420,1360;0,065391
3421,1003;0,0651293
3422,0645;0,0648964
3423,0288;0,0647042
3423,9929;0,0645473
3424,9573;0,0644074
3425,9214;0,0642621
3426,8857;0,064094
3427,8499;0,0638961
3428,8142;0,0636728
3429,7783;0,0634347
3430,7427;0,0631925
3431,7068;0,062952
3432,6711;0,0627143
3433,6353;0,0624799
3434,5996;0,0622519
3435,5637;0,0620347
3436,5281;0,0618306
3437,4922;0,0616355
3438,4565;0,061441
3439,4207;0,0612402
3440,3850;0,0610337
3441,3491;0,0608285
3442,3135;0,0606306
3443,2776;0,0604354
3444,2419;0,0602258
3445,2061;0,0599811
3446,1704;0,0596927
3447,1345;0,0593742
3448,0989;0,0590561
3449,0630;0,0587678
3450,0273;0,0585205
3450,9915;0,0583041
3451,9558;0,0580966
3452,9199;0,0578791
3453,8843;0,0576454
3454,8484;0,0574025
3455,8127;0,0571621
3456,7769;0,0569319
3457,7412;0,0567102
3458,7053;0,0564895
3459,6697;0,0562628
3460,6338;0,0560284
3461,5981;0,0557898
3462,5623;0,0555509
3463,5266;0,0553109
3464,4907;0,0550635
3465,4551;0,054801
3466,4192;0,0545222
3467,3835;0,0542363
3468,3477;0,0539598
3469,3120;0,0537075
3470,2761;0,0534828
3471,2405;0,053276
3472,2046;0,0530706
3473,1689;0,0528555
3474,1331;0,0526317
3475,0974;0,0524103
3476,0615;0,0522005
3477,0259;0,0519998
3477,9900;0,0517929
3478,9543;0,0515615
3479,9185;0,051298
3480,8828;0,051013
3481,8469;0,0507293
3482,8113;0,0504666
3483,7754;0,0502284
3484,7397;0,0500022
3485,7039;0,0497702
3486,6682;0,049523
3487,6323;0,0492654
3488,5967;0,0490126
3489,5608;0,0487793
3490,5251;0,0485699
3491,4893;0,0483754
3492,4536;0,0481791
3493,4177;0,0479666
3494,3821;0,0477353
3495,3462;0,0474984
3496,3105;0,0472777
3497,2747;0,0470881
3498,2390;0,0469234
3499,2031;0,0467539
3500,1675;0,04654
3501,1316;0,0462567
3502,0959;0,0459165
3503,0601;0,0455714
3504,0244;0,0452821
3504,9885;0,0450771
3505,9529;0,0449346
3506,9170;0,0447982
3507,8813;0,044611
3508,8455;0,0443472
3509,8098;0,0440267
3510,7739;0,0437
3511,7383;0,0434151
3512,7024;0,0431902
3513,6667;0,0430129
3514,6309;0,0428575
3515,5952;0,0427042
3516,5593;0,0425466
3517,5237;0,042387
3518,4878;0,0422252
3519,4521;0,042053
3520,4163;0,0418571
3521,3806;0,0416293
3522,3447;0,041373
3523,3091;0,0411012
3524,2732;0,0408258
3525,2375;0,0405485
3526,2017;0,0402627
3527,1660;0,0399649
3528,1301;0,0396649
3529,0945;0,0393848
3530,0586;0,0391447
3531,0229;0,0389482
3531,9871;0,0387786
3532,9514;0,0386076
3533,9155;0,0384101
3534,8799;0,0381775
3535,8440;0,0379241
3536,8083;0,0376835
3537,7725;0,0374929
3538,7368;0,0373749
3539,7009;0,0373245
3540,6653;0,0373056
3541,6294;0,0372569
3542,5938;0,0371095
3543,5579;0,0368184
3544,5222;0,0363975
3545,4863;0,0359294
3546,4507;0,0355207
3547,4148;0,0352328
3548,3792;0,0350492
3549,3433;0,0348993
3550,3076;0,0347092
3551,2717;0,0344465
3552,2361;0,0341383
3553,2002;0,0338498
3554,1646;0,0336355
3555,1287;0,0335005
3556,0930;0,0334047
3557,0571;0,0332965
3558,0215;0,0331501
3558,9856;0,0329841
3559,9500;0,0328494
3560,9141;0,032789
3561,8784;0,0327986
3562,8425;0,032811
3563,8069;0,0327111
3564,7710;0,0323803
3565,7354;0,0317801
3566,6995;0,031031
3567,6638;0,0303653
3568,6279;0,0299477
3569,5923;0,0297761
3570,5564;0,0297436
3571,5208;0,0297337
3572,4849;0,0296698
3573,4492;0,0295265
3574,4133;0,0293223
3575,3777;0,0290952
3576,3418;0,0288756
3577,3062;0,0286747
3578,2703;0,0284979
3579,2346;0,0283647
3580,1987;0,0283096
3581,1631;0,0283573
3582,1272;0,0284897
3583,0916;0,0286287
3584,0557;0,0286446
3585,0200;0,0283991
3585,9841;0,0278377
3586,9485;0,0270913
3587,9126;0,0264397
3588,8770;0,0260983
3589,8411;0,0260707
3590,8054;0,0262076
3591,7695;0,0263314
3592,7339;0,0263161
3593,6980;0,0261266
3594,6624;0,0258234
3595,6265;0,0255098
3596,5908;0,0252498
3597,5549;0,0250327
3598,5193;0,0248122
3599,4834;0,0245713
3600,4478;0,0243516
3601,4119;0,0242218
3602,3762;0,0242148
3603,3403;0,0242952
3604,3047;0,0243765
3605,2688;0,0243639
3606,2332;0,0241994
3607,1973;0,0238951
3608,1616;0,023527
3609,1257;0,0231814
3610,0901;0,0229015
3611,0542;0,0226864
3612,0186;0,0225261
3612,9827;0,0224238
3613,9470;0,0223816
3614,9111;0,0223693
3615,8755;0,0223116
3616,8396;0,0221122
3617,8040;0,0217182
3618,7681;0,0211945
3619,7324;0,0207275
3620,6965;0,020509
3621,6609;0,020605
3622,6250;0,0209454
3623,5894;0,0213907
3624,5535;0,0217769
3625,5178;0,0219238
3626,4819;0,0216555
3627,4463;0,0209119
3628,4104;0,0199118
3629,3748;0,0190777
3630,3389;0,0186572
3631,3032;0,0185712
3632,2673;0,0186119
3633,2317;0,0186236
3634,1958;0,0185479
3635,1602;0,0184034
3636,1243;0,018243
3637,0886;0,0181094
3638,0527;0,0180143
3639,0171;0,0179513
3639,9812;0,0179232
3640,9456;0,0179571
3641,9097;0,0180905
3642,8740;0,0183412
3643,8381;0,018679
3644,8025;0,0190072
3645,7666;0,0191475
3646,7310;0,018854
3647,6951;0,017961
3648,6594;0,0166932
3649,6235;0,0156582
3650,5879;0,015237
3651,5520;0,0153116
3652,5164;0,0155764
3653,4805;0,0157831
3654,4448;0,0157939
3655,4089;0,0155927
3656,3733;0,0152842
3657,3374;0,0150246
3658,3018;0,0149046
3659,2659;0,0149047
3660,2302;0,0149526
3661,1943;0,015003
3662,1587;0,0150711
3663,1228;0,0152085
3664,0872;0,0154453
3665,0513;0,0157456
3666,0156;0,0160065
3666,9797;0,0160991
3667,9441;0,0159477
3668,9082;0,0156228
3669,8726;0,0153343
3670,8367;0,015248
3671,8010;0,0153278
3672,7651;0,0153782
3673,7295;0,0151865
3674,6936;0,0146759
3675,6580;0,0140154
3676,6221;0,0135084
3677,5864;0,0133108
3678,5505;0,0133574
3679,5149;0,0135151
3680,4790;0,0137044
3681,4434;0,0139181
3682,4075;0,0141862
3683,3718;0,0145263
3684,3359;0,0149068
3685,3003;0,0152361
3686,2644;0,0153768
3687,2288;0,015196
3688,1929;0,0146763
3689,1572;0,014017
3690,1213;0,0135294
3691,0857;0,0133741
3692,0498;0,0134923
3693,0142;0,0137455
3693,9783;0,0140266
3694,9426;0,0142814
3695,9067;0,0144892
3696,8711;0,0146385
3697,8352;0,014711
3698,7996;0,0146832
3699,7637;0,0145478
3700,7280;0,0143425
3701,6921;0,0141583
3702,6565;0,0140981
3703,6206;0,0142137
3704,5850;0,0144822
3705,5491;0,0148271
3706,5134;0,015144
3707,4775;0,0153098
3708,4419;0,0151978
3709,4060;0,0147404
3710,3704;0,0140408
3711,3345;0,0133882
3712,2988;0,01305
3713,2629;0,0130754
3714,2273;0,0133457
3715,1914;0,0137152
3716,1558;0,0140784
3717,1199;0,0143776
3718,0842;0,0145953
3719,0483;0,0147445
3720,0127;0,0148517
3720,9768;0,0149318
3721,9412;0,014975
3722,9053;0,0149591
3723,8696;0,0148837
3724,8337;0,0147933
3725,7981;0,0147623
3726,7622;0,0148491
3727,7266;0,0150641
3728,6907;0,0153713
3729,6550;0,0157065
3730,6191;0,0159865
3731,5835;0,0161077
3732,5476;0,0159556
3733,5120;0,0154649
3734,4761;0,0147315
3735,4404;0,0140389
3736,4045;0,013672
3737,3689;0,0137197
3738,3330;0,0140879
3739,2974;0,0146125
3740,2615;0,0151211
3741,2258;0,0154447
3742,1899;0,0154448
3743,1543;0,0151075
3744,1184;0,0146429
3745,0828;0,0143676
3746,0469;0,0144085
3747,0112;0,0146164
3747,9753;0,0147165
3748,9397;0,0144725
3749,9038;0,0138491
3750,8682;0,0131297
3751,8323;0,0127175
3752,7966;0,0127474
3753,7607;0,0130555
3754,7251;0,0134065
3755,6892;0,0136254
3756,6536;0,0136272
3757,6177;0,0134346
3758,5820;0,013176
3759,5461;0,0130114
3760,5105;0,0130244
3761,4746;0,013189
3762,4390;0,013421
3763,4031;0,0136367
3764,3674;0,0137803
3765,3315;0,0138256
3766,2959;0,0137671
3767,2600;0,0136108
3768,2244;0,0133761
3769,1885;0,0131098
3770,1528;0,0128891
3771,1169;0,0127935
3772,0813;0,0128605
3773,0454;0,013066
3774,0098;0,0133391
3774,9739;0,0135901
3775,9382;0,0137369
3776,9023;0,0137337
3777,8667;0,013601
3778,8308;0,0134249
3779,7952;0,013303
3780,7593;0,0132759
3781,7236;0,0133137
3782,6877;0,0133544
3783,6521;0,0133477
3784,6162;0,0132792
3785,5806;0,0131732
3786,5447;0,0130768
3787,5090;0,0130362
3788,4731;0,0130784
3789,4375;0,0132037
3790,4016;0,0133875
3791,3660;0,0135903
3792,3301;0,0137733
3793,2944;0,013918
3794,2585;0,0140375
3795,2229;0,0141666
3796,1870;0,0143251
3797,1514;0,0144817
3798,1155;0,0145504
3799,0798;0,0144392
3800,0439;0,0141334
3801,0083;0,0137495
3801,9724;0,0134637
3802,9368;0,0133546
3803,9009;0,0133462
3804,8652;0,0132965
3805,8293;0,0131208
3806,7937;0,0128705
3807,7578;0,0127105
3808,7222;0,0127859
3809,6863;0,0131084
3810,6506;0,0135727
3811,6147;0,0140347
3812,5791;0,0143686
3813,5432;0,0145062
3814,5076;0,0144738
3815,4717;0,0143854
3816,4360;0,0143447
3817,4001;0,0143422
3818,3645;0,0142664
3819,3286;0,0140159
3820,2930;0,0136135
3821,2571;0,0132202
3822,2214;0,0130028
3823,1855;0,0130019
3824,1499;0,0131452
3825,1140;0,013337
3826,0784;0,0135148
3827,0425;0,0136594
3828,0068;0,0137819
3828,9709;0,0139035
3829,9353;0,0140406
3830,8994;0,0142009
3831,8638;0,0143831
3832,8279;0,0145738
3833,7922;0,0147381
3834,7563;0,0148175
3835,7207;0,0147471
3836,6848;0,0144954
3837,6492;0,0141068
3838,6133;0,0136946
3839,5776;0,0133665
3840,5417;0,0131582
3841,5061;0,0130453
3842,4702;0,0129995
3843,4346;0,0130258
3844,3987;0,0131599
3845,3630;0,0134381
3846,3271;0,0138686
3847,2915;0,014421
3848,2556;0,0150255
3849,2200;0,0155644
3850,1841;0,0158502
3851,1484;0,0156359
3852,1125;0,0147829
3853,0769;0,0135861
3854,0410;0,0126851
3855,0054;0,0124072
3855,9695;0,0126106
3856,9338;0,0130443
3857,8979;0,0135347
3858,8623;0,0139765
3859,8264;0,0142964
3860,7908;0,0144476
3861,7549;0,0144324
3862,7192;0,014324
3863,6833;0,014237
3864,6477;0,014249
3865,6118;0,0143516
3866,5762;0,0144709
3867,5403;0,0145169
3868,5046;0,0144254
3869,4688;0,0141869
3870,4331;0,0138589
3871,3972;0,0135444
3872,3616;0,0133415
3873,3257;0,0133017
3874,2900;0,0134199
3875,2542;0,013647
3876,2185;0,0139101
3877,1826;0,0141339
3878,1470;0,014265
3879,1111;0,0142941
3880,0754;0,0142578
3881,0396;0,0142028
3882,0039;0,0141409
3882,9680;0,014048
3883,9324;0,0139113
3884,8965;0,0137725
3885,8608;0,0137091
3886,8250;0,0137652
3887,7893;0,0139017
3888,7534;0,0140147
3889,7178;0,0140025
3890,6819;0,013844
3891,6462;0,0136402
3892,6104;0,0135532
3893,5747;0,0136775
3894,5388;0,0139845
3895,5032;0,0143725
3896,4673;0,0147321
3897,4316;0,0149822
3898,3958;0,0150853
3899,3601;0,0150447
3900,3242;0,0148799
3901,2886;0,0146018
3902,2527;0,0142238
3903,2170;0,0137995
3904,1812;0,013424
3905,1455;0,0131804
3906,1096;0,0130904
3907,0740;0,0131187
3908,0381;0,0132125
3909,0024;0,0133342
3909,9666;0,0134736
3910,9309;0,0136397
3911,8950;0,0138389
3912,8594;0,0140541
3913,8235;0,0142381
3914,7878;0,01433
3915,7520;0,0142903
3916,7163;0,0141369
3917,6804;0,0139471
3918,6448;0,0138108
3919,6089;0,0137701
3920,5732;0,0138024
3921,5374;0,0138483
3922,5017;0,0138554
3923,4658;0,0138116
3924,4302;0,0137516
3925,3943;0,0137277
3926,3586;0,0137667
3927,3228;0,0138501
3928,2871;0,0139269
3929,2512;0,0139429
3930,2156;0,0138715
3931,1797;0,013732
3932,1440;0,0135801
3933,1082;0,013473
3934,0725;0,0134395
3935,0366;0,0134774
3936,0010;0,0135676
3936,9651;0,0136851
3937,9294;0,0138021
3938,8936;0,0138898
3939,8579;0,0139259
3940,8220;0,0139074
3941,7864;0,0138585
3942,7505;0,0138205
3943,7148;0,0138239
3944,6790;0,0138669
3945,6433;0,0139167
3946,6074;0,0139316
3947,5718;0,0138883
3948,5359;0,0137982
3949,5002;0,0137006
3950,4644;0,0136351
3951,4287;0,0136159
3952,3928;0,01363
3953,3572;0,0136542
3954,3213;0,0136746
3955,2856;0,0136924
3956,2498;0,0137168
3957,2141;0,013752
3958,1782;0,0137889
3959,1426;0,0138102
3960,1067;0,0138017
3961,0710;0,0137629
3962,0352;0,0137079
3962,9995;0,0136572
3963,9636;0,0136262
3964,9280;0,0136206
3965,8921;0,0136369
3966,8564;0,0136678
3967,8206;0,013705
3968,7849;0,0137408
3969,7490;0,0137676
3970,7134;0,0137794
3971,6775;0,0137736
3972,6418;0,0137534
3973,6060;0,0137279
3974,5703;0,0137095
3975,5344;0,0137083
3976,4988;0,013727
3977,4629;0,013758
3978,4272;0,0137862
3979,3914;0,0137959
3980,3557;0,0137796
3981,3198;0,0137439
3982,2842;0,0137085
3983,2483;0,0136959
3984,2126;0,0137185
3985,1768;0,0137697
3986,1411;0,0138274
3987,1052;0,0138658
3988,0696;0,0138704
3989,0337;0,0138446
3989,9980;0,0138056
3990,9622;0,0137714
3991,9265;0,0137494
3992,8906;0,0137342
3993,8550;0,0137164
3994,8191;0,0136924
3995,7834;0,0136686
3996,7476;0,0136562
3997,7119;0,0136615
3998,6760;0,0136808
3999,6404;0,0137026
4000,6045;0,0136569

##### Extended Information
[Comments]
Sample name
Comment
Username
Division
Organization;UNIVERSIDAD INDUSTRIAL DE SANTANDER

[Detailed Information]
Creation date;19/02/2025 11:51 a.m.

Data array type;Linear data array
Horizontal axis;Wavenumber [cm-1]
Vertical axis;Abs
Start;399,193 cm-1
End;4000,6 cm-1
Data interval;0,964233 cm-1
Data points;3736    

[Measurement Information]
Model name;FT/IR-4X1typeA
Serial No.;A035162111

Accessory;ATR PRO 4X
Accessory S/N;A021162126
Incident angle;45 deg

Measurement date;19/02/2025 11:46 a.m.

Light source;Standard
Detector;TGS
Accumulation;40
Resolution;4 cm-1
Zero filling;On
Apodization;Cosine
Gain;Auto (8)
Aperture;Auto (7 mm)
Scan speed;Auto (2 mm/sec)
Filter;Auto (12800 Hz)

