TITLE;
DATA TYPE;INFRARED SPECTRUM
ORIGIN;JASCO
OWNER;
DATE;25/02/19
TIME;13:45:43
SPECTROMETER/DATA SYSTEM;
LOCALE;9226
RESOLUTION;
DELTAX;0,964233
XUNITS;1/CM
YUNITS;ABSORBANCE
FIRSTX;  399,1927
LASTX; 4000,6047
NPOINTS;    3736
FIRSTY;     0,08806
MAXY;     0,11966
MINY;     0,00177
XYDATA
399,1927;0,088062
400,1569;0,0859194
401,1211;0,0842177
402,0854;0,0833248
403,0496;0,0832163
404,0138;0,0836584
404,9781;0,0843335
405,9423;0,084954
406,9065;0,0853647
407,8708;0,0855659
408,8350;0,0856239
409,7992;0,0855502
410,7635;0,0852623
411,7277;0,0846644
412,6919;0,0837665
413,6562;0,0827145
414,6204;0,0817225
415,5846;0,081007
416,5489;0,0807782
417,5131;0,0812161
418,4773;0,082305
419,4416;0,0836364
420,4058;0,084623
421,3700;0,0849665
422,3343;0,0847302
423,2985;0,0841461
424,2627;0,0835079
425,2270;0,0831267
426,1912;0,083244
427,1554;0,083923
428,1197;0,0850149
429,0839;0,0862319
430,0481;0,0872697
431,0124;0,0879222
431,9766;0,088153
432,9408;0,0881022
433,9051;0,0880194
434,8693;0,0881488
435,8335;0,0886138
436,7978;0,0893564
437,7620;0,0901679
438,7262;0,0907919
439,6905;0,0910347
440,6547;0,0908403
441,6189;0,0903244
442,5832;0,0897486
443,5474;0,0894065
444,5116;0,0894581
445,4759;0,0898384
446,4401;0,0903187
447,4043;0,0906537
448,3686;0,090696
449,3328;0,0904298
450,2970;0,0899412
451,2613;0,0893585
452,2255;0,0887964
453,1897;0,0883313
454,1540;0,0880093
455,1182;0,0878674
456,0824;0,0879374
457,0467;0,0882204
458,0109;0,0886515
458,9751;0,0891068
459,9394;0,0894676
460,9036;0,0896811
461,8678;0,0897606
462,8321;0,0897539
463,7963;0,0897223
464,7605;0,0897369
465,7248;0,0898723
466,6890;0,0901853
467,6532;0,0906837
468,6175;0,0913064
469,5817;0,0919261
470,5459;0,0923809
471,5102;0,0925388
472,4744;0,0923808
473,4386;0,0920367
474,4029;0,0917198
475,3671;0,0916064
476,3313;0,091761
477,2956;0,0921322
478,2598;0,0925907
479,2240;0,0929826
480,1883;0,093185
481,1525;0,093151
482,1167;0,0929242
483,0810;0,0926184
484,0452;0,0923679
485,0094;0,0922647
485,9737;0,0923137
486,9379;0,0924352
487,9021;0,0925037
488,8664;0,0923946
489,8306;0,0920206
490,7948;0,0913642
491,7591;0,0905024
492,7233;0,0896039
493,6875;0,0888806
494,6518;0,0885052
495,6160;0,0885396
496,5802;0,0889076
497,5445;0,089423
498,5087;0,0898566
499,4729;0,090021
500,4372;0,0898502
501,4014;0,0894429
502,3656;0,089028
503,3299;0,0888466
504,2941;0,0890236
505,2583;0,0895175
506,2226;0,0901656
507,1868;0,0907754
508,1510;0,0912112
509,1153;0,091442
510,0795;0,0915339
511,0437;0,0915992
512,0080;0,0917355
512,9722;0,0919882
513,9365;0,0923454
514,9007;0,0927517
515,8649;0,0931317
516,8292;0,0934185
517,7934;0,0935839
518,7576;0,0936533
519,7219;0,093686
520,6861;0,0937311
521,6503;0,0937952
522,6146;0,0938447
523,5788;0,0938335
524,5430;0,0937413
525,5073;0,0935976
526,4715;0,0934705
527,4357;0,0934179
528,4000;0,0934411
529,3642;0,0934814
530,3284;0,0934559
531,2927;0,0933005
532,2569;0,0929972
533,2211;0,0925778
534,1854;0,0921075
535,1496;0,0916613
536,1138;0,091304
537,0781;0,0910785
538,0423;0,090996
539,0065;0,0910291
539,9708;0,0911135
540,9350;0,091168
541,8992;0,0911267
542,8635;0,0909689
543,8277;0,0907327
544,7919;0,0905037
545,7562;0,0903854
546,7204;0,0904597
547,6846;0,090753
548,6489;0,0912211
549,6131;0,0917609
550,5773;0,0922451
551,5416;0,092571
552,5058;0,0927034
553,4700;0,0926919
554,4343;0,0926471
555,3985;0,0926796
556,3627;0,0928313
557,3270;0,0930407
558,2912;0,0931677
559,2554;0,093067
560,2197;0,0926669
561,1839;0,0920071
562,1481;0,0912158
563,1124;0,0904419
564,0766;0,089785
565,0408;0,0892615
566,0051;0,0888198
566,9693;0,0883878
567,9335;0,0879224
568,8978;0,087434
569,8620;0,0869761
570,8262;0,0866106
571,7905;0,0863767
572,7547;0,0862777
573,7189;0,0862846
574,6832;0,0863482
575,6474;0,0864117
576,6116;0,0864268
577,5759;0,0863665
578,5401;0,0862351
579,5043;0,0860679
580,4686;0,0859222
581,4328;0,0858598
582,3970;0,0859231
583,3613;0,0861127
584,3255;0,0863792
585,2897;0,0866372
586,2540;0,0867982
587,2182;0,0868084
588,1824;0,0866726
589,1467;0,0864545
590,1109;0,0862519
591,0751;0,0861547
592,0394;0,086201
593,0036;0,0863549
593,9678;0,0865232
594,9321;0,0866016
595,8963;0,086522
596,8605;0,0862792
597,8248;0,0859304
598,7890;0,085571
599,7532;0,085293
600,7175;0,0851417
601,6817;0,085095
602,6459;0,0850779
603,6102;0,0850027
604,5744;0,0848109
605,5386;0,0844951
606,5029;0,0840948
607,4671;0,0836719
608,4313;0,0832829
609,3956;0,082961
610,3598;0,0827109
611,3240;0,0825144
612,2883;0,0823361
613,2525;0,0821322
614,2167;0,0818615
615,1810;0,0815018
616,1452;0,0810655
617,1094;0,0805995
618,0737;0,0801606
619,0379;0,079778
620,0021;0,0794308
620,9664;0,0790632
621,9306;0,0786235
622,8948;0,0781022
623,8591;0,0775458
624,8233;0,0770374
625,7875;0,076642
626,7518;0,0763759
627,7160;0,0761944
628,6802;0,0760225
629,6445;0,075798
630,6087;0,0755002
631,5729;0,0751518
632,5372;0,0747983
633,5014;0,0744817
634,4656;0,0742213
635,4299;0,0740098
636,3941;0,0738226
637,3583;0,0736324
638,3226;0,0734212
639,2868;0,0731862
640,2510;0,0729371
641,2153;0,0726888
642,1795;0,0724518
643,1437;0,0722268
644,1080;0,0720068
645,0722;0,0717847
646,0364;0,0715613
647,0007;0,0713471
647,9649;0,0711555
648,9291;0,0709931
649,8934;0,0708545
650,8576;0,0707251
651,8218;0,0705915
652,7861;0,0704507
653,7503;0,0703126
654,7145;0,0701962
655,6788;0,0701218
656,6430;0,0701015
657,6072;0,0701318
658,5715;0,0701898
659,5357;0,0702376
660,4999;0,0702376
661,4642;0,0701753
662,4284;0,0700709
663,3926;0,0699662
664,3569;0,069895
665,3211;0,0698568
666,2853;0,0697961
667,2496;0,0696035
668,2138;0,069187
669,1780;0,0685904
670,1423;0,0679491
671,1065;0,0673316
672,0707;0,0667205
673,0350;0,0660706
673,9992;0,0653504
674,9634;0,0645648
675,9277;0,0637612
676,8919;0,0630018
677,8561;0,0623244
678,8204;0,0617276
679,7846;0,0611891
680,7488;0,0606892
681,7131;0,0602165
682,6773;0,0597633
683,6415;0,0593224
684,6058;0,0588927
685,5700;0,0584863
686,5342;0,0581258
687,4985;0,0578305
688,4627;0,0576026
689,4269;0,0574255
690,3912;0,0572737
691,3554;0,0571301
692,3196;0,0569938
693,2839;0,0568769
694,2481;0,0567906
695,2123;0,0567331
696,1766;0,0566843
697,1408;0,0566123
698,1050;0,0564877
699,0693;0,0562972
700,0335;0,0560497
700,9977;0,0557714
701,9620;0,055493
702,9262;0,0552362
703,8904;0,0550075
704,8547;0,0547985
705,8189;0,0545972
706,7831;0,0543981
707,7474;0,0542064
708,7116;0,054032
709,6758;0,0538787
710,6401;0,0537346
711,6043;0,053572
712,5685;0,0533578
713,5328;0,0530718
714,4970;0,0527193
715,4612;0,0523779
716,4255;0,0519903
717,3897;0,0516435
718,3539;0,0513504
719,3182;0,0510948
720,2824;0,0508403
721,2466;0,0505518
722,2109;0,0502144
723,1751;0,0498382
724,1393;0,0494472
725,1036;0,0490637
726,0678;0,0486975
727,0320;0,0483473
727,9963;0,0480083
728,9605;0,0476816
729,9247;0,0473762
730,8890;0,047103
731,8532;0,0468638
732,8174;0,0466469
733,7817;0,0464313
734,7459;0,0461994
735,7101;0,0459476
736,6744;0,0456896
737,6386;0,0454478
738,6028;0,0452406
739,5671;0,0450725
740,5313;0,0449332
741,4955;0,0448034
742,4598;0,0446647
743,4240;0,0445059
744,3882;0,0443251
745,3525;0,0441282
746,3167;0,0439243
747,2809;0,043722
748,2452;0,0435254
749,2094;0,0433324
750,1736;0,0431354
751,1379;0,0429255
752,1021;0,0426973
753,0663;0,042454
754,0306;0,0422066
754,9948;0,0419697
755,9590;0,0417543
756,9233;0,0415627
757,8875;0,0413884
758,8517;0,0412224
759,8160;0,0410607
760,7802;0,0409075
761,7444;0,0407698
762,7087;0,0406464
763,6729;0,0405198
764,6371;0,0403594
765,6014;0,0401386
766,5656;0,0398558
767,5298;0,0395437
768,4941;0,0392572
769,4583;0,0390447
770,4225;0,0389201
771,3868;0,0388562
772,3510;0,0388042
773,3152;0,0387256
774,2795;0,0386151
775,2437;0,0384975
776,2079;0,0384019
777,1722;0,0383348
778,1364;0,038271
779,1006;0,038169
780,0649;0,0380005
781,0291;0,0377699
781,9933;0,0375129
782,9576;0,0372751
783,9218;0,037087
784,8860;0,0369509
785,8503;0,0368456
786,8145;0,0367444
787,7787;0,0366302
788,7430;0,0365025
789,7072;0,0363721
790,6714;0,0362531
791,6357;0,036155
792,5999;0,0360809
793,5641;0,0360278
794,5284;0,035988
795,4926;0,0359505
796,4568;0,035903
797,4211;0,0358358
798,3853;0,0357464
799,3495;0,0356408
800,3138;0,0355311
801,2780;0,0354291
802,2422;0,0353403
803,2065;0,0352626
804,1707;0,035189
805,1349;0,0351134
806,0992;0,0350351
807,0634;0,034959
808,0276;0,0348922
808,9919;0,034839
809,9561;0,0347974
810,9203;0,0347602
811,8846;0,0347173
812,8488;0,0346611
813,8130;0,0345889
814,7773;0,0345045
815,7415;0,0344151
816,7057;0,0343274
817,6700;0,0342446
818,6342;0,0341643
819,5984;0,0340805
820,5627;0,0339873
821,5269;0,0338828
822,4911;0,0337719
823,4554;0,0336652
824,4196;0,0335754
825,3839;0,0335128
826,3481;0,0334807
827,3123;0,0334735
828,2766;0,0334784
829,2408;0,0334792
830,2050;0,0334615
831,1693;0,0334167
832,1335;0,0333437
833,0977;0,0332475
834,0620;0,0331368
835,0262;0,0330209
835,9904;0,032907
836,9547;0,0327997
837,9189;0,0326996
838,8831;0,0326032
839,8474;0,0325037
840,8116;0,0323937
841,7758;0,0322697
842,7401;0,0321359
843,7043;0,032005
844,6685;0,0318936
845,6328;0,0318138
846,5970;0,0317655
847,5612;0,0317351
848,5255;0,0317026
849,4897;0,0316533
850,4539;0,0315882
851,4182;0,031524
852,3824;0,0314835
853,3466;0,0314813
854,3109;0,0315139
855,2751;0,031561
856,2393;0,0315963
857,2036;0,0316017
858,1678;0,0315745
859,1320;0,0315274
860,0963;0,0314799
861,0605;0,0314509
862,0247;0,031454
862,9890;0,0314968
863,9532;0,0315815
864,9174;0,0317029
865,8817;0,0318482
866,8459;0,0319988
867,8101;0,0321368
868,7744;0,0322539
869,7386;0,0323551
870,7028;0,0324552
871,6671;0,0325684
872,6313;0,0326983
873,5955;0,0328347
874,5598;0,0329597
875,5240;0,0330584
876,4882;0,0331275
877,4525;0,0331763
878,4167;0,0332218
879,3809;0,0332813
880,3452;0,0333685
881,3094;0,0334932
882,2736;0,0336623
883,2379;0,0338794
884,2021;0,0341435
885,1663;0,0344491
886,1306;0,0347897
887,0948;0,0351623
888,0590;0,0355691
889,0233;0,0360144
889,9875;0,0364953
890,9517;0,0369954
891,9160;0,0374856
892,8802;0,0379325
893,8444;0,0383101
894,8087;0,0386063
895,7729;0,0388201
896,7371;0,038953
897,7014;0,0390006
898,6656;0,0389527
899,6298;0,0387999
900,5941;0,038543
901,5583;0,0381972
902,5225;0,0377893
903,4868;0,0373491
904,4510;0,036903
905,4152;0,0364718
906,3795;0,0360729
907,3437;0,0357221
908,3079;0,0354333
909,2722;0,0352141
910,2364;0,0350622
911,2007;0,0349646
912,1649;0,0349029
913,1292;0,0348596
914,0934;0,0348246
915,0576;0,0347965
916,0219;0,0347813
916,9861;0,0347876
917,9503;0,0348236
918,9146;0,0348952
919,8788;0,0350049
920,8430;0,0351506
921,8073;0,0353247
922,7715;0,0355136
923,7357;0,0357005
924,7000;0,0358702
925,6642;0,0360152
926,6284;0,0361388
927,5927;0,0362537
928,5569;0,0363765
929,5211;0,0365208
930,4854;0,0366926
931,4496;0,0368888
932,4138;0,0371009
933,3781;0,0373199
934,3423;0,0375401
935,3065;0,0377618
936,2708;0,0379904
937,2350;0,0382337
938,1992;0,0384983
939,1635;0,038788
940,1277;0,039104
941,0919;0,0394469
942,0562;0,0398195
943,0204;0,040227
943,9846;0,0406736
944,9489;0,0411591
945,9131;0,0416773
946,8773;0,0422185
947,8416;0,0427762
948,8058;0,0433532
949,7700;0,0439626
950,7343;0,0446228
951,6985;0,0453476
952,6627;0,0461397
953,6270;0,0469877
954,5912;0,0478718
955,5554;0,0487714
956,5197;0,0496726
957,4839;0,0505728
958,4481;0,051479
959,4124;0,0524033
960,3766;0,0533552
961,3408;0,0543351
962,3051;0,0553304
963,2693;0,0563185
964,2335;0,0572754
965,1978;0,058188
966,1620;0,0590627
967,1262;0,0599256
968,0905;0,0608133
969,0547;0,0617592
970,0189;0,0627826
970,9832;0,0638866
971,9474;0,0650642
972,9116;0,0663096
973,8759;0,0676249
974,8401;0,0690207
975,8043;0,0705095
976,7686;0,0720969
977,7328;0,0737753
978,6970;0,0755229
979,6613;0,0773055
980,6255;0,079082
981,5897;0,0808081
982,5540;0,0824419
983,5182;0,0839483
984,4824;0,0853042
985,4467;0,0865019
986,4109;0,0875485
987,3751;0,0884609
988,3394;0,0892577
989,3036;0,0899531
990,2678;0,0905555
991,2321;0,0910715
992,1963;0,0915124
993,1605;0,0918982
994,1248;0,0922564
995,0890;0,0926163
996,0532;0,0930012
997,0175;0,0934231
997,9817;0,093882
998,9459;0,0943682
999,9102;0,0948679
1000,8744;0,0953696
1001,8386;0,09587
1002,8029;0,0963783
1003,7671;0,0969167
1004,7313;0,0975147
1005,6956;0,0981999
1006,6598;0,0989875
1007,6240;0,0998763
1008,5883;0,100851
1009,5525;0,101894
1010,5167;0,102991
1011,4810;0,104134
1012,4452;0,10532
1013,4094;0,106535
1014,3737;0,107759
1015,3379;0,108962
1016,3021;0,110113
1017,2664;0,111192
1018,2306;0,112189
1019,1948;0,113101
1020,1591;0,113931
1021,1233;0,114681
1022,0875;0,115358
1023,0518;0,115973
1024,0160;0,11654
1024,9802;0,117077
1025,9445;0,117593
1026,9087;0,118091
1027,8729;0,118561
1028,8372;0,118985
1029,8014;0,119334
1030,7656;0,119572
1031,7299;0,11966
1032,6941;0,119566
1033,6583;0,119271
1034,6226;0,118786
1035,5868;0,118147
1036,5510;0,117413
1037,5153;0,116652
1038,4795;0,115925
1039,4437;0,115277
1040,4080;0,114737
1041,3722;0,114318
1042,3364;0,114017
1043,3007;0,113819
1044,2649;0,113695
1045,2291;0,113605
1046,1934;0,113503
1047,1576;0,113349
1048,1218;0,113109
1049,0861;0,112765
1050,0503;0,112312
1051,0145;0,111751
1051,9788;0,111091
1052,9430;0,110346
1053,9072;0,109529
1054,8715;0,108653
1055,8357;0,107717
1056,7999;0,106712
1057,7642;0,105612
1058,7284;0,104392
1059,6926;0,103035
1060,6569;0,101549
1061,6211;0,0999673
1062,5853;0,0983484
1063,5496;0,0967581
1064,5138;0,0952537
1065,4780;0,0938693
1066,4423;0,0926107
1067,4065;0,0914593
1068,3707;0,0903845
1069,3350;0,089357
1070,2992;0,0883589
1071,2634;0,0873844
1072,2277;0,0864329
1073,1919;0,0855002
1074,1561;0,0845728
1075,1204;0,0836297
1076,0846;0,0826521
1077,0488;0,0816335
1078,0131;0,0805856
1078,9773;0,0795363
1079,9415;0,0785214
1080,9058;0,0775749
1081,8700;0,0767207
1082,8342;0,0759699
1083,7985;0,075321
1084,7627;0,0747628
1085,7269;0,0742787
1086,6912;0,0738506
1087,6554;0,0734638
1088,6196;0,0731093
1089,5839;0,0727845
1090,5481;0,0724907
1091,5123;0,0722296
1092,4766;0,0720003
1093,4408;0,0717994
1094,4050;0,0716236
1095,3693;0,0714726
1096,3335;0,0713513
1097,2977;0,0712673
1098,2620;0,0712248
1099,2262;0,0712187
1100,1904;0,0712314
1101,1547;0,0712365
1102,1189;0,0712069
1103,0831;0,0711249
1104,0474;0,0709866
1105,0116;0,0708005
1105,9758;0,0705794
1106,9401;0,0703317
1107,9043;0,0700555
1108,8685;0,0697386
1109,8328;0,0693629
1110,7970;0,0689111
1111,7612;0,0683727
1112,7255;0,0677491
1113,6897;0,0670559
1114,6539;0,0663214
1115,6182;0,0655813
1116,5824;0,0648697
1117,5466;0,0642096
1118,5109;0,0636056
1119,4751;0,0630419
1120,4393;0,0624873
1121,4036;0,061903
1122,3678;0,0612529
1123,3320;0,0605117
1124,2963;0,0596695
1125,2605;0,058731
1126,2247;0,0577115
1127,1890;0,0566302
1128,1532;0,0555045
1129,1174;0,0543471
1130,0817;0,0531671
1131,0459;0,0519746
1132,0101;0,0507863
1132,9744;0,049628
1133,9386;0,0485335
1134,9028;0,0475385
1135,8671;0,0466723
1136,8313;0,0459506
1137,7955;0,0453735
1138,7598;0,0449296
1139,7240;0,0446027
1140,6882;0,0443795
1141,6525;0,0442518
1142,6167;0,0442147
1143,5809;0,044262
1144,5452;0,044383
1145,5094;0,0445637
1146,4736;0,0447908
1147,4379;0,0450555
1148,4021;0,0453538
1149,3663;0,0456834
1150,3306;0,0460382
1151,2948;0,0464051
1152,2590;0,0467651
1153,2233;0,047097
1154,1875;0,0473809
1155,1517;0,0475998
1156,1160;0,0477372
1157,0802;0,0477741
1158,0444;0,0476875
1159,0087;0,0474521
1159,9729;0,0470435
1160,9371;0,0464438
1161,9014;0,0456454
1162,8656;0,0446531
1163,8298;0,0434856
1164,7941;0,0421746
1165,7583;0,0407636
1166,7225;0,0393041
1167,6868;0,0378494
1168,6510;0,0364472
1169,6152;0,0351326
1170,5795;0,0339243
1171,5437;0,0328267
1172,5079;0,0318359
1173,4722;0,030946
1174,4364;0,0301539
1175,4006;0,0294586
1176,3649;0,0288572
1177,3291;0,0283423
1178,2933;0,0279018
1179,2576;0,0275223
1180,2218;0,0271943
1181,1860;0,0269138
1182,1503;0,026681
1183,1145;0,0264958
1184,0787;0,0263544
1185,0430;0,02625
1186,0072;0,0261776
1186,9714;0,0261386
1187,9357;0,0261419
1188,8999;0,0262
1189,8641;0,0263215
1190,8284;0,0265063
1191,7926;0,0267451
1192,7568;0,0270251
1193,7211;0,0273356
1194,6853;0,027672
1195,6495;0,0280333
1196,6138;0,0284178
1197,5780;0,0288194
1198,5422;0,0292281
1199,5065;0,0296223
1200,4707;0,03002
1201,4349;0,0304081
1202,3992;0,0307899
1203,3634;0,0311682
1204,3276;0,0315424
1205,2919;0,0319091
1206,2561;0,032265
1207,2203;0,032611
1208,1846;0,0329548
1209,1488;0,0333113
1210,1130;0,0336977
1211,0773;0,0341286
1212,0415;0,0346104
1213,0057;0,0351386
1213,9700;0,0357007
1214,9342;0,0362808
1215,8984;0,0368655
1216,8627;0,0374468
1217,8269;0,0380208
1218,7911;0,0385849
1219,7554;0,0391346
1220,7196;0,0396626
1221,6838;0,040161
1222,6481;0,0406238
1223,6123;0,0410497
1224,5765;0,0414421
1225,5408;0,0418085
1226,5050;0,0421577
1227,4692;0,0424972
1228,4335;0,0428297
1229,3977;0,0431524
1230,3619;0,0434579
1231,3262;0,0437365
1232,2904;0,0439803
1233,2546;0,0441858
1234,2189;0,0443542
1235,1831;0,0444895
1236,1473;0,0445959
1237,1116;0,0446757
1238,0758;0,0447297
1239,0400;0,0447589
1240,0043;0,044765
1240,9685;0,0447509
1241,9327;0,0447181
1242,8970;0,0446652
1243,8612;0,0445867
1244,8254;0,0444748
1245,7897;0,0443223
1246,7539;0,0441262
1247,7181;0,0438892
1248,6824;0,0436204
1249,6466;0,0433327
1250,6108;0,0430396
1251,5751;0,0427526
1252,5393;0,0424783
1253,5035;0,0422163
1254,4678;0,0419594
1255,4320;0,0416955
1256,3962;0,0414112
1257,3605;0,0410975
1258,3247;0,0407533
1259,2889;0,0403862
1260,2532;0,0400077
1261,2174;0,0396264
1262,1816;0,0392419
1263,1459;0,0388453
1264,1101;0,0384245
1265,0743;0,0379717
1266,0386;0,0374879
1267,0028;0,0369825
1267,9670;0,036468
1268,9313;0,0359548
1269,8955;0,0354479
1270,8597;0,034947
1271,8240;0,0344492
1272,7882;0,0339523
1273,7524;0,0334564
1274,7167;0,0329642
1275,6809;0,0324809
1276,6451;0,0320127
1277,6094;0,0315648
1278,5736;0,0311397
1279,5378;0,0307367
1280,5021;0,0303527
1281,4663;0,0299845
1282,4305;0,0296314
1283,3948;0,0292947
1284,3590;0,0289774
1285,3232;0,0286817
1286,2875;0,0284088
1287,2517;0,0281599
1288,2159;0,0279372
1289,1802;0,0277448
1290,1444;0,027588
1291,1086;0,0274709
1292,0729;0,0273954
1293,0371;0,0273605
1294,0013;0,027363
1294,9656;0,0273988
1295,9298;0,0274641
1296,8940;0,0275568
1297,8583;0,0276763
1298,8225;0,0278233
1299,7867;0,0279984
1300,7510;0,0281998
1301,7152;0,028424
1302,6794;0,0286655
1303,6437;0,0289195
1304,6079;0,0291832
1305,5721;0,0294559
1306,5364;0,029739
1307,5006;0,030034
1308,4648;0,0303419
1309,4291;0,0306628
1310,3933;0,0309941
1311,3575;0,0313291
1312,3218;0,0316551
1313,2860;0,0319552
1314,2502;0,0322119
1315,2145;0,032412
1316,1787;0,0325494
1317,1429;0,0326253
1318,1072;0,0326476
1319,0714;0,0326282
1320,0356;0,0325804
1320,9999;0,0325152
1321,9641;0,03244
1322,9283;0,032359
1323,8926;0,0322751
1324,8568;0,0321923
1325,8210;0,032115
1326,7853;0,0320465
1327,7495;0,0319867
1328,7137;0,0319305
1329,6780;0,0318696
1330,6422;0,0317957
1331,6064;0,0317031
1332,5707;0,0315889
1333,5349;0,0314513
1334,4991;0,0312849
1335,4634;0,0310799
1336,4276;0,0308251
1337,3918;0,0305184
1338,3561;0,0301774
1339,3203;0,029841
1340,2845;0,0295515
1341,2488;0,0293294
1342,2130;0,029167
1343,1772;0,0290416
1344,1415;0,0289335
1345,1057;0,0288354
1346,0699;0,028753
1347,0342;0,0286992
1347,9984;0,0286863
1348,9626;0,0287204
1349,9269;0,0287997
1350,8911;0,0289172
1351,8553;0,0290652
1352,8196;0,0292392
1353,7838;0,0294393
1354,7480;0,0296685
1355,7123;0,0299274
1356,6765;0,0302106
1357,6407;0,0305066
1358,6050;0,0308036
1359,5692;0,0310945
1360,5334;0,0313785
1361,4977;0,0316586
1362,4619;0,0319356
1363,4261;0,0322052
1364,3904;0,0324592
1365,3546;0,032691
1366,3188;0,0328976
1367,2831;0,0330786
1368,2473;0,0332326
1369,2115;0,0333545
1370,1758;0,0334332
1371,1400;0,0334528
1372,1042;0,0333968
1373,0685;0,0332575
1374,0327;0,0330448
1374,9969;0,0327861
1375,9612;0,032507
1376,9254;0,0322114
1377,8896;0,0318801
1378,8539;0,0314897
1379,8181;0,0310356
1380,7823;0,0305407
1381,7466;0,0300415
1382,7108;0,0295619
1383,6750;0,0290963
1384,6393;0,028617
1385,6035;0,0281034
1386,5677;0,0275741
1387,5320;0,027092
1388,4962;0,026721
1389,4604;0,0264757
1390,4247;0,0263199
1391,3889;0,0262011
1392,3531;0,02608
1393,3174;0,0259423
1394,2816;0,0257997
1395,2458;0,0256778
1396,2101;0,0255978
1397,1743;0,0255634
1398,1385;0,0255667
1399,1028;0,0255986
1400,0670;0,0256534
1401,0313;0,0257265
1401,9955;0,0258125
1402,9597;0,0259075
1403,9240;0,0260135
1404,8882;0,0261393
1405,8524;0,0262938
1406,8167;0,0264779
1407,7809;0,0266828
1408,7451;0,0268993
1409,7094;0,0271272
1410,6736;0,0273766
1411,6378;0,0276593
1412,6021;0,0279756
1413,5663;0,0283093
1414,5305;0,028634
1415,4948;0,0289243
1416,4590;0,0291629
1417,4232;0,0293474
1418,3875;0,0294944
1419,3517;0,0296292
1420,3159;0,0297607
1421,2802;0,0298711
1422,2444;0,0299322
1423,2086;0,0299263
1424,1729;0,0298534
1425,1371;0,0297238
1426,1013;0,029542
1427,0656;0,0292954
1428,0298;0,0289645
1428,9940;0,0285497
1429,9583;0,028093
1430,9225;0,0276597
1431,8867;0,0272903
1432,8510;0,0269684
1433,8152;0,0266337
1434,7794;0,0262241
1435,7437;0,0257328
1436,7079;0,0252448
1437,6721;0,0248823
1438,6364;0,024696
1439,6006;0,0246443
1440,5648;0,0246598
1441,5291;0,0246994
1442,4933;0,0247524
1443,4575;0,0248264
1444,4218;0,0249302
1445,3860;0,025063
1446,3502;0,0252132
1447,3145;0,0253684
1448,2787;0,025524
1449,2429;0,025686
1450,2072;0,0258622
1451,1714;0,0260522
1452,1356;0,0262433
1453,0999;0,0264105
1454,0641;0,0265127
1455,0283;0,0264906
1455,9926;0,0262931
1456,9568;0,0259739
1457,9210;0,0257237
1458,8853;0,0256688
1459,8495;0,0257576
1460,8137;0,0258764
1461,7780;0,0259302
1462,7422;0,0258466
1463,7064;0,0255837
1464,6707;0,0251654
1465,6349;0,0246929
1466,5991;0,0242706
1467,5634;0,0239221
1468,5276;0,023591
1469,4918;0,0231832
1470,4561;0,0225985
1471,4203;0,0217693
1472,3845;0,0207399
1473,3488;0,0197089
1474,3130;0,0188881
1475,2772;0,0183255
1476,2415;0,0179389
1477,2057;0,0176384
1478,1699;0,0173749
1479,1342;0,0171339
1480,0984;0,016918
1481,0626;0,0167381
1482,0269;0,0166076
1482,9911;0,0165357
1483,9553;0,0165201
1484,9196;0,0165442
1485,8838;0,0165792
1486,8480;0,0165946
1487,8123;0,0165759
1488,7765;0,0165503
1489,7407;0,0165817
1490,7050;0,0167146
1491,6692;0,0169387
1492,6334;0,0172155
1493,5977;0,0175124
1494,5619;0,0178116
1495,5261;0,0181096
1496,4904;0,0184167
1497,4546;0,018755
1498,4188;0,0191429
1499,3831;0,0195762
1500,3473;0,020029
1501,3115;0,0204705
1502,2758;0,0208715
1503,2400;0,0212003
1504,2042;0,021407
1505,1685;0,0214072
1506,1327;0,0211131
1507,0969;0,0205949
1508,0612;0,0201326
1509,0254;0,0198852
1509,9896;0,0197822
1510,9539;0,0197142
1511,9181;0,0196143
1512,8823;0,019448
1513,8466;0,0191978
1514,8108;0,018865
1515,7750;0,0184745
1516,7393;0,0180642
1517,7035;0,0176575
1518,6677;0,0172434
1519,6320;0,0167917
1520,5962;0,0162969
1521,5604;0,0158077
1522,5247;0,0153978
1523,4889;0,0151046
1524,4531;0,0149127
1525,4174;0,0147884
1526,3816;0,0147139
1527,3458;0,0146905
1528,3101;0,0147185
1529,2743;0,014782
1530,2385;0,0148496
1531,2028;0,0148896
1532,1670;0,0148926
1533,1312;0,0148897
1534,0955;0,0149363
1535,0597;0,0150643
1536,0239;0,0152573
1536,9882;0,0154652
1537,9524;0,0156167
1538,9166;0,0156193
1539,8809;0,0153997
1540,8451;0,01504
1541,8093;0,0147814
1542,7736;0,0147397
1543,7378;0,0148435
1544,7020;0,0150002
1545,6663;0,0151629
1546,6305;0,0153159
1547,5947;0,0154531
1548,5590;0,0155693
1549,5232;0,0156621
1550,4874;0,0157403
1551,4517;0,0158256
1552,4159;0,0159428
1553,3801;0,0161019
1554,3444;0,0162873
1555,3086;0,0164554
1556,2728;0,0165304
1557,2371;0,0164127
1558,2013;0,0160871
1559,1655;0,0157759
1560,1298;0,0157157
1561,0940;0,015881
1562,0582;0,0161471
1563,0225;0,0164352
1563,9867;0,0167104
1564,9509;0,0169541
1565,9152;0,0171522
1566,8794;0,0172992
1567,8436;0,0174127
1568,8079;0,0175389
1569,7721;0,0177267
1570,7363;0,017987
1571,7006;0,0182892
1572,6648;0,0185904
1573,6290;0,0188603
1574,5933;0,0190908
1575,5575;0,019303
1576,5217;0,0195421
1577,4860;0,0198415
1578,4502;0,0201952
1579,4144;0,0205768
1580,3787;0,0209675
1581,3429;0,0213618
1582,3071;0,0217617
1583,2714;0,0221711
1584,2356;0,0225922
1585,1998;0,0230235
1586,1641;0,023459
1587,1283;0,0238881
1588,0925;0,0242966
1589,0568;0,0246684
1590,0210;0,0249883
1590,9852;0,0252426
1591,9495;0,0254195
1592,9137;0,0255108
1593,8779;0,0255177
1594,8422;0,0254551
1595,8064;0,0253473
1596,7706;0,0252179
1597,7349;0,02508
1598,6991;0,0249354
1599,6633;0,0247811
1600,6276;0,0246174
1601,5918;0,0244514
1602,5560;0,0242959
1603,5203;0,0241615
1604,4845;0,0240495
1605,4487;0,0239493
1606,4130;0,0238447
1607,3772;0,0237257
1608,3414;0,0236016
1609,3057;0,0235018
1610,2699;0,023457
1611,2341;0,0234745
1612,1984;0,0235303
1613,1626;0,0235796
1614,1268;0,023574
1615,0911;0,023488
1616,0553;0,0233554
1617,0195;0,0232656
1617,9838;0,0232833
1618,9480;0,0233919
1619,9122;0,0235293
1620,8765;0,0236396
1621,8407;0,0236946
1622,8049;0,0237006
1623,7692;0,0236902
1624,7334;0,0236955
1625,6976;0,0237244
1626,6619;0,0237678
1627,6261;0,0238233
1628,5903;0,0239039
1629,5546;0,0240242
1630,5188;0,0241809
1631,4830;0,0243454
1632,4473;0,0244669
1633,4115;0,0244791
1634,3757;0,0243249
1635,3400;0,0240294
1636,3042;0,0237438
1637,2684;0,0236145
1638,2327;0,0236475
1639,1969;0,0237707
1640,1611;0,0239249
1641,1254;0,0240796
1642,0896;0,0242143
1643,0538;0,024298
1644,0181;0,0242833
1644,9823;0,0241294
1645,9465;0,02387
1646,9108;0,0236461
1647,8750;0,023589
1648,8392;0,0236912
1649,8035;0,0238373
1650,7677;0,0238678
1651,7319;0,0236033
1652,6962;0,0229708
1653,6604;0,0222527
1654,6246;0,0218603
1655,5889;0,0218221
1656,5531;0,0219369
1657,5173;0,022052
1658,4816;0,0220904
1659,4458;0,0220114
1660,4100;0,0217995
1661,3743;0,0214851
1662,3385;0,0211568
1663,3027;0,0209125
1664,2670;0,0207862
1665,2312;0,020737
1666,1954;0,0206863
1667,1597;0,0205514
1668,1239;0,0202775
1669,0881;0,0198849
1670,0524;0,0194814
1671,0166;0,0191758
1671,9808;0,01898
1672,9451;0,0188231
1673,9093;0,0186281
1674,8735;0,0183728
1675,8378;0,0181074
1676,8020;0,0179133
1677,7662;0,0178332
1678,7305;0,0178476
1679,6947;0,0178974
1680,6589;0,0179048
1681,6232;0,0177798
1682,5874;0,0174502
1683,5516;0,0169577
1684,5159;0,016498
1685,4801;0,0162325
1686,4443;0,016145
1687,4086;0,0161415
1688,3728;0,0161569
1689,3370;0,0161719
1690,3013;0,0161937
1691,2655;0,0162348
1692,2297;0,0162992
1693,1940;0,016379
1694,1582;0,0164572
1695,1224;0,0165119
1696,0867;0,0165205
1697,0509;0,0164671
1698,0151;0,0163558
1698,9794;0,0162245
1699,9436;0,0161355
1700,9078;0,0161368
1701,8721;0,0162328
1702,8363;0,016394
1703,8005;0,0165855
1704,7648;0,0167848
1705,7290;0,0169876
1706,6932;0,0172044
1707,6575;0,0174509
1708,6217;0,0177382
1709,5859;0,0180685
1710,5502;0,0184369
1711,5144;0,0188312
1712,4786;0,0192307
1713,4429;0,0196058
1714,4071;0,0199226
1715,3713;0,0201589
1716,3356;0,0203326
1717,2998;0,0205109
1718,2640;0,0207551
1719,2283;0,0210692
1720,1925;0,0214215
1721,1567;0,0217816
1722,1210;0,0221299
1723,0852;0,022454
1724,0494;0,0227476
1725,0137;0,0230126
1725,9779;0,0232598
1726,9421;0,0235021
1727,9064;0,0237459
1728,8706;0,0239824
1729,8348;0,0241827
1730,7991;0,0242957
1731,7633;0,0242601
1732,7275;0,0240494
1733,6918;0,0237313
1734,6560;0,0234388
1735,6202;0,0232452
1736,5845;0,0231174
1737,5487;0,0229743
1738,5129;0,0227452
1739,4772;0,0223994
1740,4414;0,0219583
1741,4056;0,021483
1742,3699;0,0210303
1743,3341;0,0206168
1744,2983;0,020223
1745,2626;0,0198162
1746,2268;0,0193625
1747,1910;0,0188263
1748,1553;0,018182
1749,1195;0,0174479
1750,0837;0,0167094
1751,0480;0,0160725
1752,0122;0,0155829
1752,9764;0,0152077
1753,9407;0,0148795
1754,9049;0,0145448
1755,8691;0,0141876
1756,8334;0,0138269
1757,7976;0,0134899
1758,7618;0,0131802
1759,7261;0,0128729
1760,6903;0,0125423
1761,6545;0,0121955
1762,6188;0,0118759
1763,5830;0,0116272
1764,5472;0,0114592
1765,5115;0,0113463
1766,4757;0,0112492
1767,4399;0,011135
1768,4042;0,0109852
1769,3684;0,0107926
1770,3326;0,0105581
1771,2969;0,010297
1772,2611;0,0100482
1773,2253;0,00986058
1774,1896;0,00975825
1775,1538;0,00972625
1776,1180;0,00972772
1777,0823;0,00972651
1778,0465;0,00970042
1779,0107;0,00964612
1779,9750;0,00957545
1780,9392;0,009503
1781,9034;0,00943424
1782,8677;0,00936715
1783,8319;0,00930497
1784,7961;0,00926419
1785,7604;0,00926658
1786,7246;0,00932155
1787,6888;0,00941489
1788,6531;0,00951019
1789,6173;0,00955958
1790,5815;0,00952342
1791,5458;0,00940116
1792,5100;0,00924917
1793,4742;0,00914424
1794,4385;0,00912172
1795,4027;0,00916266
1796,3669;0,00922415
1797,3312;0,00926593
1798,2954;0,00926263
1799,2596;0,00921053
1800,2239;0,00912922
1801,1881;0,00905146
1802,1523;0,0090039
1803,1166;0,00899494
1804,0808;0,0090171
1805,0450;0,00905556
1806,0093;0,00909437
1806,9735;0,00911928
1807,9377;0,00912026
1808,9020;0,00909515
1809,8662;0,00905271
1810,8304;0,00900976
1811,7947;0,00898137
1812,7589;0,00897105
1813,7231;0,00896946
1814,6874;0,00896164
1815,6516;0,00893696
1816,6158;0,00889693
1817,5801;0,00885654
1818,5443;0,00883596
1819,5085;0,00884705
1820,4728;0,00888559
1821,4370;0,00893478
1822,4012;0,00897545
1823,3655;0,00899582
1824,3297;0,00899507
1825,2939;0,00897805
1826,2582;0,00894542
1827,2224;0,00888999
1828,1866;0,00880573
1829,1509;0,00870328
1830,1151;0,00861509
1831,0793;0,00857689
1832,0436;0,00860073
1833,0078;0,00866916
1833,9720;0,0087513
1834,9363;0,00882167
1835,9005;0,00887155
1836,8647;0,00891073
1837,8290;0,0089572
1838,7932;0,00902019
1839,7574;0,00909059
1840,7217;0,00914446
1841,6859;0,00915458
1842,6501;0,00910579
1843,6144;0,00901024
1844,5786;0,00890652
1845,5428;0,00883175
1846,5071;0,00879453
1847,4713;0,00877963
1848,4355;0,00876985
1849,3998;0,00875952
1850,3640;0,00875466
1851,3282;0,00876492
1852,2925;0,00879389
1853,2567;0,00883399
1854,2209;0,008869
1855,1852;0,00888162
1856,1494;0,00886112
1857,1136;0,00880739
1858,0779;0,00873116
1859,0421;0,00865146
1860,0063;0,00859101
1860,9706;0,00856955
1861,9348;0,0085958
1862,8990;0,00866209
1863,8633;0,0087449
1864,8275;0,00881087
1865,7917;0,0088269
1866,7560;0,00877497
1867,7202;0,00866917
1868,6844;0,00855765
1869,6487;0,00849253
1870,6129;0,00849238
1871,5771;0,00853841
1872,5414;0,00859866
1873,5056;0,00864915
1874,4698;0,00868154
1875,4341;0,00870136
1876,3983;0,00872023
1877,3625;0,00874552
1878,3268;0,00877378
1879,2910;0,0087931
1880,2552;0,00879215
1881,2195;0,00876957
1882,1837;0,00873709
1883,1479;0,0087137
1884,1122;0,00871403
1885,0764;0,00873885
1886,0406;0,00877411
1887,0049;0,0087988
1887,9691;0,00879768
1888,9333;0,00877183
1889,8976;0,00873817
1890,8618;0,00871588
1891,8260;0,00871084
1892,7903;0,00871168
1893,7545;0,00869904
1894,7188;0,00865974
1895,6830;0,0085967
1896,6472;0,0085276
1897,6115;0,00847288
1898,5757;0,00844255
1899,5399;0,00843243
1900,5042;0,00843043
1901,4684;0,00842629
1902,4326;0,00841791
1903,3969;0,00841105
1904,3611;0,00841377
1905,3253;0,00843037
1906,2896;0,00845886
1907,2538;0,00849271
1908,2180;0,0085255
1909,1823;0,00855584
1910,1465;0,00858946
1911,1107;0,00863608
1912,0750;0,00870241
1913,0392;0,00878601
1914,0034;0,00887338
1914,9677;0,00894338
1915,9319;0,00897565
1916,8961;0,00896213
1917,8604;0,00891373
1918,8246;0,00885355
1919,7888;0,00879992
1920,7531;0,00875485
1921,7173;0,00870689
1922,6815;0,00864456
1923,6458;0,00856987
1924,6100;0,00850191
1925,5742;0,008467
1926,5385;0,00848237
1927,5027;0,00854433
1928,4669;0,0086257
1929,4312;0,00868317
1930,3954;0,00867434
1931,3596;0,00857977
1932,3239;0,00841809
1933,2881;0,00824241
1934,2523;0,0081166
1935,2166;0,00808259
1936,1808;0,00813625
1937,1450;0,008228
1938,1093;0,00828841
1939,0735;0,00826262
1940,0377;0,00813563
1941,0020;0,00794028
1941,9662;0,00774458
1942,9304;0,00762026
1943,8947;0,00760838
1944,8589;0,00770653
1945,8231;0,00788183
1946,7874;0,00809041
1947,7516;0,00828802
1948,7158;0,0084338
1949,6801;0,00849609
1950,6443;0,0084622
1951,6085;0,00834624
1952,5728;0,00818698
1953,5370;0,00803396
1954,5012;0,00792735
1955,4655;0,00788132
1956,4297;0,00788033
1957,3939;0,00789084
1958,3582;0,00788216
1959,3224;0,00784343
1960,2866;0,0077853
1961,2509;0,00772383
1962,2151;0,00765856
1963,1793;0,00756348
1964,1436;0,00740141
1965,1078;0,00715526
1966,0720;0,00685605
1967,0363;0,00658291
1968,0005;0,00642416
1968,9647;0,00642228
1969,9290;0,00654512
1970,8932;0,0067035
1971,8574;0,00679803
1972,8217;0,00676594
1973,7859;0,00660822
1974,7501;0,00638803
1975,7144;0,00619994
1976,6786;0,00612298
1977,6428;0,00618273
1978,6071;0,00634641
1979,5713;0,00655211
1980,5355;0,00674667
1981,4998;0,00690555
1982,4640;0,00702881
1983,4282;0,00712547
1984,3925;0,00720188
1985,3567;0,00726245
1986,3209;0,00731994
1987,2852;0,00740263
1988,2494;0,00754583
1989,2136;0,00776676
1990,1779;0,00803788
1991,1421;0,00828269
1992,1063;0,00840959
1993,0706;0,00836841
1994,0348;0,00818727
1994,9990;0,00795992
1995,9633;0,00779541
1996,9275;0,00776452
1997,8917;0,00786887
1998,8560;0,00804319
1999,8202;0,0081872
2000,7844;0,00821079
2001,7487;0,00806926
2002,7129;0,00777587
2003,6771;0,00739575
2004,6414;0,00702953
2005,6056;0,00678789
2006,5698;0,00675504
2007,5341;0,00695116
2008,4983;0,00731612
2009,4625;0,00773016
2010,4268;0,00806144
2011,3910;0,00821311
2012,3552;0,00814832
2013,3195;0,0078903
2014,2837;0,00750739
2015,2479;0,00709268
2016,2122;0,00674136
2017,1764;0,00652674
2018,1406;0,00648171
2019,1049;0,00659661
2020,0691;0,00683544
2021,0333;0,0071579
2021,9976;0,00753049
2022,9618;0,00792039
2023,9260;0,00828162
2024,8903;0,00855204
2025,8545;0,0086728
2026,8187;0,00862251
2027,7830;0,00844073
2028,7472;0,00821834
2029,7114;0,00805502
2030,6757;0,00800858
2031,6399;0,00806831
2032,6041;0,00816819
2033,5684;0,00822839
2034,5326;0,00819615
2035,4968;0,00806323
2036,4611;0,00785874
2037,4253;0,00763192
2038,3895;0,0074368
2039,3538;0,0073178
2040,3180;0,00729275
2041,2822;0,0073392
2042,2465;0,00739973
2043,2107;0,00741372
2044,1749;0,00735998
2045,1392;0,00728039
2046,1034;0,00726265
2047,0676;0,00738594
2048,0320;0,00766305
2048,9961;0,00802419
2049,9604;0,00835798
2050,9246;0,00857588
2051,8889;0,00865383
2052,8530;0,00863467
2053,8174;0,00860168
2054,7815;0,00863969
2055,7458;0,0087976
2056,7100;0,00906627
2057,6743;0,00938187
2058,6384;0,00965365
2059,6028;0,0098038
2060,5669;0,00980136
2061,5313;0,00967544
2062,4954;0,00950125
2063,4597;0,00936489
2064,4238;0,00932407
2065,3882;0,00938518
2066,3523;0,00950754
2067,3167;0,00962856
2068,2808;0,00969229
2069,2451;0,00966721
2070,2092;0,00955092
2071,1736;0,00936697
2072,1377;0,00915725
2073,1021;0,00896941
2074,0662;0,00883974
2075,0305;0,00877753
2075,9946;0,00876046
2076,9590;0,00874645
2077,9231;0,0086971
2078,8875;0,00859886
2079,8516;0,00846886
2080,8159;0,00834223
2081,7800;0,00825104
2082,7444;0,0082089
2083,7085;0,00820968
2084,6729;0,00823775
2085,6370;0,00827981
2086,6013;0,00833008
2087,5654;0,00838805
2088,5298;0,008454
2089,4939;0,00852756
2090,4583;0,00860983
2091,4224;0,00870513
2092,3867;0,00881875
2093,3508;0,00895126
2094,3152;0,00909425
2095,2793;0,00923232
2096,2437;0,00935111
2097,2078;0,00944554
2098,1721;0,00952146
2099,1362;0,00958948
2100,1006;0,00965644
2101,0647;0,00972232
2102,0291;0,00978319
2102,9932;0,00983863
2103,9575;0,00989491
2104,9216;0,00996058
2105,8860;0,0100371
2106,8501;0,010112
2107,8145;0,0101605
2108,7786;0,0101567
2109,7429;0,0100877
2110,7070;0,00996009
2111,6714;0,00979618
2112,6355;0,00962188
2113,5999;0,00945526
2114,5640;0,00930288
2115,5283;0,00916495
2116,4924;0,00904345
2117,4568;0,00894614
2118,4209;0,00888286
2119,3853;0,00885741
2120,3494;0,00886199
2121,3137;0,00887914
2122,2778;0,00889043
2123,2422;0,00888529
2124,2063;0,00886333
2125,1707;0,00882874
2126,1348;0,00878231
2127,0991;0,00871933
2128,0632;0,00863672
2129,0276;0,0085454
2129,9917;0,00847763
2130,9561;0,00848114
2131,9202;0,00859968
2132,8845;0,00884874
2133,8486;0,00920106
2134,8130;0,0095933
2135,7771;0,0099527
2136,7415;0,0102275
2137,7056;0,010402
2138,6699;0,0104889
2139,6340;0,0105133
2140,5984;0,0105003
2141,5625;0,0104757
2142,5269;0,0104685
2143,4910;0,0105049
2144,4553;0,0105904
2145,4194;0,0106921
2146,3838;0,0107395
2147,3479;0,0106527
2148,3123;0,0103843
2149,2764;0,00994674
2150,2407;0,00940489
2151,2048;0,00883444
2152,1692;0,00827356
2153,1333;0,00769853
2154,0977;0,00703781
2155,0618;0,00621622
2156,0261;0,00520872
2156,9902;0,00408232
2157,9546;0,0030015
2158,9187;0,00217657
2159,8831;0,00177262
2160,8472;0,00184286
2161,8115;0,00232742
2162,7756;0,00309258
2163,7400;0,00397272
2164,7041;0,00480981
2165,6685;0,00549619
2166,6326;0,00600695
2167,5969;0,00639679
2168,5610;0,00675623
2169,5254;0,00715446
2170,4895;0,00760637
2171,4539;0,00808199
2172,4180;0,00854572
2173,3823;0,00899414
2174,3464;0,00946331
2175,3108;0,00999942
2176,2749;0,0106152
2177,2393;0,0112648
2178,2034;0,011854
2179,1677;0,0122767
2180,1318;0,012455
2181,0962;0,0123666
2182,0603;0,0120515
2183,0247;0,0116006
2183,9888;0,0111295
2184,9531;0,0107474
2185,9172;0,0105292
2186,8816;0,0104965
2187,8457;0,0106124
2188,8101;0,0107902
2189,7742;0,0109193
2190,7385;0,0108988
2191,7026;0,0106702
2192,6670;0,0102358
2193,6311;0,00965475
2194,5955;0,00902034
2195,5596;0,00842587
2196,5239;0,0079349
2197,4880;0,00756709
2198,4524;0,0073032
2199,4165;0,00710337
2200,3809;0,00692843
2201,3450;0,00675628
2202,3093;0,0065901
2203,2734;0,00645758
2204,2378;0,0064014
2205,2019;0,00646168
2206,1663;0,00665583
2207,1304;0,00696575
2208,0947;0,00734215
2209,0588;0,0077263
2210,0232;0,00807698
2210,9873;0,00838419
2211,9517;0,00865922
2212,9158;0,00890898
2213,8801;0,00911667
2214,8442;0,00924819
2215,8086;0,00928366
2216,7727;0,00925109
2217,7371;0,00923233
2218,7012;0,00932867
2219,6655;0,00960253
2220,6296;0,0100322
2221,5940;0,0105109
2222,5581;0,0108932
2223,5225;0,0110628
2224,4866;0,0109837
2225,4509;0,010709
2226,4150;0,0103487
2227,3794;0,0100187
2228,3435;0,00979914
2229,3079;0,00971636
2230,2720;0,00974797
2231,2363;0,00983834
2232,2004;0,00991624
2233,1648;0,00991299
2234,1289;0,00978316
2235,0933;0,00952456
2236,0574;0,00918634
2237,0217;0,00885478
2237,9858;0,00861781
2238,9502;0,00852496
2239,9143;0,00856606
2240,8787;0,00868191
2241,8428;0,00879989
2242,8071;0,00887134
2243,7712;0,00888833
2244,7356;0,00887356
2245,6997;0,0088558
2246,6641;0,00885042
2247,6282;0,00885676
2248,5925;0,00886935
2249,5566;0,00889012
2250,5210;0,00893167
2251,4851;0,00901034
2252,4495;0,00913584
2253,4136;0,00930426
2254,3779;0,00949681
2255,3420;0,00968289
2256,3064;0,00982611
2257,2705;0,00989347
2258,2349;0,00986736
2259,1990;0,00975676
2260,1633;0,00960083
2261,1274;0,00945914
2262,0918;0,00938992
2263,0559;0,00942526
2264,0203;0,00955618
2264,9844;0,00973601
2265,9487;0,00990069
2266,9128;0,00999576
2267,8772;0,00999716
2268,8413;0,00991753
2269,8057;0,00979719
2270,7698;0,00968514
2271,7341;0,00961834
2272,6982;0,00960736
2273,6626;0,00963429
2274,6267;0,0096637
2275,5911;0,00966167
2276,5552;0,00961317
2277,5195;0,00952909
2278,4836;0,00943955
2279,4480;0,00937804
2280,4121;0,00936566
2281,3765;0,00940397
2282,3406;0,00947851
2283,3049;0,00956893
2284,2690;0,00965853
2285,2334;0,00973853
2286,1975;0,00980682
2287,1619;0,00986397
2288,1260;0,00991017
2289,0903;0,00994468
2290,0544;0,00996743
2291,0188;0,00998099
2291,9829;0,00999116
2292,9473;0,0100055
2293,9114;0,010031
2294,8757;0,0100712
2295,8398;0,0101251
2296,8042;0,0101875
2297,7683;0,0102508
2298,7327;0,0103055
2299,6968;0,0103418
2300,6611;0,01035
2301,6252;0,0103234
2302,5896;0,0102621
2303,5537;0,0101769
2304,5181;0,0100894
2305,4822;0,0100265
2306,4465;0,0100093
2307,4106;0,0100412
2308,3750;0,0101039
2309,3391;0,0101638
2310,3035;0,0101891
2311,2676;0,0101662
2312,2319;0,0101066
2313,1960;0,010039
2314,1604;0,00999233
2315,1245;0,00998181
2316,0889;0,0100045
2317,0530;0,010045
2318,0173;0,0100853
2318,9814;0,0101149
2319,9458;0,0101373
2320,9099;0,0101691
2321,8743;0,0102307
2322,8384;0,010331
2323,8027;0,0104569
2324,7668;0,0105748
2325,7312;0,0106437
2326,6953;0,0106322
2327,6597;0,0105334
2328,6238;0,0103753
2329,5881;0,0102171
2330,5522;0,010129
2331,5166;0,0101598
2332,4807;0,0103133
2333,4451;0,0105472
2334,4092;0,0107908
2335,3735;0,0109683
2336,3376;0,0110192
2337,3020;0,0109175
2338,2661;0,0106813
2339,2305;0,0103656
2340,1946;0,0100369
2341,1589;0,00974799
2342,1230;0,00953193
2343,0874;0,00941226
2344,0515;0,00940946
2345,0159;0,0095278
2345,9800;0,00973946
2346,9443;0,00999068
2347,9084;0,010223
2348,8728;0,0103893
2349,8369;0,0104594
2350,8013;0,0104222
2351,7654;0,0102894
2352,7297;0,0101024
2353,6938;0,00993054
2354,6582;0,00985188
2355,6223;0,00991873
2356,5867;0,0101347
2357,5508;0,0104525
2358,5151;0,0107846
2359,4792;0,0110288
2360,4436;0,0111119
2361,4077;0,0110298
2362,3721;0,0108517
2363,3362;0,0106823
2364,3005;0,0106049
2365,2646;0,0106384
2366,2290;0,0107339
2367,1931;0,0108098
2368,1575;0,0107983
2369,1216;0,0106737
2370,0859;0,0104553
2371,0500;0,0101915
2372,0144;0,00993875
2372,9785;0,00974488
2373,9429;0,00963865
2374,9070;0,00962487
2375,8713;0,00968543
2376,8354;0,00978675
2377,7998;0,00989197
2378,7639;0,00997352
2379,7283;0,0100203
2380,6924;0,0100371
2381,6567;0,0100371
2382,6208;0,0100331
2383,5852;0,0100317
2384,5493;0,010033
2385,5137;0,0100354
2386,4778;0,0100398
2387,4421;0,010052
2388,4063;0,0100801
2389,3706;0,0101278
2390,3347;0,0101895
2391,2991;0,0102497
2392,2632;0,0102902
2393,2275;0,0103005
2394,1917;0,0102854
2395,1560;0,0102645
2396,1201;0,0102639
2397,0845;0,0103028
2398,0486;0,0103835
2399,0129;0,01049
2399,9771;0,0105952
2400,9414;0,0106723
2401,9055;0,0107062
2402,8699;0,0106981
2403,8340;0,0106649
2404,7983;0,010632
2405,7625;0,0106241
2406,7268;0,0106558
2407,6909;0,0107262
2408,6553;0,0108177
2409,6194;0,0109036
2410,5837;0,0109574
2411,5479;0,0109645
2412,5122;0,0109264
2413,4763;0,0108599
2414,4407;0,0107882
2415,4048;0,0107312
2416,3691;0,0106976
2417,3333;0,0106839
2418,2976;0,010678
2419,2617;0,0106661
2420,2261;0,0106395
2421,1902;0,0105973
2422,1545;0,0105464
2423,1187;0,0104976
2424,0830;0,0104611
2425,0471;0,010442
2426,0115;0,0104384
2426,9756;0,0104432
2427,9399;0,0104483
2428,9041;0,0104486
2429,8684;0,0104434
2430,8325;0,010435
2431,7969;0,0104255
2432,7610;0,010416
2433,7253;0,0104078
2434,6895;0,0104064
2435,6538;0,0104222
2436,6179;0,0104671
2437,5823;0,0105474
2438,5464;0,0106583
2439,5107;0,0107837
2440,4749;0,0109031
2441,4392;0,0110007
2442,4033;0,0110707
2443,3677;0,0111164
2444,3318;0,011144
2445,2961;0,0111585
2446,2603;0,0111634
2447,2246;0,0111646
2448,1887;0,011173
2449,1531;0,0112008
2450,1172;0,011253
2451,0815;0,0113204
2452,0457;0,0113797
2453,0100;0,011404
2453,9741;0,0113775
2454,9385;0,0113054
2455,9026;0,0112123
2456,8669;0,0111288
2457,8311;0,0110763
2458,7954;0,0110567
2459,7595;0,0110538
2460,7239;0,0110448
2461,6880;0,0110124
2462,6523;0,0109527
2463,6165;0,010875
2464,5808;0,0107949
2465,5449;0,0107268
2466,5093;0,0106793
2467,4734;0,0106542
2468,4377;0,0106487
2469,4019;0,0106571
2470,3662;0,0106723
2471,3303;0,0106879
2472,2947;0,0107004
2473,2588;0,010712
2474,2231;0,0107306
2475,1873;0,0107675
2476,1516;0,0108306
2477,1157;0,0109188
2478,0801;0,0110206
2479,0442;0,0111177
2480,0085;0,0111931
2480,9727;0,0112384
2481,9370;0,0112567
2482,9011;0,01126
2483,8655;0,0112642
2484,8296;0,0112823
2485,7939;0,0113212
2486,7581;0,0113798
2487,7224;0,0114494
2488,6865;0,0115162
2489,6509;0,0115646
2490,6150;0,0115825
2491,5793;0,0115649
2492,5435;0,0115163
2493,5078;0,0114492
2494,4719;0,0113799
2495,4363;0,0113233
2496,4004;0,0112886
2497,3647;0,011277
2498,3289;0,0112819
2499,2932;0,0112904
2500,2573;0,0112871
2501,2217;0,0112592
2502,1858;0,0112017
2503,1501;0,0111204
2504,1143;0,0110301
2505,0786;0,0109502
2506,0427;0,0108971
2507,0071;0,0108797
2507,9712;0,0108976
2508,9355;0,0109434
2509,8997;0,011006
2510,8640;0,0110735
2511,8281;0,0111355
2512,7925;0,0111832
2513,7566;0,0112107
2514,7209;0,011216
2515,6851;0,0112033
2516,6494;0,0111829
2517,6135;0,0111695
2518,5779;0,0111777
2519,5420;0,0112159
2520,5063;0,011281
2521,4705;0,0113583
2522,4348;0,0114264
2523,3989;0,0114674
2524,3633;0,0114762
2525,3274;0,0114632
2526,2917;0,011449
2527,2559;0,0114523
2528,2202;0,0114798
2529,1843;0,0115226
2530,1487;0,0115627
2531,1128;0,0115834
2532,0771;0,0115775
2533,0413;0,0115484
2534,0056;0,0115035
2534,9697;0,0114481
2535,9341;0,0113829
2536,8982;0,0113079
2537,8625;0,0112278
2538,8267;0,0111528
2539,7910;0,0110941
2540,7551;0,0110567
2541,7195;0,0110361
2542,6836;0,0110219
2543,6479;0,0110062
2544,6121;0,0109893
2545,5764;0,0109789
2546,5405;0,0109822
2547,5049;0,0109981
2548,4690;0,0110162
2549,4333;0,0110248
2550,3975;0,0110205
2551,3618;0,0110147
2552,3259;0,0110283
2553,2903;0,0110799
2554,2544;0,0111737
2555,2188;0,0112953
2556,1829;0,0114174
2557,1472;0,0115119
2558,1113;0,011562
2559,0757;0,0115666
2560,0398;0,01154
2561,0042;0,0115056
2561,9683;0,0114893
2562,9326;0,0115123
2563,8967;0,0115853
2564,8611;0,0117035
2565,8252;0,0118452
2566,7896;0,0119773
2567,7537;0,0120655
2568,7180;0,0120879
2569,6821;0,0120438
2570,6465;0,0119535
2571,6106;0,0118484
2572,5750;0,0117565
2573,5391;0,0116898
2574,5034;0,0116424
2575,4675;0,0115973
2576,4319;0,0115389
2577,3960;0,0114629
2578,3604;0,0113791
2579,3245;0,0113061
2580,2888;0,0112612
2581,2529;0,011252
2582,2173;0,0112725
2583,1814;0,0113053
2584,1458;0,0113291
2585,1099;0,0113282
2586,0742;0,0113
2587,0383;0,0112575
2588,0027;0,0112242
2588,9668;0,0112229
2589,9312;0,011263
2590,8953;0,0113328
2591,8596;0,0114032
2592,8237;0,0114428
2593,7881;0,0114356
2594,7522;0,0113934
2595,7166;0,0113521
2596,6807;0,0113554
2597,6450;0,0114317
2598,6091;0,0115789
2599,5735;0,0117645
2600,5376;0,0119393
2601,5020;0,0120589
2602,4661;0,0121004
2603,4304;0,0120688
2604,3945;0,0119926
2605,3589;0,0119116
2606,3230;0,0118623
2607,2874;0,0118666
2608,2515;0,0119248
2609,2158;0,0120161
2610,1799;0,0121068
2611,1443;0,0121638
2612,1084;0,0121683
2613,0728;0,012122
2614,0369;0,0120448
2615,0012;0,0119625
2615,9653;0,0118944
2616,9297;0,0118451
2617,8938;0,0118072
2618,8582;0,0117705
2619,8223;0,011732
2620,7866;0,0116988
2621,7507;0,0116826
2622,7151;0,0116891
2623,6792;0,0117105
2624,6436;0,0117256
2625,6077;0,0117098
2626,5720;0,0116484
2627,5361;0,0115486
2628,5005;0,0114398
2629,4646;0,0113645
2630,4290;0,0113603
2631,3931;0,0114425
2632,3574;0,0115949
2633,3215;0,0117728
2634,2859;0,0119192
2635,2500;0,0119869
2636,2144;0,0119582
2637,1785;0,0118531
2638,1428;0,0117226
2639,1069;0,0116292
2640,0713;0,011621
2641,0354;0,0117122
2641,9998;0,0118767
2642,9639;0,0120587
2643,9282;0,0121963
2644,8923;0,0122464
2645,8567;0,0122019
2646,8208;0,0120932
2647,7852;0,0119736
2648,7493;0,0118958
2649,7136;0,0118902
2650,6777;0,0119549
2651,6421;0,0120605
2652,6062;0,0121666
2653,5706;0,0122398
2654,5347;0,0122662
2655,4990;0,0122521
2656,4631;0,0122159
2657,4275;0,0121767
2658,3916;0,0121467
2659,3560;0,01213
2660,3201;0,012126
2661,2844;0,0121348
2662,2485;0,0121594
2663,2129;0,012203
2664,1770;0,0122655
2665,1414;0,0123392
2666,1055;0,0124095
2667,0698;0,0124597
2668,0339;0,0124787
2668,9983;0,0124678
2669,9624;0,0124424
2670,9268;0,012427
2671,8909;0,0124444
2672,8552;0,0125041
2673,8193;0,0125959
2674,7837;0,0126927
2675,7478;0,0127619
2676,7122;0,01278
2677,6763;0,0127446
2678,6406;0,0126756
2679,6047;0,0126064
2680,5691;0,012568
2681,5332;0,0125744
2682,4976;0,0126167
2683,4617;0,0126684
2684,4260;0,0126997
2685,3901;0,0126923
2686,3545;0,0126481
2687,3186;0,0125863
2688,2830;0,0125322
2689,2471;0,0125044
2690,2114;0,0125065
2691,1755;0,0125285
2692,1399;0,0125546
2693,1040;0,0125735
2694,0684;0,0125827
2695,0325;0,0125878
2695,9968;0,012597
2696,9609;0,0126146
2697,9253;0,0126391
2698,8894;0,0126645
2699,8538;0,0126843
2700,8179;0,0126954
2701,7822;0,0127002
2702,7463;0,012705
2703,7107;0,0127163
2704,6748;0,0127371
2705,6392;0,0127644
2706,6033;0,0127905
2707,5676;0,0128072
2708,5317;0,0128111
2709,4961;0,0128065
2710,4602;0,0128038
2711,4246;0,0128133
2712,3887;0,0128398
2713,3530;0,0128793
2714,3171;0,0129217
2715,2815;0,0129566
2716,2456;0,0129784
2717,2100;0,0129888
2718,1741;0,0129937
2719,1384;0,0129994
2720,1025;0,013009
2721,0669;0,0130221
2722,0310;0,0130361
2722,9954;0,0130488
2723,9595;0,0130604
2724,9238;0,0130725
2725,8879;0,0130878
2726,8523;0,0131075
2727,8164;0,0131306
2728,7808;0,0131543
2729,7449;0,0131751
2730,7092;0,0131912
2731,6733;0,0132037
2732,6377;0,0132155
2733,6018;0,0132299
2734,5662;0,013248
2735,5303;0,0132684
2736,4946;0,013288
2737,4587;0,0133042
2738,4231;0,0133169
2739,3872;0,0133279
2740,3516;0,0133393
2741,3157;0,0133522
2742,2800;0,0133659
2743,2441;0,0133789
2744,2085;0,0133894
2745,1726;0,0133965
2746,1370;0,013399
2747,1011;0,0133962
2748,0654;0,0133877
2749,0295;0,0133754
2749,9939;0,0133637
2750,9580;0,0133584
2751,9224;0,0133638
2752,8865;0,0133805
2753,8508;0,0134038
2754,8149;0,0134268
2755,7793;0,0134436
2756,7434;0,0134524
2757,7078;0,013456
2758,6719;0,0134591
2759,6362;0,0134652
2760,6003;0,0134747
2761,5647;0,0134856
2762,5288;0,0134963
2763,4932;0,0135068
2764,4573;0,0135192
2765,4216;0,0135353
2766,3857;0,0135552
2767,3501;0,013577
2768,3142;0,0135987
2769,2786;0,0136197
2770,2427;0,0136411
2771,2070;0,0136643
2772,1711;0,0136899
2773,1355;0,0137168
2774,0996;0,0137437
2775,0640;0,0137708
2776,0281;0,0137999
2776,9924;0,0138333
2777,9565;0,0138717
2778,9209;0,0139132
2779,8850;0,0139537
2780,8494;0,0139896
2781,8135;0,0140193
2782,7778;0,0140441
2783,7419;0,0140665
2784,7063;0,014089
2785,6704;0,0141119
2786,6348;0,0141343
2787,5989;0,0141543
2788,5632;0,0141706
2789,5273;0,0141837
2790,4917;0,0141953
2791,4558;0,0142081
2792,4202;0,0142246
2793,3843;0,0142461
2794,3486;0,0142734
2795,3127;0,0143066
2796,2771;0,014345
2797,2412;0,0143861
2798,2056;0,0144248
2799,1697;0,0144543
2800,1340;0,0144685
2801,0981;0,014467
2802,0625;0,0144574
2803,0266;0,0144541
2803,9910;0,0144722
2804,9551;0,0145198
2805,9194;0,0145927
2806,8835;0,014676
2807,8479;0,0147512
2808,8120;0,0148052
2809,7764;0,0148368
2810,7405;0,0148561
2811,7048;0,0148795
2812,6689;0,014921
2813,6333;0,0149872
2814,5974;0,0150749
2815,5618;0,0151741
2816,5259;0,0152726
2817,4902;0,0153612
2818,4543;0,0154373
2819,4187;0,0155046
2820,3828;0,015571
2821,3472;0,0156437
2822,3113;0,0157253
2823,2756;0,0158125
2824,2397;0,0158985
2825,2041;0,0159779
2826,1682;0,0160504
2827,1326;0,0161212
2828,0967;0,0161983
2829,0610;0,0162874
2830,0251;0,0163896
2830,9895;0,0165009
2831,9536;0,0166148
2832,9180;0,0167252
2833,8821;0,0168289
2834,8464;0,0169257
2835,8105;0,0170189
2836,7749;0,0171149
2837,7390;0,017222
2838,7034;0,0173482
2839,6675;0,0174983
2840,6318;0,0176714
2841,5959;0,017861
2842,5603;0,018058
2843,5244;0,0182549
2844,4888;0,0184477
2845,4529;0,0186362
2846,4172;0,0188203
2847,3813;0,0189964
2848,3457;0,0191555
2849,3098;0,019285
2850,2742;0,0193743
2851,2383;0,0194192
2852,2026;0,0194254
2853,1667;0,0194065
2854,1311;0,0193796
2855,0952;0,0193588
2856,0596;0,0193514
2857,0237;0,0193576
2857,9880;0,0193739
2858,9521;0,0193981
2859,9165;0,0194316
2860,8806;0,0194786
2861,8450;0,0195432
2862,8091;0,0196253
2863,7734;0,0197194
2864,7375;0,0198166
2865,7019;0,019908
2866,6660;0,0199876
2867,6304;0,0200538
2868,5945;0,0201086
2869,5588;0,0201555
2870,5229;0,0201988
2871,4873;0,0202424
2872,4514;0,0202895
2873,4158;0,0203413
2874,3799;0,0203963
2875,3442;0,0204503
2876,3083;0,0204979
2877,2727;0,0205348
2878,2368;0,0205606
2879,2012;0,0205789
2880,1653;0,0205957
2881,1296;0,020617
2882,0938;0,0206462
2883,0581;0,0206827
2884,0222;0,0207236
2884,9866;0,0207648
2885,9507;0,0208034
2886,9150;0,0208383
2887,8792;0,0208698
2888,8435;0,0208994
2889,8076;0,0209289
2890,7720;0,0209599
2891,7361;0,0209929
2892,7004;0,0210275
2893,6646;0,0210626
2894,6289;0,0210977
2895,5930;0,0211345
2896,5574;0,0211761
2897,5215;0,0212254
2898,4858;0,0212825
2899,4500;0,0213427
2900,4143;0,0213985
2901,3784;0,0214428
2902,3428;0,0214731
2903,3069;0,0214931
2904,2712;0,0215109
2905,2354;0,0215353
2906,1997;0,0215726
2907,1638;0,0216261
2908,1282;0,0216965
2909,0923;0,0217834
2910,0566;0,0218851
2911,0208;0,0219971
2911,9851;0,0221116
2912,9492;0,0222189
2913,9136;0,0223101
2914,8777;0,0223799
2915,8420;0,0224267
2916,8062;0,0224509
2917,7705;0,0224526
2918,7346;0,0224299
2919,6990;0,0223809
2920,6631;0,0223059
2921,6274;0,0222086
2922,5916;0,0220961
2923,5559;0,0219756
2924,5200;0,0218528
2925,4844;0,0217308
2926,4485;0,0216117
2927,4128;0,0214978
2928,3770;0,0213927
2929,3413;0,0212995
2930,3054;0,0212193
2931,2698;0,0211498
2932,2339;0,0210858
2933,1982;0,0210212
2934,1624;0,0209509
2935,1267;0,0208728
2936,0908;0,0207871
2937,0552;0,0206955
2938,0193;0,0206001
2938,9836;0,0205022
2939,9478;0,0204016
2940,9121;0,0202975
2941,8762;0,0201884
2942,8406;0,0200737
2943,8047;0,0199549
2944,7690;0,0198357
2945,7332;0,0197209
2946,6975;0,0196143
2947,6616;0,0195163
2948,6260;0,0194233
2949,5901;0,0193299
2950,5544;0,0192327
2951,5186;0,0191329
2952,4829;0,0190357
2953,4470;0,0189473
2954,4114;0,0188697
2955,3755;0,0187989
2956,3398;0,018727
2957,3040;0,0186479
2958,2683;0,0185618
2959,2324;0,0184756
2960,1968;0,0183975
2961,1609;0,0183305
2962,1252;0,0182692
2963,0894;0,0182024
2964,0537;0,0181214
2965,0178;0,0180263
2965,9822;0,0179272
2966,9463;0,0178382
2967,9106;0,0177681
2968,8748;0,0177151
2969,8391;0,0176675
2970,8032;0,0176113
2971,7676;0,0175379
2972,7317;0,0174492
2973,6960;0,0173555
2974,6602;0,0172691
2975,6245;0,0171981
2976,5886;0,0171426
2977,5530;0,0170965
2978,5171;0,0170514
2979,4814;0,0170011
2980,4456;0,0169441
2981,4099;0,0168839
2982,3740;0,016826
2983,3384;0,0167752
2984,3025;0,0167332
2985,2668;0,0166981
2986,2310;0,0166659
2987,1953;0,0166337
2988,1594;0,0166018
2989,1238;0,0165738
2990,0879;0,0165547
2991,0522;0,0165473
2992,0164;0,0165498
2992,9807;0,0165563
2993,9448;0,0165596
2994,9092;0,0165552
2995,8733;0,0165439
2996,8376;0,016531
2997,8018;0,0165237
2998,7661;0,0165264
2999,7302;0,0165392
3000,6946;0,0165583
3001,6587;0,016579
3002,6230;0,0165987
3003,5872;0,0166176
3004,5515;0,0166381
3005,5156;0,0166617
3006,4800;0,0166877
3007,4441;0,0167121
3008,4084;0,0167301
3009,3726;0,0167387
3010,3369;0,0167382
3011,3010;0,0167339
3012,2654;0,0167331
3013,2295;0,0167429
3014,1938;0,0167663
3015,1580;0,0168007
3016,1223;0,0168388
3017,0864;0,016873
3018,0508;0,0168986
3019,0149;0,0169167
3019,9792;0,016933
3020,9434;0,0169544
3021,9077;0,0169841
3022,8718;0,0170204
3023,8362;0,0170578
3024,8003;0,0170911
3025,7646;0,0171186
3026,7288;0,0171427
3027,6931;0,0171671
3028,6572;0,0171932
3029,6216;0,0172191
3030,5857;0,0172414
3031,5500;0,0172588
3032,5142;0,0172744
3033,4785;0,0172947
3034,4426;0,0173258
3035,4070;0,0173691
3036,3711;0,0174211
3037,3354;0,0174759
3038,2996;0,0175288
3039,2639;0,0175789
3040,2280;0,0176273
3041,1924;0,0176753
3042,1565;0,0177222
3043,1208;0,017766
3044,0850;0,0178056
3045,0493;0,0178431
3046,0134;0,0178829
3046,9778;0,0179292
3047,9419;0,0179841
3048,9063;0,0180458
3049,8704;0,0181109
3050,8347;0,0181758
3051,7988;0,0182383
3052,7632;0,0182979
3053,7273;0,0183552
3054,6917;0,0184112
3055,6558;0,0184676
3056,6201;0,0185261
3057,5842;0,018587
3058,5486;0,0186481
3059,5127;0,0187057
3060,4771;0,0187556
3061,4412;0,0187966
3062,4055;0,0188312
3063,3696;0,0188654
3064,3340;0,0189057
3065,2981;0,0189563
3066,2625;0,0190167
3067,2266;0,0190826
3068,1909;0,0191476
3069,1550;0,0192071
3070,1194;0,0192595
3071,0835;0,0193071
3072,0479;0,0193543
3073,0120;0,019405
3073,9763;0,0194596
3074,9404;0,0195146
3075,9048;0,0195646
3076,8689;0,0196061
3077,8333;0,0196404
3078,7974;0,0196738
3079,7617;0,0197138
3080,7258;0,0197647
3081,6902;0,0198254
3082,6543;0,0198904
3083,6187;0,019954
3084,5828;0,0200133
3085,5471;0,02007
3086,5112;0,0201276
3087,4756;0,0201895
3088,4397;0,0202567
3089,4041;0,0203278
3090,3682;0,0204005
3091,3325;0,0204727
3092,2966;0,0205428
3093,2610;0,0206097
3094,2251;0,0206722
3095,1895;0,0207292
3096,1536;0,0207792
3097,1179;0,0208214
3098,0820;0,0208569
3099,0464;0,0208892
3100,0105;0,0209248
3100,9749;0,0209713
3101,9390;0,0210342
3102,9033;0,0211132
3103,8674;0,0212019
3104,8318;0,02129
3105,7959;0,0213686
3106,7603;0,0214341
3107,7244;0,0214896
3108,6887;0,021542
3109,6528;0,0215976
3110,6172;0,0216581
3111,5813;0,0217209
3112,5457;0,0217823
3113,5098;0,0218415
3114,4741;0,0219014
3115,4382;0,0219666
3116,4026;0,0220387
3117,3667;0,0221144
3118,3311;0,0221864
3119,2952;0,0222486
3120,2595;0,0223011
3121,2236;0,0223513
3122,1880;0,0224104
3123,1521;0,0224872
3124,1165;0,0225828
3125,0806;0,0226902
3126,0449;0,0227972
3127,0090;0,0228928
3127,9734;0,0229715
3128,9375;0,0230345
3129,9019;0,0230879
3130,8660;0,0231402
3131,8303;0,0231985
3132,7944;0,0232674
3133,7588;0,0233473
3134,7229;0,0234348
3135,6873;0,0235239
3136,6514;0,0236078
3137,6157;0,0236812
3138,5798;0,0237426
3139,5442;0,0237943
3140,5083;0,0238426
3141,4727;0,0238951
3142,4368;0,0239583
3143,4011;0,0240349
3144,3652;0,0241231
3145,3296;0,0242168
3146,2937;0,0243087
3147,2581;0,0243925
3148,2222;0,0244654
3149,1865;0,0245283
3150,1506;0,0245851
3151,1150;0,0246405
3152,0791;0,0246989
3153,0435;0,0247642
3154,0076;0,0248391
3154,9719;0,0249252
3155,9360;0,0250216
3156,9004;0,0251249
3157,8645;0,0252295
3158,8289;0,0253293
3159,7930;0,0254199
3160,7573;0,0255
3161,7214;0,0255706
3162,6858;0,025635
3163,6499;0,0256975
3164,6143;0,025763
3165,5784;0,0258358
3166,5427;0,0259186
3167,5068;0,0260108
3168,4712;0,0261083
3169,4353;0,0262202
3170,3997;0,0263107
3171,3638;0,0263917
3172,3281;0,0264637
3173,2922;0,0265294
3174,2566;0,0265928
3175,2207;0,026658
3176,1851;0,0267287
3177,1492;0,0268075
3178,1135;0,0268944
3179,0776;0,0269856
3180,0420;0,027075
3181,0061;0,0271572
3181,9705;0,0272306
3182,9346;0,0272991
3183,8989;0,02737
3184,8630;0,0274487
3185,8274;0,0275357
3186,7915;0,0276254
3187,7559;0,0277101
3188,7200;0,0277851
3189,6843;0,0278519
3190,6484;0,0279172
3191,6128;0,0279884
3192,5769;0,0280691
3193,5413;0,028157
3194,5054;0,0282453
3195,4697;0,0283273
3196,4338;0,0284
3197,3982;0,0284663
3198,3623;0,0285323
3199,3267;0,028604
3200,2908;0,0286842
3201,2551;0,0287715
3202,2192;0,0288624
3203,1836;0,0289529
3204,1477;0,029041
3205,1121;0,0291257
3206,0762;0,0292069
3207,0405;0,0292843
3208,0046;0,0293578
3208,9690;0,0294287
3209,9331;0,0295001
3210,8975;0,029576
3211,8616;0,0296592
3212,8259;0,0297489
3213,7900;0,0298396
3214,7544;0,0299232
3215,7185;0,0299922
3216,6829;0,0300437
3217,6470;0,0300815
3218,6113;0,0301162
3219,5754;0,0301608
3220,5398;0,0302255
3221,5039;0,0303122
3222,4683;0,0304135
3223,4324;0,0305163
3224,3967;0,0306082
3225,3608;0,0306839
3226,3252;0,0307474
3227,2893;0,0308083
3228,2537;0,0308747
3229,2178;0,0309476
3230,1821;0,0310198
3231,1462;0,0310812
3232,1106;0,0311262
3233,0747;0,0311587
3234,0391;0,031191
3235,0032;0,0312376
3235,9675;0,0313073
3236,9316;0,0313995
3237,8960;0,0315049
3238,8601;0,0316113
3239,8245;0,0317091
3240,7886;0,0317936
3241,7529;0,0318649
3242,7170;0,0319255
3243,6814;0,0319791
3244,6455;0,0320301
3245,6099;0,0320838
3246,5740;0,0321453
3247,5383;0,0322172
3248,5024;0,0322976
3249,4668;0,0323802
3250,4309;0,0324573
3251,3953;0,0325242
3252,3594;0,0325815
3253,3237;0,0326348
3254,2878;0,0326914
3255,2522;0,0327558
3256,2163;0,0328282
3257,1807;0,032906
3258,1448;0,032986
3259,1091;0,033067
3260,0732;0,033148
3261,0376;0,0332274
3262,0017;0,0333021
3262,9661;0,0333692
3263,9302;0,0334297
3264,8945;0,0334888
3265,8586;0,0335543
3266,8230;0,0336308
3267,7871;0,0337162
3268,7515;0,033801
3269,7156;0,0338732
3270,6799;0,033924
3271,6440;0,033953
3272,6084;0,0339679
3273,5725;0,0339805
3274,5369;0,0340009
3275,5010;0,0340336
3276,4653;0,0340773
3277,4294;0,034127
3278,3938;0,0341768
3279,3579;0,0342225
3280,3223;0,034262
3281,2864;0,0342955
3282,2507;0,0343249
3283,2148;0,0343529
3284,1792;0,0343825
3285,1433;0,0344159
3286,1077;0,0344538
3287,0718;0,0344955
3288,0361;0,0345388
3289,0002;0,0345801
3289,9646;0,0346151
3290,9287;0,0346407
3291,8931;0,0346558
3292,8572;0,0346625
3293,8215;0,0346651
3294,7856;0,0346684
3295,7500;0,0346746
3296,7141;0,0346836
3297,6785;0,0346932
3298,6426;0,0347024
3299,6069;0,0347127
3300,5710;0,0347275
3301,5354;0,0347495
3302,4995;0,0347781
3303,4639;0,0348088
3304,4280;0,0348356
3305,3923;0,034854
3306,3564;0,0348635
3307,3208;0,0348675
3308,2849;0,0348705
3309,2493;0,0348758
3310,2134;0,0348843
3311,1777;0,0348953
3312,1418;0,0349075
3313,1062;0,0349214
3314,0703;0,0349393
3315,0347;0,0349645
3315,9988;0,0350006
3316,9631;0,0350488
3317,9272;0,0351072
3318,8916;0,0351703
3319,8557;0,0352307
3320,8201;0,0352822
3321,7842;0,0353224
3322,7485;0,035354
3323,7126;0,0353826
3324,6770;0,0354138
3325,6411;0,0354502
3326,6055;0,0354902
3327,5696;0,0355293
3328,5339;0,0355624
3329,4980;0,0355857
3330,4624;0,0355982
3331,4265;0,0356019
3332,3909;0,035601
3333,3550;0,0356006
3334,3193;0,0356051
3335,2834;0,0356159
3336,2478;0,0356305
3337,2119;0,0356428
3338,1763;0,0356463
3339,1404;0,0356373
3340,1047;0,0356166
3341,0688;0,0355893
3342,0332;0,0355614
3342,9973;0,0355374
3343,9617;0,0355173
3344,9258;0,0354976
3345,8901;0,0354732
3346,8542;0,0354399
3347,8186;0,0353964
3348,7827;0,0353438
3349,7471;0,035285
3350,7112;0,0352222
3351,6755;0,0351573
3352,6396;0,0350909
3353,6040;0,0350242
3354,5681;0,0349595
3355,5325;0,0349003
3356,4966;0,0348508
3357,4609;0,0348133
3358,4250;0,0347877
3359,3894;0,0347704
3360,3535;0,0347545
3361,3179;0,0347322
3362,2820;0,0346964
3363,2463;0,0346435
3364,2104;0,0345743
3365,1748;0,0344944
3366,1389;0,0344128
3367,1033;0,0343387
3368,0674;0,0342784
3369,0317;0,0342326
3369,9958;0,0341962
3370,9602;0,0341605
3371,9243;0,0341165
3372,8887;0,0340585
3373,8528;0,0339864
3374,8171;0,0339054
3375,7813;0,0338244
3376,7456;0,033753
3377,7097;0,0336981
3378,6741;0,0336613
3379,6382;0,033638
3380,6025;0,0336185
3381,5667;0,0335921
3382,5310;0,033552
3383,4951;0,0334984
3384,4595;0,0334389
3385,4236;0,0333833
3386,3879;0,0333377
3387,3521;0,0333013
3388,3164;0,0332671
3389,2805;0,0332271
3390,2449;0,0331776
3391,2090;0,0331206
3392,1733;0,033062
3393,1375;0,0330075
3394,1018;0,0329589
3395,0659;0,032914
3396,0303;0,0328688
3396,9944;0,0328187
3397,9587;0,03276
3398,9229;0,0326905
3399,8872;0,0326108
3400,8513;0,0325257
3401,8157;0,0324437
3402,7798;0,0323729
3403,7441;0,0323163
3404,7083;0,0322686
3405,6726;0,0322183
3406,6367;0,0321542
3407,6011;0,0320724
3408,5652;0,0319783
3409,5295;0,0318829
3410,4937;0,031796
3411,4580;0,031721
3412,4221;0,0316541
3413,3865;0,0315885
3414,3506;0,0315183
3415,3149;0,0314408
3416,2791;0,0313555
3417,2434;0,031263
3418,2075;0,0311644
3419,1719;0,0310621
3420,1360;0,0309604
3421,1003;0,030864
3422,0645;0,0307761
3423,0288;0,030697
3423,9929;0,030624
3424,9573;0,0305538
3425,9214;0,0304833
3426,8857;0,0304104
3427,8499;0,0303331
3428,8142;0,0302495
3429,7783;0,0301576
3430,7427;0,0300568
3431,7068;0,0299492
3432,6711;0,029839
3433,6353;0,0297324
3434,5996;0,0296348
3435,5637;0,0295483
3436,5281;0,0294714
3437,4922;0,0293992
3438,4565;0,0293266
3439,4207;0,0292502
3440,3850;0,0291693
3441,3491;0,0290838
3442,3135;0,0289914
3443,2776;0,0288876
3444,2419;0,0287681
3445,2061;0,0286338
3446,1704;0,0284937
3447,1345;0,0283617
3448,0989;0,028249
3449,0630;0,0281579
3450,0273;0,0280816
3450,9915;0,0280105
3451,9558;0,0279384
3452,9199;0,0278646
3453,8843;0,0277912
3454,8484;0,0277181
3455,8127;0,0276395
3456,7769;0,0275466
3457,7412;0,0274331
3458,7053;0,0273004
3459,6697;0,0271588
3460,6338;0,0270231
3461,5981;0,026905
3462,5623;0,0268081
3463,5266;0,0267267
3464,4907;0,0266511
3465,4551;0,0265726
3466,4192;0,0264876
3467,3835;0,0263962
3468,3477;0,0262991
3469,3120;0,0261945
3470,2761;0,0260786
3471,2405;0,0259498
3472,2046;0,0258143
3473,1689;0,0256863
3474,1331;0,0255821
3475,0974;0,0255095
3476,0615;0,0254603
3477,0259;0,0254125
3477,9900;0,0253412
3478,9543;0,0252324
3479,9185;0,0250905
3480,8828;0,0249363
3481,8469;0,0247929
3482,8113;0,0246721
3483,7754;0,0245688
3484,7397;0,0244692
3485,7039;0,0243624
3486,6682;0,0242492
3487,6323;0,0241401
3488,5967;0,024047
3489,5608;0,0239725
3490,5251;0,0239059
3491,4893;0,0238289
3492,4536;0,023726
3493,4177;0,0235949
3494,3821;0,0234504
3495,3462;0,0233187
3496,3105;0,0232227
3497,2747;0,0231674
3498,2390;0,0231359
3499,2031;0,0230981
3500,1675;0,0230277
3501,1316;0,0229167
3502,0959;0,0227807
3503,0601;0,0226484
3504,0244;0,0225397
3504,9885;0,0224525
3505,9529;0,0223673
3506,9170;0,022264
3507,8813;0,0221368
3508,8455;0,0219984
3509,8098;0,0218713
3510,7739;0,0217713
3511,7383;0,0216968
3512,7024;0,0216326
3513,6667;0,0215635
3514,6309;0,0214854
3515,5952;0,0214058
3516,5593;0,0213358
3517,5237;0,0212795
3518,4878;0,0212287
3519,4521;0,0211674
3520,4163;0,0210828
3521,3806;0,0209732
3522,3447;0,0208488
3523,3091;0,0207228
3524,2732;0,0206009
3525,2375;0,0204783
3526,2017;0,0203474
3527,1660;0,0202086
3528,1301;0,0200755
3529,0945;0,0199654
3530,0586;0,0198857
3531,0229;0,0198263
3531,9871;0,0197644
3532,9514;0,0196787
3533,9155;0,0195606
3534,8799;0,0194193
3535,8440;0,0192779
3536,8083;0,019161
3537,7725;0,0190834
3538,7368;0,0190457
3539,7009;0,0190376
3540,6653;0,0190415
3541,6294;0,019035
3542,5938;0,0189937
3543,5579;0,0189002
3544,5222;0,0187567
3545,4863;0,0185891
3546,4507;0,0184328
3547,4148;0,0183077
3548,3792;0,018207
3549,3433;0,0181068
3550,3076;0,0179846
3551,2717;0,0178368
3552,2361;0,0176842
3553,2002;0,0175586
3554,1646;0,0174793
3555,1287;0,0174395
3556,0930;0,0174145
3557,0571;0,0173812
3558,0215;0,0173348
3558,9856;0,0172935
3559,9500;0,0172852
3560,9141;0,017323
3561,8784;0,0173864
3562,8425;0,0174196
3563,8069;0,0173479
3564,7710;0,0171141
3565,7354;0,0167331
3566,6995;0,0163207
3567,6638;0,0160228
3568,6279;0,0158979
3569,5923;0,0158979
3570,5564;0,0159371
3571,5208;0,0159479
3572,4849;0,0158979
3573,4492;0,0157893
3574,4133;0,0156506
3575,3777;0,0155175
3576,3418;0,0154134
3577,3062;0,0153436
3578,2703;0,0153048
3579,2346;0,0152981
3580,1987;0,0153293
3581,1631;0,0153974
3582,1272;0,0154807
3583,0916;0,015532
3584,0557;0,0154875
3585,0200;0,0152951
3585,9841;0,0149632
3586,9485;0,0145943
3587,9126;0,0143292
3588,8770;0,0142344
3589,8411;0,014269
3590,8054;0,0143449
3591,7695;0,0143848
3592,7339;0,0143467
3593,6980;0,0142325
3594,6624;0,0140818
3595,6265;0,0139408
3596,5908;0,0138275
3597,5549;0,013728
3598,5193;0,0136229
3599,4834;0,0135149
3600,4478;0,0134324
3601,4119;0,0134054
3602,3762;0,013437
3603,3403;0,0134965
3604,3047;0,0135353
3605,2688;0,0135094
3606,2332;0,0134025
3607,1973;0,013237
3608,1616;0,0130613
3609,1257;0,0129146
3610,0901;0,0128046
3611,0542;0,0127189
3612,0186;0,0126491
3612,9827;0,0125998
3613,9470;0,0125756
3614,9111;0,0125619
3615,8755;0,0125194
3616,8396;0,0123995
3617,8040;0,0121814
3618,7681;0,0119096
3619,7324;0,0116866
3620,6965;0,0116067
3621,6609;0,011696
3622,6250;0,0119162
3623,5894;0,0121962
3624,5535;0,0124454
3625,5178;0,012552
3626,4819;0,012404
3627,4463;0,0119741
3628,4104;0,011418
3629,3748;0,0109903
3630,3389;0,0108037
3631,3032;0,0107808
3632,2673;0,0107956
3633,2317;0,0107689
3634,1958;0,0106819
3635,1602;0,0105594
3636,1243;0,0104428
3637,0886;0,0103617
3638,0527;0,0103219
3639,0171;0,0103154
3639,9812;0,0103392
3640,9456;0,010405
3641,9097;0,0105309
3642,8740;0,0107225
3643,8381;0,0109553
3644,8025;0,0111619
3645,7666;0,0112264
3646,7310;0,011008
3647,6951;0,0104537
3648,6594;0,00976205
3649,6235;0,00928265
3650,5879;0,00915154
3651,5520;0,00924385
3652,5164;0,00938804
3653,4805;0,0094671
3654,4448;0,00942278
3655,4089;0,00925968
3656,3733;0,00904693
3657,3374;0,00887657
3658,3018;0,00879792
3659,2659;0,00879885
3660,2302;0,00884264
3661,1943;0,00890897
3662,1587;0,00900676
3663,1228;0,00915682
3664,0872;0,0093611
3665,0513;0,00958276
3666,0156;0,0097514
3666,9797;0,00979276
3667,9441;0,00968415
3668,9082;0,00950759
3669,8726;0,00941185
3670,8367;0,00947172
3671,8010;0,0096127
3672,7651;0,00967334
3673,7295;0,00950865
3674,6936;0,00909549
3675,6580;0,00859592
3676,6221;0,008241
3677,5864;0,00812082
3678,5505;0,00816607
3679,5149;0,00827565
3680,4790;0,00839523
3681,4434;0,00852313
3682,4075;0,00868505
3683,3718;0,00890016
3684,3359;0,00915344
3685,3003;0,00938386
3686,2644;0,00949219
3687,2288;0,00937986
3688,1929;0,00903215
3689,1572;0,00858534
3690,1213;0,00824273
3691,0857;0,00810069
3692,0498;0,00811967
3693,0142;0,00821932
3693,9783;0,00834347
3694,9426;0,0084681
3695,9067;0,00858637
3696,8711;0,00869123
3697,8352;0,00876487
3698,7996;0,00878152
3699,7637;0,00872549
3700,7280;0,00861571
3701,6921;0,0085122
3702,6565;0,00848583
3703,6206;0,00857379
3704,5850;0,00876383
3705,5491;0,00900858
3706,5134;0,00924042
3707,4775;0,00937624
3708,4419;0,00932843
3709,4060;0,00905027
3710,3704;0,00860918
3711,3345;0,00818884
3712,2988;0,00795226
3713,2629;0,00792877
3714,2273;0,00805333
3715,1914;0,00824805
3716,1558;0,00845554
3717,1199;0,00864013
3718,0842;0,00878451
3719,0483;0,00888712
3720,0127;0,00895471
3720,9768;0,00898969
3721,9412;0,00898369
3722,9053;0,00892815
3723,8696;0,00883607
3724,8337;0,00875297
3725,7981;0,00873886
3726,7622;0,00883341
3727,7266;0,00903619
3728,6907;0,00931206
3729,6550;0,00960408
3730,6191;0,00983906
3731,5835;0,00992928
3732,5476;0,00979
3733,5120;0,00939664
3734,4761;0,00886006
3735,4404;0,00840603
3736,4045;0,00821402
3737,3689;0,00830768
3738,3330;0,00860574
3739,2974;0,0090039
3740,2615;0,00939935
3741,2258;0,00968409
3742,1899;0,00975849
3743,1543;0,00959973
3744,1184;0,00933468
3745,0828;0,00916526
3746,0469;0,00917791
3747,0112;0,00928954
3747,9753;0,00933796
3748,9397;0,00918005
3749,9038;0,00879662
3750,8682;0,00836293
3751,8323;0,00811309
3752,7966;0,0081129
3753,7607;0,00826262
3754,7251;0,00843201
3755,6892;0,00852621
3756,6536;0,00849999
3757,6177;0,00837138
3758,5820;0,00821981
3759,5461;0,00813595
3760,5105;0,00815789
3761,4746;0,00826083
3762,4390;0,0083942
3763,4031;0,00851535
3764,3674;0,00860056
3765,3315;0,00864023
3766,2959;0,00862785
3767,2600;0,00855382
3768,2244;0,00841445
3769,1885;0,00823202
3770,1528;0,00806218
3771,1169;0,00796993
3772,0813;0,00799044
3773,0454;0,00811049
3774,0098;0,00827951
3774,9739;0,00843176
3775,9382;0,00850785
3776,9023;0,00847844
3777,8667;0,00836553
3778,8308;0,00823662
3779,7952;0,00815892
3780,7593;0,00815305
3781,7236;0,00819143
3782,6877;0,00822892
3783,6521;0,00823139
3784,6162;0,00818907
3785,5806;0,0081166
3786,5447;0,0080439
3787,5090;0,00800285
3788,4731;0,0080156
3789,4375;0,00808743
3790,4016;0,00820484
3791,3660;0,00834019
3792,3301;0,00846336
3793,2944;0,0085575
3794,2585;0,00863033
3795,2229;0,00870857
3796,1870;0,00881236
3797,1514;0,00892772
3798,1155;0,0090034
3799,0798;0,00898271
3800,0439;0,00885601
3801,0083;0,00868875
3801,9724;0,0085721
3802,9368;0,0085345
3803,9009;0,00852088
3804,8652;0,00845041
3805,8293;0,00828741
3806,7937;0,00808389
3807,7578;0,00795579
3808,7222;0,00799255
3809,6863;0,00819263
3810,6506;0,00848421
3811,6147;0,00877609
3812,5791;0,00899071
3813,5432;0,00908926
3814,5076;0,00909587
3815,4717;0,00908494
3816,4360;0,0091094
3817,4001;0,00913977
3818,3645;0,00908743
3819,3286;0,00888633
3820,2930;0,00856748
3821,2571;0,0082568
3822,2214;0,00807357
3823,1855;0,00804282
3824,1499;0,00811463
3825,1140;0,00822723
3826,0784;0,00834124
3827,0425;0,00844294
3828,0068;0,00853468
3828,9709;0,00862372
3829,9353;0,00871658
3830,8994;0,00881922
3831,8638;0,00893656
3832,8279;0,00906524
3833,7922;0,00918253
3834,7563;0,00924298
3835,7207;0,00919398
3836,6848;0,00901162
3837,6492;0,00873494
3838,6133;0,00845507
3839,5776;0,00825104
3840,5417;0,00813939
3841,5061;0,00808931
3842,4702;0,00807
3843,4346;0,00808062
3844,3987;0,00814878
3845,3630;0,00830827
3846,3271;0,00857555
3847,2915;0,00893854
3848,2556;0,00935346
3849,2200;0,00973719
3850,1841;0,00995399
3851,1484;0,0098311
3852,1125;0,00928648
3853,0769;0,00853606
3854,0410;0,00798633
3855,0054;0,00781011
3855,9695;0,00790486
3856,9338;0,00812821
3857,8979;0,0083886
3858,8623;0,00862629
3859,8264;0,00879227
3860,7908;0,00885279
3861,7549;0,00881329
3862,7192;0,00873371
3863,6833;0,00869863
3864,6477;0,00875501
3865,6118;0,0088818
3866,5762;0,00901278
3867,5403;0,00907485
3868,5046;0,00901789
3869,4688;0,00883731
3870,4331;0,00858307
3871,3972;0,00833941
3872,3616;0,00818238
3873,3257;0,00814792
3874,2900;0,00822813
3875,2542;0,00838476
3876,2185;0,00856517
3877,1826;0,00871726
3878,1470;0,00880524
3879,1111;0,00882354
3880,0754;0,00879578
3881,0396;0,00875023
3882,0039;0,00869287
3882,9680;0,00861122
3883,9324;0,00850633
3884,8965;0,00841387
3885,8608;0,00838328
3886,8250;0,00843079
3887,7893;0,00851663
3888,7534;0,00856719
3889,7178;0,00852305
3890,6819;0,00838864
3891,6462;0,00824834
3892,6104;0,00820997
3893,5747;0,0083189
3894,5388;0,00853825
3895,5032;0,00879308
3896,4673;0,00901224
3897,4316;0,00914695
3898,3958;0,00917777
3899,3601;0,00911083
3900,3242;0,00896091
3901,2886;0,00873901
3902,2527;0,00846544
3903,2170;0,00819032
3904,1812;0,00798146
3905,1455;0,00788221
3906,1096;0,00788742
3907,0740;0,0079593
3908,0381;0,00805707
3909,0024;0,00815534
3909,9666;0,00824764
3910,9309;0,00833932
3911,8950;0,00843466
3912,8594;0,00852577
3913,8235;0,00859105
3914,7878;0,00860672
3915,7520;0,00856623
3916,7163;0,00849396
3917,6804;0,00843502
3918,6448;0,0084229
3919,6089;0,00845479
3920,5732;0,00849739
3921,5374;0,00851248
3922,5017;0,00848254
3923,4658;0,00842395
3924,4302;0,0083778
3925,3943;0,00837923
3926,3586;0,00842956
3927,3228;0,00849528
3928,2871;0,00853005
3929,2512;0,00850191
3930,2156;0,00841348
3931,1797;0,0083043
3932,1440;0,00822679
3933,1082;0,00821116
3934,0725;0,00825159
3935,0366;0,00832144
3936,0010;0,00839476
3936,9651;0,00845575
3937,9294;0,00849667
3938,8936;0,00851312
3939,8579;0,00850372
3940,8220;0,00847473
3941,7864;0,00844278
3942,7505;0,0084278
3943,7148;0,00843843
3944,6790;0,00846324
3945,6433;0,0084766
3946,6074;0,00845501
3947,5718;0,00839403
3948,5359;0,00831473
3949,5002;0,00825218
3950,4644;0,00823147
3951,4287;0,00825146
3952,3928;0,00828957
3953,3572;0,00831986
3954,3213;0,00832885
3955,2856;0,00831997
3956,2498;0,00830639
3957,2141;0,00829879
3958,1782;0,00829765
3959,1426;0,00829542
3960,1067;0,00828536
3961,0710;0,00826893
3962,0352;0,00825541
3962,9995;0,00825451
3963,9636;0,00826869
3964,9280;0,00829164
3965,8921;0,0083133
3966,8564;0,00832673
3967,8206;0,0083317
3968,7849;0,00833314
3969,7490;0,00833593
3970,7134;0,00834064
3971,6775;0,00834334
3972,6418;0,00833947
3973,6060;0,00832836
3974,5703;0,00831469
3975,5344;0,00830588
3976,4988;0,0083072
3977,4629;0,00831823
3978,4272;0,008333
3979,3914;0,00834325
3980,3557;0,00834308
3981,3198;0,00833244
3982,2842;0,00831744
3983,2483;0,00830744
3984,2126;0,00831
3985,1768;0,00832694
3986,1411;0,00835341
3987,1052;0,00838056
3988,0696;0,0084002
3989,0337;0,00840859
3989,9980;0,00840755
3990,9622;0,00840212
3991,9265;0,00839687
3992,8906;0,00839341
3993,8550;0,00839058
3994,8191;0,00838641
3995,7834;0,00837986
3996,7476;0,0083713
3997,7119;0,00836205
3998,6760;0,00835392
3999,6404;0,00834936
4000,6045;0,00829167

##### Extended Information
[Comments]
Sample name
Comment
Username
Division
Organization;UNIVERSIDAD INDUSTRIAL DE SANTANDER

[Detailed Information]
Creation date;19/02/2025 1:45 p.m.

Data array type;Linear data array
Horizontal axis;Wavenumber [cm-1]
Vertical axis;Abs
Start;399,193 cm-1
End;4000,6 cm-1
Data interval;0,964233 cm-1
Data points;3736    

[Measurement Information]
Model name;FT/IR-4X1typeA
Serial No.;A035162111

Accessory;ATR PRO 4X
Accessory S/N;A021162126
Incident angle;45 deg

Measurement date;19/02/2025 1:45 p.m.

Light source;Standard
Detector;TGS
Accumulation;40
Resolution;4 cm-1
Zero filling;On
Apodization;Cosine
Gain;Auto (8)
Aperture;Auto (7 mm)
Scan speed;Auto (2 mm/sec)
Filter;Auto (12800 Hz)

