TITLE;
DATA TYPE;INFRARED SPECTRUM
ORIGIN;JASCO
OWNER;
DATE;25/02/19
TIME;12:38:25
SPECTROMETER/DATA SYSTEM;
LOCALE;9226
RESOLUTION;
DELTAX;0,964233
XUNITS;1/CM
YUNITS;ABSORBANCE
FIRSTX;  399,1927
LASTX; 4000,6047
NPOINTS;    3736
FIRSTY;     0,10399
MAXY;     0,14550
MINY;     0,00614
XYDATA
399,1927;0,103991
400,1569;0,104333
401,1211;0,103585
402,0854;0,102194
403,0496;0,100565
404,0138;0,0990621
404,9781;0,0980296
405,9423;0,0977118
406,9065;0,0981342
407,8708;0,0990668
408,8350;0,100144
409,7992;0,101056
410,7635;0,101682
411,7277;0,102091
412,6919;0,102425
413,6562;0,102774
414,6204;0,103145
415,5846;0,103505
416,5489;0,103838
417,5131;0,104159
418,4773;0,104462
419,4416;0,104661
420,4058;0,104671
421,3700;0,104543
422,3343;0,104454
423,2985;0,104608
424,2627;0,105131
425,2270;0,105999
426,1912;0,107031
427,1554;0,107995
428,1197;0,108751
429,0839;0,10932
430,0481;0,109845
431,0124;0,11047
431,9766;0,111245
432,9408;0,112094
433,9051;0,11286
434,8693;0,11338
435,8335;0,113556
436,7978;0,113374
437,7620;0,112897
438,7262;0,112244
439,6905;0,11157
440,6547;0,111038
441,6189;0,110791
442,5832;0,110888
443,5474;0,111264
444,5116;0,111757
445,4759;0,112199
446,4401;0,112499
447,4043;0,112643
448,3686;0,112659
449,3328;0,112572
450,2970;0,112403
451,2613;0,112176
452,2255;0,111916
453,1897;0,111633
454,1540;0,111314
455,1182;0,110939
456,0824;0,110527
457,0467;0,110187
458,0109;0,110083
458,9751;0,110313
459,9394;0,110803
460,9036;0,111344
461,8678;0,111721
462,8321;0,111818
463,7963;0,111647
464,7605;0,11133
465,7248;0,111034
466,6890;0,11089
467,6532;0,110932
468,6175;0,111107
469,5817;0,111321
470,5459;0,111492
471,5102;0,111577
472,4744;0,111584
473,4386;0,111542
474,4029;0,111473
475,3671;0,111376
476,3313;0,111237
477,2956;0,111052
478,2598;0,110846
479,2240;0,110672
480,1883;0,110587
481,1525;0,110628
482,1167;0,110797
483,0810;0,111058
484,0452;0,111352
485,0094;0,111611
485,9737;0,111774
486,9379;0,111805
487,9021;0,111699
488,8664;0,111493
489,8306;0,111266
490,7948;0,111119
491,7591;0,111128
492,7233;0,111299
493,6875;0,111556
494,6518;0,111786
495,6160;0,111906
496,5802;0,111902
497,5445;0,111822
498,5087;0,111735
499,4729;0,111697
500,4372;0,111724
501,4014;0,111801
502,3656;0,111895
503,3299;0,111981
504,2941;0,112049
505,2583;0,112099
506,2226;0,112138
507,1868;0,112174
508,1510;0,112222
509,1153;0,112298
510,0795;0,112419
511,0437;0,112596
512,0080;0,112826
512,9722;0,113093
513,9365;0,113373
514,9007;0,113636
515,8649;0,113857
516,8292;0,114028
517,7934;0,114161
518,7576;0,114281
519,7219;0,114411
520,6861;0,114546
521,6503;0,114664
522,6146;0,114733
523,5788;0,114731
524,5430;0,114656
525,5073;0,114531
526,4715;0,114392
527,4357;0,11427
528,4000;0,114178
529,3642;0,114109
530,3284;0,114051
531,2927;0,113985
532,2569;0,113889
533,2211;0,11374
534,1854;0,113522
535,1496;0,113241
536,1138;0,112926
537,0781;0,112624
538,0423;0,112377
539,0065;0,112204
539,9708;0,112099
540,9350;0,112041
541,8992;0,112013
542,8635;0,112015
543,8277;0,112055
544,7919;0,112145
545,7562;0,112277
546,7204;0,112428
547,6846;0,112566
548,6489;0,112667
549,6131;0,112731
550,5773;0,112789
551,5416;0,112892
552,5058;0,113091
553,4700;0,113407
554,4343;0,11381
555,3985;0,114216
556,3627;0,114517
557,3270;0,114617
558,2912;0,114472
559,2554;0,114095
560,2197;0,113539
561,1839;0,112867
562,1481;0,112141
563,1124;0,111412
564,0766;0,110727
565,0408;0,110128
566,0051;0,109641
566,9693;0,109267
567,9335;0,108976
568,8978;0,108718
569,8620;0,108454
570,8262;0,108169
571,7905;0,107878
572,7547;0,107612
573,7189;0,107397
574,6832;0,107242
575,6474;0,107132
576,6116;0,107039
577,5759;0,10694
578,5401;0,106827
579,5043;0,106715
580,4686;0,106633
581,4328;0,106609
582,3970;0,106654
583,3613;0,106749
584,3255;0,106855
585,2897;0,106928
586,2540;0,106937
587,2182;0,106882
588,1824;0,106789
589,1467;0,106696
590,1109;0,106636
591,0751;0,106616
592,0394;0,106612
593,0036;0,106588
593,9678;0,106513
594,9321;0,106386
595,8963;0,106232
596,8605;0,106088
597,8248;0,10598
598,7890;0,105907
599,7532;0,105837
600,7175;0,105726
601,6817;0,105537
602,6459;0,105262
603,6102;0,10492
604,5744;0,104551
605,5386;0,10419
606,5029;0,103857
607,4671;0,103547
608,4313;0,103236
609,3956;0,102899
610,3598;0,102526
611,3240;0,102127
612,2883;0,101728
613,2525;0,101354
614,2167;0,101013
615,1810;0,100689
616,1452;0,100347
617,1094;0,0999451
618,0737;0,0994537
619,0379;0,0988683
620,0021;0,098208
620,9664;0,0975068
621,9306;0,0968046
622,8948;0,0961415
623,8591;0,0955511
624,8233;0,0950577
625,7875;0,0946406
626,7518;0,0942693
627,7160;0,0939046
628,6802;0,0935169
629,6445;0,0930961
630,6087;0,0926505
631,5729;0,0921963
632,5372;0,0917465
633,5014;0,0913045
634,4656;0,0908652
635,4299;0,0904209
636,3941;0,0899688
637,3583;0,0895148
638,3226;0,0890719
639,2868;0,0886531
640,2510;0,0882617
641,2153;0,0878859
642,1795;0,087502
643,1437;0,0870888
644,1080;0,0866444
645,0722;0,0861937
646,0364;0,0857787
647,0007;0,0854355
647,9649;0,0851712
648,9291;0,0849573
649,8934;0,0847469
650,8576;0,0845054
651,8218;0,0842329
652,7861;0,0839648
653,7503;0,0837529
654,7145;0,0836405
655,6788;0,0836437
656,6430;0,083744
657,6072;0,0838968
658,5715;0,0840486
659,5357;0,0841566
660,4999;0,0842052
661,4642;0,0842121
662,4284;0,0842129
663,3926;0,084229
664,3569;0,084229
665,3211;0,084089
666,2853;0,0835815
667,2496;0,0825052
668,2138;0,0810406
669,1780;0,0798122
670,1423;0,0791582
671,1065;0,0788512
672,0707;0,0785702
673,0350;0,0781291
673,9992;0,07745
674,9634;0,0765431
675,9277;0,075504
676,8919;0,0744703
677,8561;0,0735452
678,8204;0,0727588
679,7846;0,0720929
680,7488;0,0715218
681,7131;0,071028
682,6773;0,0705975
683,6415;0,070215
684,6058;0,0698719
685,5700;0,0695745
686,5342;0,0693393
687,4985;0,0691748
688,4627;0,0690648
689,4269;0,068973
690,3912;0,0688622
691,3554;0,0687176
692,3196;0,0685555
693,2839;0,0684119
694,2481;0,0683191
695,2123;0,0682854
696,1766;0,0682892
697,1408;0,0682906
698,1050;0,0682525
699,0693;0,0681597
700,0335;0,0680234
700,9977;0,0678701
701,9620;0,0677224
702,9262;0,0675836
703,8904;0,0674382
704,8547;0,0672592
705,8189;0,0670289
706,7831;0,0667507
707,7474;0,0664481
708,7116;0,0661502
709,6758;0,0658773
710,6401;0,0656327
711,6043;0,0654065
712,5685;0,0651855
713,5328;0,0649613
714,4970;0,064732
715,4612;0,0646382
716,4255;0,0643558
717,3897;0,0640296
718,3539;0,0636497
719,3182;0,0632209
720,2824;0,0627658
721,2466;0,0623176
722,2109;0,0619028
723,1751;0,0615288
724,1393;0,0611822
725,1036;0,0608379
726,0678;0,0604724
727,0320;0,0600748
727,9963;0,0596527
728,9605;0,0592292
729,9247;0,0588331
730,8890;0,0584861
731,8532;0,0581935
732,8174;0,0579427
733,7817;0,05771
734,7459;0,0574713
735,7101;0,0572122
736,6744;0,0569303
737,6386;0,0566328
738,6028;0,0563304
739,5671;0,0560344
740,5313;0,0557579
741,4955;0,0555152
742,4598;0,0553172
743,4240;0,0551615
744,3882;0,0550251
745,3525;0,0548678
746,3167;0,0546492
747,2809;0,0543508
748,2452;0,0539889
749,2094;0,0536087
750,1736;0,0532603
751,1379;0,0529719
752,1021;0,0527369
753,0663;0,0525231
754,0306;0,0522961
754,9948;0,0520417
755,9590;0,0517712
756,9233;0,051509
757,8875;0,0512732
758,8517;0,0510644
759,8160;0,050869
760,7802;0,0506727
761,7444;0,050471
762,7087;0,0502697
763,6729;0,0500748
764,6371;0,0498829
765,6014;0,0496805
766,5656;0,0494544
767,5298;0,0492032
768,4941;0,0489428
769,4583;0,0486985
770,4225;0,0484914
771,3868;0,0483276
772,3510;0,0481971
773,3152;0,0480812
774,2795;0,047962
775,2437;0,0478277
776,2079;0,0476726
777,1722;0,0474954
778,1364;0,0472988
779,1006;0,0470919
780,0649;0,0468889
781,0291;0,0467044
781,9933;0,0465445
782,9576;0,0464017
783,9218;0,0462581
784,8860;0,0460957
785,8503;0,0459091
786,8145;0,0457092
787,7787;0,0455169
788,7430;0,0453496
789,7072;0,0452108
790,6714;0,0450904
791,6357;0,0449747
792,5999;0,0448587
793,5641;0,0447502
794,5284;0,0446636
795,4926;0,0446073
796,4568;0,0445741
797,4211;0,0445442
798,3853;0,044497
799,3495;0,0444251
800,3138;0,0443394
801,2780;0,0442616
802,2422;0,0442091
803,2065;0,0441822
804,1707;0,0441622
805,1349;0,0441213
806,0992;0,0440392
807,0634;0,0439149
808,0276;0,0437691
808,9919;0,0436332
809,9561;0,0435343
810,9203;0,0434816
811,8846;0,0434624
812,8488;0,0434491
813,8130;0,0434128
814,7773;0,0433362
815,7415;0,0432197
816,7057;0,0430785
817,6700;0,0429321
818,6342;0,0427953
819,5984;0,0426731
820,5627;0,0425637
821,5269;0,0424648
822,4911;0,0423786
823,4554;0,0423105
824,4196;0,0422646
825,3839;0,0422378
826,3481;0,0422191
827,3123;0,0421931
828,2766;0,0421484
829,2408;0,0420819
830,2050;0,0419996
831,1693;0,041911
832,1335;0,0418225
833,0977;0,0417329
834,0620;0,0416331
835,0262;0,041512
835,9904;0,0413632
836,9547;0,0411909
837,9189;0,0410101
838,8831;0,0408407
839,8474;0,0406989
840,8116;0,0405893
841,7758;0,0405042
842,7401;0,0404285
843,7043;0,0403489
844,6685;0,0402599
845,6328;0,0401636
846,5970;0,0400655
847,5612;0,0399705
848,5255;0,0398817
849,4897;0,0398037
850,4539;0,0397447
851,4182;0,0397132
852,3824;0,039713
853,3466;0,039738
854,3109;0,039774
855,2751;0,039806
856,2393;0,0398269
857,2036;0,0398403
858,1678;0,0398557
859,1320;0,0398816
860,0963;0,03992
861,0605;0,0399684
862,0247;0,0400244
862,9890;0,0400899
863,9532;0,0401709
864,9174;0,0402717
865,8817;0,0403916
866,8459;0,0405242
867,8101;0,0406617
868,7744;0,0407997
869,7386;0,0409385
870,7028;0,0410807
871,6671;0,0412272
872,6313;0,0413742
873,5955;0,041515
874,5598;0,0416438
875,5240;0,0417589
876,4882;0,0418637
877,4525;0,0419642
878,4167;0,0420663
879,3809;0,0421751
880,3452;0,0422967
881,3094;0,0424408
882,2736;0,0426215
883,2379;0,0428544
884,2021;0,0431504
885,1663;0,0435121
886,1306;0,0439329
887,0948;0,0444021
888,0590;0,0449102
889,0233;0,0454522
889,9875;0,0460242
890,9517;0,046617
891,9160;0,0472107
892,8802;0,0477749
893,8444;0,0482749
894,8087;0,0486802
895,7729;0,0489705
896,7371;0,0491356
897,7014;0,0491722
898,6656;0,0490805
899,6298;0,0488642
900,5941;0,0485343
901,5583;0,0481119
902,5225;0,0476282
903,4868;0,0471183
904,4510;0,0466144
905,4152;0,0461391
906,3795;0,0457059
907,3437;0,0453218
908,3079;0,0449921
909,2722;0,0447219
910,2364;0,0445142
911,2007;0,0443665
912,1649;0,0442701
913,1292;0,0442129
914,0934;0,0441847
915,0576;0,0441816
916,0219;0,0442054
916,9861;0,0442597
917,9503;0,044345
918,9146;0,0444565
919,8788;0,0445857
920,8430;0,0447248
921,8073;0,0448695
922,7715;0,0450192
923,7357;0,0451745
924,7000;0,0453348
925,6642;0,0454981
926,6284;0,0456634
927,5927;0,0458334
928,5569;0,0460139
929,5211;0,0462115
930,4854;0,046428
931,4496;0,0466586
932,4138;0,046894
933,3781;0,0471262
934,3423;0,0473548
935,3065;0,0475893
936,2708;0,0478455
937,2350;0,0481387
938,1992;0,0484767
939,1635;0,0488587
940,1277;0,0492778
941,0919;0,0497277
942,0562;0,0502071
943,0204;0,0507198
943,9846;0,0512711
944,9489;0,0518633
945,9131;0,0524942
946,8773;0,0531588
947,8416;0,0538542
948,8058;0,0545833
949,7700;0,055356
950,7343;0,0561853
951,6985;0,057082
952,6627;0,0580487
953,6270;0,0590773
954,5912;0,060151
955,5554;0,0612497
956,5197;0,0623567
957,4839;0,0634634
958,4481;0,0645698
959,4124;0,0656819
960,3766;0,0668067
961,3408;0,0679488
962,3051;0,0691076
963,2693;0,0702775
964,2335;0,0714488
965,1978;0,0726106
966,1620;0,0737552
967,1262;0,0748827
968,0905;0,0760044
969,0547;0,0771405
970,0189;0,0783157
970,9832;0,0795517
971,9474;0,0808646
972,9116;0,0822662
973,8759;0,0837694
974,8401;0,0853906
975,8043;0,0871466
976,7686;0,0890457
977,7328;0,0910779
978,6970;0,0932112
979,6613;0,0953947
980,6255;0,0975681
981,5897;0,0996721
982,5540;0,101654
983,5182;0,103474
984,4824;0,105101
985,4467;0,106521
986,4109;0,107738
987,3751;0,108773
988,3394;0,109662
989,3036;0,110445
990,2678;0,111154
991,2321;0,111806
992,1963;0,112402
993,1605;0,112939
994,1248;0,113422
995,0890;0,113867
996,0532;0,114303
997,0175;0,114759
997,9817;0,115253
998,9459;0,11579
999,9102;0,116366
1000,8744;0,116973
1001,8386;0,117612
1002,8029;0,118295
1003,7671;0,119036
1004,7313;0,119846
1005,6956;0,120735
1006,6598;0,121708
1007,6240;0,122774
1008,5883;0,123941
1009,5525;0,125215
1010,5167;0,126593
1011,4810;0,128052
1012,4452;0,129559
1013,4094;0,13107
1014,3737;0,132547
1015,3379;0,133959
1016,3021;0,135286
1017,2664;0,136513
1018,2306;0,137629
1019,1948;0,138629
1020,1591;0,139515
1021,1233;0,140301
1022,0875;0,141013
1023,0518;0,141684
1024,0160;0,14234
1024,9802;0,14299
1025,9445;0,143625
1026,9087;0,144216
1027,8729;0,144727
1028,8372;0,145127
1029,8014;0,145389
1030,7656;0,145495
1031,7299;0,145426
1032,6941;0,145163
1033,6583;0,144691
1034,6226;0,144013
1035,5868;0,143161
1036,5510;0,142196
1037,5153;0,1412
1038,4795;0,140254
1039,4437;0,139421
1040,4080;0,138737
1041,3722;0,138208
1042,3364;0,137818
1043,3007;0,137533
1044,2649;0,137317
1045,2291;0,137124
1046,1934;0,136914
1047,1576;0,136652
1048,1218;0,136311
1049,0861;0,135874
1050,0503;0,135329
1051,0145;0,134665
1051,9788;0,133875
1052,9430;0,132963
1053,9072;0,131939
1054,8715;0,130826
1055,8357;0,12964
1056,7999;0,128385
1057,7642;0,127039
1058,7284;0,125572
1059,6926;0,123961
1060,6569;0,122204
1061,6211;0,120333
1062,5853;0,118404
1063,5496;0,116482
1064,5138;0,114627
1065,4780;0,112883
1066,4423;0,111279
1067,4065;0,109827
1068,3707;0,10852
1069,3350;0,107336
1070,2992;0,106238
1071,2634;0,105182
1072,2277;0,104128
1073,1919;0,103046
1074,1561;0,101924
1075,1204;0,100761
1076,0846;0,0995701
1077,0488;0,0983664
1078,0131;0,0971676
1078,9773;0,0959906
1079,9415;0,0948538
1080,9058;0,0937793
1081,8700;0,0927939
1082,8342;0,0919238
1083,7985;0,0911862
1084,7627;0,0905799
1085,7269;0,0900822
1086,6912;0,0896554
1087,6554;0,0892597
1088,6196;0,0888676
1089,5839;0,0884712
1090,5481;0,0880806
1091,5123;0,0877155
1092,4766;0,0873955
1093,4408;0,0871338
1094,4050;0,0869342
1095,3693;0,0867921
1096,3335;0,0866959
1097,2977;0,0866299
1098,2620;0,0865784
1099,2262;0,0865299
1100,1904;0,0864781
1101,1547;0,0864198
1102,1189;0,0863487
1103,0831;0,0862516
1104,0474;0,0861098
1105,0116;0,0859069
1105,9758;0,0856382
1106,9401;0,0853133
1107,9043;0,0849488
1108,8685;0,0845541
1109,8328;0,0841199
1110,7970;0,083618
1111,7612;0,0830157
1112,7255;0,0822959
1113,6897;0,0814722
1114,6539;0,0805883
1115,6182;0,079703
1116,5824;0,0788679
1117,5466;0,0781109
1118,5109;0,0774303
1119,4751;0,0767996
1120,4393;0,0761778
1121,4036;0,0755197
1122,3678;0,0747834
1123,3320;0,0739368
1124,2963;0,0729623
1125,2605;0,0718596
1126,2247;0,0706439
1127,1890;0,0693409
1128,1532;0,06798
1129,1174;0,0665892
1130,0817;0,0651934
1131,0459;0,0638157
1132,0101;0,0624783
1132,9744;0,0612025
1133,9386;0,0600082
1134,9028;0,0589134
1135,8671;0,0579351
1136,8313;0,0570898
1137,7955;0,0563913
1138,7598;0,055847
1139,7240;0,0554547
1140,6882;0,0552025
1141,6525;0,0550718
1142,6167;0,0550435
1143,5809;0,055101
1144,5452;0,0552318
1145,5094;0,0554248
1146,4736;0,0556695
1147,4379;0,0559573
1148,4021;0,0562831
1149,3663;0,0566463
1150,3306;0,0570476
1151,2948;0,0574826
1152,2590;0,0579363
1153,2233;0,0583826
1154,1875;0,0587875
1155,1517;0,0591154
1156,1160;0,0593335
1157,0802;0,0594128
1158,0444;0,0593271
1159,0087;0,0590509
1159,9729;0,0585608
1160,9371;0,057839
1161,9014;0,0568781
1162,8656;0,0556855
1163,8298;0,0542856
1164,7941;0,0527189
1165,7583;0,0510389
1166,7225;0,0493055
1167,6868;0,0475783
1168,6510;0,045909
1169,6152;0,0443366
1170,5795;0,0428857
1171,5437;0,041568
1172,5079;0,0403863
1173,4722;0,0393376
1174,4364;0,0384155
1175,4006;0,0376108
1176,3649;0,0369118
1177,3291;0,0363049
1178,2933;0,035777
1179,2576;0,0353172
1180,2218;0,0349192
1181,1860;0,0345816
1182,1503;0,034306
1183,1145;0,0340944
1184,0787;0,0339462
1185,0430;0,0338576
1186,0072;0,0338223
1186,9714;0,0338344
1187,9357;0,0338909
1188,8999;0,0339929
1189,8641;0,0341444
1190,8284;0,0343501
1191,7926;0,0346131
1192,7568;0,0349334
1193,7211;0,0353077
1194,6853;0,0357293
1195,6495;0,0361886
1196,6138;0,0366735
1197,5780;0,0371713
1198,5422;0,0376709
1199,5065;0,0381629
1200,4707;0,0386477
1201,4349;0,0391225
1202,3992;0,039587
1203,3634;0,0400402
1204,3276;0,0404811
1205,2919;0,0409103
1206,2561;0,0413329
1207,2203;0,0417589
1208,1846;0,0422017
1209,1488;0,0426754
1210,1130;0,0431915
1211,0773;0,0437566
1212,0415;0,0443711
1213,0057;0,0450291
1213,9700;0,0457198
1214,9342;0,04643
1215,8984;0,0471461
1216,8627;0,0478569
1217,8269;0,0485538
1218,7911;0,0492313
1219,7554;0,0498856
1220,7196;0,0505142
1221,6838;0,0511157
1222,6481;0,0516895
1223,6123;0,0522368
1224,5765;0,0527593
1225,5408;0,0532578
1226,5050;0,053731
1227,4692;0,0541749
1228,4335;0,0545846
1229,3977;0,0549562
1230,3619;0,0552881
1231,3262;0,055581
1232,2904;0,0558362
1233,2546;0,0560542
1234,2189;0,0562345
1235,1831;0,0563776
1236,1473;0,0564869
1237,1116;0,0565688
1238,0758;0,0566309
1239,0400;0,0566778
1240,0043;0,0567076
1240,9685;0,0567117
1241,9327;0,0566783
1242,8970;0,0565969
1243,8612;0,0564632
1244,8254;0,0562806
1245,7897;0,056058
1246,7539;0,0558054
1247,7181;0,0555306
1248,6824;0,0552375
1249,6466;0,0549273
1250,6108;0,0546014
1251,5751;0,0542636
1252,5393;0,05392
1253,5035;0,0535775
1254,4678;0,0532396
1255,4320;0,0529037
1256,3962;0,0525614
1257,3605;0,0522022
1258,3247;0,0518183
1259,2889;0,0514094
1260,2532;0,0509822
1261,2174;0,050546
1262,1816;0,0501069
1263,1459;0,0496633
1264,1101;0,0492064
1265,0743;0,0487239
1266,0386;0,0482049
1267,0028;0,047643
1267,9670;0,0470384
1268,9313;0,0463973
1269,8955;0,0457312
1270,8597;0,0450553
1271,8240;0,0443848
1272,7882;0,0437313
1273,7524;0,0431
1274,7167;0,0424907
1275,6809;0,0419006
1276,6451;0,0413278
1277,6094;0,0407725
1278,5736;0,0402365
1279,5378;0,0397208
1280,5021;0,039225
1281,4663;0,0387489
1282,4305;0,0382947
1283,3948;0,0378676
1284,3590;0,0374743
1285,3232;0,0371194
1286,2875;0,0368026
1287,2517;0,0365194
1288,2159;0,0362643
1289,1802;0,0360346
1290,1444;0,0358323
1291,1086;0,0356636
1292,0729;0,0355351
1293,0371;0,0354514
1294,0013;0,0354135
1294,9656;0,0354194
1295,9298;0,0354656
1296,8940;0,0355482
1297,8583;0,0356638
1298,8225;0,035811
1299,7867;0,0359902
1300,7510;0,0362037
1301,7152;0,0364541
1302,6794;0,0367424
1303,6437;0,0370659
1304,6079;0,0374178
1305,5721;0,0377891
1306,5364;0,038171
1307,5006;0,0385573
1308,4648;0,0389449
1309,4291;0,0393321
1310,3933;0,0397162
1311,3575;0,0400926
1312,3218;0,040454
1313,2860;0,0407921
1314,2502;0,0410963
1315,2145;0,041353
1316,1787;0,0415454
1317,1429;0,0416574
1318,1072;0,0416812
1319,0714;0,0416244
1320,0356;0,0415104
1320,9999;0,0413685
1321,9641;0,0412225
1322,9283;0,0410842
1323,8926;0,0409569
1324,8568;0,040841
1325,8210;0,040738
1326,7853;0,0406493
1327,7495;0,0405719
1328,7137;0,0404957
1329,6780;0,040407
1330,6422;0,040296
1331,6064;0,0401637
1332,5707;0,0400222
1333,5349;0,039887
1334,4991;0,0397653
1335,4634;0,0396466
1336,4276;0,0395008
1337,3918;0,039288
1338,3561;0,0389806
1339,3203;0,0385877
1340,2845;0,0381593
1341,2488;0,0377571
1342,2130;0,0374219
1343,1772;0,0371632
1344,1415;0,0369708
1345,1057;0,0368303
1346,0699;0,036733
1347,0342;0,0366795
1347,9984;0,0366766
1348,9626;0,0367311
1349,9269;0,0368439
1350,8911;0,0370074
1351,8553;0,0372085
1352,8196;0,0374344
1353,7838;0,0376794
1354,7480;0,037948
1355,7123;0,0382512
1356,6765;0,0385995
1357,6407;0,0389955
1358,6050;0,039431
1359,5692;0,0398868
1360,5334;0,0403324
1361,4977;0,040731
1362,4619;0,0410562
1363,4261;0,0413082
1364,3904;0,0415134
1365,3546;0,0417031
1366,3188;0,0418955
1367,2831;0,0420916
1368,2473;0,0422798
1369,2115;0,0424428
1370,1758;0,0425622
1371,1400;0,0426186
1372,1042;0,0425904
1373,0685;0,0424598
1374,0327;0,0422258
1374,9969;0,0419121
1375,9612;0,0415519
1376,9254;0,0411601
1377,8896;0,0407228
1378,8539;0,0402152
1379,8181;0,0396307
1380,7823;0,0389994
1381,7466;0,0383756
1382,7108;0,0378019
1383,6750;0,037279
1384,6393;0,0367656
1385,6035;0,0362092
1386,5677;0,0355954
1387,5320;0,0349776
1388,4962;0,0344448
1389,4604;0,0340534
1390,4247;0,0337989
1391,3889;0,0336394
1392,3531;0,0335278
1393,3174;0,0334294
1394,2816;0,0333277
1395,2458;0,0332218
1396,2101;0,0331181
1397,1743;0,0330246
1398,1385;0,0329522
1399,1028;0,0329161
1400,0670;0,0329303
1401,0313;0,0329987
1401,9955;0,0331119
1402,9597;0,0332532
1403,9240;0,033408
1404,8882;0,0335735
1405,8524;0,0337592
1406,8167;0,0339766
1407,7809;0,0342295
1408,7451;0,0345122
1409,7094;0,0348184
1410,6736;0,0351481
1411,6378;0,0355087
1412,6021;0,0359084
1413,5663;0,0363464
1414,5305;0,0368076
1415,4948;0,0372611
1416,4590;0,0376598
1417,4232;0,0379517
1418,3875;0,0381136
1419,3517;0,0381788
1420,3159;0,0382073
1421,2802;0,0382278
1422,2444;0,0382259
1423,2086;0,0381732
1424,1729;0,0380555
1425,1371;0,0378778
1426,1013;0,0376478
1427,0656;0,037356
1428,0298;0,036978
1428,9940;0,0365041
1429,9583;0,0359728
1430,9225;0,0354619
1431,8867;0,0350329
1432,8510;0,0346827
1433,8152;0,0343431
1434,7794;0,0339213
1435,7437;0,0333703
1436,7079;0,0327585
1437,6721;0,0322379
1438,6364;0,0319109
1439,6006;0,0317713
1440,5648;0,0317605
1441,5291;0,0318278
1442,4933;0,031947
1443,4575;0,0321093
1444,4218;0,0323094
1445,3860;0,0325365
1446,3502;0,0327727
1447,3145;0,033001
1448,2787;0,0332152
1449,2429;0,0334247
1450,2072;0,0336469
1451,1714;0,0338941
1452,1356;0,0341636
1453,0999;0,0344305
1454,0641;0,0346372
1455,0283;0,0346833
1455,9926;0,0344639
1456,9568;0,034019
1457,9210;0,0336096
1458,8853;0,03344
1459,8495;0,0334775
1460,8137;0,0335958
1461,7780;0,0336785
1462,7422;0,0336237
1463,7064;0,0333511
1464,6707;0,0328559
1465,6349;0,0322433
1466,5991;0,0316512
1467,5634;0,0311367
1468,5276;0,0306562
1469,4918;0,0301073
1470,4561;0,029367
1471,4203;0,0283437
1472,3845;0,027079
1473,3488;0,0258012
1474,3130;0,0247577
1475,2772;0,0240071
1476,2415;0,0234641
1477,2057;0,0230381
1478,1699;0,0226818
1479,1342;0,0223775
1480,0984;0,0221182
1481,0626;0,0219025
1482,0269;0,0217374
1482,9911;0,021637
1483,9553;0,0216133
1484,9196;0,0216643
1485,8838;0,0217678
1486,8480;0,0218842
1487,8123;0,0219722
1488,7765;0,0220232
1489,7407;0,0220814
1490,7050;0,0222064
1491,6692;0,0224223
1492,6334;0,0227184
1493,5977;0,0230728
1494,5619;0,0234647
1495,5261;0,0238786
1496,4904;0,0243124
1497,4546;0,0247795
1498,4188;0,0252906
1499,3831;0,0258327
1500,3473;0,0263772
1501,3115;0,0268988
1502,2758;0,0273787
1503,2400;0,0277966
1504,2042;0,0281182
1505,1685;0,0282848
1506,1327;0,0282359
1507,0969;0,0280008
1508,0612;0,0277205
1509,0254;0,0274844
1509,9896;0,0272845
1510,9539;0,0270929
1511,9181;0,026885
1512,8823;0,02663
1513,8466;0,0262908
1514,8108;0,0258406
1515,7750;0,0252868
1516,7393;0,0246727
1517,7035;0,0240447
1518,6677;0,0234172
1519,6320;0,0227782
1520,5962;0,0221373
1521,5604;0,0215562
1522,5247;0,0211106
1523,4889;0,0208212
1524,4531;0,0206435
1525,4174;0,0205163
1526,3816;0,0204089
1527,3458;0,0203311
1528,3101;0,0203066
1529,2743;0,020342
1530,2385;0,020415
1531,2028;0,0204837
1532,1670;0,0205124
1533,1312;0,0205037
1534,0955;0,0205017
1535,0597;0,0205484
1536,0239;0,0206436
1536,9882;0,020741
1537,9524;0,0207601
1538,9166;0,0206141
1539,8809;0,0203079
1540,8451;0,0200541
1541,8093;0,0200767
1542,7736;0,0203125
1543,7378;0,0205849
1544,7020;0,020811
1545,6663;0,0209899
1546,6305;0,0211463
1547,5947;0,0212971
1548,5590;0,0214392
1549,5232;0,0215544
1550,4874;0,0216274
1551,4517;0,0216636
1552,4159;0,0216908
1553,3801;0,0217388
1554,3444;0,0218111
1555,3086;0,0218671
1556,2728;0,0218164
1557,2371;0,0215568
1558,2013;0,0211383
1559,1655;0,0208645
1560,1298;0,0209121
1561,0940;0,0211545
1562,0582;0,0214528
1563,0225;0,021756
1563,9867;0,0220508
1564,9509;0,0223253
1565,9152;0,0225613
1566,8794;0,0227457
1567,8436;0,0228911
1568,8079;0,0230461
1569,7721;0,023265
1570,7363;0,0235604
1571,7006;0,0239007
1572,6648;0,0242431
1573,6290;0,024556
1574,5933;0,0248301
1575,5575;0,0250917
1576,5217;0,0253981
1577,4860;0,0257861
1578,4502;0,0262411
1579,4144;0,0267317
1580,3787;0,0272401
1581,3429;0,0277591
1582,3071;0,0282816
1583,2714;0,0287999
1584,2356;0,02931
1585,1998;0,0298142
1586,1641;0,0303162
1587,1283;0,0308135
1588,0925;0,0312944
1589,0568;0,0317406
1590,0210;0,0321331
1590,9852;0,0324549
1591,9495;0,0326906
1592,9137;0,0328274
1593,8779;0,032861
1594,8422;0,0328027
1595,8064;0,032679
1596,7706;0,0325209
1597,7349;0,0323504
1598,6991;0,0321762
1599,6633;0,031998
1600,6276;0,0318148
1601,5918;0,0316315
1602,5560;0,0314592
1603,5203;0,0313087
1604,4845;0,0311815
1605,4487;0,0310648
1606,4130;0,0309367
1607,3772;0,0307814
1608,3414;0,0306072
1609,3057;0,0304521
1610,2699;0,0303609
1611,2341;0,0303524
1612,1984;0,0304047
1613,1626;0,030464
1614,1268;0,0304639
1615,0911;0,0303637
1616,0553;0,0302002
1617,0195;0,030087
1617,9838;0,0301087
1618,9480;0,0302501
1619,9122;0,0304419
1620,8765;0,0306192
1621,8407;0,030744
1622,8049;0,0308126
1623,7692;0,0308535
1624,7334;0,0309015
1625,6976;0,0309705
1626,6619;0,0310555
1627,6261;0,0311535
1628,5903;0,0312749
1629,5546;0,0314335
1630,5188;0,0316293
1631,4830;0,0318381
1632,4473;0,0320064
1633,4115;0,0320533
1634,3757;0,0319039
1635,3400;0,0315859
1636,3042;0,0312805
1637,2684;0,0311535
1638,2327;0,0312042
1639,1969;0,0313528
1640,1611;0,0315417
1641,1254;0,0317458
1642,0896;0,0319452
1643,0538;0,0320989
1644,0181;0,0321301
1644,9823;0,0319535
1645,9465;0,0315745
1646,9108;0,0311681
1647,8750;0,0309441
1648,8392;0,0309489
1649,8035;0,0310739
1650,7677;0,0311358
1651,7319;0,0309153
1652,6962;0,0303037
1653,6604;0,0295758
1654,6246;0,0291457
1655,5889;0,0290466
1656,5531;0,0291003
1657,5173;0,0291756
1658,4816;0,0291977
1659,4458;0,0291067
1660,4100;0,0288551
1661,3743;0,0284492
1662,3385;0,0279859
1663,3027;0,027601
1664,2670;0,0273636
1665,2312;0,0272417
1666,1954;0,0271406
1667,1597;0,0269477
1668,1239;0,0265822
1669,0881;0,0260676
1670,0524;0,0255521
1671,0166;0,0251863
1671,9808;0,0249883
1672,9451;0,0248626
1673,9093;0,0247011
1674,8735;0,0244587
1675,8378;0,0241807
1676,8020;0,0239602
1677,7662;0,0238578
1678,7305;0,0238649
1679,6947;0,0239187
1680,6589;0,0239182
1681,6232;0,0237307
1682,5874;0,0232499
1683,5516;0,0225483
1684,5159;0,0219203
1685,4801;0,0215798
1686,4443;0,0214774
1687,4086;0,0214726
1688,3728;0,0214782
1689,3370;0,0214727
1690,3013;0,021471
1691,2655;0,0214935
1692,2297;0,0215456
1693,1940;0,0216112
1694,1582;0,0216593
1695,1224;0,0216593
1696,0867;0,0215994
1697,0509;0,0214973
1698,0151;0,0213948
1698,9794;0,0213397
1699,9436;0,021363
1700,9078;0,021467
1701,8721;0,021635
1702,8363;0,021849
1703,8005;0,0220988
1704,7648;0,0223797
1705,7290;0,0226894
1706,6932;0,0230257
1707,6575;0,0233877
1708,6217;0,0237784
1709,5859;0,0242042
1710,5502;0,0246691
1711,5144;0,0251657
1712,4786;0,0256698
1713,4429;0,0261393
1714,4071;0,026525
1715,3713;0,0267987
1716,3356;0,0269987
1717,2998;0,0272292
1718,2640;0,0275632
1719,2283;0,027984
1720,1925;0,0284427
1721,1567;0,0289073
1722,1210;0,0293613
1723,0852;0,0297923
1724,0494;0,0301921
1725,0137;0,0305621
1725,9779;0,0309147
1726,9421;0,0312656
1727,9064;0,0316215
1728,8706;0,0319687
1729,8348;0,0322662
1730,7991;0,0324425
1731,7633;0,0324134
1732,7275;0,0321459
1733,6918;0,0317358
1734,6560;0,0313567
1735,6202;0,0310972
1736,5845;0,0309145
1737,5487;0,030715
1738,5129;0,0304211
1739,4772;0,0300032
1740,4414;0,0294897
1741,4056;0,0289445
1742,3699;0,0284148
1743,3341;0,0279011
1744,2983;0,0273765
1745,2626;0,026816
1746,2268;0,0262017
1747,1910;0,0255066
1748,1553;0,0246926
1749,1195;0,0237496
1750,0837;0,0227475
1751,0480;0,0218128
1752,0122;0,0210329
1752,9764;0,0204062
1753,9407;0,0198708
1754,9049;0,0193596
1755,8691;0,0188388
1756,8334;0,0183178
1757,7976;0,0178259
1758,7618;0,0173735
1759,7261;0,0169355
1760,6903;0,0164775
1761,6545;0,016
1762,6188;0,0155504
1763,5830;0,0151878
1764,5472;0,0149372
1765,5115;0,014778
1766,4757;0,014662
1767,4399;0,0145363
1768,4042;0,0143564
1769,3684;0,0140917
1770,3326;0,013736
1771,2969;0,0133259
1772,2611;0,0129459
1773,2253;0,0126841
1774,1896;0,0125709
1775,1538;0,0125718
1776,1180;0,0126257
1777,0823;0,012677
1778,0465;0,0126902
1779,0107;0,0126568
1779,9750;0,0125944
1780,9392;0,0125301
1781,9034;0,012478
1782,8677;0,0124327
1783,8319;0,0123851
1784,7961;0,0123414
1785,7604;0,0123242
1786,7246;0,0123545
1787,6888;0,0124307
1788,6531;0,0125201
1789,6173;0,0125659
1790,5815;0,0125136
1791,5458;0,0123553
1792,5100;0,0121568
1793,4742;0,0120111
1794,4385;0,0119609
1795,4027;0,0119865
1796,3669;0,012044
1797,3312;0,0120947
1798,2954;0,012116
1799,2596;0,0121025
1800,2239;0,0120623
1801,1881;0,0120081
1802,1523;0,0119509
1803,1166;0,0119012
1804,0808;0,0118713
1805,0450;0,011871
1806,0093;0,0119008
1806,9735;0,0119459
1807,9377;0,0119787
1808,9020;0,0119715
1809,8662;0,0119141
1810,8304;0,0118241
1811,7947;0,0117377
1812,7589;0,0116853
1813,7231;0,0116748
1814,6874;0,0116916
1815,6516;0,0117117
1816,6158;0,0117171
1817,5801;0,0117078
1818,5443;0,0117004
1819,5085;0,0117141
1820,4728;0,0117545
1821,4370;0,0118072
1822,4012;0,0118462
1823,3655;0,0118495
1824,3297;0,0118136
1825,2939;0,0117535
1826,2582;0,0116876
1827,2224;0,0116223
1828,1866;0,0115526
1829,1509;0,0114788
1830,1151;0,0114194
1831,0793;0,0114024
1832,0436;0,0114403
1833,0078;0,0115185
1833,9720;0,011604
1834,9363;0,0116621
1835,9005;0,0116753
1836,8647;0,0116576
1837,8290;0,0116492
1838,7932;0,0116888
1839,7574;0,0117865
1840,7217;0,0119158
1841,6859;0,0120247
1842,6501;0,0120575
1843,6144;0,0119884
1844,5786;0,0118451
1845,5428;0,0116879
1846,5071;0,0115616
1847,4713;0,0114763
1848,4355;0,0114219
1849,3998;0,0113886
1850,3640;0,0113731
1851,3282;0,0113756
1852,2925;0,0113931
1853,2567;0,0114172
1854,2209;0,0114386
1855,1852;0,0114541
1856,1494;0,0114687
1857,1136;0,0114897
1858,0779;0,0115181
1859,0421;0,011545
1860,0063;0,0115586
1860,9706;0,0115548
1861,9348;0,0115437
1862,8990;0,0115436
1863,8633;0,0115681
1864,8275;0,0116151
1865,7917;0,0116638
1866,7560;0,011684
1867,7202;0,0116547
1868,6844;0,0115819
1869,6487;0,0114942
1870,6129;0,011418
1871,5771;0,0113615
1872,5414;0,011317
1873,5056;0,0112727
1874,4698;0,0112213
1875,4341;0,0111675
1876,3983;0,0111279
1877,3625;0,0111231
1878,3268;0,0111642
1879,2910;0,0112446
1880,2552;0,0113403
1881,2195;0,01142
1882,1837;0,011459
1883,1479;0,0114501
1884,1122;0,0114046
1885,0764;0,0113428
1886,0406;0,0112818
1887,0049;0,0112284
1887,9691;0,0111811
1888,9333;0,0111368
1889,8976;0,0110962
1890,8618;0,0110644
1891,8260;0,0110469
1892,7903;0,0110472
1893,7545;0,0110666
1894,7188;0,0111044
1895,6830;0,0111558
1896,6472;0,0112093
1897,6115;0,0112468
1898,5757;0,0112502
1899,5399;0,0112111
1900,5042;0,011139
1901,4684;0,0110603
1902,4326;0,0110089
1903,3969;0,0110097
1904,3611;0,011067
1905,3253;0,0111642
1906,2896;0,0112741
1907,2538;0,0113709
1908,2180;0,0114359
1909,1823;0,011459
1910,1465;0,0114374
1911,1107;0,0113759
1912,0750;0,0112865
1913,0392;0,0111872
1914,0034;0,0110969
1914,9677;0,0110312
1915,9319;0,010998
1916,8961;0,0109951
1917,8604;0,0110109
1918,8246;0,0110297
1919,7888;0,0110399
1920,7531;0,0110378
1921,7173;0,0110259
1922,6815;0,0110076
1923,6458;0,0109822
1924,6100;0,0109442
1925,5742;0,0108866
1926,5385;0,0108057
1927,5027;0,010705
1928,4669;0,0105947
1929,4312;0,0104882
1930,3954;0,0103977
1931,3596;0,0103307
1932,3239;0,0102916
1933,2881;0,0102849
1934,2523;0,0103168
1935,2166;0,0103889
1936,1808;0,0104906
1937,1450;0,0105966
1938,1093;0,010674
1939,0735;0,0106939
1940,0377;0,0106412
1941,0020;0,0105191
1941,9662;0,0103483
1942,9304;0,0101593
1943,8947;0,00998288
1944,8589;0,00984396
1945,8231;0,0097594
1946,7874;0,00973652
1947,7516;0,00977026
1948,7158;0,00984302
1949,6801;0,00993162
1950,6443;0,0100181
1951,6085;0,0100942
1952,5728;0,0101519
1953,5370;0,0101675
1954,5012;0,0100962
1955,4655;0,00989136
1956,4297;0,00954328
1957,3939;0,00910978
1958,3582;0,00871269
1959,3224;0,00848967
1960,2866;0,00852254
1961,2509;0,00878802
1962,2151;0,00916967
1963,1793;0,0095236
1964,1436;0,0097484
1965,1078;0,00981482
1966,0720;0,00974753
1967,0363;0,00958176
1968,0005;0,00933075
1968,9647;0,00898948
1969,9290;0,00856685
1970,8932;0,0081131
1971,8574;0,00771704
1972,8217;0,00747321
1973,7859;0,00743756
1974,7501;0,00759648
1975,7144;0,00786976
1976,6786;0,0081515
1977,6428;0,00836511
1978,6071;0,0084953
1979,5713;0,00857758
1980,5355;0,00866141
1981,4998;0,00877792
1982,4640;0,00892871
1983,4282;0,00909249
1984,3925;0,00923954
1985,3567;0,00934574
1986,3209;0,00940082
1987,2852;0,00940901
1988,2494;0,00938391
1989,2136;0,00934167
1990,1779;0,00929539
1991,1421;0,00925167
1992,1063;0,00921038
1993,0706;0,00916911
1994,0348;0,00913148
1994,9990;0,00911368
1995,9633;0,00914243
1996,9275;0,0092416
1997,8917;0,00941185
1998,8560;0,00961465
1999,8202;0,00977612
2000,7844;0,00981654
2001,7487;0,00969203
2002,7129;0,00942312
2003,6771;0,00909242
2004,6414;0,00881054
2005,6056;0,00866526
2006,5698;0,00867938
2007,5341;0,00880378
2008,4983;0,00895063
2009,4625;0,00904098
2010,4268;0,00903299
2011,3910;0,00892051
2012,3552;0,00871903
2013,3195;0,00846049
2014,2837;0,00820143
2015,2479;0,00802775
2016,2122;0,00803316
2017,1764;0,00826734
2018,1406;0,00868458
2019,1049;0,00913954
2020,0691;0,00944704
2021,0333;0,00947419
2021,9976;0,00921124
2022,9618;0,0087816
2023,9260;0,0083829
2024,8903;0,00818697
2025,8545;0,00825433
2026,8187;0,00851389
2027,7830;0,00881663
2028,7472;0,00902292
2029,7114;0,00906811
2030,6757;0,0089755
2031,6399;0,00882479
2032,6041;0,00870645
2033,5684;0,00868688
2034,5326;0,00879131
2035,4968;0,0089991
2036,4611;0,00924884
2037,4253;0,00945627
2038,3895;0,00954674
2039,3538;0,00949192
2040,3180;0,00933062
2041,2822;0,00915555
2042,2465;0,00906723
2043,2107;0,00912314
2044,1749;0,00931569
2045,1392;0,00958863
2046,1034;0,0098728
2047,0676;0,0101153
2048,0320;0,0102893
2048,9961;0,0103893
2049,9604;0,0104255
2050,9246;0,0104225
2051,8889;0,0104195
2052,8530;0,0104597
2053,8174;0,0105706
2054,7815;0,0107443
2055,7458;0,0109335
2056,7100;0,0110745
2057,6743;0,0111229
2058,6384;0,011079
2059,6028;0,0109844
2060,5669;0,0108934
2061,5313;0,0108413
2062,4954;0,01083
2063,4597;0,0108382
2064,4238;0,0108436
2065,3882;0,0108399
2066,3523;0,010835
2067,3167;0,0108378
2068,2808;0,0108467
2069,2451;0,0108505
2070,2092;0,0108413
2071,1736;0,0108258
2072,1377;0,0108259
2073,1021;0,0108662
2074,0662;0,0109588
2075,0305;0,0110951
2075,9946;0,0112504
2076,9590;0,0113969
2077,9231;0,0115148
2078,8875;0,0115961
2079,8516;0,0116406
2080,8159;0,0116499
2081,7800;0,0116263
2082,7444;0,0115764
2083,7085;0,0115163
2084,6729;0,01147
2085,6370;0,0114612
2086,6013;0,0115006
2087,5654;0,0115775
2088,5298;0,011663
2089,4939;0,0117239
2090,4583;0,0117415
2091,4224;0,011721
2092,3867;0,0116876
2093,3508;0,0116703
2094,3152;0,0116829
2095,2793;0,0117164
2096,2437;0,0117459
2097,2078;0,0117484
2098,1721;0,0117183
2099,1362;0,0116693
2100,1006;0,0116239
2101,0647;0,0115993
2102,0291;0,0115959
2102,9932;0,0116003
2103,9575;0,0115948
2104,9216;0,0115699
2105,8860;0,0115329
2106,8501;0,011508
2107,8145;0,011525
2108,7786;0,0116023
2109,7429;0,0117318
2110,7070;0,011876
2111,6714;0,0119825
2112,6355;0,0120097
2113,5999;0,0119503
2114,5640;0,0118366
2115,5283;0,011724
2116,4924;0,011661
2117,4568;0,0116661
2118,4209;0,0117231
2119,3853;0,0117971
2120,3494;0,0118577
2121,3137;0,0118934
2122,2778;0,0119104
2123,2422;0,0119197
2124,2063;0,0119252
2125,1707;0,0119203
2126,1348;0,0118945
2127,0991;0,0118404
2128,0632;0,011758
2129,0276;0,0116533
2129,9917;0,0115372
2130,9561;0,0114256
2131,9202;0,0113403
2132,8845;0,0113045
2133,8486;0,0113324
2134,8130;0,0114174
2135,7771;0,0115291
2136,7415;0,0116235
2137,7056;0,0116612
2138,6699;0,0116209
2139,6340;0,0115019
2140,5984;0,0113191
2141,5625;0,0110976
2142,5269;0,0108724
2143,4910;0,0106886
2144,4553;0,0105958
2145,4194;0,0106316
2146,3838;0,0107998
2147,3479;0,0110574
2148,3123;0,0113222
2149,2764;0,0115039
2150,2407;0,0115426
2151,2048;0,0114349
2152,1692;0,0112307
2153,1333;0,0110036
2154,0977;0,010813
2155,0618;0,0106811
2156,0261;0,0105961
2156,9902;0,0105355
2157,9546;0,0104895
2158,9187;0,0104625
2159,8831;0,0104567
2160,8472;0,0104631
2161,8115;0,0104773
2162,7756;0,0105189
2163,7400;0,0106251
2164,7041;0,0108164
2165,6685;0,0110586
2166,6326;0,011258
2167,5969;0,0113032
2168,5610;0,011131
2169,5254;0,0107694
2170,4895;0,0103278
2171,4539;0,00994301
2172,4180;0,00971593
2173,3823;0,00967562
2174,3464;0,00978808
2175,3108;0,00999494
2176,2749;0,0102501
2177,2393;0,0105292
2178,2034;0,0108146
2179,1677;0,011077
2180,1318;0,0112744
2181,0962;0,0113682
2182,0603;0,0113447
2183,0247;0,0112262
2183,9888;0,0110646
2184,9531;0,0109251
2185,9172;0,0108669
2186,8816;0,0109262
2187,8457;0,0111023
2188,8101;0,0113531
2189,7742;0,0116055
2190,7385;0,0117822
2191,7026;0,011833
2192,6670;0,0117545
2193,6311;0,0115871
2194,5955;0,0113933
2195,5596;0,0112313
2196,5239;0,0111386
2197,4880;0,0111276
2198,4524;0,0111898
2199,4165;0,0113008
2200,3809;0,0114253
2201,3450;0,0115254
2202,3093;0,0115746
2203,2734;0,0115699
2204,2378;0,0115343
2205,2019;0,0115047
2206,1663;0,0115111
2207,1304;0,0115585
2208,0947;0,0116223
2209,0588;0,0116607
2210,0232;0,0116354
2210,9873;0,011532
2211,9517;0,0113697
2212,9158;0,0111953
2213,8801;0,0110663
2214,8442;0,0110276
2215,8086;0,0110941
2216,7727;0,0112461
2217,7371;0,0114402
2218,7012;0,0116297
2219,6655;0,0117831
2220,6296;0,0118922
2221,5940;0,0119661
2222,5581;0,0120185
2223,5225;0,0120564
2224,4866;0,012076
2225,4509;0,0120664
2226,4150;0,0120189
2227,3794;0,0119346
2228,3435;0,0118285
2229,3079;0,0117264
2230,2720;0,0116569
2231,2363;0,0116402
2232,2004;0,011681
2233,1648;0,0117696
2234,1289;0,0118887
2235,0933;0,0120199
2236,0574;0,0121446
2237,0217;0,0122405
2237,9858;0,0122816
2238,9502;0,0122486
2239,9143;0,0121447
2240,8787;0,0120053
2241,8428;0,0118871
2242,8071;0,0118396
2243,7712;0,0118772
2244,7356;0,0119721
2245,6997;0,0120752
2246,6641;0,01215
2247,6282;0,0121933
2248,5925;0,012228
2249,5566;0,0122756
2250,5210;0,0123332
2251,4851;0,0123737
2252,4495;0,0123679
2253,4136;0,0123092
2254,3779;0,0122191
2255,3420;0,0121303
2256,3064;0,0120635
2257,2705;0,0120165
2258,2349;0,0119741
2259,1990;0,0119274
2260,1633;0,011884
2261,1274;0,0118627
2262,0918;0,0118783
2263,0559;0,0119299
2264,0203;0,0120014
2264,9844;0,0120723
2265,9487;0,0121287
2266,9128;0,012167
2267,8772;0,0121895
2268,8413;0,0121981
2269,8057;0,0121923
2270,7698;0,0121712
2271,7341;0,0121393
2272,6982;0,012108
2273,6626;0,0120946
2274,6267;0,0121151
2275,5911;0,0121765
2276,5552;0,012271
2277,5195;0,0123766
2278,4836;0,012466
2279,4480;0,0125194
2280,4121;0,0125353
2281,3765;0,012531
2282,3406;0,0125317
2283,3049;0,0125551
2284,2690;0,0126011
2285,2334;0,0126533
2286,1975;0,0126914
2287,1619;0,0127055
2288,1260;0,0127031
2289,0903;0,0127033
2290,0544;0,0127247
2291,0188;0,0127743
2291,9829;0,0128459
2292,9473;0,0129284
2293,9114;0,0130152
2294,8757;0,0131087
2295,8398;0,013217
2296,8042;0,0133457
2297,7683;0,0134923
2298,7327;0,0136472
2299,6968;0,0137996
2300,6611;0,0139442
2301,6252;0,0140813
2302,5896;0,0142145
2303,5537;0,0143459
2304,5181;0,014475
2305,4822;0,014602
2306,4465;0,0147308
2307,4106;0,0148695
2308,3750;0,015025
2309,3391;0,0151968
2310,3035;0,0153743
2311,2676;0,0155408
2312,2319;0,0156823
2313,1960;0,0157947
2314,1604;0,0158869
2315,1245;0,0159755
2316,0889;0,0160771
2317,0530;0,0161992
2318,0173;0,0163344
2318,9814;0,0164579
2319,9458;0,0165318
2320,9099;0,0165177
2321,8743;0,0163944
2322,8384;0,0161724
2323,8027;0,0158961
2324,7668;0,0156281
2325,7312;0,0154248
2326,6953;0,0153137
2327,6597;0,0152825
2328,6238;0,0152825
2329,5881;0,0152486
2330,5522;0,0151281
2331,5166;0,0149045
2332,4807;0,0146031
2333,4451;0,0142737
2334,4092;0,0139627
2335,3735;0,0136942
2336,3376;0,0134684
2337,3020;0,0132775
2338,2661;0,0131228
2339,2305;0,0130206
2340,1946;0,0129946
2341,1589;0,0130678
2342,1230;0,0132548
2343,0874;0,0135393
2344,0515;0,0138364
2345,0159;0,0140182
2345,9800;0,0140296
2346,9443;0,0139522
2347,9084;0,0139343
2348,8728;0,0140813
2349,8369;0,014393
2350,8013;0,0147633
2351,7654;0,0150365
2352,7297;0,0151105
2353,6938;0,0150193
2354,6582;0,0148933
2355,6223;0,0148087
2356,5867;0,0147109
2357,5508;0,0144951
2358,5151;0,0141295
2359,4792;0,0136969
2360,4436;0,0133367
2361,4077;0,0131589
2362,3721;0,0132018
2363,3362;0,0134347
2364,3005;0,01378
2365,2646;0,0141452
2366,2290;0,0144613
2367,1931;0,0147088
2368,1575;0,0149118
2369,1216;0,0151055
2370,0859;0,015305
2371,0500;0,0154966
2372,0144;0,0156509
2372,9785;0,0157435
2373,9429;0,0157652
2374,9070;0,0157193
2375,8713;0,0156132
2376,8354;0,015452
2377,7998;0,0152402
2378,7639;0,0149865
2379,7283;0,0147078
2380,6924;0,0144277
2381,6567;0,0141698
2382,6208;0,0139513
2383,5852;0,0137786
2384,5493;0,0136487
2385,5137;0,0135527
2386,4778;0,0134801
2387,4421;0,0134223
2388,4063;0,0133741
2389,3706;0,0133336
2390,3347;0,013302
2391,2991;0,0132817
2392,2632;0,0132748
2393,2275;0,0132813
2394,1917;0,013299
2395,1560;0,0133249
2396,1201;0,0133563
2397,0845;0,0133911
2398,0486;0,0134253
2399,0129;0,013453
2399,9771;0,0134671
2400,9414;0,0134624
2401,9055;0,0134402
2402,8699;0,0134092
2403,8340;0,0133817
2404,7983;0,0133679
2405,7625;0,013371
2406,7268;0,0133869
2407,6909;0,0134075
2408,6553;0,0134255
2409,6194;0,0134376
2410,5837;0,0134438
2411,5479;0,013446
2412,5122;0,013447
2413,4763;0,0134496
2414,4407;0,0134577
2415,4048;0,0134744
2416,3691;0,0135004
2417,3333;0,0135319
2418,2976;0,0135615
2419,2617;0,0135809
2420,2261;0,0135854
2421,1902;0,013577
2422,1545;0,0135635
2423,1187;0,0135562
2424,0830;0,0135646
2425,0471;0,0135922
2426,0115;0,0136347
2426,9756;0,0136818
2427,9399;0,0137202
2428,9041;0,0137396
2429,8684;0,0137361
2430,8325;0,0137142
2431,7969;0,0136847
2432,7610;0,013661
2433,7253;0,0136538
2434,6895;0,0136683
2435,6538;0,0137027
2436,6179;0,013749
2437,5823;0,0137969
2438,5464;0,0138364
2439,5107;0,0138614
2440,4749;0,0138713
2441,4392;0,0138701
2442,4033;0,0138648
2443,3677;0,0138615
2444,3318;0,0138632
2445,2961;0,0138687
2446,2603;0,0138737
2447,2246;0,0138732
2448,1887;0,0138644
2449,1531;0,0138481
2450,1172;0,0138294
2451,0815;0,0138162
2452,0457;0,013816
2453,0100;0,0138332
2453,9741;0,0138663
2454,9385;0,0139075
2455,9026;0,0139452
2456,8669;0,0139677
2457,8311;0,013968
2458,7954;0,0139463
2459,7595;0,0139096
2460,7239;0,0138696
2461,6880;0,0138389
2462,6523;0,0138284
2463,6165;0,0138439
2464,5808;0,0138852
2465,5449;0,0139444
2466,5093;0,0140072
2467,4734;0,0140569
2468,4377;0,0140794
2469,4019;0,0140687
2470,3662;0,0140294
2471,3303;0,0139746
2472,2947;0,0139215
2473,2588;0,0138854
2474,2231;0,0138761
2475,1873;0,0138968
2476,1516;0,0139438
2477,1157;0,0140076
2478,0801;0,014075
2479,0442;0,0141325
2480,0085;0,0141702
2480,9727;0,0141855
2481,9370;0,0141826
2482,9011;0,0141697
2483,8655;0,0141545
2484,8296;0,0141408
2485,7939;0,0141292
2486,7581;0,0141198
2487,7224;0,0141145
2488,6865;0,0141165
2489,6509;0,0141288
2490,6150;0,0141505
2491,5793;0,0141761
2492,5435;0,0141967
2493,5078;0,014203
2494,4719;0,0141888
2495,4363;0,0141548
2496,4004;0,0141094
2497,3647;0,0140666
2498,3289;0,0140408
2499,2932;0,0140397
2500,2573;0,0140602
2501,2217;0,0140901
2502,1858;0,0141152
2503,1501;0,0141276
2504,1143;0,0141297
2505,0786;0,0141314
2506,0427;0,0141417
2507,0071;0,0141617
2507,9712;0,0141844
2508,9355;0,0141999
2509,8997;0,0142031
2510,8640;0,0141972
2511,8281;0,0141909
2512,7925;0,0141908
2513,7566;0,0141972
2514,7209;0,0142033
2515,6851;0,0142012
2516,6494;0,0141878
2517,6135;0,0141675
2518,5779;0,0141495
2519,5420;0,014142
2520,5063;0,0141475
2521,4705;0,0141616
2522,4348;0,0141773
2523,3989;0,0141897
2524,3633;0,0141989
2525,3274;0,014209
2526,2917;0,0142242
2527,2559;0,0142448
2528,2202;0,0142662
2529,1843;0,0142815
2530,1487;0,0142853
2531,1128;0,0142769
2532,0771;0,0142609
2533,0413;0,0142452
2534,0056;0,0142378
2534,9697;0,0142432
2535,9341;0,0142605
2536,8982;0,0142837
2537,8625;0,0143041
2538,8267;0,0143152
2539,7910;0,0143162
2540,7551;0,0143136
2541,7195;0,0143167
2542,6836;0,0143319
2543,6479;0,0143578
2544,6121;0,0143841
2545,5764;0,0143979
2546,5405;0,0143907
2547,5049;0,0143634
2548,4690;0,0143258
2549,4333;0,0142915
2550,3975;0,0142711
2551,3618;0,0142682
2552,3259;0,0142793
2553,2903;0,0142963
2554,2544;0,0143112
2555,2188;0,0143199
2556,1829;0,0143233
2557,1472;0,0143265
2558,1113;0,0143343
2559,0757;0,0143478
2560,0398;0,0143619
2561,0042;0,0143687
2561,9683;0,0143626
2562,9326;0,0143455
2563,8967;0,0143265
2564,8611;0,0143162
2565,8252;0,0143201
2566,7896;0,0143346
2567,7537;0,0143507
2568,7180;0,0143604
2569,6821;0,0143628
2570,6465;0,0143634
2571,6106;0,0143686
2572,5750;0,01438
2573,5391;0,0143927
2574,5034;0,0143994
2575,4675;0,0143965
2576,4319;0,0143865
2577,3960;0,0143769
2578,3604;0,0143748
2579,3245;0,0143832
2580,2888;0,0144
2581,2529;0,0144207
2582,2173;0,0144414
2583,1814;0,0144605
2584,1458;0,0144787
2585,1099;0,0144975
2586,0742;0,0145173
2587,0383;0,0145373
2588,0027;0,0145547
2588,9668;0,0145671
2589,9312;0,0145731
2590,8953;0,0145747
2591,8596;0,0145757
2592,8237;0,0145797
2593,7881;0,0145874
2594,7522;0,0145958
2595,7166;0,0146004
2596,6807;0,0145999
2597,6450;0,014598
2598,6091;0,0146018
2599,5735;0,0146164
2600,5376;0,0146407
2601,5020;0,0146671
2602,4661;0,0146872
2603,4304;0,0146972
2604,3945;0,0147009
2605,3589;0,0147066
2606,3230;0,0147202
2607,2874;0,0147406
2608,2515;0,0147604
2609,2158;0,0147707
2610,1799;0,0147663
2611,1443;0,0147488
2612,1084;0,0147249
2613,0728;0,0147034
2614,0369;0,0146924
2615,0012;0,0146974
2615,9653;0,01472
2616,9297;0,0147571
2617,8938;0,014801
2618,8582;0,0148421
2619,8223;0,0148724
2620,7866;0,0148901
2621,7507;0,0148995
2622,7151;0,0149077
2623,6792;0,01492
2624,6436;0,0149358
2625,6077;0,0149507
2626,5720;0,0149602
2627,5361;0,0149641
2628,5005;0,0149677
2629,4646;0,0149781
2630,4290;0,0149994
2631,3931;0,0150298
2632,3574;0,0150623
2633,3215;0,0150883
2634,2859;0,015102
2635,2500;0,015103
2636,2144;0,0150951
2637,1785;0,0150852
2638,1428;0,0150798
2639,1069;0,0150836
2640,0713;0,0150982
2641,0354;0,0151221
2641,9998;0,0151511
2642,9639;0,01518
2643,9282;0,0152038
2644,8923;0,0152206
2645,8567;0,0152308
2646,8208;0,0152377
2647,7852;0,0152447
2648,7493;0,0152543
2649,7136;0,0152678
2650,6777;0,0152855
2651,6421;0,0153076
2652,6062;0,0153333
2653,5706;0,0153607
2654,5347;0,015386
2655,4990;0,0154047
2656,4631;0,0154136
2657,4275;0,0154131
2658,3916;0,0154074
2659,3560;0,015403
2660,3201;0,0154058
2661,2844;0,0154183
2662,2485;0,0154393
2663,2129;0,015465
2664,1770;0,0154913
2665,1414;0,0155155
2666,1055;0,015536
2667,0698;0,0155517
2668,0339;0,0155612
2668,9983;0,0155634
2669,9624;0,0155596
2670,9268;0,0155539
2671,8909;0,0155532
2672,8552;0,0155639
2673,8193;0,0155878
2674,7837;0,0156207
2675,7478;0,0156539
2676,7122;0,0156785
2677,6763;0,0156907
2678,6406;0,0156944
2679,6047;0,0156988
2680,5691;0,0157134
2681,5332;0,0157423
2682,4976;0,0157823
2683,4617;0,0158243
2684,4260;0,0158586
2685,3901;0,015879
2686,3545;0,0158854
2687,3186;0,0158826
2688,2830;0,0158772
2689,2471;0,0158752
2690,2114;0,0158794
2691,1755;0,0158904
2692,1399;0,0159068
2693,1040;0,0159262
2694,0684;0,015946
2695,0325;0,0159634
2695,9968;0,0159764
2696,9609;0,0159845
2697,9253;0,0159903
2698,8894;0,0159981
2699,8538;0,0160128
2700,8179;0,0160374
2701,7822;0,0160707
2702,7463;0,0161076
2703,7107;0,0161416
2704,6748;0,0161681
2705,6392;0,0161864
2706,6033;0,0161998
2707,5676;0,0162128
2708,5317;0,0162284
2709,4961;0,0162465
2710,4602;0,0162644
2711,4246;0,0162795
2712,3887;0,0162912
2713,3530;0,0163014
2714,3171;0,016313
2715,2815;0,0163286
2716,2456;0,0163486
2717,2100;0,0163719
2718,1741;0,0163963
2719,1384;0,0164194
2720,1025;0,0164393
2721,0669;0,0164551
2722,0310;0,0164666
2722,9954;0,0164747
2723,9595;0,0164811
2724,9238;0,016488
2725,8879;0,016498
2726,8523;0,0165131
2727,8164;0,016535
2728,7808;0,0165637
2729,7449;0,0165973
2730,7092;0,0166314
2731,6733;0,0166602
2732,6377;0,0166782
2733,6018;0,0166834
2734,5662;0,0166787
2735,5303;0,016671
2736,4946;0,016668
2737,4587;0,0166742
2738,4231;0,0166889
2739,3872;0,0167077
2740,3516;0,0167259
2741,3157;0,0167415
2742,2800;0,0167552
2743,2441;0,0167691
2744,2085;0,016783
2745,1726;0,0167943
2746,1370;0,0168003
2747,1011;0,0168009
2748,0654;0,0168007
2749,0295;0,0168069
2749,9939;0,0168256
2750,9580;0,0168576
2751,9224;0,0168981
2752,8865;0,0169384
2753,8508;0,0169709
2754,8149;0,0169921
2755,7793;0,0170038
2756,7434;0,0170114
2757,7078;0,0170208
2758,6719;0,017036
2759,6362;0,017057
2760,6003;0,0170805
2761,5647;0,017101
2762,5288;0,0171138
2763,4932;0,0171177
2764,4573;0,0171162
2765,4216;0,017117
2766,3857;0,0171287
2767,3501;0,0171565
2768,3142;0,0171996
2769,2786;0,0172507
2770,2427;0,0172991
2771,2070;0,0173355
2772,1711;0,0173566
2773,1355;0,0173659
2774,0996;0,0173721
2775,0640;0,0173848
2776,0281;0,0174095
2776,9924;0,0174459
2777,9565;0,0174885
2778,9209;0,0175308
2779,8850;0,0175686
2780,8494;0,017602
2781,8135;0,0176345
2782,7778;0,0176696
2783,7419;0,017708
2784,7063;0,0177462
2785,6704;0,0177787
2786,6348;0,0178012
2787,5989;0,0178137
2788,5632;0,0178214
2789,5273;0,0178326
2790,4917;0,0178553
2791,4558;0,0178937
2792,4202;0,017947
2793,3843;0,0180096
2794,3486;0,0180738
2795,3127;0,0181324
2796,2771;0,0181809
2797,2412;0,0182185
2798,2056;0,0182479
2799,1697;0,0182743
2800,1340;0,0183041
2801,0981;0,0183428
2802,0625;0,0183943
2803,0266;0,0184588
2803,9910;0,018533
2804,9551;0,0186104
2805,9194;0,0186836
2806,8835;0,0187466
2807,8479;0,0187983
2808,8120;0,0188427
2809,7764;0,0188876
2810,7405;0,0189416
2811,7048;0,0190089
2812,6689;0,0190883
2813,6333;0,0191736
2814,5974;0,0192575
2815,5618;0,019336
2816,5259;0,0194106
2817,4902;0,0194866
2818,4543;0,0195698
2819,4187;0,0196627
2820,3828;0,019763
2821,3472;0,019866
2822,3113;0,0199673
2823,2756;0,0200661
2824,2397;0,0201655
2825,2041;0,0202708
2826,1682;0,0203868
2827,1326;0,0205154
2828,0967;0,0206557
2829,0610;0,0208044
2830,0251;0,0209577
2830,9895;0,0211131
2831,9536;0,0212707
2832,9180;0,0214329
2833,8821;0,0216031
2834,8464;0,0217842
2835,8105;0,0219777
2836,7749;0,0221835
2837,7390;0,022402
2838,7034;0,0226351
2839,6675;0,0228872
2840,6318;0,0231638
2841,5959;0,02347
2842,5603;0,0238085
2843,5244;0,0241787
2844,4888;0,0245757
2845,4529;0,0249892
2846,4172;0,0254023
2847,3813;0,0257919
2848,3457;0,0261318
2849,3098;0,0263982
2850,2742;0,0265768
2851,2383;0,0266666
2852,2026;0,026679
2853,1667;0,0266326
2854,1311;0,0265475
2855,0952;0,0264405
2856,0596;0,0263238
2857,0237;0,0262065
2857,9880;0,0260967
2858,9521;0,0260019
2859,9165;0,0259294
2860,8806;0,0258848
2861,8450;0,0258705
2862,8091;0,0258854
2863,7734;0,0259246
2864,7375;0,0259807
2865,7019;0,0260456
2866,6660;0,0261123
2867,6304;0,0261768
2868,5945;0,0262377
2869,5588;0,0262951
2870,5229;0,0263487
2871,4873;0,0263979
2872,4514;0,0264415
2873,4158;0,0264788
2874,3799;0,0265103
2875,3442;0,0265373
2876,3083;0,026561
2877,2727;0,0265829
2878,2368;0,0266052
2879,2012;0,0266312
2880,1653;0,0266649
2881,1296;0,0267096
2882,0938;0,0267654
2883,0581;0,0268288
2884,0222;0,0268943
2884,9866;0,026957
2885,9507;0,0270155
2886,9150;0,0270721
2887,8792;0,0271321
2888,8435;0,0272001
2889,8076;0,0272785
2890,7720;0,0273658
2891,7361;0,0274575
2892,7004;0,0275481
2893,6646;0,0276335
2894,6289;0,0277132
2895,5930;0,0277898
2896,5574;0,0278678
2897,5215;0,0279507
2898,4858;0,0280383
2899,4500;0,028127
2900,4143;0,0282121
2901,3784;0,0282921
2902,3428;0,0283704
2903,3069;0,0284544
2904,2712;0,0285518
2905,2354;0,0286669
2906,1997;0,0288003
2907,1638;0,0289513
2908,1282;0,0291219
2909,0923;0,0293179
2910,0566;0,0295459
2911,0208;0,0298075
2911,9851;0,0300954
2912,9492;0,030393
2913,9136;0,0306797
2914,8777;0,030937
2915,8420;0,0311529
2916,8062;0,0313216
2917,7705;0,0314408
2918,7346;0,0315089
2919,6990;0,0315238
2920,6631;0,0314857
2921,6274;0,031399
2922,5916;0,031273
2923,5559;0,0311195
2924,5200;0,0309483
2925,4844;0,0307644
2926,4485;0,0305676
2927,4128;0,0303547
2928,3770;0,0301242
2929,3413;0,0298778
2930,3054;0,029621
2931,2698;0,0293598
2932,2339;0,0290986
2933,1982;0,0288391
2934,1624;0,0285819
2935,1267;0,0283281
2936,0908;0,0280803
2937,0552;0,0278409
2938,0193;0,02761
2938,9836;0,0273846
2939,9478;0,0271605
2940,9121;0,026935
2941,8762;0,0267092
2942,8406;0,0264876
2943,8047;0,0262752
2944,7690;0,0260757
2945,7332;0,0258898
2946,6975;0,025717
2947,6616;0,0255575
2948,6260;0,0254122
2949,5901;0,0252819
2950,5544;0,0251653
2951,5186;0,0250584
2952,4829;0,0249556
2953,4470;0,0248515
2954,4114;0,0247425
2955,3755;0,0246261
2956,3398;0,0245013
2957,3040;0,0243673
2958,2683;0,0242246
2959,2324;0,0240755
2960,1968;0,0239228
2961,1609;0,0237691
2962,1252;0,0236147
2963,0894;0,0234584
2964,0537;0,0232995
2965,0178;0,0231391
2965,9822;0,0229804
2966,9463;0,0228258
2967,9106;0,0226742
2968,8748;0,0225205
2969,8391;0,0223588
2970,8032;0,022187
2971,7676;0,0220099
2972,7317;0,0218382
2973,6960;0,0216832
2974,6602;0,0215508
2975,6245;0,0214389
2976,5886;0,0213389
2977,5530;0,0212418
2978,5171;0,0211424
2979,4814;0,0210417
2980,4456;0,0209444
2981,4099;0,0208548
2982,3740;0,0207741
2983,3384;0,0207003
2984,3025;0,0206306
2985,2668;0,020564
2986,2310;0,020502
2987,1953;0,0204469
2988,1594;0,0203999
2989,1238;0,0203595
2990,0879;0,0203231
2991,0522;0,0202889
2992,0164;0,020258
2992,9807;0,0202333
2993,9448;0,0202176
2994,9092;0,0202115
2995,8733;0,0202125
2996,8376;0,0202175
2997,8018;0,0202239
2998,7661;0,020231
2999,7302;0,0202388
3000,6946;0,0202466
3001,6587;0,0202522
3002,6230;0,0202538
3003,5872;0,0202515
3004,5515;0,0202482
3005,5156;0,0202481
3006,4800;0,0202545
3007,4441;0,0202676
3008,4084;0,0202854
3009,3726;0,0203049
3010,3369;0,0203236
3011,3010;0,0203403
3012,2654;0,020353
3013,2295;0,0203591
3014,1938;0,020356
3015,1580;0,0203441
3016,1223;0,0203291
3017,0864;0,0203222
3018,0508;0,0203353
3019,0149;0,0203757
3019,9792;0,020441
3020,9434;0,0205193
3021,9077;0,0205942
3022,8718;0,0206516
3023,8362;0,020686
3024,8003;0,0207011
3025,7646;0,0207066
3026,7288;0,0207127
3027,6931;0,0207261
3028,6572;0,020749
3029,6216;0,0207804
3030,5857;0,0208175
3031,5500;0,0208573
3032,5142;0,0208972
3033,4785;0,0209357
3034,4426;0,0209738
3035,4070;0,0210142
3036,3711;0,0210603
3037,3354;0,0211133
3038,2996;0,0211706
3039,2639;0,0212273
3040,2280;0,0212784
3041,1924;0,0213227
3042,1565;0,0213635
3043,1208;0,0214062
3044,0850;0,0214556
3045,0493;0,0215127
3046,0134;0,0215746
3046,9778;0,0216369
3047,9419;0,0216963
3048,9063;0,0217528
3049,8704;0,0218093
3050,8347;0,0218703
3051,7988;0,0219384
3052,7632;0,022012
3053,7273;0,0220855
3054,6917;0,0221513
3055,6558;0,022205
3056,6201;0,0222487
3057,5842;0,0222916
3058,5486;0,022345
3059,5127;0,0224151
3060,4771;0,0224988
3061,4412;0,0225851
3062,4055;0,0226608
3063,3696;0,0227178
3064,3340;0,0227573
3065,2981;0,0227888
3066,2625;0,0228237
3067,2266;0,0228708
3068,1909;0,0229333
3069,1550;0,0230098
3070,1194;0,0230969
3071,0835;0,0231899
3072,0479;0,0232835
3073,0120;0,0233719
3073,9763;0,0234502
3074,9404;0,0235163
3075,9048;0,0235716
3076,8689;0,0236199
3077,8333;0,0236654
3078,7974;0,0237106
3079,7617;0,0237566
3080,7258;0,0238045
3081,6902;0,023856
3082,6543;0,0239137
3083,6187;0,0239783
3084,5828;0,0240477
3085,5471;0,0241175
3086,5112;0,0241838
3087,4756;0,0242452
3088,4397;0,0243039
3089,4041;0,0243633
3090,3682;0,0244252
3091,3325;0,0244893
3092,2966;0,024554
3093,2610;0,0246194
3094,2251;0,0246879
3095,1895;0,0247626
3096,1536;0,0248442
3097,1179;0,0249289
3098,0820;0,0250092
3099,0464;0,0250779
3100,0105;0,0251323
3100,9749;0,0251765
3101,9390;0,0252189
3102,9033;0,0252684
3103,8674;0,0253301
3104,8318;0,0254034
3105,7959;0,0254836
3106,7603;0,0255658
3107,7244;0,0256471
3108,6887;0,0257284
3109,6528;0,0258117
3110,6172;0,0258984
3111,5813;0,0259869
3112,5457;0,0260729
3113,5098;0,0261523
3114,4741;0,0262232
3115,4382;0,0262867
3116,4026;0,0263458
3117,3667;0,026403
3118,3311;0,0264599
3119,2952;0,0265174
3120,2595;0,0265777
3121,2236;0,0266444
3122,1880;0,0267213
3123,1521;0,0268109
3124,1165;0,0269126
3125,0806;0,0270232
3126,0449;0,0271381
3127,0090;0,027251
3127,9734;0,0273549
3128,9375;0,0274426
3129,9019;0,0275099
3130,8660;0,0275594
3131,8303;0,0276012
3132,7944;0,0276502
3133,7588;0,0277187
3134,7229;0,0278105
3135,6873;0,0279192
3136,6514;0,0280328
3137,6157;0,0281417
3138,5798;0,0282426
3139,5442;0,0283388
3140,5083;0,0284348
3141,4727;0,0285321
3142,4368;0,0286283
3143,4011;0,0287196
3144,3652;0,028805
3145,3296;0,0288875
3146,2937;0,0289721
3147,2581;0,0290618
3148,2222;0,0291552
3149,1865;0,029248
3150,1506;0,0293359
3151,1150;0,0294184
3152,0791;0,0294992
3153,0435;0,0295846
3154,0076;0,0296795
3154,9719;0,0297846
3155,9360;0,029896
3156,9004;0,0300069
3157,8645;0,0301109
3158,8289;0,0302045
3159,7930;0,0302889
3160,7573;0,030369
3161,7214;0,0304511
3162,6858;0,0305399
3163,6499;0,0306363
3164,6143;0,0307372
3165,5784;0,0308373
3166,5427;0,0309323
3167,5068;0,0310217
3168,4712;0,0311086
3169,4353;0,0311654
3170,3997;0,0312642
3171,3638;0,0313734
3172,3281;0,0314904
3173,2922;0,0316094
3174,2566;0,031724
3175,2207;0,0318291
3176,1851;0,0319233
3177,1492;0,0320094
3178,1135;0,032094
3179,0776;0,0321844
3180,0420;0,0322854
3181,0061;0,0323958
3181,9705;0,0325093
3182,9346;0,0326177
3183,8989;0,0327153
3184,8630;0,0328029
3185,8274;0,0328865
3186,7915;0,0329744
3187,7559;0,0330711
3188,7200;0,0331759
3189,6843;0,033284
3190,6484;0,0333897
3191,6128;0,0334897
3192,5769;0,0335831
3193,5413;0,0336709
3194,5054;0,0337537
3195,4697;0,0338318
3196,4338;0,0339062
3197,3982;0,0339792
3198,3623;0,0340538
3199,3267;0,0341332
3200,2908;0,034219
3201,2551;0,0343113
3202,2192;0,0344091
3203,1836;0,0345112
3204,1477;0,0346157
3205,1121;0,03472
3206,0762;0,0348209
3207,0405;0,0349146
3208,0046;0,0349985
3208,9690;0,0350721
3209,9331;0,0351382
3210,8975;0,0352021
3211,8616;0,0352705
3212,8259;0,0353487
3213,7900;0,0354388
3214,7544;0,0355382
3215,7185;0,0356406
3216,6829;0,0357391
3217,6470;0,0358295
3218,6113;0,0359131
3219,5754;0,0359954
3220,5398;0,036083
3221,5039;0,0361794
3222,4683;0,0362826
3223,4324;0,0363865
3224,3967;0,0364846
3225,3608;0,0365738
3226,3252;0,0366558
3227,2893;0,0367354
3228,2537;0,036817
3229,2178;0,036902
3230,1821;0,0369894
3231,1462;0,0370773
3232,1106;0,0371647
3233,0747;0,0372519
3234,0391;0,0373386
3235,0032;0,0374231
3235,9675;0,0375027
3236,9316;0,037576
3237,8960;0,0376451
3238,8601;0,0377153
3239,8245;0,0377921
3240,7886;0,0378783
3241,7529;0,0379715
3242,7170;0,0380665
3243,6814;0,0381576
3244,6455;0,038243
3245,6099;0,0383257
3246,5740;0,0384114
3247,5383;0,0385055
3248,5024;0,0386098
3249,4668;0,0387216
3250,4309;0,0388351
3251,3953;0,0389435
3252,3594;0,0390421
3253,3237;0,0391301
3254,2878;0,039211
3255,2522;0,0392912
3256,2163;0,0393775
3257,1807;0,0394741
3258,1448;0,0395808
3259,1091;0,0396926
3260,0732;0,0398012
3261,0376;0,0398982
3262,0017;0,0399786
3262,9661;0,0400433
3263,9302;0,0401002
3264,8945;0,040161
3265,8586;0,0402363
3266,8230;0,0403303
3267,7871;0,040438
3268,7515;0,0405472
3269,7156;0,0406437
3270,6799;0,0407174
3271,6440;0,0407669
3272,6084;0,0407991
3273,5725;0,0408263
3274,5369;0,0408602
3275,5010;0,0409078
3276,4653;0,0409691
3277,4294;0,0410387
3278,3938;0,0411087
3279,3579;0,041173
3280,3223;0,0412288
3281,2864;0,0412773
3282,2507;0,0413208
3283,2148;0,0413608
3284,1792;0,0413963
3285,1433;0,041425
3286,1077;0,0414463
3287,0718;0,0414627
3288,0361;0,0414796
3289,0002;0,0415019
3289,9646;0,0415303
3290,9287;0,0415607
3291,8931;0,041586
3292,8572;0,0416005
3293,8215;0,0416037
3294,7856;0,0415998
3295,7500;0,0415956
3296,7141;0,0415967
3297,6785;0,0416058
3298,6426;0,0416228
3299,6069;0,0416464
3300,5710;0,0416747
3301,5354;0,0417058
3302,4995;0,041737
3303,4639;0,041765
3304,4280;0,0417869
3305,3923;0,041802
3306,3564;0,0418118
3307,3208;0,0418192
3308,2849;0,0418262
3309,2493;0,0418329
3310,2134;0,0418373
3311,1777;0,0418376
3312,1418;0,0418345
3313,1062;0,0418323
3314,0703;0,0418384
3315,0347;0,0418596
3315,9988;0,0418997
3316,9631;0,0419571
3317,9272;0,0420253
3318,8916;0,0420951
3319,8557;0,0421585
3320,8201;0,0422108
3321,7842;0,0422521
3322,7485;0,0422859
3323,7126;0,0423174
3324,6770;0,0423513
3325,6411;0,0423899
3326,6055;0,0424332
3327,5696;0,0424792
3328,5339;0,042525
3329,4980;0,0425676
3330,4624;0,0426046
3331,4265;0,0426336
3332,3909;0,0426527
3333,3550;0,04266
3334,3193;0,0426544
3335,2834;0,0426366
3336,2478;0,0426092
3337,2119;0,0425767
3338,1763;0,0425432
3339,1404;0,0425114
3340,1047;0,0424809
3341,0688;0,0424495
3342,0332;0,0424145
3342,9973;0,0423744
3343,9617;0,0423296
3344,9258;0,0422823
3345,8901;0,0422353
3346,8542;0,0421906
3347,8186;0,0421479
3348,7827;0,0421043
3349,7471;0,0420549
3350,7112;0,0419956
3351,6755;0,0419261
3352,6396;0,0418517
3353,6040;0,041781
3354,5681;0,0417218
3355,5325;0,0416757
3356,4966;0,0416368
3357,4609;0,0415947
3358,4250;0,0415413
3359,3894;0,0414759
3360,3535;0,0414052
3361,3179;0,0413383
3362,2820;0,0412803
3363,2463;0,0412291
3364,2104;0,0411771
3365,1748;0,0411168
3366,1389;0,0410455
3367,1033;0,0409656
3368,0674;0,0408826
3369,0317;0,040801
3369,9958;0,0407225
3370,9602;0,0406465
3371,9243;0,040572
3372,8887;0,0404987
3373,8528;0,0404268
3374,8171;0,0403571
3375,7813;0,0402906
3376,7456;0,0402291
3377,7097;0,0401739
3378,6741;0,0401248
3379,6382;0,0400782
3380,6025;0,0400274
3381,5667;0,0399658
3382,5310;0,0398909
3383,4951;0,0398069
3384,4595;0,039724
3385,4236;0,0396535
3386,3879;0,0396007
3387,3521;0,0395621
3388,3164;0,0395262
3389,2805;0,0394801
3390,2449;0,0394161
3391,2090;0,0393349
3392,1733;0,0392451
3393,1375;0,0391574
3394,1018;0,0390786
3395,0659;0,0390088
3396,0303;0,0389427
3396,9944;0,038873
3397,9587;0,0387945
3398,9229;0,0387052
3399,8872;0,0386072
3400,8513;0,0385059
3401,8157;0,0384082
3402,7798;0,0383205
3403,7441;0,0382456
3404,7083;0,0381806
3405,6726;0,0381172
3406,6367;0,0380458
3407,6011;0,0379602
3408,5652;0,0378608
3409,5295;0,0377537
3410,4937;0,0376462
3411,4580;0,0375433
3412,4221;0,0374462
3413,3865;0,0373535
3414,3506;0,0372639
3415,3149;0,037176
3416,2791;0,0370875
3417,2434;0,0369942
3418,2075;0,0368909
3419,1719;0,0367756
3420,1360;0,0366514
3421,1003;0,0365263
3422,0645;0,0364083
3423,0288;0,0363003
3423,9929;0,0361996
3424,9573;0,0361011
3425,9214;0,0360014
3426,8857;0,035901
3427,8499;0,0358014
3428,8142;0,0357016
3429,7783;0,0355968
3430,7427;0,0354814
3431,7068;0,0353542
3432,6711;0,0352215
3433,6353;0,0350942
3434,5996;0,034981
3435,5637;0,0348814
3436,5281;0,034786
3437,4922;0,0346825
3438,4565;0,0345657
3439,4207;0,0344412
3440,3850;0,0343216
3441,3491;0,0342159
3442,3135;0,0341202
3443,2776;0,0340177
3444,2419;0,033888
3445,2061;0,033722
3446,1704;0,0335298
3447,1345;0,0333383
3448,0989;0,0331752
3449,0630;0,0330535
3450,0273;0,0329666
3450,9915;0,0328953
3451,9558;0,0328205
3452,9199;0,032731
3453,8843;0,0326247
3454,8484;0,0325046
3455,8127;0,0323737
3456,7769;0,0322323
3457,7412;0,0320802
3458,7053;0,03192
3459,6697;0,031759
3460,6338;0,0316073
3461,5981;0,0314732
3462,5623;0,0313589
3463,5266;0,0312585
3464,4907;0,0311603
3465,4551;0,0310532
3466,4192;0,0309312
3467,3835;0,0307966
3468,3477;0,0306571
3469,3120;0,030521
3470,2761;0,030391
3471,2405;0,030264
3472,2046;0,0301349
3473,1689;0,0300028
3474,1331;0,0298739
3475,0974;0,029757
3476,0615;0,0296555
3477,0259;0,0295613
3477,9900;0,0294578
3478,9543;0,0293292
3479,9185;0,0291726
3480,8828;0,0290023
3481,8469;0,028842
3482,8113;0,0287089
3483,7754;0,0286015
3484,7397;0,0285021
3485,7039;0,0283903
3486,6682;0,0282575
3487,6323;0,0281138
3488,5967;0,0279803
3489,5608;0,0278741
3490,5251;0,027794
3491,4893;0,0277203
3492,4536;0,0276268
3493,4177;0,0274979
3494,3821;0,0273408
3495,3462;0,0271849
3496,3105;0,027065
3497,2747;0,0269988
3498,2390;0,0269737
3499,2031;0,0269511
3500,1675;0,0268849
3501,1316;0,0267463
3502,0959;0,0265421
3503,0601;0,0263138
3504,0244;0,026112
3504,9885;0,0259635
3505,9529;0,0258587
3506,9170;0,0257641
3507,8813;0,0256467
3508,8455;0,0254946
3509,8098;0,0253229
3510,7739;0,0251614
3511,7383;0,0250331
3512,7024;0,0249398
3513,6667;0,0248659
3514,6309;0,0247918
3515,5952;0,0247068
3516,5593;0,0246131
3517,5237;0,0245199
3518,4878;0,0244349
3519,4521;0,0243579
3520,4163;0,024282
3521,3806;0,0241984
3522,3447;0,0241005
3523,3091;0,0239837
3524,2732;0,0238425
3525,2375;0,023671
3526,2017;0,0234681
3527,1660;0,0232446
3528,1301;0,0230254
3529,0945;0,02284
3530,0586;0,0227072
3531,0229;0,0226246
3531,9871;0,0225706
3532,9514;0,0225162
3533,9155;0,0224372
3534,8799;0,0223238
3535,8440;0,022184
3536,8083;0,0220401
3537,7725;0,0219198
3538,7368;0,021844
3539,7009;0,0218175
3540,6653;0,0218244
3541,6294;0,0218288
3542,5938;0,0217819
3543,5579;0,0216419
3544,5222;0,0214015
3545,4863;0,0211041
3546,4507;0,0208247
3547,4148;0,0206214
3548,3792;0,0205024
3549,3433;0,0204306
3550,3076;0,0203518
3551,2717;0,0202278
3552,2361;0,0200587
3553,2002;0,0198806
3554,1646;0,019738
3555,1287;0,0196507
3556,0930;0,0196046
3557,0571;0,0195671
3558,0215;0,019514
3558,9856;0,0194486
3559,9500;0,0194016
3560,9141;0,0194059
3561,8784;0,0194629
3562,8425;0,0195243
3563,8069;0,0194975
3564,7710;0,0192815
3565,7354;0,0188397
3566,6995;0,0182723
3567,6638;0,0177759
3568,6279;0,0174891
3569,5923;0,0174076
3570,5564;0,0174384
3571,5208;0,0174825
3572,4849;0,0174761
3573,4492;0,0174004
3574,4133;0,017274
3575,3777;0,0171298
3576,3418;0,0169895
3577,3062;0,0168538
3578,2703;0,0167164
3579,2346;0,016587
3580,1987;0,016497
3581,1631;0,0164809
3582,1272;0,0165456
3583,0916;0,0166489
3584,0557;0,0167006
3585,0200;0,016589
3585,9841;0,0162476
3586,9485;0,0157367
3587,9126;0,0152383
3588,8770;0,014915
3589,8411;0,0147942
3590,8054;0,014794
3591,7695;0,0148045
3592,7339;0,0147449
3593,6980;0,0145924
3594,6624;0,014383
3595,6265;0,0141739
3596,5908;0,0139933
3597,5549;0,0138266
3598,5193;0,0136499
3599,4834;0,0134722
3600,4478;0,0133431
3601,4119;0,0133157
3602,3762;0,0133982
3603,3403;0,0135407
3604,3047;0,0136617
3605,2688;0,0136886
3606,2332;0,0135946
3607,1973;0,0134177
3608,1616;0,0132393
3609,1257;0,013124
3610,0901;0,0130764
3611,0542;0,0130565
3612,0186;0,0130265
3612,9827;0,0129783
3613,9470;0,0129239
3614,9111;0,0128608
3615,8755;0,0127478
3616,8396;0,0125132
3617,8040;0,012107
3618,7681;0,0115716
3619,7324;0,0110625
3620,6965;0,0107574
3621,6609;0,0107387
3622,6250;0,0109701
3623,5894;0,0113455
3624,5535;0,0117261
3625,5178;0,011947
3626,4819;0,0118358
3627,4463;0,0113125
3628,4104;0,0105434
3629,3748;0,00988972
3630,3389;0,00958068
3631,3032;0,0095705
3632,2673;0,00969908
3633,2317;0,00984239
3634,1958;0,00994967
3635,1602;0,0100253
3636,1243;0,0100944
3637,0886;0,0101703
3638,0527;0,0102446
3639,0171;0,0103021
3639,9812;0,0103471
3640,9456;0,0104136
3641,9097;0,0105496
3642,8740;0,0107836
3643,8381;0,0110941
3644,8025;0,0113885
3645,7666;0,01149
3646,7310;0,0111618
3647,6951;0,0102689
3648,6594;0,00907864
3649,6235;0,0081963
3650,5879;0,00795021
3651,5520;0,00818727
3652,5164;0,00860655
3653,4805;0,00897544
3654,4448;0,00915883
3655,4089;0,00912387
3656,3733;0,00894758
3657,3374;0,00876705
3658,3018;0,00867676
3659,2659;0,00867676
3660,2302;0,00871391
3661,1943;0,00875151
3662,1587;0,00880538
3663,1228;0,00892655
3664,0872;0,00914678
3665,0513;0,00943054
3666,0156;0,0096678
3666,9797;0,00971279
3667,9441;0,00947386
3668,9082;0,00903007
3669,8726;0,00863279
3670,8367;0,00849464
3671,8010;0,00859863
3672,7651;0,00873808
3673,7295;0,00867109
3674,6936;0,0082836
3675,6580;0,00771175
3676,6221;0,00724674
3677,5864;0,0070556
3678,5505;0,00709258
3679,5149;0,00723672
3680,4790;0,00740882
3681,4434;0,0075962
3682,4075;0,00782586
3683,3718;0,008119
3684,3359;0,00845067
3685,3003;0,00873048
3686,2644;0,00881016
3687,2288;0,00853684
3688,1929;0,00788062
3689,1572;0,00705683
3690,1213;0,00641362
3691,0857;0,00613714
3692,0498;0,00617197
3693,0142;0,00637354
3693,9783;0,00663045
3694,9426;0,00688873
3695,9067;0,00713025
3696,8711;0,00734231
3697,8352;0,00749541
3698,7996;0,00754137
3699,7637;0,0074391
3700,7280;0,00719984
3701,6921;0,0069142
3702,6565;0,00671597
3703,6206;0,00670111
3704,5850;0,00688042
3705,5491;0,00719319
3706,5134;0,00753913
3707,4775;0,00779696
3708,4419;0,00784307
3709,4060;0,00760756
3710,3704;0,00716601
3711,3345;0,00674555
3712,2988;0,00655133
3713,2629;0,006616
3714,2273;0,00684635
3715,1914;0,00712979
3716,1558;0,00738071
3717,1199;0,00754563
3718,0842;0,00760354
3719,0483;0,00756672
3720,0127;0,00746984
3720,9768;0,00734337
3721,9412;0,00719092
3722,9053;0,00699639
3723,8696;0,00675986
3724,8337;0,00652762
3725,7981;0,00638047
3726,7622;0,00638645
3727,7266;0,00656439
3728,6907;0,00688406
3729,6550;0,00728369
3730,6191;0,00767925
3731,5835;0,00796194
3732,5476;0,00800553
3733,5120;0,00772382
3734,4761;0,00718292
3735,4404;0,00663809
3736,4045;0,00636568
3737,3689;0,00647398
3738,3330;0,00690607
3739,2974;0,00753377
3740,2615;0,00820499
3741,2258;0,00874514
3742,1899;0,00897566
3743,1543;0,00881404
3744,1184;0,00841147
3745,0828;0,00809082
3746,0469;0,00805043
3747,0112;0,00821779
3747,9753;0,00835592
3748,9397;0,00821815
3749,9038;0,0077198
3750,8682;0,00708435
3751,8323;0,00668934
3752,7966;0,00669891
3753,7607;0,00700149
3754,7251;0,00739859
3755,6892;0,0077215
3756,6536;0,00786279
3757,6177;0,0078042
3758,5820;0,00763449
3759,5461;0,0074973
3760,5105;0,00748853
3761,4746;0,00760746
3762,4390;0,00779006
3763,4031;0,00796212
3764,3674;0,00807126
3765,3315;0,00809621
3766,2959;0,00803944
3767,2600;0,00791242
3768,2244;0,00773
3769,1885;0,00752227
3770,1528;0,00734615
3771,1169;0,00726998
3772,0813;0,00733566
3773,0454;0,00753309
3774,0098;0,00780345
3774,9739;0,00805847
3775,9382;0,00820505
3776,9023;0,0081807
3777,8667;0,00799543
3778,8308;0,00774163
3779,7952;0,00753692
3780,7593;0,00744446
3781,7236;0,00745077
3782,6877;0,00750287
3783,6521;0,00755213
3784,6162;0,00757598
3785,5806;0,00757773
3786,5447;0,00757543
3787,5090;0,00759086
3788,4731;0,00764347
3789,4375;0,0077451
3790,4016;0,00789243
3791,3660;0,00806182
3792,3301;0,00821502
3793,2944;0,00831864
3794,2585;0,00836829
3795,2229;0,00839503
3796,1870;0,00843652
3797,1514;0,00848873
3798,1155;0,00848329
3799,0798;0,00832541
3800,0439;0,00798693
3801,0083;0,00758121
3801,9724;0,00730177
3802,9368;0,007252
3803,9009;0,0073665
3804,8652;0,00748692
3805,8293;0,00748444
3806,7937;0,007354
3807,7578;0,00722531
3808,7222;0,00725578
3809,6863;0,00750516
3810,6506;0,00791348
3811,6147;0,00835191
3812,5791;0,00867484
3813,5432;0,00877338
3814,5076;0,00864368
3815,4717;0,00841083
3816,4360;0,00822993
3817,4001;0,00814454
3818,3645;0,0080666
3819,3286;0,00788499
3820,2930;0,00759215
3821,2571;0,00731197
3822,2214;0,00718374
3823,1855;0,00724011
3824,1499;0,00741566
3825,1140;0,00762216
3826,0784;0,00779738
3827,0425;0,00791766
3828,0068;0,00799095
3828,9709;0,00804048
3829,9353;0,00808987
3830,8994;0,00815737
3831,8638;0,00825544
3832,8279;0,00838516
3833,7922;0,00852366
3834,7563;0,00861689
3835,7207;0,00859501
3836,6848;0,00841744
3837,6492;0,00812232
3838,6133;0,00782096
3839,5776;0,00761666
3840,5417;0,00753141
3841,5061;0,00751734
3842,4702;0,00751848
3843,4346;0,00751907
3844,3987;0,00755422
3845,3630;0,00768715
3846,3271;0,0079728
3847,2915;0,0084297
3848,2556;0,00902405
3849,2200;0,00965183
3850,1841;0,0101118
3851,1484;0,0101118
3852,1125;0,00944109
3853,0769;0,00832442
3854,0410;0,00737731
3855,0054;0,00696497
3855,9695;0,00701519
3856,9338;0,00733504
3857,8979;0,00777736
3858,8623;0,00823224
3859,8264;0,00859733
3860,7908;0,00878201
3861,7549;0,00875033
3862,7192;0,00856863
3863,6833;0,00838631
3864,6477;0,00833412
3865,6118;0,00843863
3866,5762;0,00862713
3867,5403;0,00878411
3868,5046;0,0088076
3869,4688;0,00865491
3870,4331;0,00836734
3871,3972;0,00805037
3872,3616;0,00781563
3873,3257;0,00773104
3874,2900;0,00780776
3875,2542;0,00801105
3876,2185;0,00827568
3877,1826;0,00852307
3878,1470;0,00868563
3879,1111;0,00873667
3880,0754;0,00870362
3881,0396;0,00863862
3882,0039;0,00856601
3882,9680;0,00846726
3883,9324;0,00832374
3884,8965;0,00816794
3885,8608;0,00807851
3886,8250;0,00811376
3887,7893;0,00825167
3888,7534;0,00839215
3889,7178;0,00841559
3890,6819;0,00826985
3891,6462;0,00803474
3892,6104;0,00787996
3893,5747;0,00793129
3894,5388;0,00819216
3895,5032;0,00857483
3896,4673;0,00896246
3897,4316;0,00925339
3898,3958;0,00939183
3899,3601;0,00937852
3900,3242;0,00924433
3901,2886;0,00900845
3902,2527;0,00867705
3903,2170;0,00828515
3904,1812;0,00791478
3905,1455;0,00765287
3906,1096;0,00753798
3907,0740;0,00755203
3908,0381;0,00764836
3909,0024;0,00778257
3909,9666;0,00793025
3910,9309;0,00808875
3911,8950;0,00826388
3912,8594;0,00844903
3913,8235;0,00861167
3914,7878;0,00870017
3915,7520;0,00867392
3916,7163;0,00854121
3917,6804;0,00836955
3918,6448;0,00824547
3919,6089;0,0082153
3920,5732;0,00826107
3921,5374;0,00832115
3922,5017;0,00833292
3923,4658;0,00827499
3924,4302;0,00818516
3925,3943;0,00813466
3926,3586;0,00817488
3927,3228;0,00830147
3928,2871;0,00845762
3929,2512;0,00856436
3930,2156;0,00856165
3931,1797;0,00844347
3932,1440;0,0082616
3933,1082;0,00808979
3934,0725;0,00798068
3935,0366;0,00795156
3936,0010;0,00799571
3936,9651;0,00809581
3937,9294;0,00822769
3938,8936;0,00835908
3939,8579;0,00845354
3940,8220;0,00848552
3941,7864;0,00845913
3942,7505;0,00841173
3943,7148;0,00839057
3944,6790;0,00841874
3945,6433;0,00847742
3946,6074;0,00851651
3947,5718;0,00848616
3948,5359;0,0083716
3949,5002;0,00820744
3950,4644;0,00805671
3951,4287;0,00797048
3952,3928;0,00796203
3953,3572;0,00801048
3954,3213;0,00808177
3955,2856;0,00814883
3956,2498;0,00819994
3957,2141;0,00823424
3958,1782;0,00825213
3959,1426;0,00825061
3960,1067;0,00822715
3961,0710;0,00818687
3962,0352;0,00814437
3962,9995;0,00811669
3963,9636;0,00811308
3964,9280;0,00812978
3965,8921;0,00815393
3966,8564;0,00817239
3967,8206;0,00817918
3968,7849;0,00817696
3969,7490;0,00817245
3970,7134;0,00817003
3971,6775;0,0081687
3972,6418;0,00816393
3973,6060;0,00815193
3974,5703;0,00813251
3975,5344;0,0081088
3976,4988;0,00808495
3977,4629;0,0080644
3978,4272;0,00804985
3979,3914;0,00804395
3980,3557;0,00804903
3981,3198;0,00806557
3982,2842;0,00809062
3983,2483;0,00811824
3984,2126;0,00814221
3985,1768;0,00815941
3986,1411;0,00817122
3987,1052;0,00818192
3988,0696;0,00819511
3989,0337;0,00821023
3989,9980;0,00822197
3990,9622;0,00822273
3991,9265;0,00820725
3992,8906;0,00817641
3993,8550;0,00813797
3994,8191;0,00810321
3995,7834;0,00808143
3996,7476;0,00807538
3997,7119;0,00808081
3998,6760;0,00809034
3999,6404;0,00809882
4000,6045;0,00798225

##### Extended Information
[Comments]
Sample name
Comment
Username
Division
Organization;UNIVERSIDAD INDUSTRIAL DE SANTANDER

[Detailed Information]
Creation date;19/02/2025 12:38 p.m.

Data array type;Linear data array
Horizontal axis;Wavenumber [cm-1]
Vertical axis;Abs
Start;399,193 cm-1
End;4000,6 cm-1
Data interval;0,964233 cm-1
Data points;3736    

[Measurement Information]
Model name;FT/IR-4X1typeA
Serial No.;A035162111

Accessory;ATR PRO 4X
Accessory S/N;A021162126
Incident angle;45 deg

Measurement date;19/02/2025 12:36 p.m.

Light source;Standard
Detector;TGS
Accumulation;40
Resolution;4 cm-1
Zero filling;On
Apodization;Cosine
Gain;Auto (8)
Aperture;Auto (7 mm)
Scan speed;Auto (2 mm/sec)
Filter;Auto (12800 Hz)

