TITLE;
DATA TYPE;INFRARED SPECTRUM
ORIGIN;JASCO
OWNER;
DATE;25/02/19
TIME;11:43:31
SPECTROMETER/DATA SYSTEM;
LOCALE;9226
RESOLUTION;
DELTAX;0,964233
XUNITS;1/CM
YUNITS;ABSORBANCE
FIRSTX;  399,1927
LASTX; 4000,6047
NPOINTS;    3736
FIRSTY;     0,12054
MAXY;     0,13384
MINY;     0,00824
XYDATA
399,1927;0,120539
400,1569;0,121185
401,1211;0,122402
402,0854;0,123376
403,0496;0,123563
404,0138;0,122827
404,9781;0,121449
405,9423;0,119986
406,9065;0,118968
407,8708;0,118602
408,8350;0,118696
409,7992;0,118859
410,7635;0,118789
411,7277;0,118469
412,6919;0,118153
413,6562;0,118179
414,6204;0,118793
415,5846;0,120075
416,5489;0,121892
417,5131;0,123773
418,4773;0,124899
419,4416;0,124648
420,4058;0,123275
421,3700;0,121585
422,3343;0,120162
423,2985;0,11919
424,2627;0,118626
425,2270;0,118363
426,1912;0,118291
427,1554;0,11833
428,1197;0,118423
429,0839;0,118529
430,0481;0,118609
431,0124;0,118633
431,9766;0,118589
432,9408;0,118478
433,9051;0,118293
434,8693;0,118014
435,8335;0,117615
436,7978;0,117103
437,7620;0,11654
438,7262;0,116022
439,6905;0,115636
440,6547;0,115416
441,6189;0,115321
442,5832;0,115255
443,5474;0,115121
444,5116;0,114887
445,4759;0,114593
446,4401;0,114305
447,4043;0,114055
448,3686;0,113815
449,3328;0,113522
450,2970;0,113125
451,2613;0,11262
452,2255;0,112059
453,1897;0,111502
454,1540;0,110981
455,1182;0,110483
456,0824;0,109984
457,0467;0,109502
458,0109;0,10912
458,9751;0,108933
459,9394;0,108959
460,9036;0,109118
461,8678;0,109277
462,8321;0,109331
463,7963;0,109241
464,7605;0,109053
465,7248;0,108863
466,6890;0,108762
467,6532;0,108767
468,6175;0,108807
469,5817;0,10876
470,5459;0,108513
471,5102;0,108039
472,4744;0,107418
473,4386;0,106801
474,4029;0,1063
475,3671;0,105939
476,3313;0,105679
477,2956;0,105492
478,2598;0,1054
479,2240;0,105468
480,1883;0,105743
481,1525;0,106195
482,1167;0,106704
483,0810;0,107107
484,0452;0,107286
485,0094;0,107237
485,9737;0,107057
486,9379;0,106865
487,9021;0,106722
488,8664;0,106624
489,8306;0,106536
490,7948;0,106452
491,7591;0,10641
492,7233;0,106462
493,6875;0,106621
494,6518;0,106834
495,6160;0,107012
496,5802;0,107084
497,5445;0,107047
498,5087;0,106967
499,4729;0,106944
500,4372;0,107061
501,4014;0,107333
502,3656;0,107693
503,3299;0,108033
504,2941;0,108269
505,2583;0,108389
506,2226;0,108451
507,1868;0,108541
508,1510;0,108726
509,1153;0,109011
510,0795;0,109352
511,0437;0,109687
512,0080;0,109985
512,9722;0,110267
513,9365;0,110587
514,9007;0,110995
515,8649;0,11149
516,8292;0,112002
517,7934;0,112414
518,7576;0,112628
519,7219;0,112623
520,6861;0,112461
521,6503;0,112231
522,6146;0,112006
523,5788;0,111823
524,5430;0,111698
525,5073;0,111638
526,4715;0,111648
527,4357;0,111718
528,4000;0,111813
529,3642;0,111875
530,3284;0,111841
531,2927;0,111672
532,2569;0,111371
533,2211;0,110984
534,1854;0,110584
535,1496;0,110233
536,1138;0,109956
537,0781;0,109744
538,0423;0,109569
539,0065;0,109411
539,9708;0,109272
540,9350;0,109171
541,8992;0,109134
542,8635;0,109172
543,8277;0,109272
544,7919;0,109399
545,7562;0,109503
546,7204;0,109553
547,6846;0,109552
548,6489;0,109546
549,6131;0,1096
550,5773;0,109767
551,5416;0,110056
552,5058;0,110433
553,4700;0,110836
554,4343;0,11121
555,3985;0,111524
556,3627;0,111774
557,3270;0,111963
558,2912;0,112085
559,2554;0,112121
560,2197;0,112052
561,1839;0,11187
562,1481;0,111584
563,1124;0,111214
564,0766;0,110786
565,0408;0,110326
566,0051;0,109867
566,9693;0,109451
567,9335;0,109118
568,8978;0,108896
569,8620;0,108781
570,8262;0,108748
571,7905;0,108761
572,7547;0,10879
573,7189;0,108811
574,6832;0,108802
575,6474;0,108739
576,6116;0,108601
577,5759;0,108379
578,5401;0,108082
579,5043;0,107729
580,4686;0,107343
581,4328;0,106945
582,3970;0,106551
583,3613;0,106191
584,3255;0,105899
585,2897;0,105714
586,2540;0,105655
587,2182;0,105711
588,1824;0,105839
589,1467;0,105977
590,1109;0,106068
591,0751;0,10607
592,0394;0,105972
593,0036;0,105786
593,9678;0,105551
594,9321;0,105312
595,8963;0,105107
596,8605;0,104958
597,8248;0,10485
598,7890;0,104742
599,7532;0,104585
600,7175;0,104347
601,6817;0,104036
602,6459;0,103695
603,6102;0,103377
604,5744;0,103116
605,5386;0,102913
606,5029;0,102746
607,4671;0,102585
608,4313;0,102402
609,3956;0,102175
610,3598;0,101885
611,3240;0,10152
612,2883;0,101081
613,2525;0,100594
614,2167;0,100096
615,1810;0,0996181
616,1452;0,0991586
617,1094;0,0986789
618,0737;0,0981279
619,0379;0,0974811
620,0021;0,096764
620,9664;0,0960399
621,9306;0,0953774
622,8948;0,0948195
623,8591;0,0943703
624,8233;0,0939981
625,7875;0,0936668
626,7518;0,0933406
627,7160;0,092998
628,6802;0,0926277
629,6445;0,0922229
630,6087;0,0917799
631,5729;0,0913048
632,5372;0,0908181
633,5014;0,090353
634,4656;0,0899443
635,4299;0,0896129
636,3941;0,0893544
637,3583;0,0891395
638,3226;0,0889252
639,2868;0,0886729
640,2510;0,088365
641,2153;0,0880146
642,1795;0,0876611
643,1437;0,0873545
644,1080;0,0871326
645,0722;0,0870023
646,0364;0,086936
647,0007;0,0868848
647,9649;0,0868033
648,9291;0,0866734
649,8934;0,0865127
650,8576;0,0863588
651,8218;0,0862424
652,7861;0,0861683
653,7503;0,0861161
654,7145;0,0860601
655,6788;0,0859918
656,6430;0,0859313
657,6072;0,0859166
658,5715;0,0859782
659,5357;0,0861146
660,4999;0,0862849
661,4642;0,0864304
662,4284;0,0865106
663,3926;0,0865234
664,3569;0,0864971
665,3211;0,0864722
666,2853;0,0864722
667,2496;0,0864449
668,2138;0,0862284
669,1780;0,0857142
670,1423;0,085018
671,1065;0,0842832
672,0707;0,0835133
673,0350;0,0826404
673,9992;0,0816206
674,9634;0,0804829
675,9277;0,079333
676,8919;0,0783012
677,8561;0,0774624
678,8204;0,0767988
679,7846;0,0762311
680,7488;0,0756763
681,7131;0,0750897
682,6773;0,0744763
683,6415;0,073876
684,6058;0,0733384
685,5700;0,0728997
686,5342;0,07257
687,4985;0,0723306
688,4627;0,0721419
689,4269;0,0719584
690,3912;0,0717482
691,3554;0,0715043
692,3196;0,071245
693,2839;0,0710015
694,2481;0,0708006
695,2123;0,0706489
696,1766;0,0705271
697,1408;0,0703991
698,1050;0,070231
699,0693;0,0700096
700,0335;0,0697492
700,9977;0,069481
701,9620;0,0692342
702,9262;0,0690192
703,8904;0,0688221
704,8547;0,068616
705,8189;0,0683737
706,7831;0,0680799
707,7474;0,0677342
708,7116;0,0673482
709,6758;0,0669402
710,6401;0,0665314
711,6043;0,0661434
712,5685;0,0657936
713,5328;0,0654891
714,4970;0,0652214
715,4612;0,0649044
716,4255;0,0646403
717,3897;0,0643265
718,3539;0,0639401
719,3182;0,063479
720,2824;0,0629652
721,2466;0,0624359
722,2109;0,0619245
723,1751;0,0614457
724,1393;0,0609934
725,1036;0,0605509
726,0678;0,0601035
727,0320;0,0596451
727,9963;0,0591786
728,9605;0,0587104
729,9247;0,0582474
730,8890;0,0577976
731,8532;0,057374
732,8174;0,0569936
733,7817;0,0566697
734,7459;0,0564031
735,7101;0,0561773
736,6744;0,0559656
737,6386;0,0557439
738,6028;0,0555031
739,5671;0,0552508
740,5313;0,0550026
741,4955;0,0547702
742,4598;0,054555
743,4240;0,0543515
744,3882;0,0541557
745,3525;0,0539697
746,3167;0,0537983
747,2809;0,0536402
748,2452;0,0534826
749,2094;0,0533051
750,1736;0,0530913
751,1379;0,0528409
752,1021;0,052571
753,0663;0,0523078
754,0306;0,0520722
754,9948;0,0518698
755,9590;0,0516902
756,9233;0,0515161
757,8875;0,0513323
758,8517;0,0511326
759,8160;0,0509192
760,7802;0,0506989
761,7444;0,050477
762,7087;0,0502541
763,6729;0,0500244
764,6371;0,0497799
765,6014;0,049516
766,5656;0,0492382
767,5298;0,0489633
768,4941;0,0487129
769,4583;0,048501
770,4225;0,0483244
771,3868;0,0481611
772,3510;0,0479815
773,3152;0,0477646
774,2795;0,0475099
775,2437;0,0472371
776,2079;0,0469749
777,1722;0,0467458
778,1364;0,0465576
779,1006;0,0464032
780,0649;0,0462674
781,0291;0,0461347
781,9933;0,0459919
782,9576;0,0458294
783,9218;0,0456411
784,8860;0,0454268
785,8503;0,045195
786,8145;0,0449617
787,7787;0,0447461
788,7430;0,0445627
789,7072;0,0444146
790,6714;0,0442929
791,6357;0,0441808
792,5999;0,0440614
793,5641;0,043925
794,5284;0,0437721
795,4926;0,0436132
796,4568;0,0434637
797,4211;0,0433374
798,3853;0,043239
799,3495;0,0431611
800,3138;0,0430855
801,2780;0,0429921
802,2422;0,0428693
803,2065;0,0427214
804,1707;0,0425675
805,1349;0,0424314
806,0992;0,0423283
807,0634;0,0422561
808,0276;0,0421982
808,9919;0,042134
809,9561;0,0420518
810,9203;0,0419551
811,8846;0,0418582
812,8488;0,041776
813,8130;0,0417141
814,7773;0,0416675
815,7415;0,041626
816,7057;0,0415828
817,6700;0,0415385
818,6342;0,0414981
819,5984;0,0414642
820,5627;0,0414314
821,5269;0,0413876
822,4911;0,0413221
823,4554;0,0412336
824,4196;0,0411331
825,3839;0,0410369
826,3481;0,040956
827,3123;0,040888
828,2766;0,040819
829,2408;0,0407342
830,2050;0,0406297
831,1693;0,040518
832,1335;0,0404211
833,0977;0,0403579
834,0620;0,0403319
835,0262;0,04033
835,9904;0,0403292
836,9547;0,0403079
837,9189;0,0402535
838,8831;0,0401629
839,8474;0,0400388
840,8116;0,0398866
841,7758;0,039715
842,7401;0,0395386
843,7043;0,0393776
844,6685;0,0392517
845,6328;0,0391724
846,5970;0,0391364
847,5612;0,039126
848,5255;0,0391158
849,4897;0,0390818
850,4539;0,0390093
851,4182;0,0388974
852,3824;0,0387586
853,3466;0,0386162
854,3109;0,0384989
855,2751;0,0384311
856,2393;0,0384245
857,2036;0,0384718
858,1678;0,0385489
859,1320;0,038625
860,0963;0,0386761
861,0605;0,0386938
862,0247;0,0386858
862,9890;0,0386661
863,9532;0,0386459
864,9174;0,0386278
865,8817;0,0386101
866,8459;0,0385942
867,8101;0,0385905
868,7744;0,0386158
869,7386;0,0386841
870,7028;0,0387961
871,6671;0,0389348
872,6313;0,0390701
873,5955;0,0391707
874,5598;0,0392182
875,5240;0,0392148
876,4882;0,0391827
877,4525;0,0391538
878,4167;0,0391578
879,3809;0,0392113
880,3452;0,039317
881,3094;0,0394689
882,2736;0,0396624
883,2379;0,0399002
884,2021;0,0401913
885,1663;0,0405431
886,1306;0,0409529
887,0948;0,0414047
888,0590;0,0418737
889,0233;0,0423355
889,9875;0,0427743
890,9517;0,0431851
891,9160;0,0435706
892,8802;0,0439344
893,8444;0,0442752
894,8087;0,0445848
895,7729;0,0448467
896,7371;0,0450388
897,7014;0,0451369
898,6656;0,0451223
899,6298;0,0449907
900,5941;0,044757
901,5583;0,0444534
902,5225;0,0441181
903,4868;0,0437814
904,4510;0,0434573
905,4152;0,0431468
906,3795;0,0428493
907,3437;0,0425728
908,3079;0,0423353
909,2722;0,042155
910,2364;0,0420368
911,2007;0,0419674
912,1649;0,0419228
913,1292;0,0418838
914,0934;0,0418474
915,0576;0,0418274
916,0219;0,0418419
916,9861;0,0418996
917,9503;0,0419929
918,9146;0,0421046
919,8788;0,0422206
920,8430;0,0423392
921,8073;0,0424716
922,7715;0,0426311
923,7357;0,0428222
924,7000;0,0430343
925,6642;0,0432467
926,6284;0,043438
927,5927;0,0435964
928,5569;0,0437228
929,5211;0,0438277
930,4854;0,043924
931,4496;0,0440213
932,4138;0,044124
933,3781;0,0442336
934,3423;0,0443525
935,3065;0,0444867
936,2708;0,044645
937,2350;0,0448369
938,1992;0,0450689
939,1635;0,0453424
940,1277;0,0456525
941,0919;0,0459893
942,0562;0,0463406
943,0204;0,0466969
943,9846;0,0470553
944,9489;0,047423
945,9131;0,0478166
946,8773;0,0482584
947,8416;0,0487688
948,8058;0,0493594
949,7700;0,0500286
950,7343;0,0507621
951,6985;0,0515388
952,6627;0,0523385
953,6270;0,0531486
954,5912;0,0539672
955,5554;0,0547997
956,5197;0,055654
957,4839;0,0565339
958,4481;0,0574368
959,4124;0,0583556
960,3766;0,0592826
961,3408;0,0602138
962,3051;0,0611482
963,2693;0,0620848
964,2335;0,0630184
965,1978;0,0639393
966,1620;0,0648386
967,1262;0,0657168
968,0905;0,06659
969,0547;0,0674908
970,0189;0,0684588
970,9832;0,0695291
971,9474;0,070721
972,9116;0,0720358
973,8759;0,0734629
974,8401;0,0749907
975,8043;0,0766144
976,7686;0,0783367
977,7328;0,0801606
978,6970;0,0820796
979,6613;0,084071
980,6255;0,0860971
981,5897;0,0881127
982,5540;0,0900746
983,5182;0,0919485
984,4824;0,0937126
985,4467;0,0953575
986,4109;0,0968858
987,3751;0,0983085
988,3394;0,0996405
989,3036;0,100893
990,2678;0,102067
991,2321;0,103151
992,1963;0,10413
993,1605;0,104996
994,1248;0,105756
995,0890;0,106431
996,0532;0,107054
997,0175;0,107648
997,9817;0,108228
998,9459;0,108801
999,9102;0,109375
1000,8744;0,109966
1001,8386;0,110598
1002,8029;0,111293
1003,7671;0,112066
1004,7313;0,112924
1005,6956;0,113874
1006,6598;0,114927
1007,6240;0,1161
1008,5883;0,117407
1009,5525;0,118844
1010,5167;0,120382
1011,4810;0,121975
1012,4452;0,123567
1013,4094;0,125113
1014,3737;0,126579
1015,3379;0,127942
1016,3021;0,129181
1017,2664;0,130274
1018,2306;0,131196
1019,1948;0,131933
1020,1591;0,132487
1021,1233;0,13288
1022,0875;0,133152
1023,0518;0,133343
1024,0160;0,13349
1024,9802;0,133613
1025,9445;0,133718
1026,9087;0,133799
1027,8729;0,133839
1028,8372;0,133814
1029,8014;0,133695
1030,7656;0,133447
1031,7299;0,13304
1032,6941;0,132447
1033,6583;0,131659
1034,6226;0,130686
1035,5868;0,129565
1036,5510;0,128354
1037,5153;0,12713
1038,4795;0,12597
1039,4437;0,124937
1040,4080;0,124068
1041,3722;0,123366
1042,3364;0,122808
1043,3007;0,122353
1044,2649;0,121957
1045,2291;0,121587
1046,1934;0,12122
1047,1576;0,120841
1048,1218;0,120437
1049,0861;0,119991
1050,0503;0,119479
1051,0145;0,118878
1051,9788;0,11817
1052,9430;0,117353
1053,9072;0,116433
1054,8715;0,11542
1055,8357;0,11432
1056,7999;0,113126
1057,7642;0,11182
1058,7284;0,110381
1059,6926;0,108795
1060,6569;0,107068
1061,6211;0,105232
1062,5853;0,103343
1063,5496;0,101477
1064,5138;0,0997077
1065,4780;0,098096
1066,4423;0,0966743
1067,4065;0,0954441
1068,3707;0,0943818
1069,3350;0,0934485
1070,2992;0,0925999
1071,2634;0,0917918
1072,2277;0,0909829
1073,1919;0,090138
1074,1561;0,0892316
1075,1204;0,0882524
1076,0846;0,0872036
1077,0488;0,0860999
1078,0131;0,0849627
1078,9773;0,083817
1079,9415;0,0826906
1080,9058;0,081614
1081,8700;0,0806168
1082,8342;0,07972
1083,7985;0,0789284
1084,7627;0,078229
1085,7269;0,0775971
1086,6912;0,077009
1087,6554;0,0764542
1088,6196;0,0759389
1089,5839;0,0754816
1090,5481;0,0751031
1091,5123;0,0748164
1092,4766;0,0746223
1093,4408;0,0745112
1094,4050;0,0744666
1095,3693;0,07447
1096,3335;0,0745033
1097,2977;0,0745509
1098,2620;0,0746015
1099,2262;0,0746492
1100,1904;0,0746936
1101,1547;0,0747368
1102,1189;0,0747781
1103,0831;0,0748096
1104,0474;0,0748151
1105,0116;0,074775
1105,9758;0,074675
1106,9401;0,0745121
1107,9043;0,0742941
1108,8685;0,0740309
1109,8328;0,0737231
1110,7970;0,0733556
1111,7612;0,0729028
1112,7255;0,0723431
1113,6897;0,0716755
1114,6539;0,0709274
1115,6182;0,0701479
1116,5824;0,0693905
1117,5466;0,068693
1118,5109;0,0680653
1119,4751;0,06749
1120,4393;0,0669318
1121,4036;0,0663521
1122,3678;0,0657182
1123,3320;0,0650079
1124,2963;0,0642077
1125,2605;0,0633097
1126,2247;0,0623111
1127,1890;0,0612158
1128,1532;0,0600373
1129,1174;0,0587993
1130,0817;0,0575333
1131,0459;0,0562722
1132,0101;0,055045
1132,9744;0,0538749
1133,9386;0,0527815
1134,9028;0,0517854
1135,8671;0,0509114
1136,8313;0,0501859
1137,7955;0,0496296
1138,7598;0,0492503
1139,7240;0,0490384
1140,6882;0,0489714
1141,6525;0,0490221
1142,6167;0,0491682
1143,5809;0,0493963
1144,5452;0,0496991
1145,5094;0,0500687
1146,4736;0,0504909
1147,4379;0,0509449
1148,4021;0,051408
1149,3663;0,0518611
1150,3306;0,0522917
1151,2948;0,0526914
1152,2590;0,0530513
1153,2233;0,0533583
1154,1875;0,0535943
1155,1517;0,0537383
1156,1160;0,0537697
1157,0802;0,0536679
1158,0444;0,0534118
1159,0087;0,0529789
1159,9729;0,052347
1160,9371;0,0514981
1161,9014;0,0504241
1162,8656;0,0491312
1163,8298;0,0476429
1164,7941;0,0460009
1165,7583;0,0442636
1166,7225;0,0425006
1167,6868;0,0407832
1168,6510;0,0391712
1169,6152;0,0377026
1170,5795;0,0363899
1171,5437;0,035225
1172,5079;0,0341904
1173,4722;0,0332702
1174,4364;0,0324548
1175,4006;0,0317396
1176,3649;0,0311212
1177,3291;0,0305943
1178,2933;0,0301529
1179,2576;0,0297914
1180,2218;0,0295036
1181,1860;0,0292807
1182,1503;0,0291094
1183,1145;0,028975
1184,0787;0,0288675
1185,0430;0,0287874
1186,0072;0,0287458
1186,9714;0,0287581
1187,9357;0,0288348
1188,8999;0,0289766
1189,8641;0,0291748
1190,8284;0,0294189
1191,7926;0,0297017
1192,7568;0,0300215
1193,7211;0,0303777
1194,6853;0,0307661
1195,6495;0,0311774
1196,6138;0,0316001
1197,5780;0,0320266
1198,5422;0,0324563
1199,5065;0,0328549
1200,4707;0,033309
1201,4349;0,0337742
1202,3992;0,0342419
1203,3634;0,0346997
1204,3276;0,0351377
1205,2919;0,0355538
1206,2561;0,0359549
1207,2203;0,0363545
1208,1846;0,036768
1209,1488;0,0372093
1210,1130;0,0376888
1211,0773;0,0382136
1212,0415;0,0387879
1213,0057;0,0394129
1213,9700;0,040085
1214,9342;0,0407951
1215,8984;0,0415284
1216,8627;0,0422667
1217,8269;0,042992
1218,7911;0,0436916
1219,7554;0,0443601
1220,7196;0,044999
1221,6838;0,0456128
1222,6481;0,0462045
1223,6123;0,0467725
1224,5765;0,0473108
1225,5408;0,0478122
1226,5050;0,0482717
1227,4692;0,0486879
1228,4335;0,0490629
1229,3977;0,049399
1230,3619;0,0496968
1231,3262;0,0499549
1232,2904;0,0501713
1233,2546;0,0503452
1234,2189;0,0504782
1235,1831;0,0505742
1236,1473;0,0506381
1237,1116;0,0506743
1238,0758;0,0506857
1239,0400;0,0506717
1240,0043;0,0506291
1240,9685;0,0505524
1241,9327;0,0504374
1242,8970;0,0502828
1243,8612;0,0500915
1244,8254;0,0498686
1245,7897;0,049619
1246,7539;0,0493451
1247,7181;0,0490481
1248,6824;0,0487303
1249,6466;0,0483975
1250,6108;0,0480586
1251,5751;0,0477219
1252,5393;0,0473919
1253,5035;0,0470678
1254,4678;0,0467455
1255,4320;0,0464203
1256,3962;0,0460897
1257,3605;0,0457524
1258,3247;0,0454064
1259,2889;0,0450475
1260,2532;0,0446693
1261,2174;0,0442664
1262,1816;0,0438371
1263,1459;0,0433842
1264,1101;0,042914
1265,0743;0,0424336
1266,0386;0,0419481
1267,0028;0,0414597
1267,9670;0,0409673
1268,9313;0,0404679
1269,8955;0,0399584
1270,8597;0,0394376
1271,8240;0,0389067
1272,7882;0,03837
1273,7524;0,0378339
1274,7167;0,0373064
1275,6809;0,0367963
1276,6451;0,0363118
1277,6094;0,0358595
1278,5736;0,0354414
1279,5378;0,0350545
1280,5021;0,0346911
1281,4663;0,0343417
1282,4305;0,0339995
1283,3948;0,033663
1284,3590;0,033337
1285,3232;0,0330301
1286,2875;0,0327515
1287,2517;0,0325076
1288,2159;0,0323004
1289,1802;0,0321284
1290,1444;0,0319887
1291,1086;0,0318804
1292,0729;0,0318051
1293,0371;0,0317665
1294,0013;0,0317684
1294,9656;0,0318121
1295,9298;0,0318947
1296,8940;0,0320101
1297,8583;0,0321518
1298,8225;0,0323154
1299,7867;0,0325001
1300,7510;0,0327072
1301,7152;0,0329389
1302,6794;0,0331958
1303,6437;0,0334777
1304,6079;0,0337846
1305,5721;0,0341166
1306,5364;0,0344723
1307,5006;0,0348473
1308,4648;0,0352335
1309,4291;0,0356223
1310,3933;0,0360072
1311,3575;0,0363861
1312,3218;0,0367579
1313,2860;0,0371172
1314,2502;0,0374496
1315,2145;0,0377309
1316,1787;0,0379348
1317,1429;0,0380426
1318,1072;0,0380539
1319,0714;0,0379891
1320,0356;0,0378826
1320,9999;0,0377666
1321,9641;0,0376598
1322,9283;0,0375659
1323,8926;0,0374807
1324,8568;0,0374013
1325,8210;0,0373299
1326,7853;0,0372717
1327,7495;0,0372291
1328,7137;0,0371976
1329,6780;0,037166
1330,6422;0,0371208
1331,6064;0,0370515
1332,5707;0,0369536
1333,5349;0,0368267
1334,4991;0,0366697
1335,4634;0,0364759
1336,4276;0,0362331
1337,3918;0,0359301
1338,3561;0,0355711
1339,3203;0,0351859
1340,2845;0,0348223
1341,2488;0,0345196
1342,2130;0,034289
1343,1772;0,0341172
1344,1415;0,0339833
1345,1057;0,0338737
1346,0699;0,0337879
1347,0342;0,0337361
1347,9984;0,0337328
1348,9626;0,033788
1349,9269;0,0339017
1350,8911;0,0340637
1351,8553;0,0342588
1352,8196;0,0344753
1353,7838;0,0347117
1354,7480;0,0349774
1355,7123;0,0352856
1356,6765;0,0356427
1357,6407;0,036042
1358,6050;0,0364662
1359,5692;0,0368933
1360,5334;0,0373006
1361,4977;0,0376691
1362,4619;0,0379906
1363,4261;0,0382743
1364,3904;0,0385383
1365,3546;0,038794
1366,3188;0,0390392
1367,2831;0,039262
1368,2473;0,0394475
1369,2115;0,0395825
1370,1758;0,0396555
1371,1400;0,039654
1372,1042;0,0395636
1373,0685;0,0393731
1374,0327;0,0390878
1374,9969;0,0387342
1375,9612;0,0383449
1376,9254;0,037931
1377,8896;0,0374759
1378,8539;0,0369563
1379,8181;0,0363721
1380,7823;0,0357574
1381,7466;0,0351623
1382,7108;0,0346182
1383,6750;0,034115
1384,6393;0,0336112
1385,6035;0,0330677
1386,5677;0,0324902
1387,5320;0,0319448
1388,4962;0,0315155
1389,4604;0,0312375
1390,4247;0,0310815
1391,3889;0,0309883
1392,3531;0,0309061
1393,3174;0,0308063
1394,2816;0,0306843
1395,2458;0,0305543
1396,2101;0,0304394
1397,1743;0,0303627
1398,1385;0,0303418
1399,1028;0,0303864
1400,0670;0,0304942
1401,0313;0,030649
1401,9955;0,0308253
1402,9597;0,0309989
1403,9240;0,0311597
1404,8882;0,0313181
1405,8524;0,0314999
1406,8167;0,0317278
1407,7809;0,032005
1408,7451;0,0323164
1409,7094;0,0326434
1410,6736;0,0329767
1411,6378;0,0333194
1412,6021;0,0336792
1413,5663;0,0340572
1414,5305;0,0344431
1415,4948;0,0348177
1416,4590;0,0351563
1417,4232;0,0354315
1418,3875;0,0356271
1419,3517;0,0357599
1420,3159;0,0358655
1421,2802;0,0359548
1422,2444;0,0360035
1423,2086;0,035981
1424,1729;0,0358777
1425,1371;0,0357071
1426,1013;0,0354856
1427,0656;0,0352116
1428,0298;0,0348682
1428,9940;0,0344503
1429,9583;0,0339928
1430,9225;0,0335595
1431,8867;0,0331931
1432,8510;0,0328767
1433,8152;0,0325409
1434,7794;0,0321064
1435,7437;0,0315474
1436,7079;0,0309499
1437,6721;0,0304747
1438,6364;0,0302194
1439,6006;0,0301576
1440,5648;0,0302059
1441,5291;0,0302979
1442,4933;0,0304069
1443,4575;0,0305336
1444,4218;0,0306855
1445,3860;0,0308615
1446,3502;0,0310492
1447,3145;0,0312342
1448,2787;0,0314134
1449,2429;0,031599
1450,2072;0,0318066
1451,1714;0,032039
1452,1356;0,0322812
1453,0999;0,032505
1454,0641;0,0326692
1455,0283;0,0327061
1455,9926;0,0325226
1456,9568;0,0321108
1457,9210;0,0316953
1458,8853;0,0315285
1459,8495;0,0316133
1460,8137;0,0317986
1461,7780;0,0319335
1462,7422;0,0319037
1463,7064;0,031638
1464,6707;0,0311506
1465,6349;0,030568
1466,5991;0,0300416
1467,5634;0,0296246
1468,5276;0,0292578
1469,4918;0,0288289
1470,4561;0,0282123
1471,4203;0,0273013
1472,3845;0,0260921
1473,3488;0,0247767
1474,3130;0,0236402
1475,2772;0,0228171
1476,2415;0,0222548
1477,2057;0,021844
1478,1699;0,0215032
1479,1342;0,0211891
1480,0984;0,020888
1481,0626;0,0206099
1482,0269;0,0203823
1482,9911;0,0202352
1483,9553;0,0201803
1484,9196;0,0202007
1485,8838;0,0202535
1486,8480;0,0202832
1487,8123;0,0202463
1488,7765;0,0201578
1489,7407;0,0201138
1490,7050;0,0202181
1491,6692;0,020488
1492,6334;0,0208673
1493,5977;0,0212896
1494,5619;0,0217106
1495,5261;0,0221088
1496,4904;0,022483
1497,4546;0,0228578
1498,4188;0,0232784
1499,3831;0,0237715
1500,3473;0,0243155
1501,3115;0,024858
1502,2758;0,0253475
1503,2400;0,0257472
1504,2042;0,026024
1505,1685;0,0261145
1506,1327;0,0259054
1507,0969;0,0253869
1508,0612;0,0248489
1509,0254;0,0245622
1509,9896;0,0244988
1510,9539;0,0245187
1511,9181;0,0245187
1512,8823;0,0244436
1513,8466;0,0242672
1514,8108;0,0239855
1515,7750;0,0236193
1516,7393;0,0232068
1517,7035;0,0227781
1518,6677;0,0223351
1519,6320;0,0218633
1520,5962;0,0213714
1521,5604;0,0209172
1522,5247;0,0205729
1523,4889;0,0203655
1524,4531;0,0202675
1525,4174;0,02024
1526,3816;0,0202677
1527,3458;0,0203556
1528,3101;0,0205032
1529,2743;0,02069
1530,2385;0,020886
1531,2028;0,0210725
1532,1670;0,0212576
1533,1312;0,0214765
1534,0955;0,0217641
1535,0597;0,0221195
1536,0239;0,0225042
1536,9882;0,0228674
1537,9524;0,0231575
1538,9166;0,0232994
1539,8809;0,0231808
1540,8451;0,022785
1541,8093;0,0223469
1542,7736;0,0220924
1543,7378;0,0220135
1544,7020;0,0220166
1545,6663;0,0220452
1546,6305;0,022081
1547,5947;0,0221132
1548,5590;0,0221235
1549,5232;0,0220933
1550,4874;0,0220232
1551,4517;0,0219455
1552,4159;0,021908
1553,3801;0,0219383
1554,3444;0,0220187
1555,3086;0,0220835
1556,2728;0,0220169
1557,2371;0,021659
1558,2013;0,0209639
1559,1655;0,0202968
1560,1298;0,0201074
1561,0940;0,0203695
1562,0582;0,0208267
1563,0225;0,0213004
1563,9867;0,0217132
1564,9509;0,0220411
1565,9152;0,0222813
1566,8794;0,0224426
1567,8436;0,0225523
1568,8079;0,0226663
1569,7721;0,0228503
1570,7363;0,0231352
1571,7006;0,023497
1572,6648;0,0238839
1573,6290;0,0242468
1574,5933;0,0245493
1575,5575;0,0247725
1576,5217;0,0249354
1577,4860;0,0251001
1578,4502;0,0253162
1579,4144;0,0255787
1580,3787;0,0258537
1581,3429;0,0261158
1582,3071;0,0263616
1583,2714;0,0266062
1584,2356;0,0268705
1585,1998;0,0271676
1586,1641;0,027497
1587,1283;0,0278482
1588,0925;0,0282071
1589,0568;0,0285592
1590,0210;0,0288885
1590,9852;0,0291751
1591,9495;0,0293953
1592,9137;0,0295266
1593,8779;0,0295575
1594,8422;0,0294956
1595,8064;0,0293674
1596,7706;0,0292066
1597,7349;0,02904
1598,6991;0,0288812
1599,6633;0,0287324
1600,6276;0,0285916
1601,5918;0,0284596
1602,5560;0,0283429
1603,5203;0,0282504
1604,4845;0,0281866
1605,4487;0,028145
1606,4130;0,0281115
1607,3772;0,0280751
1608,3414;0,0280422
1609,3057;0,0280392
1610,2699;0,0280946
1611,2341;0,0282129
1612,1984;0,028368
1613,1626;0,0285161
1614,1268;0,0286157
1615,0911;0,0286489
1616,0553;0,0286481
1617,0195;0,028695
1617,9838;0,028853
1618,9480;0,0291072
1619,9122;0,029392
1620,8765;0,0296458
1621,8407;0,0298381
1622,8049;0,0299744
1623,7692;0,0300891
1624,7334;0,0302188
1625,6976;0,030374
1626,6619;0,0305395
1627,6261;0,030699
1628,5903;0,0308543
1629,5546;0,0310192
1630,5188;0,0311995
1631,4830;0,0313807
1632,4473;0,0315297
1633,4115;0,0316007
1634,3757;0,0315474
1635,3400;0,0313708
1636,3042;0,0311794
1637,2684;0,0311137
1638,2327;0,0312015
1639,1969;0,0313771
1640,1611;0,0315736
1641,1254;0,0317558
1642,0896;0,0319083
1643,0538;0,0320148
1644,0181;0,0320435
1644,9823;0,031953
1645,9465;0,0317436
1646,9108;0,0315173
1647,8750;0,0314106
1648,8392;0,031449
1649,8035;0,0315342
1650,7677;0,0315051
1651,7319;0,0311607
1652,6962;0,030374
1653,6604;0,0294148
1654,6246;0,028813
1655,5889;0,0286832
1656,5531;0,0287869
1657,5173;0,0289058
1658,4816;0,0289242
1659,4458;0,0287869
1660,4100;0,028474
1661,3743;0,0280178
1662,3385;0,0275257
1663,3027;0,027132
1664,2670;0,0268991
1665,2312;0,0267857
1666,1954;0,0266907
1667,1597;0,0265009
1668,1239;0,0261318
1669,0881;0,0255883
1670,0524;0,0249977
1671,0166;0,0245134
1671,9808;0,0241733
1672,9451;0,023895
1673,9093;0,0235768
1674,8735;0,0231866
1675,8378;0,0227934
1676,8020;0,0225112
1677,7662;0,0223995
1678,7305;0,0224259
1679,6947;0,0225015
1680,6589;0,0225129
1681,6232;0,0223251
1682,5874;0,0218063
1683,5516;0,0209713
1684,5159;0,0201139
1685,4801;0,0195555
1686,4443;0,0193301
1687,4086;0,0192873
1688,3728;0,0192931
1689,3370;0,0192905
1690,3013;0,0192784
1691,2655;0,0192751
1692,2297;0,0192914
1693,1940;0,0193199
1694,1582;0,0193374
1695,1224;0,0193101
1696,0867;0,0192017
1697,0509;0,0189871
1698,0151;0,018677
1698,9794;0,018342
1699,9436;0,0180979
1700,9078;0,0180357
1701,8721;0,0181617
1702,8363;0,0184096
1703,8005;0,0186939
1704,7648;0,0189525
1705,7290;0,0191668
1706,6932;0,0193633
1707,6575;0,0195919
1708,6217;0,0198909
1709,5859;0,0202679
1710,5502;0,0207061
1711,5144;0,021177
1712,4786;0,0216475
1713,4429;0,0220799
1714,4071;0,0224307
1715,3713;0,0226614
1716,3356;0,0227763
1717,2998;0,0228649
1718,2640;0,0230515
1719,2283;0,0233808
1720,1925;0,023808
1721,1567;0,0242661
1722,1210;0,0247068
1723,0852;0,025108
1724,0494;0,0254689
1725,0137;0,0258049
1725,9779;0,0261376
1726,9421;0,0264813
1727,9064;0,026833
1728,8706;0,0271696
1729,8348;0,027448
1730,7991;0,0276067
1731,7633;0,0275756
1732,7275;0,0273232
1733,6918;0,0269306
1734,6560;0,0265685
1735,6202;0,0263392
1736,5845;0,0262028
1737,5487;0,0260511
1738,5129;0,0257929
1739,4772;0,0253934
1740,4414;0,0248855
1741,4056;0,0243451
1742,3699;0,0238368
1743,3341;0,0233739
1744,2983;0,0229296
1745,2626;0,0224668
1746,2268;0,0219491
1747,1910;0,0213324
1748,1553;0,0205701
1749,1195;0,0196597
1750,0837;0,0186961
1751,0480;0,0178327
1752,0122;0,0171646
1752,9764;0,0166753
1753,9407;0,016282
1754,9049;0,0159035
1755,8691;0,0154999
1756,8334;0,0150766
1757,7976;0,0146581
1758,7618;0,0142524
1759,7261;0,0138417
1760,6903;0,0134101
1761,6545;0,0129801
1762,6188;0,0126121
1763,5830;0,0123593
1764,5472;0,0122271
1765,5115;0,0121737
1766,4757;0,0121401
1767,4399;0,0120749
1768,4042;0,0119422
1769,3684;0,0117179
1770,3326;0,0113906
1771,2969;0,010983
1772,2611;0,0105756
1773,2253;0,0102801
1774,1896;0,0101602
1775,1538;0,0101937
1776,1180;0,0103054
1777,0823;0,0104155
1778,0465;0,0104681
1779,0107;0,0104428
1779,9750;0,0103542
1780,9392;0,0102362
1781,9034;0,0101179
1782,8677;0,0100118
1783,8319;0,00992474
1784,7961;0,00987321
1785,7604;0,00988174
1786,7246;0,00996378
1787,6888;0,0101047
1788,6531;0,0102596
1789,6173;0,0103625
1790,5815;0,0103484
1791,5458;0,0101956
1792,5100;0,00996666
1793,4742;0,00977807
1794,4385;0,00970439
1795,4027;0,00973592
1796,3669;0,00981526
1797,3312;0,0098833
1798,2954;0,00990192
1799,2596;0,00986185
1800,2239;0,00978211
1801,1881;0,00969821
1802,1523;0,00964206
1803,1166;0,00962873
1804,0808;0,00965746
1805,0450;0,00971846
1806,0093;0,00979627
1806,9735;0,00986955
1807,9377;0,00991252
1808,9020;0,00990292
1809,8662;0,00983571
1810,8304;0,00973185
1811,7947;0,0096295
1812,7589;0,00956095
1813,7231;0,00953608
1814,6874;0,00954435
1815,6516;0,00956878
1816,6158;0,0095998
1817,5801;0,00964101
1818,5443;0,00970328
1819,5085;0,00979153
1820,4728;0,00989558
1821,4370;0,00999288
1822,4012;0,0100602
1823,3655;0,0100865
1824,3297;0,0100788
1825,2939;0,0100536
1826,2582;0,0100193
1827,2224;0,00996595
1828,1866;0,00987521
1829,1509;0,00974525
1830,1151;0,00960842
1831,0793;0,00951567
1832,0436;0,00949649
1833,0078;0,00953826
1833,9720;0,00960172
1834,9363;0,00964991
1835,9005;0,00967031
1836,8647;0,00968181
1837,8290;0,00972022
1838,7932;0,00980937
1839,7574;0,00994134
1840,7217;0,0100788
1841,6859;0,0101702
1842,6501;0,0101702
1843,6144;0,0100676
1844,5786;0,00990659
1845,5428;0,00976236
1846,5071;0,00968475
1847,4713;0,00967231
1848,4355;0,00969381
1849,3998;0,00971821
1850,3640;0,00972982
1851,3282;0,00972915
1852,2925;0,00972575
1853,2567;0,00972967
1854,2209;0,00974656
1855,1852;0,00977735
1856,1494;0,00981938
1857,1136;0,00986649
1858,0779;0,00990899
1859,0421;0,00993678
1860,0063;0,00994635
1860,9706;0,00994697
1861,9348;0,00995892
1862,8990;0,0100023
1863,8633;0,0100836
1864,8275;0,0101878
1865,7917;0,0102809
1866,7560;0,0103214
1867,7202;0,0102837
1868,6844;0,0101832
1869,6487;0,0100693
1870,6129;0,00998495
1871,5771;0,00993681
1872,5414;0,00990494
1873,5056;0,00986954
1874,4698;0,0098285
1875,4341;0,0097981
1876,3983;0,00979896
1877,3625;0,00983675
1878,3268;0,00989356
1879,2910;0,00993794
1880,2552;0,0099465
1881,2195;0,00992071
1882,1837;0,00988751
1883,1479;0,00988223
1884,1122;0,00992545
1885,0764;0,0100098
1886,0406;0,0101049
1887,0049;0,0101757
1887,9691;0,0102023
1888,9333;0,0101919
1889,8976;0,0101723
1890,8618;0,01017
1891,8260;0,0101906
1892,7903;0,0102182
1893,7545;0,0102309
1894,7188;0,010219
1895,6830;0,0101927
1896,6472;0,0101749
1897,6115;0,0101834
1898,5757;0,0102175
1899,5399;0,0102575
1900,5042;0,010278
1901,4684;0,0102632
1902,4326;0,0102177
1903,3969;0,0101651
1904,3611;0,010136
1905,3253;0,0101524
1906,2896;0,0102178
1907,2538;0,0103156
1908,2180;0,0104166
1909,1823;0,0104931
1910,1465;0,0105316
1911,1107;0,0105372
1912,0750;0,010525
1913,0392;0,0105071
1914,0034;0,010487
1914,9677;0,0104628
1915,9319;0,0104354
1916,8961;0,0104133
1917,8604;0,0104099
1918,8246;0,0104334
1919,7888;0,0104791
1920,7531;0,0105336
1921,7173;0,0105838
1922,6815;0,010624
1923,6458;0,0106547
1924,6100;0,0106756
1925,5742;0,0106815
1926,5385;0,0106655
1927,5027;0,0106285
1928,4669;0,0105848
1929,4312;0,0105583
1930,3954;0,0105697
1931,3596;0,0106229
1932,3239;0,0107021
1933,2881;0,0107845
1934,2523;0,0108565
1935,2166;0,0109213
1936,1808;0,0109916
1937,1450;0,0110749
1938,1093;0,011164
1939,0735;0,0112389
1940,0377;0,0112787
1941,0020;0,0112726
1941,9662;0,0112247
1942,9304;0,011149
1943,8947;0,0110605
1944,8589;0,0109721
1945,8231;0,0109005
1946,7874;0,0108715
1947,7516;0,0109138
1948,7158;0,01104
1949,6801;0,0112289
1950,6443;0,0114242
1951,6085;0,0115598
1952,5728;0,0115961
1953,5370;0,0115442
1954,5012;0,0114594
1955,4655;0,0114086
1956,4297;0,0114344
1957,3939;0,0115377
1958,3582;0,0116873
1959,3224;0,0118433
1960,2866;0,0119781
1961,2509;0,0120838
1962,2151;0,0121711
1963,1793;0,0122649
1964,1436;0,0123994
1965,1078;0,0126058
1966,0720;0,012887
1967,0363;0,0131939
1968,0005;0,0134296
1968,9647;0,0134931
1969,9290;0,013338
1970,8932;0,0130022
1971,8574;0,0125914
1972,8217;0,012231
1973,7859;0,0120111
1974,7501;0,0119541
1975,7144;0,0120215
1976,6786;0,0121531
1977,6428;0,0123093
1978,6071;0,0124834
1979,5713;0,0126825
1980,5355;0,012899
1981,4998;0,0130997
1982,4640;0,0132347
1983,4282;0,0132565
1984,3925;0,0131406
1985,3567;0,0129004
1986,3209;0,0125893
1987,2852;0,0122893
1988,2494;0,0120905
1989,2136;0,0120659
1990,1779;0,0122472
1991,1421;0,0126046
1992,1063;0,0130466
1993,0706;0,013451
1994,0348;0,0137166
1994,9990;0,0138049
1995,9633;0,0137505
1996,9275;0,0136381
1997,8917;0,0135599
1998,8560;0,0135702
1999,8202;0,0136594
2000,7844;0,0137687
2001,7487;0,0138354
2002,7129;0,0138414
2003,6771;0,0138282
2004,6414;0,0138717
2005,6056;0,0140294
2006,5698;0,0142941
2007,5341;0,0145873
2008,4983;0,0147976
2009,4625;0,0148361
2010,4268;0,0146719
2011,3910;0,0143384
2012,3552;0,0139223
2013,3195;0,0135485
2014,2837;0,0133561
2015,2479;0,0134536
2016,2122;0,0138606
2017,1764;0,0144713
2018,1406;0,0150862
2019,1049;0,0155074
2020,0691;0,0156403
2021,0333;0,0155324
2021,9976;0,0153304
2022,9618;0,0151904
2023,9260;0,0151939
2024,8903;0,0153191
2025,8545;0,0154776
2026,8187;0,0155852
2027,7830;0,0156112
2028,7472;0,0155777
2029,7114;0,0155218
2030,6757;0,0154602
2031,6399;0,0153865
2032,6041;0,0152943
2033,5684;0,0151987
2034,5326;0,0151314
2035,4968;0,0151135
2036,4611;0,0151336
2037,4253;0,0151532
2038,3895;0,0151309
2039,3538;0,0150442
2040,3180;0,0148924
2041,2822;0,0146854
2042,2465;0,0144344
2043,2107;0,0141574
2044,1749;0,0138953
2045,1392;0,0137153
2046,1034;0,0136867
2047,0676;0,0138334
2048,0320;0,0140999
2048,9961;0,0143671
2049,9604;0,0145169
2050,9246;0,0144943
2051,8889;0,0143245
2052,8530;0,0140832
2053,8174;0,0138479
2054,7815;0,0136595
2055,7458;0,0135144
2056,7100;0,013388
2057,6743;0,0132688
2058,6384;0,013177
2059,6028;0,0131525
2060,5669;0,0132241
2061,5313;0,0133823
2062,4954;0,0135754
2063,4597;0,0137302
2064,4238;0,013784
2065,3882;0,0137094
2066,3523;0,0135228
2067,3167;0,0132751
2068,2808;0,0130338
2069,2451;0,0128629
2070,2092;0,0128045
2071,1736;0,0128648
2072,1377;0,0130106
2073,1021;0,0131815
2074,0662;0,0133154
2075,0305;0,0133737
2075,9946;0,0133515
2076,9590;0,0132684
2077,9231;0,0131491
2078,8875;0,0130111
2079,8516;0,0128663
2080,8159;0,012733
2081,7800;0,0126417
2082,7444;0,0126251
2083,7085;0,0126966
2084,6729;0,0128336
2085,6370;0,0129802
2086,6013;0,0130716
2087,5654;0,0130666
2088,5298;0,0129669
2089,4939;0,0128137
2090,4583;0,0126641
2091,4224;0,0125656
2092,3867;0,0125405
2093,3508;0,0125869
2094,3152;0,0126867
2095,2793;0,0128132
2096,2437;0,0129354
2097,2078;0,0130221
2098,1721;0,0130508
2099,1362;0,0130197
2100,1006;0,0129541
2101,0647;0,0129008
2102,0291;0,0129083
2102,9932;0,0130018
2103,9575;0,013164
2104,9216;0,0133363
2105,8860;0,0134422
2106,8501;0,0134235
2107,8145;0,0132719
2108,7786;0,0130384
2109,7429;0,0128115
2110,7070;0,0126753
2111,6714;0,0126676
2112,6355;0,0127624
2113,5999;0,0128877
2114,5640;0,0129664
2115,5283;0,0129576
2116,4924;0,0128732
2117,4568;0,0127633
2118,4209;0,0126819
2119,3853;0,012654
2120,3494;0,0126655
2121,3137;0,0126775
2122,2778;0,0126549
2123,2422;0,0125909
2124,2063;0,0125134
2125,1707;0,0124707
2126,1348;0,0125077
2127,0991;0,0126435
2128,0632;0,0128606
2129,0276;0,0131104
2129,9917;0,0133317
2130,9561;0,0134768
2131,9202;0,0135333
2132,8845;0,0135319
2133,8486;0,0135307
2134,8130;0,0135804
2135,7771;0,0136887
2136,7415;0,0138112
2137,7056;0,0138793
2138,6699;0,0138467
2139,6340;0,0137232
2140,5984;0,0135707
2141,5625;0,0134663
2142,5269;0,0134599
2143,4910;0,0135551
2144,4553;0,0137256
2145,4194;0,0139491
2146,3838;0,0142286
2147,3479;0,0145822
2148,3123;0,0150097
2149,2764;0,0154666
2150,2407;0,0158691
2151,2048;0,0161326
2152,1692;0,016217
2153,1333;0,0161536
2154,0977;0,0160369
2155,0618;0,0159899
2156,0261;0,0161173
2156,9902;0,0164587
2157,9546;0,0169577
2158,9187;0,0174749
2159,8831;0,0178565
2160,8472;0,0180152
2161,8115;0,0179582
2162,7756;0,017754
2163,7400;0,017481
2164,7041;0,0171926
2165,6685;0,0169119
2166,6326;0,0166471
2167,5969;0,0164139
2168,5610;0,0162442
2169,5254;0,0161722
2170,4895;0,0162055
2171,4539;0,0163024
2172,4180;0,016374
2173,3823;0,0163206
2174,3464;0,016084
2175,3108;0,0156877
2176,2749;0,0152321
2177,2393;0,014845
2178,2034;0,0146166
2179,1677;0,0145614
2180,1318;0,014626
2181,0962;0,0147343
2182,0603;0,0148379
2183,0247;0,0149373
2183,9888;0,015059
2184,9531;0,0152109
2185,9172;0,0153526
2186,8816;0,0154054
2187,8457;0,0152971
2188,8101;0,0150082
2189,7742;0,0145928
2190,7385;0,0141591
2191,7026;0,0138242
2192,6670;0,0136676
2193,6311;0,0137045
2194,5955;0,0138871
2195,5596;0,0141272
2196,5239;0,0143288
2197,4880;0,0144205
2198,4524;0,0143776
2199,4165;0,0142291
2200,3809;0,0140423
2201,3450;0,0138913
2202,3093;0,0138211
2203,2734;0,0138266
2204,2378;0,0138604
2205,2019;0,0138649
2206,1663;0,0138119
2207,1304;0,0137245
2208,0947;0,0136649
2209,0588;0,0136961
2210,0232;0,0138392
2210,9873;0,0140541
2211,9517;0,014257
2212,9158;0,0143647
2213,8801;0,0143379
2214,8442;0,0141972
2215,8086;0,0140042
2216,7727;0,0138229
2217,7371;0,0136879
2218,7012;0,0135983
2219,6655;0,0135359
2220,6296;0,0134881
2221,5940;0,0134575
2222,5581;0,0134533
2223,5225;0,0134757
2224,4866;0,0135098
2225,4509;0,013535
2226,4150;0,01354
2227,3794;0,01353
2228,3435;0,0135186
2229,3079;0,0135112
2230,2720;0,0134945
2231,2363;0,0134444
2232,2004;0,0133452
2233,1648;0,0132077
2234,1289;0,0130707
2235,0933;0,0129827
2236,0574;0,0129755
2237,0217;0,0130465
2237,9858;0,0131602
2238,9502;0,0132659
2239,9143;0,013322
2240,8787;0,0133113
2241,8428;0,0132425
2242,8071;0,0131395
2243,7712;0,0130281
2244,7356;0,0129258
2245,6997;0,0128412
2246,6641;0,0127769
2247,6282;0,0127354
2248,5925;0,0127209
2249,5566;0,0127377
2250,5210;0,0127858
2251,4851;0,0128576
2252,4495;0,0129369
2253,4136;0,0130038
2254,3779;0,0130429
2255,3420;0,0130501
2256,3064;0,0130331
2257,2705;0,0130039
2258,2349;0,0129677
2259,1990;0,0129172
2260,1633;0,0128378
2261,1274;0,0127222
2262,0918;0,0125838
2263,0559;0,0124584
2264,0203;0,0123888
2264,9844;0,0124024
2265,9487;0,0124947
2266,9128;0,012631
2267,8772;0,0127646
2268,8413;0,0128586
2269,8057;0,0128976
2270,7698;0,0128853
2271,7341;0,0128336
2272,6982;0,0127546
2273,6626;0,0126591
2274,6267;0,0125591
2275,5911;0,0124684
2276,5552;0,0123979
2277,5195;0,012351
2278,4836;0,0123225
2279,4480;0,0123049
2280,4121;0,0122958
2281,3765;0,0123006
2282,3406;0,0123275
2283,3049;0,0123794
2284,2690;0,0124489
2285,2334;0,0125201
2286,1975;0,0125763
2287,1619;0,0126083
2288,1260;0,0126169
2289,0903;0,0126108
2290,0544;0,012601
2291,0188;0,0125977
2291,9829;0,012608
2292,9473;0,0126363
2293,9114;0,0126824
2294,8757;0,0127387
2295,8398;0,0127906
2296,8042;0,0128208
2297,7683;0,0128192
2298,7327;0,0127915
2299,6968;0,0127603
2300,6611;0,0127559
2301,6252;0,0127996
2302,5896;0,0128909
2303,5537;0,0130065
2304,5181;0,0131126
2305,4822;0,0131824
2306,4465;0,0132091
2307,4106;0,013205
2308,3750;0,0131898
2309,3391;0,013177
2310,3035;0,0131675
2311,2676;0,0131561
2312,2319;0,0131423
2313,1960;0,0131347
2314,1604;0,0131444
2315,1245;0,0131742
2316,0889;0,0132145
2317,0530;0,0132495
2318,0173;0,01327
2318,9814;0,0132818
2319,9458;0,0133014
2320,9099;0,0133407
2321,8743;0,0133922
2322,8384;0,0134303
2323,8027;0,0134271
2324,7668;0,0133703
2325,7312;0,0132687
2326,6953;0,0131464
2327,6597;0,0130313
2328,6238;0,0129448
2329,5881;0,0128962
2330,5522;0,012886
2331,5166;0,0129105
2332,4807;0,0129627
2333,4451;0,0130272
2334,4092;0,0130787
2335,3735;0,0130921
2336,3376;0,0130586
2337,3020;0,0129986
2338,2661;0,012955
2339,2305;0,0129638
2340,1946;0,0130161
2341,1589;0,0130433
2342,1230;0,0129478
2343,0874;0,0126882
2344,0515;0,0123593
2345,0159;0,0121523
2345,9800;0,0121988
2346,9443;0,0124813
2347,9084;0,0128844
2348,8728;0,0132841
2349,8369;0,0135966
2350,8013;0,0137853
2351,7654;0,0138474
2352,7297;0,0138012
2353,6938;0,0136893
2354,6582;0,0135888
2355,6223;0,0135888
2356,5867;0,0137305
2357,5508;0,0139633
2358,5151;0,0141668
2359,4792;0,0142264
2360,4436;0,014106
2361,4077;0,0138542
2362,3721;0,0135483
2363,3362;0,0132366
2364,3005;0,0129251
2365,2646;0,0126048
2366,2290;0,0122851
2367,1931;0,0120015
2368,1575;0,0117975
2369,1216;0,0116959
2370,0859;0,0116838
2371,0500;0,0117195
2372,0144;0,0117565
2372,9785;0,0117668
2373,9429;0,0117507
2374,9070;0,0117286
2375,8713;0,0117245
2376,8354;0,0117513
2377,7998;0,0118059
2378,7639;0,0118743
2379,7283;0,0119411
2380,6924;0,0119978
2381,6567;0,0120442
2382,6208;0,0120859
2383,5852;0,0121277
2384,5493;0,0121703
2385,5137;0,0122091
2386,4778;0,012238
2387,4421;0,0122538
2388,4063;0,0122595
2389,3706;0,0122629
2390,3347;0,0122728
2391,2991;0,0122929
2392,2632;0,0123196
2393,2275;0,0123442
2394,1917;0,0123583
2395,1560;0,0123594
2396,1201;0,0123526
2397,0845;0,0123478
2398,0486;0,0123537
2399,0129;0,0123722
2399,9771;0,0123976
2400,9414;0,0124192
2401,9055;0,0124284
2402,8699;0,0124242
2403,8340;0,0124147
2404,7983;0,0124134
2405,7625;0,0124311
2406,7268;0,0124697
2407,6909;0,0125205
2408,6553;0,0125689
2409,6194;0,0126017
2410,5837;0,0126133
2411,5479;0,0126065
2412,5122;0,0125896
2413,4763;0,0125721
2414,4407;0,0125624
2415,4048;0,0125659
2416,3691;0,0125851
2417,3333;0,0126177
2418,2976;0,0126566
2419,2617;0,0126922
2420,2261;0,0127169
2421,1902;0,0127302
2422,1545;0,0127397
2423,1187;0,0127552
2424,0830;0,012782
2425,0471;0,0128152
2426,0115;0,0128434
2426,9756;0,0128559
2427,9399;0,0128518
2428,9041;0,0128411
2429,8684;0,0128391
2430,8325;0,0128564
2431,7969;0,0128929
2432,7610;0,0129391
2433,7253;0,0129824
2434,6895;0,0130145
2435,6538;0,013034
2436,6179;0,0130436
2437,5823;0,0130462
2438,5464;0,0130434
2439,5107;0,0130368
2440,4749;0,0130319
2441,4392;0,0130384
2442,4033;0,0130663
2443,3677;0,0131196
2444,3318;0,0131909
2445,2961;0,0132624
2446,2603;0,0133128
2447,2246;0,0133276
2448,1887;0,0133076
2449,1531;0,0132689
2450,1172;0,0132361
2451,0815;0,0132294
2452,0457;0,0132543
2453,0100;0,0132985
2453,9741;0,0133391
2454,9385;0,013355
2455,9026;0,0133391
2456,8669;0,013302
2457,8311;0,0132656
2458,7954;0,0132507
2459,7595;0,0132666
2460,7239;0,0133077
2461,6880;0,0133587
2462,6523;0,0134045
2463,6165;0,0134372
2464,5808;0,0134572
2465,5449;0,0134691
2466,5093;0,0134763
2467,4734;0,0134786
2468,4377;0,0134737
2469,4019;0,0134606
2470,3662;0,0134421
2471,3303;0,0134242
2472,2947;0,013414
2473,2588;0,0134169
2474,2231;0,0134348
2475,1873;0,0134665
2476,1516;0,0135073
2477,1157;0,0135507
2478,0801;0,0135905
2479,0442;0,0136215
2480,0085;0,0136409
2480,9727;0,0136475
2481,9370;0,0136411
2482,9011;0,0136218
2483,8655;0,0135919
2484,8296;0,0135577
2485,7939;0,0135289
2486,7581;0,0135165
2487,7224;0,0135273
2488,6865;0,0135603
2489,6509;0,0136067
2490,6150;0,013654
2491,5793;0,0136919
2492,5435;0,0137158
2493,5078;0,0137268
2494,4719;0,0137282
2495,4363;0,0137227
2496,4004;0,0137114
2497,3647;0,0136954
2498,3289;0,0136785
2499,2932;0,0136663
2500,2573;0,0136643
2501,2217;0,0136745
2502,1858;0,0136935
2503,1501;0,0137148
2504,1143;0,0137322
2505,0786;0,0137436
2506,0427;0,0137507
2507,0071;0,0137572
2507,9712;0,0137646
2508,9355;0,0137718
2509,8997;0,0137769
2510,8640;0,0137806
2511,8281;0,0137879
2512,7925;0,0138055
2513,7566;0,0138375
2514,7209;0,013881
2515,6851;0,0139276
2516,6494;0,0139673
2517,6135;0,0139946
2518,5779;0,0140096
2519,5420;0,0140157
2520,5063;0,0140148
2521,4705;0,0140054
2522,4348;0,0139842
2523,3989;0,0139512
2524,3633;0,0139129
2525,3274;0,0138808
2526,2917;0,0138664
2527,2559;0,013876
2528,2202;0,0139082
2529,1843;0,0139559
2530,1487;0,0140112
2531,1128;0,014068
2532,0771;0,0141225
2533,0413;0,0141707
2534,0056;0,0142076
2534,9697;0,0142269
2535,9341;0,014225
2536,8982;0,0142034
2537,8625;0,0141694
2538,8267;0,0141326
2539,7910;0,0141
2540,7551;0,0140725
2541,7195;0,0140458
2542,6836;0,014016
2543,6479;0,0139852
2544,6121;0,0139628
2545,5764;0,0139606
2546,5405;0,0139841
2547,5049;0,0140271
2548,4690;0,0140728
2549,4333;0,0141032
2550,3975;0,014109
2551,3618;0,0140953
2552,3259;0,0140774
2553,2903;0,014071
2554,2544;0,0140822
2555,2188;0,0141041
2556,1829;0,0141219
2557,1472;0,0141219
2558,1113;0,0140997
2559,0757;0,0140624
2560,0398;0,0140249
2561,0042;0,0140014
2561,9683;0,0139983
2562,9326;0,0140114
2563,8967;0,0140282
2564,8611;0,0140354
2565,8252;0,0140264
2566,7896;0,0140056
2567,7537;0,0139864
2568,7180;0,0139837
2569,6821;0,0140041
2570,6465;0,0140408
2571,6106;0,0140757
2572,5750;0,0140894
2573,5391;0,0140734
2574,5034;0,0140363
2575,4675;0,0140013
2576,4319;0,0139935
2577,3960;0,0140263
2578,3604;0,0140933
2579,3245;0,0141716
2580,2888;0,0142336
2581,2529;0,0142605
2582,2173;0,0142504
2583,1814;0,0142169
2584,1458;0,014181
2585,1099;0,0141615
2586,0742;0,0141689
2587,0383;0,0142032
2588,0027;0,0142563
2588,9668;0,0143152
2589,9312;0,014366
2590,8953;0,0143982
2591,8596;0,0144074
2592,8237;0,0143964
2593,7881;0,0143736
2594,7522;0,0143487
2595,7166;0,0143296
2596,6807;0,0143209
2597,6450;0,0143233
2598,6091;0,0143358
2599,5735;0,0143552
2600,5376;0,0143774
2601,5020;0,0143972
2602,4661;0,0144102
2603,4304;0,0144147
2604,3945;0,0144127
2605,3589;0,0144097
2606,3230;0,0144128
2607,2874;0,0144283
2608,2515;0,0144594
2609,2158;0,014504
2610,1799;0,014554
2611,1443;0,0145968
2612,1084;0,0146193
2613,0728;0,0146149
2614,0369;0,0145873
2615,0012;0,0145507
2615,9653;0,0145232
2616,9297;0,0145176
2617,8938;0,0145353
2618,8582;0,0145669
2619,8223;0,0145984
2620,7866;0,0146194
2621,7507;0,0146274
2622,7151;0,0146266
2623,6792;0,0146237
2624,6436;0,0146243
2625,6077;0,0146312
2626,5720;0,014645
2627,5361;0,0146658
2628,5005;0,0146921
2629,4646;0,0147213
2630,4290;0,0147489
2631,3931;0,0147708
2632,3574;0,0147849
2633,3215;0,014792
2634,2859;0,0147954
2635,2500;0,0147986
2636,2144;0,0148034
2637,1785;0,0148095
2638,1428;0,0148153
2639,1069;0,0148195
2640,0713;0,0148229
2641,0354;0,0148277
2641,9998;0,0148368
2642,9639;0,0148514
2643,9282;0,0148704
2644,8923;0,0148904
2645,8567;0,0149077
2646,8208;0,014921
2647,7852;0,0149317
2648,7493;0,0149429
2649,7136;0,0149577
2650,6777;0,0149766
2651,6421;0,0149973
2652,6062;0,0150162
2653,5706;0,0150297
2654,5347;0,0150363
2655,4990;0,0150368
2656,4631;0,0150337
2657,4275;0,0150309
2658,3916;0,0150318
2659,3560;0,0150387
2660,3201;0,0150513
2661,2844;0,0150666
2662,2485;0,01508
2663,2129;0,0150876
2664,1770;0,0150885
2665,1414;0,0150857
2666,1055;0,015084
2667,0698;0,0150872
2668,0339;0,0150961
2668,9983;0,0151084
2669,9624;0,0151214
2670,9268;0,0151342
2671,8909;0,0151485
2672,8552;0,0151669
2673,8193;0,0151899
2674,7837;0,0152148
2675,7478;0,0152362
2676,7122;0,0152494
2677,6763;0,0152535
2678,6406;0,0152519
2679,6047;0,0152512
2680,5691;0,0152581
2681,5332;0,0152761
2682,4976;0,0153048
2683,4617;0,0153401
2684,4260;0,0153758
2685,3901;0,0154066
2686,3545;0,0154292
2687,3186;0,0154437
2688,2830;0,0154526
2689,2471;0,0154596
2690,2114;0,0154672
2691,1755;0,0154759
2692,1399;0,0154849
2693,1040;0,0154933
2694,0684;0,0155015
2695,0325;0,0155113
2695,9968;0,0155249
2696,9609;0,0155429
2697,9253;0,0155643
2698,8894;0,0155874
2699,8538;0,0156106
2700,8179;0,0156337
2701,7822;0,0156571
2702,7463;0,015681
2703,7107;0,0157048
2704,6748;0,0157271
2705,6392;0,0157473
2706,6033;0,0157657
2707,5676;0,0157842
2708,5317;0,0158043
2709,4961;0,015827
2710,4602;0,015852
2711,4246;0,0158779
2712,3887;0,0159027
2713,3530;0,0159244
2714,3171;0,0159412
2715,2815;0,0159522
2716,2456;0,0159586
2717,2100;0,0159638
2718,1741;0,0159721
2719,1384;0,0159869
2720,1025;0,0160082
2721,0669;0,0160316
2722,0310;0,0160505
2722,9954;0,0160596
2723,9595;0,0160583
2724,9238;0,0160519
2725,8879;0,0160496
2726,8523;0,0160594
2727,8164;0,016084
2728,7808;0,0161203
2729,7449;0,016161
2730,7092;0,0161995
2731,6733;0,0162322
2732,6377;0,0162585
2733,6018;0,0162789
2734,5662;0,0162923
2735,5303;0,0162964
2736,4946;0,0162904
2737,4587;0,0162773
2738,4231;0,016264
2739,3872;0,0162587
2740,3516;0,0162666
2741,3157;0,0162878
2742,2800;0,016318
2743,2441;0,016351
2744,2085;0,0163822
2745,1726;0,0164087
2746,1370;0,0164292
2747,1011;0,0164434
2748,0654;0,0164526
2749,0295;0,0164598
2749,9939;0,0164695
2750,9580;0,0164849
2751,9224;0,0165058
2752,8865;0,0165284
2753,8508;0,0165478
2754,8149;0,0165621
2755,7793;0,0165739
2756,7434;0,0165884
2757,7078;0,016609
2758,6719;0,016635
2759,6362;0,0166613
2760,6003;0,0166823
2761,5647;0,0166946
2762,5288;0,0166987
2763,4932;0,0166975
2764,4573;0,0166951
2765,4216;0,0166961
2766,3857;0,016706
2767,3501;0,0167297
2768,3142;0,0167687
2769,2786;0,0168177
2770,2427;0,0168653
2771,2070;0,0168985
2772,1711;0,0169108
2773,1355;0,0169064
2774,0996;0,0168983
2775,0640;0,0169011
2776,0281;0,0169223
2776,9924;0,0169589
2777,9565;0,0170003
2778,9209;0,0170363
2779,8850;0,0170626
2780,8494;0,017082
2781,8135;0,0171017
2782,7778;0,0171278
2783,7419;0,0171623
2784,7063;0,0172025
2785,6704;0,0172424
2786,6348;0,0172755
2787,5989;0,0172976
2788,5632;0,0173086
2789,5273;0,0173143
2790,4917;0,0173243
2791,4558;0,0173484
2792,4202;0,0173913
2793,3843;0,0174504
2794,3486;0,0175168
2795,3127;0,0175798
2796,2771;0,017632
2797,2412;0,0176721
2798,2056;0,017704
2799,1697;0,0177336
2800,1340;0,0177663
2801,0981;0,017806
2802,0625;0,0178549
2803,0266;0,0179136
2803,9910;0,01798
2804,9551;0,0180497
2805,9194;0,0181173
2806,8835;0,0181788
2807,8479;0,0182351
2808,8120;0,018291
2809,7764;0,0183527
2810,7405;0,0184236
2811,7048;0,0185017
2812,6689;0,0185809
2813,6333;0,0186551
2814,5974;0,0187219
2815,5618;0,0187836
2816,5259;0,0188452
2817,4902;0,0189107
2818,4543;0,0189814
2819,4187;0,0190563
2820,3828;0,0191343
2821,3472;0,0192163
2822,3113;0,0193046
2823,2756;0,0194016
2824,2397;0,019507
2825,2041;0,019618
2826,1682;0,0197306
2827,1326;0,0198421
2828,0967;0,0199526
2829,0610;0,0200647
2830,0251;0,0201823
2830,9895;0,020309
2831,9536;0,0204469
2832,9180;0,0205969
2833,8821;0,0207584
2834,8464;0,0209304
2835,8105;0,0211121
2836,7749;0,0213049
2837,7390;0,0215134
2838,7034;0,0217462
2839,6675;0,0220142
2840,6318;0,0223284
2841,5959;0,0226965
2842,5603;0,0231201
2843,5244;0,0235918
2844,4888;0,0240931
2845,4529;0,0245936
2846,4172;0,0250524
2847,3813;0,0254244
2848,3457;0,0256704
2849,3098;0,0257682
2850,2742;0,0257207
2851,2383;0,0255552
2852,2026;0,025315
2853,1667;0,0250466
2854,1311;0,0247882
2855,0952;0,0245638
2856,0596;0,0243842
2857,0237;0,0242519
2857,9880;0,0241658
2858,9521;0,0241224
2859,9165;0,0241154
2860,8806;0,024135
2861,8450;0,0241701
2862,8091;0,0242113
2863,7734;0,0242543
2864,7375;0,0243005
2865,7019;0,0243541
2866,6660;0,0244182
2867,6304;0,0244924
2868,5945;0,0245727
2869,5588;0,0246543
2870,5229;0,0247335
2871,4873;0,0248086
2872,4514;0,0248786
2873,4158;0,0249431
2874,3799;0,0250014
2875,3442;0,0250538
2876,3083;0,0251023
2877,2727;0,0251501
2878,2368;0,0252005
2879,2012;0,0252552
2880,1653;0,025314
2881,1296;0,0253755
2882,0938;0,0254385
2883,0581;0,0255032
2884,0222;0,0255703
2884,9866;0,0256407
2885,9507;0,0257147
2886,9150;0,0257908
2887,8792;0,0258669
2888,8435;0,0259406
2889,8076;0,02601
2890,7720;0,0260744
2891,7361;0,0261348
2892,7004;0,0261938
2893,6646;0,0262548
2894,6289;0,0263213
2895,5930;0,0263959
2896,5574;0,0264797
2897,5215;0,026572
2898,4858;0,0266701
2899,4500;0,0267702
2900,4143;0,0268681
2901,3784;0,0269614
2902,3428;0,0270501
2903,3069;0,0271385
2904,2712;0,0272341
2905,2354;0,0273468
2906,1997;0,0274873
2907,1638;0,027666
2908,1282;0,0278922
2909,0923;0,0281735
2910,0566;0,0285123
2911,0208;0,028902
2911,9851;0,0293232
2912,9492;0,0297438
2913,9136;0,0301231
2914,8777;0,0304206
2915,8420;0,0306059
2916,8062;0,0306657
2917,7705;0,0306053
2918,7346;0,0304441
2919,6990;0,0302077
2920,6631;0,0299203
2921,6274;0,0296007
2922,5916;0,0292621
2923,5559;0,0289147
2924,5200;0,0285686
2925,4844;0,0282341
2926,4485;0,0279202
2927,4128;0,027633
2928,3770;0,0273745
2929,3413;0,0271439
2930,3054;0,026938
2931,2698;0,0267528
2932,2339;0,0265823
2933,1982;0,0264189
2934,1624;0,0262543
2935,1267;0,0260825
2936,0908;0,0259018
2937,0552;0,0257159
2938,0193;0,0255309
2938,9836;0,025352
2939,9478;0,0251804
2940,9121;0,0250135
2941,8762;0,0248467
2942,8406;0,024677
2943,8047;0,0245049
2944,7690;0,024335
2945,7332;0,0241746
2946,6975;0,024031
2947,6616;0,0239085
2948,6260;0,0238064
2949,5901;0,0237181
2950,5544;0,023634
2951,5186;0,0235457
2952,4829;0,0234496
2953,4470;0,0233474
2954,4114;0,0232436
2955,3755;0,02314
2956,3398;0,0230344
2957,3040;0,0229211
2958,2683;0,0227963
2959,2324;0,022661
2960,1968;0,0225215
2961,1609;0,0223845
2962,1252;0,0222523
2963,0894;0,0221218
2964,0537;0,0219872
2965,0178;0,0218455
2965,9822;0,0217003
2966,9463;0,0215597
2967,9106;0,0214318
2968,8748;0,0213194
2969,8391;0,0212186
2970,8032;0,0211213
2971,7676;0,0210201
2972,7317;0,0209126
2973,6960;0,0208014
2974,6602;0,0206923
2975,6245;0,0205905
2976,5886;0,020498
2977,5530;0,0204133
2978,5171;0,0203331
2979,4814;0,0202551
2980,4456;0,0201792
2981,4099;0,020108
2982,3740;0,0200451
2983,3384;0,0199929
2984,3025;0,0199506
2985,2668;0,019914
2986,2310;0,0198765
2987,1953;0,0198328
2988,1594;0,0197815
2989,1238;0,0197268
2990,0879;0,0196764
2991,0522;0,0196385
2992,0164;0,0196169
2992,9807;0,0196095
2993,9448;0,0196092
2994,9092;0,0196082
2995,8733;0,0196017
2996,8376;0,0195906
2997,8018;0,0195797
2998,7661;0,019575
2999,7302;0,0195801
3000,6946;0,0195945
3001,6587;0,019615
3002,6230;0,0196375
3003,5872;0,0196598
3004,5515;0,0196826
3005,5156;0,0197083
3006,4800;0,0197385
3007,4441;0,0197721
3008,4084;0,0198047
3009,3726;0,0198306
3010,3369;0,0198462
3011,3010;0,0198525
3012,2654;0,0198551
3013,2295;0,0198611
3014,1938;0,0198754
3015,1580;0,0198988
3016,1223;0,0199292
3017,0864;0,0199654
3018,0508;0,0200086
3019,0149;0,0200609
3019,9792;0,0201224
3020,9434;0,0201878
3021,9077;0,0202476
3022,8718;0,0202936
3023,8362;0,0203238
3024,8003;0,0203447
3025,7646;0,0203675
3026,7288;0,0204012
3027,6931;0,020448
3028,6572;0,0205022
3029,6216;0,0205546
3030,5857;0,0205982
3031,5500;0,0206317
3032,5142;0,0206598
3033,4785;0,0206899
3034,4426;0,020729
3035,4070;0,0207806
3036,3711;0,0208433
3037,3354;0,0209108
3038,2996;0,0209744
3039,2639;0,0210272
3040,2280;0,0210683
3041,1924;0,0211047
3042,1565;0,0211486
3043,1208;0,0212102
3044,0850;0,0212912
3045,0493;0,0213837
3046,0134;0,0214747
3046,9778;0,0215546
3047,9419;0,0216222
3048,9063;0,0216844
3049,8704;0,0217494
3050,8347;0,0218202
3051,7988;0,0218925
3052,7632;0,0219583
3053,7273;0,0220125
3054,6917;0,0220569
3055,6558;0,0221002
3056,6201;0,0221527
3057,5842;0,0222218
3058,5486;0,0223084
3059,5127;0,0224075
3060,4771;0,0225105
3061,4412;0,0226074
3062,4055;0,0226892
3063,3696;0,022751
3064,3340;0,022794
3065,2981;0,0228264
3066,2625;0,0228609
3067,2266;0,0229088
3068,1909;0,0229749
3069,1550;0,0230553
3070,1194;0,0231401
3071,0835;0,0232195
3072,0479;0,0232881
3073,0120;0,0233469
3073,9763;0,023401
3074,9404;0,0234561
3075,9048;0,023515
3076,8689;0,0235777
3077,8333;0,0236423
3078,7974;0,0237074
3079,7617;0,0237735
3080,7258;0,0238419
3081,6902;0,0239143
3082,6543;0,0239908
3083,6187;0,024069
3084,5828;0,0241452
3085,5471;0,0242152
3086,5112;0,0242769
3087,4756;0,024331
3088,4397;0,0243807
3089,4041;0,0244306
3090,3682;0,0244843
3091,3325;0,0245439
3092,2966;0,0246108
3093,2610;0,0246863
3094,2251;0,0247708
3095,1895;0,0248626
3096,1536;0,0249566
3097,1179;0,0250451
3098,0820;0,0251214
3099,0464;0,0251847
3100,0105;0,025241
3100,9749;0,0253014
3101,9390;0,0253753
3102,9033;0,0254654
3103,8674;0,0255653
3104,8318;0,0256634
3105,7959;0,025749
3106,7603;0,0258181
3107,7244;0,025875
3108,6887;0,0259303
3109,6528;0,0259951
3110,6172;0,0260761
3111,5813;0,0261724
3112,5457;0,0262773
3113,5098;0,0263823
3114,4741;0,0264814
3115,4382;0,0265737
3116,4026;0,0266626
3117,3667;0,026752
3118,3311;0,0268431
3119,2952;0,0269333
3120,2595;0,0270182
3121,2236;0,0270946
3122,1880;0,0271628
3123,1521;0,0272258
3124,1165;0,0272872
3125,0806;0,0273496
3126,0449;0,0274144
3127,0090;0,0274832
3127,9734;0,0275585
3128,9375;0,0276429
3129,9019;0,0277375
3130,8660;0,0278402
3131,8303;0,0279463
3132,7944;0,0280507
3133,7588;0,0281501
3134,7229;0,0282439
3135,6873;0,0283337
3136,6514;0,0284221
3137,6157;0,0285114
3138,5798;0,0286035
3139,5442;0,0286994
3140,5083;0,0287988
3141,4727;0,0288999
3142,4368;0,0290001
3143,4011;0,0290976
3144,3652;0,0291927
3145,3296;0,0292876
3146,2937;0,0293842
3147,2581;0,0294821
3148,2222;0,0295792
3149,1865;0,0296737
3150,1506;0,0297674
3151,1150;0,0298666
3152,0791;0,0299782
3153,0435;0,0301047
3154,0076;0,0302401
3154,9719;0,0303709
3155,9360;0,0304828
3156,9004;0,0305682
3157,8645;0,0306304
3158,8289;0,0306826
3159,7930;0,030741
3160,7573;0,0308175
3161,7214;0,0309157
3162,6858;0,0310316
3163,6499;0,0311573
3164,6143;0,0312855
3165,5784;0,0314121
3166,5427;0,0315354
3167,5068;0,031655
3168,4712;0,0317696
3169,4353;0,0318629
3170,3997;0,0319652
3171,3638;0,0320621
3172,3281;0,0321555
3173,2922;0,0322473
3174,2566;0,0323381
3175,2207;0,0324274
3176,1851;0,0325156
3177,1492;0,0326046
3178,1135;0,032698
3179,0776;0,0327986
3180,0420;0,0329058
3181,0061;0,0330148
3181,9705;0,0331191
3182,9346;0,033214
3183,8989;0,0333004
3184,8630;0,0333847
3185,8274;0,0334756
3186,7915;0,0335791
3187,7559;0,0336957
3188,7200;0,0338196
3189,6843;0,0339426
3190,6484;0,034057
3191,6128;0,0341586
3192,5769;0,034249
3193,5413;0,0343345
3194,5054;0,034425
3195,4697;0,0345297
3196,4338;0,034652
3197,3982;0,0347858
3198,3623;0,0349158
3199,3267;0,0350246
3200,2908;0,0351011
3201,2551;0,0351477
3202,2192;0,0351795
3203,1836;0,0352167
3204,1477;0,0352749
3205,1121;0,0353588
3206,0762;0,0354629
3207,0405;0,0355778
3208,0046;0,0356964
3208,9690;0,0358163
3209,9331;0,0359377
3210,8975;0,036059
3211,8616;0,036176
3212,8259;0,0362827
3213,7900;0,036375
3214,7544;0,0364525
3215,7185;0,0365186
3216,6829;0,0365794
3217,6470;0,0366422
3218,6113;0,0367141
3219,5754;0,0368004
3220,5398;0,0369021
3221,5039;0,0370148
3222,4683;0,0371307
3223,4324;0,0372422
3224,3967;0,0373464
3225,3608;0,0374453
3226,3252;0,0375419
3227,2893;0,037636
3228,2537;0,0377226
3229,2178;0,0377961
3230,1821;0,037857
3231,1462;0,0379142
3232,1106;0,037982
3233,0747;0,0380708
3234,0391;0,0381802
3235,0032;0,038299
3235,9675;0,0384131
3236,9316;0,0385155
3237,8960;0,0386108
3238,8601;0,0387105
3239,8245;0,0388234
3240,7886;0,0389472
3241,7529;0,0390692
3242,7170;0,039175
3243,6814;0,0392594
3244,6455;0,0393311
3245,6099;0,0394081
3246,5740;0,0395054
3247,5383;0,0396246
3248,5024;0,0397521
3249,4668;0,0398679
3250,4309;0,0399582
3251,3953;0,0400239
3252,3594;0,0400802
3253,3237;0,0401477
3254,2878;0,0402405
3255,2522;0,040359
3256,2163;0,0404925
3257,1807;0,0406271
3258,1448;0,0407544
3259,1091;0,0408739
3260,0732;0,0409897
3261,0376;0,0411038
3262,0017;0,0412129
3262,9661;0,0413102
3263,9302;0,0413907
3264,8945;0,0414564
3265,8586;0,0415162
3266,8230;0,0415801
3267,7871;0,0416532
3268,7515;0,0417321
3269,7156;0,0418074
3270,6799;0,0418703
3271,6440;0,041919
3272,6084;0,0419605
3273,5725;0,0420065
3274,5369;0,0420655
3275,5010;0,0421375
3276,4653;0,0422132
3277,4294;0,0422797
3278,3938;0,0423276
3279,3579;0,0423557
3280,3223;0,0423709
3281,2864;0,0423837
3282,2507;0,0424034
3283,2148;0,0424341
3284,1792;0,0424744
3285,1433;0,0425191
3286,1077;0,0425617
3287,0718;0,0425966
3288,0361;0,0426209
3289,0002;0,0426348
3289,9646;0,042642
3290,9287;0,0426485
3291,8931;0,0426592
3292,8572;0,0426756
3293,8215;0,0426943
3294,7856;0,0427095
3295,7500;0,0427165
3296,7141;0,0427156
3297,6785;0,0427119
3298,6426;0,042713
3299,6069;0,042724
3300,5710;0,0427449
3301,5354;0,0427709
3302,4995;0,0427949
3303,4639;0,0428108
3304,4280;0,0428144
3305,3923;0,0428042
3306,3564;0,0427811
3307,3208;0,042749
3308,2849;0,0427154
3309,2493;0,0426908
3310,2134;0,0426853
3311,1777;0,0427045
3312,1418;0,0427466
3313,1062;0,0428034
3314,0703;0,0428634
3315,0347;0,0429159
3315,9988;0,0429547
3316,9631;0,0429792
3317,9272;0,0429939
3318,8916;0,0430072
3319,8557;0,0430285
3320,8201;0,043066
3321,7842;0,0431224
3322,7485;0,0431935
3323,7126;0,0432694
3324,6770;0,0433377
3325,6411;0,0433894
3326,6055;0,0434219
3327,5696;0,0434388
3328,5339;0,0434471
3329,4980;0,0434537
3330,4624;0,0434628
3331,4265;0,0434771
3332,3909;0,0434979
3333,3550;0,0435254
3334,3193;0,043557
3335,2834;0,0435861
3336,2478;0,0436025
3337,2119;0,0435957
3338,1763;0,0435589
3339,1404;0,0434932
3340,1047;0,0434073
3341,0688;0,0433152
3342,0332;0,0432306
3342,9973;0,0431616
3343,9617;0,0431067
3344,9258;0,0430565
3345,8901;0,0429982
3346,8542;0,0429237
3347,8186;0,0428346
3348,7827;0,042742
3349,7471;0,0426603
3350,7112;0,0425983
3351,6755;0,0425534
3352,6396;0,0425134
3353,6040;0,0424633
3354,5681;0,0423948
3355,5325;0,0423103
3356,4966;0,0422208
3357,4609;0,042138
3358,4250;0,0420677
3359,3894;0,0420076
3360,3535;0,0419506
3361,3179;0,0418905
3362,2820;0,0418253
3363,2463;0,0417572
3364,2104;0,0416899
3365,1748;0,0416258
3366,1389;0,0415648
3367,1033;0,0415051
3368,0674;0,0414439
3369,0317;0,0413774
3369,9958;0,0413018
3370,9602;0,041214
3371,9243;0,0411138
3372,8887;0,0410048
3373,8528;0,0408936
3374,8171;0,0407875
3375,7813;0,0406918
3376,7456;0,0406086
3377,7097;0,0405376
3378,6741;0,0404774
3379,6382;0,0404255
3380,6025;0,0403778
3381,5667;0,0403274
3382,5310;0,0402656
3383,4951;0,0401858
3384,4595;0,0400875
3385,4236;0,039979
3386,3879;0,0398735
3387,3521;0,0397832
3388,3164;0,0397123
3389,2805;0,039655
3390,2449;0,0395992
3391,2090;0,0395334
3392,1733;0,039453
3393,1375;0,0393625
3394,1018;0,0392716
3395,0659;0,0391881
3396,0303;0,0391135
3396,9944;0,0390427
3397,9587;0,0389683
3398,9229;0,0388862
3399,8872;0,0387973
3400,8513;0,0387058
3401,8157;0,0386157
3402,7798;0,0385277
3403,7441;0,0384396
3404,7083;0,0383499
3405,6726;0,0382596
3406,6367;0,0381729
3407,6011;0,0380927
3408,5652;0,0380174
3409,5295;0,0379392
3410,4937;0,0378477
3411,4580;0,0377366
3412,4221;0,037608
3413,3865;0,0374733
3414,3506;0,0373465
3415,3149;0,0372368
3416,2791;0,0371428
3417,2434;0,0370535
3418,2075;0,0369544
3419,1719;0,0368356
3420,1360;0,0366976
3421,1003;0,0365512
3422,0645;0,0364118
3423,0288;0,0362913
3423,9929;0,0361932
3424,9573;0,0361119
3425,9214;0,0360361
3426,8857;0,0359528
3427,8499;0,0358519
3428,8142;0,0357281
3429,7783;0,0355823
3430,7427;0,035421
3431,7068;0,0352546
3432,6711;0,0350955
3433,6353;0,0349541
3434,5996;0,0348366
3435,5637;0,0347413
3436,5281;0,0346591
3437,4922;0,0345771
3438,4565;0,0344848
3439,4207;0,0343797
3440,3850;0,0342684
3441,3491;0,0341611
3442,3135;0,0340627
3443,2776;0,0339666
3444,2419;0,0338559
3445,2061;0,0337144
3446,1704;0,0335382
3447,1345;0,0333427
3448,0989;0,0331548
3449,0630;0,0329968
3450,0273;0,0328734
3450,9915;0,0327703
3451,9558;0,0326651
3452,9199;0,0325412
3453,8843;0,0323968
3454,8484;0,0322447
3455,8127;0,0321031
3456,7769;0,0319826
3457,7412;0,0318807
3458,7053;0,0317843
3459,6697;0,0316789
3460,6338;0,0315577
3461,5981;0,0314234
3462,5623;0,0312841
3463,5266;0,0311442
3464,4907;0,0310003
3465,4551;0,0308441
3466,4192;0,0306709
3467,3835;0,0304867
3468,3477;0,030308
3469,3120;0,0301526
3470,2761;0,0300293
3471,2405;0,0299322
3472,2046;0,0298451
3473,1689;0,0297527
3474,1331;0,0296494
3475,0974;0,0295402
3476,0615;0,0294332
3477,0259;0,0293297
3477,9900;0,0292217
3478,9543;0,0290977
3479,9185;0,0289525
3480,8828;0,0287935
3481,8469;0,0286369
3482,8113;0,0284963
3483,7754;0,0283725
3484,7397;0,0282536
3485,7039;0,0281235
3486,6682;0,0279737
3487,6323;0,0278097
3488,5967;0,0276486
3489,5608;0,0275092
3490,5251;0,0274008
3491,4893;0,0273173
3492,4536;0,0272407
3493,4177;0,0271506
3494,3821;0,0270352
3495,3462;0,0268999
3496,3105;0,026764
3497,2747;0,0266482
3498,2390;0,0265585
3499,2031;0,0264803
3500,1675;0,0263857
3501,1316;0,0262528
3502,0959;0,0260845
3503,0601;0,0259126
3504,0244;0,0257773
3504,9885;0,0256964
3505,9529;0,0256506
3506,9170;0,0255952
3507,8813;0,025486
3508,8455;0,0253065
3509,8098;0,0250793
3510,7739;0,0248521
3511,7383;0,0246681
3512,7024;0,0245419
3513,6667;0,0244605
3514,6309;0,0243996
3515,5952;0,0243423
3516,5593;0,0242852
3517,5237;0,0242317
3518,4878;0,0241809
3519,4521;0,0241206
3520,4163;0,0240324
3521,3806;0,0239036
3522,3447;0,0237371
3523,3091;0,0235512
3524,2732;0,0233683
3525,2375;0,0232014
3526,2017;0,0230497
3527,1660;0,0229059
3528,1301;0,0227664
3529,0945;0,022636
3530,0586;0,0225222
3531,0229;0,0224264
3531,9871;0,0223395
3532,9514;0,0222457
3533,9155;0,0221305
3534,8799;0,0219894
3535,8440;0,0218334
3536,8083;0,0216875
3537,7725;0,0215809
3538,7368;0,021533
3539,7009;0,0215429
3540,6653;0,0215854
3541,6294;0,0216144
3542,5938;0,0215752
3543,5579;0,0214283
3544,5222;0,0211767
3545,4863;0,0208767
3546,4507;0,0206084
3547,4148;0,0204242
3548,3792;0,0203208
3549,3433;0,0202529
3550,3076;0,0201678
3551,2717;0,0200373
3552,2361;0,0198729
3553,2002;0,0197142
3554,1646;0,0195974
3555,1287;0,0195293
3556,0930;0,0194873
3557,0571;0,0194412
3558,0215;0,0193782
3558,9856;0,0193152
3559,9500;0,0192893
3560,9141;0,0193291
3561,8784;0,0194252
3562,8425;0,0195207
3563,8069;0,0195207
3564,7710;0,019327
3565,7354;0,0189036
3566,6995;0,0183443
3567,6638;0,0178402
3568,6279;0,0175336
3569,5923;0,0174306
3570,5564;0,017448
3571,5208;0,0174924
3572,4849;0,017503
3573,4492;0,0174599
3574,4133;0,0173763
3575,3777;0,0172775
3576,3418;0,01718
3577,3062;0,017086
3578,2703;0,0169966
3579,2346;0,0169295
3580,1987;0,0169189
3581,1631;0,0169931
3582,1272;0,0171456
3583,0916;0,0173197
3584,0557;0,0174146
3585,0200;0,0173171
3585,9841;0,0169707
3586,9485;0,0164583
3587,9126;0,0159876
3588,8770;0,0157336
3589,8411;0,0157148
3590,8054;0,0158268
3591,7695;0,0159371
3592,7339;0,0159498
3593,6980;0,0158397
3594,6624;0,0156556
3595,6265;0,0154776
3596,5908;0,015351
3597,5549;0,0152586
3598,5193;0,015154
3599,4834;0,0150169
3600,4478;0,014881
3601,4119;0,0148097
3602,3762;0,0148411
3603,3403;0,0149552
3604,3047;0,0150831
3605,2688;0,0151422
3606,2332;0,0150756
3607,1973;0,0148839
3608,1616;0,0146264
3609,1257;0,0143794
3610,0901;0,0141868
3611,0542;0,0140525
3612,0186;0,0139683
3612,9827;0,0139352
3613,9470;0,0139551
3614,9111;0,0140051
3615,8755;0,0140226
3616,8396;0,0139217
3617,8040;0,0136475
3618,7681;0,0132448
3619,7324;0,0128731
3620,6965;0,0127097
3621,6609;0,0128271
3622,6250;0,013172
3623,5894;0,0136214
3624,5535;0,0140273
3625,5178;0,0142261
3626,4819;0,0140578
3627,4463;0,0134607
3628,4104;0,0126204
3629,3748;0,0119155
3630,3389;0,0115822
3631,3032;0,0115636
3632,2673;0,0116769
3633,2317;0,011778
3634,1958;0,0118061
3635,1602;0,0117677
3636,1243;0,011701
3637,0886;0,0116395
3638,0527;0,0115942
3639,0171;0,011563
3639,9812;0,0115537
3640,9456;0,0115958
3641,9097;0,0117282
3642,8740;0,0119723
3643,8381;0,0123071
3644,8025;0,0126529
3645,7666;0,0128586
3646,7310;0,0127084
3647,6951;0,0120397
3648,6594;0,0110144
3649,6235;0,0101463
3650,5879;0,00978851
3651,5520;0,00986228
3652,5164;0,0101074
3653,4805;0,0103038
3654,4448;0,0103286
3655,4089;0,0101703
3656,3733;0,00992678
3657,3374;0,00974128
3658,3018;0,00969482
3659,2659;0,00976495
3660,2302;0,00987902
3661,1943;0,00998709
3662,1587;0,010095
3663,1228;0,0102461
3664,0872;0,010471
3665,0513;0,0107462
3666,0156;0,0109908
3666,9797;0,0110995
3667,9441;0,0110087
3668,9082;0,010777
3669,8726;0,0105819
3670,8367;0,0105651
3671,8010;0,0106949
3672,7651;0,0107959
3673,7295;0,0106692
3674,6936;0,0102292
3675,6580;0,00961515
3676,6221;0,00911094
3677,5864;0,00888338
3678,5505;0,00889066
3679,5149;0,00901387
3680,4790;0,00917638
3681,4434;0,00936971
3682,4075;0,00962358
3683,3718;0,00995848
3684,3359;0,0103485
3685,3003;0,0107085
3686,2644;0,0109039
3687,2288;0,0107941
3688,1929;0,0103358
3689,1572;0,00969735
3690,1213;0,00918391
3691,0857;0,0089809
3692,0498;0,00905648
3693,0142;0,0092833
3693,9783;0,00955416
3694,9426;0,00981204
3695,9067;0,0100344
3696,8711;0,0102075
3697,8352;0,010309
3698,7996;0,0103081
3699,7637;0,0101891
3700,7280;0,00998615
3701,6921;0,00979553
3702,6565;0,00973266
3703,6206;0,00985948
3704,5850;0,0101528
3705,5491;0,010527
3706,5134;0,0108666
3707,4775;0,0110417
3708,4419;0,0109257
3709,4060;0,0104572
3710,3704;0,00974887
3711,3345;0,00909822
3712,2988;0,00877583
3713,2629;0,00882795
3714,2273;0,00912894
3715,1914;0,00952489
3716,1558;0,00990314
3717,1199;0,0102002
3718,0842;0,0103954
3719,0483;0,0105034
3720,0127;0,0105588
3720,9768;0,0105897
3721,9412;0,0105961
3722,9053;0,0105571
3723,8696;0,0104647
3724,8337;0,0103545
3725,7981;0,0102989
3726,7622;0,0103637
3727,7266;0,0105685
3728,6907;0,010882
3729,6550;0,0112383
3730,6191;0,011549
3731,5835;0,011706
3732,5476;0,0115943
3733,5120;0,0111526
3734,4761;0,0104781
3735,4404;0,00984467
3736,4045;0,00951981
3737,3689;0,00957891
3738,3330;0,00992471
3739,2974;0,0103986
3740,2615;0,0108411
3741,2258;0,011103
3742,1899;0,0110686
3743,1543;0,0107388
3744,1184;0,0103156
3745,0828;0,0100913
3746,0469;0,0101781
3747,0112;0,0104311
3747,9753;0,0105882
3748,9397;0,0104166
3749,9038;0,00986102
3750,8682;0,00916832
3751,8323;0,00872897
3752,7966;0,0087063
3753,7607;0,00897162
3754,7251;0,00930764
3755,6892;0,00954252
3756,6536;0,00958485
3757,6177;0,00944123
3758,5820;0,00921818
3759,5461;0,00906081
3760,5105;0,0090541
3761,4746;0,00918445
3762,4390;0,00938015
3763,4031;0,00956512
3764,3674;0,0096869
3765,3315;0,00972146
3766,2959;0,00966537
3767,2600;0,0095255
3768,2244;0,00931787
3769,1885;0,00907945
3770,1528;0,0088749
3771,1169;0,00877599
3772,0813;0,00882217
3773,0454;0,00899797
3774,0098;0,00924219
3774,9739;0,00947229
3775,9382;0,00961
3776,9023;0,00961
3777,8667;0,00948918
3778,8308;0,00932789
3779,7952;0,00921802
3780,7593;0,00919716
3781,7236;0,00923489
3782,6877;0,00927099
3783,6521;0,00925987
3784,6162;0,00919382
3785,5806;0,00910139
3786,5447;0,00902754
3787,5090;0,00901024
3788,4731;0,00906725
3789,4375;0,00919486
3790,4016;0,00937208
3791,3660;0,00956703
3792,3301;0,00974687
3793,2944;0,00989152
3794,2585;0,0100047
3795,2229;0,0101096
3796,1870;0,010223
3797,1514;0,0103233
3798,1155;0,0103445
3799,0798;0,0102137
3800,0439;0,00992362
3801,0083;0,00958214
3801,9724;0,00934884
3802,9368;0,00929208
3803,9009;0,0093343
3804,8652;0,00933205
3805,8293;0,00919234
3806,7937;0,00895309
3807,7578;0,00877198
3808,7222;0,00880262
3809,6863;0,00907549
3810,6506;0,0095011
3811,6147;0,00994394
3812,5791;0,0102812
3813,5432;0,0104414
3814,5076;0,0104388
3815,4717;0,0103699
3816,4360;0,0103291
3817,4001;0,0103113
3818,3645;0,0102156
3819,3286;0,00994689
3820,2930;0,00952838
3821,2571;0,00912161
3822,2214;0,00889903
3823,1855;0,00890674
3824,1499;0,00907124
3825,1140;0,0092888
3826,0784;0,00948632
3827,0425;0,00963601
3828,0068;0,00974501
3828,9709;0,00983611
3829,9353;0,00993119
3830,8994;0,0100443
3831,8638;0,0101804
3832,8279;0,0103322
3833,7922;0,0104718
3834,7563;0,0105477
3835,7207;0,0104986
3836,6848;0,0102892
3837,6492;0,00995108
3838,6133;0,00958318
3839,5776;0,00928702
3840,5417;0,00910143
3841,5061;0,00900624
3842,4702;0,00897258
3843,4346;0,00900088
3844,3987;0,00912215
3845,3630;0,0093718
3846,3271;0,0097612
3847,2915;0,0102651
3848,2556;0,0108211
3849,2200;0,0113224
3850,1841;0,0115983
3851,1484;0,0114168
3852,1125;0,0106281
3853,0769;0,00947662
3854,0410;0,00856483
3855,0054;0,00824131
3855,9695;0,00839931
3856,9338;0,00880093
3857,8979;0,00927222
3858,8623;0,00970704
3859,8264;0,0100334
3860,7908;0,0102027
3861,7549;0,0102082
3862,7192;0,010107
3863,6833;0,0100029
3864,6477;0,00997787
3865,6118;0,0100399
3866,5762;0,0101328
3867,5403;0,0101787
3868,5046;0,0101164
3869,4688;0,0099297
3870,4331;0,00965946
3871,3972;0,0093893
3872,3616;0,00920499
3873,3257;0,0091569
3874,2900;0,00924708
3875,2542;0,00943674
3876,2185;0,00966232
3877,1826;0,00985521
3878,1470;0,00996497
3879,1111;0,00998149
3880,0754;0,00993821
3881,0396;0,00988051
3882,0039;0,00982212
3882,9680;0,00974027
3883,9324;0,00961939
3884,8965;0,00949412
3885,8608;0,00943685
3886,8250;0,009493
3887,7893;0,00963097
3888,7534;0,00975468
3889,7178;0,00976379
3890,6819;0,00962883
3891,6462;0,00943575
3892,6104;0,00933609
3893,5747;0,00942649
3894,5388;0,00968883
3895,5032;0,0100314
3896,4673;0,0103522
3897,4316;0,0105754
3898,3958;0,0106664
3899,3601;0,010629
3900,3242;0,010482
3901,2886;0,0102352
3902,2527;0,00989928
3903,2170;0,00952075
3904,1812;0,00918563
3905,1455;0,00897122
3906,1096;0,00889864
3907,0740;0,00893526
3908,0381;0,00903069
3909,0024;0,00914807
3909,9666;0,00927559
3910,9309;0,00941924
3911,8950;0,00958414
3912,8594;0,00975645
3913,8235;0,00989845
3914,7878;0,00996268
3915,7520;0,00992115
3916,7163;0,00979355
3917,6804;0,00964688
3918,6448;0,00955381
3919,6089;0,00954332
3920,5732;0,00958846
3921,5374;0,00963324
3922,5017;0,00963184
3923,4658;0,00957845
3924,4302;0,00951145
3925,3943;0,00948417
3926,3586;0,00952301
3927,3228;0,00960826
3928,2871;0,0096878
3929,2512;0,00970726
3930,2156;0,00964035
3931,1797;0,00950619
3932,1440;0,00935923
3933,1082;0,00925445
3934,0725;0,00921808
3935,0366;0,00924618
3936,0010;0,00931999
3936,9651;0,00941745
3937,9294;0,00951522
3938,8936;0,00958809
3939,8579;0,00961436
3940,8220;0,00958859
3941,7864;0,00953169
3942,7505;0,00948375
3943,7148;0,00947814
3944,6790;0,00951723
3945,6433;0,00957055
3946,6074;0,00959535
3947,5718;0,00956448
3948,5359;0,00948499
3949,5002;0,00939408
3950,4644;0,0093326
3951,4287;0,00931769
3952,3928;0,00933728
3953,3572;0,00936604
3954,3213;0,00938546
3955,2856;0,0093937
3956,2498;0,00940157
3957,2141;0,00941963
3958,1782;0,00944737
3959,1426;0,00947213
3960,1067;0,00947768
3961,0710;0,00945578
3962,0352;0,00941264
3962,9995;0,00936625
3963,9636;0,00933679
3964,9280;0,00933656
3965,8921;0,00936485
3966,8564;0,00940924
3967,8206;0,00945154
3968,7849;0,00947592
3969,7490;0,00947533
3970,7134;0,00945334
3971,6775;0,00942079
3972,6418;0,00939
3973,6060;0,00937005
3974,5703;0,00936488
3975,5344;0,00937369
3976,4988;0,00939196
3977,4629;0,00941235
3978,4272;0,00942615
3979,3914;0,00942627
3980,3557;0,00941147
3981,3198;0,00938905
3982,2842;0,00937269
3983,2483;0,00937512
3984,2126;0,00939963
3985,1768;0,00943676
3986,1411;0,00946922
3987,1052;0,00948218
3988,0696;0,00947249
3989,0337;0,00945046
3989,9980;0,00943256
3990,9622;0,00942987
3991,9265;0,00944044
3992,8906;0,00945131
3993,8550;0,00944834
3994,8191;0,00942651
3995,7834;0,00939319
3996,7476;0,00936245
3997,7119;0,0093452
3998,6760;0,0093426
3999,6404;0,0093471
4000,6045;0,00931612

##### Extended Information
[Comments]
Sample name
Comment
Username
Division
Organization;UNIVERSIDAD INDUSTRIAL DE SANTANDER

[Detailed Information]
Creation date;19/02/2025 11:43 a.m.

Data array type;Linear data array
Horizontal axis;Wavenumber [cm-1]
Vertical axis;Abs
Start;399,193 cm-1
End;4000,6 cm-1
Data interval;0,964233 cm-1
Data points;3736    

[Measurement Information]
Model name;FT/IR-4X1typeA
Serial No.;A035162111

Accessory;ATR PRO 4X
Accessory S/N;A021162126
Incident angle;45 deg

Measurement date;19/02/2025 11:41 a.m.

Light source;Standard
Detector;TGS
Accumulation;40
Resolution;4 cm-1
Zero filling;On
Apodization;Cosine
Gain;Auto (8)
Aperture;Auto (7 mm)
Scan speed;Auto (2 mm/sec)
Filter;Auto (12800 Hz)

