TITLE;
DATA TYPE;INFRARED SPECTRUM
ORIGIN;JASCO
OWNER;
DATE;25/02/19
TIME;12:32:05
SPECTROMETER/DATA SYSTEM;
LOCALE;9226
RESOLUTION;
DELTAX;0,964233
XUNITS;1/CM
YUNITS;ABSORBANCE
FIRSTX;  399,1927
LASTX; 4000,6047
NPOINTS;    3736
FIRSTY;     0,16001
MAXY;     0,24570
MINY;     0,01059
XYDATA
399,1927;0,160012
400,1569;0,160543
401,1211;0,161359
402,0854;0,162289
403,0496;0,163051
404,0138;0,163397
404,9781;0,163257
405,9423;0,162798
406,9065;0,162356
407,8708;0,162245
408,8350;0,162603
409,7992;0,163366
410,7635;0,164348
411,7277;0,16533
412,6919;0,166139
413,6562;0,16668
414,6204;0,166949
415,5846;0,16704
416,5489;0,167159
417,5131;0,167604
418,4773;0,16856
419,4416;0,169768
420,4058;0,170653
421,3700;0,170917
422,3343;0,170745
423,2985;0,170555
424,2627;0,170738
425,2270;0,171486
426,1912;0,172706
427,1554;0,174078
428,1197;0,175242
429,0839;0,17599
430,0481;0,176328
431,0124;0,176432
431,9766;0,176531
432,9408;0,176787
433,9051;0,177223
434,8693;0,177719
435,8335;0,178085
436,7978;0,178151
437,7620;0,17786
438,7262;0,177292
439,6905;0,176635
440,6547;0,176119
441,6189;0,175932
442,5832;0,176136
443,5474;0,176622
444,5116;0,177155
445,4759;0,177515
446,4401;0,177599
447,4043;0,177422
448,3686;0,177057
449,3328;0,176567
450,2970;0,175995
451,2613;0,175382
452,2255;0,174787
453,1897;0,174278
454,1540;0,173912
455,1182;0,173705
456,0824;0,173637
457,0467;0,173661
458,0109;0,173735
458,9751;0,17383
459,9394;0,173933
460,9036;0,174019
461,8678;0,174055
462,8321;0,174
463,7963;0,173824
464,7605;0,173526
465,7248;0,173139
466,6890;0,172717
467,6532;0,172327
468,6175;0,172033
469,5817;0,171899
470,5459;0,171981
471,5102;0,172296
472,4744;0,172774
473,4386;0,17326
474,4029;0,173578
475,3671;0,173614
476,3313;0,173354
477,2956;0,172873
478,2598;0,172305
479,2240;0,171811
480,1883;0,171545
481,1525;0,17161
482,1167;0,172029
483,0810;0,17272
484,0452;0,17351
485,0094;0,174187
485,9737;0,174587
486,9379;0,174664
487,9021;0,17449
488,8664;0,174204
489,8306;0,173952
490,7948;0,173839
491,7591;0,173899
492,7233;0,174093
493,6875;0,174344
494,6518;0,174574
495,6160;0,17474
496,5802;0,17483
497,5445;0,174853
498,5087;0,174828
499,4729;0,174781
500,4372;0,174749
501,4014;0,174785
502,3656;0,174931
503,3299;0,175201
504,2941;0,175557
505,2583;0,175924
506,2226;0,17622
507,1868;0,176398
508,1510;0,176476
509,1153;0,176533
510,0795;0,176677
511,0437;0,176988
512,0080;0,177475
512,9722;0,178078
513,9365;0,178701
514,9007;0,179259
515,8649;0,179712
516,8292;0,180075
517,7934;0,180387
518,7576;0,180672
519,7219;0,180917
520,6861;0,181087
521,6503;0,181162
522,6146;0,181147
523,5788;0,181069
524,5430;0,180952
525,5073;0,180813
526,4715;0,180659
527,4357;0,18051
528,4000;0,180404
529,3642;0,180385
530,3284;0,180478
531,2927;0,180659
532,2569;0,180853
533,2211;0,180959
534,1854;0,180892
535,1496;0,180627
536,1138;0,180209
537,0781;0,179721
538,0423;0,17925
539,0065;0,178859
539,9708;0,178575
540,9350;0,178401
541,8992;0,17833
542,8635;0,178345
543,8277;0,17842
544,7919;0,178522
545,7562;0,17862
546,7204;0,178697
547,6846;0,178765
548,6489;0,178858
549,6131;0,179017
550,5773;0,179274
551,5416;0,179637
552,5058;0,18009
553,4700;0,180594
554,4343;0,18109
555,3985;0,181506
556,3627;0,181769
557,3270;0,181825
558,2912;0,181653
559,2554;0,181268
560,2197;0,18071
561,1839;0,180022
562,1481;0,179239
563,1124;0,178386
564,0766;0,17749
565,0408;0,17659
566,0051;0,175738
566,9693;0,17499
567,9335;0,174383
568,8978;0,173915
569,8620;0,173552
570,8262;0,173248
571,7905;0,172974
572,7547;0,172727
573,7189;0,172528
574,6832;0,172394
575,6474;0,172321
576,6116;0,172282
577,5759;0,172242
578,5401;0,17218
579,5043;0,172104
580,4686;0,172039
581,4328;0,172006
582,3970;0,172005
583,3613;0,172017
584,3255;0,172017
585,2897;0,171991
586,2540;0,171947
587,2182;0,1719
588,1824;0,171868
589,1467;0,171857
590,1109;0,171871
591,0751;0,171907
592,0394;0,171958
593,0036;0,172007
593,9678;0,172019
594,9321;0,171956
595,8963;0,171791
596,8605;0,171524
597,8248;0,17119
598,7890;0,170841
599,7532;0,170519
600,7175;0,170234
601,6817;0,169962
602,6459;0,169662
603,6102;0,169306
604,5744;0,168885
605,5386;0,168411
606,5029;0,167896
607,4671;0,167353
608,4313;0,166788
609,3956;0,166207
610,3598;0,165619
611,3240;0,165026
612,2883;0,164424
613,2525;0,163796
614,2167;0,163118
615,1810;0,162371
616,1452;0,161546
617,1094;0,160648
618,0737;0,159695
619,0379;0,158703
620,0021;0,157691
620,9664;0,156672
621,9306;0,155663
622,8948;0,154683
623,8591;0,153752
624,8233;0,152897
625,7875;0,152111
626,7518;0,151391
627,7160;0,150726
628,6802;0,150097
629,6445;0,149479
630,6087;0,148852
631,5729;0,148201
632,5372;0,147526
633,5014;0,146841
634,4656;0,14617
635,4299;0,145531
636,3941;0,144927
637,3583;0,144351
638,3226;0,143792
639,2868;0,143246
640,2510;0,14272
641,2153;0,142218
642,1795;0,141737
643,1437;0,141259
644,1080;0,140763
645,0722;0,14024
646,0364;0,139695
647,0007;0,139148
647,9649;0,138627
648,9291;0,138159
649,8934;0,137763
650,8576;0,137454
651,8218;0,137234
652,7861;0,137101
653,7503;0,137047
654,7145;0,137065
655,6788;0,137155
656,6430;0,137307
657,6072;0,137495
658,5715;0,137667
659,5357;0,137756
660,4999;0,137727
661,4642;0,137606
662,4284;0,137476
663,3926;0,137412
664,3569;0,137412
665,3211;0,137331
666,2853;0,136849
667,2496;0,1356
668,2138;0,133633
669,1780;0,131667
670,1423;0,130295
671,1065;0,129409
672,0707;0,12866
673,0350;0,127792
673,9992;0,126679
674,9634;0,125316
675,9277;0,123812
676,8919;0,122325
677,8561;0,120969
678,8204;0,119769
679,7846;0,118695
680,7488;0,117718
681,7131;0,116826
682,6773;0,116022
683,6415;0,115307
684,6058;0,11469
685,5700;0,114189
686,5342;0,113815
687,4985;0,113557
688,4627;0,11337
689,4269;0,113196
690,3912;0,112989
691,3554;0,112742
692,3196;0,112473
693,2839;0,112208
694,2481;0,111956
695,2123;0,111707
696,1766;0,111444
697,1408;0,11116
698,1050;0,110863
699,0693;0,11057
700,0335;0,110298
700,9977;0,110045
701,9620;0,109791
702,9262;0,109507
703,8904;0,109168
704,8547;0,108764
705,8189;0,108305
706,7831;0,107822
707,7474;0,107344
708,7116;0,106892
709,6758;0,106471
710,6401;0,106071
711,6043;0,10568
712,5685;0,105287
713,5328;0,104888
714,4970;0,104477
715,4612;0,104219
716,4255;0,103713
717,3897;0,103142
718,3539;0,102514
719,3182;0,101855
720,2824;0,101207
721,2466;0,100599
722,2109;0,100036
723,1751;0,0994985
724,1393;0,0989533
725,1036;0,0983753
726,0678;0,0977565
727,0320;0,0971069
727,9963;0,0964471
728,9605;0,0957995
729,9247;0,0951833
730,8890;0,094613
731,8532;0,0940979
732,8174;0,0936394
733,7817;0,0932282
734,7459;0,0928456
735,7101;0,0924702
736,6744;0,0920871
737,6386;0,0916922
738,6028;0,0912897
739,5671;0,0908857
740,5313;0,0904836
741,4955;0,0900847
742,4598;0,089692
743,4240;0,0893104
744,3882;0,0889429
745,3525;0,0885843
746,3167;0,0882204
747,2809;0,0878357
748,2452;0,0874246
749,2094;0,0869968
750,1736;0,0865721
751,1379;0,0861655
752,1021;0,0857747
753,0663;0,0853797
754,0306;0,0849574
754,9948;0,0845004
755,9590;0,0840268
756,9233;0,0835717
757,8875;0,0831668
758,8517;0,0828201
759,8160;0,0825115
760,7802;0,082206
761,7444;0,0818755
762,7087;0,0815134
763,6729;0,0811342
764,6371;0,0807599
765,6014;0,0804048
766,5656;0,0800694
767,5298;0,0797453
768,4941;0,0794249
769,4583;0,0791073
770,4225;0,0787969
771,3868;0,0784971
772,3510;0,0782064
773,3152;0,0779188
774,2795;0,0776283
775,2437;0,077332
776,2079;0,0770304
777,1722;0,0767253
778,1364;0,0764181
779,1006;0,0761094
780,0649;0,0758001
781,0291;0,0754905
781,9933;0,0751789
782,9576;0,0748617
783,9218;0,0745361
784,8860;0,0742053
785,8503;0,0738808
786,8145;0,0735802
787,7787;0,0733187
788,7430;0,0731
789,7072;0,0729133
790,6714;0,0727386
791,6357;0,072558
792,5999;0,0723659
793,5641;0,0721715
794,5284;0,0719919
795,4926;0,0718412
796,4568;0,0717215
797,4211;0,0716214
798,3853;0,0715221
799,3495;0,0714073
800,3138;0,0712698
801,2780;0,0711141
802,2422;0,0709523
803,2065;0,0707964
804,1707;0,0706515
805,1349;0,0705136
806,0992;0,0703718
807,0634;0,0702166
808,0276;0,0700471
808,9919;0,069874
809,9561;0,0697143
810,9203;0,0695804
811,8846;0,06947
812,8488;0,0693648
813,8130;0,0692395
814,7773;0,0690774
815,7415;0,0688815
816,7057;0,0686734
817,6700;0,0684808
818,6342;0,0683208
819,5984;0,0681911
820,5627;0,0680744
821,5269;0,0679529
822,4911;0,0678211
823,4554;0,0676894
824,4196;0,0675756
825,3839;0,0674922
826,3481;0,0674384
827,3123;0,0674004
828,2766;0,0673587
829,2408;0,0672966
830,2050;0,0672043
831,1693;0,0670791
832,1335;0,0669226
833,0977;0,0667379
834,0620;0,0665279
835,0262;0,0662943
835,9904;0,0660383
836,9547;0,0657638
837,9189;0,0654811
838,8831;0,065208
839,8474;0,0649656
840,8116;0,0647699
841,7758;0,0646229
842,7401;0,0645108
843,7043;0,06441
844,6685;0,0642983
845,6328;0,0641657
846,5970;0,0640171
847,5612;0,0638692
848,5255;0,0637417
849,4897;0,0636503
850,4539;0,0636008
851,4182;0,063588
852,3824;0,0635965
853,3466;0,0636065
854,3109;0,0636013
855,2751;0,0635748
856,2393;0,0635349
857,2036;0,0634994
858,1678;0,0634876
859,1320;0,0635107
860,0963;0,0635693
861,0605;0,0636558
862,0247;0,0637611
862,9890;0,0638799
863,9532;0,0640115
864,9174;0,0641572
865,8817;0,0643185
866,8459;0,0644963
867,8101;0,0646917
868,7744;0,0649068
869,7386;0,0651424
870,7028;0,0653961
871,6671;0,0656598
872,6313;0,0659207
873,5955;0,0661639
874,5598;0,066377
875,5240;0,0665533
876,4882;0,0666943
877,4525;0,0668088
878,4167;0,0669114
879,3809;0,0670199
880,3452;0,0671543
881,3094;0,0673367
882,2736;0,0675914
883,2379;0,0679446
884,2021;0,0684197
885,1663;0,06903
886,1306;0,0697724
887,0948;0,0706246
888,0590;0,0715505
889,0233;0,0725113
889,9875;0,0734753
890,9517;0,0744223
891,9160;0,0753378
892,8802;0,0762033
893,8444;0,0769872
894,8087;0,0776464
895,7729;0,0781363
896,7371;0,0784247
897,7014;0,0785
898,6656;0,0783707
899,6298;0,0780565
900,5941;0,0775805
901,5583;0,076966
902,5225;0,0762405
903,4868;0,0754401
904,4510;0,0746104
905,4152;0,0738001
906,3795;0,073052
907,3437;0,072396
908,3079;0,0718479
909,2722;0,0714115
910,2364;0,0710824
911,2007;0,0708494
912,1649;0,0706962
913,1292;0,0706041
914,0934;0,0705573
915,0576;0,0705479
916,0219;0,0705779
916,9861;0,0706541
917,9503;0,0707819
918,9146;0,0709583
919,8788;0,0711717
920,8430;0,0714055
921,8073;0,0716446
922,7715;0,0718798
923,7357;0,0721097
924,7000;0,0723387
925,6642;0,072574
926,6284;0,0728219
927,5927;0,073085
928,5569;0,0733612
929,5211;0,0736452
930,4854;0,0739328
931,4496;0,0742249
932,4138;0,0745286
933,3781;0,0748537
934,3423;0,0752063
935,3065;0,0755851
936,2708;0,0759839
937,2350;0,0763999
938,1992;0,0768411
939,1635;0,0773279
940,1277;0,0778853
941,0919;0,0785319
942,0562;0,0792708
943,0204;0,080091
943,9846;0,080975
944,9489;0,0819092
945,9131;0,08289
946,8773;0,0839237
947,8416;0,085022
948,8058;0,0861984
949,7700;0,0874653
950,7343;0,0888313
951,6985;0,0902982
952,6627;0,0918583
953,6270;0,0934947
954,5912;0,0951861
955,5554;0,0969144
956,5197;0,0986704
957,4839;0,100454
958,4481;0,102269
959,4124;0,104115
960,3766;0,10599
961,3408;0,107884
962,3051;0,10979
963,2693;0,111699
964,2335;0,113605
965,1978;0,115504
966,1620;0,117393
967,1262;0,11928
968,0905;0,121185
969,0547;0,123137
970,0189;0,125174
970,9832;0,127326
971,9474;0,129618
972,9116;0,132068
973,8759;0,134691
974,8401;0,137501
975,8043;0,140512
976,7686;0,143734
977,7328;0,147167
978,6970;0,15079
979,6613;0,154557
980,6255;0,158388
981,5897;0,162175
982,5540;0,165795
983,5182;0,169136
984,4824;0,172125
985,4467;0,174742
986,4109;0,177015
987,3751;0,179007
988,3394;0,18078
989,3036;0,182379
990,2678;0,183823
991,2321;0,185111
992,1963;0,186243
993,1605;0,187229
994,1248;0,188099
995,0890;0,188901
996,0532;0,189687
997,0175;0,190503
997,9817;0,191374
998,9459;0,192304
999,9102;0,193283
1000,8744;0,194299
1001,8386;0,195356
1002,8029;0,196472
1003,7671;0,197682
1004,7313;0,19903
1005,6956;0,200554
1006,6598;0,20229
1007,6240;0,204261
1008,5883;0,20648
1009,5525;0,208944
1010,5167;0,211623
1011,4810;0,21446
1012,4452;0,217374
1013,4094;0,220275
1014,3737;0,223077
1015,3379;0,225716
1016,3021;0,228154
1017,2664;0,230376
1018,2306;0,232383
1019,1948;0,234185
1020,1591;0,2358
1021,1233;0,237253
1022,0875;0,23857
1023,0518;0,239779
1024,0160;0,240901
1024,9802;0,241948
1025,9445;0,24292
1026,9087;0,243801
1027,8729;0,244564
1028,8372;0,24517
1029,8014;0,245568
1030,7656;0,245703
1031,7299;0,245519
1032,6941;0,24497
1033,6583;0,244036
1034,6226;0,242734
1035,5868;0,241127
1036,5510;0,239322
1037,5153;0,237451
1038,4795;0,235653
1039,4437;0,234043
1040,4080;0,2327
1041,3722;0,231648
1042,3364;0,230861
1043,3007;0,230274
1044,2649;0,229795
1045,2291;0,229329
1046,1934;0,228794
1047,1576;0,228133
1048,1218;0,227312
1049,0861;0,226313
1050,0503;0,225125
1051,0145;0,223741
1051,9788;0,222152
1052,9430;0,220362
1053,9072;0,218391
1054,8715;0,216263
1055,8357;0,213997
1056,7999;0,211589
1057,7642;0,20901
1058,7284;0,206226
1059,6926;0,203217
1060,6569;0,200004
1061,6211;0,196655
1062,5853;0,193268
1063,5496;0,189946
1064,5138;0,186779
1065,4780;0,183825
1066,4423;0,181113
1067,4065;0,178642
1068,3707;0,176388
1069,3350;0,17431
1070,2992;0,172352
1071,2634;0,170461
1072,2277;0,16859
1073,1919;0,166706
1074,1561;0,164791
1075,1204;0,16284
1076,0846;0,160854
1077,0488;0,158844
1078,0131;0,156831
1078,9773;0,154848
1079,9415;0,152943
1080,9058;0,151168
1081,8700;0,149568
1082,8342;0,148175
1083,7985;0,146994
1084,7627;0,146002
1085,7269;0,145159
1086,6912;0,144418
1087,6554;0,143741
1088,6196;0,14311
1089,5839;0,142529
1090,5481;0,142011
1091,5123;0,141568
1092,4766;0,141203
1093,4408;0,140907
1094,4050;0,140666
1095,3693;0,140469
1096,3335;0,140309
1097,2977;0,140185
1098,2620;0,140095
1099,2262;0,140032
1100,1904;0,139984
1101,1547;0,139932
1102,1189;0,139854
1103,0831;0,139726
1104,0474;0,139528
1105,0116;0,139247
1105,9758;0,138881
1106,9401;0,138437
1107,9043;0,137925
1108,8685;0,137342
1109,8328;0,13667
1110,7970;0,135874
1111,7612;0,134921
1112,7255;0,133798
1113,6897;0,132528
1114,6539;0,131172
1115,6182;0,129811
1116,5824;0,128523
1117,5466;0,127357
1118,5109;0,126325
1119,4751;0,125393
1120,4393;0,124498
1121,4036;0,123561
1122,3678;0,122497
1123,3320;0,121237
1124,2963;0,119733
1125,2605;0,117976
1126,2247;0,115988
1127,1890;0,113821
1128,1532;0,111541
1129,1174;0,109208
1130,0817;0,106874
1131,0459;0,104575
1132,0101;0,102345
1132,9744;0,100214
1133,9386;0,0982187
1134,9028;0,0963963
1135,8671;0,0947819
1136,8313;0,0934022
1137,7955;0,0922716
1138,7598;0,0913905
1139,7240;0,0907462
1140,6882;0,0903168
1141,6525;0,0900758
1142,6167;0,0899971
1143,5809;0,0900571
1144,5452;0,0902355
1145,5094;0,0905153
1146,4736;0,0908831
1147,4379;0,0913303
1148,4021;0,0918526
1149,3663;0,0924457
1150,3306;0,0930981
1151,2948;0,0937846
1152,2590;0,0944655
1153,2233;0,0950922
1154,1875;0,0956167
1155,1517;0,0959975
1156,1160;0,0961984
1157,0802;0,0961824
1158,0444;0,095906
1159,0087;0,0953203
1159,9729;0,0943793
1160,9371;0,093052
1161,9014;0,091331
1162,8656;0,0892364
1163,8298;0,0868131
1164,7941;0,0841282
1165,7583;0,081267
1166,7225;0,0783277
1167,6868;0,0754116
1168,6510;0,0726093
1169,6152;0,0699872
1170,5795;0,0675821
1171,5437;0,0654044
1172,5079;0,0634501
1173,4722;0,0617108
1174,4364;0,0601798
1175,4006;0,0588493
1176,3649;0,0577066
1177,3291;0,0567315
1178,2933;0,0558995
1179,2576;0,0551877
1180,2218;0,05458
1181,1860;0,0540682
1182,1503;0,053651
1183,1145;0,05333
1184,0787;0,0531067
1185,0430;0,0529805
1186,0072;0,0529481
1186,9714;0,0530042
1187,9357;0,0531435
1188,8999;0,0533638
1189,8641;0,053667
1190,8284;0,0540579
1191,7926;0,05454
1192,7568;0,055111
1193,7211;0,0557604
1194,6853;0,0564708
1195,6495;0,0572218
1196,6138;0,0579948
1197,5780;0,0587744
1198,5422;0,05955
1199,5065;0,0603143
1200,4707;0,0610681
1201,4349;0,0618134
1202,3992;0,0625564
1203,3634;0,0633028
1204,3276;0,0640547
1205,2919;0,0648092
1206,2561;0,0655626
1207,2203;0,0663167
1208,1846;0,0670831
1209,1488;0,0678842
1210,1130;0,0687466
1211,0773;0,0696926
1212,0415;0,0707312
1213,0057;0,0718555
1213,9700;0,0730449
1214,9342;0,0742719
1215,8984;0,0755093
1216,8627;0,0767356
1217,8269;0,0779373
1218,7911;0,0791072
1219,7554;0,0802423
1220,7196;0,0813401
1221,6838;0,0823963
1222,6481;0,0834041
1223,6123;0,0843551
1224,5765;0,0852419
1225,5408;0,0860605
1226,5050;0,0868117
1227,4692;0,0875007
1228,4335;0,0881354
1229,3977;0,0887227
1230,3619;0,0892652
1231,3262;0,0897598
1232,2904;0,0901987
1233,2546;0,0905736
1234,2189;0,0908803
1235,1831;0,0911219
1236,1473;0,091309
1237,1116;0,0914548
1238,0758;0,0915696
1239,0400;0,0916563
1240,0043;0,091709
1240,9685;0,0917152
1241,9327;0,0916606
1242,8970;0,0915334
1243,8612;0,0913283
1244,8254;0,0910474
1245,7897;0,0906991
1246,7539;0,0902949
1247,7181;0,0898458
1248,6824;0,0893602
1249,6466;0,0888434
1250,6108;0,0882998
1251,5751;0,0877362
1252,5393;0,0871616
1253,5035;0,0865857
1254,4678;0,0860138
1255,4320;0,0854439
1256,3962;0,0848666
1257,3605;0,08427
1258,3247;0,0836448
1259,2889;0,0829876
1260,2532;0,0822998
1261,2174;0,0815828
1262,1816;0,080835
1263,1459;0,0800507
1264,1101;0,0792235
1265,0743;0,0783489
1266,0386;0,0774251
1267,0028;0,0764517
1267,9670;0,0754296
1268,9313;0,0743623
1269,8955;0,0732583
1270,8597;0,0721327
1271,8240;0,0710037
1272,7882;0,0698877
1273,7524;0,0687947
1274,7167;0,067729
1275,6809;0,0666929
1276,6451;0,0656899
1277,6094;0,0647253
1278,5736;0,0638026
1279,5378;0,0629204
1280,5021;0,0620734
1281,4663;0,0612555
1282,4305;0,0604652
1283,3948;0,0597068
1284,3590;0,0589889
1285,3232;0,0583206
1286,2875;0,0577097
1287,2517;0,0571625
1288,2159;0,0566844
1289,1802;0,05628
1290,1444;0,055952
1291,1086;0,0556999
1292,0729;0,055521
1293,0371;0,0554122
1294,0013;0,0553715
1294,9656;0,055398
1295,9298;0,0554904
1296,8940;0,0556457
1297,8583;0,0558597
1298,8225;0,0561283
1299,7867;0,0564496
1300,7510;0,056823
1301,7152;0,0572486
1302,6794;0,0577251
1303,6437;0,0582498
1304,6079;0,0588187
1305,5721;0,0594264
1306,5364;0,0600654
1307,5006;0,0607259
1308,4648;0,0613963
1309,4291;0,0620657
1310,3933;0,0627258
1311,3575;0,0633707
1312,3218;0,0639937
1313,2860;0,0645832
1314,2502;0,06512
1315,2145;0,0655779
1316,1787;0,0659295
1317,1429;0,0661542
1318,1072;0,0662478
1319,0714;0,0662277
1320,0356;0,066128
1320,9999;0,0659866
1321,9641;0,0658321
1322,9283;0,0656796
1323,8926;0,0655338
1324,8568;0,0653958
1325,8210;0,0652661
1326,7853;0,0651437
1327,7495;0,0650233
1328,7137;0,064895
1329,6780;0,0647466
1330,6422;0,0645689
1331,6064;0,0643598
1332,5707;0,0641242
1333,5349;0,063867
1334,4991;0,0635838
1335,4634;0,0632542
1336,4276;0,0628438
1337,3918;0,0623205
1338,3561;0,0616834
1339,3203;0,0609842
1340,2845;0,0603121
1341,2488;0,0597445
1342,2130;0,0593101
1343,1772;0,0589934
1344,1415;0,0587606
1345,1057;0,0585834
1346,0699;0,0584514
1347,0342;0,0583734
1347,9984;0,0583696
1348,9626;0,0584586
1349,9269;0,0586454
1350,8911;0,0589179
1351,8553;0,0592538
1352,8196;0,0596341
1353,7838;0,0600539
1354,7480;0,0605243
1355,7123;0,0610614
1356,6765;0,0616711
1357,6407;0,0623417
1358,6050;0,0630472
1359,5692;0,0637563
1360,5334;0,0644388
1361,4977;0,0650713
1362,4619;0,0656425
1363,4261;0,0661565
1364,3904;0,0666266
1365,3546;0,0670656
1366,3188;0,0674785
1367,2831;0,0678617
1368,2473;0,0682047
1369,2115;0,068491
1370,1758;0,0686964
1371,1400;0,068788
1372,1042;0,0687272
1373,0685;0,0684872
1374,0327;0,0680778
1374,9969;0,0675525
1375,9612;0,0669722
1376,9254;0,0663556
1377,8896;0,065668
1378,8539;0,0648583
1379,8181;0,0639107
1380,7823;0,0628717
1381,7466;0,0618266
1382,7108;0,0608392
1383,6750;0,0599051
1384,6393;0,0589585
1385,6035;0,0579297
1386,5677;0,0568263
1387,5320;0,0557651
1388,4962;0,0548962
1389,4604;0,0542869
1390,4247;0,0538948
1391,3889;0,0536248
1392,3531;0,0533878
1393,3174;0,0531325
1394,2816;0,0528558
1395,2458;0,0525931
1396,2101;0,0523888
1397,1743;0,0522685
1398,1385;0,0522368
1399,1028;0,0522893
1400,0670;0,0524189
1401,0313;0,0526132
1401,9955;0,052853
1402,9597;0,0531185
1403,9240;0,0533994
1404,8882;0,0537017
1405,8524;0,0540427
1406,8167;0,0544366
1407,7809;0,0548849
1408,7451;0,0553818
1409,7094;0,0559253
1410,6736;0,0565216
1411,6378;0,0571776
1412,6021;0,0578886
1413,5663;0,0586331
1414,5305;0,059377
1415,4948;0,0600779
1416,4590;0,0606877
1417,4232;0,0611652
1418,3875;0,0615049
1419,3517;0,0617486
1420,3159;0,0619415
1421,2802;0,0620835
1422,2444;0,0621369
1423,2086;0,062066
1424,1729;0,0618652
1425,1371;0,0615554
1426,1013;0,0611529
1427,0656;0,0606386
1428,0298;0,0599684
1428,9940;0,0591285
1429,9583;0,0581902
1430,9225;0,0572885
1431,8867;0,0565238
1432,8510;0,0558837
1433,8152;0,055249
1434,7794;0,0544699
1435,7437;0,0534888
1436,7079;0,0524452
1437,6721;0,0515983
1438,6364;0,0510977
1439,6006;0,0509055
1440,5648;0,0509083
1441,5291;0,0510179
1442,4933;0,0511952
1443,4575;0,0514332
1444,4218;0,0517328
1445,3860;0,0520858
1446,3502;0,0524722
1447,3145;0,0528696
1448,2787;0,0532653
1449,2429;0,0536622
1450,2072;0,0540711
1451,1714;0,0544979
1452,1356;0,0549318
1453,0999;0,055332
1454,0641;0,0556086
1455,0283;0,0556117
1455,9926;0,0552043
1456,9568;0,0545003
1457,9210;0,0539326
1458,8853;0,0537815
1459,8495;0,0539453
1460,8137;0,0542017
1461,7780;0,0543585
1462,7422;0,0542465
1463,7064;0,0537359
1464,6707;0,0528347
1465,6349;0,0517458
1466,5991;0,0507188
1467,5634;0,0498487
1468,5276;0,0490487
1469,4918;0,0481303
1470,4561;0,0468713
1471,4203;0,0451085
1472,3845;0,0429191
1473,3488;0,0407152
1474,3130;0,0389376
1475,2772;0,0376834
1476,2415;0,0367881
1477,2057;0,0360791
1478,1699;0,0354673
1479,1342;0,0349249
1480,0984;0,0344513
1481,0626;0,034056
1482,0269;0,0337539
1482,9911;0,0335589
1483,9553;0,0334719
1484,9196;0,033472
1485,8838;0,0335164
1486,8480;0,0335557
1487,8123;0,033569
1488,7765;0,0336055
1489,7407;0,0337644
1490,7050;0,0340996
1491,6692;0,0345833
1492,6334;0,0351613
1493,5977;0,0357957
1494,5619;0,0364671
1495,5261;0,03717
1496,4904;0,0379162
1497,4546;0,038731
1498,4188;0,0396224
1499,3831;0,0405611
1500,3473;0,0415022
1501,3115;0,0424109
1502,2758;0,0432587
1503,2400;0,0440017
1504,2042;0,0445496
1505,1685;0,0447399
1506,1327;0,044404
1507,0969;0,0436447
1508,0612;0,0429002
1509,0254;0,0424155
1509,9896;0,0421041
1510,9539;0,0418272
1511,9181;0,0414904
1512,8823;0,0410218
1513,8466;0,0403627
1514,8108;0,0394929
1515,7750;0,0384613
1516,7393;0,03737
1517,7035;0,0363005
1518,6677;0,0352536
1519,6320;0,0341745
1520,5962;0,0330509
1521,5604;0,0319826
1522,5247;0,0311173
1523,4889;0,0305191
1524,4531;0,0301352
1525,4174;0,0298718
1526,3816;0,0296737
1527,3458;0,0295414
1528,3101;0,0294934
1529,2743;0,0295226
1530,2385;0,0295827
1531,2028;0,0296092
1532,1670;0,0295667
1533,1312;0,0294964
1534,0955;0,0294994
1535,0597;0,0296453
1536,0239;0,0299143
1536,9882;0,0302096
1537,9524;0,0303786
1538,9166;0,0302393
1539,8809;0,0297263
1540,8451;0,0291437
1541,8093;0,0289477
1542,7736;0,0291686
1543,7378;0,0295542
1544,7020;0,0299362
1545,6663;0,0302703
1546,6305;0,0305658
1547,5947;0,0308371
1548,5590;0,0310857
1549,5232;0,0313043
1550,4874;0,0314932
1551,4517;0,0316749
1552,4159;0,0318862
1553,3801;0,0321509
1554,3444;0,0324528
1555,3086;0,0327181
1556,2728;0,0328048
1557,2371;0,0325508
1558,2013;0,0320167
1559,1655;0,0316565
1560,1298;0,0317626
1561,0940;0,0321705
1562,0582;0,0326798
1563,0225;0,0332119
1563,9867;0,0337422
1564,9509;0,034247
1565,9152;0,0346935
1566,8794;0,0350587
1567,8436;0,0353623
1568,8079;0,0356806
1569,7721;0,036097
1570,7363;0,0366295
1571,7006;0,0372302
1572,6648;0,0378377
1573,6290;0,0384115
1574,5933;0,038945
1575,5575;0,0394799
1576,5217;0,0400914
1577,4860;0,0408177
1578,4502;0,0416298
1579,4144;0,0424868
1580,3787;0,0433708
1581,3429;0,0442751
1582,3071;0,0451885
1583,2714;0,0460977
1584,2356;0,0469966
1585,1998;0,047891
1586,1641;0,0487876
1587,1283;0,0496799
1588,0925;0,0505421
1589,0568;0,0513356
1590,0210;0,0520219
1590,9852;0,0525689
1591,9495;0,0529512
1592,9137;0,0531511
1593,8779;0,0531679
1594,8422;0,0530278
1595,8064;0,052779
1596,7706;0,0524707
1597,7349;0,0521337
1598,6991;0,0517768
1599,6633;0,0513994
1600,6276;0,0510059
1601,5918;0,050614
1602,5560;0,0502493
1603,5203;0,0499311
1604,4845;0,049658
1605,4487;0,0494047
1606,4130;0,0491329
1607,3772;0,0488171
1608,3414;0,0484731
1609,3057;0,048165
1610,2699;0,0479679
1611,2341;0,0479131
1612,1984;0,0479645
1613,1626;0,0480315
1614,1268;0,0480005
1615,0911;0,0477959
1616,0553;0,0474722
1617,0195;0,0472198
1617,9838;0,0471901
1618,9480;0,0473666
1619,9122;0,0476339
1620,8765;0,0478786
1621,8407;0,0480311
1622,8049;0,0480839
1623,7692;0,0480883
1624,7334;0,0481075
1625,6976;0,0481654
1626,6619;0,0482511
1627,6261;0,04836
1628,5903;0,0485147
1629,5546;0,0487464
1630,5188;0,0490592
1631,4830;0,0494093
1632,4473;0,0496986
1633,4115;0,0497788
1634,3757;0,0495089
1635,3400;0,0489259
1636,3042;0,0483452
1637,2684;0,0480694
1638,2327;0,0481079
1639,1969;0,0483201
1640,1611;0,0485992
1641,1254;0,0488965
1642,0896;0,0491772
1643,0538;0,0493757
1644,0181;0,0493736
1644,9823;0,0490485
1645,9465;0,0484363
1646,9108;0,047839
1647,8750;0,0475831
1648,8392;0,0477119
1649,8035;0,0480225
1650,7677;0,0481938
1651,7319;0,0478369
1652,6962;0,0467492
1653,6604;0,0454211
1654,6246;0,0446226
1655,5889;0,0444398
1656,5531;0,0445519
1657,5173;0,044713
1658,4816;0,0447847
1659,4458;0,0446667
1660,4100;0,0442881
1661,3743;0,0436693
1662,3385;0,0429717
1663,3027;0,0424069
1664,2670;0,0420726
1665,2312;0,0419079
1666,1954;0,0417589
1667,1597;0,0414478
1668,1239;0,04085
1669,0881;0,0400066
1670,0524;0,0391547
1671,0166;0,0385325
1671,9808;0,0381669
1672,9451;0,0379081
1673,9093;0,0375888
1674,8735;0,0371444
1675,8378;0,0366516
1676,8020;0,0362582
1677,7662;0,0360572
1678,7305;0,0360331
1679,6947;0,0360898
1680,6589;0,0360753
1681,6232;0,0357893
1682,5874;0,0350623
1683,5516;0,0339829
1684,5159;0,0329768
1685,4801;0,0323771
1686,4443;0,0321371
1687,4086;0,0320663
1688,3728;0,0320419
1689,3370;0,0320301
1690,3013;0,0320445
1691,2655;0,0321033
1692,2297;0,0322024
1693,1940;0,0323078
1694,1582;0,0323683
1695,1224;0,0323402
1696,0867;0,0322145
1697,0509;0,0320293
1698,0151;0,0318536
1698,9794;0,031754
1699,9436;0,031767
1700,9078;0,031893
1701,8721;0,0321144
1702,8363;0,0324161
1703,8005;0,0327916
1704,7648;0,0332368
1705,7290;0,0337425
1706,6932;0,0342943
1707,6575;0,03488
1708,6217;0,0355006
1709,5859;0,0361699
1710,5502;0,0369003
1711,5144;0,037684
1712,4786;0,0384834
1713,4429;0,0392336
1714,4071;0,039864
1715,3713;0,0403479
1716,3356;0,0407644
1717,2998;0,0412704
1718,2640;0,0419425
1719,2283;0,0427228
1720,1925;0,0435323
1721,1567;0,0443356
1722,1210;0,0451224
1723,0852;0,0458817
1724,0494;0,0465982
1725,0137;0,0472624
1725,9779;0,0478794
1726,9421;0,0484655
1727,9064;0,0490328
1728,8706;0,0495717
1729,8348;0,0500347
1730,7991;0,0503268
1731,7633;0,050327
1732,7275;0,0499784
1733,6918;0,0494062
1734,6560;0,0488574
1735,6202;0,0484673
1736,5845;0,0481804
1737,5487;0,0478568
1738,5129;0,0473712
1739,4772;0,0466665
1740,4414;0,0457825
1741,4056;0,0448309
1742,3699;0,0439104
1743,3341;0,0430421
1744,2983;0,0421856
1745,2626;0,0412866
1746,2268;0,0402946
1747,1910;0,0391526
1748,1553;0,0378073
1749,1195;0,0362739
1750,0837;0,0346951
1751,0480;0,0332718
1752,0122;0,0321124
1752,9764;0,0311793
1753,9407;0,0303562
1754,9049;0,0295354
1755,8691;0,0286729
1756,8334;0,0277955
1757,7976;0,0269572
1758,7618;0,0261761
1759,7261;0,0254129
1760,6903;0,0246183
1761,6545;0,0238022
1762,6188;0,0230467
1763,5830;0,0224422
1764,5472;0,0220163
1765,5115;0,0217237
1766,4757;0,0214835
1767,4399;0,0212184
1768,4042;0,0208742
1769,3684;0,020423
1770,3326;0,0198667
1771,2969;0,0192546
1772,2611;0,0186908
1773,2253;0,018284
1774,1896;0,018073
1775,1538;0,0180148
1776,1180;0,0180302
1777,0823;0,0180456
1778,0465;0,0180132
1779,0107;0,0179222
1779,9750;0,0177975
1780,9392;0,0176766
1781,9034;0,0175787
1782,8677;0,0174973
1783,8319;0,0174216
1784,7961;0,0173604
1785,7604;0,017341
1786,7246;0,0173841
1787,6888;0,0174785
1788,6531;0,017573
1789,6173;0,0175874
1790,5815;0,0174517
1791,5458;0,0171697
1792,5100;0,0168498
1793,4742;0,016629
1794,4385;0,0165623
1795,4027;0,0166128
1796,3669;0,0167102
1797,3312;0,0167916
1798,2954;0,0168161
1799,2596;0,0167714
1800,2239;0,0166741
1801,1881;0,016558
1802,1523;0,0164548
1803,1166;0,0163839
1804,0808;0,0163531
1805,0450;0,0163606
1806,0093;0,0163938
1806,9735;0,0164287
1807,9377;0,0164358
1808,9020;0,0163944
1809,8662;0,0163079
1810,8304;0,016207
1811,7947;0,0161312
1812,7589;0,0161026
1813,7231;0,0161147
1814,6874;0,0161409
1815,6516;0,0161531
1816,6158;0,0161395
1817,5801;0,0161134
1818,5443;0,0161052
1819,5085;0,0161395
1820,4728;0,0162152
1821,4370;0,0163048
1822,4012;0,0163693
1823,3655;0,0163798
1824,3297;0,0163337
1825,2939;0,01625
1826,2582;0,0161484
1827,2224;0,0160324
1828,1866;0,0158971
1829,1509;0,0157552
1830,1151;0,0156489
1831,0793;0,0156248
1832,0436;0,0156937
1833,0078;0,0158203
1833,9720;0,0159462
1834,9363;0,0160192
1835,9005;0,0160194
1836,8647;0,0159754
1837,8290;0,0159493
1838,7932;0,0159928
1839,7574;0,0161112
1840,7217;0,0162591
1841,6859;0,0163631
1842,6501;0,0163596
1843,6144;0,0162393
1844,5786;0,0160631
1845,5428;0,0159119
1846,5071;0,0158212
1847,4713;0,0157754
1848,4355;0,0157442
1849,3998;0,0157109
1850,3640;0,0156781
1851,3282;0,0156582
1852,2925;0,0156596
1853,2567;0,0156794
1854,2209;0,0157075
1855,1852;0,0157366
1856,1494;0,0157661
1857,1136;0,0157985
1858,0779;0,0158307
1859,0421;0,0158528
1860,0063;0,0158555
1860,9706;0,0158407
1861,9348;0,0158243
1862,8990;0,0158261
1863,8633;0,0158551
1864,8275;0,0159009
1865,7917;0,0159365
1866,7560;0,0159344
1867,7202;0,0158893
1868,6844;0,0158264
1869,6487;0,0157797
1870,6129;0,0157619
1871,5771;0,0157619
1872,5414;0,0157618
1873,5056;0,015749
1874,4698;0,0157212
1875,4341;0,0156876
1876,3983;0,0156649
1877,3625;0,0156687
1878,3268;0,0157034
1879,2910;0,0157589
1880,2552;0,0158158
1881,2195;0,0158551
1882,1837;0,0158676
1883,1479;0,0158573
1884,1122;0,0158372
1885,0764;0,0158183
1886,0406;0,0158022
1887,0049;0,0157815
1887,9691;0,0157481
1888,9333;0,0157044
1889,8976;0,0156645
1890,8618;0,0156447
1891,8260;0,0156513
1892,7903;0,0156774
1893,7545;0,0157094
1894,7188;0,0157361
1895,6830;0,0157541
1896,6472;0,0157653
1897,6115;0,0157698
1898,5757;0,0157614
1899,5399;0,015732
1900,5042;0,0156801
1901,4684;0,0156166
1902,4326;0,0155622
1903,3969;0,0155361
1904,3611;0,0155445
1905,3253;0,0155782
1906,2896;0,0156207
1907,2538;0,0156584
1908,2180;0,0156861
1909,1823;0,0157053
1910,1465;0,0157176
1911,1107;0,0157213
1912,0750;0,0157143
1913,0392;0,0156977
1914,0034;0,0156756
1914,9677;0,0156516
1915,9319;0,0156251
1916,8961;0,0155928
1917,8604;0,015553
1918,8246;0,0155102
1919,7888;0,0154765
1920,7531;0,0154653
1921,7173;0,0154817
1922,6815;0,0155153
1923,6458;0,0155413
1924,6100;0,0155338
1925,5742;0,0154824
1926,5385;0,0153996
1927,5027;0,0153136
1928,4669;0,0152523
1929,4312;0,0152289
1930,3954;0,0152372
1931,3596;0,015258
1932,3239;0,0152757
1933,2881;0,0152886
1934,2523;0,0153078
1935,2166;0,0153435
1936,1808;0,0153929
1937,1450;0,015438
1938,1093;0,0154567
1939,0735;0,0154369
1940,0377;0,0153829
1941,0020;0,0153136
1941,9662;0,0152505
1942,9304;0,0152039
1943,8947;0,0151685
1944,8589;0,0151314
1945,8231;0,0150859
1946,7874;0,0150356
1947,7516;0,0149907
1948,7158;0,0149619
1949,6801;0,0149574
1950,6443;0,0149812
1951,6085;0,0150296
1952,5728;0,0150837
1953,5370;0,0151033
1954,5012;0,0150308
1955,4655;0,0148133
1956,4297;0,0144367
1957,3939;0,0139544
1958,3582;0,0134888
1959,3224;0,0131927
1960,2866;0,0131786
1961,2509;0,013455
1962,2151;0,0139138
1963,1793;0,0143835
1964,1436;0,0147125
1965,1078;0,0148357
1966,0720;0,0147912
1967,0363;0,0146818
1968,0005;0,0146013
1968,9647;0,0145756
1969,9290;0,0145609
1970,8932;0,0144924
1971,8574;0,0143379
1972,8217;0,0141221
1973,7859;0,0139121
1974,7501;0,013778
1975,7144;0,0137521
1976,6786;0,0138147
1977,6428;0,0139145
1978,6071;0,0140065
1979,5713;0,014078
1980,5355;0,0141485
1981,4998;0,0142526
1982,4640;0,0144214
1983,4282;0,0146689
1984,3925;0,0149842
1985,3567;0,0153276
1986,3209;0,0156364
1987,2852;0,0158404
1988,2494;0,0158857
1989,2136;0,0157562
1990,1779;0,0154879
1991,1421;0,0151631
1992,1063;0,0148814
1993,0706;0,0147183
1994,0348;0,0146973
1994,9990;0,0147923
1995,9633;0,014951
1996,9275;0,0151166
1997,8917;0,0152412
1998,8560;0,0152892
1999,8202;0,0152407
2000,7844;0,0150969
2001,7487;0,0148849
2002,7129;0,0146586
2003,6771;0,0144873
2004,6414;0,0144338
2005,6056;0,0145247
2006,5698;0,0147315
2007,5341;0,0149777
2008,4983;0,015176
2009,4625;0,0152704
2010,4268;0,0152578
2011,3910;0,0151789
2012,3552;0,0150905
2013,3195;0,0150394
2014,2837;0,0150489
2015,2479;0,0151184
2016,2122;0,0152305
2017,1764;0,0153584
2018,1406;0,0154705
2019,1049;0,0155352
2020,0691;0,0155268
2021,0333;0,0154349
2021,9976;0,0152736
2022,9618;0,0150825
2023,9260;0,0149126
2024,8903;0,0147994
2025,8545;0,0147376
2026,8187;0,0146796
2027,7830;0,0145649
2028,7472;0,0143668
2029,7114;0,0141262
2030,6757;0,0139448
2031,6399;0,0139381
2032,6041;0,0141707
2033,5684;0,0146132
2034,5326;0,0151504
2035,4968;0,0156367
2036,4611;0,0159617
2037,4253;0,0160889
2038,3895;0,0160524
2039,3538;0,0159261
2040,3180;0,0157866
2041,2822;0,0156844
2042,2465;0,0156331
2043,2107;0,0156193
2044,1749;0,0156263
2045,1392;0,0156547
2046,1034;0,0157257
2047,0676;0,0158628
2048,0320;0,0160639
2048,9961;0,0162887
2049,9604;0,0164768
2050,9246;0,0165825
2051,8889;0,0166023
2052,8530;0,0165756
2053,8174;0,016563
2054,7815;0,0166111
2055,7458;0,0167241
2056,7100;0,0168597
2057,6743;0,0169552
2058,6384;0,016966
2059,6028;0,0168923
2060,5669;0,016777
2061,5313;0,0166777
2062,4954;0,0166325
2063,4597;0,016641
2064,4238;0,016671
2065,3882;0,0166851
2066,3523;0,0166655
2067,3167;0,016622
2068,2808;0,0165791
2069,2451;0,0165584
2070,2092;0,016569
2071,1736;0,0166116
2072,1377;0,0166867
2073,1021;0,0167967
2074,0662;0,0169382
2075,0305;0,0170941
2075,9946;0,0172344
2076,9590;0,0173298
2077,9231;0,0173691
2078,8875;0,0173644
2079,8516;0,0173412
2080,8159;0,0173205
2081,7800;0,0173075
2082,7444;0,0172963
2083,7085;0,0172823
2084,6729;0,0172713
2085,6370;0,0172738
2086,6013;0,0172909
2087,5654;0,0173045
2088,5298;0,0172839
2089,4939;0,0172077
2090,4583;0,0170845
2091,4224;0,0169567
2092,3867;0,0168817
2093,3508;0,0169013
2094,3152;0,017017
2095,2793;0,0171874
2096,2437;0,0173481
2097,2078;0,0174444
2098,1721;0,0174547
2099,1362;0,017395
2100,1006;0,0173032
2101,0647;0,0172216
2102,0291;0,0171782
2102,9932;0,0171833
2103,9575;0,0172319
2104,9216;0,0173114
2105,8860;0,0174078
2106,8501;0,0175105
2107,8145;0,0176108
2108,7786;0,0177006
2109,7429;0,0177694
2110,7070;0,0178054
2111,6714;0,0177997
2112,6355;0,017752
2113,5999;0,0176737
2114,5640;0,017586
2115,5283;0,017512
2116,4924;0,0174668
2117,4568;0,0174513
2118,4209;0,0174537
2119,3853;0,0174585
2120,3494;0,0174561
2121,3137;0,0174488
2122,2778;0,0174463
2123,2422;0,0174571
2124,2063;0,0174803
2125,1707;0,0175055
2126,1348;0,0175201
2127,0991;0,0175169
2128,0632;0,0174966
2129,0276;0,017463
2129,9917;0,017418
2130,9561;0,0173634
2131,9202;0,0173096
2132,8845;0,0172845
2133,8486;0,0173291
2134,8130;0,0174739
2135,7771;0,0177083
2136,7415;0,0179675
2137,7056;0,0181526
2138,6699;0,0181806
2139,6340;0,0180312
2140,5984;0,0177657
2141,5625;0,0175033
2142,5269;0,0173676
2143,4910;0,0174322
2144,4553;0,0176933
2145,4194;0,01808
2146,3838;0,0184919
2147,3479;0,0188391
2148,3123;0,0190641
2149,2764;0,0191415
2150,2407;0,0190679
2151,2048;0,0188576
2152,1692;0,0185479
2153,1333;0,0182034
2154,0977;0,0179083
2155,0618;0,0177429
2156,0261;0,0177532
2156,9902;0,0179267
2157,9546;0,0181924
2158,9187;0,0184546
2159,8831;0,0186423
2160,8472;0,0187358
2161,8115;0,0187542
2162,7756;0,0187281
2163,7400;0,0186821
2164,7041;0,018627
2165,6685;0,0185556
2166,6326;0,0184427
2167,5969;0,0182569
2168,5610;0,0179861
2169,5254;0,0176613
2170,4895;0,0173592
2171,4539;0,0171744
2172,4180;0,0171712
2173,3823;0,0173443
2174,3464;0,0176155
2175,3108;0,0178748
2176,2749;0,0180379
2177,2393;0,0180805
2178,2034;0,0180278
2179,1677;0,0179173
2180,1318;0,0177699
2181,0962;0,0175904
2182,0603;0,0173902
2183,0247;0,0172044
2183,9888;0,0170827
2184,9531;0,0170599
2185,9172;0,0171331
2186,8816;0,0172637
2187,8457;0,0174007
2188,8101;0,0175067
2189,7742;0,0175678
2190,7385;0,0175885
2191,7026;0,0175807
2192,6670;0,0175598
2193,6311;0,0175468
2194,5955;0,0175654
2195,5596;0,0176294
2196,5239;0,0177271
2197,4880;0,0178182
2198,4524;0,0178523
2199,4165;0,0178023
2200,3809;0,017688
2201,3450;0,0175693
2202,3093;0,017512
2203,2734;0,017545
2204,2378;0,017643
2205,2019;0,017744
2206,1663;0,0177915
2207,1304;0,0177687
2208,0947;0,017703
2209,0588;0,0176369
2210,0232;0,0175919
2210,9873;0,0175516
2211,9517;0,0174787
2212,9158;0,0173501
2213,8801;0,0171843
2214,8442;0,0170368
2215,8086;0,0169671
2216,7727;0,0170016
2217,7371;0,0171193
2218,7012;0,0172699
2219,6655;0,0174086
2220,6296;0,0175206
2221,5940;0,0176192
2222,5581;0,0177209
2223,5225;0,0178205
2224,4866;0,0178869
2225,4509;0,0178815
2226,4150;0,0177875
2227,3794;0,0176254
2228,3435;0,0174464
2229,3079;0,017307
2230,2720;0,0172441
2231,2363;0,0172629
2232,2004;0,0173433
2233,1648;0,0174558
2234,1289;0,0175752
2235,0933;0,0176856
2236,0574;0,0177767
2237,0217;0,0178387
2237,9858;0,0178614
2238,9502;0,0178381
2239,9143;0,0177713
2240,8787;0,017675
2241,8428;0,0175713
2242,8071;0,0174832
2243,7712;0,0174281
2244,7356;0,0174134
2245,6997;0,0174364
2246,6641;0,0174856
2247,6282;0,0175427
2248,5925;0,0175861
2249,5566;0,0175975
2250,5210;0,0175704
2251,4851;0,0175149
2252,4495;0,0174544
2253,4136;0,0174136
2254,3779;0,0174039
2255,3420;0,0174171
2256,3064;0,0174318
2257,2705;0,0174293
2258,2349;0,0174058
2259,1990;0,0173727
2260,1633;0,0173451
2261,1274;0,0173292
2262,0918;0,0173181
2263,0559;0,0173012
2264,0203;0,017276
2264,9844;0,0172543
2265,9487;0,0172547
2266,9128;0,0172875
2267,8772;0,0173432
2268,8413;0,0173942
2269,8057;0,0174087
2270,7698;0,017368
2271,7341;0,0172765
2272,6982;0,017161
2273,6626;0,0170598
2274,6267;0,0170094
2275,5911;0,0170317
2276,5552;0,0171274
2277,5195;0,0172759
2278,4836;0,0174421
2279,4480;0,0175887
2280,4121;0,0176899
2281,3765;0,01774
2282,3406;0,0177528
2283,3049;0,0177512
2284,2690;0,0177549
2285,2334;0,0177715
2286,1975;0,0177964
2287,1619;0,01782
2288,1260;0,0178366
2289,0903;0,017849
2290,0544;0,0178668
2291,0188;0,0179006
2291,9829;0,0179564
2292,9473;0,0180342
2293,9114;0,0181284
2294,8757;0,0182308
2295,8398;0,0183326
2296,8042;0,0184253
2297,7683;0,018504
2298,7327;0,0185697
2299,6968;0,0186312
2300,6611;0,0187028
2301,6252;0,0187971
2302,5896;0,0189184
2303,5537;0,01906
2304,5181;0,0192083
2305,4822;0,019351
2306,4465;0,019484
2307,4106;0,019612
2308,3750;0,0197432
2309,3391;0,0198817
2310,3035;0,0200238
2311,2676;0,0201605
2312,2319;0,0202831
2313,1960;0,0203875
2314,1604;0,0204759
2315,1245;0,0205556
2316,0889;0,0206368
2317,0530;0,0207298
2318,0173;0,0208392
2318,9814;0,0209566
2319,9458;0,0210535
2320,9099;0,0210853
2321,8743;0,0210104
2322,8384;0,0208181
2323,8027;0,0205437
2324,7668;0,0202571
2325,7312;0,0200316
2326,6953;0,0199106
2327,6597;0,0198888
2328,6238;0,0199148
2329,5881;0,0199126
2330,5522;0,0198179
2331,5166;0,0196089
2332,4807;0,0193122
2333,4451;0,0189813
2334,4092;0,0186658
2335,3735;0,018392
2336,3376;0,0181645
2337,3020;0,0179812
2338,2661;0,0178452
2339,2305;0,0177643
2340,1946;0,0177424
2341,1589;0,0177787
2342,1230;0,0178782
2343,0874;0,0180486
2344,0515;0,0182626
2345,0159;0,0184466
2345,9800;0,0185529
2346,9443;0,0186224
2347,9084;0,0187487
2348,8728;0,0189971
2349,8369;0,0193539
2350,8013;0,0197248
2351,7654;0,0199851
2352,7297;0,0200662
2353,6938;0,0200183
2354,6582;0,0199584
2355,6223;0,0199321
2356,5867;0,0198619
2357,5508;0,0196412
2358,5151;0,0192506
2359,4792;0,0187806
2360,4436;0,018358
2361,4077;0,0180643
2362,3721;0,0179177
2363,3362;0,0179024
2364,3005;0,0179963
2365,2646;0,0181762
2366,2290;0,0184151
2367,1931;0,0186847
2368,1575;0,0189604
2369,1216;0,0192233
2370,0859;0,0194601
2371,0500;0,0196615
2372,0144;0,0198211
2372,9785;0,0199336
2373,9429;0,019993
2374,9070;0,0199929
2375,8713;0,0199295
2376,8354;0,019806
2377,7998;0,0196341
2378,7639;0,0194329
2379,7283;0,0192233
2380,6924;0,0190235
2381,6567;0,0188458
2382,6208;0,0186969
2383,5852;0,0185797
2384,5493;0,0184942
2385,5137;0,0184383
2386,4778;0,0184068
2387,4421;0,0183918
2388,4063;0,0183836
2389,3706;0,018374
2390,3347;0,0183588
2391,2991;0,0183384
2392,2632;0,0183173
2393,2275;0,0183011
2394,1917;0,0182957
2395,1560;0,0183063
2396,1201;0,0183363
2397,0845;0,0183859
2398,0486;0,0184493
2399,0129;0,0185148
2399,9771;0,018568
2400,9414;0,0185968
2401,9055;0,0185974
2402,8699;0,0185763
2403,8340;0,0185476
2404,7983;0,0185272
2405,7625;0,018526
2406,7268;0,018547
2407,6909;0,0185847
2408,6553;0,0186283
2409,6194;0,0186658
2410,5837;0,0186878
2411,5479;0,0186906
2412,5122;0,0186779
2413,4763;0,01866
2414,4407;0,0186504
2415,4048;0,0186601
2416,3691;0,0186932
2417,3333;0,0187441
2418,2976;0,0188001
2419,2617;0,0188468
2420,2261;0,0188746
2421,1902;0,018882
2422,1545;0,0188757
2423,1187;0,0188671
2424,0830;0,0188679
2425,0471;0,0188862
2426,0115;0,0189241
2426,9756;0,0189768
2427,9399;0,0190338
2428,9041;0,019082
2429,8684;0,0191111
2430,8325;0,0191178
2431,7969;0,0191087
2432,7610;0,0190974
2433,7253;0,0190977
2434,6895;0,0191166
2435,6538;0,0191514
2436,6179;0,0191921
2437,5823;0,0192283
2438,5464;0,0192555
2439,5107;0,0192758
2440,4749;0,0192941
2441,4392;0,0193132
2442,4033;0,0193304
2443,3677;0,0193398
2444,3318;0,0193376
2445,2961;0,0193258
2446,2603;0,019312
2447,2246;0,0193049
2448,1887;0,0193089
2449,1531;0,0193219
2450,1172;0,0193374
2451,0815;0,019349
2452,0457;0,0193551
2453,0100;0,0193595
2453,9741;0,0193691
2454,9385;0,0193892
2455,9026;0,0194206
2456,8669;0,019458
2457,8311;0,0194923
2458,7954;0,0195141
2459,7595;0,0195183
2460,7239;0,0195062
2461,6880;0,0194858
2462,6523;0,0194685
2463,6165;0,0194649
2464,5808;0,0194799
2465,5449;0,0195118
2466,5093;0,0195531
2467,4734;0,0195942
2468,4377;0,0196268
2469,4019;0,0196459
2470,3662;0,0196499
2471,3303;0,0196404
2472,2947;0,0196221
2473,2588;0,0196031
2474,2231;0,0195932
2475,1873;0,0196011
2476,1516;0,0196291
2477,1157;0,0196713
2478,0801;0,0197152
2479,0442;0,0197483
2480,0085;0,0197652
2480,9727;0,0197709
2481,9370;0,0197775
2482,9011;0,019796
2483,8655;0,0198292
2484,8296;0,0198692
2485,7939;0,0199017
2486,7581;0,0199142
2487,7224;0,0199027
2488,6865;0,0198746
2489,6509;0,0198443
2490,6150;0,0198269
2491,5793;0,019831
2492,5435;0,0198553
2493,5078;0,0198898
2494,4719;0,0199208
2495,4363;0,019938
2496,4004;0,0199393
2497,3647;0,0199318
2498,3289;0,0199271
2499,2932;0,0199346
2500,2573;0,0199559
2501,2217;0,0199836
2502,1858;0,0200057
2503,1501;0,0200133
2504,1143;0,0200053
2505,0786;0,0199894
2506,0427;0,0199778
2507,0071;0,0199799
2507,9712;0,0199978
2508,9355;0,0200256
2509,8997;0,0200528
2510,8640;0,0200705
2511,8281;0,0200759
2512,7925;0,0200726
2513,7566;0,020068
2514,7209;0,020068
2515,6851;0,0200734
2516,6494;0,0200801
2517,6135;0,0200818
2518,5779;0,0200755
2519,5420;0,0200636
2520,5063;0,0200534
2521,4705;0,0200528
2522,4348;0,0200657
2523,3989;0,0200898
2524,3633;0,0201181
2525,3274;0,020143
2526,2917;0,02016
2527,2559;0,0201692
2528,2202;0,0201735
2529,1843;0,0201757
2530,1487;0,0201766
2531,1128;0,0201757
2532,0771;0,0201742
2533,0413;0,0201762
2534,0056;0,0201877
2534,9697;0,0202125
2535,9341;0,020248
2536,8982;0,0202849
2537,8625;0,0203118
2538,8267;0,0203217
2539,7910;0,0203171
2540,7551;0,0203089
2541,7195;0,0203091
2542,6836;0,0203236
2543,6479;0,0203474
2544,6121;0,0203678
2545,5764;0,0203723
2546,5405;0,0203557
2547,5049;0,0203224
2548,4690;0,0202835
2549,4333;0,0202507
2550,3975;0,0202318
2551,3618;0,0202297
2552,3259;0,0202432
2553,2903;0,0202694
2554,2544;0,020305
2555,2188;0,0203464
2556,1829;0,0203899
2557,1472;0,0204321
2558,1113;0,0204688
2559,0757;0,0204947
2560,0398;0,0205034
2561,0042;0,0204898
2561,9683;0,0204541
2562,9326;0,0204047
2563,8967;0,0203564
2564,8611;0,020325
2565,8252;0,0203189
2566,7896;0,0203352
2567,7537;0,0203623
2568,7180;0,0203875
2569,6821;0,0204046
2570,6465;0,0204165
2571,6106;0,0204298
2572,5750;0,0204482
2573,5391;0,0204679
2574,5034;0,02048
2575,4675;0,0204771
2576,4319;0,0204591
2577,3960;0,0204339
2578,3604;0,0204128
2579,3245;0,0204055
2580,2888;0,0204159
2581,2529;0,0204425
2582,2173;0,020481
2583,1814;0,020526
2584,1458;0,0205716
2585,1099;0,0206119
2586,0742;0,0206415
2587,0383;0,0206571
2588,0027;0,0206592
2588,9668;0,0206516
2589,9312;0,0206403
2590,8953;0,0206311
2591,8596;0,0206288
2592,8237;0,0206369
2593,7881;0,020657
2594,7522;0,0206882
2595,7166;0,0207272
2596,6807;0,0207685
2597,6450;0,0208065
2598,6091;0,0208375
2599,5735;0,0208601
2600,5376;0,0208742
2601,5020;0,0208804
2602,4661;0,0208803
2603,4304;0,0208776
2604,3945;0,0208781
2605,3589;0,0208881
2606,3230;0,0209101
2607,2874;0,0209398
2608,2515;0,0209674
2609,2158;0,0209827
2610,1799;0,0209811
2611,1443;0,0209676
2612,1084;0,0209543
2613,0728;0,0209541
2614,0369;0,020975
2615,0012;0,0210167
2615,9653;0,021072
2616,9297;0,0211317
2617,8938;0,0211876
2618,8582;0,0212349
2619,8223;0,021271
2620,7866;0,0212946
2621,7507;0,0213047
2622,7151;0,0213014
2623,6792;0,0212878
2624,6436;0,0212708
2625,6077;0,021261
2626,5720;0,0212687
2627,5361;0,0213001
2628,5005;0,0213526
2629,4646;0,021416
2630,4290;0,0214761
2631,3931;0,0215215
2632,3574;0,0215485
2633,3215;0,0215612
2634,2859;0,0215676
2635,2500;0,0215743
2636,2144;0,0215834
2637,1785;0,0215932
2638,1428;0,0216017
2639,1069;0,0216089
2640,0713;0,0216178
2641,0354;0,0216317
2641,9998;0,0216524
2642,9639;0,0216792
2643,9282;0,0217104
2644,8923;0,0217439
2645,8567;0,0217786
2646,8208;0,0218136
2647,7852;0,0218475
2648,7493;0,0218785
2649,7136;0,0219056
2650,6777;0,0219286
2651,6421;0,0219492
2652,6062;0,0219702
2653,5706;0,0219937
2654,5347;0,0220204
2655,4990;0,022049
2656,4631;0,0220768
2657,4275;0,0221012
2658,3916;0,0221209
2659,3560;0,0221368
2660,3201;0,0221512
2661,2844;0,0221669
2662,2485;0,0221853
2663,2129;0,0222061
2664,1770;0,0222281
2665,1414;0,0222506
2666,1055;0,0222736
2667,0698;0,0222976
2668,0339;0,0223222
2668,9983;0,0223454
2669,9624;0,0223648
2670,9268;0,02238
2671,8909;0,0223934
2672,8552;0,0224097
2673,8193;0,0224323
2674,7837;0,0224612
2675,7478;0,0224922
2676,7122;0,0225197
2677,6763;0,0225416
2678,6406;0,0225609
2679,6047;0,0225843
2680,5691;0,0226176
2681,5332;0,0226616
2682,4976;0,0227103
2683,4617;0,0227549
2684,4260;0,0227886
2685,3901;0,0228101
2686,3545;0,0228244
2687,3186;0,0228386
2688,2830;0,0228582
2689,2471;0,0228845
2690,2114;0,0229151
2691,1755;0,0229462
2692,1399;0,0229758
2693,1040;0,0230034
2694,0684;0,0230298
2695,0325;0,0230554
2695,9968;0,0230797
2696,9609;0,0231024
2697,9253;0,0231245
2698,8894;0,0231489
2699,8538;0,0231795
2700,8179;0,0232188
2701,7822;0,0232663
2702,7463;0,0233178
2703,7107;0,0233671
2704,6748;0,0234087
2705,6392;0,0234401
2706,6033;0,0234629
2707,5676;0,0234815
2708,5317;0,0235011
2709,4961;0,0235254
2710,4602;0,0235552
2711,4246;0,023589
2712,3887;0,0236243
2713,3530;0,0236589
2714,3171;0,0236917
2715,2815;0,0237221
2716,2456;0,0237502
2717,2100;0,0237759
2718,1741;0,0237997
2719,1384;0,0238228
2720,1025;0,0238469
2721,0669;0,0238733
2722,0310;0,0239017
2722,9954;0,0239305
2723,9595;0,0239578
2724,9238;0,0239827
2725,8879;0,0240064
2726,8523;0,0240318
2727,8164;0,0240622
2728,7808;0,0240994
2729,7449;0,0241424
2730,7092;0,0241879
2731,6733;0,024231
2732,6377;0,0242672
2733,6018;0,0242933
2734,5662;0,0243084
2735,5303;0,0243146
2736,4946;0,0243158
2737,4587;0,0243172
2738,4231;0,0243235
2739,3872;0,0243377
2740,3516;0,024361
2741,3157;0,0243919
2742,2800;0,0244269
2743,2441;0,0244613
2744,2085;0,0244894
2745,1726;0,0245067
2746,1370;0,0245114
2747,1011;0,0245061
2748,0654;0,0244976
2749,0295;0,0244948
2749,9939;0,0245058
2750,9580;0,0245349
2751,9224;0,024581
2752,8865;0,0246387
2753,8508;0,0247003
2754,8149;0,024758
2755,7793;0,0248059
2756,7434;0,0248416
2757,7078;0,0248657
2758,6719;0,0248821
2759,6362;0,0248962
2760,6003;0,0249135
2761,5647;0,0249373
2762,5288;0,024968
2763,4932;0,0250036
2764,4573;0,0250412
2765,4216;0,0250787
2766,3857;0,0251159
2767,3501;0,0251541
2768,3142;0,0251939
2769,2786;0,0252342
2770,2427;0,025272
2771,2070;0,0253039
2772,1711;0,0253288
2773,1355;0,0253496
2774,0996;0,0253726
2775,0640;0,0254043
2776,0281;0,0254488
2776,9924;0,0255051
2777,9565;0,0255682
2778,9209;0,025632
2779,8850;0,0256924
2780,8494;0,0257491
2781,8135;0,0258051
2782,7778;0,0258636
2783,7419;0,0259258
2784,7063;0,0259889
2785,6704;0,0260472
2786,6348;0,0260952
2787,5989;0,0261302
2788,5632;0,0261553
2789,5273;0,0261791
2790,4917;0,0262126
2791,4558;0,0262649
2792,4202;0,0263384
2793,3843;0,0264279
2794,3486;0,0265226
2795,3127;0,0266115
2796,2771;0,0266883
2797,2412;0,0267539
2798,2056;0,0268142
2799,1697;0,0268772
2800,1340;0,0269491
2801,0981;0,0270335
2802,0625;0,027131
2803,0266;0,0272406
2803,9910;0,0273585
2804,9551;0,0274782
2805,9194;0,0275911
2806,8835;0,0276899
2807,8479;0,0277728
2808,8120;0,027845
2809,7764;0,0279177
2810,7405;0,0280021
2811,7048;0,0281046
2812,6689;0,028224
2813,6333;0,0283539
2814,5974;0,0284877
2815,5618;0,0286222
2816,5259;0,028759
2817,4902;0,0289012
2818,4543;0,0290509
2819,4187;0,0292065
2820,3828;0,0293644
2821,3472;0,0295211
2822,3113;0,0296762
2823,2756;0,029833
2824,2397;0,0299975
2825,2041;0,0301762
2826,1682;0,0303734
2827,1326;0,0305892
2828,0967;0,0308197
2829,0610;0,0310584
2830,0251;0,0313004
2830,9895;0,0315451
2831,9536;0,0317978
2832,9180;0,0320663
2833,8821;0,0323567
2834,8464;0,0326688
2835,8105;0,0329964
2836,7749;0,0333317
2837,7390;0,0336718
2838,7034;0,0340227
2839,6675;0,0343978
2840,6318;0,0348128
2841,5959;0,0352797
2842,5603;0,0358035
2843,5244;0,036382
2844,4888;0,0370059
2845,4529;0,037658
2846,4172;0,0383099
2847,3813;0,0389219
2848,3457;0,0394476
2849,3098;0,0398453
2850,2742;0,0400911
2851,2383;0,0401869
2852,2026;0,0401594
2853,1667;0,0400507
2854,1311;0,0399044
2855,0952;0,0397539
2856,0596;0,0396181
2857,0237;0,0395028
2857,9880;0,0394079
2858,9521;0,0393335
2859,9165;0,0392838
2860,8806;0,0392666
2861,8450;0,0392889
2862,8091;0,0393535
2863,7734;0,0394562
2864,7375;0,0395877
2865,7019;0,0397372
2866,6660;0,0398955
2867,6304;0,0400566
2868,5945;0,0402154
2869,5588;0,0403659
2870,5229;0,0405007
2871,4873;0,040613
2872,4514;0,0406999
2873,4158;0,0407649
2874,3799;0,0408168
2875,3442;0,0408659
2876,3083;0,0409206
2877,2727;0,0409854
2878,2368;0,0410609
2879,2012;0,0411456
2880,1653;0,0412369
2881,1296;0,0413314
2882,0938;0,0414255
2883,0581;0,0415162
2884,0222;0,0416026
2884,9866;0,0416862
2885,9507;0,0417707
2886,9150;0,0418603
2887,8792;0,0419587
2888,8435;0,0420676
2889,8076;0,042186
2890,7720;0,042311
2891,7361;0,0424374
2892,7004;0,042559
2893,6646;0,0426708
2894,6289;0,0427713
2895,5930;0,0428635
2896,5574;0,0429539
2897,5215;0,0430495
2898,4858;0,0431537
2899,4500;0,0432659
2900,4143;0,0433823
2901,3784;0,0435002
2902,3428;0,0436207
2903,3069;0,0437488
2904,2712;0,0438907
2905,2354;0,0440511
2906,1997;0,0442319
2907,1638;0,0444349
2908,1282;0,0446645
2909,0923;0,0449287
2910,0566;0,0452372
2911,0208;0,0455953
2911,9851;0,0459988
2912,9492;0,0464314
2913,9136;0,0468667
2914,8777;0,0472738
2915,8420;0,0476238
2916,8062;0,0478941
2917,7705;0,0480717
2918,7346;0,0481525
2919,6990;0,0481404
2920,6631;0,048045
2921,6274;0,047879
2922,5916;0,0476561
2923,5559;0,0473887
2924,5200;0,047087
2925,4844;0,0467594
2926,4485;0,0464127
2927,4128;0,0460533
2928,3770;0,0456881
2929,3413;0,0453232
2930,3054;0,0449638
2931,2698;0,0446127
2932,2339;0,0442708
2933,1982;0,0439379
2934,1624;0,0436138
2935,1267;0,0432984
2936,0908;0,0429909
2937,0552;0,0426878
2938,0193;0,0423828
2938,9836;0,0420684
2939,9478;0,041739
2940,9121;0,041394
2941,8762;0,041039
2942,8406;0,0406836
2943,8047;0,0403383
2944,7690;0,0400113
2945,7332;0,0397072
2946,6975;0,0394276
2947,6616;0,0391724
2948,6260;0,03894
2949,5901;0,0387264
2950,5544;0,0385252
2951,5186;0,0383286
2952,4829;0,0381301
2953,4470;0,0379273
2954,4114;0,0377217
2955,3755;0,0375167
2956,3398;0,0373148
2957,3040;0,0371146
2958,2683;0,0369117
2959,2324;0,0367004
2960,1968;0,0364772
2961,1609;0,0362423
2962,1252;0,0359992
2963,0894;0,0357536
2964,0537;0,0355115
2965,0178;0,0352771
2965,9822;0,0350513
2966,9463;0,0348312
2967,9106;0,034611
2968,8748;0,0343844
2969,8391;0,0341486
2970,8032;0,0339061
2971,7676;0,0336644
2972,7317;0,0334329
2973,6960;0,0332183
2974,6602;0,0330213
2975,6245;0,0328372
2976,5886;0,0326589
2977,5530;0,0324816
2978,5171;0,0323048
2979,4814;0,0321326
2980,4456;0,0319706
2981,4099;0,0318231
2982,3740;0,0316907
2983,3384;0,0315714
2984,3025;0,0314623
2985,2668;0,0313616
2986,2310;0,0312693
2987,1953;0,0311863
2988,1594;0,0311128
2989,1238;0,0310477
2990,0879;0,0309892
2991,0522;0,0309365
2992,0164;0,0308904
2992,9807;0,0308532
2993,9448;0,0308265
2994,9092;0,0308103
2995,8733;0,0308021
2996,8376;0,0307986
2997,8018;0,030797
2998,7661;0,0307965
2999,7302;0,0307975
3000,6946;0,0308014
3001,6587;0,0308094
3002,6230;0,0308224
3003,5872;0,0308409
3004,5515;0,0308645
3005,5156;0,0308912
3006,4800;0,0309174
3007,4441;0,0309391
3008,4084;0,0309534
3009,3726;0,030961
3010,3369;0,0309648
3011,3010;0,030969
3012,2654;0,0309755
3013,2295;0,0309838
3014,1938;0,0309925
3015,1580;0,0310031
3016,1223;0,0310217
3017,0864;0,0310577
3018,0508;0,0311177
3019,0149;0,0312
3019,9792;0,0312931
3020,9434;0,0313802
3021,9077;0,0314477
3022,8718;0,0314929
3023,8362;0,0315251
3024,8003;0,0315597
3025,7646;0,0316086
3026,7288;0,0316739
3027,6931;0,0317478
3028,6572;0,0318184
3029,6216;0,0318776
3030,5857;0,0319246
3031,5500;0,0319658
3032,5142;0,0320107
3033,4785;0,032068
3034,4426;0,0321432
3035,4070;0,0322378
3036,3711;0,0323487
3037,3354;0,0324683
3038,2996;0,0325856
3039,2639;0,0326899
3040,2280;0,0327757
3041,1924;0,0328457
3042,1565;0,0329104
3043,1208;0,0329824
3044,0850;0,0330708
3045,0493;0,033177
3046,0134;0,0332955
3046,9778;0,0334176
3047,9419;0,0335365
3048,9063;0,0336493
3049,8704;0,0337576
3050,8347;0,0338652
3051,7988;0,0339749
3052,7632;0,0340875
3053,7273;0,0342011
3054,6917;0,0343129
3055,6558;0,034422
3056,6201;0,0345306
3057,5842;0,034644
3058,5486;0,0347672
3059,5127;0,0349013
3060,4771;0,035042
3061,4412;0,0351804
3062,4055;0,0353079
3063,3696;0,0354199
3064,3340;0,0355183
3065,2981;0,0356098
3066,2625;0,0357026
3067,2266;0,0358031
3068,1909;0,0359146
3069,1550;0,0360382
3070,1194;0,0361739
3071,0835;0,0363201
3072,0479;0,0364725
3073,0120;0,0366247
3073,9763;0,0367692
3074,9404;0,0369004
3075,9048;0,0370172
3076,8689;0,0371225
3077,8333;0,0372215
3078,7974;0,0373192
3079,7617;0,0374196
3080,7258;0,0375256
3081,6902;0,0376399
3082,6543;0,0377634
3083,6187;0,0378943
3084,5828;0,038027
3085,5471;0,0381548
3086,5112;0,0382736
3087,4756;0,0383854
3088,4397;0,0384972
3089,4041;0,0386163
3090,3682;0,0387452
3091,3325;0,0388804
3092,2966;0,0390154
3093,2610;0,0391465
3094,2251;0,0392762
3095,1895;0,03941
3096,1536;0,0395508
3097,1179;0,0396943
3098,0820;0,0398298
3099,0464;0,0399479
3100,0105;0,040048
3100,9749;0,0401408
3101,9390;0,0402433
3102,9033;0,0403694
3103,8674;0,040522
3104,8318;0,0406924
3105,7959;0,0408664
3106,7603;0,0410328
3107,7244;0,0411891
3108,6887;0,0413412
3109,6528;0,0414973
3110,6172;0,0416612
3111,5813;0,0418293
3112,5457;0,0419924
3113,5098;0,0421421
3114,4741;0,0422761
3115,4382;0,0424
3116,4026;0,0425236
3117,3667;0,0426552
3118,3311;0,0427969
3119,2952;0,0429449
3120,2595;0,0430931
3121,2236;0,0432377
3122,1880;0,0433797
3123,1521;0,0435247
3124,1165;0,04368
3125,0806;0,0438508
3126,0449;0,0440371
3127,0090;0,0442326
3127,9734;0,0444257
3128,9375;0,0446036
3129,9019;0,044758
3130,8660;0,0448899
3131,8303;0,04501
3132,7944;0,0451351
3133,7588;0,0452795
3134,7229;0,0454494
3135,6873;0,0456409
3136,6514;0,0458436
3137,6157;0,0460465
3138,5798;0,0462416
3139,5442;0,0464253
3140,5083;0,046597
3141,4727;0,0467583
3142,4368;0,0469135
3143,4011;0,0470693
3144,3652;0,0472336
3145,3296;0,0474122
3146,2937;0,0476063
3147,2581;0,0478108
3148,2222;0,0480171
3149,1865;0,0482165
3150,1506;0,0484034
3151,1150;0,0485773
3152,0791;0,0487419
3153,0435;0,0489039
3154,0076;0,04907
3154,9719;0,0492445
3155,9360;0,0494271
3156,9004;0,0496134
3157,8645;0,0497967
3158,8289;0,0499719
3159,7930;0,0501389
3160,7573;0,0503022
3161,7214;0,0504692
3162,6858;0,0506455
3163,6499;0,0508323
3164,6143;0,0510265
3165,5784;0,0512224
3166,5427;0,0514152
3167,5068;0,0516029
3168,4712;0,0517867
3169,4353;0,0519576
3170,3997;0,0521483
3171,3638;0,0523497
3172,3281;0,0525617
3173,2922;0,0527778
3174,2566;0,0529876
3175,2207;0,0531812
3176,1851;0,0533562
3177,1492;0,0535206
3178,1135;0,0536897
3179,0776;0,0538775
3180,0420;0,0540876
3181,0061;0,0543106
3181,9705;0,0545294
3182,9346;0,0547291
3183,8989;0,054905
3184,8630;0,0550642
3185,8274;0,0552197
3186,7915;0,0553825
3187,7559;0,0555572
3188,7200;0,0557425
3189,6843;0,0559347
3190,6484;0,0561312
3191,6128;0,0563293
3192,5769;0,0565246
3193,5413;0,0567111
3194,5054;0,0568838
3195,4697;0,0570429
3196,4338;0,0571959
3197,3982;0,0573538
3198,3623;0,0575249
3199,3267;0,0577097
3200,2908;0,0579009
3201,2551;0,0580884
3202,2192;0,058265
3203,1836;0,0584298
3204,1477;0,0585869
3205,1121;0,0587423
3206,0762;0,0589015
3207,0405;0,0590683
3208,0046;0,0592451
3208,9690;0,0594322
3209,9331;0,0596268
3210,8975;0,0598225
3211,8616;0,0600115
3212,8259;0,0601876
3213,7900;0,0603499
3214,7544;0,0605028
3215,7185;0,060653
3216,6829;0,060806
3217,6470;0,060964
3218,6113;0,061127
3219,5754;0,0612951
3220,5398;0,0614696
3221,5039;0,0616509
3222,4683;0,061836
3223,4324;0,0620189
3224,3967;0,0621933
3225,3608;0,0623571
3226,3252;0,0625152
3227,2893;0,0626765
3228,2537;0,0628475
3229,2178;0,0630272
3230,1821;0,0632067
3231,1462;0,063375
3232,1106;0,063526
3233,0747;0,0636631
3234,0391;0,063797
3235,0032;0,0639393
3235,9675;0,0640963
3236,9316;0,064267
3237,8960;0,0644451
3238,8601;0,0646234
3239,8245;0,0647968
3240,7886;0,0649634
3241,7529;0,065124
3242,7170;0,0652801
3243,6814;0,0654337
3244,6455;0,0655869
3245,6099;0,0657416
3246,5740;0,0658999
3247,5383;0,0660642
3248,5024;0,0662364
3249,4668;0,0664167
3250,4309;0,0666025
3251,3953;0,0667876
3252,3594;0,0669646
3253,3237;0,0671285
3254,2878;0,0672806
3255,2522;0,0674291
3256,2163;0,0675849
3257,1807;0,0677562
3258,1448;0,0679428
3259,1091;0,0681363
3260,0732;0,0683243
3261,0376;0,0684973
3262,0017;0,0686532
3262,9661;0,0687987
3263,9302;0,0689451
3264,8945;0,0691025
3265,8586;0,0692744
3266,8230;0,0694558
3267,7871;0,069635
3268,7515;0,0697988
3269,7156;0,0699368
3270,6799;0,0700459
3271,6440;0,07013
3272,6084;0,0701992
3273,5725;0,0702661
3274,5369;0,0703418
3275,5010;0,0704334
3276,4653;0,0705421
3277,4294;0,0706636
3278,3938;0,0707903
3279,3579;0,0709138
3280,3223;0,0710281
3281,2864;0,0711306
3282,2507;0,0712217
3283,2148;0,071303
3284,1792;0,0713748
3285,1433;0,0714361
3286,1077;0,0714851
3287,0718;0,0715217
3288,0361;0,0715487
3289,0002;0,0715724
3289,9646;0,0716
3290,9287;0,0716377
3291,8931;0,071688
3292,8572;0,0717492
3293,8215;0,0718157
3294,7856;0,0718809
3295,7500;0,0719391
3296,7141;0,0719874
3297,6785;0,0720269
3298,6426;0,0720613
3299,6069;0,0720956
3300,5710;0,0721338
3301,5354;0,0721778
3302,4995;0,0722272
3303,4639;0,0722796
3304,4280;0,0723325
3305,3923;0,0723843
3306,3564;0,0724344
3307,3208;0,072483
3308,2849;0,072529
3309,2493;0,0725702
3310,2134;0,0726033
3311,1777;0,0726276
3312,1418;0,0726469
3313,1062;0,0726703
3314,0703;0,0727097
3315,0347;0,0727742
3315,9988;0,0728664
3316,9631;0,0729809
3317,9272;0,0731067
3318,8916;0,0732321
3319,8557;0,0733488
3320,8201;0,0734527
3321,7842;0,0735437
3322,7485;0,0736235
3323,7126;0,0736944
3324,6770;0,0737589
3325,6411;0,0738198
3326,6055;0,0738801
3327,5696;0,0739432
3328,5339;0,0740116
3329,4980;0,0740862
3330,4624;0,074165
3331,4265;0,074242
3332,3909;0,0743082
3333,3550;0,0743542
3334,3193;0,0743745
3335,2834;0,0743709
3336,2478;0,0743527
3337,2119;0,0743315
3338,1763;0,0743147
3339,1404;0,0742999
3340,1047;0,0742769
3341,0688;0,0742332
3342,0332;0,0741628
3342,9973;0,0740704
3343,9617;0,0739693
3344,9258;0,0738744
3345,8901;0,0737944
3346,8542;0,0737281
3347,8186;0,0736665
3348,7827;0,0735989
3349,7471;0,0735189
3350,7112;0,0734267
3351,6755;0,0733265
3352,6396;0,073223
3353,6040;0,0731178
3354,5681;0,0730093
3355,5325;0,0728953
3356,4966;0,0727755
3357,4609;0,0726532
3358,4250;0,0725344
3359,3894;0,0724261
3360,3535;0,0723332
3361,3179;0,0722573
3362,2820;0,0721954
3363,2463;0,0721405
3364,2104;0,0720823
3365,1748;0,0720099
3366,1389;0,0719147
3367,1033;0,0717933
3368,0674;0,0716488
3369,0317;0,0714899
3369,9958;0,0713281
3370,9602;0,0711731
3371,9243;0,0710301
3372,8887;0,0708985
3373,8528;0,0707738
3374,8171;0,070651
3375,7813;0,0705284
3376,7456;0,070409
3377,7097;0,0702986
3378,6741;0,0702009
3379,6382;0,0701125
3380,6025;0,0700226
3381,5667;0,0699175
3382,5310;0,0697904
3383,4951;0,0696475
3384,4595;0,0695078
3385,4236;0,0693934
3386,3879;0,0693158
3387,3521;0,0692677
3388,3164;0,0692246
3389,2805;0,0691572
3390,2449;0,0690458
3391,2090;0,0688888
3392,1733;0,0687028
3393,1375;0,0685131
3394,1018;0,0683423
3395,0659;0,0682022
3396,0303;0,068093
3396,9944;0,0680051
3397,9587;0,0679228
3398,9229;0,0678281
3399,8872;0,0677067
3400,8513;0,0675534
3401,8157;0,0673746
3402,7798;0,0671856
3403,7441;0,0670026
3404,7083;0,0668342
3405,6726;0,0666793
3406,6367;0,0665303
3407,6011;0,0663805
3408,5652;0,0662279
3409,5295;0,0660741
3410,4937;0,0659201
3411,4580;0,0657638
3412,4221;0,0656015
3413,3865;0,0654321
3414,3506;0,0652587
3415,3149;0,065086
3416,2791;0,0649148
3417,2434;0,0647404
3418,2075;0,0645549
3419,1719;0,0643543
3420,1360;0,0641433
3421,1003;0,0639342
3422,0645;0,0637392
3423,0288;0,0635627
3423,9929;0,063399
3424,9573;0,063236
3425,9214;0,0630625
3426,8857;0,0628738
3427,8499;0,0626723
3428,8142;0,0624644
3429,7783;0,0622552
3430,7427;0,0620455
3431,7068;0,0618326
3432,6711;0,0616147
3433,6353;0,0613935
3434,5996;0,0611744
3435,5637;0,0609617
3436,5281;0,0607554
3437,4922;0,060551
3438,4565;0,0603446
3439,4207;0,0601376
3440,3850;0,059937
3441,3491;0,0597484
3442,3135;0,059566
3443,2776;0,0593709
3444,2419;0,0591397
3445,2061;0,0588605
3446,1704;0,0585459
3447,1345;0,0582306
3448,0989;0,0579523
3449,0630;0,0577293
3450,0273;0,0575527
3450,9915;0,057397
3451,9558;0,0572368
3452,9199;0,0570593
3453,8843;0,0568653
3454,8484;0,056661
3455,8127;0,0564488
3456,7769;0,0562244
3457,7412;0,0559818
3458,7053;0,0557218
3459,6697;0,0554554
3460,6338;0,0552
3461,5981;0,0549699
3462,5623;0,0547665
3463,5266;0,054576
3464,4907;0,0543759
3465,4551;0,054147
3466,4192;0,0538843
3467,3835;0,0536005
3468,3477;0,053319
3469,3120;0,0530609
3470,2761;0,0528326
3471,2405;0,0526245
3472,2046;0,0524198
3473,1689;0,0522084
3474,1331;0,0519938
3475,0974;0,0517885
3476,0615;0,0515997
3477,0259;0,0514178
3477,9900;0,0512193
3478,9543;0,0509809
3479,9185;0,0506985
3480,8828;0,0503947
3481,8469;0,0501061
3482,8113;0,049859
3483,7754;0,0496509
3484,7397;0,0494546
3485,7039;0,0492387
3486,6682;0,0489908
3487,6323;0,0487262
3488,5967;0,0484774
3489,5608;0,04827
3490,5251;0,0481035
3491,4893;0,0479497
3492,4536;0,0477703
3493,4177;0,0475415
3494,3821;0,0472715
3495,3462;0,0469999
3496,3105;0,0467747
3497,2747;0,04662
3498,2390;0,0465172
3499,2031;0,0464114
3500,1675;0,046239
3501,1316;0,0459645
3502,0959;0,0456062
3503,0601;0,0452316
3504,0244;0,0449145
3504,9885;0,0446874
3505,9529;0,0445265
3506,9170;0,0443748
3507,8813;0,0441801
3508,8455;0,0439256
3509,8098;0,0436366
3510,7739;0,0433598
3511,7383;0,0431293
3512,7024;0,0429476
3513,6667;0,0427919
3514,6309;0,0426362
3515,5952;0,0424683
3516,5593;0,0422938
3517,5237;0,0421256
3518,4878;0,0419691
3519,4521;0,0418159
3520,4163;0,0416488
3521,3806;0,0414529
3522,3447;0,0412246
3523,3091;0,0409697
3524,2732;0,0406942
3525,2375;0,0403971
3526,2017;0,040075
3527,1660;0,0397346
3528,1301;0,0394018
3529,0945;0,0391141
3530,0586;0,0388996
3531,0229;0,0387578
3531,9871;0,0386582
3532,9514;0,0385538
3533,9155;0,0384028
3534,8799;0,0381871
3535,8440;0,0379226
3536,8083;0,037653
3537,7725;0,0374282
3538,7368;0,0372793
3539,7009;0,0372039
3540,6653;0,0371651
3541,6294;0,0371008
3542,5938;0,036943
3543,5579;0,0366487
3544,5222;0,0362333
3545,4863;0,0357765
3546,4507;0,0353786
3547,4148;0,0350952
3548,3792;0,0349086
3549,3433;0,0347511
3550,3076;0,0345525
3551,2717;0,0342815
3552,2361;0,0339657
3553,2002;0,0336719
3554,1646;0,0334575
3555,1287;0,0333306
3556,0930;0,0332512
3557,0571;0,0331639
3558,0215;0,0330368
3558,9856;0,0328852
3559,9500;0,0327624
3560,9141;0,0327181
3561,8784;0,0327508
3562,8425;0,0327854
3563,8069;0,032686
3564,7710;0,0323109
3565,7354;0,031618
3566,6995;0,0307611
3567,6638;0,0300198
3568,6279;0,0295808
3569,5923;0,029432
3570,5564;0,0294463
3571,5208;0,0294899
3572,4849;0,0294729
3573,4492;0,0293621
3574,4133;0,029173
3575,3777;0,0289438
3576,3418;0,0287035
3577,3062;0,0284583
3578,2703;0,0282075
3579,2346;0,0279709
3580,1987;0,0277955
3581,1631;0,0277287
3582,1272;0,0277765
3583,0916;0,0278754
3584,0557;0,0278955
3585,0200;0,0276826
3585,9841;0,0271559
3586,9485;0,0264178
3587,9126;0,0257281
3588,8770;0,0252973
3589,8411;0,0251425
3590,8054;0,0251378
3591,7695;0,0251291
3592,7339;0,025009
3593,6980;0,0247557
3594,6624;0,0244314
3595,6265;0,0241238
3596,5908;0,0238692
3597,5549;0,0236347
3598,5193;0,0233708
3599,4834;0,0230774
3600,4478;0,0228215
3601,4119;0,0226876
3602,3762;0,0227057
3603,3403;0,0228242
3604,3047;0,0229391
3605,2688;0,0229485
3606,2332;0,022804
3607,1973;0,0225405
3608,1616;0,0222517
3609,1257;0,0220151
3610,0901;0,0218382
3611,0542;0,0216794
3612,0186;0,0215079
3612,9827;0,0213355
3613,9470;0,0211954
3614,9111;0,0210914
3615,8755;0,0209651
3616,8396;0,0207121
3617,8040;0,0202527
3618,7681;0,0196263
3619,7324;0,0190159
3620,6965;0,0186371
3621,6609;0,0185936
3622,6250;0,0188498
3623,5894;0,0192845
3624,5535;0,0197288
3625,5178;0,0199686
3626,4819;0,0197707
3627,4463;0,0190237
3628,4104;0,0179493
3629,3748;0,0170282
3630,3389;0,016563
3631,3032;0,016495
3632,2673;0,0166146
3633,2317;0,0167525
3634,1958;0,0168275
3635,1602;0,0168316
3636,1243;0,0167961
3637,0886;0,0167528
3638,0527;0,0167131
3639,0171;0,016677
3639,9812;0,016657
3640,9456;0,016692
3641,9097;0,0168332
3642,8740;0,0171084
3643,8381;0,0174878
3644,8025;0,0178558
3645,7666;0,0179935
3646,7310;0,0176081
3647,6951;0,0165369
3648,6594;0,015105
3649,6235;0,0140248
3650,5879;0,0136654
3651,5520;0,013843
3652,5164;0,0142193
3653,4805;0,0145387
3654,4448;0,0146537
3655,4089;0,0145323
3656,3733;0,0142668
3657,3374;0,014013
3658,3018;0,013871
3659,2659;0,0138325
3660,2302;0,0138335
3661,1943;0,0138338
3662,1587;0,0138564
3663,1228;0,0139661
3664,0872;0,0142043
3665,0513;0,0145323
3666,0156;0,0148215
3666,9797;0,0148973
3667,9441;0,0146455
3668,9082;0,0141501
3669,8726;0,0136947
3670,8367;0,0135186
3671,8010;0,0136005
3672,7651;0,013705
3673,7295;0,0135595
3674,6936;0,0130456
3675,6580;0,0123383
3676,6221;0,0117783
3677,5864;0,0115468
3678,5505;0,0115809
3679,5149;0,0117399
3680,4790;0,0119329
3681,4434;0,0121433
3682,4075;0,0124003
3683,3718;0,0127302
3684,3359;0,0131103
3685,3003;0,0134421
3686,2644;0,0135562
3687,2288;0,013274
3688,1929;0,0125567
3689,1572;0,0116437
3690,1213;0,0109198
3691,0857;0,0105873
3692,0498;0,0105873
3693,0142;0,0107707
3693,9783;0,0110274
3694,9426;0,0113066
3695,9067;0,0115903
3696,8711;0,011857
3697,8352;0,0120588
3698,7996;0,0121246
3699,7637;0,0119971
3700,7280;0,0116935
3701,6921;0,0113354
3702,6565;0,0110954
3703,6206;0,0110904
3704,5850;0,0113261
3705,5491;0,0117187
3706,5134;0,0121359
3707,4775;0,0124207
3708,4419;0,0124176
3709,4060;0,0120508
3710,3704;0,0114399
3711,3345;0,0108882
3712,2988;0,0106451
3713,2629;0,0107307
3714,2273;0,0110178
3715,1914;0,0113685
3716,1558;0,0116827
3717,1199;0,011898
3718,0842;0,0119882
3719,0483;0,0119659
3720,0127;0,0118713
3720,9768;0,0117428
3721,9412;0,0115886
3722,9053;0,0113947
3723,8696;0,0111632
3724,8337;0,0109462
3725,7981;0,0108308
3726,7622;0,0108875
3727,7266;0,011131
3728,6907;0,0115207
3729,6550;0,0119791
3730,6191;0,0124011
3731,5835;0,0126558
3732,5476;0,0126053
3733,5120;0,0121817
3734,4761;0,0115042
3735,4404;0,0108822
3736,4045;0,0106023
3737,3689;0,0107471
3738,3330;0,011235
3739,2974;0,0119255
3740,2615;0,0126552
3741,2258;0,0132296
3742,1899;0,0134479
3743,1543;0,0132285
3744,1184;0,0127652
3745,0828;0,0124308
3746,0469;0,0124278
3747,0112;0,0126448
3747,9753;0,0127938
3748,9397;0,0125908
3749,9038;0,0119586
3750,8682;0,0111895
3751,8323;0,0107315
3752,7966;0,0107532
3753,7607;0,0111032
3754,7251;0,011545
3755,6892;0,0118852
3756,6536;0,0120044
3757,6177;0,0118905
3758,5820;0,0116586
3759,5461;0,011484
3760,5105;0,0114777
3761,4746;0,0116344
3762,4390;0,0118756
3763,4031;0,0121111
3764,3674;0,0122736
3765,3315;0,0123279
3766,2959;0,0122659
3767,2600;0,012096
3768,2244;0,0118419
3769,1885;0,0115563
3770,1528;0,0113242
3771,1169;0,0112331
3772,0813;0,0113255
3773,0454;0,0115761
3774,0098;0,0119052
3774,9739;0,0122048
3775,9382;0,0123692
3776,9023;0,0123359
3777,8667;0,0121305
3778,8308;0,0118682
3779,7952;0,0116765
3780,7593;0,0116066
3781,7236;0,0116219
3782,6877;0,0116518
3783,6521;0,0116463
3784,6162;0,0115983
3785,5806;0,0115357
3786,5447;0,0114984
3787,5090;0,0115171
3788,4731;0,0116063
3789,4375;0,0117645
3790,4016;0,0119724
3791,3660;0,0121924
3792,3301;0,0123766
3793,2944;0,0124903
3794,2585;0,0125383
3795,2229;0,0125688
3796,1870;0,0126343
3797,1514;0,0127314
3798,1155;0,0127749
3799,0798;0,0126447
3800,0439;0,0122969
3801,0083;0,0118528
3801,9724;0,0115297
3802,9368;0,0114471
3803,9009;0,0115372
3804,8652;0,0116296
3805,8293;0,0115878
3806,7937;0,0114138
3807,7578;0,0112563
3808,7222;0,0112893
3809,6863;0,0115761
3810,6506;0,0120503
3811,6147;0,0125711
3812,5791;0,0129763
3813,5432;0,0131402
3814,5076;0,0130493
3815,4717;0,0128307
3816,4360;0,0126442
3817,4001;0,0125296
3818,3645;0,0123871
3819,3286;0,0121006
3820,2930;0,0116798
3821,2571;0,0112859
3822,2214;0,0110901
3823,1855;0,011132
3824,1499;0,0113363
3825,1140;0,011601
3826,0784;0,0118505
3827,0425;0,0120481
3828,0068;0,0121904
3828,9709;0,0122941
3829,9353;0,0123834
3830,8994;0,0124835
3831,8638;0,0126147
3832,8279;0,0127812
3833,7922;0,0129525
3834,7563;0,0130578
3835,7207;0,0130091
3836,6848;0,0127593
3837,6492;0,0123618
3838,6133;0,0119573
3839,5776;0,0116714
3840,5417;0,0115295
3841,5061;0,0114772
3842,4702;0,011456
3843,4346;0,011456
3844,3987;0,0115218
3845,3630;0,0117225
3846,3271;0,0121124
3847,2915;0,0127025
3848,2556;0,0134446
3849,2200;0,0142074
3850,1841;0,0147417
3851,1484;0,0146919
3852,1125;0,0138201
3853,0769;0,0124352
3854,0410;0,0112983
3855,0054;0,0108271
3855,9695;0,0109106
3856,9338;0,0113099
3857,8979;0,0118481
3858,8623;0,0123917
3859,8264;0,012816
3860,7908;0,013015
3861,7549;0,0129565
3862,7192;0,0127341
3863,6833;0,0125312
3864,6477;0,0124933
3865,6118;0,0126344
3866,5762;0,0128562
3867,5403;0,01302
3868,5046;0,0130122
3869,4688;0,0127948
3870,4331;0,012429
3871,3972;0,0120466
3872,3616;0,0117791
3873,3257;0,0117012
3874,2900;0,0118191
3875,2542;0,0120847
3876,2185;0,0124145
3877,1826;0,0127113
3878,1470;0,0128941
3879,1111;0,0129363
3880,0754;0,0128802
3881,0396;0,0127981
3882,0039;0,0127243
3882,9680;0,0126365
3883,9324;0,0125071
3884,8965;0,0123646
3885,8608;0,0122898
3886,8250;0,0123423
3887,7893;0,0124945
3888,7534;0,0126343
3889,7178;0,012632
3890,6819;0,0124387
3891,6462;0,012156
3892,6104;0,0119816
3893,5747;0,0120541
3894,5388;0,0123706
3895,5032;0,0128277
3896,4673;0,0132902
3897,4316;0,0136381
3898,3958;0,0137992
3899,3601;0,0137633
3900,3242;0,0135584
3901,2886;0,0132121
3902,2527;0,0127543
3903,2170;0,012255
3904,1812;0,011826
3905,1455;0,0115611
3906,1096;0,0114828
3907,0740;0,0115497
3908,0381;0,0116974
3909,0024;0,0118743
3909,9666;0,0120571
3910,9309;0,0122485
3911,8950;0,0124581
3912,8594;0,0126772
3913,8235;0,0128648
3914,7878;0,0129594
3915,7520;0,0129162
3916,7163;0,01275
3917,6804;0,0125428
3918,6448;0,0123929
3919,6089;0,012349
3920,5732;0,0123874
3921,5374;0,012441
3922,5017;0,0124467
3923,4658;0,0123888
3924,4302;0,0123122
3925,3943;0,0122885
3926,3586;0,0123602
3927,3228;0,0125096
3928,2871;0,012669
3929,2512;0,0127564
3930,2156;0,0127196
3931,1797;0,0125681
3932,1440;0,0123679
3933,1082;0,0121977
3934,0725;0,0121049
3935,0366;0,0120988
3936,0010;0,012167
3936,9651;0,012289
3937,9294;0,0124376
3938,8936;0,0125763
3939,8579;0,0126654
3940,8220;0,0126802
3941,7864;0,0126316
3942,7505;0,0125664
3943,7148;0,0125374
3944,6790;0,0125656
3945,6433;0,0126255
3946,6074;0,0126611
3947,5718;0,0126225
3948,5359;0,0125008
3949,5002;0,0123368
3950,4644;0,0121946
3951,4287;0,0121198
3952,3928;0,0121193
3953,3572;0,0121692
3954,3213;0,0122377
3955,2856;0,0123028
3956,2498;0,0123559
3957,2141;0,0123953
3958,1782;0,0124186
3959,1426;0,0124206
3960,1067;0,0123993
3961,0710;0,0123622
3962,0352;0,0123244
3962,9995;0,0123009
3963,9636;0,0122978
3964,9280;0,01231
3965,8921;0,0123275
3966,8564;0,0123419
3967,8206;0,0123512
3968,7849;0,012358
3969,7490;0,0123652
3970,7134;0,0123721
3971,6775;0,0123741
3972,6418;0,012366
3973,6060;0,0123468
3974,5703;0,0123211
3975,5344;0,0122971
3976,4988;0,0122821
3977,4629;0,0122793
3978,4272;0,0122856
3979,3914;0,0122947
3980,3557;0,0123007
3981,3198;0,0123023
3982,2842;0,0123037
3983,2483;0,0123121
3984,2126;0,0123332
3985,1768;0,0123664
3986,1411;0,0124053
3987,1052;0,01244
3988,0696;0,0124622
3989,0337;0,0124677
3989,9980;0,0124571
3990,9622;0,0124329
3991,9265;0,0123982
3992,8906;0,0123574
3993,8550;0,0123183
3994,8191;0,0122915
3995,7834;0,0122864
3996,7476;0,0123055
3997,7119;0,0123409
3998,6760;0,0123772
3999,6404;0,0124004
4000,6045;0,0122503

##### Extended Information
[Comments]
Sample name
Comment
Username
Division
Organization;UNIVERSIDAD INDUSTRIAL DE SANTANDER

[Detailed Information]
Creation date;19/02/2025 12:32 p.m.

Data array type;Linear data array
Horizontal axis;Wavenumber [cm-1]
Vertical axis;Abs
Start;399,193 cm-1
End;4000,6 cm-1
Data interval;0,964233 cm-1
Data points;3736    

[Measurement Information]
Model name;FT/IR-4X1typeA
Serial No.;A035162111

Accessory;ATR PRO 4X
Accessory S/N;A021162126
Incident angle;45 deg

Measurement date;19/02/2025 12:31 p.m.

Light source;Standard
Detector;TGS
Accumulation;40
Resolution;4 cm-1
Zero filling;On
Apodization;Cosine
Gain;Auto (8)
Aperture;Auto (7 mm)
Scan speed;Auto (2 mm/sec)
Filter;Auto (12800 Hz)

