TITLE;
DATA TYPE;INFRARED SPECTRUM
ORIGIN;JASCO
OWNER;
DATE;25/02/19
TIME;14:11:23
SPECTROMETER/DATA SYSTEM;
LOCALE;9226
RESOLUTION;
DELTAX;0,964233
XUNITS;1/CM
YUNITS;ABSORBANCE
FIRSTX;  399,1927
LASTX; 4000,6047
NPOINTS;    3736
FIRSTY;     0,09679
MAXY;     0,10352
MINY;     0,00673
XYDATA
399,1927;0,096795
400,1569;0,0934787
401,1211;0,0908735
402,0854;0,0894035
403,0496;0,0888593
404,0138;0,0888198
404,9781;0,0888983
405,9423;0,0888651
406,9065;0,088665
407,8708;0,0883276
408,8350;0,0878463
409,7992;0,0871429
410,7635;0,086159
411,7277;0,0849886
412,6919;0,0839013
413,6562;0,0832168
414,6204;0,0831655
415,5846;0,0838461
416,5489;0,0852281
417,5131;0,0870799
418,4773;0,0888608
419,4416;0,0899159
420,4058;0,0900109
421,3700;0,0894274
422,3343;0,0885496
423,2985;0,0876433
424,2627;0,0869052
425,2270;0,0865183
426,1912;0,0866073
427,1554;0,0871543
428,1197;0,0879801
429,0839;0,0888239
430,0481;0,0894621
431,0124;0,0897977
431,9766;0,0898763
432,9408;0,0898243
433,9051;0,0897483
434,8693;0,0896685
435,8335;0,0895312
436,7978;0,0892798
437,7620;0,0889156
438,7262;0,0884951
439,6905;0,0880793
440,6547;0,0876904
441,6189;0,0873063
442,5832;0,0868966
443,5474;0,0864708
444,5116;0,0860953
445,4759;0,0858539
446,4401;0,0857815
447,4043;0,0858264
448,3686;0,0858639
449,3328;0,0857538
450,2970;0,0854156
451,2613;0,0848845
452,2255;0,0843041
453,1897;0,0838507
454,1540;0,0836404
455,1182;0,083676
456,0824;0,0838554
457,0467;0,0840284
458,0109;0,0840798
458,9751;0,083984
459,9394;0,0837795
460,9036;0,0834986
461,8678;0,0831428
462,8321;0,0827221
463,7963;0,0823072
464,7605;0,0820417
465,7248;0,0820847
466,6890;0,0825143
467,6532;0,0832678
468,6175;0,0841663
469,5817;0,084996
470,5459;0,0855868
471,5102;0,0858624
472,4744;0,0858528
473,4386;0,0856608
474,4029;0,0853989
475,3671;0,085142
476,3313;0,0849243
477,2956;0,0847594
478,2598;0,0846566
479,2240;0,0846217
480,1883;0,0846515
481,1525;0,0847301
482,1167;0,0848337
483,0810;0,0849411
484,0452;0,0850454
485,0094;0,0851579
485,9737;0,0852965
486,9379;0,0854649
487,9021;0,0856331
488,8664;0,0857344
489,8306;0,0856828
490,7948;0,0854115
491,7591;0,0849196
492,7233;0,0842986
493,6875;0,0837102
494,6518;0,0833207
495,6160;0,0832309
496,5802;0,0834393
497,5445;0,0838507
498,5087;0,0843151
499,4729;0,0846822
500,4372;0,0848594
501,4014;0,0848584
502,3656;0,0847995
503,3299;0,0848515
504,2941;0,0851363
505,2583;0,0856627
506,2226;0,0863269
507,1868;0,0869662
508,1510;0,0874367
509,1153;0,0876793
510,0795;0,0877412
511,0437;0,0877403
512,0080;0,0877997
512,9722;0,0879923
513,9365;0,0883201
514,9007;0,0887238
515,8649;0,0891111
516,8292;0,0893955
517,7934;0,0895358
518,7576;0,0895588
519,7219;0,0895428
520,6861;0,0895707
521,6503;0,0896901
522,6146;0,0899003
523,5788;0,0901592
524,5430;0,090397
525,5073;0,0905342
526,4715;0,0905086
527,4357;0,0902992
528,4000;0,0899309
529,3642;0,0894617
530,3284;0,0889644
531,2927;0,0885118
532,2569;0,0881604
533,2211;0,0879314
534,1854;0,0878012
535,1496;0,0877143
536,1138;0,0876151
537,0781;0,0874786
538,0423;0,0873177
539,0065;0,0871647
539,9708;0,0870418
540,9350;0,0869428
541,8992;0,0868407
542,8635;0,0867133
543,8277;0,0865701
544,7919;0,0864622
545,7562;0,0864655
546,7204;0,0866446
547,6846;0,0870165
548,6489;0,0875335
549,6131;0,0880974
550,5773;0,088596
551,5416;0,0889447
552,5058;0,0891147
553,4700;0,0891384
554,4343;0,0890892
555,3985;0,0890434
556,3627;0,0890409
557,3270;0,0890644
558,2912;0,0890516
559,2554;0,0889321
560,2197;0,08867
561,1839;0,0882882
562,1481;0,087859
563,1124;0,087468
564,0766;0,0871699
565,0408;0,0869633
566,0051;0,0867964
566,9693;0,0865993
567,9335;0,0863262
568,8978;0,0859846
569,8620;0,0856339
570,8262;0,0853545
571,7905;0,0852102
572,7547;0,0852224
573,7189;0,0853649
574,6832;0,0855738
575,6474;0,0857697
576,6116;0,0858861
577,5759;0,0858957
578,5401;0,0858191
579,5043;0,0857139
580,4686;0,0856469
581,4328;0,0856618
582,3970;0,0857565
583,3613;0,0858799
584,3255;0,0859538
585,2897;0,0859118
586,2540;0,0857328
587,2182;0,0854525
588,1824;0,0851498
589,1467;0,0849148
590,1109;0,0848155
591,0751;0,0848705
592,0394;0,0850398
593,0036;0,0852387
593,9678;0,0853699
594,9321;0,0853593
595,8963;0,0851776
596,8605;0,0848464
597,8248;0,0844319
598,7890;0,0840246
599,7532;0,0837073
600,7175;0,0835187
601,6817;0,0834353
602,6459;0,083385
603,6102;0,0832851
604,5744;0,0830835
605,5386;0,0827796
606,5029;0,082417
607,4671;0,0820546
608,4313;0,081735
609,3956;0,0814696
610,3598;0,0812464
611,3240;0,0810485
612,2883;0,0808688
613,2525;0,0807077
614,2167;0,0805583
615,1810;0,0803942
616,1452;0,08017
617,1094;0,0798405
618,0737;0,0793866
619,0379;0,0788266
620,0021;0,078205
620,9664;0,0775695
621,9306;0,0769581
622,8948;0,0763999
623,8591;0,0759219
624,8233;0,0755277
625,7875;0,0752635
626,7518;0,0751075
627,7160;0,0750086
628,6802;0,0749007
629,6445;0,0747345
630,6087;0,074496
631,5729;0,0742108
632,5372;0,0739265
633,5014;0,0736854
634,4656;0,0735031
635,4299;0,0733639
636,3941;0,0732334
637,3583;0,0730804
638,3226;0,0728933
639,2868;0,072685
640,2510;0,0724855
641,2153;0,0723288
642,1795;0,0722392
643,1437;0,0722213
644,1080;0,0722565
645,0722;0,0723073
646,0364;0,0723304
647,0007;0,0722938
647,9649;0,0721925
648,9291;0,0720538
649,8934;0,071926
650,8576;0,0718541
651,8218;0,0718575
652,7861;0,0719218
653,7503;0,0720079
654,7145;0,0720688
655,6788;0,0720687
656,6430;0,0719981
657,6072;0,0718766
658,5715;0,0717414
659,5357;0,0716249
660,4999;0,0715276
661,4642;0,0714055
662,4284;0,0711813
663,3926;0,0707799
664,3569;0,0701839
665,3211;0,0695056
666,2853;0,0690198
667,2496;0,0690198
668,2138;0,0694284
669,1780;0,0697637
670,1423;0,0697879
671,1065;0,069593
672,0707;0,0692289
673,0350;0,0686844
673,9992;0,0679906
674,9634;0,067227
675,9277;0,0664724
676,8919;0,0657636
677,8561;0,0650961
678,8204;0,0644552
679,7846;0,0638432
680,7488;0,0632773
681,7131;0,062774
682,6773;0,0623299
683,6415;0,0619258
684,6058;0,0615406
685,5700;0,0611646
686,5342;0,060799
687,4985;0,0604472
688,4627;0,0601111
689,4269;0,0597821
690,3912;0,0594558
691,3554;0,0591372
692,3196;0,058839
693,2839;0,0585737
694,2481;0,0583454
695,2123;0,0581457
696,1766;0,0579555
697,1408;0,0577515
698,1050;0,0575154
699,0693;0,0572411
700,0335;0,0569361
700,9977;0,0566175
701,9620;0,056305
702,9262;0,056013
703,8904;0,0557413
704,8547;0,0554927
705,8189;0,0552667
706,7831;0,0550633
707,7474;0,0548802
708,7116;0,0547079
709,6758;0,0545258
710,6401;0,0543046
711,6043;0,0540166
712,5685;0,0536522
713,5328;0,0532336
714,4970;0,0528124
715,4612;0,0520447
716,4255;0,0518656
717,3897;0,0518099
718,3539;0,0517976
719,3182;0,0517122
720,2824;0,0514617
721,2466;0,0510313
722,2109;0,0504882
723,1751;0,0499334
724,1393;0,0494432
725,1036;0,0490396
726,0678;0,0487008
727,0320;0,0483918
727,9963;0,0480929
728,9605;0,0478065
729,9247;0,0475449
730,8890;0,047312
731,8532;0,0470959
732,8174;0,0468777
733,7817;0,0466452
734,7459;0,0464015
735,7101;0,0461616
736,6744;0,0459405
737,6386;0,0457448
738,6028;0,0455695
739,5671;0,0454036
740,5313;0,0452361
741,4955;0,0450608
742,4598;0,044877
743,4240;0,044689
744,3882;0,0445044
745,3525;0,0443316
746,3167;0,0441758
747,2809;0,0440343
748,2452;0,0438955
749,2094;0,0437419
750,1736;0,0435574
751,1379;0,0433346
752,1021;0,0430785
753,0663;0,0428038
754,0306;0,0425301
754,9948;0,0422757
755,9590;0,042053
756,9233;0,0418669
757,8875;0,0417146
758,8517;0,0415879
759,8160;0,0414773
760,7802;0,0413737
761,7444;0,0412696
762,7087;0,0411542
763,6729;0,0410116
764,6371;0,0408231
765,6014;0,0405788
766,5656;0,0402902
767,5298;0,0399938
768,4941;0,039739
769,4583;0,0395623
770,4225;0,0394663
771,3868;0,0394172
772,3510;0,0393664
773,3152;0,0392806
774,2795;0,039161
775,2437;0,0390369
776,2079;0,0389401
777,1722;0,038878
778,1364;0,0388268
779,1006;0,0387462
780,0649;0,0386061
781,0291;0,0384033
781,9933;0,0381615
782,9576;0,0379152
783,9218;0,0376927
784,8860;0,0375083
785,8503;0,0373642
786,8145;0,0372569
787,7787;0,0371805
788,7430;0,0371262
789,7072;0,037081
790,6714;0,0370297
791,6357;0,0369599
792,5999;0,0368665
793,5641;0,0367521
794,5284;0,0366237
795,4926;0,0364897
796,4568;0,0363585
797,4211;0,0362389
798,3853;0,0361392
799,3495;0,0360637
800,3138;0,0360077
801,2780;0,0359579
802,2422;0,0358983
803,2065;0,0358192
804,1707;0,0357238
805,1349;0,0356264
806,0992;0,0355438
807,0634;0,0354851
808,0276;0,0354476
808,9919;0,035419
809,9561;0,0353847
810,9203;0,0353329
811,8846;0,0352568
812,8488;0,0351545
813,8130;0,0350288
814,7773;0,0348889
815,7415;0,0347506
816,7057;0,0346319
817,6700;0,0345449
818,6342;0,034488
819,5984;0,0344449
820,5627;0,0343917
821,5269;0,0343098
822,4911;0,0341948
823,4554;0,0340587
824,4196;0,0339229
825,3839;0,0338081
826,3481;0,0337277
827,3123;0,0336854
828,2766;0,0336779
829,2408;0,0336974
830,2050;0,0337327
831,1693;0,0337692
832,1335;0,0337896
833,0977;0,0337778
834,0620;0,0337237
835,0262;0,0336275
835,9904;0,0335002
836,9547;0,0333609
837,9189;0,0332294
838,8831;0,0331195
839,8474;0,0330348
840,8116;0,0329691
841,7758;0,0329104
842,7401;0,0328486
843,7043;0,0327791
844,6685;0,0327038
845,6328;0,032627
846,5970;0,0325513
847,5612;0,0324762
848,5255;0,0324005
849,4897;0,032327
850,4539;0,0322637
851,4182;0,0322209
852,3824;0,0322053
853,3466;0,032215
854,3109;0,0322395
855,2751;0,0322643
856,2393;0,0322769
857,2036;0,0322708
858,1678;0,0322444
859,1320;0,0321996
860,0963;0,0321415
861,0605;0,0320795
862,0247;0,0320295
862,9890;0,0320108
863,9532;0,0320392
864,9174;0,0321184
865,8817;0,0322353
866,8459;0,0323654
867,8101;0,0324829
868,7744;0,0325739
869,7386;0,0326409
870,7028;0,0326991
871,6671;0,032765
872,6313;0,0328456
873,5955;0,0329347
874,5598;0,0330175
875,5240;0,0330797
876,4882;0,033116
877,4525;0,033133
878,4167;0,0331463
879,3809;0,0331748
880,3452;0,0332362
881,3094;0,0333433
882,2736;0,0335039
883,2379;0,0337195
884,2021;0,0339857
885,1663;0,0342928
886,1306;0,0346282
887,0948;0,0349798
888,0590;0,0353392
889,0233;0,0357025
889,9875;0,0360688
890,9517;0,0364361
891,9160;0,0367983
892,8802;0,0371438
893,8444;0,0374564
894,8087;0,0377186
895,7729;0,0379144
896,7371;0,0380313
897,7014;0,0380609
898,6656;0,0379988
899,6298;0,037845
900,5941;0,0376057
901,5583;0,0372943
902,5225;0,0369307
903,4868;0,0365391
904,4510;0,0361435
905,4152;0,0357647
906,3795;0,0354192
907,3437;0,0351193
908,3079;0,0348741
909,2722;0,0346878
910,2364;0,0345578
911,2007;0,034474
912,1649;0,0344209
913,1292;0,0343834
914,0934;0,0343524
915,0576;0,0343272
916,0219;0,0343136
916,9861;0,0343191
917,9503;0,0343482
918,9146;0,0344011
919,8788;0,0344745
920,8430;0,0345646
921,8073;0,0346681
922,7715;0,0347824
923,7357;0,0349041
924,7000;0,0350284
925,6642;0,0351491
926,6284;0,0352601
927,5927;0,0353576
928,5569;0,0354418
929,5211;0,0355176
930,4854;0,0355929
931,4496;0,0356756
932,4138;0,0357703
933,3781;0,0358763
934,3423;0,0359903
935,3065;0,0361103
936,2708;0,0362397
937,2350;0,0363873
938,1992;0,0365635
939,1635;0,0367739
940,1277;0,0370166
941,0919;0,0372831
942,0562;0,0375637
943,0204;0,037853
943,9846;0,0381511
944,9489;0,0384615
945,9131;0,0387875
946,8773;0,0391306
947,8416;0,0394919
948,8058;0,039875
949,7700;0,0402872
950,7343;0,0407374
951,6985;0,0412337
952,6627;0,0417793
953,6270;0,0423728
954,5912;0,0430077
955,5554;0,0436743
956,5197;0,04436
957,4839;0,0450518
958,4481;0,045739
959,4124;0,0464168
960,3766;0,0470884
961,3408;0,0477626
962,3051;0,0484477
963,2693;0,0491452
964,2335;0,0498481
965,1978;0,0505456
966,1620;0,0512324
967,1262;0,0519156
968,0905;0,0526156
969,0547;0,0533581
970,0189;0,054164
970,9832;0,0550424
971,9474;0,055991
972,9116;0,057003
973,8759;0,0580756
974,8401;0,0592142
975,8043;0,0604299
976,7686;0,0617335
977,7328;0,0631281
978,6970;0,0646056
979,6613;0,0661445
980,6255;0,0677113
981,5897;0,0692629
982,5540;0,0707518
983,5182;0,072134
984,4824;0,0733794
985,4467;0,0744786
986,4109;0,075443
987,3751;0,0762976
988,3394;0,0770675
989,3036;0,0777682
990,2678;0,0784021
991,2321;0,0789641
992,1963;0,0794506
993,1605;0,0798677
994,1248;0,0802318
995,0890;0,0805648
996,0532;0,0808873
997,0175;0,0812129
997,9817;0,0815475
998,9459;0,0818918
999,9102;0,0822443
1000,8744;0,0826049
1001,8386;0,0829771
1002,8029;0,0833695
1003,7671;0,0837965
1004,7313;0,0842773
1005,6956;0,084832
1006,6598;0,0854762
1007,6240;0,086216
1008,5883;0,0870464
1009,5525;0,0879544
1010,5167;0,0889232
1011,4810;0,0899378
1012,4452;0,0909864
1013,4094;0,0920596
1014,3737;0,0931468
1015,3379;0,0942345
1016,3021;0,0953049
1017,2664;0,0963373
1018,2306;0,0973111
1019,1948;0,098208
1020,1591;0,0990158
1021,1233;0,09973
1022,0875;0,100356
1023,0518;0,100905
1024,0160;0,101395
1024,9802;0,10184
1025,9445;0,102252
1026,9087;0,10263
1027,8729;0,102967
1028,8372;0,103245
1029,8014;0,10344
1030,7656;0,103522
1031,7299;0,103463
1032,6941;0,103241
1033,6583;0,102853
1034,6226;0,102315
1035,5868;0,101664
1036,5510;0,100949
1037,5153;0,10022
1038,4795;0,0995214
1039,4437;0,0988922
1040,4080;0,098361
1041,3722;0,0979459
1042,3364;0,0976496
1043,3007;0,0974546
1044,2649;0,0973232
1045,2291;0,0972058
1046,1934;0,0970542
1047,1576;0,0968345
1048,1218;0,0965328
1049,0861;0,0961505
1050,0503;0,0956946
1051,0145;0,0951691
1051,9788;0,0945736
1052,9430;0,093908
1053,9072;0,0931767
1054,8715;0,0923889
1055,8357;0,0915521
1056,7999;0,0906642
1057,7642;0,0897098
1058,7284;0,0886652
1059,6926;0,087512
1060,6569;0,0862498
1061,6211;0,0849044
1062,5853;0,0835236
1063,5496;0,0821645
1064,5138;0,0808764
1065,4780;0,0796883
1066,4423;0,0786047
1067,4065;0,077611
1068,3707;0,0766834
1069,3350;0,0757999
1070,2992;0,0749457
1071,2634;0,0741122
1072,2277;0,073293
1073,1919;0,0724792
1074,1561;0,0716587
1075,1204;0,0708193
1076,0846;0,0699541
1077,0488;0,069067
1078,0131;0,068173
1078,9773;0,0672951
1079,9415;0,0664581
1080,9058;0,0656826
1081,8700;0,0649808
1082,8342;0,0643568
1083,7985;0,0638081
1084,7627;0,0633288
1085,7269;0,0629118
1086,6912;0,0625495
1087,6554;0,0622338
1088,6196;0,0619555
1089,5839;0,0617058
1090,5481;0,0614774
1091,5123;0,0612675
1092,4766;0,0610787
1093,4408;0,0609171
1094,4050;0,0607901
1095,3693;0,0607013
1096,3335;0,060649
1097,2977;0,0606253
1098,2620;0,0606189
1099,2262;0,0606183
1100,1904;0,0606141
1101,1547;0,0606002
1102,1189;0,0605732
1103,0831;0,060531
1104,0474;0,0604711
1105,0116;0,0603888
1105,9758;0,0602775
1106,9401;0,0601286
1107,9043;0,0599341
1108,8685;0,059688
1109,8328;0,0593875
1110,7970;0,0590328
1111,7612;0,0586264
1112,7255;0,058174
1113,6897;0,0576856
1114,6539;0,0571769
1115,6182;0,0566683
1116,5824;0,0561801
1117,5466;0,055725
1118,5109;0,055303
1119,4751;0,0548992
1120,4393;0,0544886
1121,4036;0,0540434
1122,3678;0,0535406
1123,3320;0,0529658
1124,2963;0,0523136
1125,2605;0,051585
1126,2247;0,0507864
1127,1890;0,049928
1128,1532;0,0490239
1129,1174;0,048091
1130,0817;0,0471465
1131,0459;0,0462062
1132,0101;0,0452834
1132,9744;0,0443903
1133,9386;0,0435406
1134,9028;0,0427505
1135,8671;0,0420374
1136,8313;0,0414163
1137,7955;0,0408971
1138,7598;0,0404829
1139,7240;0,040172
1140,6882;0,0399594
1141,6525;0,0398394
1142,6167;0,0398044
1143,5809;0,0398449
1144,5452;0,0399491
1145,5094;0,0401048
1146,4736;0,0403007
1147,4379;0,0405274
1148,4021;0,0407771
1149,3663;0,0410418
1150,3306;0,0413128
1151,2948;0,0415815
1152,2590;0,0418403
1153,2233;0,0420823
1154,1875;0,0422999
1155,1517;0,0424811
1156,1160;0,0426076
1157,0802;0,0426538
1158,0444;0,0425893
1159,0087;0,0423828
1159,9729;0,0420085
1160,9371;0,0414511
1161,9014;0,0407113
1162,8656;0,0398067
1163,8298;0,0387697
1164,7941;0,0376407
1165,7583;0,0364613
1166,7225;0,0352676
1167,6868;0,0340895
1168,6510;0,0329508
1169,6152;0,0318716
1170,5795;0,0308683
1171,5437;0,0299527
1172,5079;0,0291304
1173,4722;0,0284014
1174,4364;0,0277617
1175,4006;0,027206
1176,3649;0,0267297
1177,3291;0,0263279
1178,2933;0,0259955
1179,2576;0,0257256
1180,2218;0,02551
1181,1860;0,0253392
1182,1503;0,0252034
1183,1145;0,0250933
1184,0787;0,025001
1185,0430;0,0249222
1186,0072;0,024859
1186,9714;0,0248196
1187,9357;0,0248168
1188,8999;0,0248627
1189,8641;0,0249636
1190,8284;0,0251174
1191,7926;0,0253156
1192,7568;0,0255471
1193,7211;0,0258036
1194,6853;0,0260807
1195,6495;0,0263766
1196,6138;0,026689
1197,5780;0,027012
1198,5422;0,0273373
1199,5065;0,0275238
1200,4707;0,0278473
1201,4349;0,0281607
1202,3992;0,0284674
1203,3634;0,0287719
1204,3276;0,0290772
1205,2919;0,0293833
1206,2561;0,0296889
1207,2203;0,0299938
1208,1846;0,0303016
1209,1488;0,0306199
1210,1130;0,0309585
1211,0773;0,0313261
1212,0415;0,0317273
1213,0057;0,0321611
1213,9700;0,0326217
1214,9342;0,0331004
1215,8984;0,0335887
1216,8627;0,0340793
1217,8269;0,0345668
1218,7911;0,0350487
1219,7554;0,0355234
1220,7196;0,0359884
1221,6838;0,0364386
1222,6481;0,0368665
1223,6123;0,0372645
1224,5765;0,0376275
1225,5408;0,0379553
1226,5050;0,0382523
1227,4692;0,0385244
1228,4335;0,0387755
1229,3977;0,0390061
1230,3619;0,0392136
1231,3262;0,0393951
1232,2904;0,0395501
1233,2546;0,03968
1234,2189;0,0397876
1235,1831;0,0398747
1236,1473;0,0399422
1237,1116;0,0399911
1238,0758;0,0400238
1239,0400;0,0400436
1240,0043;0,0400527
1240,9685;0,0400493
1241,9327;0,0400278
1242,8970;0,0399799
1243,8612;0,0398985
1244,8254;0,039781
1245,7897;0,0396306
1246,7539;0,039455
1247,7181;0,039264
1248,6824;0,039067
1249,6466;0,0388711
1250,6108;0,0386798
1251,5751;0,0384931
1252,5393;0,0383076
1253,5035;0,0381179
1254,4678;0,0379188
1255,4320;0,0377066
1256,3962;0,0374792
1257,3605;0,0372359
1258,3247;0,0369764
1259,2889;0,0367006
1260,2532;0,0364087
1261,2174;0,0361021
1262,1816;0,0357826
1263,1459;0,0354524
1264,1101;0,0351141
1265,0743;0,0347697
1266,0386;0,0344208
1267,0028;0,0340669
1267,9670;0,0337049
1268,9313;0,0333289
1269,8955;0,0329327
1270,8597;0,0325132
1271,8240;0,0320733
1272,7882;0,0316227
1273,7524;0,0311749
1274,7167;0,0307438
1275,6809;0,0303395
1276,6451;0,0299667
1277,6094;0,0296236
1278,5736;0,0293028
1279,5378;0,0289944
1280,5021;0,0286905
1281,4663;0,0283894
1282,4305;0,0280975
1283,3948;0,0278266
1284,3590;0,0275875
1285,3232;0,0273842
1286,2875;0,0272107
1287,2517;0,0270541
1288,2159;0,0269026
1289,1802;0,0267528
1290,1444;0,0266131
1291,1086;0,0264992
1292,0729;0,026426
1293,0371;0,0264003
1294,0013;0,0264186
1294,9656;0,0264698
1295,9298;0,0265407
1296,8940;0,0266226
1297,8583;0,0267135
1298,8225;0,0268182
1299,7867;0,0269446
1300,7510;0,0270999
1301,7152;0,027289
1302,6794;0,0275104
1303,6437;0,0277569
1304,6079;0,0280191
1305,5721;0,0282877
1306,5364;0,0285578
1307,5006;0,0288311
1308,4648;0,0291141
1309,4291;0,0294131
1310,3933;0,0297285
1311,3575;0,0300513
1312,3218;0,0303649
1313,2860;0,0306524
1314,2502;0,0309025
1315,2145;0,0311106
1316,1787;0,0312738
1317,1429;0,031385
1318,1072;0,031433
1319,0714;0,0314105
1320,0356;0,0313229
1320,9999;0,0311904
1321,9641;0,0310402
1322,9283;0,0308959
1323,8926;0,030771
1324,8568;0,0306702
1325,8210;0,0305922
1326,7853;0,0305339
1327,7495;0,03049
1328,7137;0,0304527
1329,6780;0,0304113
1330,6422;0,0303557
1331,6064;0,0302828
1332,5707;0,0301997
1333,5349;0,0301229
1334,4991;0,0300687
1335,4634;0,0300416
1336,4276;0,0300236
1337,3918;0,0299701
1338,3561;0,029824
1339,3203;0,0295533
1340,2845;0,0291858
1341,2488;0,0287964
1342,2130;0,0284569
1343,1772;0,0282027
1344,1415;0,0280353
1345,1057;0,0279401
1346,0699;0,0278994
1347,0342;0,0278978
1347,9984;0,0279253
1348,9626;0,0279786
1349,9269;0,0280596
1350,8911;0,0281709
1351,8553;0,028312
1352,8196;0,0284791
1353,7838;0,0286669
1354,7480;0,0288734
1355,7123;0,0291021
1356,6765;0,0293608
1357,6407;0,0296563
1358,6050;0,0299897
1359,5692;0,0303514
1360,5334;0,0307124
1361,4977;0,0310235
1362,4619;0,0312423
1363,4261;0,0313738
1364,3904;0,0314678
1365,3546;0,0315739
1366,3188;0,0317102
1367,2831;0,031867
1368,2473;0,0320238
1369,2115;0,0321624
1370,1758;0,0322711
1371,1400;0,0323408
1372,1042;0,0323566
1373,0685;0,0322946
1374,0327;0,0321342
1374,9969;0,0318814
1375,9612;0,0315712
1376,9254;0,0312367
1377,8896;0,0308822
1378,8539;0,0304909
1379,8181;0,0300542
1380,7823;0,0295903
1381,7466;0,0291375
1382,7108;0,028727
1383,6750;0,0283632
1384,6393;0,0280246
1385,6035;0,0276794
1386,5677;0,0273093
1387,5320;0,0269348
1388,4962;0,0266108
1389,4604;0,0263786
1390,4247;0,0262335
1391,3889;0,0261475
1392,3531;0,0261038
1393,3174;0,0261038
1394,2816;0,0261447
1395,2458;0,0261976
1396,2101;0,0262151
1397,1743;0,0261655
1398,1385;0,026059
1399,1028;0,0259431
1400,0670;0,0258719
1401,0313;0,0258747
1401,9955;0,0259454
1402,9597;0,0260543
1403,9240;0,0261693
1404,8882;0,0262747
1405,8524;0,02638
1406,8167;0,0265095
1407,7809;0,0266777
1408,7451;0,0268772
1409,7094;0,0270911
1410,6736;0,0273121
1411,6378;0,0275496
1412,6021;0,0278182
1413,5663;0,028118
1414,5305;0,028428
1415,4948;0,0287177
1416,4590;0,0289548
1417,4232;0,0291043
1418,3875;0,0291484
1419,3517;0,0291376
1420,3159;0,0291688
1421,2802;0,0292776
1422,2444;0,0294039
1423,2086;0,0294591
1424,1729;0,0293942
1425,1371;0,0292174
1426,1013;0,0289686
1427,0656;0,0286817
1428,0298;0,0283671
1428,9940;0,0280232
1429,9583;0,0276596
1430,9225;0,0272999
1431,8867;0,0269558
1432,8510;0,0266053
1433,8152;0,0262049
1434,7794;0,0257217
1435,7437;0,0251657
1436,7079;0,0246214
1437,6721;0,0242263
1438,6364;0,0240601
1439,6006;0,0240756
1440,5648;0,0241648
1441,5291;0,0242506
1442,4933;0,0243167
1443,4575;0,024386
1444,4218;0,0244835
1445,3860;0,024612
1446,3502;0,0247535
1447,3145;0,0248907
1448,2787;0,0250284
1449,2429;0,0251921
1450,2072;0,025396
1451,1714;0,0256143
1452,1356;0,0257918
1453,0999;0,025886
1454,0641;0,0259025
1455,0283;0,0258784
1455,9926;0,0257859
1456,9568;0,0255043
1457,9210;0,0250964
1458,8853;0,0248555
1459,8495;0,0248739
1460,8137;0,0249917
1461,7780;0,0250321
1462,7422;0,024908
1463,7064;0,0246135
1464,6707;0,0242032
1465,6349;0,0237804
1466,5991;0,0234367
1467,5634;0,0231752
1468,5276;0,0229262
1469,4918;0,0226234
1470,4561;0,0222421
1471,4203;0,0217691
1472,3845;0,021166
1473,3488;0,0204324
1474,3130;0,0196945
1475,2772;0,0191035
1476,2415;0,0186974
1477,2057;0,0184253
1478,1699;0,0182259
1479,1342;0,0180595
1480,0984;0,0179083
1481,0626;0,0177712
1482,0269;0,0176628
1482,9911;0,0176066
1483,9553;0,0176238
1484,9196;0,0177264
1485,8838;0,0179166
1486,8480;0,0181734
1487,8123;0,0184168
1488,7765;0,0185151
1489,7407;0,0184219
1490,7050;0,0182669
1491,6692;0,0182029
1492,6334;0,0182649
1493,5977;0,0184152
1494,5619;0,0186272
1495,5261;0,0189044
1496,4904;0,0192435
1497,4546;0,0196139
1498,4188;0,0199978
1499,3831;0,0204047
1500,3473;0,0208079
1501,3115;0,0211279
1502,2758;0,0212937
1503,2400;0,0213144
1504,2042;0,0213195
1505,1685;0,0215118
1506,1327;0,0219118
1507,0969;0,0221178
1508,0612;0,0218614
1509,0254;0,0214498
1509,9896;0,021139
1510,9539;0,020911
1511,9181;0,0206917
1512,8823;0,0204565
1513,8466;0,0202166
1514,8108;0,0199774
1515,7750;0,0197173
1516,7393;0,0194055
1517,7035;0,0190297
1518,6677;0,0186037
1519,6320;0,0181538
1520,5962;0,0177105
1521,5604;0,0173141
1522,5247;0,0170046
1523,4889;0,016787
1524,4531;0,0166202
1525,4174;0,0164553
1526,3816;0,0162806
1527,3458;0,0161242
1528,3101;0,0160158
1529,2743;0,0159571
1530,2385;0,0159302
1531,2028;0,0159193
1532,1670;0,0159138
1533,1312;0,015902
1534,0955;0,0158764
1535,0597;0,0158299
1536,0239;0,0157448
1536,9882;0,0156261
1537,9524;0,0155586
1538,9166;0,0156914
1539,8809;0,0160418
1540,8451;0,0163192
1541,8093;0,0163131
1542,7736;0,0162004
1543,7378;0,0161499
1544,7020;0,0161706
1545,6663;0,0162393
1546,6305;0,0163508
1547,5947;0,0164987
1548,5590;0,0166603
1549,5232;0,0168079
1550,4874;0,0169301
1551,4517;0,0170389
1552,4159;0,0171514
1553,3801;0,0172619
1554,3444;0,0173385
1555,3086;0,0173569
1556,2728;0,0173246
1557,2371;0,0172182
1558,2013;0,0168985
1559,1655;0,0164295
1560,1298;0,0162973
1561,0940;0,016693
1562,0582;0,0173556
1563,0225;0,0179993
1563,9867;0,0184846
1564,9509;0,0187918
1565,9152;0,0189635
1566,8794;0,0190609
1567,8436;0,0191352
1568,8079;0,0192205
1569,7721;0,0193456
1570,7363;0,0195275
1571,7006;0,0197471
1572,6648;0,0199652
1573,6290;0,0201676
1574,5933;0,020377
1575,5575;0,0206115
1576,5217;0,0208587
1577,4860;0,0211267
1578,4502;0,021449
1579,4144;0,0218187
1580,3787;0,022194
1581,3429;0,02255
1582,3071;0,0228941
1583,2714;0,0232475
1584,2356;0,0236236
1585,1998;0,0240213
1586,1641;0,0244285
1587,1283;0,0248278
1588,0925;0,0252008
1589,0568;0,0255314
1590,0210;0,0258082
1590,9852;0,0260242
1591,9495;0,026173
1592,9137;0,0262467
1593,8779;0,0262384
1594,8422;0,0261519
1595,8064;0,0260074
1596,7706;0,025836
1597,7349;0,0256665
1598,6991;0,025513
1599,6633;0,0253735
1600,6276;0,0252371
1601,5918;0,0250957
1602,5560;0,0249539
1603,5203;0,0248271
1604,4845;0,0247282
1605,4487;0,0246522
1606,4130;0,0245734
1607,3772;0,0244591
1608,3414;0,0242948
1609,3057;0,0241029
1610,2699;0,0239291
1611,2341;0,0238007
1612,1984;0,0237032
1613,1626;0,0235997
1614,1268;0,0234626
1615,0911;0,0232848
1616,0553;0,0230873
1617,0195;0,022942
1617,9838;0,0229363
1618,9480;0,0230726
1619,9122;0,0232602
1620,8765;0,0234004
1621,8407;0,0234434
1622,8049;0,0233913
1623,7692;0,0232818
1624,7334;0,0231634
1625,6976;0,023064
1626,6619;0,0229828
1627,6261;0,0229152
1628,5903;0,022871
1629,5546;0,0228594
1630,5188;0,0228628
1631,4830;0,0228434
1632,4473;0,0227798
1633,4115;0,0226919
1634,3757;0,0226052
1635,3400;0,0224907
1636,3042;0,0223281
1637,2684;0,0222132
1638,2327;0,0222317
1639,1969;0,0223468
1640,1611;0,0224718
1641,1254;0,022547
1642,0896;0,0225549
1643,0538;0,0225151
1644,0181;0,0224721
1644,9823;0,0224574
1645,9465;0,0224419
1646,9108;0,0223723
1647,8750;0,0222524
1648,8392;0,0220914
1649,8035;0,0218492
1650,7677;0,0214948
1651,7319;0,0210382
1652,6962;0,0204823
1653,6604;0,0199317
1654,6246;0,019718
1655,5889;0,0199532
1656,5531;0,020385
1657,5173;0,0207444
1658,4816;0,0209096
1659,4458;0,0208788
1660,4100;0,0207056
1661,3743;0,0204534
1662,3385;0,0201911
1663,3027;0,0199934
1664,2670;0,0198998
1665,2312;0,0198863
1666,1954;0,0198978
1667,1597;0,0198867
1668,1239;0,0198165
1669,0881;0,0196552
1670,0524;0,0194065
1671,0166;0,0191261
1671,9808;0,0188575
1672,9451;0,0185897
1673,9093;0,0183044
1674,8735;0,0180377
1675,8378;0,0178824
1676,8020;0,0179151
1677,7662;0,0181139
1678,7305;0,018362
1679,6947;0,0185268
1680,6589;0,0185268
1681,6232;0,0183424
1682,5874;0,0179839
1683,5516;0,0174964
1684,5159;0,0170488
1685,4801;0,0168555
1686,4443;0,0169305
1687,4086;0,0171085
1688,3728;0,0172304
1689,3370;0,0172288
1690,3013;0,017117
1691,2655;0,0169508
1692,2297;0,0167979
1693,1940;0,0167213
1694,1582;0,0167639
1695,1224;0,0169179
1696,0867;0,0170956
1697,0509;0,0171497
1698,0151;0,0169755
1698,9794;0,0166295
1699,9436;0,0163278
1700,9078;0,0162787
1701,8721;0,0165192
1702,8363;0,0169242
1703,8005;0,0173247
1704,7648;0,0176039
1705,7290;0,0177346
1706,6932;0,0177754
1707,6575;0,0178261
1708,6217;0,017962
1709,5859;0,0181988
1710,5502;0,0185086
1711,5144;0,0188561
1712,4786;0,0192177
1713,4429;0,0195809
1714,4071;0,0199221
1715,3713;0,0201696
1716,3356;0,0202112
1717,2998;0,0200399
1718,2640;0,0198603
1719,2283;0,0198814
1720,1925;0,0201145
1721,1567;0,0204435
1722,1210;0,0207563
1723,0852;0,0209999
1724,0494;0,0211818
1725,0137;0,0213507
1725,9779;0,0215647
1726,9421;0,0218566
1727,9064;0,0222124
1728,8706;0,0225767
1729,8348;0,0228762
1730,7991;0,023041
1731,7633;0,0230156
1732,7275;0,0227794
1733,6918;0,022411
1734,6560;0,0220966
1735,6202;0,021967
1736,5845;0,0219793
1737,5487;0,0220027
1738,5129;0,0219431
1739,4772;0,0217866
1740,4414;0,0215822
1741,4056;0,0213933
1742,3699;0,0212499
1743,3341;0,0211347
1744,2983;0,0210061
1745,2626;0,020829
1746,2268;0,0205789
1747,1910;0,0202225
1748,1553;0,0197041
1749,1195;0,018986
1750,0837;0,0181344
1751,0480;0,0173233
1752,0122;0,0167032
1752,9764;0,0162983
1753,9407;0,0160354
1754,9049;0,0158239
1755,8691;0,0156057
1756,8334;0,0153644
1757,7976;0,0151069
1758,7618;0,0148382
1759,7261;0,0145492
1760,6903;0,0142299
1761,6545;0,0138943
1762,6188;0,0135875
1763,5830;0,0133579
1764,5472;0,0132221
1765,5115;0,0131599
1766,4757;0,0131358
1767,4399;0,0131198
1768,4042;0,0130928
1769,3684;0,0130387
1770,3326;0,0129357
1771,2969;0,0127649
1772,2611;0,0125436
1773,2253;0,0123415
1774,1896;0,0122293
1775,1538;0,012216
1776,1180;0,0122547
1777,0823;0,012291
1778,0465;0,0122949
1779,0107;0,0122626
1779,9750;0,012202
1780,9392;0,0121195
1781,9034;0,0120173
1782,8677;0,0119003
1783,8319;0,011786
1784,7961;0,0117051
1785,7604;0,0116864
1786,7246;0,0117365
1787,6888;0,0118348
1788,6531;0,0119486
1789,6173;0,0120488
1790,5815;0,0121102
1791,5458;0,0121091
1792,5100;0,0120495
1793,4742;0,0119826
1794,4385;0,0119622
1795,4027;0,0119903
1796,3669;0,0120308
1797,3312;0,0120511
1798,2954;0,01204
1799,2596;0,0119988
1800,2239;0,0119307
1801,1881;0,0118418
1802,1523;0,0117464
1803,1166;0,0116644
1804,0808;0,0116126
1805,0450;0,0116
1806,0093;0,0116273
1806,9735;0,0116861
1807,9377;0,0117578
1808,9020;0,0118158
1809,8662;0,0118347
1810,8304;0,011805
1811,7947;0,0117402
1812,7589;0,0116652
1813,7231;0,011599
1814,6874;0,0115476
1815,6516;0,011509
1816,6158;0,011481
1817,5801;0,0114645
1818,5443;0,0114637
1819,5085;0,0114823
1820,4728;0,0115175
1821,4370;0,0115604
1822,4012;0,0116
1823,3655;0,0116296
1824,3297;0,0116505
1825,2939;0,0116719
1826,2582;0,0116999
1827,2224;0,0117246
1828,1866;0,0117189
1829,1509;0,0116561
1830,1151;0,0115424
1831,0793;0,0114276
1832,0436;0,0113693
1833,0078;0,0113868
1833,9720;0,0114554
1834,9363;0,0115338
1835,9005;0,0115896
1836,8647;0,0116114
1837,8290;0,0116088
1838,7932;0,0115993
1839,7574;0,0115952
1840,7217;0,0116043
1841,6859;0,0116392
1842,6501;0,0117121
1843,6144;0,0118137
1844,5786;0,0119074
1845,5428;0,0119537
1846,5071;0,0119308
1847,4713;0,0118332
1848,4355;0,0116728
1849,3998;0,0114831
1850,3640;0,0113137
1851,3282;0,0112083
1852,2925;0,0111835
1853,2567;0,0112241
1854,2209;0,0112968
1855,1852;0,0113691
1856,1494;0,0114182
1857,1136;0,0114312
1858,0779;0,011401
1859,0421;0,0113295
1860,0063;0,0112336
1860,9706;0,011147
1861,9348;0,0111098
1862,8990;0,0111493
1863,8633;0,0112684
1864,8275;0,0114471
1865,7917;0,0116479
1866,7560;0,0118174
1867,7202;0,0118939
1868,6844;0,0118437
1869,6487;0,0116987
1870,6129;0,0115349
1871,5771;0,0114115
1872,5414;0,0113449
1873,5056;0,0113263
1874,4698;0,0113413
1875,4341;0,0113749
1876,3983;0,0114096
1877,3625;0,0114273
1878,3268;0,0114163
1879,2910;0,0113769
1880,2552;0,0113225
1881,2195;0,0112752
1882,1837;0,0112581
1883,1479;0,0112858
1884,1122;0,0113577
1885,0764;0,0114574
1886,0406;0,011558
1887,0049;0,0116298
1887,9691;0,0116501
1888,9333;0,011614
1889,8976;0,0115412
1890,8618;0,0114676
1891,8260;0,0114237
1892,7903;0,0114183
1893,7545;0,0114379
1894,7188;0,0114571
1895,6830;0,0114511
1896,6472;0,0114073
1897,6115;0,0113293
1898,5757;0,0112326
1899,5399;0,0111375
1900,5042;0,0110633
1901,4684;0,011026
1902,4326;0,0110353
1903,3969;0,0110913
1904,3611;0,0111838
1905,3253;0,0112949
1906,2896;0,0114051
1907,2538;0,0114979
1908,2180;0,0115634
1909,1823;0,0115998
1910,1465;0,0116128
1911,1107;0,0116117
1912,0750;0,0116032
1913,0392;0,0115896
1914,0034;0,0115714
1914,9677;0,011553
1915,9319;0,0115433
1916,8961;0,0115523
1917,8604;0,0115867
1918,8246;0,0116471
1919,7888;0,0117258
1920,7531;0,0118047
1921,7173;0,0118595
1922,6815;0,0118679
1923,6458;0,0118218
1924,6100;0,0117355
1925,5742;0,0116408
1926,5385;0,011569
1927,5027;0,0115341
1928,4669;0,0115265
1929,4312;0,0115185
1930,3954;0,0114805
1931,3596;0,0114005
1932,3239;0,011293
1933,2881;0,0111914
1934,2523;0,0111283
1935,2166;0,0111172
1936,1808;0,0111485
1937,1450;0,0111993
1938,1093;0,0112483
1939,0735;0,0112846
1940,0377;0,011305
1941,0020;0,011307
1941,9662;0,0112873
1942,9304;0,0112514
1943,8947;0,0112236
1944,8589;0,0112401
1945,8231;0,0113288
1946,7874;0,0114919
1947,7516;0,0117013
1948,7158;0,0119063
1949,6801;0,0120508
1950,6443;0,0120944
1951,6085;0,0120293
1952,5728;0,011884
1953,5370;0,0117142
1954,5012;0,0115824
1955,4655;0,0115328
1956,4297;0,0115731
1957,3939;0,0116718
1958,3582;0,0117761
1959,3224;0,0118414
1960,2866;0,0118561
1961,2509;0,0118428
1962,2151;0,0118339
1963,1793;0,0118398
1964,1436;0,0118363
1965,1078;0,0117801
1966,0720;0,0116425
1967,0363;0,0114378
1968,0005;0,0112203
1968,9647;0,0110505
1969,9290;0,0109563
1970,8932;0,010922
1971,8574;0,0109066
1972,8217;0,0108714
1973,7859;0,0108006
1974,7501;0,0107053
1975,7144;0,0106176
1976,6786;0,0105756
1977,6428;0,010605
1978,6071;0,0107046
1979,5713;0,0108412
1980,5355;0,01096
1981,4998;0,0110062
1982,4640;0,0109494
1983,4282;0,010804
1984,3925;0,0106333
1985,3567;0,0105312
1986,3209;0,0105835
1987,2852;0,0108263
1988,2494;0,011223
1989,2136;0,011671
1990,1779;0,0120371
1991,1421;0,0122102
1992,1063;0,0121506
1993,0706;0,0119084
1994,0348;0,011595
1994,9990;0,0113311
1995,9633;0,0112027
1996,9275;0,0112419
1997,8917;0,0114246
1998,8560;0,0116808
1999,8202;0,0119165
2000,7844;0,0120472
2001,7487;0,012029
2002,7129;0,0118745
2003,6771;0,0116462
2004,6414;0,0114301
2005,6056;0,0113
2006,5698;0,0112876
2007,5341;0,0113736
2008,4983;0,0115065
2009,4625;0,0116311
2010,4268;0,0117087
2011,3910;0,0117207
2012,3552;0,0116636
2013,3195;0,011548
2014,2837;0,0114
2015,2479;0,0112582
2016,2122;0,0111591
2017,1764;0,0111172
2018,1406;0,0111184
2019,1049;0,011136
2020,0691;0,0111599
2021,0333;0,0112129
2021,9976;0,0113382
2022,9618;0,0115648
2023,9260;0,011872
2024,8903;0,0121821
2025,8545;0,0123909
2026,8187;0,0124222
2027,7830;0,0122718
2028,7472;0,012013
2029,7114;0,0117596
2030,6757;0,011609
2031,6399;0,0115937
2032,6041;0,0116703
2033,5684;0,0117491
2034,5326;0,0117486
2035,4968;0,0116403
2036,4611;0,0114588
2037,4253;0,0112749
2038,3895;0,0111536
2039,3538;0,0111201
2040,3180;0,0111496
2041,2822;0,0111836
2042,2465;0,0111627
2043,2107;0,0110599
2044,1749;0,0108961
2045,1392;0,0107319
2046,1034;0,0106402
2047,0676;0,0106699
2048,0320;0,0108182
2048,9961;0,0110301
2049,9604;0,011229
2050,9246;0,0113574
2051,8889;0,0114027
2052,8530;0,0113988
2053,8174;0,0114066
2054,7815;0,0114821
2055,7458;0,0116477
2056,7100;0,0118791
2057,6743;0,0121189
2058,6384;0,012308
2059,6028;0,0124145
2060,5669;0,0124435
2061,5313;0,0124252
2062,4954;0,0123918
2063,4597;0,01236
2064,4238;0,0123294
2065,3882;0,0122934
2066,3523;0,0122507
2067,3167;0,0122056
2068,2808;0,0121592
2069,2451;0,0121027
2070,2092;0,0120227
2071,1736;0,0119155
2072,1377;0,011798
2073,1021;0,0117029
2074,0662;0,0116553
2075,0305;0,0116499
2075,9946;0,0116453
2076,9590;0,0115856
2077,9231;0,0114354
2078,8875;0,0112056
2079,8516;0,0109518
2080,8159;0,0107461
2081,7800;0,0106418
2082,7444;0,0106513
2083,7085;0,0107479
2084,6729;0,0108848
2085,6370;0,0110179
2086,6013;0,0111188
2087,5654;0,011177
2088,5298;0,0111965
2089,4939;0,0111904
2090,4583;0,0111781
2091,4224;0,0111807
2092,3867;0,0112145
2093,3508;0,0112854
2094,3152;0,0113877
2095,2793;0,011509
2096,2437;0,0116404
2097,2078;0,0117817
2098,1721;0,0119385
2099,1362;0,012112
2100,1006;0,0122896
2101,0647;0,0124417
2102,0291;0,0125375
2102,9932;0,0125586
2103,9575;0,0125128
2104,9216;0,0124336
2105,8860;0,0123658
2106,8501;0,012343
2107,8145;0,0123704
2108,7786;0,0124222
2109,7429;0,012455
2110,7070;0,0124293
2111,6714;0,0123292
2112,6355;0,0121682
2113,5999;0,0119817
2114,5640;0,0118096
2115,5283;0,0116804
2116,4924;0,0116004
2117,4568;0,0115551
2118,4209;0,0115179
2119,3853;0,0114648
2120,3494;0,0113869
2121,3137;0,0112968
2122,2778;0,0112219
2123,2422;0,0111896
2124,2063;0,0112091
2125,1707;0,0112644
2126,1348;0,0113218
2127,0991;0,0113512
2128,0632;0,0113472
2129,0276;0,0113372
2129,9917;0,0113692
2130,9561;0,0114882
2131,9202;0,0117135
2132,8845;0,0120282
2133,8486;0,0123855
2134,8130;0,0127259
2135,7771;0,0129963
2136,7415;0,013163
2137,7056;0,0132202
2138,6699;0,0131933
2139,6340;0,0131386
2140,5984;0,0131316
2141,5625;0,0132409
2142,5269;0,0134943
2143,4910;0,0138552
2144,4553;0,0142265
2145,4194;0,0144857
2146,3838;0,014537
2147,3479;0,0143502
2148,3123;0,0139665
2149,2764;0,0134693
2150,2407;0,0129405
2151,2048;0,012428
2152,1692;0,0119378
2153,1333;0,0114473
2154,0977;0,0109243
2155,0618;0,0103402
2156,0261;0,00967831
2156,9902;0,00894546
2157,9546;0,00818863
2158,9187;0,0075003
2159,8831;0,00699002
2160,8472;0,00673417
2161,8115;0,00674481
2162,7756;0,00697779
2163,7400;0,00736353
2164,7041;0,0078375
2165,6685;0,00835693
2166,6326;0,00889966
2167,5969;0,00944966
2168,5610;0,00998264
2169,5254;0,010465
2170,4895;0,0108689
2171,4539;0,0111934
2172,4180;0,0114773
2173,3823;0,0117916
2174,3464;0,0122138
2175,3108;0,0127918
2176,2749;0,0135179
2177,2393;0,0143208
2178,2034;0,0150821
2179,1677;0,0156674
2180,1318;0,0159671
2181,0962;0,0159346
2182,0603;0,0156077
2183,0247;0,0150975
2183,9888;0,0145473
2184,9531;0,0140814
2185,9172;0,0137725
2186,8816;0,0136351
2187,8457;0,0136356
2188,8101;0,013704
2189,7742;0,0137439
2190,7385;0,01365
2191,7026;0,0133397
2192,6670;0,0127906
2193,6311;0,0120649
2194,5955;0,0112959
2195,5596;0,0106383
2196,5239;0,0102013
2197,4880;0,0100043
2198,4524;0,00997689
2199,4165;0,010001
2200,3809;0,00996991
2201,3450;0,00983348
2202,3093;0,00961149
2203,2734;0,00937722
2204,2378;0,00922336
2205,2019;0,00922552
2206,1663;0,00941483
2207,1304;0,00976706
2208,0947;0,0102121
2209,0588;0,0106609
2210,0232;0,0110388
2210,9873;0,0113084
2211,9517;0,0114709
2212,9158;0,0115492
2213,8801;0,0115671
2214,8442;0,0115428
2215,8086;0,0114984
2216,7727;0,0114751
2217,7371;0,0115329
2218,7012;0,0117273
2219,6655;0,0120738
2220,6296;0,0125237
2221,5940;0,0129718
2222,5581;0,0132944
2223,5225;0,0134001
2224,4866;0,0132665
2225,4509;0,0129467
2226,4150;0,0125465
2227,3794;0,0121848
2228,3435;0,0119558
2229,3079;0,0119027
2230,2720;0,0120086
2231,2363;0,0122043
2232,2004;0,0123899
2233,1648;0,0124668
2234,1289;0,0123719
2235,0933;0,0121029
2236,0574;0,0117219
2237,0217;0,0113326
2237,9858;0,0110383
2238,9502;0,0109002
2239,9143;0,010915
2240,8787;0,0110235
2241,8428;0,0111447
2242,8071;0,0112147
2243,7712;0,0112113
2244,7356;0,0111527
2245,6997;0,0110767
2246,6641;0,0110156
2247,6282;0,0109816
2248,5925;0,0109698
2249,5566;0,010972
2250,5210;0,0109896
2251,4851;0,0110372
2252,4495;0,0111346
2253,4136;0,0112927
2254,3779;0,0115022
2255,3420;0,011731
2256,3064;0,0119331
2257,2705;0,0120653
2258,2349;0,0121046
2259,1990;0,0120597
2260,1633;0,0119692
2261,1274;0,0118891
2262,0918;0,0118695
2263,0559;0,0119338
2264,0203;0,0120672
2264,9844;0,0122233
2265,9487;0,0123439
2266,9128;0,0123839
2267,8772;0,0123269
2268,8413;0,012188
2269,8057;0,0120033
2270,7698;0,0118148
2271,7341;0,0116571
2272,6982;0,0115493
2273,6626;0,0114938
2274,6267;0,0114789
2275,5911;0,0114846
2276,5552;0,01149
2277,5195;0,0114809
2278,4836;0,011455
2279,4480;0,0114219
2280,4121;0,0113994
2281,3765;0,0114051
2282,3406;0,0114501
2283,3049;0,0115352
2284,2690;0,0116517
2285,2334;0,0117858
2286,1975;0,0119234
2287,1619;0,0120545
2288,1260;0,0121747
2289,0903;0,0122844
2290,0544;0,0123858
2291,0188;0,0124805
2291,9829;0,0125685
2292,9473;0,0126494
2293,9114;0,0127247
2294,8757;0,0127983
2295,8398;0,0128729
2296,8042;0,0129456
2297,7683;0,0130043
2298,7327;0,0130303
2299,6968;0,013006
2300,6611;0,0129261
2301,6252;0,0128047
2302,5896;0,0126742
2303,5537;0,0125751
2304,5181;0,0125397
2305,4822;0,0125772
2306,4465;0,0126642
2307,4106;0,0127496
2308,3750;0,0127709
2309,3391;0,0126803
2310,3035;0,012466
2311,2676;0,0121606
2312,2319;0,0118273
2313,1960;0,0115324
2314,1604;0,0113174
2315,1245;0,0111866
2316,0889;0,0111148
2317,0530;0,0110672
2318,0173;0,0110194
2318,9814;0,010969
2319,9458;0,0109374
2320,9099;0,0109633
2321,8743;0,0110846
2322,8384;0,0113149
2323,8027;0,0116236
2324,7668;0,0119366
2325,7312;0,0121627
2326,6953;0,0122321
2327,6597;0,0121293
2328,6238;0,0119044
2329,5881;0,0116586
2330,5522;0,0115034
2331,5166;0,0115105
2332,4807;0,0116796
2333,4451;0,0119445
2334,4092;0,0122128
2335,3735;0,0124098
2336,3376;0,0125064
2337,3020;0,0125242
2338,2661;0,012518
2339,2305;0,0125425
2340,1946;0,0126097
2341,1589;0,0126596
2342,1230;0,0125786
2343,0874;0,0123033
2344,0515;0,0119644
2345,0159;0,0118553
2345,9800;0,0121583
2346,9443;0,0127583
2347,9084;0,0133511
2348,8728;0,0136582
2349,8369;0,0135625
2350,8013;0,0131357
2351,7654;0,0125858
2352,7297;0,0121454
2353,6938;0,0119561
2354,6582;0,0120329
2355,6223;0,0123202
2356,5867;0,0127408
2357,5508;0,0131934
2358,5151;0,0135565
2359,4792;0,0137392
2360,4436;0,0137307
2361,4077;0,0135864
2362,3721;0,0133695
2363,3362;0,0131148
2364,3005;0,0128347
2365,2646;0,0125344
2366,2290;0,0122098
2367,1931;0,0118403
2368,1575;0,0114009
2369,1216;0,0108893
2370,0859;0,0103461
2371,0500;0,00984629
2372,0144;0,00947053
2372,9785;0,00927457
2373,9429;0,00927458
2374,9070;0,00944977
2375,8713;0,00975534
2376,8354;0,0101374
2377,7998;0,0105444
2378,7639;0,0109328
2379,7283;0,0112694
2380,6924;0,0115302
2381,6567;0,0117007
2382,6208;0,0117769
2383,5852;0,0117664
2384,5493;0,0116893
2385,5137;0,0115752
2386,4778;0,0114586
2387,4421;0,0113704
2388,4063;0,0113293
2389,3706;0,0113368
2390,3347;0,0113765
2391,2991;0,0114221
2392,2632;0,0114494
2393,2275;0,0114474
2394,1917;0,0114233
2395,1560;0,0113983
2396,1201;0,0113969
2397,0845;0,0114353
2398,0486;0,0115158
2399,0129;0,0116241
2399,9771;0,011736
2400,9414;0,0118255
2401,9055;0,0118722
2402,8699;0,0118696
2403,8340;0,011829
2404,7983;0,0117776
2405,7625;0,0117503
2406,7268;0,0117735
2407,6909;0,0118519
2408,6553;0,0119639
2409,6194;0,0120688
2410,5837;0,0121257
2411,5479;0,0121124
2412,5122;0,0120344
2413,4763;0,0119209
2414,4407;0,0118097
2415,4048;0,011731
2416,3691;0,0116962
2417,3333;0,0116979
2418,2976;0,0117169
2419,2617;0,0117331
2420,2261;0,0117329
2421,1902;0,0117125
2422,1545;0,0116765
2423,1187;0,0116329
2424,0830;0,0115892
2425,0471;0,0115494
2426,0115;0,0115138
2426,9756;0,0114804
2427,9399;0,0114483
2428,9041;0,0114191
2429,8684;0,0113969
2430,8325;0,0113864
2431,7969;0,0113904
2432,7610;0,0114079
2433,7253;0,0114349
2434,6895;0,011467
2435,6538;0,0115027
2436,6179;0,0115447
2437,5823;0,0115985
2438,5464;0,0116688
2439,5107;0,011756
2440,4749;0,0118543
2441,4392;0,0119542
2442,4033;0,0120449
2443,3677;0,0121177
2444,3318;0,0121673
2445,2961;0,0121922
2446,2603;0,0121949
2447,2246;0,012183
2448,1887;0,0121684
2449,1531;0,0121635
2450,1172;0,0121759
2451,0815;0,0122027
2452,0457;0,0122307
2453,0100;0,0122422
2453,9741;0,0122247
2454,9385;0,0121791
2455,9026;0,0121192
2456,8669;0,0120648
2457,8311;0,0120309
2458,7954;0,01202
2459,7595;0,0120218
2460,7239;0,0120187
2461,6880;0,0119954
2462,6523;0,0119454
2463,6165;0,0118729
2464,5808;0,0117904
2465,5449;0,0117129
2466,5093;0,0116532
2467,4734;0,0116178
2468,4377;0,0116061
2469,4019;0,0116119
2470,3662;0,011626
2471,3303;0,0116409
2472,2947;0,0116534
2473,2588;0,0116668
2474,2231;0,0116896
2475,1873;0,0117309
2476,1516;0,0117959
2477,1157;0,0118809
2478,0801;0,0119732
2479,0442;0,012055
2480,0085;0,0121108
2480,9727;0,0121336
2481,9370;0,012129
2482,9011;0,0121127
2483,8655;0,0121043
2484,8296;0,0121198
2485,7939;0,012166
2486,7581;0,012238
2487,7224;0,0123216
2488,6865;0,0123974
2489,6509;0,0124479
2490,6150;0,0124634
2491,5793;0,0124447
2492,5435;0,0124014
2493,5078;0,0123471
2494,4719;0,012293
2495,4363;0,0122451
2496,4004;0,0122044
2497,3647;0,01217
2498,3289;0,0121412
2499,2932;0,0121168
2500,2573;0,0120932
2501,2217;0,0120636
2502,1858;0,0120212
2503,1501;0,0119638
2504,1143;0,0118973
2505,0786;0,0118346
2506,0427;0,0117899
2507,0071;0,0117732
2507,9712;0,0117866
2508,9355;0,0118258
2509,8997;0,0118823
2510,8640;0,0119459
2511,8281;0,012006
2512,7925;0,0120526
2513,7566;0,0120788
2514,7209;0,0120838
2515,6851;0,0120747
2516,6494;0,0120643
2517,6135;0,0120664
2518,5779;0,0120902
2519,5420;0,0121379
2520,5063;0,0122041
2521,4705;0,0122786
2522,4348;0,0123488
2523,3989;0,0124028
2524,3633;0,0124324
2525,3274;0,0124355
2526,2917;0,0124175
2527,2559;0,0123885
2528,2202;0,0123593
2529,1843;0,0123373
2530,1487;0,0123247
2531,1128;0,0123197
2532,0771;0,0123191
2533,0413;0,012318
2534,0056;0,0123093
2534,9697;0,0122842
2535,9341;0,0122363
2536,8982;0,012167
2537,8625;0,0120883
2538,8267;0,012018
2539,7910;0,011969
2540,7551;0,0119416
2541,7195;0,0119228
2542,6836;0,011897
2543,6479;0,0118582
2544,6121;0,0118148
2545,5764;0,0117838
2546,5405;0,0117774
2547,5049;0,0117946
2548,4690;0,0118226
2549,4333;0,0118473
2550,3975;0,0118638
2551,3618;0,0118786
2552,3259;0,0119033
2553,2903;0,0119468
2554,2544;0,0120102
2555,2188;0,0120885
2556,1829;0,0121734
2557,1472;0,012254
2558,1113;0,012317
2559,0757;0,012349
2560,0398;0,0123439
2561,0042;0,0123119
2561,9683;0,0122807
2562,9326;0,012286
2563,8967;0,0123524
2564,8611;0,0124778
2565,8252;0,0126307
2566,7896;0,0127629
2567,7537;0,0128319
2568,7180;0,012819
2569,6821;0,0127356
2570,6465;0,0126144
2571,6106;0,0124942
2572,5750;0,012403
2573,5391;0,0123494
2574,5034;0,0123216
2575,4675;0,012296
2576,4319;0,0122494
2577,3960;0,0121714
2578,3604;0,0120693
2579,3245;0,011965
2580,2888;0,0118843
2581,2529;0,0118438
2582,2173;0,0118443
2583,1814;0,0118711
2584,1458;0,0119035
2585,1099;0,0119247
2586,0742;0,0119291
2587,0383;0,0119237
2588,0027;0,0119229
2588,9668;0,0119407
2589,9312;0,0119822
2590,8953;0,012039
2591,8596;0,0120909
2592,8237;0,0121143
2593,7881;0,0120951
2594,7522;0,0120388
2595,7166;0,011973
2596,6807;0,0119372
2597,6450;0,0119656
2598,6091;0,01207
2599,5735;0,0122322
2600,5376;0,0124097
2601,5020;0,0125533
2602,4661;0,0126262
2603,4304;0,0126188
2604,3945;0,0125516
2605,3589;0,0124668
2606,3230;0,0124099
2607,2874;0,0124111
2608,2515;0,0124731
2609,2158;0,0125705
2610,1799;0,012663
2611,1443;0,0127145
2612,1084;0,0127092
2613,0728;0,0126562
2614,0369;0,0125804
2615,0012;0,0125075
2615,9653;0,0124504
2616,9297;0,0124059
2617,8938;0,0123627
2618,8582;0,0123126
2619,8223;0,0122588
2620,7866;0,012215
2621,7507;0,0121962
2622,7151;0,0122071
2623,6792;0,012235
2624,6436;0,0122532
2625,6077;0,0122328
2626,5720;0,0121586
2627,5361;0,0120401
2628,5005;0,0119125
2629,4646;0,0118239
2630,4290;0,0118152
2631,3931;0,0119009
2632,3574;0,0120601
2633,3215;0,0122426
2634,2859;0,0123882
2635,2500;0,0124503
2636,2144;0,0124148
2637,1785;0,0123056
2638,1428;0,0121759
2639,1069;0,0120866
2640,0713;0,0120825
2641,0354;0,012174
2641,9998;0,0123329
2642,9639;0,0125039
2643,9282;0,0126282
2644,8923;0,0126669
2645,8567;0,0126169
2646,8208;0,0125093
2647,7852;0,0123947
2648,7493;0,0123204
2649,7136;0,0123119
2650,6777;0,0123654
2651,6421;0,012454
2652,6062;0,0125429
2653,5706;0,0126041
2654,5347;0,0126262
2655,4990;0,0126144
2656,4631;0,0125832
2657,4275;0,0125481
2658,3916;0,0125196
2659,3560;0,0125023
2660,3201;0,0124975
2661,2844;0,0125074
2662,2485;0,0125356
2663,2129;0,0125848
2664,1770;0,0126532
2665,1414;0,0127311
2666,1055;0,0128027
2667,0698;0,0128519
2668,0339;0,0128702
2668,9983;0,0128626
2669,9624;0,0128475
2670,9268;0,0128491
2671,8909;0,0128864
2672,8552;0,0129623
2673,8193;0,0130605
2674,7837;0,013151
2675,7478;0,0132031
2676,7122;0,013199
2677,6763;0,0131429
2678,6406;0,0130592
2679,6047;0,0129822
2680,5691;0,0129409
2681,5332;0,0129466
2682,4976;0,0129887
2683,4617;0,0130412
2684,4260;0,0130756
2685,3901;0,0130742
2686,3545;0,0130371
2687,3186;0,01298
2688,2830;0,0129243
2689,2471;0,0128865
2690,2114;0,0128716
2691,1755;0,0128738
2692,1399;0,0128833
2693,1040;0,0128932
2694,0684;0,0129028
2695,0325;0,012916
2695,9968;0,0129366
2696,9609;0,0129639
2697,9253;0,0129925
2698,8894;0,0130144
2699,8538;0,0130239
2700,8179;0,0130197
2701,7822;0,0130069
2702,7463;0,0129943
2703,7107;0,0129911
2704,6748;0,0130022
2705,6392;0,0130265
2706,6033;0,0130569
2707,5676;0,0130849
2708,5317;0,0131051
2709,4961;0,0131185
2710,4602;0,0131313
2711,4246;0,0131497
2712,3887;0,0131752
2713,3530;0,0132033
2714,3171;0,0132262
2715,2815;0,0132389
2716,2456;0,0132421
2717,2100;0,0132423
2718,1741;0,0132467
2719,1384;0,013259
2720,1025;0,0132773
2721,0669;0,0132961
2722,0310;0,0133099
2722,9954;0,0133165
2723,9595;0,0133176
2724,9238;0,0133177
2725,8879;0,0133214
2726,8523;0,0133319
2727,8164;0,0133495
2728,7808;0,0133716
2729,7449;0,0133939
2730,7092;0,0134123
2731,6733;0,0134251
2732,6377;0,0134334
2733,6018;0,0134409
2734,5662;0,0134511
2735,5303;0,0134653
2736,4946;0,0134819
2737,4587;0,0134977
2738,4231;0,0135103
2739,3872;0,0135193
2740,3516;0,0135264
2741,3157;0,0135333
2742,2800;0,0135405
2743,2441;0,0135466
2744,2085;0,0135491
2745,1726;0,0135461
2746,1370;0,0135377
2747,1011;0,0135256
2748,0654;0,0135121
2749,0295;0,0134995
2749,9939;0,0134898
2750,9580;0,0134841
2751,9224;0,0134838
2752,8865;0,0134895
2753,8508;0,013501
2754,8149;0,0135163
2755,7793;0,0135322
2756,7434;0,0135454
2757,7078;0,0135537
2758,6719;0,0135564
2759,6362;0,013555
2760,6003;0,013552
2761,5647;0,0135503
2762,5288;0,0135521
2763,4932;0,0135586
2764,4573;0,0135696
2765,4216;0,0135835
2766,3857;0,0135986
2767,3501;0,0136132
2768,3142;0,0136273
2769,2786;0,0136416
2770,2427;0,0136573
2771,2070;0,0136748
2772,1711;0,0136935
2773,1355;0,0137129
2774,0996;0,0137331
2775,0640;0,0137555
2776,0281;0,0137818
2776,9924;0,0138126
2777,9565;0,0138467
2778,9209;0,0138812
2779,8850;0,0139133
2780,8494;0,0139411
2781,8135;0,0139644
2782,7778;0,0139844
2783,7419;0,0140024
2784,7063;0,0140197
2785,6704;0,0140369
2786,6348;0,0140536
2787,5989;0,0140681
2788,5632;0,0140775
2789,5273;0,0140789
2790,4917;0,0140714
2791,4558;0,0140576
2792,4202;0,0140435
2793,3843;0,0140363
2794,3486;0,0140424
2795,3127;0,0140642
2796,2771;0,0140994
2797,2412;0,0141412
2798,2056;0,0141801
2799,1697;0,0142071
2800,1340;0,0142161
2801,0981;0,014208
2802,0625;0,014191
2803,0266;0,0141786
2803,9910;0,0141848
2804,9551;0,0142177
2805,9194;0,0142752
2806,8835;0,0143456
2807,8479;0,0144124
2808,8120;0,0144616
2809,7764;0,0144875
2810,7405;0,0144952
2811,7048;0,0144977
2812,6689;0,0145106
2813,6333;0,0145457
2814,5974;0,0146063
2815,5618;0,0146866
2816,5259;0,0147744
2817,4902;0,014857
2818,4543;0,0149269
2819,4187;0,0149842
2820,3828;0,0150351
2821,3472;0,0150869
2822,3113;0,0151431
2823,2756;0,0152016
2824,2397;0,0152568
2825,2041;0,0153049
2826,1682;0,015347
2827,1326;0,0153894
2828,0967;0,0154398
2829,0610;0,0155027
2830,0251;0,015577
2830,9895;0,0156566
2831,9536;0,0157337
2832,9180;0,0158027
2833,8821;0,0158608
2834,8464;0,0159085
2835,8105;0,0159476
2836,7749;0,0159814
2837,7390;0,0160141
2838,7034;0,0160506
2839,6675;0,0160954
2840,6318;0,0161492
2841,5959;0,0162074
2842,5603;0,0162604
2843,5244;0,0162973
2844,4888;0,0163121
2845,4529;0,016308
2846,4172;0,016298
2847,3813;0,0163005
2848,3457;0,0163313
2849,3098;0,0163967
2850,2742;0,0164917
2851,2383;0,0166033
2852,2026;0,0167175
2853,1667;0,0168255
2854,1311;0,0169258
2855,0952;0,0170217
2856,0596;0,0171163
2857,0237;0,0172094
2857,9880;0,0172971
2858,9521;0,017375
2859,9165;0,0174424
2860,8806;0,0175036
2861,8450;0,0175664
2862,8091;0,0176383
2863,7734;0,0177221
2864,7375;0,0178137
2865,7019;0,0179037
2866,6660;0,0179819
2867,6304;0,0180419
2868,5945;0,0180836
2869,5588;0,0181123
2870,5229;0,0181363
2871,4873;0,0181625
2872,4514;0,0181949
2873,4158;0,0182334
2874,3799;0,0182757
2875,3442;0,0183176
2876,3083;0,018355
2877,2727;0,0183848
2878,2368;0,0184061
2879,2012;0,0184208
2880,1653;0,0184329
2881,1296;0,0184464
2882,0938;0,0184631
2883,0581;0,0184813
2884,0222;0,0184972
2884,9866;0,0185073
2885,9507;0,0185114
2886,9150;0,0185122
2887,8792;0,0185147
2888,8435;0,0185225
2889,8076;0,0185368
2890,7720;0,0185551
2891,7361;0,0185732
2892,7004;0,0185868
2893,6646;0,0185932
2894,6289;0,0185927
2895,5930;0,0185886
2896,5574;0,018586
2897,5215;0,0185893
2898,4858;0,0185995
2899,4500;0,0186139
2900,4143;0,0186265
2901,3784;0,0186314
2902,3428;0,0186253
2903,3069;0,0186091
2904,2712;0,0185866
2905,2354;0,018562
2906,1997;0,0185378
2907,1638;0,0185134
2908,1282;0,0184853
2909,0923;0,0184485
2910,0566;0,0183979
2911,0208;0,0183303
2911,9851;0,0182465
2912,9492;0,0181531
2913,9136;0,0180619
2914,8777;0,0179872
2915,8420;0,0179415
2916,8062;0,0179306
2917,7705;0,0179518
2918,7346;0,0179954
2919,6990;0,0180485
2920,6631;0,0180996
2921,6274;0,018141
2922,5916;0,0181697
2923,5559;0,0181856
2924,5200;0,0181908
2925,4844;0,0181885
2926,4485;0,0181834
2927,4128;0,0181805
2928,3770;0,0181832
2929,3413;0,0181923
2930,3054;0,0182053
2931,2698;0,0182173
2932,2339;0,0182236
2933,1982;0,0182212
2934,1624;0,0182097
2935,1267;0,0181899
2936,0908;0,0181632
2937,0552;0,0181309
2938,0193;0,0180945
2938,9836;0,0180556
2939,9478;0,0180146
2940,9121;0,017969
2941,8762;0,0179136
2942,8406;0,017843
2943,8047;0,0177556
2944,7690;0,0176567
2945,7332;0,0175567
2946,6975;0,017466
2947,6616;0,0173886
2948,6260;0,0173197
2949,5901;0,0172485
2950,5544;0,0171658
2951,5186;0,0170699
2952,4829;0,0169679
2953,4470;0,0168716
2954,4114;0,01679
2955,3755;0,0167245
2956,3398;0,0166698
2957,3040;0,0166187
2958,2683;0,0165667
2959,2324;0,0165152
2960,1968;0,0164689
2961,1609;0,0164318
2962,1252;0,0164038
2963,0894;0,0163804
2964,0537;0,0163559
2965,0178;0,0163265
2965,9822;0,016292
2966,9463;0,0162551
2967,9106;0,0162189
2968,8748;0,0161846
2969,8391;0,0161509
2970,8032;0,016115
2971,7676;0,0160748
2972,7317;0,016031
2973,6960;0,0159871
2974,6602;0,0159486
2975,6245;0,01592
2976,5886;0,0159014
2977,5530;0,0158871
2978,5171;0,0158674
2979,4814;0,0158326
2980,4456;0,0157795
2981,4099;0,015714
2982,3740;0,0156491
2983,3384;0,015599
2984,3025;0,0155709
2985,2668;0,015562
2986,2310;0,0155614
2987,1953;0,0155573
2988,1594;0,0155438
2989,1238;0,0155237
2990,0879;0,0155048
2991,0522;0,0154941
2992,0164;0,015493
2992,9807;0,0154975
2993,9448;0,0155022
2994,9092;0,0155037
2995,8733;0,0155027
2996,8376;0,0155019
2997,8018;0,0155033
2998,7661;0,0155068
2999,7302;0,015511
3000,6946;0,0155153
3001,6587;0,015521
3002,6230;0,0155304
3003,5872;0,0155457
3004,5515;0,0155676
3005,5156;0,0155956
3006,4800;0,0156285
3007,4441;0,015665
3008,4084;0,0157027
3009,3726;0,0157377
3010,3369;0,015765
3011,3010;0,0157809
3012,2654;0,0157846
3013,2295;0,0157795
3014,1938;0,0157714
3015,1580;0,015765
3016,1223;0,0157623
3017,0864;0,0157631
3018,0508;0,0157667
3019,0149;0,0157738
3019,9792;0,0157863
3020,9434;0,0158055
3021,9077;0,0158299
3022,8718;0,0158563
3023,8362;0,0158825
3024,8003;0,0159105
3025,7646;0,0159463
3026,7288;0,0159963
3027,6931;0,0160614
3028,6572;0,0161333
3029,6216;0,0161968
3030,5857;0,0162366
3031,5500;0,0162454
3032,5142;0,0162286
3033,4785;0,0162012
3034,4426;0,0161803
3035,4070;0,016177
3036,3711;0,0161932
3037,3354;0,0162238
3038,2996;0,0162612
3039,2639;0,0162994
3040,2280;0,0163355
3041,1924;0,0163692
3042,1565;0,0164014
3043,1208;0,0164341
3044,0850;0,0164695
3045,0493;0,0165091
3046,0134;0,0165523
3046,9778;0,0165961
3047,9419;0,0166373
3048,9063;0,0166749
3049,8704;0,0167121
3050,8347;0,0167547
3051,7988;0,016806
3052,7632;0,0168644
3053,7273;0,0169226
3054,6917;0,0169718
3055,6558;0,0170073
3056,6201;0,0170318
3057,5842;0,0170533
3058,5486;0,0170812
3059,5127;0,0171208
3060,4771;0,0171718
3061,4412;0,0172292
3062,4055;0,0172855
3063,3696;0,0173341
3064,3340;0,0173711
3065,2981;0,0173973
3066,2625;0,0174186
3067,2266;0,0174436
3068,1909;0,0174797
3069,1550;0,0175282
3070,1194;0,0175834
3071,0835;0,0176355
3072,0479;0,0176764
3073,0120;0,0177051
3073,9763;0,0177291
3074,9404;0,0177598
3075,9048;0,0178055
3076,8689;0,0178665
3077,8333;0,0179341
3078,7974;0,0179957
3079,7617;0,0180417
3080,7258;0,0180706
3081,6902;0,0180891
3082,6543;0,0181083
3083,6187;0,0181371
3084,5828;0,0181782
3085,5471;0,0182276
3086,5112;0,0182779
3087,4756;0,0183237
3088,4397;0,0183651
3089,4041;0,0184076
3090,3682;0,0184584
3091,3325;0,0185215
3092,2966;0,0185947
3093,2610;0,0186705
3094,2251;0,0187405
3095,1895;0,0187995
3096,1536;0,0188477
3097,1179;0,0188889
3098,0820;0,0189271
3099,0464;0,0189644
3100,0105;0,0190014
3100,9749;0,0190389
3101,9390;0,0190793
3102,9033;0,0191262
3103,8674;0,0191812
3104,8318;0,0192418
3105,7959;0,0193017
3106,7603;0,0193539
3107,7244;0,0193948
3108,6887;0,019427
3109,6528;0,0194584
3110,6172;0,0194978
3111,5813;0,019551
3112,5457;0,019618
3113,5098;0,0196947
3114,4741;0,0197755
3115,4382;0,0198563
3116,4026;0,0199344
3117,3667;0,0200069
3118,3311;0,0200694
3119,2952;0,0201171
3120,2595;0,0201478
3121,2236;0,0201656
3122,1880;0,0201805
3123,1521;0,0202051
3124,1165;0,0202483
3125,0806;0,020311
3126,0449;0,0203858
3127,0090;0,020462
3127,9734;0,0205303
3128,9375;0,0205873
3129,9019;0,0206351
3130,8660;0,0206789
3131,8303;0,0207239
3132,7944;0,0207733
3133,7588;0,0208279
3134,7229;0,0208864
3135,6873;0,0209461
3136,6514;0,0210033
3137,6157;0,0210551
3138,5798;0,0210995
3139,5442;0,0211373
3140,5083;0,0211712
3141,4727;0,0212054
3142,4368;0,0212444
3143,4011;0,0212917
3144,3652;0,0213496
3145,3296;0,0214182
3146,2937;0,021495
3147,2581;0,0215742
3148,2222;0,0216476
3149,1865;0,0217071
3150,1506;0,0217475
3151,1150;0,0217698
3152,0791;0,0217816
3153,0435;0,021795
3154,0076;0,0218226
3154,9719;0,0218734
3155,9360;0,0219496
3156,9004;0,0220461
3157,8645;0,0221525
3158,8289;0,0222566
3159,7930;0,0223476
3160,7573;0,0224196
3161,7214;0,0224722
3162,6858;0,0225104
3163,6499;0,0225419
3164,6143;0,0225749
3165,5784;0,0226161
3166,5427;0,0226687
3167,5068;0,0227332
3168,4712;0,0228079
3169,4353;0,0228156
3170,3997;0,0229029
3171,3638;0,022992
3172,3281;0,0230779
3173,2922;0,0231555
3174,2566;0,0232206
3175,2207;0,0232722
3176,1851;0,023313
3177,1492;0,0233491
3178,1135;0,0233868
3179,0776;0,0234306
3180,0420;0,023481
3181,0061;0,023536
3181,9705;0,0235922
3182,9346;0,023648
3183,8989;0,0237034
3184,8630;0,0237602
3185,8274;0,0238199
3186,7915;0,0238825
3187,7559;0,0239464
3188,7200;0,0240091
3189,6843;0,0240691
3190,6484;0,024127
3191,6128;0,0241853
3192,5769;0,0242462
3193,5413;0,02431
3194,5054;0,0243735
3195,4697;0,0244323
3196,4338;0,0244835
3197,3982;0,0245283
3198,3623;0,0245725
3199,3267;0,0246226
3200,2908;0,0246823
3201,2551;0,0247499
3202,2192;0,0248195
3203,1836;0,0248851
3204,1477;0,0249433
3205,1121;0,0249951
3206,0762;0,0250445
3207,0405;0,0250961
3208,0046;0,0251534
3208,9690;0,0252178
3209,9331;0,025288
3210,8975;0,0253612
3211,8616;0,0254332
3212,8259;0,0255001
3213,7900;0,025559
3214,7544;0,0256093
3215,7185;0,0256516
3216,6829;0,0256874
3217,6470;0,0257188
3218,6113;0,0257489
3219,5754;0,0257826
3220,5398;0,0258258
3221,5039;0,0258824
3222,4683;0,0259513
3223,4324;0,0260254
3224,3967;0,0260953
3225,3608;0,0261536
3226,3252;0,0261989
3227,2893;0,0262359
3228,2537;0,0262707
3229,2178;0,0263061
3230,1821;0,0263403
3231,1462;0,0263701
3232,1106;0,0263954
3233,0747;0,0264216
3234,0391;0,026457
3235,0032;0,0265074
3235,9675;0,0265718
3236,9316;0,0266436
3237,8960;0,026715
3238,8601;0,0267818
3239,8245;0,0268442
3240,7886;0,0269041
3241,7529;0,0269607
3242,7170;0,0270091
3243,6814;0,0270441
3244,6455;0,0270645
3245,6099;0,0270765
3246,5740;0,0270917
3247,5383;0,0271213
3248,5024;0,0271705
3249,4668;0,0272367
3250,4309;0,0273116
3251,3953;0,0273853
3252,3594;0,0274495
3253,3237;0,0274993
3254,2878;0,0275344
3255,2522;0,0275585
3256,2163;0,0275786
3257,1807;0,0276024
3258,1448;0,0276353
3259,1091;0,0276779
3260,0732;0,0277254
3261,0376;0,0277707
3262,0017;0,0278094
3262,9661;0,0278434
3263,9302;0,0278811
3264,8945;0,0279321
3265,8586;0,028001
3266,8230;0,0280831
3267,7871;0,0281658
3268,7515;0,028235
3269,7156;0,0282821
3270,6799;0,0283081
3271,6440;0,0283214
3272,6084;0,0283321
3273,5725;0,028346
3274,5369;0,0283635
3275,5010;0,028382
3276,4653;0,0284009
3277,4294;0,0284229
3278,3938;0,0284522
3279,3579;0,0284895
3280,3223;0,0285296
3281,2864;0,0285631
3282,2507;0,0285816
3283,2148;0,0285834
3284,1792;0,0285751
3285,1433;0,0285684
3286,1077;0,0285741
3287,0718;0,0285969
3288,0361;0,0286344
3289,0002;0,0286789
3289,9646;0,0287219
3290,9287;0,028757
3291,8931;0,028782
3292,8572;0,0287978
3293,8215;0,0288072
3294,7856;0,0288126
3295,7500;0,0288151
3296,7141;0,0288154
3297,6785;0,0288139
3298,6426;0,0288128
3299,6069;0,0288156
3300,5710;0,0288262
3301,5354;0,0288467
3302,4995;0,0288757
3303,4639;0,028908
3304,4280;0,0289369
3305,3923;0,0289573
3306,3564;0,028968
3307,3208;0,028972
3308,2849;0,0289738
3309,2493;0,0289767
3310,2134;0,0289814
3311,1777;0,0289869
3312,1418;0,0289934
3313,1062;0,0290039
3314,0703;0,0290239
3315,0347;0,0290575
3315,9988;0,0291043
3316,9631;0,0291577
3317,9272;0,0292074
3318,8916;0,0292445
3319,8557;0,0292666
3320,8201;0,029279
3321,7842;0,0292922
3322,7485;0,0293164
3323,7126;0,0293557
3324,6770;0,0294059
3325,6411;0,0294571
3326,6055;0,0294994
3327,5696;0,0295273
3328,5339;0,029543
3329,4980;0,029553
3330,4624;0,0295638
3331,4265;0,0295783
3332,3909;0,0295945
3333,3550;0,0296082
3334,3193;0,0296168
3335,2834;0,0296209
3336,2478;0,0296232
3337,2119;0,0296253
3338,1763;0,029625
3339,1404;0,0296173
3340,1047;0,0295982
3341,0688;0,0295686
3342,0332;0,0295353
3342,9973;0,0295081
3343,9617;0,0294937
3344,9258;0,0294915
3345,8901;0,0294937
3346,8542;0,0294897
3347,8186;0,0294711
3348,7827;0,0294357
3349,7471;0,0293869
3350,7112;0,029331
3351,6755;0,0292737
3352,6396;0,0292191
3353,6040;0,0291701
3354,5681;0,0291292
3355,5325;0,0290981
3356,4966;0,029077
3357,4609;0,0290636
3358,4250;0,0290539
3359,3894;0,0290438
3360,3535;0,0290308
3361,3179;0,0290132
3362,2820;0,0289898
3363,2463;0,0289584
3364,2104;0,0289165
3365,1748;0,0288633
3366,1389;0,0288009
3367,1033;0,028734
3368,0674;0,0286678
3369,0317;0,0286052
3369,9958;0,0285467
3370,9602;0,0284916
3371,9243;0,02844
3372,8887;0,0283931
3373,8528;0,028352
3374,8171;0,0283156
3375,7813;0,0282802
3376,7456;0,0282414
3377,7097;0,0281975
3378,6741;0,0281506
3379,6382;0,0281057
3380,6025;0,0280671
3381,5667;0,0280347
3382,5310;0,0280041
3383,4951;0,0279692
3384,4595;0,0279266
3385,4236;0,0278785
3386,3879;0,0278321
3387,3521;0,0277956
3388,3164;0,0277739
3389,2805;0,0277659
3390,2449;0,0277648
3391,2090;0,0277597
3392,1733;0,0277401
3393,1375;0,027699
3394,1018;0,0276357
3395,0659;0,0275554
3396,0303;0,0274669
3396,9944;0,0273789
3397,9587;0,0272971
3398,9229;0,0272226
3399,8872;0,0271532
3400,8513;0,0270862
3401,8157;0,0270212
3402,7798;0,0269607
3403,7441;0,0269075
3404,7083;0,0268613
3405,6726;0,0268177
3406,6367;0,0267697
3407,6011;0,0267117
3408,5652;0,0266426
3409,5295;0,0265659
3410,4937;0,0264862
3411,4580;0,0264072
3412,4221;0,0263302
3413,3865;0,0262573
3414,3506;0,0261926
3415,3149;0,0261425
3416,2791;0,026112
3417,2434;0,0260988
3418,2075;0,0260915
3419,1719;0,0260718
3420,1360;0,0260232
3421,1003;0,0259396
3422,0645;0,0258292
3423,0288;0,0257092
3423,9929;0,0255964
3424,9573;0,0254997
3425,9214;0,0254188
3426,8857;0,0253472
3427,8499;0,0252777
3428,8142;0,0252057
3429,7783;0,02513
3430,7427;0,0250504
3431,7068;0,0249668
3432,6711;0,0248795
3433,6353;0,0247913
3434,5996;0,0247079
3435,5637;0,0246358
3436,5281;0,0245782
3437,4922;0,0245317
3438,4565;0,0244884
3439,4207;0,0244408
3440,3850;0,0243879
3441,3491;0,0243352
3442,3135;0,024289
3443,2776;0,0242483
3444,2419;0,0242006
3445,2061;0,0241263
3446,1704;0,024011
3447,1345;0,0238574
3448,0989;0,0236872
3449,0630;0,0235303
3450,0273;0,0234086
3450,9915;0,0233268
3451,9558;0,0232748
3452,9199;0,0232361
3453,8843;0,0231959
3454,8484;0,0231463
3455,8127;0,023086
3456,7769;0,023017
3457,7412;0,0229423
3458,7053;0,022864
3459,6697;0,0227847
3460,6338;0,0227072
3461,5981;0,0226335
3462,5623;0,0225619
3463,5266;0,0224865
3464,4907;0,0223993
3465,4551;0,0222946
3466,4192;0,0221738
3467,3835;0,0220468
3468,3477;0,0219278
3469,3120;0,0218279
3470,2761;0,0217486
3471,2405;0,0216819
3472,2046;0,0216165
3473,1689;0,0215455
3474,1331;0,0214727
3475,0974;0,0214093
3476,0615;0,0213654
3477,0259;0,0213406
3477,9900;0,0213221
3478,9543;0,02129
3479,9185;0,021228
3480,8828;0,021133
3481,8469;0,0210178
3482,8113;0,0209035
3483,7754;0,020806
3484,7397;0,0207274
3485,7039;0,0206562
3486,6682;0,0205766
3487,6323;0,0204786
3488,5967;0,0203655
3489,5608;0,0202522
3490,5251;0,0201558
3491,4893;0,0200841
3492,4536;0,0200308
3493,4177;0,0199794
3494,3821;0,0199154
3495,3462;0,0198385
3496,3105;0,0197664
3497,2747;0,019725
3498,2390;0,019729
3499,2031;0,0197691
3500,1675;0,0198118
3501,1316;0,0198142
3502,0959;0,0197478
3503,0601;0,0196194
3504,0244;0,0194689
3504,9885;0,0193403
3505,9529;0,0192524
3506,9170;0,0191915
3507,8813;0,0191261
3508,8455;0,0190288
3509,8098;0,0188949
3510,7739;0,0187444
3511,7383;0,0186082
3512,7024;0,0185071
3513,6667;0,0184429
3514,6309;0,0184036
3515,5952;0,0183753
3516,5593;0,0183504
3517,5237;0,0183295
3518,4878;0,0183168
3519,4521;0,0183142
3520,4163;0,0183185
3521,3806;0,018322
3522,3447;0,0183157
3523,3091;0,0182917
3524,2732;0,0182441
3525,2375;0,0181672
3526,2017;0,0180564
3527,1660;0,017912
3528,1301;0,017744
3529,0945;0,0175728
3530,0586;0,0174212
3531,0229;0,0173019
3531,9871;0,0172117
3532,9514;0,0171346
3533,9155;0,0170507
3534,8799;0,0169464
3535,8440;0,016822
3536,8083;0,0166952
3537,7725;0,0165959
3538,7368;0,0165527
3539,7009;0,0165808
3540,6653;0,0166748
3541,6294;0,0168078
3542,5938;0,0169334
3543,5579;0,0169945
3544,5222;0,0169469
3545,4863;0,016791
3546,4507;0,0165792
3547,4148;0,0163816
3548,3792;0,0162385
3549,3433;0,0161445
3550,3076;0,0160653
3551,2717;0,0159671
3552,2361;0,0158397
3553,2002;0,015703
3554,1646;0,0155912
3555,1287;0,0155255
3556,0930;0,0155032
3557,0571;0,0155074
3558,0215;0,0155269
3558,9856;0,0155662
3559,9500;0,0156427
3560,9141;0,0157689
3561,8784;0,015935
3562,8425;0,0161031
3563,8069;0,0162089
3564,7710;0,0161698
3565,7354;0,0159158
3566,6995;0,0154662
3567,6638;0,0149719
3568,6279;0,0146105
3569,5923;0,0144459
3570,5564;0,0144223
3571,5208;0,0144483
3572,4849;0,0144591
3573,4492;0,0144329
3574,4133;0,0143779
3575,3777;0,0143122
3576,3418;0,0142484
3577,3062;0,0141923
3578,2703;0,0141516
3579,2346;0,0141444
3580,1987;0,0141925
3581,1631;0,0143045
3582,1272;0,0144608
3583,0916;0,014616
3584,0557;0,0147107
3585,0200;0,0146861
3585,9841;0,0145078
3586,9485;0,0142137
3587,9126;0,013935
3588,8770;0,0138101
3589,8411;0,0138714
3590,8054;0,0140461
3591,7695;0,0142312
3592,7339;0,0143522
3593,6980;0,0143823
3594,6624;0,0143412
3595,6265;0,0142739
3596,5908;0,0142135
3597,5549;0,0141556
3598,5193;0,0140707
3599,4834;0,0139396
3600,4478;0,0137806
3601,4119;0,0136413
3602,3762;0,0135608
3603,3403;0,0135386
3604,3047;0,0135374
3605,2688;0,0135052
3606,2332;0,0133984
3607,1973;0,0132042
3608,1616;0,0129568
3609,1257;0,0127274
3610,0901;0,0125833
3611,0542;0,0125519
3612,0186;0,0126172
3612,9827;0,0127358
3613,9470;0,0128557
3614,9111;0,0129298
3615,8755;0,0129228
3616,8396;0,0128169
3617,8040;0,0126218
3618,7681;0,0123923
3619,7324;0,0122299
3620,6965;0,0122307
3621,6609;0,0124121
3622,6250;0,012699
3623,5894;0,0129768
3624,5535;0,0131463
3625,5178;0,0131463
3626,4819;0,012947
3627,4463;0,0125504
3628,4104;0,0120427
3629,3748;0,0116199
3630,3389;0,0114352
3631,3032;0,0114502
3632,2673;0,0115114
3633,2317;0,0114954
3634,1958;0,0113701
3635,1602;0,0111799
3636,1243;0,0109947
3637,0886;0,01086
3638,0527;0,0107785
3639,0171;0,0107293
3639,9812;0,0106986
3640,9456;0,0106937
3641,9097;0,0107308
3642,8740;0,0108134
3643,8381;0,010923
3644,8025;0,0110288
3645,7666;0,0110913
3646,7310;0,0110362
3647,6951;0,0107315
3648,6594;0,0101222
3649,6235;0,00945333
3650,5879;0,00906758
3651,5520;0,00902295
3652,5164;0,0091436
3653,4805;0,00924659
3654,4448;0,00924485
3655,4089;0,00914928
3656,3733;0,00903185
3657,3374;0,00896709
3658,3018;0,00897688
3659,2659;0,00902519
3660,2302;0,00906603
3661,1943;0,00909076
3662,1587;0,00913174
3663,1228;0,00922465
3664,0872;0,0093659
3665,0513;0,00950793
3666,0156;0,00959116
3666,9797;0,00958377
3667,9441;0,00950015
3668,9082;0,00939654
3669,8726;0,00934596
3670,8367;0,00938452
3671,8010;0,00947042
3672,7651;0,00951325
3673,7295;0,00943663
3674,6936;0,00922422
3675,6580;0,00895348
3676,6221;0,00877133
3677,5864;0,00876562
3678,5505;0,00889212
3679,5149;0,0090532
3680,4790;0,00919267
3681,4434;0,00931397
3682,4075;0,00944283
3683,3718;0,00958508
3684,3359;0,00971521
3685,3003;0,0097979
3686,2644;0,0098147
3687,2288;0,00976772
3688,1929;0,00966548
3689,1572;0,0095332
3690,1213;0,00943763
3691,0857;0,00944318
3692,0498;0,00954902
3693,0142;0,00970715
3693,9783;0,00987333
3694,9426;0,0100251
3695,9067;0,0101509
3696,8711;0,0102379
3697,8352;0,0102708
3698,7996;0,0102431
3699,7637;0,0101686
3700,7280;0,0100859
3701,6921;0,0100493
3702,6565;0,0101036
3703,6206;0,0102558
3704,5850;0,0104687
3705,5491;0,0106838
3706,5134;0,0108467
3707,4775;0,0109144
3708,4419;0,0108402
3709,4060;0,010565
3710,3704;0,0100715
3711,3345;0,00948782
3712,2988;0,00905134
3713,2629;0,00891151
3714,2273;0,00904144
3715,1914;0,00932411
3716,1558;0,00965289
3717,1199;0,00997046
3718,0842;0,0102636
3719,0483;0,0105413
3720,0127;0,0108125
3720,9768;0,0110721
3721,9412;0,0112985
3722,9053;0,0114618
3723,8696;0,0115411
3724,8337;0,0115419
3725,7981;0,0114997
3726,7622;0,0114595
3727,7266;0,0114482
3728,6907;0,011469
3729,6550;0,0115159
3730,6191;0,0115838
3731,5835;0,0116549
3732,5476;0,0116663
3733,5120;0,011505
3734,4761;0,0111041
3735,4404;0,0105863
3736,4045;0,0102073
3737,3689;0,010108
3738,3330;0,0102112
3739,2974;0,0103289
3740,2615;0,0102929
3741,2258;0,0100243
3742,1899;0,00956143
3743,1543;0,00906151
3744,1184;0,00874415
3745,0828;0,0087483
3746,0469;0,00901043
3747,0112;0,00931895
3747,9753;0,00946409
3748,9397;0,00932851
3749,9038;0,00892942
3750,8682;0,00845761
3751,8323;0,00819341
3752,7966;0,00826198
3753,7607;0,00855043
3754,7251;0,00886316
3755,6892;0,00906216
3756,6536;0,00910024
3757,6177;0,00900377
3758,5820;0,00884704
3759,5461;0,00871636
3760,5105;0,00866313
3761,4746;0,00868195
3762,4390;0,00873347
3763,4031;0,0087806
3764,3674;0,00880547
3765,3315;0,00880449
3766,2959;0,00877471
3767,2600;0,0087061
3768,2244;0,00858844
3769,1885;0,00843063
3770,1528;0,00827487
3771,1169;0,00818165
3772,0813;0,00819004
3773,0454;0,0082901
3774,0098;0,00843267
3774,9739;0,00855998
3775,9382;0,00863061
3776,9023;0,00862923
3777,8667;0,00856872
3778,8308;0,0084896
3779,7952;0,00844409
3780,7593;0,00846287
3781,7236;0,0085344
3782,6877;0,00861573
3783,6521;0,00865905
3784,6162;0,00863526
3785,5806;0,00854847
3786,5447;0,00843482
3787,5090;0,00834362
3788,4731;0,008311
3789,4375;0,00834311
3790,4016;0,00841878
3791,3660;0,00850739
3792,3301;0,00858981
3793,2944;0,00866884
3794,2585;0,00876166
3795,2229;0,00887825
3796,1870;0,00900238
3797,1514;0,00909248
3798,1155;0,00910369
3799,0798;0,00901589
3800,0439;0,00885243
3801,0083;0,00867784
3801,9724;0,00855937
3802,9368;0,00850692
3803,9009;0,0084592
3804,8652;0,00834194
3805,8293;0,00814313
3806,7937;0,00794454
3807,7578;0,00787554
3808,7222;0,00800592
3809,6863;0,00828083
3810,6506;0,0085675
3811,6147;0,00875057
3812,5791;0,00879204
3813,5432;0,00873743
3814,5076;0,00867988
3815,4717;0,00869834
3816,4360;0,00880233
3817,4001;0,00892463
3818,3645;0,00896836
3819,3286;0,00887149
3820,2930;0,00865771
3821,2571;0,00844128
3822,2214;0,00834849
3823,1855;0,00841452
3824,1499;0,00857389
3825,1140;0,0087327
3826,0784;0,00883057
3827,0425;0,00885719
3828,0068;0,00883829
3828,9709;0,00881153
3829,9353;0,00880639
3830,8994;0,0088348
3831,8638;0,00889127
3832,8279;0,00895812
3833,7922;0,00901327
3834,7563;0,00903915
3835,7207;0,00902908
3836,6848;0,0089878
3837,6492;0,00892804
3838,6133;0,0088662
3839,5776;0,00881098
3840,5417;0,0087519
3841,5061;0,00866871
3842,4702;0,0085614
3843,4346;0,00846996
3844,3987;0,00845908
3845,3630;0,00857385
3846,3271;0,00880124
3847,2915;0,00906858
3848,2556;0,00927596
3849,2200;0,00933472
3850,1841;0,00918947
3851,1484;0,00881738
3852,1125;0,00823925
3853,0769;0,0076136
3854,0410;0,00726239
3855,0054;0,00736775
3855,9695;0,00778982
3856,9338;0,00827663
3857,8979;0,00865984
3858,8623;0,00888718
3859,8264;0,00898482
3860,7908;0,00901011
3861,7549;0,00901111
3862,7192;0,00900775
3863,6833;0,00900274
3864,6477;0,00899973
3865,6118;0,00900264
3866,5762;0,00900845
3867,5403;0,00900842
3868,5046;0,00899067
3869,4688;0,0089411
3870,4331;0,00885258
3871,3972;0,0087404
3872,3616;0,00864061
3873,3257;0,00858536
3874,2900;0,00858134
3875,2542;0,00861132
3876,2185;0,00865285
3877,1826;0,00869615
3878,1470;0,00874883
3879,1111;0,00882224
3880,0754;0,00890875
3881,0396;0,00897082
3882,0039;0,00895664
3882,9680;0,00883537
3883,9324;0,00862972
3884,8965;0,00841963
3885,8608;0,00829971
3886,8250;0,00831314
3887,7893;0,00842251
3888,7534;0,0085435
3889,7178;0,00860374
3890,6819;0,00858578
3891,6462;0,00853818
3892,6104;0,00854072
3893,5747;0,00863552
3894,5388;0,00879342
3895,5032;0,00894977
3896,4673;0,00905809
3897,4316;0,00911101
3898,3958;0,0091259
3899,3601;0,00911806
3900,3242;0,00908333
3901,2886;0,00900062
3902,2527;0,00885108
3903,2170;0,00864405
3904,1812;0,0084271
3905,1455;0,00825941
3906,1096;0,00817069
3907,0740;0,00814992
3908,0381;0,00816824
3909,0024;0,0082049
3909,9666;0,0082558
3910,9309;0,00832584
3911,8950;0,00841628
3912,8594;0,00851717
3913,8235;0,00860845
3914,7878;0,0086671
3915,7520;0,00867748
3916,7163;0,00864366
3917,6804;0,00859604
3918,6448;0,00857733
3919,6089;0,00861228
3920,5732;0,00868944
3921,5374;0,00877113
3922,5017;0,00881839
3923,4658;0,00881422
3924,4302;0,0087751
3925,3943;0,0087406
3926,3586;0,008744
3927,3228;0,00878845
3928,2871;0,00884729
3929,2512;0,00888108
3930,2156;0,00885742
3931,1797;0,00876881
3932,1440;0,00864094
3933,1082;0,00851919
3934,0725;0,00843995
3935,0366;0,00841365
3936,0010;0,00843018
3936,9651;0,008473
3937,9294;0,00852768
3938,8936;0,00858302
3939,8579;0,0086296
3940,8220;0,00866098
3941,7864;0,00867814
3942,7505;0,00869174
3943,7148;0,00871559
3944,6790;0,0087537
3945,6433;0,00879357
3946,6074;0,00881165
3947,5718;0,00878666
3948,5359;0,00871326
3949,5002;0,00860827
3950,4644;0,00850258
3951,4287;0,00842299
3952,3928;0,00837957
3953,3572;0,00836715
3954,3213;0,00837485
3955,2856;0,00839341
3956,2498;0,00841666
3957,2141;0,00843932
3958,1782;0,00845468
3959,1426;0,00845535
3960,1067;0,0084367
3961,0710;0,0084007
3962,0352;0,00835677
3962,9995;0,00831812
3963,9636;0,00829528
3964,9280;0,0082918
3965,8921;0,0083037
3966,8564;0,00832288
3967,8206;0,00834155
3968,7849;0,00835525
3969,7490;0,00836353
3970,7134;0,00836807
3971,6775;0,00836984
3972,6418;0,0083676
3973,6060;0,00835883
3974,5703;0,00834252
3975,5344;0,00832143
3976,4988;0,00830178
3977,4629;0,00828984
3978,4272;0,00828783
3979,3914;0,00829161
3980,3557;0,00829239
3981,3198;0,00828182
3982,2842;0,00825802
3983,2483;0,00822846
3984,2126;0,00820705
3985,1768;0,00820661
3986,1411;0,00823141
3987,1052;0,00827436
3988,0696;0,00832034
3989,0337;0,00835405
3989,9980;0,00836697
3990,9622;0,00836003
3991,9265;0,00834046
3992,8906;0,00831597
3993,8550;0,0082907
3994,8191;0,00826509
3995,7834;0,00823854
3996,7476;0,00821184
3997,7119;0,00818764
3998,6760;0,00816923
3999,6404;0,00815936
4000,6045;0,00832924

##### Extended Information
[Comments]
Sample name
Comment
Username
Division
Organization;UNIVERSIDAD INDUSTRIAL DE SANTANDER

[Detailed Information]
Creation date;19/02/2025 2:11 p.m.

Data array type;Linear data array
Horizontal axis;Wavenumber [cm-1]
Vertical axis;Abs
Start;399,193 cm-1
End;4000,6 cm-1
Data interval;0,964233 cm-1
Data points;3736    

[Measurement Information]
Model name;FT/IR-4X1typeA
Serial No.;A035162111

Accessory;ATR PRO 4X
Accessory S/N;A021162126
Incident angle;45 deg

Measurement date;19/02/2025 2:10 p.m.

Light source;Standard
Detector;TGS
Accumulation;40
Resolution;4 cm-1
Zero filling;On
Apodization;Cosine
Gain;Auto (8)
Aperture;Auto (7 mm)
Scan speed;Auto (2 mm/sec)
Filter;Auto (12800 Hz)

