TITLE;
DATA TYPE;INFRARED SPECTRUM
ORIGIN;JASCO
OWNER;
DATE;25/02/19
TIME;12:39:14
SPECTROMETER/DATA SYSTEM;
LOCALE;9226
RESOLUTION;
DELTAX;0,964233
XUNITS;1/CM
YUNITS;ABSORBANCE
FIRSTX;  399,1927
LASTX; 4000,6047
NPOINTS;    3736
FIRSTY;     0,10937
MAXY;     0,16174
MINY;     0,00502
XYDATA
399,1927;0,109371
400,1569;0,108523
401,1211;0,107639
402,0854;0,107112
403,0496;0,107049
404,0138;0,107373
404,9781;0,107921
405,9423;0,108512
406,9065;0,109014
407,8708;0,109388
408,8350;0,109696
409,7992;0,110051
410,7635;0,110541
411,7277;0,111156
412,6919;0,111775
413,6562;0,112242
414,6204;0,112477
415,5846;0,11254
416,5489;0,112649
417,5131;0,113121
418,4773;0,114106
419,4416;0,115259
420,4058;0,115951
421,3700;0,115924
422,3343;0,115451
423,2985;0,115011
424,2627;0,115018
425,2270;0,115651
426,1912;0,116771
427,1554;0,118006
428,1197;0,118971
429,0839;0,119468
430,0481;0,119556
431,0124;0,119478
431,9766;0,119512
432,9408;0,119837
433,9051;0,120454
434,8693;0,121213
435,8335;0,121893
436,7978;0,122305
437,7620;0,122361
438,7262;0,122092
439,6905;0,121619
440,6547;0,121117
441,6189;0,120782
442,5832;0,120776
443,5474;0,121153
444,5116;0,121814
445,4759;0,122544
446,4401;0,123116
447,4043;0,123377
448,3686;0,12329
449,3328;0,122929
450,2970;0,122448
451,2613;0,122021
452,2255;0,121759
453,1897;0,121663
454,1540;0,121622
455,1182;0,121471
456,0824;0,121086
457,0467;0,120485
458,0109;0,119861
458,9751;0,119481
459,9394;0,119494
460,9036;0,119835
461,8678;0,120311
462,8321;0,120727
463,7963;0,12096
464,7605;0,120993
465,7248;0,120885
466,6890;0,120718
467,6532;0,120538
468,6175;0,120336
469,5817;0,120079
470,5459;0,119761
471,5102;0,119431
472,4744;0,119184
473,4386;0,119099
474,4029;0,119197
475,3671;0,119434
476,3313;0,119734
477,2956;0,120018
478,2598;0,120212
479,2240;0,120269
480,1883;0,120184
481,1525;0,120011
482,1167;0,119847
483,0810;0,119782
484,0452;0,119844
485,0094;0,119975
485,9737;0,120064
486,9379;0,120033
487,9021;0,119887
488,8664;0,119713
489,8306;0,119626
490,7948;0,119708
491,7591;0,119958
492,7233;0,120296
493,6875;0,12061
494,6518;0,120824
495,6160;0,120926
496,5802;0,120952
497,5445;0,120949
498,5087;0,12095
499,4729;0,120968
500,4372;0,121003
501,4014;0,121055
502,3656;0,121126
503,3299;0,121213
504,2941;0,1213
505,2583;0,121365
506,2226;0,121394
507,1868;0,121391
508,1510;0,121385
509,1153;0,121418
510,0795;0,121524
511,0437;0,121717
512,0080;0,121986
512,9722;0,122305
513,9365;0,12265
514,9007;0,123002
515,8649;0,123348
516,8292;0,123675
517,7934;0,123965
518,7576;0,124196
519,7219;0,124357
520,6861;0,124452
521,6503;0,124504
522,6146;0,124543
523,5788;0,124595
524,5430;0,124673
525,5073;0,124765
526,4715;0,124847
527,4357;0,124885
528,4000;0,124864
529,3642;0,124783
530,3284;0,124654
531,2927;0,124491
532,2569;0,124305
533,2211;0,124107
534,1854;0,123906
535,1496;0,123707
536,1138;0,123505
537,0781;0,123287
538,0423;0,123042
539,0065;0,122775
539,9708;0,122523
540,9350;0,122344
541,8992;0,122294
542,8635;0,12239
543,8277;0,122601
544,7919;0,122856
545,7562;0,123078
546,7204;0,123225
547,6846;0,123301
548,6489;0,123342
549,6131;0,123386
550,5773;0,123456
551,5416;0,123566
552,5058;0,12373
553,4700;0,123967
554,4343;0,124285
555,3985;0,124651
556,3627;0,124995
557,3270;0,125221
558,2912;0,125251
559,2554;0,125044
560,2197;0,124602
561,1839;0,123958
562,1481;0,123163
563,1124;0,122283
564,0766;0,121398
565,0408;0,120596
566,0051;0,11995
566,9693;0,119488
567,9335;0,119186
568,8978;0,11897
569,8620;0,118759
570,8262;0,118503
571,7905;0,118203
572,7547;0,117898
573,7189;0,11764
574,6832;0,117471
575,6474;0,117404
576,6116;0,117415
577,5759;0,117461
578,5401;0,117494
579,5043;0,11748
580,4686;0,117413
581,4328;0,117307
582,3970;0,117189
583,3613;0,117088
584,3255;0,117019
585,2897;0,116989
586,2540;0,116996
587,2182;0,117037
588,1824;0,117108
589,1467;0,117202
590,1109;0,1173
591,0751;0,117372
592,0394;0,117382
593,0036;0,117305
593,9678;0,117141
594,9321;0,116918
595,8963;0,116682
596,8605;0,116477
597,8248;0,116324
598,7890;0,116216
599,7532;0,116111
600,7175;0,115963
601,6817;0,115738
602,6459;0,115439
603,6102;0,115098
604,5744;0,114754
605,5386;0,114431
606,5029;0,114124
607,4671;0,113811
608,4313;0,11347
609,3956;0,113097
610,3598;0,112706
611,3240;0,11232
612,2883;0,111942
613,2525;0,111557
614,2167;0,11113
615,1810;0,11063
616,1452;0,110049
617,1094;0,109405
618,0737;0,108741
619,0379;0,108091
620,0021;0,107469
620,9664;0,106865
621,9306;0,106264
622,8948;0,105656
623,8591;0,105048
624,8233;0,104459
625,7875;0,103898
626,7518;0,103366
627,7160;0,102854
628,6802;0,102347
629,6445;0,101832
630,6087;0,101305
631,5729;0,100767
632,5372;0,100225
633,5014;0,0996893
634,4656;0,099172
635,4299;0,0986826
636,3941;0,0982222
637,3583;0,097782
638,3226;0,0973461
639,2868;0,0968991
640,2510;0,0964333
641,2153;0,0959512
642,1795;0,0954628
643,1437;0,0949792
644,1080;0,0945078
645,0722;0,09405
646,0364;0,093603
647,0007;0,0931641
647,9649;0,0927359
648,9291;0,0923295
649,8934;0,0919614
650,8576;0,0916465
651,8218;0,0913919
652,7861;0,0911984
653,7503;0,0910683
654,7145;0,0910103
655,6788;0,0910346
656,6430;0,091139
657,6072;0,0912992
658,5715;0,0914734
659,5357;0,091622
660,4999;0,0917305
661,4642;0,0918145
662,4284;0,0918974
663,3926;0,0919733
664,3569;0,0919733
665,3211;0,0917368
666,2853;0,0910131
667,2496;0,0896137
668,2138;0,0878105
669,1780;0,086384
670,1423;0,08574
671,1065;0,085561
672,0707;0,0853993
673,0350;0,084994
673,9992;0,08425
674,9634;0,0831999
675,9277;0,0819852
676,8919;0,0807935
677,8561;0,0797633
678,8204;0,0789366
679,7846;0,078286
680,7488;0,077762
681,7131;0,0773142
682,6773;0,0768959
683,6415;0,0764729
684,6058;0,0760396
685,5700;0,0756259
686,5342;0,0752813
687,4985;0,075044
688,4627;0,074914
689,4269;0,0748542
690,3912;0,0748124
691,3554;0,0747496
692,3196;0,0746536
693,2839;0,0745358
694,2481;0,074416
695,2123;0,0743106
696,1766;0,0742261
697,1408;0,0741599
698,1050;0,0741033
699,0693;0,0740446
700,0335;0,0739708
700,9977;0,0738694
701,9620;0,07373
702,9262;0,0735461
703,8904;0,0733206
704,8547;0,0730629
705,8189;0,0727903
706,7831;0,0725213
707,7474;0,0722681
708,7116;0,0720304
709,6758;0,0717959
710,6401;0,0715467
711,6043;0,0712692
712,5685;0,070961
713,5328;0,0706288
714,4970;0,0702812
715,4612;0,0700041
716,4255;0,0695993
717,3897;0,0691515
718,3539;0,0686648
719,3182;0,0681661
720,2824;0,0676962
721,2466;0,0672857
722,2109;0,0669337
723,1751;0,0666062
724,1393;0,0662575
725,1036;0,0658555
726,0678;0,0653979
727,0320;0,0649092
727,9963;0,0644244
728,9605;0,0639688
729,9247;0,063549
730,8890;0,0631584
731,8532;0,0627896
732,8174;0,0624423
733,7817;0,062121
734,7459;0,0618273
735,7101;0,0615546
736,6744;0,0612897
737,6386;0,0610199
738,6028;0,0607392
739,5671;0,0604493
740,5313;0,0601565
741,4955;0,0598682
742,4598;0,0595902
743,4240;0,0593242
744,3882;0,0590664
745,3525;0,0588057
746,3167;0,0585265
747,2809;0,058217
748,2452;0,0578786
749,2094;0,0575302
750,1736;0,0572008
751,1379;0,0569133
752,1021;0,056669
753,0663;0,0564451
754,0306;0,0562077
754,9948;0,0559332
755,9590;0,055623
756,9233;0,0553009
757,8875;0,0549955
758,8517;0,0547204
759,8160;0,0544684
760,7802;0,0542205
761,7444;0,053964
762,7087;0,0537034
763,6729;0,0534567
764,6371;0,0532409
765,6014;0,0530589
766,5656;0,0528972
767,5298;0,0527354
768,4941;0,0525583
769,4583;0,0523621
770,4225;0,0521524
771,3868;0,051938
772,3510;0,051727
773,3152;0,0515264
774,2795;0,0513423
775,2437;0,0511771
776,2079;0,0510248
777,1722;0,0508701
778,1364;0,0506955
779,1006;0,050492
780,0649;0,050268
781,0291;0,0500456
781,9933;0,0498465
782,9576;0,0496772
783,9218;0,0495225
784,8860;0,049356
785,8503;0,0491576
786,8145;0,0489284
787,7787;0,0486906
788,7430;0,0484734
789,7072;0,0482945
790,6714;0,0481507
791,6357;0,0480228
792,5999;0,0478907
793,5641;0,0477478
794,5284;0,047604
795,4926;0,0474771
796,4568;0,0473782
797,4211;0,0473032
798,3853;0,047234
799,3495;0,0471501
800,3138;0,0470413
801,2780;0,0469142
802,2422;0,0467877
803,2065;0,0466817
804,1707;0,0466042
805,1349;0,0465473
806,0992;0,0464915
807,0634;0,0464177
808,0276;0,0463188
808,9919;0,0462036
809,9561;0,0460914
810,9203;0,0460001
811,8846;0,0459347
812,8488;0,0458842
813,8130;0,0458262
814,7773;0,0457389
815,7415;0,0456119
816,7057;0,0454515
817,6700;0,0452779
818,6342;0,0451154
819,5984;0,0449817
820,5627;0,0448814
821,5269;0,0448053
822,4911;0,0447376
823,4554;0,0446654
824,4196;0,0445854
825,3839;0,0445049
826,3481;0,0444349
827,3123;0,0443811
828,2766;0,044338
829,2408;0,0442902
830,2050;0,0442204
831,1693;0,0441192
832,1335;0,0439899
833,0977;0,0438449
834,0620;0,0436966
835,0262;0,0435494
835,9904;0,0433985
836,9547;0,0432372
837,9189;0,0430648
838,8831;0,0428904
839,8474;0,0427276
840,8116;0,0425852
841,7758;0,0424606
842,7401;0,0423426
843,7043;0,0422205
844,6685;0,0420942
845,6328;0,0419753
846,5970;0,0418801
847,5612;0,0418183
848,5255;0,0417869
849,4897;0,0417722
850,4539;0,0417588
851,4182;0,0417368
852,3824;0,0417057
853,3466;0,0416703
854,3109;0,0416369
855,2751;0,0416104
856,2393;0,0415949
857,2036;0,0415949
858,1678;0,0416153
859,1320;0,0416588
860,0963;0,0417239
861,0605;0,0418039
862,0247;0,0418897
862,9890;0,0419742
863,9532;0,0420568
864,9174;0,042146
865,8817;0,0422578
866,8459;0,0424094
867,8101;0,0426115
868,7744;0,0428622
869,7386;0,0431459
870,7028;0,0434384
871,6671;0,0437163
872,6313;0,0439631
873,5955;0,0441717
874,5598;0,0443408
875,5240;0,0444702
876,4882;0,0445591
877,4525;0,0446086
878,4167;0,0446261
879,3809;0,0446284
880,3452;0,0446403
881,3094;0,0446902
882,2736;0,0448047
883,2379;0,0450034
884,2021;0,0452953
885,1663;0,0456778
886,1306;0,0461382
887,0948;0,0466577
888,0590;0,0472183
889,0233;0,0478081
889,9875;0,048422
890,9517;0,0490562
891,9160;0,0497004
892,8802;0,050331
893,8444;0,050911
894,8087;0,0513975
895,7729;0,0517525
896,7371;0,0519526
897,7014;0,0519931
898,6656;0,0518865
899,6298;0,0516552
900,5941;0,0513248
901,5583;0,0509189
902,5225;0,0504564
903,4868;0,0499538
904,4510;0,0494279
905,4152;0,0488985
906,3795;0,0483893
907,3437;0,047924
908,3079;0,0475222
909,2722;0,0471946
910,2364;0,0469416
911,2007;0,0467553
912,1649;0,0466245
913,1292;0,0465385
914,0934;0,0464903
915,0576;0,0464761
916,0219;0,0464937
916,9861;0,046541
917,9503;0,0466154
918,9146;0,0467138
919,8788;0,0468329
920,8430;0,0469684
921,8073;0,0471146
922,7715;0,0472654
923,7357;0,0474161
924,7000;0,0475675
925,6642;0,0477263
926,6284;0,0479036
927,5927;0,0481079
928,5569;0,0483396
929,5211;0,0485894
930,4854;0,0488424
931,4496;0,0490877
932,4138;0,049324
933,3781;0,0495609
934,3423;0,0498112
935,3065;0,0500825
936,2708;0,0503739
937,2350;0,0506799
938,1992;0,0509984
939,1635;0,0513374
940,1277;0,051713
941,0919;0,0521421
942,0562;0,0526337
943,0204;0,0531862
943,9846;0,0537907
944,9489;0,0544381
945,9131;0,055124
946,8773;0,0558489
947,8416;0,0566162
948,8058;0,0574288
949,7700;0,0582898
950,7343;0,059203
951,6985;0,0601732
952,6627;0,0612041
953,6270;0,0622949
954,5912;0,0634391
955,5554;0,0646255
956,5197;0,0658416
957,4839;0,0670763
958,4481;0,0683216
959,4124;0,0695726
960,3766;0,0708269
961,3408;0,0720839
962,3051;0,0733446
963,2693;0,0746095
964,2335;0,0758774
965,1978;0,0771453
966,1620;0,0784111
967,1262;0,0796769
968,0905;0,0809522
969,0547;0,0822535
970,0189;0,0836017
970,9832;0,0850189
971,9474;0,0865266
972,9116;0,0881451
973,8759;0,0898921
974,8401;0,0917808
975,8043;0,0938158
976,7686;0,095992
977,7328;0,0982945
978,6970;0,100701
979,6613;0,103179
980,6255;0,105686
981,5897;0,108163
982,5540;0,110537
983,5182;0,112734
984,4824;0,114694
985,4467;0,116395
986,4109;0,117851
987,3751;0,119111
988,3394;0,120229
989,3036;0,12125
990,2678;0,122194
991,2321;0,12306
992,1963;0,123836
993,1605;0,124521
994,1248;0,125128
995,0890;0,125688
996,0532;0,126236
997,0175;0,126802
997,9817;0,127403
998,9459;0,128041
999,9102;0,128714
1000,8744;0,129423
1001,8386;0,130176
1002,8029;0,130987
1003,7671;0,131871
1004,7313;0,132838
1005,6956;0,133899
1006,6598;0,135066
1007,6240;0,136361
1008,5883;0,137802
1009,5525;0,139397
1010,5167;0,141128
1011,4810;0,142948
1012,4452;0,144789
1013,4094;0,146578
1014,3737;0,148264
1015,3379;0,14982
1016,3021;0,151246
1017,2664;0,152554
1018,2306;0,153754
1019,1948;0,154844
1020,1591;0,155817
1021,1233;0,156669
1022,0875;0,157409
1023,0518;0,158065
1024,0160;0,158673
1024,9802;0,159266
1025,9445;0,15986
1026,9087;0,160441
1027,8729;0,160972
1028,8372;0,1614
1029,8014;0,161669
1030,7656;0,161735
1031,7299;0,16157
1032,6941;0,161165
1033,6583;0,160525
1034,6226;0,159674
1035,5868;0,158652
1036,5510;0,157516
1037,5153;0,156339
1038,4795;0,155201
1039,4437;0,154175
1040,4080;0,153315
1041,3722;0,152643
1042,3364;0,152147
1043,3007;0,151789
1044,2649;0,151511
1045,2291;0,15125
1046,1934;0,150953
1047,1576;0,150585
1048,1218;0,150126
1049,0861;0,149568
1050,0503;0,148903
1051,0145;0,148118
1051,9788;0,1472
1052,9430;0,146141
1053,9072;0,14495
1054,8715;0,14365
1055,8357;0,142267
1056,7999;0,140808
1057,7642;0,139257
1058,7284;0,137578
1059,6926;0,135742
1060,6569;0,133745
1061,6211;0,131622
1062,5853;0,129438
1063,5496;0,127273
1064,5138;0,125192
1065,4780;0,123243
1066,4423;0,121447
1067,4065;0,11981
1068,3707;0,11832
1069,3350;0,116954
1070,2992;0,115677
1071,2634;0,114446
1072,2277;0,113223
1073,1919;0,111978
1074,1561;0,110698
1075,1204;0,10938
1076,0846;0,10803
1077,0488;0,10666
1078,0131;0,105285
1078,9773;0,103927
1079,9415;0,102615
1080,9058;0,101387
1081,8700;0,100276
1082,8342;0,0993059
1083,7985;0,098483
1084,7627;0,0977917
1085,7269;0,0972003
1086,6912;0,0966723
1087,6554;0,0961789
1088,6196;0,0957083
1089,5839;0,095267
1090,5481;0,0948723
1091,5123;0,0945413
1092,4766;0,0942811
1093,4408;0,0940851
1094,4050;0,0939372
1095,3693;0,0938193
1096,3335;0,093718
1097,2977;0,0936279
1098,2620;0,0935497
1099,2262;0,0934861
1100,1904;0,0934369
1101,1547;0,0933964
1102,1189;0,0933522
1103,0831;0,0932871
1104,0474;0,0931825
1105,0116;0,0930228
1105,9758;0,0927991
1106,9401;0,0925097
1107,9043;0,0921572
1108,8685;0,0917418
1109,8328;0,0912563
1110,7970;0,0906853
1111,7612;0,0900121
1112,7255;0,0892297
1113,6897;0,0883504
1114,6539;0,0874084
1115,6182;0,086452
1116,5824;0,0855296
1117,5466;0,0846747
1118,5109;0,0838965
1119,4751;0,083179
1120,4393;0,0824859
1121,4036;0,081769
1122,3678;0,080978
1123,3320;0,0800694
1124,2963;0,0790147
1125,2605;0,0778053
1126,2247;0,0764534
1127,1890;0,0749862
1128,1532;0,0734386
1129,1174;0,0718453
1130,0817;0,0702375
1131,0459;0,0686427
1132,0101;0,0670881
1132,9744;0,0656021
1133,9386;0,0642137
1134,9028;0,0629503
1135,8671;0,0618349
1136,8313;0,060884
1137,7955;0,0601069
1138,7598;0,0595048
1139,7240;0,0590711
1140,6882;0,0587921
1141,6525;0,0586504
1142,6167;0,0586269
1143,5809;0,0587042
1144,5452;0,0588663
1145,5094;0,0590991
1146,4736;0,0593904
1147,4379;0,0597326
1148,4021;0,0601229
1149,3663;0,0605623
1150,3306;0,0610499
1151,2948;0,0615759
1152,2590;0,0621169
1153,2233;0,0626377
1154,1875;0,0630973
1155,1517;0,0634568
1156,1160;0,0636831
1157,0802;0,0637488
1158,0444;0,063628
1159,0087;0,0632947
1159,9729;0,0627246
1160,9371;0,0618996
1161,9014;0,0608139
1162,8656;0,0594771
1163,8298;0,0579155
1164,7941;0,0561712
1165,7583;0,0542996
1166,7225;0,0523659
1167,6868;0,0504384
1168,6510;0,0485792
1169,6152;0,0468356
1170,5795;0,0452349
1171,5437;0,0437854
1172,5079;0,0424833
1173,4722;0,0413194
1174,4364;0,0402845
1175,4006;0,0393708
1176,3649;0,038571
1177,3291;0,0378771
1178,2933;0,0372806
1179,2576;0,036773
1180,2218;0,0363457
1181,1860;0,03599
1182,1503;0,0356972
1183,1145;0,0354605
1184,0787;0,035277
1185,0430;0,0351481
1186,0072;0,0350783
1186,9714;0,0350711
1187,9357;0,0351266
1188,8999;0,0352412
1189,8641;0,0354101
1190,8284;0,0356309
1191,7926;0,0359046
1192,7568;0,0362337
1193,7211;0,036619
1194,6853;0,0370562
1195,6495;0,0375366
1196,6138;0,038049
1197,5780;0,0385826
1198,5422;0,0391285
1199,5065;0,0396773
1200,4707;0,0402274
1201,4349;0,0407697
1202,3992;0,041298
1203,3634;0,0418081
1204,3276;0,0422992
1205,2919;0,0427749
1206,2561;0,0432441
1207,2203;0,0437197
1208,1846;0,044217
1209,1488;0,0447506
1210,1130;0,0453307
1211,0773;0,045961
1212,0415;0,0466385
1213,0057;0,0473554
1213,9700;0,0481021
1214,9342;0,0488697
1215,8984;0,0496504
1216,8627;0,0504368
1217,8269;0,0512209
1218,7911;0,0519947
1219,7554;0,0527513
1220,7196;0,0534858
1221,6838;0,0541948
1222,6481;0,0548754
1223,6123;0,0555231
1224,5765;0,0561327
1225,5408;0,0566997
1226,5050;0,0572225
1227,4692;0,0577036
1228,4335;0,0581478
1229,3977;0,0585598
1230,3619;0,0589407
1231,3262;0,0592871
1232,2904;0,0595924
1233,2546;0,0598499
1234,2189;0,0600568
1235,1831;0,0602165
1236,1473;0,0603385
1237,1116;0,0604345
1238,0758;0,0605142
1239,0400;0,0605801
1240,0043;0,0606259
1240,9685;0,0606394
1241,9327;0,0606073
1242,8970;0,060521
1243,8612;0,0603791
1244,8254;0,0601862
1245,7897;0,0599498
1246,7539;0,0596765
1247,7181;0,0593712
1248,6824;0,0590388
1249,6466;0,0586855
1250,6108;0,0583197
1251,5751;0,0579505
1252,5393;0,0575847
1253,5035;0,0572245
1254,4678;0,0568665
1255,4320;0,0565031
1256,3962;0,0561245
1257,3605;0,0557225
1258,3247;0,0552927
1259,2889;0,0548363
1260,2532;0,0543588
1261,2174;0,0538665
1262,1816;0,0533633
1263,1459;0,0528485
1264,1101;0,0523169
1265,0743;0,0517619
1266,0386;0,0511774
1267,0028;0,0505599
1267,9670;0,0499095
1268,9313;0,0492302
1269,8955;0,0485301
1270,8597;0,0478201
1271,8240;0,0471112
1272,7882;0,046411
1273,7524;0,0457228
1274,7167;0,0450475
1275,6809;0,044387
1276,6451;0,0437456
1277,6094;0,0431292
1278,5736;0,0425408
1279,5378;0,0419785
1280,5021;0,0414364
1281,4663;0,0409094
1282,4305;0,0403983
1283,3948;0,0399108
1284,3590;0,0394577
1285,3232;0,0390471
1286,2875;0,0386804
1287,2517;0,0383536
1288,2159;0,038061
1289,1802;0,0378005
1290,1444;0,0375747
1291,1086;0,0373901
1292,0729;0,037253
1293,0371;0,0371678
1294,0013;0,0371356
1294,9656;0,0371549
1295,9298;0,0372223
1296,8940;0,0373331
1297,8583;0,0374825
1298,8225;0,0376673
1299,7867;0,0378868
1300,7510;0,0381428
1301,7152;0,0384369
1302,6794;0,0387686
1303,6437;0,0391341
1304,6079;0,0395272
1305,5721;0,0399422
1306,5364;0,0403756
1307,5006;0,0408269
1308,4648;0,0412947
1309,4291;0,0417742
1310,3933;0,0422546
1311,3575;0,0427212
1312,3218;0,0431588
1313,2860;0,0435555
1314,2502;0,0439022
1315,2145;0,0441894
1316,1787;0,0444032
1317,1429;0,0445269
1318,1072;0,0445493
1319,0714;0,0444754
1320,0356;0,0443291
1320,9999;0,0441452
1321,9641;0,0439552
1322,9283;0,0437787
1323,8926;0,043623
1324,8568;0,0434891
1325,8210;0,0433765
1326,7853;0,0432835
1327,7495;0,0432046
1328,7137;0,0431285
1329,6780;0,0430407
1330,6422;0,0429297
1331,6064;0,0427941
1332,5707;0,0426441
1333,5349;0,0424944
1334,4991;0,042352
1335,4634;0,042206
1336,4276;0,0420243
1337,3918;0,0417638
1338,3561;0,0413964
1339,3203;0,0409369
1340,2845;0,0404463
1341,2488;0,0399975
1342,2130;0,0396359
1343,1772;0,0393685
1344,1415;0,039178
1345,1057;0,0390428
1346,0699;0,0389498
1347,0342;0,0388994
1347,9984;0,0389029
1348,9626;0,0389733
1349,9269;0,039115
1350,8911;0,0393185
1351,8553;0,0395641
1352,8196;0,039832
1353,7838;0,0401139
1354,7480;0,0404189
1355,7123;0,0407682
1356,6765;0,0411812
1357,6407;0,0416617
1358,6050;0,0421931
1359,5692;0,0427404
1360,5334;0,0432566
1361,4977;0,0436973
1362,4619;0,0440435
1363,4261;0,0443149
1364,3904;0,0445545
1365,3546;0,0447975
1366,3188;0,0450551
1367,2831;0,0453186
1368,2473;0,04557
1369,2115;0,0457904
1370,1758;0,0459612
1371,1400;0,0460597
1372,1042;0,0460565
1373,0685;0,045925
1374,0327;0,0456632
1374,9969;0,0453055
1375,9612;0,0449019
1376,9254;0,0444769
1377,8896;0,044014
1378,8539;0,0434788
1379,8181;0,0428582
1380,7823;0,0421838
1381,7466;0,0415179
1382,7108;0,0409091
1383,6750;0,0403555
1384,6393;0,0398051
1385,6035;0,0391949
1386,5677;0,0385124
1387,5320;0,0378306
1388,4962;0,0372634
1389,4604;0,0368783
1390,4247;0,0366629
1391,3889;0,036557
1392,3531;0,0364949
1393,3174;0,0364281
1394,2816;0,0363356
1395,2458;0,0362224
1396,2101;0,0361074
1397,1743;0,0360114
1398,1385;0,0359533
1399,1028;0,0359515
1400,0670;0,0360191
1401,0313;0,0361555
1401,9955;0,0363444
1402,9597;0,0365606
1403,9240;0,0367842
1404,8882;0,0370131
1405,8524;0,0372639
1406,8167;0,0375567
1407,7809;0,0378978
1408,7451;0,0382772
1409,7094;0,0386806
1410,6736;0,0391034
1411,6378;0,0395552
1412,6021;0,0400517
1413,5663;0,0405981
1414,5305;0,0411774
1415,4948;0,0417456
1416,4590;0,0422336
1417,4232;0,0425677
1418,3875;0,0427211
1419,3517;0,0427528
1420,3159;0,0427563
1421,2802;0,0427721
1422,2444;0,0427744
1423,2086;0,0427186
1424,1729;0,0425825
1425,1371;0,0423742
1426,1013;0,0421082
1427,0656;0,0417775
1428,0298;0,0413543
1428,9940;0,040827
1429,9583;0,0402405
1430,9225;0,0396849
1431,8867;0,0392279
1432,8510;0,0388563
1433,8152;0,0384758
1434,7794;0,0379622
1435,7437;0,0372553
1436,7079;0,0364529
1437,6721;0,0357672
1438,6364;0,0353408
1439,6006;0,0351631
1440,5648;0,0351488
1441,5291;0,035223
1442,4933;0,0353472
1443,4575;0,0355098
1444,4218;0,0357076
1445,3860;0,0359308
1446,3502;0,0361605
1447,3145;0,0363788
1448,2787;0,0365841
1449,2429;0,0367954
1450,2072;0,0370402
1451,1714;0,0373352
1452,1356;0,0376746
1453,0999;0,0380235
1454,0641;0,0383033
1455,0283;0,0383769
1455,9926;0,0380949
1456,9568;0,037499
1457,9210;0,0369416
1458,8853;0,0367152
1459,8495;0,0367858
1460,8137;0,0369808
1461,7780;0,03714
1462,7422;0,0371282
1463,7064;0,036846
1464,6707;0,0362964
1465,6349;0,0356219
1466,5991;0,0349985
1467,5634;0,0344924
1468,5276;0,0340413
1469,4918;0,0335101
1470,4561;0,032737
1471,4203;0,0315942
1472,3845;0,0301167
1473,3488;0,0285836
1474,3130;0,0273178
1475,2772;0,026411
1476,2415;0,0257605
1477,2057;0,0252459
1478,1699;0,0247989
1479,1342;0,0243936
1480,0984;0,0240248
1481,0626;0,0237003
1482,0269;0,0234398
1482,9911;0,0232679
1483,9553;0,0231988
1484,9196;0,0232221
1485,8838;0,0232971
1486,8480;0,0233593
1487,8123;0,0233496
1488,7765;0,0232716
1489,7407;0,023219
1490,7050;0,0232977
1491,6692;0,0235367
1492,6334;0,0239003
1493,5977;0,0243368
1494,5619;0,0247987
1495,5261;0,0252479
1496,4904;0,02567
1497,4546;0,0260923
1498,4188;0,0265666
1499,3831;0,0271177
1500,3473;0,0277272
1501,3115;0,0283599
1502,2758;0,028982
1503,2400;0,0295557
1504,2042;0,0300176
1505,1685;0,0302501
1506,1327;0,0301098
1507,0969;0,0296216
1508,0612;0,0290889
1509,0254;0,0287373
1509,9896;0,0285444
1510,9539;0,028417
1511,9181;0,0282809
1512,8823;0,0280762
1513,8466;0,0277522
1514,8108;0,0272853
1515,7750;0,0267012
1516,7393;0,0260657
1517,7035;0,0254344
1518,6677;0,0248087
1519,6320;0,0241516
1520,5962;0,0234559
1521,5604;0,0227936
1522,5247;0,0222714
1523,4889;0,0219378
1524,4531;0,0217598
1525,4174;0,0216754
1526,3816;0,0216483
1527,3458;0,0216789
1528,3101;0,0217785
1529,2743;0,0219411
1530,2385;0,0221373
1531,2028;0,0223275
1532,1670;0,022491
1533,1312;0,0226506
1534,0955;0,0228608
1535,0597;0,0231553
1536,0239;0,0235154
1536,9882;0,0238751
1537,9524;0,0241255
1538,9166;0,0241217
1539,8809;0,0237794
1540,8451;0,0232853
1541,8093;0,0229964
1542,7736;0,0229897
1543,7378;0,0231014
1544,7020;0,0232072
1545,6663;0,0232779
1546,6305;0,0233307
1547,5947;0,0233835
1548,5590;0,0234343
1549,5232;0,0234658
1550,4874;0,0234676
1551,4517;0,0234576
1552,4159;0,0234784
1553,3801;0,0235653
1554,3444;0,0237127
1555,3086;0,0238544
1556,2728;0,0238534
1557,2371;0,0235393
1558,2013;0,0229304
1559,1655;0,0224408
1560,1298;0,0223957
1561,0940;0,0226751
1562,0582;0,0230777
1563,0225;0,023509
1563,9867;0,0239365
1564,9509;0,0243404
1565,9152;0,0246986
1566,8794;0,0249954
1567,8436;0,0252448
1568,8079;0,0255031
1569,7721;0,0258352
1570,7363;0,0262602
1571,7006;0,0267439
1572,6648;0,0272332
1573,6290;0,0276801
1574,5933;0,0280526
1575,5575;0,0283555
1576,5217;0,0286475
1577,4860;0,0289988
1578,4502;0,0294263
1579,4144;0,0299016
1580,3787;0,0303904
1581,3429;0,0308674
1582,3071;0,0313189
1583,2714;0,031746
1584,2356;0,0321644
1585,1998;0,0325938
1586,1641;0,0330438
1587,1283;0,0335082
1588,0925;0,0339678
1589,0568;0,0343991
1590,0210;0,0347785
1590,9852;0,0350842
1591,9495;0,0352945
1592,9137;0,0353919
1593,8779;0,0353731
1594,8422;0,0352563
1595,8064;0,0350767
1596,7706;0,0348702
1597,7349;0,0346583
1598,6991;0,0344452
1599,6633;0,0342263
1600,6276;0,0339993
1601,5918;0,0337716
1602,5560;0,0335591
1603,5203;0,0333774
1604,4845;0,0332291
1605,4487;0,0330984
1606,4130;0,032957
1607,3772;0,0327837
1608,3414;0,0325884
1609,3057;0,0324186
1610,2699;0,0323313
1611,2341;0,0323491
1612,1984;0,0324404
1613,1626;0,0325298
1614,1268;0,0325243
1615,0911;0,0323663
1616,0553;0,0321115
1617,0195;0,0319305
1617,9838;0,0319545
1618,9480;0,0321635
1619,9122;0,0324494
1620,8765;0,0327069
1621,8407;0,03287
1622,8049;0,0329282
1623,7692;0,0329265
1624,7334;0,0329252
1625,6976;0,0329525
1626,6619;0,0330031
1627,6261;0,0330759
1628,5903;0,0331938
1629,5546;0,0333874
1630,5188;0,0336625
1631,4830;0,0339812
1632,4473;0,0342593
1633,4115;0,0343708
1634,3757;0,0341932
1635,3400;0,0337462
1636,3042;0,0332844
1637,2684;0,0330677
1638,2327;0,033117
1639,1969;0,0333195
1640,1611;0,0335846
1641,1254;0,0338689
1642,0896;0,0341424
1643,0538;0,0343498
1644,0181;0,0343903
1644,9823;0,0341549
1645,9465;0,0336612
1646,9108;0,0331567
1647,8750;0,0329271
1648,8392;0,0330271
1649,8035;0,033297
1650,7677;0,0334735
1651,7319;0,03323
1652,6962;0,0323733
1653,6604;0,0312742
1654,6246;0,0305824
1655,5889;0,0304087
1656,5531;0,0304995
1657,5173;0,0306443
1658,4816;0,0307208
1659,4458;0,0306414
1660,4100;0,0303443
1661,3743;0,0298453
1662,3385;0,0292807
1663,3027;0,0288338
1664,2670;0,0285932
1665,2312;0,0285104
1666,1954;0,0284548
1667,1597;0,0282726
1668,1239;0,0278498
1669,0881;0,0272072
1670,0524;0,0265352
1671,0166;0,0260393
1671,9808;0,025755
1672,9451;0,0255647
1673,9093;0,0253308
1674,8735;0,0250015
1675,8378;0,024647
1676,8020;0,024397
1677,7662;0,0243286
1678,7305;0,0244201
1679,6947;0,0245782
1680,6589;0,0246599
1681,6232;0,0244785
1682,5874;0,0238727
1683,5516;0,0229189
1684,5159;0,0220206
1685,4801;0,0215087
1686,4443;0,0213473
1687,4086;0,0213474
1688,3728;0,021378
1689,3370;0,0213982
1690,3013;0,0214201
1691,2655;0,0214687
1692,2297;0,0215518
1693,1940;0,0216498
1694,1582;0,0217212
1695,1224;0,0217204
1696,0867;0,0216201
1697,0509;0,0214277
1698,0151;0,02119
1698,9794;0,0209816
1699,9436;0,0208744
1700,9078;0,0209013
1701,8721;0,0210462
1702,8363;0,0212686
1703,8005;0,0215299
1704,7648;0,0218075
1705,7290;0,0220982
1706,6932;0,0224168
1707,6575;0,0227841
1708,6217;0,0232141
1709,5859;0,0237097
1710,5502;0,0242636
1711,5144;0,0248575
1712,4786;0,0254574
1713,4429;0,0260107
1714,4071;0,0264524
1715,3713;0,0267357
1716,3356;0,0268958
1717,2998;0,0270705
1718,2640;0,0273836
1719,2283;0,0278403
1720,1925;0,0283791
1721,1567;0,0289461
1722,1210;0,0295074
1723,0852;0,0300397
1724,0494;0,0305294
1725,0137;0,0309771
1725,9779;0,0313988
1726,9421;0,031816
1727,9064;0,0322399
1728,8706;0,0326579
1729,8348;0,0330215
1730,7991;0,0332419
1731,7633;0,0332097
1732,7275;0,032877
1733,6918;0,0323613
1734,6560;0,0318905
1735,6202;0,0315889
1736,5845;0,0314064
1737,5487;0,031219
1738,5129;0,0309193
1739,4772;0,0304613
1740,4414;0,0298776
1741,4056;0,0292542
1742,3699;0,028663
1743,3341;0,0281137
1744,2983;0,02757
1745,2626;0,0269888
1746,2268;0,0263322
1747,1910;0,0255577
1748,1553;0,0246222
1749,1195;0,0235306
1750,0837;0,0223868
1751,0480;0,0213496
1752,0122;0,0205158
1752,9764;0,0198704
1753,9407;0,0193317
1754,9049;0,0188165
1755,8691;0,0182822
1756,8334;0,0177359
1757,7976;0,0172064
1758,7618;0,0167025
1759,7261;0,0161976
1760,6903;0,0156623
1761,6545;0,0151116
1762,6188;0,014613
1763,5830;0,0142374
1764,5472;0,0140067
1765,5115;0,0138858
1766,4757;0,0138098
1767,4399;0,0137118
1768,4042;0,0135377
1769,3684;0,0132505
1770,3326;0,0128399
1771,2969;0,0123467
1772,2611;0,0118736
1773,2253;0,0115372
1774,1896;0,0113871
1775,1538;0,0113887
1776,1180;0,0114664
1777,0823;0,011547
1778,0465;0,0115807
1779,0107;0,0115518
1779,9750;0,0114788
1780,9392;0,011395
1781,9034;0,0113201
1782,8677;0,0112519
1783,8319;0,0111845
1784,7961;0,0111311
1785,7604;0,0111231
1786,7246;0,0111858
1787,6888;0,011312
1788,6531;0,0114526
1789,6173;0,011527
1790,5815;0,0114584
1791,5458;0,0112345
1792,5100;0,0109478
1793,4742;0,0107338
1794,4385;0,0106601
1795,4027;0,0107031
1796,3669;0,0107998
1797,3312;0,0108918
1798,2954;0,0109409
1799,2596;0,0109336
1800,2239;0,0108782
1801,1881;0,0107957
1802,1523;0,0107091
1803,1166;0,010639
1804,0808;0,0106026
1805,0450;0,0106103
1806,0093;0,0106586
1806,9735;0,0107251
1807,9377;0,0107734
1808,9020;0,0107691
1809,8662;0,0107022
1810,8304;0,0105999
1811,7947;0,0105109
1812,7589;0,0104732
1813,7231;0,0104916
1814,6874;0,0105394
1815,6516;0,0105776
1816,6158;0,0105781
1817,5801;0,0105411
1818,5443;0,010495
1819,5085;0,0104746
1820,4728;0,0104954
1821,4370;0,0105447
1822,4012;0,0105915
1823,3655;0,0106089
1824,3297;0,0105901
1825,2939;0,0105483
1826,2582;0,010497
1827,2224;0,0104339
1828,1866;0,0103452
1829,1509;0,0102315
1830,1151;0,0101256
1831,0793;0,0100755
1832,0436;0,0101038
1833,0078;0,0101898
1833,9720;0,0102847
1834,9363;0,0103405
1835,9005;0,0103386
1836,8647;0,0103062
1837,8290;0,0103024
1838,7932;0,0103759
1839,7574;0,0105288
1840,7217;0,0107127
1841,6859;0,0108487
1842,6501;0,0108628
1843,6144;0,0107325
1844,5786;0,0105142
1845,5428;0,0103015
1846,5071;0,0101524
1847,4713;0,0100666
1848,4355;0,0100183
1849,3998;0,00998803
1850,3640;0,00997301
1851,3282;0,00997921
1852,2925;0,0100082
1853,2567;0,0100505
1854,2209;0,0100908
1855,1852;0,0101193
1856,1494;0,0101371
1857,1136;0,0101523
1858,0779;0,0101701
1859,0421;0,0101879
1860,0063;0,0102
1860,9706;0,0102068
1861,9348;0,0102179
1862,8990;0,0102447
1863,8633;0,0102879
1864,8275;0,0103309
1865,7917;0,0103431
1866,7560;0,0102972
1867,7202;0,0101929
1868,6844;0,0100667
1869,6487;0,00996618
1870,6129;0,00991302
1871,5771;0,00989696
1872,5414;0,00989673
1873,5056;0,00989778
1874,4698;0,00989778
1875,4341;0,00990437
1876,3983;0,00992792
1877,3625;0,00997309
1878,3268;0,0100341
1879,2910;0,0100972
1880,2552;0,0101474
1881,2195;0,0101746
1882,1837;0,0101772
1883,1479;0,010161
1884,1122;0,0101352
1885,0764;0,0101065
1886,0406;0,0100768
1887,0049;0,010045
1887,9691;0,0100112
1888,9333;0,00998096
1889,8976;0,00996277
1890,8618;0,00996158
1891,8260;0,00997397
1892,7903;0,00998952
1893,7545;0,00999634
1894,7188;0,00998712
1895,6830;0,00996274
1896,6472;0,00993112
1897,6115;0,00990156
1898,5757;0,00987927
1899,5399;0,00986377
1900,5042;0,0098515
1901,4684;0,00983975
1902,4326;0,00982922
1903,3969;0,00982404
1904,3611;0,00982956
1905,3253;0,00984954
1906,2896;0,00988402
1907,2538;0,00992857
1908,2180;0,00997485
1909,1823;0,0100129
1910,1465;0,0100341
1911,1107;0,0100342
1912,0750;0,0100138
1913,0392;0,00997662
1914,0034;0,00992789
1914,9677;0,00987391
1915,9319;0,00982336
1916,8961;0,00978641
1917,8604;0,00976935
1918,8246;0,0097688
1919,7888;0,00977294
1920,7531;0,00976937
1921,7173;0,00975205
1922,6815;0,00972262
1923,6458;0,0096865
1924,6100;0,00964756
1925,5742;0,00960568
1926,5385;0,00955884
1927,5027;0,00950633
1928,4669;0,0094491
1929,4312;0,00938739
1930,3954;0,0093186
1931,3596;0,00923911
1932,3239;0,00915046
1933,2881;0,00906467
1934,2523;0,00900269
1935,2166;0,00898454
1936,1808;0,00901737
1937,1450;0,00909093
1938,1093;0,00918377
1939,0735;0,00927439
1940,0377;0,00934795
1941,0020;0,00939483
1941,9662;0,00940396
1942,9304;0,00935907
1943,8947;0,00924443
1944,8589;0,00905752
1945,8231;0,00881711
1946,7874;0,00856033
1947,7516;0,00833154
1948,7158;0,00816886
1949,6801;0,00809364
1950,6443;0,00810678
1951,6085;0,00819248
1952,5728;0,00832401
1953,5370;0,00846548
1954,5012;0,00857043
1955,4655;0,00858525
1956,4297;0,00846488
1957,3939;0,00819833
1958,3582;0,00783038
1959,3224;0,00746087
1960,2866;0,00721038
1961,2509;0,00716393
1962,2151;0,0073276
1963,1793;0,00762805
1964,1436;0,00795226
1965,1078;0,00819929
1966,0720;0,00831681
1967,0363;0,00830784
1968,0005;0,00820703
1968,9647;0,00804502
1969,9290;0,00782894
1970,8932;0,00755144
1971,8574;0,00721597
1972,8217;0,00685615
1973,7859;0,00653378
1974,7501;0,00631299
1975,7144;0,00622334
1976,6786;0,00623934
1977,6428;0,00629778
1978,6071;0,00634496
1979,5713;0,0063764
1980,5355;0,00643701
1981,4998;0,00658514
1982,4640;0,00684949
1983,4282;0,00720556
1984,3925;0,00758322
1985,3567;0,00790042
1986,3209;0,00810305
1987,2852;0,0081854
1988,2494;0,00817958
1989,2136;0,00812565
1990,1779;0,00804615
1991,1421;0,00794227
1992,1063;0,00781127
1993,0706;0,00766827
1994,0348;0,0075525
1994,9990;0,00751337
1995,9633;0,00758778
1996,9275;0,00778114
1997,8917;0,0080577
1998,8560;0,0083431
1999,8202;0,00854191
2000,7844;0,00856838
2001,7487;0,00838008
2002,7129;0,00800156
2003,6771;0,00752829
2004,6414;0,00710368
2005,6056;0,00686676
2006,5698;0,0068837
2007,5341;0,00710227
2008,4983;0,0073697
2009,4625;0,00751483
2010,4268;0,00744424
2011,3910;0,00719068
2012,3552;0,00688784
2013,3195;0,00669142
2014,2837;0,00669279
2015,2479;0,00687112
2016,2122;0,00711105
2017,1764;0,007278
2018,1406;0,00730107
2019,1049;0,00720325
2020,0691;0,00706233
2021,0333;0,00694501
2021,9976;0,00686941
2022,9618;0,00681659
2023,9260;0,00677034
2024,8903;0,0067461
2025,8545;0,0067825
2026,8187;0,00690341
2027,7830;0,00708503
2028,7472;0,00725907
2029,7114;0,00735226
2030,6757;0,00733465
2031,6399;0,00724328
2032,6041;0,00716527
2033,5684;0,00719068
2034,5326;0,00736337
2035,4968;0,00765769
2036,4611;0,00799099
2037,4253;0,00826046
2038,3895;0,00838511
2039,3538;0,00833659
2040,3180;0,00814955
2041,2822;0,00790658
2042,2465;0,00770247
2043,2107;0,00760653
2044,1749;0,00764461
2045,1392;0,00780634
2046,1034;0,00806372
2047,0676;0,00838301
2048,0320;0,00872464
2048,9961;0,00904102
2049,9604;0,00928412
2050,9246;0,00942286
2051,8889;0,00945891
2052,8530;0,00942998
2053,8174;0,00939671
2054,7815;0,00941667
2055,7458;0,00951609
2056,7100;0,00967625
2057,6743;0,00984443
2058,6384;0,00996319
2059,6028;0,0099996
2060,5669;0,00995757
2061,5313;0,009869
2062,4954;0,00977216
2063,4597;0,00969136
2064,4238;0,00962962
2065,3882;0,00957634
2066,3523;0,00952261
2067,3167;0,00947256
2068,2808;0,00944379
2069,2451;0,00945837
2070,2092;0,009531
2071,1736;0,00966077
2072,1377;0,00983015
2073,1021;0,0100107
2074,0662;0,0101731
2075,0305;0,0102971
2075,9946;0,0103771
2076,9590;0,0104212
2077,9231;0,0104446
2078,8875;0,0104609
2079,8516;0,0104763
2080,8159;0,0104896
2081,7800;0,0104967
2082,7444;0,0104956
2083,7085;0,0104869
2084,6729;0,0104707
2085,6370;0,0104438
2086,6013;0,0104017
2087,5654;0,0103461
2088,5298;0,0102913
2089,4939;0,0102623
2090,4583;0,0102824
2091,4224;0,0103571
2092,3867;0,0104659
2093,3508;0,0105704
2094,3152;0,0106354
2095,2793;0,0106499
2096,2437;0,0106327
2097,2078;0,0106157
2098,1721;0,0106178
2099,1362;0,0106298
2100,1006;0,010623
2101,0647;0,0105758
2102,0291;0,0104942
2102,9932;0,010415
2103,9575;0,0103842
2104,9216;0,010428
2105,8860;0,0105363
2106,8501;0,0106696
2107,8145;0,0107828
2108,7786;0,0108484
2109,7429;0,0108639
2110,7070;0,010843
2111,6714;0,0108011
2112,6355;0,0107491
2113,5999;0,0106957
2114,5640;0,0106531
2115,5283;0,0106357
2116,4924;0,0106522
2117,4568;0,0106973
2118,4209;0,0107528
2119,3853;0,0107987
2120,3494;0,0108254
2121,3137;0,0108382
2122,2778;0,0108503
2123,2422;0,0108698
2124,2063;0,0108926
2125,1707;0,0109058
2126,1348;0,0108982
2127,0991;0,0108677
2128,0632;0,0108207
2129,0276;0,010764
2129,9917;0,0106995
2130,9561;0,0106247
2131,9202;0,0105396
2132,8845;0,0104521
2133,8486;0,0103749
2134,8130;0,0103173
2135,7771;0,0102783
2136,7415;0,0102489
2137,7056;0,0102208
2138,6699;0,010193
2139,6340;0,0101694
2140,5984;0,0101506
2141,5625;0,0101298
2142,5269;0,0100987
2143,4910;0,0100596
2144,4553;0,0100337
2145,4194;0,0100536
2146,3838;0,0101437
2147,3479;0,0102997
2148,3123;0,010482
2149,2764;0,0106317
2150,2407;0,0106975
2151,2048;0,0106598
2152,1692;0,0105362
2153,1333;0,0103655
2154,0977;0,0101816
2155,0618;0,00999192
2156,0261;0,00977427
2156,9902;0,00949901
2157,9546;0,00916716
2158,9187;0,00883637
2159,8831;0,00860318
2160,8472;0,00854996
2161,8115;0,00870297
2162,7756;0,00902874
2163,7400;0,00945499
2164,7041;0,00989484
2165,6685;0,0102661
2166,6326;0,0105054
2167,5969;0,0105784
2168,5610;0,0104835
2169,5254;0,0102508
2170,4895;0,00993728
2171,4539;0,00961583
2172,4180;0,00935961
2173,3823;0,00922232
2174,3464;0,0092216
2175,3108;0,00933468
2176,2749;0,00951065
2177,2393;0,00969368
2178,2034;0,00984334
2179,1677;0,00994027
2180,1318;0,00997683
2181,0962;0,00994344
2182,0603;0,00982526
2183,0247;0,00961661
2183,9888;0,00934397
2184,9531;0,00907675
2185,9172;0,00890987
2186,8816;0,00892248
2187,8457;0,00913513
2188,8101;0,00949219
2189,7742;0,00988291
2190,7385;0,010191
2191,7026;0,0103447
2192,6670;0,0103393
2193,6311;0,0102244
2194,5955;0,0100693
2195,5596;0,00993004
2196,5239;0,00983554
2197,4880;0,00979257
2198,4524;0,00979859
2199,4165;0,0098502
2200,3809;0,0099434
2201,3450;0,0100692
2202,3093;0,0102109
2203,2734;0,010345
2204,2378;0,0104471
2205,2019;0,0104994
2206,1663;0,010498
2207,1304;0,0104561
2208,0947;0,0103993
2209,0588;0,0103532
2210,0232;0,0103298
2210,9873;0,0103209
2211,9517;0,0103069
2212,9158;0,0102735
2213,8801;0,0102245
2214,8442;0,0101809
2215,8086;0,0101657
2216,7727;0,0101882
2217,7371;0,0102408
2218,7012;0,01031
2219,6655;0,0103896
2220,6296;0,0104833
2221,5940;0,0105934
2222,5581;0,0107075
2223,5225;0,0107973
2224,4866;0,0108335
2225,4509;0,0108056
2226,4150;0,0107309
2227,3794;0,0106447
2228,3435;0,0105788
2229,3079;0,0105454
2230,2720;0,0105372
2231,2363;0,0105406
2232,2004;0,01055
2233,1648;0,0105724
2234,1289;0,0106183
2235,0933;0,0106887
2236,0574;0,0107676
2237,0217;0,0108264
2237,9858;0,0108395
2238,9502;0,0108006
2239,9143;0,0107312
2240,8787;0,0106721
2241,8428;0,010663
2242,8071;0,0107194
2243,7712;0,0108223
2244,7356;0,0109281
2245,6997;0,0109948
2246,6641;0,0110055
2247,6282;0,0109754
2248,5925;0,0109381
2249,5566;0,0109221
2250,5210;0,0109358
2251,4851;0,0109691
2252,4495;0,0110064
2253,4136;0,0110373
2254,3779;0,0110562
2255,3420;0,0110557
2256,3064;0,0110238
2257,2705;0,0109526
2258,2349;0,0108513
2259,1990;0,0107503
2260,1633;0,0106887
2261,1274;0,010692
2262,0918;0,0107553
2263,0559;0,0108453
2264,0203;0,0109201
2264,9844;0,0109538
2265,9487;0,0109478
2266,9128;0,0109237
2267,8772;0,0109052
2268,8413;0,0109016
2269,8057;0,0109057
2270,7698;0,0109019
2271,7341;0,0108795
2272,6982;0,01084
2273,6626;0,0107973
2274,6267;0,0107711
2275,5911;0,0107793
2276,5552;0,0108308
2277,5195;0,0109224
2278,4836;0,0110388
2279,4480;0,0111576
2280,4121;0,0112568
2281,3765;0,0113224
2282,3406;0,0113536
2283,3049;0,0113605
2284,2690;0,0113582
2285,2334;0,0113592
2286,1975;0,0113685
2287,1619;0,0113847
2288,1260;0,0114038
2289,0903;0,0114238
2290,0544;0,0114466
2291,0188;0,0114767
2291,9829;0,0115195
2292,9473;0,0115799
2293,9114;0,0116629
2294,8757;0,0117722
2295,8398;0,0119078
2296,8042;0,0120627
2297,7683;0,0122223
2298,7327;0,0123706
2299,6968;0,0124984
2300,6611;0,0126097
2301,6252;0,0127205
2302,5896;0,0128481
2303,5537;0,0129999
2304,5181;0,0131687
2305,4822;0,0133385
2306,4465;0,013497
2307,4106;0,0136463
2308,3750;0,0138016
2309,3391;0,0139792
2310,3035;0,0141821
2311,2676;0,0143928
2312,2319;0,0145812
2313,1960;0,014723
2314,1604;0,0148144
2315,1245;0,0148752
2316,0889;0,0149369
2317,0530;0,0150255
2318,0173;0,0151456
2318,9814;0,0152736
2319,9458;0,0153633
2320,9099;0,0153633
2321,8743;0,015241
2322,8384;0,0150027
2323,8027;0,0146965
2324,7668;0,0143951
2325,7312;0,014167
2326,6953;0,0140488
2327,6597;0,01403
2328,6238;0,0140549
2329,5881;0,0140437
2330,5522;0,0139287
2331,5166;0,0136873
2332,4807;0,013351
2333,4451;0,0129833
2334,4092;0,0126438
2335,3735;0,0123624
2336,3376;0,0121383
2337,3020;0,0119583
2338,2661;0,011816
2339,2305;0,0117172
2340,1946;0,0116731
2341,1589;0,0116988
2342,1230;0,0118189
2343,0874;0,0120495
2344,0515;0,0123385
2345,0159;0,0125611
2345,9800;0,0126376
2346,9443;0,0126272
2347,9084;0,0126726
2348,8728;0,0128824
2349,8369;0,0132557
2350,8013;0,0136771
2351,7654;0,013975
2352,7297;0,0140311
2353,6938;0,0138686
2354,6582;0,013613
2355,6223;0,0133472
2356,5867;0,0130503
2357,5508;0,0126855
2358,5151;0,0122977
2359,4792;0,0119994
2360,4436;0,0118727
2361,4077;0,011908
2362,3721;0,0120362
2363,3362;0,012198
2364,3005;0,0123782
2365,2646;0,0125926
2366,2290;0,0128586
2367,1931;0,0131767
2368,1575;0,0135284
2369,1216;0,0138821
2370,0859;0,0142024
2371,0500;0,0144602
2372,0144;0,0146389
2372,9785;0,0147347
2373,9429;0,0147511
2374,9070;0,0146936
2375,8713;0,0145668
2376,8354;0,0143761
2377,7998;0,0141309
2378,7639;0,0138471
2379,7283;0,013547
2380,6924;0,0132552
2381,6567;0,0129941
2382,6208;0,0127788
2383,5852;0,0126151
2384,5493;0,0124998
2385,5137;0,0124226
2386,4778;0,0123702
2387,4421;0,0123297
2388,4063;0,0122924
2389,3706;0,012256
2390,3347;0,0122245
2391,2991;0,0122054
2392,2632;0,0122042
2393,2275;0,0122197
2394,1917;0,0122431
2395,1560;0,012263
2396,1201;0,0122714
2397,0845;0,0122695
2398,0486;0,0122654
2399,0129;0,0122697
2399,9771;0,0122878
2400,9414;0,0123163
2401,9055;0,0123466
2402,8699;0,0123694
2403,8340;0,0123804
2404,7983;0,0123811
2405,7625;0,0123762
2406,7268;0,0123708
2407,6909;0,0123684
2408,6553;0,0123707
2409,6194;0,0123772
2410,5837;0,0123855
2411,5479;0,012392
2412,5122;0,0123938
2413,4763;0,0123921
2414,4407;0,0123926
2415,4048;0,0124037
2416,3691;0,0124306
2417,3333;0,0124706
2418,2976;0,0125123
2419,2617;0,012541
2420,2261;0,0125461
2421,1902;0,012528
2422,1545;0,0124987
2423,1187;0,012477
2424,0830;0,0124792
2425,0471;0,0125121
2426,0115;0,0125691
2426,9756;0,0126338
2427,9399;0,012687
2428,9041;0,0127161
2429,8684;0,0127197
2430,8325;0,0127069
2431,7969;0,0126906
2432,7610;0,0126804
2433,7253;0,0126785
2434,6895;0,0126816
2435,6538;0,0126856
2436,6179;0,0126905
2437,5823;0,0127004
2438,5464;0,0127194
2439,5107;0,0127475
2440,4749;0,0127788
2441,4392;0,0128048
2442,4033;0,012819
2443,3677;0,0128206
2444,3318;0,0128144
2445,2961;0,0128068
2446,2603;0,0128024
2447,2246;0,0128015
2448,1887;0,0128016
2449,1531;0,0127998
2450,1172;0,0127966
2451,0815;0,0127961
2452,0457;0,012804
2453,0100;0,0128243
2453,9741;0,0128549
2454,9385;0,0128881
2455,9026;0,0129131
2456,8669;0,0129217
2457,8311;0,0129122
2458,7954;0,0128901
2459,7595;0,012865
2460,7239;0,0128468
2461,6880;0,0128428
2462,6523;0,0128579
2463,6165;0,0128938
2464,5808;0,0129482
2465,5449;0,0130127
2466,5093;0,0130732
2467,4734;0,0131136
2468,4377;0,0131228
2469,4019;0,0131008
2470,3662;0,0130581
2471,3303;0,0130107
2472,2947;0,0129714
2473,2588;0,0129459
2474,2231;0,0129339
2475,1873;0,0129336
2476,1516;0,0129445
2477,1157;0,0129673
2478,0801;0,0130002
2479,0442;0,0130382
2480,0085;0,0130745
2480,9727;0,0131042
2481,9370;0,013127
2482,9011;0,0131448
2483,8655;0,0131581
2484,8296;0,0131641
2485,7939;0,0131582
2486,7581;0,0131387
2487,7224;0,0131092
2488,6865;0,0130787
2489,6509;0,0130574
2490,6150;0,0130522
2491,5793;0,0130638
2492,5435;0,0130869
2493,5078;0,013113
2494,4719;0,0131333
2495,4363;0,0131419
2496,4004;0,0131385
2497,3647;0,0131281
2498,3289;0,0131181
2499,2932;0,0131144
2500,2573;0,0131177
2501,2217;0,0131232
2502,1858;0,0131253
2503,1501;0,0131216
2504,1143;0,0131155
2505,0786;0,0131137
2506,0427;0,0131217
2507,0071;0,0131399
2507,9712;0,0131645
2508,9355;0,0131906
2509,8997;0,013216
2510,8640;0,0132413
2511,8281;0,0132669
2512,7925;0,0132906
2513,7566;0,0133062
2514,7209;0,0133071
2515,6851;0,0132902
2516,6494;0,0132599
2517,6135;0,0132276
2518,5779;0,0132079
2519,5420;0,0132124
2520,5063;0,0132437
2521,4705;0,0132927
2522,4348;0,0133418
2523,3989;0,013372
2524,3633;0,0133718
2525,3274;0,0133426
2526,2917;0,0132983
2527,2559;0,0132585
2528,2202;0,0132397
2529,1843;0,0132486
2530,1487;0,0132804
2531,1128;0,0133225
2532,0771;0,0133613
2533,0413;0,0133871
2534,0056;0,0133977
2534,9697;0,0133972
2535,9341;0,0133932
2536,8982;0,0133925
2537,8625;0,0133978
2538,8267;0,0134074
2539,7910;0,0134175
2540,7551;0,0134257
2541,7195;0,0134324
2542,6836;0,0134399
2543,6479;0,0134491
2544,6121;0,0134564
2545,5764;0,0134552
2546,5405;0,0134398
2547,5049;0,0134102
2548,4690;0,0133738
2549,4333;0,0133423
2550,3975;0,013326
2551,3618;0,0133288
2552,3259;0,0133473
2553,2903;0,013374
2554,2544;0,0134018
2555,2188;0,0134275
2556,1829;0,0134518
2557,1472;0,0134766
2558,1113;0,0135024
2559,0757;0,013526
2560,0398;0,0135415
2561,0042;0,013543
2561,9683;0,0135277
2562,9326;0,013498
2563,8967;0,0134611
2564,8611;0,0134268
2565,8252;0,0134033
2566,7896;0,0133951
2567,7537;0,013402
2568,7180;0,0134199
2569,6821;0,0134426
2570,6465;0,0134628
2571,6106;0,013473
2572,5750;0,0134679
2573,5391;0,0134463
2574,5034;0,0134134
2575,4675;0,0133791
2576,4319;0,013355
2577,3960;0,0133483
2578,3604;0,0133595
2579,3245;0,0133829
2580,2888;0,0134116
2581,2529;0,0134412
2582,2173;0,0134715
2583,1814;0,0135044
2584,1458;0,0135396
2585,1099;0,0135737
2586,0742;0,0136009
2587,0383;0,013617
2588,0027;0,0136213
2588,9668;0,0136171
2589,9312;0,01361
2590,8953;0,0136052
2591,8596;0,0136065
2592,8237;0,0136153
2593,7881;0,0136304
2594,7522;0,0136489
2595,7166;0,013667
2596,6807;0,013682
2597,6450;0,013694
2598,6091;0,013706
2599,5735;0,013721
2600,5376;0,0137395
2601,5020;0,0137582
2602,4661;0,0137721
2603,4304;0,0137776
2604,3945;0,0137761
2605,3589;0,0137733
2606,3230;0,0137761
2607,2874;0,0137878
2608,2515;0,0138067
2609,2158;0,0138268
2610,1799;0,0138417
2611,1443;0,0138482
2612,1084;0,0138477
2613,0728;0,0138453
2614,0369;0,0138469
2615,0012;0,0138569
2615,9653;0,0138762
2616,9297;0,0139023
2617,8938;0,0139308
2618,8582;0,0139571
2619,8223;0,0139784
2620,7866;0,0139941
2621,7507;0,0140056
2622,7151;0,0140147
2623,6792;0,0140229
2624,6436;0,0140319
2625,6077;0,0140435
2626,5720;0,0140605
2627,5361;0,0140842
2628,5005;0,014114
2629,4646;0,0141453
2630,4290;0,0141718
2631,3931;0,0141877
2632,3574;0,0141909
2633,3215;0,0141839
2634,2859;0,0141728
2635,2500;0,0141645
2636,2144;0,0141641
2637,1785;0,0141735
2638,1428;0,0141919
2639,1069;0,0142167
2640,0713;0,0142447
2641,0354;0,0142732
2641,9998;0,0142995
2642,9639;0,0143218
2643,9282;0,0143391
2644,8923;0,0143515
2645,8567;0,0143608
2646,8208;0,0143703
2647,7852;0,0143837
2648,7493;0,014404
2649,7136;0,0144313
2650,6777;0,0144631
2651,6421;0,014495
2652,6062;0,014523
2653,5706;0,0145455
2654,5347;0,0145634
2655,4990;0,0145788
2656,4631;0,0145937
2657,4275;0,0146091
2658,3916;0,0146252
2659,3560;0,014643
2660,3201;0,014664
2661,2844;0,0146892
2662,2485;0,014718
2663,2129;0,0147471
2664,1770;0,0147721
2665,1414;0,0147897
2666,1055;0,0147992
2667,0698;0,0148022
2668,0339;0,0148014
2668,9983;0,0147992
2669,9624;0,0147972
2670,9268;0,0147976
2671,8909;0,0148038
2672,8552;0,0148193
2673,8193;0,0148453
2674,7837;0,014879
2675,7478;0,0149137
2676,7122;0,0149421
2677,6763;0,0149599
2678,6406;0,0149687
2679,6047;0,0149749
2680,5691;0,0149855
2681,5332;0,0150044
2682,4976;0,0150299
2683,4617;0,0150568
2684,4260;0,0150792
2685,3901;0,0150942
2686,3545;0,015103
2687,3186;0,0151097
2688,2830;0,0151185
2689,2471;0,0151318
2690,2114;0,0151491
2691,1755;0,0151686
2692,1399;0,0151881
2693,1040;0,0152061
2694,0684;0,0152225
2695,0325;0,0152373
2695,9968;0,0152509
2696,9609;0,0152637
2697,9253;0,0152769
2698,8894;0,0152929
2699,8538;0,0153142
2700,8179;0,0153423
2701,7822;0,0153763
2702,7463;0,0154126
2703,7107;0,0154467
2704,6748;0,0154749
2705,6392;0,0154966
2706,6033;0,0155145
2707,5676;0,0155325
2708,5317;0,0155536
2709,4961;0,0155781
2710,4602;0,0156037
2711,4246;0,015627
2712,3887;0,0156461
2713,3530;0,0156616
2714,3171;0,0156757
2715,2815;0,015691
2716,2456;0,0157086
2717,2100;0,0157275
2718,1741;0,0157463
2719,1384;0,0157642
2720,1025;0,0157822
2721,0669;0,015802
2722,0310;0,0158246
2722,9954;0,0158496
2723,9595;0,0158744
2724,9238;0,0158963
2725,8879;0,0159142
2726,8523;0,0159293
2727,8164;0,015945
2728,7808;0,0159647
2729,7449;0,0159898
2730,7092;0,016018
2731,6733;0,0160446
2732,6377;0,0160642
2733,6018;0,0160738
2734,5662;0,0160745
2735,5303;0,0160714
2736,4946;0,0160713
2737,4587;0,0160795
2738,4231;0,0160981
2739,3872;0,0161249
2740,3516;0,0161557
2741,3157;0,0161854
2742,2800;0,01621
2743,2441;0,0162264
2744,2085;0,016233
2745,1726;0,0162302
2746,1370;0,0162213
2747,1011;0,0162127
2748,0654;0,0162122
2749,0295;0,0162263
2749,9939;0,0162569
2750,9580;0,0163004
2751,9224;0,0163487
2752,8865;0,0163931
2753,8508;0,0164275
2754,8149;0,01645
2755,7793;0,0164622
2756,7434;0,0164685
2757,7078;0,0164732
2758,6719;0,0164803
2759,6362;0,0164928
2760,6003;0,0165122
2761,5647;0,0165383
2762,5288;0,0165688
2763,4932;0,0166004
2764,4573;0,0166295
2765,4216;0,0166544
2766,3857;0,0166758
2767,3501;0,0166966
2768,3142;0,0167201
2769,2786;0,0167478
2770,2427;0,0167779
2771,2070;0,0168061
2772,1711;0,0168277
2773,1355;0,0168406
2774,0996;0,0168473
2775,0640;0,0168542
2776,0281;0,0168691
2776,9924;0,0168973
2777,9565;0,0169394
2778,9209;0,0169912
2779,8850;0,0170463
2780,8494;0,017099
2781,8135;0,0171467
2782,7778;0,0171897
2783,7419;0,0172289
2784,7063;0,0172649
2785,6704;0,0172963
2786,6348;0,0173214
2787,5989;0,0173401
2788,5632;0,0173552
2789,5273;0,0173725
2790,4917;0,0173984
2791,4558;0,0174375
2792,4202;0,0174903
2793,3843;0,0175531
2794,3486;0,0176191
2795,3127;0,0176814
2796,2771;0,0177359
2797,2412;0,0177819
2798,2056;0,0178228
2799,1697;0,017864
2800,1340;0,0179109
2801,0981;0,0179672
2802,0625;0,0180344
2803,0266;0,018111
2803,9910;0,0181932
2804,9551;0,0182751
2805,9194;0,0183506
2806,8835;0,0184151
2807,8479;0,0184678
2808,8120;0,0185132
2809,7764;0,0185594
2810,7405;0,0186146
2811,7048;0,0186835
2812,6689;0,0187647
2813,6333;0,0188522
2814,5974;0,0189392
2815,5618;0,0190219
2816,5259;0,0191013
2817,4902;0,0191825
2818,4543;0,0192708
2819,4187;0,0193692
2820,3828;0,0194764
2821,3472;0,0195888
2822,3113;0,0197019
2823,2756;0,0198139
2824,2397;0,0199261
2825,2041;0,0200429
2826,1682;0,0201694
2827,1326;0,0203091
2828,0967;0,0204617
2829,0610;0,0206239
2830,0251;0,0207917
2830,9895;0,0209644
2831,9536;0,0211451
2832,9180;0,0213398
2833,8821;0,0215526
2834,8464;0,021783
2835,8105;0,0220252
2836,7749;0,0222733
2837,7390;0,0225267
2838,7034;0,0227939
2839,6675;0,0230912
2840,6318;0,0234369
2841,5959;0,0238447
2842,5603;0,0243191
2843,5244;0,024853
2844,4888;0,0254282
2845,4529;0,0260148
2846,4172;0,0265738
2847,3813;0,0270615
2848,3457;0,0274378
2849,3098;0,0276766
2850,2742;0,0277729
2851,2383;0,0277431
2852,2026;0,027619
2853,1667;0,0274371
2854,1311;0,0272302
2855,0952;0,027022
2856,0596;0,0268268
2857,0237;0,0266521
2857,9880;0,0265019
2858,9521;0,0263788
2859,9165;0,0262858
2860,8806;0,0262262
2861,8450;0,0262022
2862,8091;0,026213
2863,7734;0,026254
2864,7375;0,0263177
2865,7019;0,0263962
2866,6660;0,0264836
2867,6304;0,0265759
2868,5945;0,0266695
2869,5588;0,0267588
2870,5229;0,0268369
2871,4873;0,0268979
2872,4514;0,0269408
2873,4158;0,0269697
2874,3799;0,0269921
2875,3442;0,0270142
2876,3083;0,0270388
2877,2727;0,027066
2878,2368;0,0270961
2879,2012;0,0271316
2880,1653;0,027176
2881,1296;0,0272309
2882,0938;0,0272943
2883,0581;0,0273611
2884,0222;0,0274271
2884,9866;0,0274919
2885,9507;0,0275595
2886,9150;0,0276353
2887,8792;0,0277224
2888,8435;0,0278201
2889,8076;0,0279235
2890,7720;0,0280267
2891,7361;0,0281246
2892,7004;0,0282148
2893,6646;0,0282987
2894,6289;0,028381
2895,5930;0,0284687
2896,5574;0,0285684
2897,5215;0,0286825
2898,4858;0,0288077
2899,4500;0,0289361
2900,4143;0,0290596
2901,3784;0,0291749
2902,3428;0,0292862
2903,3069;0,0294026
2904,2712;0,0295341
2905,2354;0,0296873
2906,1997;0,029866
2907,1638;0,0300741
2908,1282;0,0303199
2909,0923;0,0306149
2910,0566;0,0309688
2911,0208;0,031381
2911,9851;0,0318359
2912,9492;0,0323024
2913,9136;0,0327418
2914,8777;0,033117
2915,8420;0,0334003
2916,8062;0,0335779
2917,7705;0,0336481
2918,7346;0,0336181
2919,6990;0,0335008
2920,6631;0,0333121
2921,6274;0,0330693
2922,5916;0,0327899
2923,5559;0,0324895
2924,5200;0,0321803
2925,4844;0,0318705
2926,4485;0,0315641
2927,4128;0,0312622
2928,3770;0,0309642
2929,3413;0,030669
2930,3054;0,0303753
2931,2698;0,0300826
2932,2339;0,0297914
2933,1982;0,0295036
2934,1624;0,0292219
2935,1267;0,0289497
2936,0908;0,0286896
2937,0552;0,028442
2938,0193;0,0282045
2938,9836;0,027972
2939,9478;0,0277388
2940,9121;0,0275014
2941,8762;0,0272602
2942,8406;0,0270204
2943,8047;0,0267899
2944,7690;0,0265765
2945,7332;0,0263844
2946,6975;0,0262145
2947,6616;0,0260646
2948,6260;0,0259316
2949,5901;0,0258124
2950,5544;0,0257039
2951,5186;0,0256016
2952,4829;0,0255002
2953,4470;0,025394
2954,4114;0,0252797
2955,3755;0,0251565
2956,3398;0,0250259
2957,3040;0,0248897
2958,2683;0,0247475
2959,2324;0,0245965
2960,1968;0,0244332
2961,1609;0,0242551
2962,1252;0,0240635
2963,0894;0,0238636
2964,0537;0,0236636
2965,0178;0,0234718
2965,9822;0,0232939
2966,9463;0,0231301
2967,9106;0,0229748
2968,8748;0,0228185
2969,8391;0,0226527
2970,8032;0,0224743
2971,7676;0,0222879
2972,7317;0,0221042
2973,6960;0,0219345
2974,6602;0,0217856
2975,6245;0,0216566
2976,5886;0,0215406
2977,5530;0,0214294
2978,5171;0,0213183
2979,4814;0,0212074
2980,4456;0,0210997
2981,4099;0,0209976
2982,3740;0,0209007
2983,3384;0,0208072
2984,3025;0,0207165
2985,2668;0,0206316
2986,2310;0,0205576
2987,1953;0,0204985
2988,1594;0,0204534
2989,1238;0,0204168
2990,0879;0,0203819
2991,0522;0,0203453
2992,0164;0,0203093
2992,9807;0,0202793
2993,9448;0,0202598
2994,9092;0,0202503
2995,8733;0,0202455
2996,8376;0,0202403
2997,8018;0,0202332
2998,7661;0,0202278
2999,7302;0,0202294
3000,6946;0,0202404
3001,6587;0,020258
3002,6230;0,0202762
3003,5872;0,0202895
3004,5515;0,0202965
3005,5156;0,0203001
3006,4800;0,0203043
3007,4441;0,0203108
3008,4084;0,0203179
3009,3726;0,0203223
3010,3369;0,0203214
3011,3010;0,0203151
3012,2654;0,0203056
3013,2295;0,0202954
3014,1938;0,0202877
3015,1580;0,0202861
3016,1223;0,0202962
3017,0864;0,020324
3018,0508;0,0203729
3019,0149;0,0204399
3019,9792;0,0205149
3020,9434;0,0205838
3021,9077;0,0206347
3022,8718;0,0206644
3023,8362;0,0206802
3024,8003;0,0206956
3025,7646;0,0207234
3026,7288;0,0207691
3027,6931;0,0208288
3028,6572;0,0208928
3029,6216;0,0209504
3030,5857;0,0209946
3031,5500;0,0210239
3032,5142;0,0210417
3033,4785;0,0210553
3034,4426;0,0210737
3035,4070;0,0211057
3036,3711;0,0211563
3037,3354;0,0212241
3038,2996;0,0213008
3039,2639;0,0213749
3040,2280;0,0214377
3041,1924;0,0214881
3042,1565;0,0215332
3043,1208;0,0215834
3044,0850;0,0216455
3045,0493;0,0217183
3046,0134;0,021794
3046,9778;0,0218638
3047,9419;0,0219241
3048,9063;0,0219788
3049,8704;0,0220366
3050,8347;0,0221056
3051,7988;0,0221879
3052,7632;0,0222782
3053,7273;0,0223661
3054,6917;0,0224417
3055,6558;0,0225008
3056,6201;0,022548
3057,5842;0,022595
3058,5486;0,0226552
3059,5127;0,0227364
3060,4771;0,0228365
3061,4412;0,0229441
3062,4055;0,0230435
3063,3696;0,0231227
3064,3340;0,0231787
3065,2981;0,0232186
3066,2625;0,0232556
3067,2266;0,023302
3068,1909;0,0233643
3069,1550;0,0234427
3070,1194;0,0235325
3071,0835;0,023628
3072,0479;0,0237236
3073,0120;0,0238142
3073,9763;0,0238962
3074,9404;0,0239674
3075,9048;0,024028
3076,8689;0,024081
3077,8333;0,0241312
3078,7974;0,0241833
3079,7617;0,0242407
3080,7258;0,0243043
3081,6902;0,0243731
3082,6543;0,0244451
3083,6187;0,0245175
3084,5828;0,0245877
3085,5471;0,0246547
3086,5112;0,0247197
3087,4756;0,0247858
3088,4397;0,0248563
3089,4041;0,0249316
3090,3682;0,0250086
3091,3325;0,0250831
3092,2966;0,0251532
3093,2610;0,0252225
3094,2251;0,0252986
3095,1895;0,0253867
3096,1536;0,0254841
3097,1179;0,0255788
3098,0820;0,0256556
3099,0464;0,0257062
3100,0105;0,0257364
3100,9749;0,025765
3101,9390;0,0258141
3102,9033;0,0258958
3103,8674;0,0260053
3104,8318;0,0261246
3105,7959;0,0262333
3106,7603;0,026321
3107,7244;0,026392
3108,6887;0,0264613
3109,6528;0,0265439
3110,6172;0,0266454
3111,5813;0,0267594
3112,5457;0,0268726
3113,5098;0,0269735
3114,4741;0,027059
3115,4382;0,0271339
3116,4026;0,0272064
3117,3667;0,0272819
3118,3311;0,0273605
3119,2952;0,0274393
3120,2595;0,0275161
3121,2236;0,0275924
3122,1880;0,0276721
3123,1521;0,027759
3124,1165;0,0278548
3125,0806;0,0279585
3126,0449;0,0280678
3127,0090;0,0281795
3127,9734;0,0282898
3128,9375;0,0283941
3129,9019;0,0284882
3130,8660;0,0285706
3131,8303;0,0286444
3132,7944;0,0287179
3133,7588;0,0288006
3134,7229;0,0288992
3135,6873;0,0290144
3136,6514;0,0291407
3137,6157;0,0292695
3138,5798;0,0293924
3139,5442;0,0295039
3140,5083;0,029603
3141,4727;0,0296922
3142,4368;0,0297765
3143,4011;0,0298619
3144,3652;0,0299529
3145,3296;0,0300519
3146,2937;0,0301582
3147,2581;0,0302692
3148,2222;0,0303817
3149,1865;0,0304929
3150,1506;0,0306009
3151,1150;0,0307046
3152,0791;0,0308041
3153,0435;0,0309007
3154,0076;0,0309973
3154,9719;0,031097
3155,9360;0,0312018
3156,9004;0,031311
3157,8645;0,0314213
3158,8289;0,0315288
3159,7930;0,0316315
3160,7573;0,0317308
3161,7214;0,0318309
3162,6858;0,0319356
3163,6499;0,0320458
3164,6143;0,0321582
3165,5784;0,0322672
3166,5427;0,0323692
3167,5068;0,0324657
3168,4712;0,0325642
3169,4353;0,0326654
3170,3997;0,0327956
3171,3638;0,0329449
3172,3281;0,0331035
3173,2922;0,0332557
3174,2566;0,0333872
3175,2207;0,0334917
3176,1851;0,0335742
3177,1492;0,0336494
3178,1135;0,0337339
3179,0776;0,0338387
3180,0420;0,0339638
3181,0061;0,0340992
3181,9705;0,0342306
3182,9346;0,0343469
3183,8989;0,0344452
3184,8630;0,0345313
3185,8274;0,0346165
3186,7915;0,0347111
3187,7559;0,0348215
3188,7200;0,0349478
3189,6843;0,0350858
3190,6484;0,0352284
3191,6128;0,0353671
3192,5769;0,0354932
3193,5413;0,0355995
3194,5054;0,0356835
3195,4697;0,0357494
3196,4338;0,0358088
3197,3982;0,035876
3198,3623;0,0359624
3199,3267;0,0360707
3200,2908;0,036195
3201,2551;0,0363242
3202,2192;0,0364484
3203,1836;0,0365627
3204,1477;0,0366678
3205,1121;0,0367675
3206,0762;0,0368654
3207,0405;0,0369628
3208,0046;0,0370591
3208,9690;0,0371526
3209,9331;0,0372417
3210,8975;0,0373258
3211,8616;0,0374064
3212,8259;0,0374881
3213,7900;0,0375778
3214,7544;0,0376816
3215,7185;0,037802
3216,6829;0,0379348
3217,6470;0,0380702
3218,6113;0,0381977
3219,5754;0,038311
3220,5398;0,0384104
3221,5039;0,0385011
3222,4683;0,0385887
3223,4324;0,038676
3224,3967;0,038763
3225,3608;0,0388501
3226,3252;0,038941
3227,2893;0,0390408
3228,2537;0,039152
3229,2178;0,0392703
3230,1821;0,0393851
3231,1462;0,0394849
3232,1106;0,0395649
3233,0747;0,0396303
3234,0391;0,0396943
3235,0032;0,0397702
3235,9675;0,0398648
3236,9316;0,0399753
3237,8960;0,0400928
3238,8601;0,0402079
3239,8245;0,0403158
3240,7886;0,0404168
3241,7529;0,0405144
3242,7170;0,0406117
3243,6814;0,0407102
3244,6455;0,0408097
3245,6099;0,0409099
3246,5740;0,0410118
3247,5383;0,0411172
3248,5024;0,0412276
3249,4668;0,0413422
3250,4309;0,0414579
3251,3953;0,0415699
3252,3594;0,0416742
3253,3237;0,0417701
3254,2878;0,0418612
3255,2522;0,041954
3256,2163;0,0420548
3257,1807;0,0421665
3258,1448;0,0422871
3259,1091;0,0424106
3260,0732;0,0425299
3261,0376;0,0426397
3262,0017;0,0427393
3262,9661;0,0428323
3263,9302;0,0429249
3264,8945;0,0430225
3265,8586;0,0431269
3266,8230;0,0432346
3267,7871;0,0433379
3268,7515;0,0434279
3269,7156;0,0434983
3270,6799;0,0435481
3271,6440;0,0435824
3272,6084;0,0436117
3273,5725;0,0436488
3274,5369;0,0437046
3275,5010;0,043784
3276,4653;0,0438835
3277,4294;0,0439928
3278,3938;0,0440979
3279,3579;0,0441871
3280,3223;0,0442552
3281,2864;0,0443046
3282,2507;0,0443426
3283,2148;0,0443767
3284,1792;0,0444105
3285,1433;0,0444431
3286,1077;0,0444709
3287,0718;0,0444914
3288,0361;0,0445055
3289,0002;0,0445164
3289,9646;0,044528
3290,9287;0,0445426
3291,8931;0,0445594
3292,8572;0,0445763
3293,8215;0,0445908
3294,7856;0,0446022
3295,7500;0,0446116
3296,7141;0,0446212
3297,6785;0,0446333
3298,6426;0,0446493
3299,6069;0,0446684
3300,5710;0,0446886
3301,5354;0,0447071
3302,4995;0,0447219
3303,4639;0,0447331
3304,4280;0,0447433
3305,3923;0,044757
3306,3564;0,0447784
3307,3208;0,0448091
3308,2849;0,0448461
3309,2493;0,0448827
3310,2134;0,0449111
3311,1777;0,0449269
3312,1418;0,0449317
3313,1062;0,0449333
3314,0703;0,0449424
3315,0347;0,0449675
3315,9988;0,0450114
3316,9631;0,0450703
3317,9272;0,0451367
3318,8916;0,0452035
3319,8557;0,0452666
3320,8201;0,0453263
3321,7842;0,0453843
3322,7485;0,0454415
3323,7126;0,0454964
3324,6770;0,0455455
3325,6411;0,0455864
3326,6055;0,045621
3327,5696;0,0456548
3328,5339;0,0456951
3329,4980;0,0457455
3330,4624;0,0458024
3331,4265;0,0458557
3332,3909;0,0458926
3333,3550;0,0459045
3334,3193;0,0458914
3335,2834;0,045862
3336,2478;0,0458288
3337,2119;0,0458008
3338,1763;0,0457787
3339,1404;0,0457559
3340,1047;0,0457232
3341,0688;0,0456752
3342,0332;0,0456143
3342,9973;0,0455491
3343,9617;0,0454899
3344,9258;0,0454426
3345,8901;0,0454058
3346,8542;0,0453711
3347,8186;0,0453278
3348,7827;0,0452681
3349,7471;0,0451906
3350,7112;0,0451005
3351,6755;0,0450076
3352,6396;0,0449214
3353,6040;0,0448478
3354,5681;0,0447869
3355,5325;0,0447337
3356,4966;0,0446808
3357,4609;0,0446219
3358,4250;0,0445543
3359,3894;0,0444803
3360,3535;0,0444044
3361,3179;0,0443315
3362,2820;0,0442639
3363,2463;0,0442009
3364,2104;0,0441399
3365,1748;0,0440781
3366,1389;0,044013
3367,1033;0,0439426
3368,0674;0,0438646
3369,0317;0,0437774
3369,9958;0,0436817
3370,9602;0,0435807
3371,9243;0,04348
3372,8887;0,0433849
3373,8528;0,0432981
3374,8171;0,0432189
3375,7813;0,0431455
3376,7456;0,0430766
3377,7097;0,0430128
3378,6741;0,0429551
3379,6382;0,0429019
3380,6025;0,0428479
3381,5667;0,042786
3382,5310;0,0427112
3383,4951;0,042625
3384,4595;0,0425361
3385,4236;0,0424559
3386,3879;0,0423921
3387,3521;0,042343
3388,3164;0,0422977
3389,2805;0,0422411
3390,2449;0,0421623
3391,2090;0,0420602
3392,1733;0,0419445
3393,1375;0,0418304
3394,1018;0,04173
3395,0659;0,0416464
3396,0303;0,0415738
3396,9944;0,0415024
3397,9587;0,0414244
3398,9229;0,0413378
3399,8872;0,0412464
3400,8513;0,0411555
3401,8157;0,0410681
3402,7798;0,0409827
3403,7441;0,0408942
3404,7083;0,0407975
3405,6726;0,0406907
3406,6367;0,0405772
3407,6011;0,0404636
3408,5652;0,0403558
3409,5295;0,0402551
3410,4937;0,0401578
3411,4580;0,0400581
3412,4221;0,0399543
3413,3865;0,0398507
3414,3506;0,0397556
3415,3149;0,0396734
3416,2791;0,0395991
3417,2434;0,0395187
3418,2075;0,039416
3419,1719;0,0392841
3420,1360;0,0391307
3421,1003;0,0389746
3422,0645;0,0388338
3423,0288;0,0387148
3423,9929;0,0386109
3424,9573;0,0385097
3425,9214;0,0384021
3426,8857;0,0382868
3427,8499;0,0381675
3428,8142;0,0380458
3429,7783;0,0379181
3430,7427;0,0377778
3431,7068;0,0376233
3432,6711;0,0374624
3433,6353;0,0373104
3434,5996;0,0371803
3435,5637;0,0370742
3436,5281;0,036981
3437,4922;0,0368842
3438,4565;0,0367731
3439,4207;0,0366501
3440,3850;0,036527
3441,3491;0,0364138
3442,3135;0,0363076
3443,2776;0,0361911
3444,2419;0,0360428
3445,2061;0,0358527
3446,1704;0,0356326
3447,1345;0,035412
3448,0989;0,0352211
3449,0630;0,0350735
3450,0273;0,0349613
3450,9915;0,0348651
3451,9558;0,034767
3452,9199;0,0346599
3453,8843;0,0345463
3454,8484;0,0344316
3455,8127;0,034316
3456,7769;0,034193
3457,7412;0,0340533
3458,7053;0,0338923
3459,6697;0,0337144
3460,6338;0,0335324
3461,5981;0,0333603
3462,5623;0,0332056
3463,5266;0,0330645
3464,4907;0,0329245
3465,4551;0,0327722
3466,4192;0,0326031
3467,3835;0,0324255
3468,3477;0,0322573
3469,3120;0,0321145
3470,2761;0,0320006
3471,2405;0,0319037
3472,2046;0,0318043
3473,1689;0,0316878
3474,1331;0,0315546
3475,0974;0,0314181
3476,0615;0,0312925
3477,0259;0,0311797
3477,9900;0,0310666
3478,9543;0,0309338
3479,9185;0,0307705
3480,8828;0,0305846
3481,8469;0,0303987
3482,8113;0,0302339
3483,7754;0,0300949
3484,7397;0,0299676
3485,7039;0,029831
3486,6682;0,0296737
3487,6323;0,029503
3488,5967;0,029341
3489,5608;0,0292089
3490,5251;0,0291103
3491,4893;0,0290266
3492,4536;0,0289275
3493,4177;0,02879
3494,3821;0,0286165
3495,3462;0,0284381
3496,3105;0,0282979
3497,2747;0,0282226
3498,2390;0,0282005
3499,2031;0,0281841
3500,1675;0,028113
3501,1316;0,0279479
3502,0959;0,0276984
3503,0601;0,0274223
3504,0244;0,0271893
3504,9885;0,0270351
3505,9529;0,0269434
3506,9170;0,0268632
3507,8813;0,0267437
3508,8455;0,0265638
3509,8098;0,0263434
3510,7739;0,0261277
3511,7383;0,0259557
3512,7024;0,025838
3513,6667;0,0257583
3514,6309;0,0256905
3515,5952;0,0256166
3516,5593;0,0255339
3517,5237;0,0254504
3518,4878;0,0253734
3519,4521;0,0253015
3520,4163;0,0252251
3521,3806;0,0251335
3522,3447;0,0250213
3523,3091;0,0248883
3524,2732;0,0247335
3525,2375;0,02455
3526,2017;0,0243302
3527,1660;0,0240776
3528,1301;0,0238161
3529,0945;0,023584
3530,0586;0,0234142
3531,0229;0,0233142
3531,9871;0,0232619
3532,9514;0,0232167
3533,9155;0,0231385
3534,8799;0,0230062
3535,8440;0,0228283
3536,8083;0,0226401
3537,7725;0,0224867
3538,7368;0,0224012
3539,7009;0,0223902
3540,6653;0,0224294
3541,6294;0,0224685
3542,5938;0,0224439
3543,5579;0,0223034
3544,5222;0,0220379
3545,4863;0,0216991
3546,4507;0,0213726
3547,4148;0,0211234
3548,3792;0,020959
3549,3433;0,0208375
3550,3076;0,020702
3551,2717;0,0205191
3552,2361;0,0203015
3553,2002;0,0201002
3554,1646;0,0199662
3555,1287;0,0199131
3556,0930;0,0199105
3557,0571;0,0199085
3558,0215;0,0198726
3558,9856;0,0198098
3559,9500;0,0197673
3560,9141;0,019798
3561,8784;0,0199131
3562,8425;0,0200534
3563,8069;0,0200929
3564,7710;0,0198839
3565,7354;0,0193571
3566,6995;0,0186278
3567,6638;0,0179559
3568,6279;0,0175422
3569,5923;0,0174027
3570,5564;0,0174299
3571,5208;0,0174981
3572,4849;0,0175203
3573,4492;0,0174652
3574,4133;0,0173482
3575,3777;0,0172044
3576,3418;0,0170549
3577,3062;0,0168972
3578,2703;0,0167257
3579,2346;0,0165613
3580,1987;0,0164568
3581,1631;0,0164659
3582,1272;0,0165978
3583,0916;0,016789
3584,0557;0,0169063
3585,0200;0,0167893
3585,9841;0,0163458
3586,9485;0,015666
3587,9126;0,0150069
3588,8770;0,0145928
3589,8411;0,0144593
3590,8054;0,0144941
3591,7695;0,0145492
3592,7339;0,0145156
3593,6980;0,0143609
3594,6624;0,0141299
3595,6265;0,0138958
3596,5908;0,013694
3597,5549;0,0135037
3598,5193;0,0132917
3599,4834;0,0130676
3600,4478;0,0128967
3601,4119;0,0128539
3602,3762;0,0129597
3603,3403;0,0131596
3604,3047;0,0133547
3605,2688;0,013451
3606,2332;0,0134064
3607,1973;0,0132552
3608,1616;0,0130854
3609,1257;0,0129685
3610,0901;0,0129096
3611,0542;0,0128658
3612,0186;0,0128017
3612,9827;0,0127206
3613,9470;0,0126476
3614,9111;0,0125838
3615,8755;0,0124743
3616,8396;0,0122218
3617,8040;0,0117543
3618,7681;0,0111179
3619,7324;0,0105036
3620,6965;0,0101341
3621,6609;0,0101169
3622,6250;0,0104128
3623,5894;0,0108955
3624,5535;0,0113938
3625,5178;0,0116981
3626,4819;0,0115837
3627,4463;0,01094
3628,4104;0,00997273
3629,3748;0,00914408
3630,3389;0,00875452
3631,3032;0,00875453
3632,2673;0,00894209
3633,2317;0,00915156
3634,1958;0,00930387
3635,1602;0,0093913
3636,1243;0,00944222
3637,0886;0,00948369
3638,0527;0,00952311
3639,0171;0,00955889
3639,9812;0,0096052
3640,9456;0,00970371
3641,9097;0,00990708
3642,8740;0,0102431
3643,8381;0,0106807
3644,8025;0,0111047
3645,7666;0,011299
3646,7310;0,0109722
3647,6951;0,00995382
3648,6594;0,00855574
3649,6235;0,00749942
3650,5879;0,00718205
3651,5520;0,00743117
3652,5164;0,00789698
3653,4805;0,00830632
3654,4448;0,00849806
3655,4089;0,00843146
3656,3733;0,0081975
3657,3374;0,00795995
3658,3018;0,00783237
3659,2659;0,00781643
3660,2302;0,00785095
3661,1943;0,00789414
3662,1587;0,00796567
3663,1228;0,00812577
3664,0872;0,00841101
3665,0513;0,00877809
3666,0156;0,00909564
3666,9797;0,00918914
3667,9441;0,00894609
3668,9082;0,00845332
3669,8726;0,00800067
3670,8367;0,00783616
3671,8010;0,00794285
3672,7651;0,00808325
3673,7295;0,00797876
3674,6936;0,00750209
3675,6580;0,0068193
3676,6221;0,00627174
3677,5864;0,00604826
3678,5505;0,00608901
3679,5149;0,00625031
3680,4790;0,00644014
3681,4434;0,00664617
3682,4075;0,00690432
3683,3718;0,00724484
3684,3359;0,00764338
3685,3003;0,00799652
3686,2644;0,00812959
3687,2288;0,00785851
3688,1929;0,00713846
3689,1572;0,00620765
3690,1213;0,00546162
3691,0857;0,00511588
3692,0498;0,00511264
3693,0142;0,00529339
3693,9783;0,00553824
3694,9426;0,00579285
3695,9067;0,00604151
3696,8711;0,00626946
3697,8352;0,00643662
3698,7996;0,00647858
3699,7637;0,00634257
3700,7280;0,00604541
3701,6921;0,00570411
3702,6565;0,00548476
3703,6206;0,00549915
3704,5850;0,00574942
3705,5491;0,00615025
3706,5134;0,00657144
3707,4775;0,00686247
3708,4419;0,00687801
3709,4060;0,00654877
3710,3704;0,0059888
3711,3345;0,00548584
3712,2988;0,00527834
3713,2629;0,00538514
3714,2273;0,00568021
3715,1914;0,00602531
3716,1558;0,00632108
3717,1199;0,00650857
3718,0842;0,00656718
3719,0483;0,00651453
3720,0127;0,00639334
3720,9768;0,00624004
3721,9412;0,00605836
3722,9053;0,00582804
3723,8696;0,00554747
3724,8337;0,00527012
3725,7981;0,00509211
3726,7622;0,00509667
3727,7266;0,00530962
3728,6907;0,00569709
3729,6550;0,0061843
3730,6191;0,00666559
3731,5835;0,00700241
3732,5476;0,00703633
3733,5120;0,0066661
3734,4761;0,00598768
3735,4404;0,00532777
3736,4045;0,00502198
3737,3689;0,00518522
3738,3330;0,00572977
3739,2974;0,00648875
3740,2615;0,00727461
3741,2258;0,00788098
3742,1899;0,00810729
3743,1543;0,00787941
3744,1184;0,00740192
3745,0828;0,00706062
3746,0469;0,00706605
3747,0112;0,00730288
3747,9753;0,00747505
3748,9397;0,00729395
3749,9038;0,0066816
3750,8682;0,00593156
3751,8323;0,00549936
3752,7966;0,00555937
3753,7607;0,0059531
3754,7251;0,00642973
3755,6892;0,006786
3756,6536;0,00690186
3757,6177;0,00677269
3758,5820;0,00652489
3759,5461;0,00634281
3760,5105;0,00633972
3761,4746;0,00650472
3762,4390;0,00675138
3763,4031;0,00698497
3764,3674;0,00713896
3765,3315;0,00718273
3766,2959;0,00711187
3767,2600;0,00693414
3768,2244;0,00666918
3769,1885;0,00636642
3770,1528;0,00611431
3771,1169;0,00600984
3772,0813;0,00610371
3773,0454;0,00637098
3774,0098;0,00672395
3774,9739;0,00704377
3775,9382;0,00721528
3776,9023;0,00717125
3777,8667;0,00693985
3778,8308;0,0066465
3779,7952;0,00643323
3780,7593;0,00636084
3781,7236;0,00639208
3782,6877;0,00644825
3783,6521;0,00646888
3784,6162;0,00643889
3785,5806;0,00638341
3786,5447;0,00634431
3787,5090;0,00635745
3788,4731;0,00644226
3789,4375;0,00659965
3790,4016;0,00681038
3791,3660;0,00703516
3792,3301;0,00722463
3793,2944;0,0073426
3794,2585;0,00739207
3795,2229;0,00741804
3796,1870;0,00746873
3797,1514;0,00753707
3798,1155;0,00753706
3799,0798;0,0073536
3800,0439;0,00695487
3801,0083;0,00647845
3801,9724;0,00615348
3802,9368;0,006097
3803,9009;0,00622512
3804,8652;0,00634901
3805,8293;0,00632334
3806,7937;0,00615537
3807,7578;0,00600857
3808,7222;0,00606698
3809,6863;0,00638829
3810,6506;0,00688781
3811,6147;0,00740681
3812,5791;0,00777685
3813,5432;0,00788111
3814,5076;0,0077281
3815,4717;0,00746919
3816,4360;0,00727673
3817,4001;0,00718417
3818,3645;0,00707479
3819,3286;0,00681749
3820,2930;0,00641789
3821,2571;0,00604491
3822,2214;0,00587934
3823,1855;0,00596023
3824,1499;0,0061989
3825,1140;0,00647729
3826,0784;0,00671107
3827,0425;0,00686614
3828,0068;0,00695087
3828,9709;0,00699685
3829,9353;0,00703926
3830,8994;0,00710671
3831,8638;0,00721747
3832,8279;0,00737192
3833,7922;0,00753964
3834,7563;0,00765377
3835,7207;0,0076307
3836,6848;0,00742146
3837,6492;0,00706751
3838,6133;0,00669515
3839,5776;0,00642508
3840,5417;0,00628947
3841,5061;0,00624351
3842,4702;0,00623375
3843,4346;0,0062502
3844,3987;0,00633446
3845,3630;0,00655127
3846,3271;0,00694839
3847,2915;0,00752868
3848,2556;0,00823529
3849,2200;0,00893232
3850,1841;0,00937518
3851,1484;0,00922607
3852,1125;0,00827546
3853,0769;0,00686343
3854,0410;0,00576966
3855,0054;0,00539938
3855,9695;0,00560013
3856,9338;0,00609221
3857,8979;0,00667763
3858,8623;0,00722283
3859,8264;0,0076176
3860,7908;0,00777718
3861,7549;0,00768816
3862,7192;0,00745301
3863,6833;0,00725344
3864,6477;0,00722763
3865,6118;0,00738265
3866,5762;0,00761544
3867,5403;0,00778483
3868,5046;0,00777594
3869,4688;0,00754982
3870,4331;0,00716889
3871,3972;0,00677014
3872,3616;0,00649295
3873,3257;0,00641732
3874,2900;0,00654841
3875,2542;0,00683248
3876,2185;0,00717948
3877,1826;0,00748724
3878,1470;0,00767253
3879,1111;0,00770708
3880,0754;0,00763222
3881,0396;0,00752115
3882,0039;0,00741354
3882,9680;0,00729575
3883,9324;0,00715011
3884,8965;0,00701237
3885,8608;0,00696295
3886,8250;0,00705146
3887,7893;0,00723476
3888,7534;0,00738828
3889,7178;0,00737906
3890,6819;0,00716656
3891,6462;0,00686849
3892,6104;0,00669587
3893,5747;0,00678842
3894,5388;0,00713128
3895,5032;0,0076056
3896,4673;0,00806775
3897,4316;0,00839918
3898,3958;0,00853604
3899,3601;0,0084778
3900,3242;0,00825951
3901,2886;0,00791118
3902,2527;0,00745974
3903,2170;0,0069693
3904,1812;0,00654684
3905,1455;0,0062847
3906,1096;0,00620606
3907,0740;0,00627013
3908,0381;0,00641437
3909,0024;0,00659052
3909,9666;0,00677931
3910,9309;0,00698451
3911,8950;0,00721158
3912,8594;0,00744346
3913,8235;0,00763078
3914,7878;0,00770814
3915,7520;0,00763479
3916,7163;0,00743754
3917,6804;0,00721323
3918,6448;0,00706991
3919,6089;0,00705437
3920,5732;0,00713151
3921,5374;0,00721885
3922,5017;0,00724156
3923,4658;0,00717998
3924,4302;0,00708422
3925,3943;0,00703801
3926,3586;0,00709547
3927,3228;0,00724382
3928,2871;0,00741262
3929,2512;0,00751193
3930,2156;0,00747952
3931,1797;0,00731809
3932,1440;0,00709561
3933,1082;0,00690094
3934,0725;0,00679365
3935,0366;0,00678874
3936,0010;0,00687114
3936,9651;0,00701225
3937,9294;0,0071763
3938,8936;0,00732174
3939,8579;0,00740866
3940,8220;0,00741647
3941,7864;0,0073617
3942,7505;0,0072954
3943,7148;0,00727176
3944,6790;0,00731045
3945,6433;0,00738236
3946,6074;0,00742705
3947,5718;0,00738995
3948,5359;0,00725897
3949,5002;0,00707646
3950,4644;0,00691295
3951,4287;0,00682264
3952,3928;0,00681732
3953,3572;0,00687254
3954,3213;0,00695115
3955,2856;0,0070244
3956,2498;0,00707997
3957,2141;0,00711667
3958,1782;0,00713459
3959,1426;0,00713047
3960,1067;0,00710207
3961,0710;0,00705542
3962,0352;0,00700653
3962,9995;0,00697387
3963,9636;0,00696761
3964,9280;0,00698408
3965,8921;0,0070098
3966,8564;0,00703073
3967,8206;0,00704041
3968,7849;0,00704163
3969,7490;0,00704146
3970,7134;0,00704376
3971,6775;0,00704551
3972,6418;0,00703935
3973,6060;0,00702001
3974,5703;0,00698923
3975,5344;0,0069555
3976,4988;0,00692887
3977,4629;0,00691507
3978,4272;0,00691302
3979,3914;0,00691712
3980,3557;0,00692205
3981,3198;0,00692692
3982,2842;0,00693586
3983,2483;0,00695475
3984,2126;0,00698639
3985,1768;0,0070274
3986,1411;0,00706898
3987,1052;0,00710072
3988,0696;0,0071153
3989,0337;0,00711082
3989,9980;0,00709023
3990,9622;0,00705839
3991,9265;0,00701988
3992,8906;0,00697925
3993,8550;0,00694275
3994,8191;0,00691854
3995,7834;0,00691367
3996,7476;0,0069293
3997,7119;0,00695833
3998,6760;0,00698828
3999,6404;0,00700811
4000,6045;0,00690418

##### Extended Information
[Comments]
Sample name
Comment
Username
Division
Organization;UNIVERSIDAD INDUSTRIAL DE SANTANDER

[Detailed Information]
Creation date;19/02/2025 12:39 p.m.

Data array type;Linear data array
Horizontal axis;Wavenumber [cm-1]
Vertical axis;Abs
Start;399,193 cm-1
End;4000,6 cm-1
Data interval;0,964233 cm-1
Data points;3736    

[Measurement Information]
Model name;FT/IR-4X1typeA
Serial No.;A035162111

Accessory;ATR PRO 4X
Accessory S/N;A021162126
Incident angle;45 deg

Measurement date;19/02/2025 12:39 p.m.

Light source;Standard
Detector;TGS
Accumulation;40
Resolution;4 cm-1
Zero filling;On
Apodization;Cosine
Gain;Auto (8)
Aperture;Auto (7 mm)
Scan speed;Auto (2 mm/sec)
Filter;Auto (12800 Hz)

