TITLE;
DATA TYPE;INFRARED SPECTRUM
ORIGIN;JASCO
OWNER;
DATE;25/02/19
TIME;12:16:16
SPECTROMETER/DATA SYSTEM;
LOCALE;9226
RESOLUTION;
DELTAX;0,964233
XUNITS;1/CM
YUNITS;ABSORBANCE
FIRSTX;  399,1927
LASTX; 4000,6047
NPOINTS;    3736
FIRSTY;     0,12353
MAXY;     0,13613
MINY;     0,00758
XYDATA
399,1927;0,123535
400,1569;0,12242
401,1211;0,120642
402,0854;0,118904
403,0496;0,117661
404,0138;0,117131
404,9781;0,117322
405,9423;0,118037
406,9065;0,118934
407,8708;0,119667
408,8350;0,120043
409,7992;0,120077
410,7635;0,119942
411,7277;0,119844
412,6919;0,119914
413,6562;0,120185
414,6204;0,120644
415,5846;0,121289
416,5489;0,122118
417,5131;0,123032
418,4773;0,123714
419,4416;0,123781
420,4058;0,123198
421,3700;0,122332
422,3343;0,12159
423,2985;0,121204
424,2627;0,121213
425,2270;0,121491
426,1912;0,121801
427,1554;0,121915
428,1197;0,121733
429,0839;0,121343
430,0481;0,120973
431,0124;0,120885
431,9766;0,121222
432,9408;0,12191
433,9051;0,122645
434,8693;0,12302
435,8335;0,122722
436,7978;0,121705
437,7620;0,120202
438,7262;0,118579
439,6905;0,117152
440,6547;0,116094
441,6189;0,115444
442,5832;0,11517
443,5474;0,11524
444,5116;0,115628
445,4759;0,116272
446,4401;0,117011
447,4043;0,117593
448,3686;0,117751
449,3328;0,117334
450,2970;0,116407
451,2613;0,115248
452,2255;0,114216
453,1897;0,113558
454,1540;0,113305
455,1182;0,113299
456,0824;0,11331
457,0467;0,113174
458,0109;0,112882
458,9751;0,112542
459,9394;0,112257
460,9036;0,112039
461,8678;0,111837
462,8321;0,111607
463,7963;0,111355
464,7605;0,111126
465,7248;0,110973
466,6890;0,110927
467,6532;0,110995
468,6175;0,111178
469,5817;0,111478
470,5459;0,111869
471,5102;0,112268
472,4744;0,112543
473,4386;0,112591
474,4029;0,112415
475,3671;0,112126
476,3313;0,111859
477,2956;0,111693
478,2598;0,111621
479,2240;0,111576
480,1883;0,111487
481,1525;0,111341
482,1167;0,111194
483,0810;0,111138
484,0452;0,111232
485,0094;0,111459
485,9737;0,111738
486,9379;0,11199
487,9021;0,112183
488,8664;0,112331
489,8306;0,11246
490,7948;0,112566
491,7591;0,11262
492,7233;0,112598
493,6875;0,112523
494,6518;0,112473
495,6160;0,112538
496,5802;0,11276
497,5445;0,113109
498,5087;0,113487
499,4729;0,113783
500,4372;0,113926
501,4014;0,113915
502,3656;0,113816
503,3299;0,11372
504,2941;0,11369
505,2583;0,11375
506,2226;0,113903
507,1868;0,114149
508,1510;0,114487
509,1153;0,114895
510,0795;0,115319
511,0437;0,115693
512,0080;0,115966
512,9722;0,116137
513,9365;0,116254
514,9007;0,116389
515,8649;0,116597
516,8292;0,116877
517,7934;0,117164
518,7576;0,117367
519,7219;0,117432
520,6861;0,117373
521,6503;0,117254
522,6146;0,117148
523,5788;0,11711
524,5430;0,117161
525,5073;0,117283
526,4715;0,117437
527,4357;0,117572
528,4000;0,117655
529,3642;0,117672
530,3284;0,117625
531,2927;0,117525
532,2569;0,117377
533,2211;0,117182
534,1854;0,116944
535,1496;0,116676
536,1138;0,116405
537,0781;0,116178
538,0423;0,116034
539,0065;0,115997
539,9708;0,116051
540,9350;0,116156
541,8992;0,116262
542,8635;0,116335
543,8277;0,116374
544,7919;0,116406
545,7562;0,116466
546,7204;0,116574
547,6846;0,116711
548,6489;0,116835
549,6131;0,116899
550,5773;0,116894
551,5416;0,116861
552,5058;0,116882
553,4700;0,117034
554,4343;0,117341
555,3985;0,117746
556,3627;0,118127
557,3270;0,118351
558,2912;0,118332
559,2554;0,118072
560,2197;0,117637
561,1839;0,117126
562,1481;0,116615
563,1124;0,116143
564,0766;0,115718
565,0408;0,115337
566,0051;0,115012
566,9693;0,114761
567,9335;0,114598
568,8978;0,114513
569,8620;0,114469
570,8262;0,114416
571,7905;0,114317
572,7547;0,114168
573,7189;0,113993
574,6832;0,113835
575,6474;0,113725
576,6116;0,113669
577,5759;0,113642
578,5401;0,113609
579,5043;0,113545
580,4686;0,113449
581,4328;0,113334
582,3970;0,11322
583,3613;0,113116
584,3255;0,113022
585,2897;0,112931
586,2540;0,112843
587,2182;0,11276
588,1824;0,112688
589,1467;0,112631
590,1109;0,112589
591,0751;0,11255
592,0394;0,112492
593,0036;0,112386
593,9678;0,112212
594,9321;0,111972
595,8963;0,111695
596,8605;0,111431
597,8248;0,111224
598,7890;0,111081
599,7532;0,110969
600,7175;0,110824
601,6817;0,110597
602,6459;0,110286
603,6102;0,10993
604,5744;0,109584
605,5386;0,109275
606,5029;0,10899
607,4671;0,108683
608,4313;0,108321
609,3956;0,107904
610,3598;0,107467
611,3240;0,107057
612,2883;0,106698
613,2525;0,106383
614,2167;0,106076
615,1810;0,105735
616,1452;0,105329
617,1094;0,104841
618,0737;0,104271
619,0379;0,103631
620,0021;0,102943
620,9664;0,102241
621,9306;0,101573
622,8948;0,100987
623,8591;0,100519
624,8233;0,100182
625,7875;0,0999237
626,7518;0,0996796
627,7160;0,0993854
628,6802;0,0990038
629,6445;0,0985357
630,6087;0,0980168
631,5729;0,0974992
632,5372;0,0970313
633,5014;0,0966404
634,4656;0,096326
635,4299;0,0960643
636,3941;0,0958215
637,3583;0,095571
638,3226;0,095303
639,2868;0,0950265
640,2510;0,0947592
641,2153;0,0945132
642,1795;0,0942843
643,1437;0,094051
644,1080;0,0937874
645,0722;0,0934811
646,0364;0,0931441
647,0007;0,0928093
647,9649;0,0925131
648,9291;0,0922756
649,8934;0,0920914
650,8576;0,0919393
651,8218;0,0918015
652,7861;0,0916776
653,7503;0,0915841
654,7145;0,0915433
655,6788;0,0915711
656,6430;0,091668
657,6072;0,0918146
658,5715;0,091969
659,5357;0,0920687
660,4999;0,0920524
661,4642;0,0919
662,4284;0,0916598
663,3926;0,091428
664,3569;0,091292
665,3211;0,091269
666,2853;0,0912662
667,2496;0,0910954
668,2138;0,0906061
669,1780;0,0898348
670,1423;0,0889271
671,1065;0,0880003
672,0707;0,0871173
673,0350;0,086286
673,9992;0,0854702
674,9634;0,0846245
675,9277;0,0837291
676,8919;0,0828005
677,8561;0,0818754
678,8204;0,0809935
679,7846;0,080192
680,7488;0,0795048
681,7131;0,078951
682,6773;0,0785246
683,6415;0,0781944
684,6058;0,0779209
685,5700;0,077673
686,5342;0,0774332
687,4985;0,0771924
688,4627;0,0769423
689,4269;0,0766805
690,3912;0,0764122
691,3554;0,0761525
692,3196;0,0759206
693,2839;0,0757309
694,2481;0,0755851
695,2123;0,0754715
696,1766;0,0753698
697,1408;0,0752581
698,1050;0,0751191
699,0693;0,0749435
700,0335;0,0747319
700,9977;0,0744934
701,9620;0,0742426
702,9262;0,0739941
703,8904;0,0737591
704,8547;0,0735346
705,8189;0,0733069
706,7831;0,0730571
707,7474;0,0727694
708,7116;0,0724389
709,6758;0,0720758
710,6401;0,071703
711,6043;0,0713492
712,5685;0,0710381
713,5328;0,0707782
714,4970;0,0705584
715,4612;0,0705302
716,4255;0,0702667
717,3897;0,0699433
718,3539;0,0695596
719,3182;0,0691386
720,2824;0,0687168
721,2466;0,068325
722,2109;0,0679732
723,1751;0,0676482
724,1393;0,0673224
725,1036;0,0669674
726,0678;0,0665655
727,0320;0,0661165
727,9963;0,0656388
728,9605;0,065163
729,9247;0,0647209
730,8890;0,0643337
731,8532;0,0640045
732,8174;0,0637198
733,7817;0,0634574
734,7459;0,0631977
735,7101;0,0629327
736,6744;0,0626666
737,6386;0,0624101
738,6028;0,0621708
739,5671;0,0619473
740,5313;0,0617307
741,4955;0,0615104
742,4598;0,0612814
743,4240;0,0610464
744,3882;0,0608112
745,3525;0,0605781
746,3167;0,0603405
747,2809;0,0600866
748,2452;0,0598076
749,2094;0,0595064
750,1736;0,059199
751,1379;0,0589068
752,1021;0,0586428
753,0663;0,0584035
754,0306;0,058171
754,9948;0,0579252
755,9590;0,0576588
756,9233;0,0573822
757,8875;0,0571168
758,8517;0,0568804
759,8160;0,0566754
760,7802;0,0564882
761,7444;0,0562981
762,7087;0,0560897
763,6729;0,0558599
764,6371;0,0556162
765,6014;0,0553709
766,5656;0,0551339
767,5298;0,0549096
768,4941;0,054697
769,4583;0,0544905
770,4225;0,0542821
771,3868;0,0540654
772,3510;0,0538395
773,3152;0,0536124
774,2795;0,0533984
775,2437;0,0532112
776,2079;0,0530555
777,1722;0,0529228
778,1364;0,0527956
779,1006;0,0526569
780,0649;0,0524976
781,0291;0,0523179
781,9933;0,0521224
782,9576;0,0519147
783,9218;0,0516958
784,8860;0,0514696
785,8503;0,0512476
786,8145;0,051048
787,7787;0,0508884
788,7430;0,0507744
789,7072;0,0506948
790,6714;0,0506257
791,6357;0,0505431
792,5999;0,050435
793,5641;0,0503061
794,5284;0,0501728
795,4926;0,0500515
796,4568;0,0499501
797,4211;0,0498657
798,3853;0,0497893
799,3495;0,0497137
800,3138;0,0496385
801,2780;0,0495694
802,2422;0,0495139
803,2065;0,0494748
804,1707;0,049447
805,1349;0,0494184
806,0992;0,0493751
807,0634;0,0493076
808,0276;0,0492159
808,9919;0,0491085
809,9561;0,048998
810,9203;0,0488948
811,8846;0,0488027
812,8488;0,0487182
813,8130;0,0486333
814,7773;0,0485402
815,7415;0,0484337
816,7057;0,048313
817,6700;0,0481816
818,6342;0,048047
819,5984;0,0479187
820,5627;0,0478053
821,5269;0,0477106
822,4911;0,0476312
823,4554;0,0475586
824,4196;0,0474844
825,3839;0,0474062
826,3481;0,0473294
827,3123;0,0472631
828,2766;0,0472125
829,2408;0,0471728
830,2050;0,0471303
831,1693;0,0470678
832,1335;0,0469734
833,0977;0,0468445
834,0620;0,0466862
835,0262;0,0465073
835,9904;0,0463161
836,9547;0,0461203
837,9189;0,0459285
838,8831;0,04575
839,8474;0,0455934
840,8116;0,0454622
841,7758;0,0453536
842,7401;0,0452605
843,7043;0,0451757
844,6685;0,0450943
845,6328;0,0450138
846,5970;0,0449319
847,5612;0,0448462
848,5255;0,0447561
849,4897;0,044666
850,4539;0,0445855
851,4182;0,0445247
852,3824;0,0444875
853,3466;0,0444677
854,3109;0,0444521
855,2751;0,0444292
856,2393;0,0443961
857,2036;0,0443603
858,1678;0,0443333
859,1320;0,0443231
860,0963;0,0443302
861,0605;0,0443508
862,0247;0,0443829
862,9890;0,0444308
863,9532;0,0445031
864,9174;0,0446064
865,8817;0,0447395
866,8459;0,0448931
867,8101;0,0450558
868,7744;0,0452206
869,7386;0,0453886
870,7028;0,0455652
871,6671;0,0457529
872,6313;0,0459447
873,5955;0,0461239
874,5598;0,0462698
875,5240;0,0463681
876,4882;0,0464181
877,4525;0,0464343
878,4167;0,046441
879,3809;0,0464637
880,3452;0,046522
881,3094;0,0466279
882,2736;0,046789
883,2379;0,0470131
884,2021;0,0473093
885,1663;0,047684
886,1306;0,0481356
887,0948;0,0486501
888,0590;0,0492043
889,0233;0,0497738
889,9875;0,0503406
890,9517;0,0508959
891,9160;0,051435
892,8802;0,051949
893,8444;0,0524178
894,8087;0,0528118
895,7729;0,053099
896,7371;0,0532552
897,7014;0,0532697
898,6656;0,0531452
899,6298;0,052894
900,5941;0,0525338
901,5583;0,0520862
902,5225;0,0515767
903,4868;0,0510346
904,4510;0,0504895
905,4152;0,049968
906,3795;0,0494902
907,3437;0,0490698
908,3079;0,0487152
909,2722;0,0484307
910,2364;0,0482154
911,2007;0,0480619
912,1649;0,0479558
913,1292;0,0478804
914,0934;0,0478234
915,0576;0,047782
916,0219;0,0477631
916,9861;0,0477777
917,9503;0,0478329
918,9146;0,0479263
919,8788;0,0480476
920,8430;0,0481838
921,8073;0,048325
922,7715;0,0484663
923,7357;0,0486057
924,7000;0,0487416
925,6642;0,0488722
926,6284;0,0489979
927,5927;0,0491234
928,5569;0,0492578
929,5211;0,0494093
930,4854;0,0495804
931,4496;0,0497661
932,4138;0,0499572
933,3781;0,050148
934,3423;0,0503403
935,3065;0,0505448
936,2708;0,0507752
937,2350;0,051043
938,1992;0,0513543
939,1635;0,05171
940,1277;0,0521091
941,0919;0,0525504
942,0562;0,0530327
943,0204;0,0535532
943,9846;0,0541082
944,9489;0,0546946
945,9131;0,0553133
946,8773;0,0559686
947,8416;0,0566672
948,8058;0,0574139
949,7700;0,0582099
950,7343;0,0590532
951,6985;0,0599409
952,6627;0,0608703
953,6270;0,0618382
954,5912;0,0628394
955,5554;0,0638653
956,5197;0,0649062
957,4839;0,0659539
958,4481;0,0670039
959,4124;0,0680542
960,3766;0,0691029
961,3408;0,0701463
962,3051;0,0711801
963,2693;0,072202
964,2335;0,0732138
965,1978;0,074221
966,1620;0,0752304
967,1262;0,0762483
968,0905;0,0772814
969,0547;0,0783397
970,0189;0,0794386
970,9832;0,0805969
971,9474;0,0818326
972,9116;0,0831589
973,8759;0,0845829
974,8401;0,0861082
975,8043;0,0877372
976,7686;0,0894706
977,7328;0,0913024
978,6970;0,0932126
979,6613;0,0951635
980,6255;0,0971005
981,5897;0,0989614
982,5540;0,10069
983,5182;0,102248
984,4824;0,103627
985,4467;0,104839
986,4109;0,105913
987,3751;0,106877
988,3394;0,107748
989,3036;0,108531
990,2678;0,109222
991,2321;0,109822
992,1963;0,110344
993,1605;0,110813
994,1248;0,111257
995,0890;0,111702
996,0532;0,11216
997,0175;0,112632
997,9817;0,113108
998,9459;0,113579
999,9102;0,114041
1000,8744;0,114503
1001,8386;0,114986
1002,8029;0,115517
1003,7671;0,116128
1004,7313;0,11684
1005,6956;0,117666
1006,6598;0,118606
1007,6240;0,119654
1008,5883;0,120803
1009,5525;0,122044
1010,5167;0,123366
1011,4810;0,124747
1012,4452;0,126155
1013,4094;0,127544
1014,3737;0,128867
1015,3379;0,130081
1016,3021;0,131157
1017,2664;0,132084
1018,2306;0,132864
1019,1948;0,133512
1020,1591;0,134047
1021,1233;0,134489
1022,0875;0,134857
1023,0518;0,135169
1024,0160;0,135436
1024,9802;0,135665
1025,9445;0,13586
1026,9087;0,136013
1027,8729;0,13611
1028,8372;0,136128
1029,8014;0,136036
1030,7656;0,135807
1031,7299;0,135421
1032,6941;0,134872
1033,6583;0,134172
1034,6226;0,133345
1035,5868;0,132427
1036,5510;0,131461
1037,5153;0,130491
1038,4795;0,129563
1039,4437;0,128715
1040,4080;0,127971
1041,3722;0,127341
1042,3364;0,126814
1043,3007;0,126364
1044,2649;0,125955
1045,2291;0,12555
1046,1934;0,125116
1047,1576;0,124627
1048,1218;0,124067
1049,0861;0,123423
1050,0503;0,122691
1051,0145;0,121868
1051,9788;0,120959
1052,9430;0,119973
1053,9072;0,118924
1054,8715;0,117824
1055,8357;0,116678
1056,7999;0,115476
1057,7642;0,114202
1058,7284;0,112835
1059,6926;0,111366
1060,6569;0,109804
1061,6211;0,10818
1062,5853;0,106538
1063,5496;0,104924
1064,5138;0,10338
1065,4780;0,101938
1066,4423;0,100616
1067,4065;0,0994208
1068,3707;0,0983409
1069,3350;0,0973519
1070,2992;0,0964187
1071,2634;0,0955054
1072,2277;0,0945845
1073,1919;0,093642
1074,1561;0,0926764
1075,1204;0,0916925
1076,0846;0,0906956
1077,0488;0,0896908
1078,0131;0,0886856
1078,9773;0,0876958
1079,9415;0,0867469
1080,9058;0,0858701
1081,8700;0,0850939
1082,8342;0,0844338
1083,7985;0,083887
1084,7627;0,0834335
1085,7269;0,0830432
1086,6912;0,0826868
1087,6554;0,0823455
1088,6196;0,0820161
1089,5839;0,0817077
1090,5481;0,0814354
1091,5123;0,0812111
1092,4766;0,0810386
1093,4408;0,0809136
1094,4050;0,0808268
1095,3693;0,0807685
1096,3335;0,0807306
1097,2977;0,0807061
1098,2620;0,0806874
1099,2262;0,0806655
1100,1904;0,0806312
1101,1547;0,0805764
1102,1189;0,0804953
1103,0831;0,0803848
1104,0474;0,080244
1105,0116;0,0800735
1105,9758;0,0798748
1106,9401;0,0796491
1107,9043;0,079395
1108,8685;0,0791053
1109,8328;0,0787664
1110,7970;0,0783594
1111,7612;0,0778671
1112,7255;0,077283
1113,6897;0,0766187
1114,6539;0,0759065
1115,6182;0,0751925
1116,5824;0,0745229
1117,5466;0,0739289
1118,5109;0,073415
1119,4751;0,0729566
1120,4393;0,072508
1121,4036;0,0720161
1122,3678;0,0714349
1123,3320;0,0707359
1124,2963;0,0699104
1125,2605;0,0689659
1126,2247;0,0679198
1127,1890;0,0667926
1128,1532;0,0656048
1129,1174;0,064376
1130,0817;0,0631261
1131,0459;0,0618763
1132,0101;0,0606504
1132,9744;0,0594743
1133,9386;0,0583748
1134,9028;0,0573766
1135,8671;0,0565005
1136,8313;0,0557603
1137,7955;0,055162
1138,7598;0,0547049
1139,7240;0,0543838
1140,6882;0,0541915
1141,6525;0,0541185
1142,6167;0,0541524
1143,5809;0,0542755
1144,5452;0,0544662
1145,5094;0,0547029
1146,4736;0,0549707
1147,4379;0,0552659
1148,4021;0,0555944
1149,3663;0,0559644
1150,3306;0,0563766
1151,2948;0,056818
1152,2590;0,0572626
1153,2233;0,0576782
1154,1875;0,0580339
1155,1517;0,0583041
1156,1160;0,0584661
1157,0802;0,0584956
1158,0444;0,058364
1159,0087;0,0580403
1159,9729;0,0574968
1160,9371;0,0567161
1161,9014;0,0556965
1162,8656;0,0544539
1163,8298;0,0530218
1164,7941;0,0514483
1165,7583;0,0497916
1166,7225;0,0481136
1167,6868;0,0464715
1168,6510;0,0449102
1169,6152;0,0434585
1170,5795;0,0421291
1171,5437;0,0409239
1172,5079;0,0398407
1173,4722;0,0388771
1174,4364;0,0380321
1175,4006;0,0373031
1176,3649;0,0366829
1177,3291;0,0361589
1178,2933;0,0357152
1179,2576;0,0353366
1180,2218;0,0350124
1181,1860;0,0347377
1182,1503;0,0345128
1183,1145;0,0343402
1184,0787;0,0342225
1185,0430;0,0341607
1186,0072;0,0341543
1186,9714;0,0342012
1187,9357;0,0342992
1188,8999;0,0344461
1189,8641;0,0346413
1190,8284;0,0348861
1191,7926;0,0351824
1192,7568;0,0355304
1193,7211;0,035927
1194,6853;0,0363642
1195,6495;0,0368308
1196,6138;0,0373158
1197,5780;0,037811
1198,5422;0,0383122
1199,5065;0,0388211
1200,4707;0,0393267
1201,4349;0,0398276
1202,3992;0,0403161
1203,3634;0,0407851
1204,3276;0,0412318
1205,2919;0,0416603
1206,2561;0,0420823
1207,2203;0,0425154
1208,1846;0,0429788
1209,1488;0,0434888
1210,1130;0,0440544
1211,0773;0,0446751
1212,0415;0,0453417
1213,0057;0,04604
1213,9700;0,0467568
1214,9342;0,0474828
1215,8984;0,0482137
1216,8627;0,0489466
1217,8269;0,0496774
1218,7911;0,0503988
1219,7554;0,0511017
1220,7196;0,0517784
1221,6838;0,0524241
1222,6481;0,0530364
1223,6123;0,0536133
1224,5765;0,0541516
1225,5408;0,0546476
1226,5050;0,0550993
1227,4692;0,0555089
1228,4335;0,0558826
1229,3977;0,0562272
1230,3619;0,0565463
1231,3262;0,0568379
1232,2904;0,0570959
1233,2546;0,0573134
1234,2189;0,0574876
1235,1831;0,0576212
1236,1473;0,0577215
1237,1116;0,0577972
1238,0758;0,0578538
1239,0400;0,0578923
1240,0043;0,0579091
1240,9685;0,0578985
1241,9327;0,0578547
1242,8970;0,0577735
1243,8612;0,0576525
1244,8254;0,0574908
1245,7897;0,0572889
1246,7539;0,0570492
1247,7181;0,0567772
1248,6824;0,0564815
1249,6466;0,0561725
1250,6108;0,0558602
1251,5751;0,0555506
1252,5393;0,0552438
1253,5035;0,0549349
1254,4678;0,0546161
1255,4320;0,054281
1256,3962;0,0539269
1257,3605;0,0535558
1258,3247;0,053172
1259,2889;0,0527795
1260,2532;0,052379
1261,2174;0,0519676
1262,1816;0,0515401
1263,1459;0,051091
1264,1101;0,0506161
1265,0743;0,0501124
1266,0386;0,0495772
1267,0028;0,0490082
1267,9670;0,0484049
1268,9313;0,0477712
1269,8955;0,0471157
1270,8597;0,0464503
1271,8240;0,0457863
1272,7882;0,0451309
1273,7524;0,0444871
1274,7167;0,0438557
1275,6809;0,0432388
1276,6451;0,0426402
1277,6094;0,0420636
1278,5736;0,0415101
1279,5378;0,0409773
1280,5021;0,0404623
1281,4663;0,0399647
1282,4305;0,0394891
1283,3948;0,0390423
1284,3590;0,0386299
1285,3232;0,0382536
1286,2875;0,0379121
1287,2517;0,0376048
1288,2159;0,0373339
1289,1802;0,037105
1290,1444;0,0369239
1291,1086;0,0367936
1292,0729;0,0367133
1293,0371;0,0366802
1294,0013;0,0366914
1294,9656;0,0367446
1295,9298;0,0368375
1296,8940;0,0369674
1297,8583;0,0371315
1298,8225;0,0373281
1299,7867;0,0375574
1300,7510;0,0378208
1301,7152;0,0381189
1302,6794;0,0384497
1303,6437;0,038809
1304,6079;0,0391914
1305,5721;0,0395916
1306,5364;0,0400055
1307,5006;0,0404294
1308,4648;0,040859
1309,4291;0,0412897
1310,3933;0,0417164
1311,3575;0,0421335
1312,3218;0,0425345
1313,2860;0,0429105
1314,2502;0,0432501
1315,2145;0,0435388
1316,1787;0,0437614
1317,1429;0,0439059
1318,1072;0,0439685
1319,0714;0,0439581
1320,0356;0,0438941
1320,9999;0,0437995
1321,9641;0,0436927
1322,9283;0,0435841
1323,8926;0,0434781
1324,8568;0,0433767
1325,8210;0,0432816
1326,7853;0,0431928
1327,7495;0,0431067
1328,7137;0,043015
1329,6780;0,0429072
1330,6422;0,0427742
1331,6064;0,0426114
1332,5707;0,0424191
1333,5349;0,0422005
1334,4991;0,0419567
1335,4634;0,041684
1336,4276;0,0413752
1337,3918;0,0410261
1338,3561;0,0406461
1339,3203;0,0402622
1340,2845;0,0399088
1341,2488;0,0396094
1342,2130;0,0393678
1343,1772;0,0391742
1344,1415;0,0390169
1345,1057;0,0388903
1346,0699;0,0387979
1347,0342;0,0387509
1347,9984;0,0387621
1348,9626;0,0388387
1349,9269;0,0389771
1350,8911;0,0391646
1351,8553;0,0393856
1352,8196;0,0396296
1353,7838;0,0398948
1354,7480;0,0401852
1355,7123;0,040504
1356,6765;0,0408498
1357,6407;0,0412186
1358,6050;0,0416094
1359,5692;0,0420253
1360,5334;0,0424672
1361,4977;0,0429221
1362,4619;0,0433582
1363,4261;0,0437397
1364,3904;0,0440512
1365,3546;0,0443037
1366,3188;0,0445191
1367,2831;0,0447114
1368,2473;0,044879
1369,2115;0,0450083
1370,1758;0,0450826
1371,1400;0,0450895
1372,1042;0,0450225
1373,0685;0,0448796
1374,0327;0,044665
1374,9969;0,0443895
1375,9612;0,0440641
1376,9254;0,0436898
1377,8896;0,0432552
1378,8539;0,0427456
1379,8181;0,0421588
1380,7823;0,0415162
1381,7466;0,0408557
1382,7108;0,0402088
1383,6750;0,0395817
1384,6393;0,038957
1385,6035;0,0383176
1386,5677;0,0376773
1387,5320;0,0370891
1388,4962;0,036609
1389,4604;0,0362538
1390,4247;0,0359989
1391,3889;0,0358041
1392,3531;0,0356348
1393,3174;0,0354726
1394,2816;0,035319
1395,2458;0,0351921
1396,2101;0,0351141
1397,1743;0,0350975
1398,1385;0,0351405
1399,1028;0,0352307
1400,0670;0,0353529
1401,0313;0,0354951
1401,9955;0,035653
1402,9597;0,0358296
1403,9240;0,036033
1404,8882;0,0362687
1405,8524;0,0365342
1406,8167;0,0368202
1407,7809;0,0371202
1408,7451;0,0374384
1409,7094;0,0377862
1410,6736;0,0381708
1411,6378;0,0385839
1412,6021;0,0390043
1413,5663;0,0394114
1414,5305;0,0397997
1415,4948;0,0401784
1416,4590;0,0405607
1417,4232;0,0409475
1418,3875;0,0413139
1419,3517;0,0416142
1420,3159;0,0418127
1421,2802;0,0419026
1422,2444;0,0418941
1423,2086;0,041798
1424,1729;0,041624
1425,1371;0,0413833
1426,1013;0,0410843
1427,0656;0,0407233
1428,0298;0,0402869
1428,9940;0,0397721
1429,9583;0,0392089
1430,9225;0,0386547
1431,8867;0,0381558
1432,8510;0,037714
1433,8152;0,0372873
1434,7794;0,0368196
1435,7437;0,0362918
1436,7079;0,0357621
1437,6721;0,0353312
1438,6364;0,0350538
1439,6006;0,0349158
1440,5648;0,0348781
1441,5291;0,0349101
1442,4933;0,0349947
1443,4575;0,0351231
1444,4218;0,0352918
1445,3860;0,0355002
1446,3502;0,0357479
1447,3145;0,0360271
1448,2787;0,0363161
1449,2429;0,036583
1450,2072;0,0368028
1451,1714;0,0369698
1452,1356;0,0370938
1453,0999;0,0371837
1454,0641;0,0372334
1455,0283;0,0372193
1455,9926;0,0371276
1456,9568;0,0370037
1457,9210;0,036928
1458,8853;0,0369145
1459,8495;0,0369237
1460,8137;0,0369211
1461,7780;0,0368717
1462,7422;0,0367208
1463,7064;0,0364046
1464,6707;0,0359013
1465,6349;0,0352732
1466,5991;0,0346214
1467,5634;0,0339982
1468,5276;0,0333785
1469,4918;0,0326807
1470,4561;0,0317973
1471,4203;0,0306508
1472,3845;0,0292984
1473,3488;0,0279744
1474,3130;0,0269091
1475,2772;0,0261347
1476,2415;0,0255511
1477,2057;0,0250652
1478,1699;0,0246327
1479,1342;0,0242418
1480,0984;0,0238945
1481,0626;0,0235984
1482,0269;0,0233634
1482,9911;0,0231959
1483,9553;0,0230919
1484,9196;0,0230336
1485,8838;0,0229935
1486,8480;0,0229495
1487,8123;0,0229121
1488,7765;0,0229409
1489,7407;0,023102
1490,7050;0,0233953
1491,6692;0,0237667
1492,6334;0,0241704
1493,5977;0,0245905
1494,5619;0,0250286
1495,5261;0,0254945
1496,4904;0,0260044
1497,4546;0,0265681
1498,4188;0,0271648
1499,3831;0,0277489
1500,3473;0,0282864
1501,3115;0,0287688
1502,2758;0,0291971
1503,2400;0,0295607
1504,2042;0,0298218
1505,1685;0,0299118
1506,1327;0,0297776
1507,0969;0,0294897
1508,0612;0,0292073
1509,0254;0,0289798
1509,9896;0,0287664
1510,9539;0,0285333
1511,9181;0,0282555
1512,8823;0,0279002
1513,8466;0,0274309
1514,8108;0,0268332
1515,7750;0,0261382
1516,7393;0,0254135
1517,7035;0,024714
1518,6677;0,0240439
1519,6320;0,0233723
1520,5962;0,0226939
1521,5604;0,0220669
1522,5247;0,0215727
1523,4889;0,0212407
1524,4531;0,021035
1525,4174;0,0208994
1526,3816;0,0208012
1527,3458;0,0207392
1528,3101;0,0207225
1529,2743;0,0207472
1530,2385;0,0207882
1531,2028;0,0208116
1532,1670;0,0208012
1533,1312;0,0207847
1534,0955;0,0208201
1535,0597;0,0209436
1536,0239;0,0211411
1536,9882;0,0213549
1537,9524;0,0214895
1538,9166;0,0214252
1539,8809;0,0211178
1540,8451;0,0207653
1541,8093;0,020658
1542,7736;0,0208097
1543,7378;0,0210624
1544,7020;0,021313
1545,6663;0,0215303
1546,6305;0,0217125
1547,5947;0,0218629
1548,5590;0,0219817
1549,5232;0,0220666
1550,4874;0,0221203
1551,4517;0,0221578
1552,4159;0,0222032
1553,3801;0,0222752
1554,3444;0,0223707
1555,3086;0,0224536
1556,2728;0,0224536
1557,2371;0,0223091
1558,2013;0,0221036
1559,1655;0,0220739
1560,1298;0,0222689
1561,0940;0,0225411
1562,0582;0,0228095
1563,0225;0,0230715
1563,9867;0,0233354
1564,9509;0,0235962
1565,9152;0,0238399
1566,8794;0,0240591
1567,8436;0,0242697
1568,8079;0,0245079
1569,7721;0,0247983
1570,7363;0,0251296
1571,7006;0,0254755
1572,6648;0,0258236
1573,6290;0,026181
1574,5933;0,0265686
1575,5575;0,0270103
1576,5217;0,0275063
1577,4860;0,0280155
1578,4502;0,0284983
1579,4144;0,0289594
1580,3787;0,0294294
1581,3429;0,0299303
1582,3071;0,0304623
1583,2714;0,0310097
1584,2356;0,0315561
1585,1998;0,0320964
1586,1641;0,0326345
1587,1283;0,033171
1588,0925;0,0336935
1589,0568;0,0341783
1590,0210;0,034599
1590,9852;0,0349346
1591,9495;0,0351711
1592,9137;0,0353002
1593,8779;0,0353207
1594,8422;0,0352428
1595,8064;0,035087
1596,7706;0,0348773
1597,7349;0,0346342
1598,6991;0,0343731
1599,6633;0,034108
1600,6276;0,0338532
1601,5918;0,0336215
1602,5560;0,0334187
1603,5203;0,0332409
1604,4845;0,0330771
1605,4487;0,0329157
1606,4130;0,0327505
1607,3772;0,0325838
1608,3414;0,0324272
1609,3057;0,0322978
1610,2699;0,0322086
1611,2341;0,0321612
1612,1984;0,0321469
1613,1626;0,0321491
1614,1268;0,0321498
1615,0911;0,0321422
1616,0553;0,0321445
1617,0195;0,0321835
1617,9838;0,0322588
1618,9480;0,0323488
1619,9122;0,0324396
1620,8765;0,0325297
1621,8407;0,0326216
1622,8049;0,032719
1623,7692;0,032824
1624,7334;0,0329333
1625,6976;0,0330398
1626,6619;0,0331396
1627,6261;0,0332348
1628,5903;0,0333301
1629,5546;0,0334303
1630,5188;0,0335378
1631,4830;0,0336487
1632,4473;0,0337445
1633,4115;0,0337898
1634,3757;0,033753
1635,3400;0,0336574
1636,3042;0,0335841
1637,2684;0,0335762
1638,2327;0,0336057
1639,1969;0,0336402
1640,1611;0,0336733
1641,1254;0,0337114
1642,0896;0,0337562
1643,0538;0,0337908
1644,0181;0,0337719
1644,9823;0,0336478
1645,9465;0,0334183
1646,9108;0,0331762
1647,8750;0,0330303
1648,8392;0,0330077
1649,8035;0,0330578
1650,7677;0,0330809
1651,7319;0,0329411
1652,6962;0,032562
1653,6604;0,0320844
1654,6246;0,0317147
1655,5889;0,0314691
1656,5531;0,0312837
1657,5173;0,0311209
1658,4816;0,0309543
1659,4458;0,0307477
1660,4100;0,0304632
1661,3743;0,0300945
1662,3385;0,0296925
1663,3027;0,0293337
1664,2670;0,0290563
1665,2312;0,0288395
1666,1954;0,0286212
1667,1597;0,0283236
1668,1239;0,0278924
1669,0881;0,0273564
1670,0524;0,0268386
1671,0166;0,0264519
1671,9808;0,0262
1672,9451;0,0260036
1673,9093;0,0257779
1674,8735;0,025485
1675,8378;0,0251524
1676,8020;0,0248463
1677,7662;0,0246169
1678,7305;0,024472
1679,6947;0,0243794
1680,6589;0,0242711
1681,6232;0,0240444
1682,5874;0,0236092
1683,5516;0,0230078
1684,5159;0,0224474
1685,4801;0,0220796
1686,4443;0,0218778
1687,4086;0,0217619
1688,3728;0,0216879
1689,3370;0,0216468
1690,3013;0,0216424
1691,2655;0,0216729
1692,2297;0,0217209
1693,1940;0,0217536
1694,1582;0,0217342
1695,1224;0,0216432
1696,0867;0,0214993
1697,0509;0,0213605
1698,0151;0,0212907
1698,9794;0,0213131
1699,9436;0,0213975
1700,9078;0,0214975
1701,8721;0,021596
1702,8363;0,0217125
1703,8005;0,0218808
1704,7648;0,0221251
1705,7290;0,0224459
1706,6932;0,0228186
1707,6575;0,0232081
1708,6217;0,0235915
1709,5859;0,0239677
1710,5502;0,0243451
1711,5144;0,0247266
1712,4786;0,0251033
1713,4429;0,0254633
1714,4071;0,0258123
1715,3713;0,0261959
1716,3356;0,0266873
1717,2998;0,0272994
1718,2640;0,0279306
1719,2283;0,0284744
1720,1925;0,0289188
1721,1567;0,0293127
1722,1210;0,0297023
1723,0852;0,0301048
1724,0494;0,0305095
1725,0137;0,030892
1725,9779;0,0312316
1726,9421;0,0315212
1727,9064;0,0317668
1728,8706;0,0319793
1729,8348;0,0321629
1730,7991;0,0323053
1731,7633;0,0323771
1732,7275;0,0323494
1733,6918;0,0322227
1734,6560;0,032026
1735,6202;0,0317845
1736,5845;0,0315023
1737,5487;0,0311653
1738,5129;0,0307513
1739,4772;0,030247
1740,4414;0,0296664
1741,4056;0,0290468
1742,3699;0,0284205
1743,3341;0,0277941
1744,2983;0,0271579
1745,2626;0,0265023
1746,2268;0,0258191
1747,1910;0,0250919
1748,1553;0,0242984
1749,1195;0,0234404
1750,0837;0,0225727
1751,0480;0,0217755
1752,0122;0,0210913
1752,9764;0,0205013
1753,9407;0,0199542
1754,9049;0,0194043
1755,8691;0,0188379
1756,8334;0,0182766
1757,7976;0,0177532
1758,7618;0,0172765
1759,7261;0,01682
1760,6903;0,0163504
1761,6545;0,0158664
1762,6188;0,0154076
1763,5830;0,0150214
1764,5472;0,0147249
1765,5115;0,0144981
1766,4757;0,0143019
1767,4399;0,0140971
1768,4042;0,013853
1769,3684;0,0135498
1770,3326;0,0131847
1771,2969;0,0127883
1772,2611;0,0124298
1773,2253;0,0121794
1774,1896;0,012057
1775,1538;0,0120293
1776,1180;0,0120428
1777,0823;0,0120498
1778,0465;0,0120197
1779,0107;0,0119468
1779,9750;0,0118498
1780,9392;0,0117568
1781,9034;0,0116827
1782,8677;0,0116232
1783,8319;0,0115696
1784,7961;0,0115256
1785,7604;0,0115073
1786,7246;0,0115282
1787,6888;0,011582
1788,6531;0,0116355
1789,6173;0,0116374
1790,5815;0,0115443
1791,5458;0,0113633
1792,5100;0,0111671
1793,4742;0,0110375
1794,4385;0,0109989
1795,4027;0,011022
1796,3669;0,0110639
1797,3312;0,0110915
1798,2954;0,0110872
1799,2596;0,0110515
1800,2239;0,0109995
1801,1881;0,0109497
1802,1523;0,0109139
1803,1166;0,0108966
1804,0808;0,0108994
1805,0450;0,0109215
1806,0093;0,0109555
1806,9735;0,0109849
1807,9377;0,0109893
1808,9020;0,0109554
1809,8662;0,0108891
1810,8304;0,0108157
1811,7947;0,0107642
1812,7589;0,0107484
1813,7231;0,0107605
1814,6874;0,0107793
1815,6516;0,0107842
1816,6158;0,0107674
1817,5801;0,0107385
1818,5443;0,0107189
1819,5085;0,0107259
1820,4728;0,0107606
1821,4370;0,0108079
1822,4012;0,010845
1823,3655;0,010854
1824,3297;0,01083
1825,2939;0,0107784
1826,2582;0,0107063
1827,2224;0,0106173
1828,1866;0,0105187
1829,1509;0,0104336
1830,1151;0,0103968
1831,0793;0,01043
1832,0436;0,0105206
1833,0078;0,0106306
1833,9720;0,010718
1834,9363;0,0107543
1835,9005;0,010737
1836,8647;0,0106949
1837,8290;0,0106733
1838,7932;0,0107052
1839,7574;0,0107896
1840,7217;0,0108921
1841,6859;0,0109601
1842,6501;0,0109468
1843,6144;0,0108427
1844,5786;0,0106887
1845,5428;0,0105453
1846,5071;0,0104474
1847,4713;0,0103972
1848,4355;0,010383
1849,3998;0,010394
1850,3640;0,0104237
1851,3282;0,0104664
1852,2925;0,0105137
1853,2567;0,0105551
1854,2209;0,0105822
1855,1852;0,0105933
1856,1494;0,0105935
1857,1136;0,0105909
1858,0779;0,0105898
1859,0421;0,0105893
1860,0063;0,0105856
1860,9706;0,0105777
1861,9348;0,0105703
1862,8990;0,0105703
1863,8633;0,0105811
1864,8275;0,0105984
1865,7917;0,0106117
1866,7560;0,0106119
1867,7202;0,0106006
1868,6844;0,0105891
1869,6487;0,010585
1870,6129;0,0105836
1871,5771;0,0105771
1872,5414;0,0105626
1873,5056;0,0105424
1874,4698;0,0105197
1875,4341;0,0104979
1876,3983;0,0104815
1877,3625;0,0104769
1878,3268;0,0104913
1879,2910;0,0105291
1880,2552;0,0105878
1881,2195;0,0106561
1882,1837;0,0107173
1883,1479;0,0107573
1884,1122;0,0107725
1885,0764;0,0107704
1886,0406;0,0107635
1887,0049;0,0107605
1887,9691;0,0107605
1888,9333;0,0107554
1889,8976;0,0107368
1890,8618;0,0107041
1891,8260;0,010666
1892,7903;0,0106364
1893,7545;0,0106267
1894,7188;0,0106414
1895,6830;0,0106768
1896,6472;0,0107234
1897,6115;0,0107713
1898,5757;0,0108144
1899,5399;0,0108516
1900,5042;0,0108834
1901,4684;0,0109082
1902,4326;0,0109201
1903,3969;0,0109118
1904,3611;0,0108803
1905,3253;0,010833
1906,2896;0,0107883
1907,2538;0,0107685
1908,2180;0,0107884
1909,1823;0,010843
1910,1465;0,0109073
1911,1107;0,010951
1912,0750;0,0109579
1913,0392;0,010935
1914,0034;0,0109045
1914,9677;0,0108887
1915,9319;0,0108957
1916,8961;0,0109145
1917,8604;0,0109224
1918,8246;0,0109032
1919,7888;0,0108624
1920,7531;0,0108261
1921,7173;0,010823
1922,6815;0,010865
1923,6458;0,0109362
1924,6100;0,0110016
1925,5742;0,0110294
1926,5385;0,0110109
1927,5027;0,0109624
1928,4669;0,0109103
1929,4312;0,0108736
1930,3954;0,0108538
1931,3596;0,0108392
1932,3239;0,0108197
1933,2881;0,0107983
1934,2523;0,0107914
1935,2166;0,0108147
1936,1808;0,0108692
1937,1450;0,0109381
1938,1093;0,010998
1939,0735;0,011034
1940,0377;0,0110484
1941,0020;0,0110574
1941,9662;0,0110795
1942,9304;0,0111216
1943,8947;0,0111763
1944,8589;0,0112309
1945,8231;0,0112785
1946,7874;0,0113187
1947,7516;0,0113503
1948,7158;0,0113658
1949,6801;0,0113548
1950,6443;0,0113123
1951,6085;0,0112447
1952,5728;0,0111651
1953,5370;0,0110825
1954,5012;0,010993
1955,4655;0,0108845
1956,4297;0,0107555
1957,3939;0,0106338
1958,3582;0,0105802
1959,3224;0,0106671
1960,2866;0,0109366
1961,2509;0,0113666
1962,2151;0,0118696
1963,1793;0,0123283
1964,1436;0,0126459
1965,1078;0,0127816
1966,0720;0,0127612
1967,0363;0,0126561
1968,0005;0,0125414
1968,9647;0,0124556
1969,9290;0,0123914
1970,8932;0,012321
1971,8574;0,0122338
1972,8217;0,0121598
1973,7859;0,0121624
1974,7501;0,0122961
1975,7144;0,0125524
1976,6786;0,0128349
1977,6428;0,0130007
1978,6071;0,0129501
1979,5713;0,0126969
1980,5355;0,0123615
1981,4998;0,0121001
1982,4640;0,0120219
1983,4282;0,0121414
1984,3925;0,0123814
1985,3567;0,0126214
1986,3209;0,0127616
1987,2852;0,0127685
1988,2494;0,0126746
1989,2136;0,0125435
1990,1779;0,0124279
1991,1421;0,0123474
1992,1063;0,0122967
1993,0706;0,0122703
1994,0348;0,012281
1994,9990;0,0123562
1995,9633;0,0125175
1996,9275;0,0127604
1997,8917;0,0130475
1998,8560;0,0133191
1999,8202;0,0135177
2000,7844;0,0136122
2001,7487;0,0136088
2002,7129;0,0135467
2003,6771;0,0134815
2004,6414;0,0134682
2005,6056;0,013543
2006,5698;0,0137091
2007,5341;0,013931
2008,4983;0,014145
2009,4625;0,0142845
2010,4268;0,0143076
2011,3910;0,0142118
2012,3552;0,0140305
2013,3195;0,0138175
2014,2837;0,0136283
2015,2479;0,0135088
2016,2122;0,0134902
2017,1764;0,013586
2018,1406;0,0137852
2019,1049;0,0140465
2020,0691;0,0143031
2021,0333;0,0144811
2021,9976;0,0145291
2022,9618;0,0144433
2023,9260;0,0142724
2024,8903;0,0140945
2025,8545;0,0139764
2026,8187;0,0139428
2027,7830;0,0139759
2028,7472;0,0140431
2029,7114;0,0141308
2030,6757;0,0142574
2031,6399;0,0144555
2032,6041;0,0147341
2033,5684;0,0150479
2034,5326;0,0152989
2035,4968;0,0153738
2036,4611;0,0152005
2037,4253;0,0147886
2038,3895;0,0142353
2039,3538;0,0136934
2040,3180;0,0133144
2041,2822;0,0131883
2042,2465;0,0133095
2043,2107;0,01359
2044,1749;0,0139101
2045,1392;0,014173
2046,1034;0,0143327
2047,0676;0,0143888
2048,0320;0,0143612
2048,9961;0,0142683
2049,9604;0,0141209
2050,9246;0,0139305
2051,8889;0,0137186
2052,8530;0,0135169
2053,8174;0,0133601
2054,7815;0,0132725
2055,7458;0,0132579
2056,7100;0,0132958
2057,6743;0,01335
2058,6384;0,0133831
2059,6028;0,0133722
2060,5669;0,0133175
2061,5313;0,0132404
2062,4954;0,0131715
2063,4597;0,0131335
2064,4238;0,013129
2065,3882;0,0131405
2066,3523;0,0131413
2067,3167;0,0131107
2068,2808;0,013044
2069,2451;0,012953
2070,2092;0,0128603
2071,1736;0,0127925
2072,1377;0,0127729
2073,1021;0,0128146
2074,0662;0,0129128
2075,0305;0,0130431
2075,9946;0,0131676
2076,9590;0,01325
2077,9231;0,0132727
2078,8875;0,0132443
2079,8516;0,0131932
2080,8159;0,013149
2081,7800;0,0131267
2082,7444;0,0131217
2083,7085;0,0131189
2084,6729;0,0131063
2085,6370;0,013082
2086,6013;0,0130504
2087,5654;0,0130122
2088,5298;0,0129593
2089,4939;0,0128818
2090,4583;0,0127821
2091,4224;0,0126842
2092,3867;0,0126283
2093,3508;0,0126495
2094,3152;0,0127544
2095,2793;0,01291
2096,2437;0,0130578
2097,2078;0,0131446
2098,1721;0,0131507
2099,1362;0,0130964
2100,1006;0,0130245
2101,0647;0,0129755
2102,0291;0,0129656
2102,9932;0,0129859
2103,9575;0,0130137
2104,9216;0,0130292
2105,8860;0,0130266
2106,8501;0,0130157
2107,8145;0,0130143
2108,7786;0,0130358
2109,7429;0,0130784
2110,7070;0,0131226
2111,6714;0,0131396
2112,6355;0,0131086
2113,5999;0,0130332
2114,5640;0,0129445
2115,5283;0,0128884
2116,4924;0,0128995
2117,4568;0,0129808
2118,4209;0,0130995
2119,3853;0,0132039
2120,3494;0,0132501
2121,3137;0,0132227
2122,2778;0,0131384
2123,2422;0,0130343
2124,2063;0,0129501
2125,1707;0,012915
2126,1348;0,0129406
2127,0991;0,0130187
2128,0632;0,0131225
2129,0276;0,0132144
2129,9917;0,0132618
2130,9561;0,0132575
2131,9202;0,0132307
2132,8845;0,0132367
2133,8486;0,0133242
2134,8130;0,0134991
2135,7771;0,0137118
2136,7415;0,0138833
2137,7056;0,0139526
2138,6699;0,0139108
2139,6340;0,0137981
2140,5984;0,0136757
2141,5625;0,0135959
2142,5269;0,0135923
2143,4910;0,0136879
2144,4553;0,0139026
2145,4194;0,0142457
2146,3838;0,0146959
2147,3479;0,0151895
2148,3123;0,0156346
2149,2764;0,015948
2150,2407;0,0160914
2151,2048;0,0160832
2152,1692;0,0159812
2153,1333;0,0158501
2154,0977;0,0157381
2155,0618;0,0156724
2156,0261;0,0156711
2156,9902;0,0157508
2157,9546;0,0159172
2158,9187;0,0161441
2159,8831;0,0163682
2160,8472;0,0165169
2161,8115;0,0165492
2162,7756;0,0164723
2163,7400;0,0163279
2164,7041;0,016161
2165,6685;0,0159915
2166,6326;0,015807
2167,5969;0,0155811
2168,5610;0,0153041
2169,5254;0,0150041
2170,4895;0,014741
2171,4539;0,014577
2172,4180;0,014543
2173,3823;0,0146218
2174,3464;0,0147607
2175,3108;0,0149034
2176,2749;0,0150189
2177,2393;0,015106
2178,2034;0,0151743
2179,1677;0,0152192
2180,1318;0,0152121
2181,0962;0,0151125
2182,0603;0,014896
2183,0247;0,0145786
2183,9888;0,014223
2184,9531;0,0139201
2185,9172;0,0137547
2186,8816;0,0137709
2187,8457;0,0139507
2188,8101;0,0142161
2189,7742;0,0144584
2190,7385;0,0145834
2191,7026;0,0145528
2192,6670;0,0143976
2193,6311;0,0141986
2194,5955;0,0140413
2195,5596;0,0139737
2196,5239;0,0139876
2197,4880;0,0140322
2198,4524;0,0140482
2199,4165;0,0140026
2200,3809;0,0139052
2201,3450;0,0137993
2202,3093;0,0137352
2203,2734;0,0137398
2204,2378;0,0138009
2205,2019;0,0138727
2206,1663;0,0139017
2207,1304;0,013855
2208,0947;0,0137366
2209,0588;0,0135791
2210,0232;0,0134195
2210,9873;0,0132778
2211,9517;0,0131528
2212,9158;0,0130384
2213,8801;0,0129429
2214,8442;0,0128926
2215,8086;0,0129144
2216,7727;0,0130095
2217,7371;0,0131433
2218,7012;0,0132608
2219,6655;0,0133195
2220,6296;0,0133131
2221,5940;0,0132707
2222,5581;0,0132308
2223,5225;0,0132129
2224,4866;0,0132071
2225,4509;0,0131874
2226,4150;0,0131366
2227,3794;0,0130604
2228,3435;0,012983
2229,3079;0,012928
2230,2720;0,0129026
2231,2363;0,0128961
2232,2004;0,0128934
2233,1648;0,0128906
2234,1289;0,0128993
2235,0933;0,0129361
2236,0574;0,0130036
2237,0217;0,0130792
2237,9858;0,0131206
2238,9502;0,0130876
2239,9143;0,0129684
2240,8787;0,0127926
2241,8428;0,0126201
2242,8071;0,0125117
2243,7712;0,0124965
2244,7356;0,0125576
2245,6997;0,0126442
2246,6641;0,0127017
2247,6282;0,0127015
2248,5925;0,0126519
2249,5566;0,0125866
2250,5210;0,0125421
2251,4851;0,0125376
2252,4495;0,0125694
2253,4136;0,0126166
2254,3779;0,0126529
2255,3420;0,0126561
2256,3064;0,0126148
2257,2705;0,0125306
2258,2349;0,0124186
2259,1990;0,0123039
2260,1633;0,012213
2261,1274;0,0121636
2262,0918;0,0121576
2263,0559;0,0121821
2264,0203;0,0122192
2264,9844;0,0122558
2265,9487;0,012289
2266,9128;0,012321
2267,8772;0,0123508
2268,8413;0,0123687
2269,8057;0,0123601
2270,7698;0,0123151
2271,7341;0,0122374
2272,6982;0,0121458
2273,6626;0,012066
2274,6267;0,012018
2275,5911;0,0120072
2276,5552;0,0120241
2277,5195;0,0120512
2278,4836;0,0120736
2279,4480;0,0120847
2280,4121;0,0120853
2281,3765;0,0120786
2282,3406;0,0120646
2283,3049;0,0120396
2284,2690;0,0119998
2285,2334;0,0119464
2286,1975;0,0118889
2287,1619;0,0118417
2288,1260;0,0118181
2289,0903;0,0118226
2290,0544;0,0118484
2291,0188;0,0118801
2291,9829;0,011903
2292,9473;0,0119113
2293,9114;0,0119121
2294,8757;0,0119206
2295,8398;0,011951
2296,8042;0,0120069
2297,7683;0,0120791
2298,7327;0,0121504
2299,6968;0,0122057
2300,6611;0,0122399
2301,6252;0,0122576
2302,5896;0,0122683
2303,5537;0,0122792
2304,5181;0,0122917
2305,4822;0,0123044
2306,4465;0,0123175
2307,4106;0,0123355
2308,3750;0,012366
2309,3391;0,0124148
2310,3035;0,0124815
2311,2676;0,0125584
2312,2319;0,0126336
2313,1960;0,0126953
2314,1604;0,012736
2315,1245;0,0127556
2316,0889;0,0127608
2317,0530;0,0127635
2318,0173;0,0127754
2318,9814;0,0128005
2319,9458;0,0128272
2320,9099;0,0128271
2321,8743;0,012766
2322,8384;0,0126252
2323,8027;0,0124172
2324,7668;0,0121839
2325,7312;0,0119789
2326,6953;0,0118463
2327,6597;0,0118039
2328,6238;0,0118361
2329,5881;0,0118985
2330,5522;0,0119356
2331,5166;0,0119061
2332,4807;0,0117996
2333,4451;0,011633
2334,4092;0,0114345
2335,3735;0,0112288
2336,3376;0,0110343
2337,3020;0,0108674
2338,2661;0,0107444
2339,2305;0,0106753
2340,1946;0,0106577
2341,1589;0,0106807
2342,1230;0,0107404
2343,0874;0,0108441
2344,0515;0,0109858
2345,0159;0,0111271
2345,9800;0,0112257
2346,9443;0,0112761
2347,9084;0,0113054
2348,8728;0,0113418
2349,8369;0,0113933
2350,8013;0,0114477
2351,7654;0,0114915
2352,7297;0,0115328
2353,6938;0,0115999
2354,6582;0,0116993
2355,6223;0,011778
2356,5867;0,0117532
2357,5508;0,0115821
2358,5151;0,011298
2359,4792;0,0109831
2360,4436;0,0107128
2361,4077;0,0105222
2362,3721;0,0104149
2363,3362;0,0103865
2364,3005;0,0104331
2365,2646;0,010547
2366,2290;0,0107159
2367,1931;0,0109256
2368,1575;0,0111607
2369,1216;0,0113994
2370,0859;0,011612
2371,0500;0,0117704
2372,0144;0,0118619
2372,9785;0,011896
2373,9429;0,0118979
2374,9070;0,0118927
2375,8713;0,0118927
2376,8354;0,0118954
2377,7998;0,011891
2378,7639;0,0118734
2379,7283;0,0118458
2380,6924;0,0118185
2381,6567;0,0118024
2382,6208;0,0118031
2383,5852;0,0118192
2384,5493;0,011844
2385,5137;0,0118694
2386,4778;0,0118883
2387,4421;0,0118962
2388,4063;0,0118911
2389,3706;0,0118742
2390,3347;0,0118502
2391,2991;0,0118262
2392,2632;0,0118095
2393,2275;0,0118043
2394,1917;0,0118109
2395,1560;0,0118277
2396,1201;0,0118537
2397,0845;0,0118894
2398,0486;0,0119348
2399,0129;0,0119858
2399,9771;0,0120329
2400,9414;0,0120642
2401,9055;0,0120716
2402,8699;0,012056
2403,8340;0,012028
2404,7983;0,0120026
2405,7625;0,0119921
2406,7268;0,012001
2407,6909;0,0120257
2408,6553;0,0120579
2409,6194;0,0120893
2410,5837;0,0121139
2411,5479;0,0121291
2412,5122;0,0121357
2413,4763;0,0121384
2414,4407;0,0121452
2415,4048;0,0121648
2416,3691;0,0122026
2417,3333;0,012256
2418,2976;0,0123138
2419,2617;0,0123601
2420,2261;0,0123817
2421,1902;0,0123747
2422,1545;0,0123474
2423,1187;0,0123166
2424,0830;0,0123013
2425,0471;0,012315
2426,0115;0,0123614
2426,9756;0,0124339
2427,9399;0,0125176
2428,9041;0,0125945
2429,8684;0,0126488
2430,8325;0,012672
2431,7969;0,0126656
2432,7610;0,0126403
2433,7253;0,0126112
2434,6895;0,0125914
2435,6538;0,012587
2436,6179;0,0125967
2437,5823;0,0126148
2438,5464;0,0126363
2439,5107;0,0126595
2440,4749;0,0126852
2441,4392;0,0127134
2442,4033;0,0127414
2443,3677;0,0127646
2444,3318;0,0127796
2445,2961;0,0127865
2446,2603;0,0127878
2447,2246;0,0127862
2448,1887;0,0127814
2449,1531;0,012771
2450,1172;0,0127541
2451,0815;0,0127348
2452,0457;0,0127232
2453,0100;0,0127313
2453,9741;0,0127655
2454,9385;0,0128225
2455,9026;0,0128885
2456,8669;0,0129455
2457,8311;0,0129788
2458,7954;0,0129832
2459,7595;0,0129643
2460,7239;0,0129345
2461,6880;0,012907
2462,6523;0,0128917
2463,6165;0,0128925
2464,5808;0,0129086
2465,5449;0,0129365
2466,5093;0,0129713
2467,4734;0,0130077
2468,4377;0,0130408
2469,4019;0,0130668
2470,3662;0,0130834
2471,3303;0,0130905
2472,2947;0,0130892
2473,2588;0,0130809
2474,2231;0,0130672
2475,1873;0,0130502
2476,1516;0,013034
2477,1157;0,0130236
2478,0801;0,0130236
2479,0442;0,0130351
2480,0085;0,0130553
2480,9727;0,0130787
2481,9370;0,0131013
2482,9011;0,0131238
2483,8655;0,013151
2484,8296;0,013188
2485,7939;0,0132347
2486,7581;0,013283
2487,7224;0,0133199
2488,6865;0,0133344
2489,6509;0,0133257
2490,6150;0,0133046
2491,5793;0,0132881
2492,5435;0,0132885
2493,5078;0,0133054
2494,4719;0,0133254
2495,4363;0,0133303
2496,4004;0,0133098
2497,3647;0,0132692
2498,3289;0,0132265
2499,2932;0,0132034
2500,2573;0,0132126
2501,2217;0,0132518
2502,1858;0,0133062
2503,1501;0,0133571
2504,1143;0,0133903
2505,0786;0,0134015
2506,0427;0,0133954
2507,0071;0,0133823
2507,9712;0,0133729
2508,9355;0,0133745
2509,8997;0,0133888
2510,8640;0,013412
2511,8281;0,0134363
2512,7925;0,0134536
2513,7566;0,0134588
2514,7209;0,0134516
2515,6851;0,0134359
2516,6494;0,0134176
2517,6135;0,0134027
2518,5779;0,0133953
2519,5420;0,0133969
2520,5063;0,0134071
2521,4705;0,0134224
2522,4348;0,0134377
2523,3989;0,0134476
2524,3633;0,0134491
2525,3274;0,0134432
2526,2917;0,0134351
2527,2559;0,0134319
2528,2202;0,0134388
2529,1843;0,0134568
2530,1487;0,0134824
2531,1128;0,0135095
2532,0771;0,0135331
2533,0413;0,0135512
2534,0056;0,0135655
2534,9697;0,0135792
2535,9341;0,0135935
2536,8982;0,0136064
2537,8625;0,0136127
2538,8267;0,0136083
2539,7910;0,0135934
2540,7551;0,0135738
2541,7195;0,0135585
2542,6836;0,0135538
2543,6479;0,0135596
2544,6121;0,013569
2545,5764;0,0135729
2546,5405;0,0135661
2547,5049;0,0135505
2548,4690;0,0135343
2549,4333;0,0135272
2550,3975;0,0135345
2551,3618;0,0135553
2552,3259;0,0135839
2553,2903;0,0136136
2554,2544;0,0136399
2555,2188;0,0136618
2556,1829;0,0136808
2557,1472;0,013699
2558,1113;0,013717
2559,0757;0,0137323
2560,0398;0,0137404
2561,0042;0,0137364
2561,9683;0,0137183
2562,9326;0,0136886
2563,8967;0,0136548
2564,8611;0,0136266
2565,8252;0,0136117
2566,7896;0,0136123
2567,7537;0,0136257
2568,7180;0,0136457
2569,6821;0,0136663
2570,6465;0,0136832
2571,6106;0,013694
2572,5750;0,0136976
2573,5391;0,0136939
2574,5034;0,013685
2575,4675;0,0136753
2576,4319;0,0136709
2577,3960;0,0136762
2578,3604;0,0136926
2579,3245;0,0137179
2580,2888;0,0137486
2581,2529;0,0137821
2582,2173;0,0138165
2583,1814;0,0138498
2584,1458;0,0138786
2585,1099;0,0139
2586,0742;0,0139131
2587,0383;0,0139209
2588,0027;0,0139282
2588,9668;0,0139366
2589,9312;0,0139433
2590,8953;0,0139426
2591,8596;0,0139322
2592,8237;0,0139175
2593,7881;0,0139107
2594,7522;0,0139225
2595,7166;0,0139545
2596,6807;0,0139968
2597,6450;0,014033
2598,6091;0,0140506
2599,5735;0,0140474
2600,5376;0,0140315
2601,5020;0,0140151
2602,4661;0,0140074
2603,4304;0,0140119
2604,3945;0,0140269
2605,3589;0,0140489
2606,3230;0,0140742
2607,2874;0,014099
2608,2515;0,0141196
2609,2158;0,0141336
2610,1799;0,0141416
2611,1443;0,0141477
2612,1084;0,0141569
2613,0728;0,0141723
2614,0369;0,0141931
2615,0012;0,014216
2615,9653;0,0142379
2616,9297;0,0142576
2617,8938;0,0142759
2618,8582;0,0142935
2619,8223;0,0143102
2620,7866;0,0143248
2621,7507;0,0143372
2622,7151;0,0143483
2623,6792;0,0143597
2624,6436;0,0143719
2625,6077;0,0143837
2626,5720;0,014394
2627,5361;0,0144032
2628,5005;0,0144146
2629,4646;0,0144324
2630,4290;0,014458
2631,3931;0,0144882
2632,3574;0,0145157
2633,3215;0,0145332
2634,2859;0,0145373
2635,2500;0,014531
2636,2144;0,0145225
2637,1785;0,0145203
2638,1428;0,0145298
2639,1069;0,0145508
2640,0713;0,0145784
2641,0354;0,0146065
2641,9998;0,0146302
2642,9639;0,014648
2643,9282;0,0146612
2644,8923;0,0146728
2645,8567;0,0146851
2646,8208;0,0146992
2647,7852;0,0147143
2648,7493;0,0147285
2649,7136;0,0147402
2650,6777;0,0147487
2651,6421;0,0147555
2652,6062;0,0147635
2653,5706;0,0147753
2654,5347;0,0147924
2655,4990;0,0148131
2656,4631;0,0148336
2657,4275;0,0148496
2658,3916;0,0148584
2659,3560;0,0148602
2660,3201;0,0148581
2661,2844;0,0148562
2662,2485;0,0148575
2663,2129;0,0148631
2664,1770;0,0148722
2665,1414;0,0148829
2666,1055;0,0148935
2667,0698;0,0149028
2668,0339;0,0149105
2668,9983;0,0149169
2669,9624;0,0149232
2670,9268;0,0149317
2671,8909;0,0149448
2672,8552;0,014964
2673,8193;0,0149885
2674,7837;0,0150154
2675,7478;0,0150404
2676,7122;0,0150607
2677,6763;0,0150763
2678,6406;0,0150902
2679,6047;0,0151066
2680,5691;0,015128
2681,5332;0,0151538
2682,4976;0,0151804
2683,4617;0,0152035
2684,4260;0,0152206
2685,3901;0,015233
2686,3545;0,0152446
2687,3186;0,0152599
2688,2830;0,015281
2689,2471;0,0153066
2690,2114;0,0153324
2691,1755;0,0153542
2692,1399;0,0153702
2693,1040;0,0153819
2694,0684;0,0153932
2695,0325;0,0154078
2695,9968;0,0154271
2696,9609;0,0154499
2697,9253;0,0154737
2698,8894;0,015496
2699,8538;0,0155163
2700,8179;0,0155355
2701,7822;0,0155547
2702,7463;0,0155747
2703,7107;0,0155956
2704,6748;0,0156176
2705,6392;0,0156411
2706,6033;0,0156673
2707,5676;0,0156972
2708,5317;0,0157304
2709,4961;0,0157655
2710,4602;0,0158001
2711,4246;0,0158319
2712,3887;0,0158593
2713,3530;0,0158819
2714,3171;0,0159006
2715,2815;0,015917
2716,2456;0,015933
2717,2100;0,0159504
2718,1741;0,0159698
2719,1384;0,0159904
2720,1025;0,0160101
2721,0669;0,0160262
2722,0310;0,0160373
2722,9954;0,016044
2723,9595;0,0160494
2724,9238;0,0160585
2725,8879;0,0160758
2726,8523;0,0161032
2727,8164;0,0161389
2728,7808;0,0161776
2729,7449;0,0162128
2730,7092;0,0162393
2731,6733;0,0162552
2732,6377;0,0162626
2733,6018;0,016266
2734,5662;0,0162695
2735,5303;0,0162755
2736,4946;0,0162835
2737,4587;0,0162921
2738,4231;0,0163006
2739,3872;0,0163103
2740,3516;0,0163241
2741,3157;0,0163436
2742,2800;0,0163674
2743,2441;0,0163904
2744,2085;0,0164062
2745,1726;0,0164106
2746,1370;0,0164047
2747,1011;0,0163952
2748,0654;0,0163923
2749,0295;0,0164045
2749,9939;0,0164353
2750,9580;0,0164811
2751,9224;0,0165337
2752,8865;0,0165831
2753,8508;0,0166213
2754,8149;0,0166444
2755,7793;0,0166532
2756,7434;0,0166518
2757,7078;0,0166468
2758,6719;0,0166445
2759,6362;0,0166499
2760,6003;0,0166645
2761,5647;0,0166864
2762,5288;0,0167112
2763,4932;0,016735
2764,4573;0,0167561
2765,4216;0,0167762
2766,3857;0,0167996
2767,3501;0,0168295
2768,3142;0,016866
2769,2786;0,0169048
2770,2427;0,016939
2771,2070;0,0169631
2772,1711;0,016976
2773,1355;0,0169826
2774,0996;0,0169915
2775,0640;0,0170108
2776,0281;0,0170437
2776,9924;0,0170876
2777,9565;0,0171354
2778,9209;0,0171799
2779,8850;0,0172172
2780,8494;0,0172483
2781,8135;0,0172771
2782,7778;0,0173072
2783,7419;0,0173395
2784,7063;0,0173721
2785,6704;0,0174017
2786,6348;0,0174266
2787,5989;0,0174479
2788,5632;0,0174694
2789,5273;0,0174955
2790,4917;0,0175303
2791,4558;0,0175753
2792,4202;0,0176294
2793,3843;0,017689
2794,3486;0,0177492
2795,3127;0,0178053
2796,2771;0,0178549
2797,2412;0,0178982
2798,2056;0,017939
2799,1697;0,0179826
2800,1340;0,0180346
2801,0981;0,0180985
2802,0625;0,0181746
2803,0266;0,0182595
2803,9910;0,018346
2804,9551;0,0184252
2805,9194;0,0184894
2806,8835;0,0185357
2807,8479;0,0185687
2808,8120;0,0185998
2809,7764;0,0186429
2810,7405;0,0187083
2811,7048;0,018798
2812,6689;0,0189056
2813,6333;0,0190202
2814,5974;0,0191317
2815,5618;0,0192353
2816,5259;0,0193318
2817,4902;0,0194245
2818,4543;0,0195165
2819,4187;0,0196085
2820,3828;0,0197
2821,3472;0,019791
2822,3113;0,0198838
2823,2756;0,0199831
2824,2397;0,0200936
2825,2041;0,0202188
2826,1682;0,0203589
2827,1326;0,0205111
2828,0967;0,020671
2829,0610;0,0208349
2830,0251;0,0210018
2830,9895;0,0211738
2831,9536;0,0213548
2832,9180;0,0215479
2833,8821;0,0217533
2834,8464;0,0219684
2835,8105;0,0221897
2836,7749;0,0224159
2837,7390;0,02265
2838,7034;0,0228988
2839,6675;0,0231717
2840,6318;0,0234772
2841,5959;0,0238217
2842,5603;0,0242083
2843,5244;0,0246351
2844,4888;0,0250933
2845,4529;0,0255642
2846,4172;0,0260189
2847,3813;0,0264221
2848,3457;0,0267405
2849,3098;0,0269525
2850,2742;0,0270543
2851,2383;0,0270602
2852,2026;0,026996
2853,1667;0,0268908
2854,1311;0,0267698
2855,0952;0,026651
2856,0596;0,0265454
2857,0237;0,0264581
2857,9880;0,0263903
2858,9521;0,0263413
2859,9165;0,0263101
2860,8806;0,0262981
2861,8450;0,02631
2862,8091;0,0263514
2863,7734;0,026425
2864,7375;0,0265275
2865,7019;0,0266479
2866,6660;0,0267713
2867,6304;0,026884
2868,5945;0,0269781
2869,5588;0,0270529
2870,5229;0,0271133
2871,4873;0,0271663
2872,4514;0,0272176
2873,4158;0,0272703
2874,3799;0,0273243
2875,3442;0,0273776
2876,3083;0,0274274
2877,2727;0,027472
2878,2368;0,0275119
2879,2012;0,0275504
2880,1653;0,027592
2881,1296;0,0276406
2882,0938;0,0276974
2883,0581;0,0277608
2884,0222;0,0278274
2884,9866;0,0278944
2885,9507;0,0279605
2886,9150;0,0280262
2887,8792;0,0280931
2888,8435;0,0281627
2889,8076;0,0282359
2890,7720;0,0283119
2891,7361;0,0283889
2892,7004;0,0284639
2893,6646;0,0285353
2894,6289;0,0286036
2895,5930;0,0286726
2896,5574;0,0287472
2897,5215;0,0288304
2898,4858;0,0289206
2899,4500;0,0290119
2900,4143;0,029098
2901,3784;0,0291757
2902,3428;0,0292479
2903,3069;0,0293216
2904,2712;0,0294039
2905,2354;0,029499
2906,1997;0,0296081
2907,1638;0,0297335
2908,1282;0,0298814
2909,0923;0,0300623
2910,0566;0,0302863
2911,0208;0,0305558
2911,9851;0,0308611
2912,9492;0,0311806
2913,9136;0,0314857
2914,8777;0,0317489
2915,8420;0,0319497
2916,8062;0,0320772
2917,7705;0,0321293
2918,7346;0,0321099
2919,6990;0,0320272
2920,6631;0,0318912
2921,6274;0,0317138
2922,5916;0,0315072
2923,5559;0,0312831
2924,5200;0,0310509
2925,4844;0,0308174
2926,4485;0,0305863
2927,4128;0,0303591
2928,3770;0,0301355
2929,3413;0,0299144
2930,3054;0,0296938
2931,2698;0,0294717
2932,2339;0,0292475
2933,1982;0,0290227
2934,1624;0,0288018
2935,1267;0,0285899
2936,0908;0,0283902
2937,0552;0,0282007
2938,0193;0,0280142
2938,9836;0,0278204
2939,9478;0,0276112
2940,9121;0,0273849
2941,8762;0,0271478
2942,8406;0,0269115
2943,8047;0,026688
2944,7690;0,0264846
2945,7332;0,0263024
2946,6975;0,0261376
2947,6616;0,0259844
2948,6260;0,0258382
2949,5901;0,0256966
2950,5544;0,0255586
2951,5186;0,0254233
2952,4829;0,0252896
2953,4470;0,025156
2954,4114;0,0250211
2955,3755;0,0248836
2956,3398;0,0247423
2957,3040;0,0245962
2958,2683;0,0244447
2959,2324;0,0242885
2960,1968;0,0241298
2961,1609;0,0239716
2962,1252;0,023817
2963,0894;0,0236681
2964,0537;0,0235251
2965,0178;0,0233865
2965,9822;0,0232488
2966,9463;0,0231064
2967,9106;0,0229538
2968,8748;0,0227873
2969,8391;0,0226079
2970,8032;0,0224218
2971,7676;0,0222383
2972,7317;0,0220661
2973,6960;0,0219095
2974,6602;0,0217675
2975,6245;0,0216368
2976,5886;0,0215147
2977,5530;0,0214014
2978,5171;0,0212984
2979,4814;0,0212059
2980,4456;0,0211203
2981,4099;0,0210362
2982,3740;0,0209501
2983,3384;0,0208636
2984,3025;0,0207837
2985,2668;0,0207179
2986,2310;0,0206689
2987,1953;0,020632
2988,1594;0,0205971
2989,1238;0,0205547
2990,0879;0,0205013
2991,0522;0,0204416
2992,0164;0,0203852
2992,9807;0,0203416
2993,9448;0,0203156
2994,9092;0,0203062
2995,8733;0,0203092
2996,8376;0,0203201
2997,8018;0,020336
2998,7661;0,0203551
2999,7302;0,0203752
3000,6946;0,0203928
3001,6587;0,0204045
3002,6230;0,0204087
3003,5872;0,0204066
3004,5515;0,020402
3005,5156;0,0203984
3006,4800;0,0203984
3007,4441;0,020403
3008,4084;0,0204129
3009,3726;0,0204295
3010,3369;0,0204538
3011,3010;0,0204844
3012,2654;0,020517
3013,2295;0,0205449
3014,1938;0,0205638
3015,1580;0,0205748
3016,1223;0,0205849
3017,0864;0,0206039
3018,0508;0,0206379
3019,0149;0,0206858
3019,9792;0,0207397
3020,9434;0,0207899
3021,9077;0,0208313
3022,8718;0,0208661
3023,8362;0,020902
3024,8003;0,0209461
3025,7646;0,0209996
3026,7288;0,0210567
3027,6931;0,0211088
3028,6572;0,0211506
3029,6216;0,0211838
3030,5857;0,0212159
3031,5500;0,0212555
3032,5142;0,0213067
3033,4785;0,0213674
3034,4426;0,0214322
3035,4070;0,0214961
3036,3711;0,021558
3037,3354;0,02162
3038,2996;0,0216847
3039,2639;0,0217526
3040,2280;0,0218221
3041,1924;0,0218908
3042,1565;0,0219577
3043,1208;0,022024
3044,0850;0,0220922
3045,0493;0,0221641
3046,0134;0,0222394
3046,9778;0,0223156
3047,9419;0,0223896
3048,9063;0,0224599
3049,8704;0,0225277
3050,8347;0,0225967
3051,7988;0,0226705
3052,7632;0,0227507
3053,7273;0,0228354
3054,6917;0,0229209
3055,6558;0,0230048
3056,6201;0,0230888
3057,5842;0,0231778
3058,5486;0,0232761
3059,5127;0,0233833
3060,4771;0,023492
3061,4412;0,0235908
3062,4055;0,023671
3063,3696;0,0237316
3064,3340;0,0237807
3065,2981;0,023832
3066,2625;0,0238976
3067,2266;0,0239825
3068,1909;0,0240842
3069,1550;0,0241956
3070,1194;0,0243089
3071,0835;0,0244186
3072,0479;0,0245212
3073,0120;0,0246149
3073,9763;0,0246996
3074,9404;0,0247768
3075,9048;0,0248499
3076,8689;0,024922
3077,8333;0,024995
3078,7974;0,0250682
3079,7617;0,0251399
3080,7258;0,0252105
3081,6902;0,0252836
3082,6543;0,0253653
3083,6187;0,02546
3084,5828;0,0255666
3085,5471;0,0256781
3086,5112;0,0257848
3087,4756;0,0258796
3088,4397;0,0259618
3089,4041;0,0260372
3090,3682;0,0261139
3091,3325;0,026197
3092,2966;0,0262868
3093,2610;0,0263797
3094,2251;0,0264716
3095,1895;0,0265613
3096,1536;0,0266505
3097,1179;0,0267409
3098,0820;0,0268324
3099,0464;0,0269223
3100,0105;0,0270082
3100,9749;0,0270903
3101,9390;0,0271728
3102,9033;0,0272608
3103,8674;0,0273568
3104,8318;0,0274587
3105,7959;0,0275608
3106,7603;0,0276587
3107,7244;0,0277524
3108,6887;0,0278474
3109,6528;0,0279505
3110,6172;0,0280652
3111,5813;0,0281888
3112,5457;0,0283137
3113,5098;0,0284318
3114,4741;0,0285391
3115,4382;0,028637
3116,4026;0,0287299
3117,3667;0,028822
3118,3311;0,0289149
3119,2952;0,0290083
3120,2595;0,0291022
3121,2236;0,0291984
3122,1880;0,0293003
3123,1521;0,029411
3124,1165;0,0295314
3125,0806;0,0296595
3126,0449;0,0297909
3127,0090;0,0299198
3127,9734;0,0300406
3128,9375;0,0301499
3129,9019;0,0302479
3130,8660;0,0303393
3131,8303;0,0304321
3132,7944;0,0305344
3133,7588;0,0306502
3134,7229;0,0307778
3135,6873;0,0309106
3136,6514;0,0310411
3137,6157;0,0311646
3138,5798;0,0312808
3139,5442;0,0313931
3140,5083;0,0315066
3141,4727;0,0316252
3142,4368;0,0317514
3143,4011;0,031885
3144,3652;0,0320241
3145,3296;0,0321649
3146,2937;0,0323029
3147,2581;0,0324343
3148,2222;0,0325577
3149,1865;0,032675
3150,1506;0,0327903
3151,1150;0,032908
3152,0791;0,0330305
3153,0435;0,0331582
3154,0076;0,0332899
3154,9719;0,0334239
3155,9360;0,0335589
3156,9004;0,0336929
3157,8645;0,0338232
3158,8289;0,0339468
3159,7930;0,0340625
3160,7573;0,034172
3161,7214;0,0342798
3162,6858;0,0343917
3163,6499;0,0345113
3164,6143;0,0346384
3165,5784;0,03477
3166,5427;0,0349026
3167,5068;0,0350346
3168,4712;0,0351668
3169,4353;0,0352948
3170,3997;0,0354314
3171,3638;0,0355685
3172,3281;0,0357028
3173,2922;0,0358319
3174,2566;0,0359555
3175,2207;0,0360755
3176,1851;0,0361949
3177,1492;0,0363172
3178,1135;0,0364458
3179,0776;0,0365837
3180,0420;0,0367322
3181,0061;0,0368887
3181,9705;0,0370463
3182,9346;0,0371953
3183,8989;0,0373275
3184,8630;0,0374405
3185,8274;0,0375399
3186,7915;0,0376364
3187,7559;0,037741
3188,7200;0,0378595
3189,6843;0,0379909
3190,6484;0,0381295
3191,6128;0,038268
3192,5769;0,0384011
3193,5413;0,0385259
3194,5054;0,0386415
3195,4697;0,0387482
3196,4338;0,0388473
3197,3982;0,0389416
3198,3623;0,0390356
3199,3267;0,0391342
3200,2908;0,0392416
3201,2551;0,0393595
3202,2192;0,039487
3203,1836;0,0396213
3204,1477;0,0397584
3205,1121;0,0398944
3206,0762;0,0400252
3207,0405;0,0401478
3208,0046;0,0402598
3208,9690;0,0403606
3209,9331;0,0404522
3210,8975;0,0405391
3211,8616;0,0406274
3212,8259;0,0407236
3213,7900;0,040832
3214,7544;0,0409537
3215,7185;0,0410857
3216,6829;0,0412224
3217,6470;0,0413568
3218,6113;0,041483
3219,5754;0,0415978
3220,5398;0,0417012
3221,5039;0,0417968
3222,4683;0,0418895
3223,4324;0,0419842
3224,3967;0,0420843
3225,3608;0,0421909
3226,3252;0,0423031
3227,2893;0,0424188
3228,2537;0,0425361
3229,2178;0,0426541
3230,1821;0,0427724
3231,1462;0,0428908
3232,1106;0,0430083
3233,0747;0,0431223
3234,0391;0,0432293
3235,0032;0,0433259
3235,9675;0,0434108
3236,9316;0,0434861
3237,8960;0,043558
3238,8601;0,0436353
3239,8245;0,0437268
3240,7886;0,0438385
3241,7529;0,0439705
3242,7170;0,0441162
3243,6814;0,0442636
3244,6455;0,0443994
3245,6099;0,0445143
3246,5740;0,0446074
3247,5383;0,0446865
3248,5024;0,0447644
3249,4668;0,0448529
3250,4309;0,0449574
3251,3953;0,0450761
3252,3594;0,0452024
3253,3237;0,0453296
3254,2878;0,0454539
3255,2522;0,0455754
3256,2163;0,0456954
3257,1807;0,0458142
3258,1448;0,0459307
3259,1091;0,0460438
3260,0732;0,046154
3261,0376;0,046263
3262,0017;0,0463724
3262,9661;0,0464813
3263,9302;0,0465868
3264,8945;0,0466853
3265,8586;0,0467752
3266,8230;0,0468575
3267,7871;0,046935
3268,7515;0,0470098
3269,7156;0,0470829
3270,6799;0,047154
3271,6440;0,0472231
3272,6084;0,0472906
3273,5725;0,0473572
3274,5369;0,0474223
3275,5010;0,0474842
3276,4653;0,0475419
3277,4294;0,047597
3278,3938;0,0476538
3279,3579;0,0477171
3280,3223;0,0477885
3281,2864;0,0478639
3282,2507;0,0479344
3283,2148;0,0479905
3284,1792;0,0480265
3285,1433;0,0480441
3286,1077;0,048051
3287,0718;0,0480573
3288,0361;0,0480715
3289,0002;0,0480971
3289,9646;0,0481324
3290,9287;0,0481723
3291,8931;0,0482112
3292,8572;0,0482454
3293,8215;0,0482747
3294,7856;0,048301
3295,7500;0,048326
3296,7141;0,048349
3297,6785;0,0483663
3298,6426;0,0483729
3299,6069;0,0483662
3300,5710;0,0483489
3301,5354;0,0483295
3302,4995;0,048319
3303,4639;0,0483262
3304,4280;0,0483535
3305,3923;0,0483956
3306,3564;0,0484426
3307,3208;0,0484845
3308,2849;0,0485156
3309,2493;0,0485354
3310,2134;0,0485476
3311,1777;0,0485561
3312,1418;0,0485632
3313,1062;0,0485706
3314,0703;0,0485805
3315,0347;0,048598
3315,9988;0,0486295
3316,9631;0,0486793
3317,9272;0,0487458
3318,8916;0,0488209
3319,8557;0,0488928
3320,8201;0,0489521
3321,7842;0,0489965
3322,7485;0,0490321
3323,7126;0,0490686
3324,6770;0,0491138
3325,6411;0,049168
3326,6055;0,049225
3327,5696;0,0492757
3328,5339;0,0493135
3329,4980;0,0493373
3330,4624;0,0493513
3331,4265;0,0493615
3332,3909;0,0493723
3333,3550;0,0493852
3334,3193;0,0493985
3335,2834;0,0494089
3336,2478;0,0494131
3337,2119;0,0494094
3338,1763;0,049397
3339,1404;0,0493763
3340,1047;0,0493471
3341,0688;0,049309
3342,0332;0,0492616
3342,9973;0,0492056
3343,9617;0,0491434
3344,9258;0,0490788
3345,8901;0,0490153
3346,8542;0,0489548
3347,8186;0,0488964
3348,7827;0,0488373
3349,7471;0,0487744
3350,7112;0,0487052
3351,6755;0,0486289
3352,6396;0,048546
3353,6040;0,0484584
3354,5681;0,0483693
3355,5325;0,0482835
3356,4966;0,0482062
3357,4609;0,0481409
3358,4250;0,0480873
3359,3894;0,0480406
3360,3535;0,0479929
3361,3179;0,0479366
3362,2820;0,047868
3363,2463;0,0477888
3364,2104;0,0477051
3365,1748;0,0476232
3366,1389;0,0475461
3367,1033;0,0474721
3368,0674;0,0473965
3369,0317;0,0473146
3369,9958;0,0472252
3370,9602;0,0471312
3371,9243;0,0470373
3372,8887;0,0469477
3373,8528;0,0468639
3374,8171;0,0467849
3375,7813;0,046709
3376,7456;0,046635
3377,7097;0,0465628
3378,6741;0,0464916
3379,6382;0,0464191
3380,6025;0,0463414
3381,5667;0,0462558
3382,5310;0,0461636
3383,4951;0,0460709
3384,4595;0,0459864
3385,4236;0,0459168
3386,3879;0,0458621
3387,3521;0,0458146
3388,3164;0,0457617
3389,2805;0,0456913
3390,2449;0,0455975
3391,2090;0,0454837
3392,1733;0,045362
3393,1375;0,0452484
3394,1018;0,0451558
3395,0659;0,0450889
3396,0303;0,0450419
3396,9944;0,0450016
3397,9587;0,0449529
3398,9229;0,0448857
3399,8872;0,0447987
3400,8513;0,0446986
3401,8157;0,0445958
3402,7798;0,0444971
3403,7441;0,0444023
3404,7083;0,0443047
3405,6726;0,044196
3406,6367;0,0440731
3407,6011;0,0439405
3408,5652;0,0438083
3409,5295;0,0436858
3410,4937;0,0435752
3411,4580;0,0434699
3412,4221;0,0433595
3413,3865;0,0432367
3414,3506;0,0431021
3415,3149;0,0429635
3416,2791;0,04283
3417,2434;0,042706
3418,2075;0,0425898
3419,1719;0,0424763
3420,1360;0,0423624
3421,1003;0,0422487
3422,0645;0,0421381
3423,0288;0,0420307
3423,9929;0,0419226
3424,9573;0,0418077
3425,9214;0,0416833
3426,8857;0,0415525
3427,8499;0,0414226
3428,8142;0,0412994
3429,7783;0,0411828
3430,7427;0,0410669
3431,7068;0,0409454
3432,6711;0,0408169
3433,6353;0,0406855
3434,5996;0,0405567
3435,5637;0,0404304
3436,5281;0,0402997
3437,4922;0,0401546
3438,4565;0,0399904
3439,4207;0,0398119
3440,3850;0,0396323
3441,3491;0,0394651
3442,3135;0,0393168
3443,2776;0,0391834
3444,2419;0,0390544
3445,2061;0,0389194
3446,1704;0,0387739
3447,1345;0,0386201
3448,0989;0,0384635
3449,0630;0,0383094
3450,0273;0,0381604
3450,9915;0,038017
3451,9558;0,0378782
3452,9199;0,0377417
3453,8843;0,0376043
3454,8484;0,0374626
3455,8127;0,0373148
3456,7769;0,0371617
3457,7412;0,0370064
3458,7053;0,0368519
3459,6697;0,0366996
3460,6338;0,0365492
3461,5981;0,0363994
3462,5623;0,0362497
3463,5266;0,0361002
3464,4907;0,0359508
3465,4551;0,0357996
3466,4192;0,0356443
3467,3835;0,0354837
3468,3477;0,0353203
3469,3120;0,0351591
3470,2761;0,0350043
3471,2405;0,0348559
3472,2046;0,0347096
3473,1689;0,0345601
3474,1331;0,0344059
3475,0974;0,0342511
3476,0615;0,0341029
3477,0259;0,0339655
3477,9900;0,0338362
3478,9543;0,0337073
3479,9185;0,0335714
3480,8828;0,0334278
3481,8469;0,0332824
3482,8113;0,0331416
3483,7754;0,0330048
3484,7397;0,032863
3485,7039;0,032705
3486,6682;0,032527
3487,6323;0,0323378
3488,5967;0,032156
3489,5608;0,0319981
3490,5251;0,0318683
3491,4893;0,0317556
3492,4536;0,0316414
3493,4177;0,0315099
3494,3821;0,0313568
3495,3462;0,0311907
3496,3105;0,0310267
3497,2747;0,0308768
3498,2390;0,0307431
3499,2031;0,0306184
3500,1675;0,0304908
3501,1316;0,0303516
3502,0959;0,0302001
3503,0601;0,030044
3504,0244;0,0298928
3504,9885;0,0297498
3505,9529;0,0296101
3506,9170;0,0294631
3507,8813;0,0293
3508,8455;0,0291205
3509,8098;0,0289354
3510,7739;0,0287617
3511,7383;0,0286128
3512,7024;0,0284909
3513,6667;0,0283883
3514,6309;0,0282923
3515,5952;0,0281915
3516,5593;0,0280794
3517,5237;0,0279539
3518,4878;0,0278156
3519,4521;0,0276661
3520,4163;0,0275082
3521,3806;0,0273469
3522,3447;0,0271888
3523,3091;0,0270384
3524,2732;0,0268939
3525,2375;0,0267476
3526,2017;0,0265908
3527,1660;0,0264222
3528,1301;0,0262504
3529,0945;0,0260896
3530,0586;0,0259504
3531,0229;0,0258329
3531,9871;0,0257277
3532,9514;0,0256217
3533,9155;0,0255043
3534,8799;0,0253718
3535,8440;0,0252282
3536,8083;0,0250829
3537,7725;0,0249454
3538,7368;0,0248222
3539,7009;0,0247133
3540,6653;0,0246114
3541,6294;0,0245014
3542,5938;0,0243639
3543,5579;0,0241857
3544,5222;0,0239712
3545,4863;0,0237463
3546,4507;0,0235442
3547,4148;0,0233836
3548,3792;0,023259
3549,3433;0,0231475
3550,3076;0,0230235
3551,2717;0,0228734
3552,2361;0,0227044
3553,2002;0,0225398
3554,1646;0,0224026
3555,1287;0,0222989
3556,0930;0,0222153
3557,0571;0,0221289
3558,0215;0,0220223
3558,9856;0,0218964
3559,9500;0,0217711
3560,9141;0,0216714
3561,8784;0,021605
3562,8425;0,0215489
3563,8069;0,0214514
3564,7710;0,0212564
3565,7354;0,020949
3566,6995;0,0205922
3567,6638;0,0202896
3568,6279;0,0200995
3569,5923;0,0200064
3570,5564;0,0199603
3571,5208;0,019915
3572,4849;0,0198426
3573,4492;0,0197361
3574,4133;0,0196057
3575,3777;0,0194679
3576,3418;0,0193316
3577,3062;0,0191944
3578,2703;0,0190521
3579,2346;0,0189114
3580,1987;0,0187929
3581,1631;0,0187177
3582,1272;0,0186884
3583,0916;0,0186762
3584,0557;0,0186218
3585,0200;0,0184579
3585,9841;0,018156
3586,9485;0,0177739
3587,9126;0,0174307
3588,8770;0,0172099
3589,8411;0,0171079
3590,8054;0,0170666
3591,7695;0,0170222
3592,7339;0,0169319
3593,6980;0,0167884
3594,6624;0,0166174
3595,6265;0,0164519
3596,5908;0,016302
3597,5549;0,0161518
3598,5193;0,0159849
3599,4834;0,0158107
3600,4478;0,0156668
3601,4119;0,0155907
3602,3762;0,015588
3603,3403;0,015625
3604,3047;0,0156467
3605,2688;0,015604
3606,2332;0,0154791
3607,1973;0,0153
3608,1616;0,0151226
3609,1257;0,0149862
3610,0901;0,0148868
3611,0542;0,014793
3612,0186;0,014683
3612,9827;0,0145619
3613,9470;0,0144503
3614,9111;0,0143556
3615,8755;0,0142528
3616,8396;0,0140924
3617,8040;0,0138369
3618,7681;0,0135084
3619,7324;0,0131979
3620,6965;0,0130083
3621,6609;0,0129869
3622,6250;0,013117
3623,5894;0,013342
3624,5535;0,0135762
3625,5178;0,0137017
3626,4819;0,0135864
3627,4463;0,0131704
3628,4104;0,0125816
3629,3748;0,0120778
3630,3389;0,0118051
3631,3032;0,0117217
3632,2673;0,0117217
3633,2317;0,0117271
3634,1958;0,0117043
3635,1602;0,0116541
3636,1243;0,0115943
3637,0886;0,011541
3638,0527;0,0114991
3639,0171;0,0114674
3639,9812;0,0114519
3640,9456;0,0114727
3641,9097;0,0115551
3642,8740;0,0117113
3643,8381;0,011919
3644,8025;0,0121047
3645,7666;0,0121317
3646,7310;0,0118282
3647,6951;0,0111267
3648,6594;0,0102705
3649,6235;0,00969134
3650,5879;0,00955736
3651,5520;0,00971856
3652,5164;0,00997327
3653,4805;0,0101824
3654,4448;0,0102628
3655,4089;0,0101884
3656,3733;0,0100045
3657,3374;0,00980336
3658,3018;0,00965753
3659,2659;0,00958189
3660,2302;0,00955412
3661,1943;0,00955467
3662,1587;0,00958901
3663,1228;0,00967994
3664,0872;0,00983829
3665,0513;0,0100344
3666,0156;0,0101921
3666,9797;0,0102123
3667,9441;0,0100372
3668,9082;0,00973239
3669,8726;0,00947683
3670,8367;0,00940616
3671,8010;0,00949074
3672,7651;0,00957625
3673,7295;0,00949241
3674,6936;0,00916909
3675,6580;0,00872023
3676,6221;0,00835867
3677,5864;0,00819443
3678,5505;0,00819126
3679,5149;0,00826896
3680,4790;0,00837525
3681,4434;0,00849811
3682,4075;0,00865147
3683,3718;0,00884953
3684,3359;0,00907935
3685,3003;0,00928271
3686,2644;0,00935779
3687,2288;0,00919918
3688,1929;0,00879154
3689,1572;0,00828448
3690,1213;0,00789706
3691,0857;0,0077285
3692,0498;0,00773497
3693,0142;0,00783579
3693,9783;0,00797782
3694,9426;0,00813784
3695,9067;0,00830382
3696,8711;0,00845668
3697,8352;0,00856182
3698,7996;0,0085769
3699,7637;0,00847761
3700,7280;0,00828985
3701,6921;0,00809655
3702,6565;0,00799445
3703,6206;0,00803387
3704,5850;0,00819996
3705,5491;0,00843525
3706,5134;0,00866283
3707,4775;0,0087958
3708,4419;0,00875326
3709,4060;0,00850914
3710,3704;0,0081535
3711,3345;0,00786202
3712,2988;0,00774907
3713,2629;0,00779584
3714,2273;0,00792418
3715,1914;0,00806957
3716,1558;0,00819318
3717,1199;0,00827315
3718,0842;0,00830225
3719,0483;0,00828995
3720,0127;0,00825628
3720,9768;0,00821502
3721,9412;0,00816121
3722,9053;0,00807991
3723,8696;0,00797223
3724,8337;0,00787291
3725,7981;0,00783713
3726,7622;0,00790599
3727,7266;0,00808337
3728,6907;0,00833726
3729,6550;0,00861031
3730,6191;0,00882697
3731,5835;0,0089012
3732,5476;0,00876247
3733,5120;0,00841309
3734,4761;0,00798028
3735,4404;0,00766305
3736,4045;0,00758362
3737,3689;0,00773293
3738,3330;0,00804473
3739,2974;0,00845371
3740,2615;0,00889011
3741,2258;0,00925673
3742,1899;0,009437
3743,1543;0,00936815
3744,1184;0,00913513
3745,0828;0,00892645
3746,0469;0,00885247
3747,0112;0,00886901
3747,9753;0,00884393
3748,9397;0,00864997
3749,9038;0,00827559
3750,8682;0,00789155
3751,8323;0,00770464
3752,7966;0,00775058
3753,7607;0,00792757
3754,7251;0,00812419
3755,6892;0,00826011
3756,6536;0,00828814
3757,6177;0,00821121
3758,5820;0,00809244
3759,5461;0,00801667
3760,5105;0,00802874
3761,4746;0,00811581
3762,4390;0,00823553
3763,4031;0,00834621
3764,3674;0,00842116
3765,3315;0,00845064
3766,2959;0,0084353
3767,2600;0,00837677
3768,2244;0,00827696
3769,1885;0,00814982
3770,1528;0,00803055
3771,1169;0,00796453
3772,0813;0,00798121
3773,0454;0,00807747
3774,0098;0,00821931
3774,9739;0,00835318
3775,9382;0,00842263
3776,9023;0,00839373
3777,8667;0,00828196
3778,8308;0,00814989
3779,7952;0,00806124
3780,7593;0,00803471
3781,7236;0,00804514
3782,6877;0,00805647
3783,6521;0,00804845
3784,6162;0,00802352
3785,5806;0,00799809
3786,5447;0,00798897
3787,5090;0,00800612
3788,4731;0,00805435
3789,4375;0,00813605
3790,4016;0,0082484
3791,3660;0,00837789
3792,3301;0,00850069
3793,2944;0,00859361
3794,2585;0,00865083
3795,2229;0,00869049
3796,1870;0,00873761
3797,1514;0,0087925
3798,1155;0,0088145
3799,0798;0,00874469
3800,0439;0,00856353
3801,0083;0,00833449
3801,9724;0,00816382
3802,9368;0,0081041
3803,9009;0,00811904
3804,8652;0,00813094
3805,8293;0,00808515
3806,7937;0,00799448
3807,7578;0,00793401
3808,7222;0,00797857
3809,6863;0,00814753
3810,6506;0,00840562
3811,6147;0,00868612
3812,5791;0,0089086
3813,5432;0,00900634
3814,5076;0,00897026
3815,4717;0,00886443
3816,4360;0,00876684
3817,4001;0,00869248
3818,3645;0,00859207
3819,3286;0,00841911
3820,2930;0,00819547
3821,2571;0,00800678
3822,2214;0,00792171
3823,1855;0,00793898
3824,1499;0,00801627
3825,1140;0,00811399
3826,0784;0,00820971
3827,0425;0,00829553
3828,0068;0,00837252
3828,9709;0,00844571
3829,9353;0,00852161
3830,8994;0,0086082
3831,8638;0,00871284
3832,8279;0,00883384
3833,7922;0,00894939
3834,7563;0,00901448
3835,7207;0,00897687
3836,6848;0,008813
3837,6492;0,00856085
3838,6133;0,00830653
3839,5776;0,0081223
3840,5417;0,0080234
3841,5061;0,0079851
3842,4702;0,00798184
3843,4346;0,00800827
3844,3987;0,00807846
3845,3630;0,00821466
3846,3271;0,0084358
3847,2915;0,00874848
3848,2556;0,00913489
3849,2200;0,00953205
3850,1841;0,0098086
3851,1484;0,00977971
3852,1125;0,00934435
3853,0769;0,00869352
3854,0410;0,00819015
3855,0054;0,0079771
3855,9695;0,00797929
3856,9338;0,0081107
3857,8979;0,00831932
3858,8623;0,00855386
3859,8264;0,00874857
3860,7908;0,00884071
3861,7549;0,00881123
3862,7192;0,00871503
3863,6833;0,00865246
3864,6477;0,00869172
3865,6118;0,00882281
3866,5762;0,00897642
3867,5403;0,0090667
3868,5046;0,0090291
3869,4688;0,00885254
3870,4331;0,00859302
3871,3972;0,00834649
3872,3616;0,0081948
3873,3257;0,00817099
3874,2900;0,00826199
3875,2542;0,00842748
3876,2185;0,00861477
3877,1826;0,00877009
3878,1470;0,00885378
3879,1111;0,00885899
3880,0754;0,00881643
3881,0396;0,00876827
3882,0039;0,00873117
3882,9680;0,00869057
3883,9324;0,00863182
3884,8965;0,00857048
3885,8608;0,00854531
3886,8250;0,00857916
3887,7893;0,00864954
3888,7534;0,00869498
3889,7178;0,00865147
3890,6819;0,00850526
3891,6462;0,0083261
3892,6104;0,00822761
3893,5747;0,00828087
3894,5388;0,00847853
3895,5032;0,00876238
3896,4673;0,00905702
3897,4316;0,00929121
3898,3958;0,00941741
3899,3601;0,00942375
3900,3242;0,00932351
3901,2886;0,00913362
3902,2527;0,00887438
3903,2170;0,00858793
3904,1812;0,00833632
3905,1455;0,00816939
3906,1096;0,00809993
3907,0740;0,00810934
3908,0381;0,00816734
3909,0024;0,00824739
3909,9666;0,00833466
3910,9309;0,00842699
3911,8950;0,00852761
3912,8594;0,00863303
3913,8235;0,00872494
3914,7878;0,00877469
3915,7520;0,00876127
3916,7163;0,00869173
3917,6804;0,00860268
3918,6448;0,00853539
3919,6089;0,00850732
3920,5732;0,00850629
3921,5374;0,00850478
3922,5017;0,00848107
3923,4658;0,00843664
3924,4302;0,00839793
3925,3943;0,00839669
3926,3586;0,00844455
3927,3228;0,00852352
3928,2871;0,00859523
3929,2512;0,00861979
3930,2156;0,00857759
3931,1797;0,00848378
3932,1440;0,00838035
3933,1082;0,00830826
3934,0725;0,00828597
3935,0366;0,00831
3936,0010;0,00836645
3936,9651;0,00843895
3937,9294;0,00851035
3938,8936;0,00856306
3939,8579;0,00858291
3940,8220;0,00856719
3941,7864;0,0085306
3942,7505;0,00850017
3943,7148;0,00849868
3944,6790;0,00852968
3945,6433;0,00857461
3946,6074;0,00860283
3947,5718;0,00858844
3948,5359;0,00852623
3949,5002;0,00843595
3950,4644;0,00835004
3951,4287;0,00829462
3952,3928;0,00827892
3953,3572;0,00829716
3954,3213;0,00833641
3955,2856;0,00838338
3956,2498;0,00842721
3957,2141;0,00845929
3958,1782;0,008473
3959,1426;0,00846561
3960,1067;0,00844097
3961,0710;0,00840977
3962,0352;0,00838497
3962,9995;0,00837482
3963,9636;0,00837869
3964,9280;0,00838891
3965,8921;0,00839705
3966,8564;0,0083994
3967,8206;0,00839798
3968,7849;0,00839704
3969,7490;0,00839779
3970,7134;0,00839618
3971,6775;0,00838556
3972,6418;0,00836246
3973,6060;0,00833052
3974,5703;0,0082995
3975,5344;0,0082798
3976,4988;0,00827665
3977,4629;0,00828821
3978,4272;0,0083082
3979,3914;0,00833053
3980,3557;0,00835222
3981,3198;0,00837338
3982,2842;0,00839474
3983,2483;0,00841542
3984,2126;0,00843265
3985,1768;0,00844359
3986,1411;0,00844746
3987,1052;0,00844607
3988,0696;0,00844258
3989,0337;0,00843892
3989,9980;0,00843435
3990,9622;0,00842574
3991,9265;0,00841002
3992,8906;0,00838733
3993,8550;0,00836258
3994,8191;0,00834408
3995,7834;0,0083395
3996,7476;0,00835139
3997,7119;0,00837524
3998,6760;0,00840145
3999,6404;0,0084202
4000,6045;0,00828322

##### Extended Information
[Comments]
Sample name
Comment
Username
Division
Organization;UNIVERSIDAD INDUSTRIAL DE SANTANDER

[Detailed Information]
Creation date;19/02/2025 12:16 p.m.

Data array type;Linear data array
Horizontal axis;Wavenumber [cm-1]
Vertical axis;Abs
Start;399,193 cm-1
End;4000,6 cm-1
Data interval;0,964233 cm-1
Data points;3736    

[Measurement Information]
Model name;FT/IR-4X1typeA
Serial No.;A035162111

Accessory;ATR PRO 4X
Accessory S/N;A021162126
Incident angle;45 deg

Measurement date;19/02/2025 12:13 p.m.

Light source;Standard
Detector;TGS
Accumulation;40
Resolution;4 cm-1
Zero filling;On
Apodization;Cosine
Gain;Auto (8)
Aperture;Auto (7 mm)
Scan speed;Auto (2 mm/sec)
Filter;Auto (12800 Hz)

