TITLE;
DATA TYPE;INFRARED SPECTRUM
ORIGIN;JASCO
OWNER;
DATE;25/02/19
TIME;12:33:47
SPECTROMETER/DATA SYSTEM;
LOCALE;9226
RESOLUTION;
DELTAX;0,964233
XUNITS;1/CM
YUNITS;ABSORBANCE
FIRSTX;  399,1927
LASTX; 4000,6047
NPOINTS;    3736
FIRSTY;     0,09321
MAXY;     0,12881
MINY;     0,00535
XYDATA
399,1927;0,093206
400,1569;0,0932143
401,1211;0,0933312
402,0854;0,093789
403,0496;0,0945167
404,0138;0,095276
404,9781;0,0958203
405,9423;0,096026
406,9065;0,0959496
407,8708;0,0957728
408,8350;0,0956846
409,7992;0,0957927
410,7635;0,0961008
411,7277;0,0965317
412,6919;0,0969761
413,6562;0,0973503
414,6204;0,0976364
415,5846;0,0978915
416,5489;0,0982255
417,5131;0,098727
418,4773;0,0993178
419,4416;0,0997034
420,4058;0,099653
421,3700;0,0992685
422,3343;0,0988579
423,2985;0,0987013
424,2627;0,0989359
425,2270;0,0995241
426,1912;0,100293
427,1554;0,101049
428,1197;0,101701
429,0839;0,102285
430,0481;0,102888
431,0124;0,103554
431,9766;0,104241
432,9408;0,10485
433,9051;0,105305
434,8693;0,105592
435,8335;0,105742
436,7978;0,105785
437,7620;0,10573
438,7262;0,105579
439,6905;0,105377
440,6547;0,105216
441,6189;0,105212
442,5832;0,105432
443,5474;0,10584
444,5116;0,10631
445,4759;0,106698
446,4401;0,106919
447,4043;0,10696
448,3686;0,106852
449,3328;0,106644
450,2970;0,106393
451,2613;0,106155
452,2255;0,105971
453,1897;0,105841
454,1540;0,105723
455,1182;0,105567
456,0824;0,105364
457,0467;0,105193
458,0109;0,105201
458,9751;0,105489
459,9394;0,106012
460,9036;0,106601
461,8678;0,107073
462,8321;0,107322
463,7963;0,10734
464,7605;0,107199
465,7248;0,106999
466,6890;0,106804
467,6532;0,106625
468,6175;0,106447
469,5817;0,106279
470,5459;0,106186
471,5102;0,106256
472,4744;0,106515
473,4386;0,106864
474,4029;0,107124
475,3671;0,107149
476,3313;0,106914
477,2956;0,106515
478,2598;0,106115
479,2240;0,105866
480,1883;0,105842
481,1525;0,106019
482,1167;0,106301
483,0810;0,106575
484,0452;0,106759
485,0094;0,106814
485,9737;0,106737
486,9379;0,106534
487,9021;0,10622
488,8664;0,105825
489,8306;0,105411
490,7948;0,105066
491,7591;0,104866
492,7233;0,104836
493,6875;0,104933
494,6518;0,105074
495,6160;0,105188
496,5802;0,105246
497,5445;0,105261
498,5087;0,105265
499,4729;0,105282
500,4372;0,105309
501,4014;0,105321
502,3656;0,105285
503,3299;0,105183
504,2941;0,105014
505,2583;0,104796
506,2226;0,104566
507,1868;0,10437
508,1510;0,104261
509,1153;0,104278
510,0795;0,104426
511,0437;0,10467
512,0080;0,104952
512,9722;0,10522
513,9365;0,105447
514,9007;0,105637
515,8649;0,105804
516,8292;0,105943
517,7934;0,106022
518,7576;0,106001
519,7219;0,105876
520,6861;0,105691
521,6503;0,10552
522,6146;0,105427
523,5788;0,105438
524,5430;0,105532
525,5073;0,105648
526,4715;0,105723
527,4357;0,105721
528,4000;0,105649
529,3642;0,10553
530,3284;0,10539
531,2927;0,105236
532,2569;0,10506
533,2211;0,104851
534,1854;0,104602
535,1496;0,104321
536,1138;0,104032
537,0781;0,103768
538,0423;0,103558
539,0065;0,103416
539,9708;0,103335
540,9350;0,103303
541,8992;0,103315
542,8635;0,103383
543,8277;0,103521
544,7919;0,103723
545,7562;0,103948
546,7204;0,10413
547,6846;0,104209
548,6489;0,104172
549,6131;0,104061
550,5773;0,103956
551,5416;0,103932
552,5058;0,10403
553,4700;0,104242
554,4343;0,104523
555,3985;0,104804
556,3627;0,105014
557,3270;0,105092
558,2912;0,105
559,2554;0,104719
560,2197;0,104256
561,1839;0,103634
562,1481;0,102893
563,1124;0,102082
564,0766;0,101253
565,0408;0,100455
566,0051;0,0997319
566,9693;0,0991138
567,9335;0,0986101
568,8978;0,0982085
569,8620;0,0978817
570,8262;0,0976029
571,7905;0,0973581
572,7547;0,0971478
573,7189;0,0969781
574,6832;0,0968469
575,6474;0,0967386
576,6116;0,0966307
577,5759;0,0965109
578,5401;0,0963904
579,5043;0,096301
580,4686;0,0962764
581,4328;0,0963292
582,3970;0,0964381
583,3613;0,0965562
584,3255;0,0966348
585,2897;0,096648
586,2540;0,0966022
587,2182;0,0965262
588,1824;0,0964511
589,1467;0,0963955
590,1109;0,096361
591,0751;0,0963375
592,0394;0,0963127
593,0036;0,0962779
593,9678;0,0962298
594,9321;0,0961687
595,8963;0,0960955
596,8605;0,0960106
597,8248;0,0959108
598,7890;0,0957896
599,7532;0,0956379
600,7175;0,0954487
601,6817;0,0952216
602,6459;0,094964
603,6102;0,0946865
604,5744;0,0943964
605,5386;0,0940949
606,5029;0,09378
607,4671;0,0934535
608,4313;0,0931248
609,3956;0,0928069
610,3598;0,0925061
611,3240;0,0922135
612,2883;0,0919075
613,2525;0,0915653
614,2167;0,0911773
615,1810;0,0907537
616,1452;0,0903186
617,1094;0,0898939
618,0737;0,0894829
619,0379;0,0890675
620,0021;0,0886212
620,9664;0,0881284
621,9306;0,0875952
622,8948;0,0870486
623,8591;0,0865238
624,8233;0,0860581
625,7875;0,085644
626,7518;0,085271
627,7160;0,0849188
628,6802;0,0845698
629,6445;0,0842141
630,6087;0,083848
631,5729;0,0834681
632,5372;0,0830714
633,5014;0,0826586
634,4656;0,0822398
635,4299;0,0818352
636,3941;0,081466
637,3583;0,0811419
638,3226;0,0808519
639,2868;0,0805662
640,2510;0,0802492
641,2153;0,0798756
642,1795;0,0794424
643,1437;0,0789687
644,1080;0,0784867
645,0722;0,0780296
646,0364;0,0776226
647,0007;0,0772801
647,9649;0,0770061
648,9291;0,0767948
649,8934;0,07663
650,8576;0,076488
651,8218;0,0763473
652,7861;0,0762003
653,7503;0,0760625
654,7145;0,0759691
655,6788;0,0759566
656,6430;0,0760355
657,6072;0,0761735
658,5715;0,0763032
659,5357;0,076354
660,4999;0,0762959
661,4642;0,076163
662,4284;0,0760329
663,3926;0,0759699
664,3569;0,0759699
665,3211;0,0759204
666,2853;0,0755958
667,2496;0,0747854
668,2138;0,0736258
669,1780;0,0726443
670,1423;0,0721047
671,1065;0,0718015
672,0707;0,0714785
673,0350;0,0709961
673,9992;0,0702985
674,9634;0,0694065
675,9277;0,0684261
676,8919;0,0675029
677,8561;0,0667383
678,8204;0,0661466
679,7846;0,0656823
680,7488;0,0652907
681,7131;0,0649337
682,6773;0,0645927
683,6415;0,0642625
684,6058;0,0639511
685,5700;0,0636803
686,5342;0,0634783
687,4985;0,0633621
688,4627;0,0633205
689,4269;0,0633171
690,3912;0,0633037
691,3554;0,0632444
692,3196;0,0631322
693,2839;0,0629893
694,2481;0,062855
695,2123;0,0627658
696,1766;0,0627385
697,1408;0,0627617
698,1050;0,0628002
699,0693;0,0628093
700,0335;0,0627542
700,9977;0,0626226
701,9620;0,0624267
702,9262;0,0621943
703,8904;0,0619567
704,8547;0,0617299
705,8189;0,0615159
706,7831;0,0613079
707,7474;0,0610989
708,7116;0,0608876
709,6758;0,0606758
710,6401;0,0604631
711,6043;0,060244
712,5685;0,0600094
713,5328;0,0597536
714,4970;0,0594775
715,4612;0,0593674
716,4255;0,0590305
717,3897;0,0586706
718,3539;0,0582959
719,3182;0,0579243
720,2824;0,0575821
721,2466;0,0572922
722,2109;0,0570589
723,1751;0,056861
724,1393;0,056659
725,1036;0,0564127
726,0678;0,0560994
727,0320;0,0557235
727,9963;0,0553143
728,9605;0,054911
729,9247;0,0545452
730,8890;0,0542304
731,8532;0,0539633
732,8174;0,053731
733,7817;0,0535188
734,7459;0,0533143
735,7101;0,0531076
736,6744;0,0528912
737,6386;0,0526611
738,6028;0,0524183
739,5671;0,0521693
740,5313;0,0519248
741,4955;0,0516963
742,4598;0,0514919
743,4240;0,0513125
744,3882;0,0511487
745,3525;0,0509814
746,3167;0,0507878
747,2809;0,0505516
748,2452;0,0502726
749,2094;0,049969
750,1736;0,0496692
751,1379;0,049396
752,1021;0,0491539
753,0663;0,0489287
754,0306;0,0486995
754,9948;0,048456
755,9590;0,0482065
756,9233;0,0479718
757,8875;0,0477691
758,8517;0,047599
759,8160;0,0474457
760,7802;0,0472879
761,7444;0,047113
762,7087;0,0469221
763,6729;0,0467241
764,6371;0,0465265
765,6014;0,0463305
766,5656;0,0461341
767,5298;0,0459394
768,4941;0,0457538
769,4583;0,0455856
770,4225;0,0454362
771,3868;0,045297
772,3510;0,0451549
773,3152;0,0450016
774,2795;0,0448392
775,2437;0,0446768
776,2079;0,0445227
777,1722;0,0443772
778,1364;0,0442332
779,1006;0,0440825
780,0649;0,0439228
781,0291;0,0437583
781,9933;0,043595
782,9576;0,0434344
783,9218;0,0432724
784,8860;0,0431034
785,8503;0,0429273
786,8145;0,0427527
787,7787;0,0425929
788,7430;0,0424576
789,7072;0,0423467
790,6714;0,0422507
791,6357;0,042157
792,5999;0,0420599
793,5641;0,0419643
794,5284;0,0418826
795,4926;0,041826
796,4568;0,0417961
797,4211;0,0417825
798,3853;0,0417673
799,3495;0,0417344
800,3138;0,0416759
801,2780;0,0415948
802,2422;0,0415008
803,2065;0,0414056
804,1707;0,0413182
805,1349;0,0412436
806,0992;0,0411827
807,0634;0,0411344
808,0276;0,0410953
808,9919;0,0410599
809,9561;0,041021
810,9203;0,0409704
811,8846;0,0409017
812,8488;0,0408126
813,8130;0,0407072
814,7773;0,040595
815,7415;0,0404873
816,7057;0,0403929
817,6700;0,0403136
818,6342;0,0402438
819,5984;0,0401733
820,5627;0,0400929
821,5269;0,0399991
822,4911;0,039896
823,4554;0,039793
824,4196;0,0397013
825,3839;0,0396289
826,3481;0,0395784
827,3123;0,039545
828,2766;0,0395181
829,2408;0,0394834
830,2050;0,0394282
831,1693;0,0393467
832,1335;0,0392423
833,0977;0,0391262
834,0620;0,0390097
835,0262;0,0388969
835,9904;0,0387827
836,9547;0,0386576
837,9189;0,038517
838,8831;0,0383674
839,8474;0,0382243
840,8116;0,0381031
841,7758;0,0380093
842,7401;0,037936
843,7043;0,0378701
844,6685;0,0378017
845,6328;0,0377301
846,5970;0,0376625
847,5612;0,0376082
848,5255;0,0375724
849,4897;0,0375556
850,4539;0,0375559
851,4182;0,0375706
852,3824;0,0375959
853,3466;0,0376241
854,3109;0,0376442
855,2751;0,0376467
856,2393;0,0376299
857,2036;0,0376039
858,1678;0,0375868
859,1320;0,0375965
860,0963;0,0376408
861,0605;0,0377145
862,0247;0,0378037
862,9890;0,0378949
863,9532;0,037983
864,9174;0,0380729
865,8817;0,0381736
866,8459;0,0382901
867,8101;0,0384183
868,7744;0,0385473
869,7386;0,0386661
870,7028;0,0387726
871,6671;0,0388752
872,6313;0,038988
873,5955;0,0391216
874,5598;0,0392751
875,5240;0,0394352
876,4882;0,0395836
877,4525;0,0397063
878,4167;0,0398028
879,3809;0,0398874
880,3452;0,0399847
881,3094;0,0401212
882,2736;0,0403171
883,2379;0,0405811
884,2021;0,0409099
885,1663;0,0412911
886,1306;0,0417099
887,0948;0,0421541
888,0590;0,042619
889,0233;0,0431054
889,9875;0,043615
890,9517;0,0441433
891,9160;0,0446749
892,8802;0,0451831
893,8444;0,0456351
894,8087;0,0459991
895,7729;0,0462521
896,7371;0,0463822
897,7014;0,0463888
898,6656;0,0462799
899,6298;0,0460695
900,5941;0,0457759
901,5583;0,0454204
902,5225;0,0450262
903,4868;0,0446149
904,4510;0,0442037
905,4152;0,043803
906,3795;0,0434183
907,3437;0,0430535
908,3079;0,0427166
909,2722;0,0424212
910,2364;0,042184
911,2007;0,042018
912,1649;0,0419261
913,1292;0,0418986
914,0934;0,0419167
915,0576;0,0419613
916,0219;0,0420214
916,9861;0,0420969
917,9503;0,0421951
918,9146;0,0423227
919,8788;0,0424783
920,8430;0,0426503
921,8073;0,0428217
922,7715;0,0429787
923,7357;0,0431186
924,7000;0,0432515
925,6642;0,0433957
926,6284;0,0435693
927,5927;0,0437812
928,5569;0,044028
929,5211;0,0442965
930,4854;0,0445702
931,4496;0,0448376
932,4138;0,0450958
933,3781;0,0453502
934,3423;0,0456104
935,3065;0,0458857
936,2708;0,0461827
937,2350;0,0465054
938,1992;0,0468571
939,1635;0,0472416
940,1277;0,0476629
941,0919;0,0481237
942,0562;0,0486253
943,0204;0,049167
943,9846;0,0497476
944,9489;0,0503657
945,9131;0,0510198
946,8773;0,0517082
947,8416;0,0524304
948,8058;0,0531896
949,7700;0,0539932
950,7343;0,0548506
951,6985;0,0557682
952,6627;0,0567439
953,6270;0,0577664
954,5912;0,0588183
955,5554;0,0598827
956,5197;0,0609492
957,4839;0,0620149
958,4481;0,0630817
959,4124;0,0641532
960,3766;0,0652316
961,3408;0,0663175
962,3051;0,0674093
963,2693;0,0685027
964,2335;0,0695909
965,1978;0,0706666
966,1620;0,0717274
967,1262;0,0727794
968,0905;0,0738385
969,0547;0,0749245
970,0189;0,0760547
970,9832;0,077239
971,9474;0,0784826
972,9116;0,0797921
973,8759;0,0811813
974,8401;0,0826698
975,8043;0,0842744
976,7686;0,0859977
977,7328;0,0878206
978,6970;0,0897032
979,6613;0,0915934
980,6255;0,0934372
981,5897;0,0951871
982,5540;0,0968058
983,5182;0,0982675
984,4824;0,0995589
985,4467;0,100681
986,4109;0,101648
987,3751;0,102488
988,3394;0,103231
989,3036;0,103902
990,2678;0,104514
991,2321;0,105066
992,1963;0,105553
993,1605;0,105972
994,1248;0,106337
995,0890;0,106677
996,0532;0,107026
997,0175;0,107411
997,9817;0,107843
998,9459;0,108314
999,9102;0,108805
1000,8744;0,109299
1001,8386;0,109793
1002,8029;0,110299
1003,7671;0,110838
1004,7313;0,111435
1005,6956;0,112111
1006,6598;0,11288
1007,6240;0,113753
1008,5883;0,114734
1009,5525;0,115818
1010,5167;0,116981
1011,4810;0,118184
1012,4452;0,119381
1013,4094;0,120528
1014,3737;0,121595
1015,3379;0,122574
1016,3021;0,123466
1017,2664;0,124275
1018,2306;0,125
1019,1948;0,125635
1020,1591;0,126176
1021,1233;0,126628
1022,0875;0,12701
1023,0518;0,127347
1024,0160;0,127659
1024,9802;0,127956
1025,9445;0,128235
1026,9087;0,128482
1027,8729;0,128675
1028,8372;0,128792
1029,8014;0,128812
1030,7656;0,128716
1031,7299;0,128489
1032,6941;0,128123
1033,6583;0,127621
1034,6226;0,126997
1035,5868;0,126281
1036,5510;0,125513
1037,5153;0,124743
1038,4795;0,124018
1039,4437;0,123382
1040,4080;0,122862
1041,3722;0,122466
1042,3364;0,122182
1043,3007;0,12198
1044,2649;0,12182
1045,2291;0,121661
1046,1934;0,121475
1047,1576;0,121245
1048,1218;0,120965
1049,0861;0,120628
1050,0503;0,120221
1051,0145;0,119721
1051,9788;0,119111
1052,9430;0,118383
1053,9072;0,117554
1054,8715;0,11665
1055,8357;0,115694
1056,7999;0,114689
1057,7642;0,113613
1058,7284;0,112436
1059,6926;0,111136
1060,6569;0,109718
1061,6211;0,108215
1062,5853;0,106675
1063,5496;0,10515
1064,5138;0,103685
1065,4780;0,102311
1066,4423;0,101048
1067,4065;0,0999033
1068,3707;0,0988681
1069,3350;0,0979167
1070,2992;0,097013
1071,2634;0,0961212
1072,2277;0,0952155
1073,1919;0,0942834
1074,1561;0,0933221
1075,1204;0,0923329
1076,0846;0,0913182
1077,0488;0,090284
1078,0131;0,0892434
1078,9773;0,0882182
1079,9415;0,0872358
1080,9058;0,086323
1081,8700;0,0855011
1082,8342;0,0847832
1083,7985;0,0841725
1084,7627;0,0836606
1085,7269;0,083227
1086,6912;0,082843
1087,6554;0,0824796
1088,6196;0,0821183
1089,5839;0,0817577
1090,5481;0,0814119
1091,5123;0,0811014
1092,4766;0,0808419
1093,4408;0,0806369
1094,4050;0,0804786
1095,3693;0,080353
1096,3335;0,0802463
1097,2977;0,0801483
1098,2620;0,080053
1099,2262;0,0799573
1100,1904;0,0798592
1101,1547;0,0797564
1102,1189;0,0796433
1103,0831;0,0795089
1104,0474;0,0793374
1105,0116;0,0791136
1105,9758;0,0788293
1106,9401;0,0784882
1107,9043;0,0781034
1108,8685;0,0776882
1109,8328;0,0772451
1110,7970;0,0767618
1111,7612;0,076216
1112,7255;0,0755897
1113,6897;0,0748826
1114,6539;0,0741184
1115,6182;0,0733393
1116,5824;0,0725909
1117,5466;0,0719063
1118,5109;0,0712947
1119,4751;0,070738
1120,4393;0,070197
1121,4036;0,0696214
1122,3678;0,0689635
1123,3320;0,0681893
1124,2963;0,0672859
1125,2605;0,0662612
1126,2247;0,0651387
1127,1890;0,0639477
1128,1532;0,062716
1129,1174;0,0614662
1130,0817;0,0602167
1131,0459;0,0589858
1132,0101;0,0577932
1132,9744;0,0566608
1133,9386;0,0556096
1134,9028;0,0546581
1135,8671;0,0538212
1136,8313;0,0531091
1137,7955;0,0525273
1138,7598;0,0520756
1139,7240;0,051748
1140,6882;0,0515348
1141,6525;0,0514246
1142,6167;0,0514068
1143,5809;0,0514708
1144,5452;0,0516051
1145,5094;0,051796
1146,4736;0,0520306
1147,4379;0,0522995
1148,4021;0,0525994
1149,3663;0,0529311
1150,3306;0,0532929
1151,2948;0,053675
1152,2590;0,0540574
1153,2233;0,0544129
1154,1875;0,054714
1155,1517;0,0549361
1156,1160;0,0550578
1157,0802;0,055057
1158,0444;0,0549082
1159,0087;0,0545842
1159,9729;0,0540613
1160,9371;0,0533256
1161,9014;0,0523764
1162,8656;0,0512268
1163,8298;0,0499022
1164,7941;0,0484382
1165,7583;0,0468803
1166,7225;0,0452815
1167,6868;0,0436973
1168,6510;0,0421782
1169,6152;0,0407614
1170,5795;0,0394672
1171,5437;0,0383002
1172,5079;0,0372548
1173,4722;0,0363221
1174,4364;0,0354948
1175,4006;0,0347677
1176,3649;0,0341361
1177,3291;0,0335935
1178,2933;0,0331299
1179,2576;0,0327335
1180,2218;0,0323928
1181,1860;0,0321006
1182,1503;0,0318547
1183,1145;0,031658
1184,0787;0,0315146
1185,0430;0,0314267
1186,0072;0,0313927
1186,9714;0,0314083
1187,9357;0,0314698
1188,8999;0,0315768
1189,8641;0,0317327
1190,8284;0,0319421
1191,7926;0,0322069
1192,7568;0,0325239
1193,7211;0,0328843
1194,6853;0,0332767
1195,6495;0,0336906
1196,6138;0,0341183
1197,5780;0,0345556
1198,5422;0,0350003
1199,5065;0,0354537
1200,4707;0,0359074
1201,4349;0,0363608
1202,3992;0,0368087
1203,3634;0,0372448
1204,3276;0,0376639
1205,2919;0,0380643
1206,2561;0,0384503
1207,2203;0,0388336
1208,1846;0,0392315
1209,1488;0,0396621
1210,1130;0,0401393
1211,0773;0,0406672
1212,0415;0,0412391
1213,0057;0,0418401
1213,9700;0,0424537
1214,9342;0,0430675
1215,8984;0,0436765
1216,8627;0,0442815
1217,8269;0,0448848
1218,7911;0,0454863
1219,7554;0,0460818
1220,7196;0,0466651
1221,6838;0,0472297
1222,6481;0,0477702
1223,6123;0,0482816
1224,5765;0,0487581
1225,5408;0,0491938
1226,5050;0,0495847
1227,4692;0,0499314
1228,4335;0,0502396
1229,3977;0,0505175
1230,3619;0,0507718
1231,3262;0,0510048
1232,2904;0,0512139
1233,2546;0,0513944
1234,2189;0,0515421
1235,1831;0,051656
1236,1473;0,0517381
1237,1116;0,0517925
1238,0758;0,0518239
1239,0400;0,051836
1240,0043;0,0518307
1240,9685;0,0518068
1241,9327;0,0517603
1242,8970;0,0516853
1243,8612;0,0515765
1244,8254;0,0514307
1245,7897;0,0512486
1246,7539;0,051034
1247,7181;0,0507924
1248,6824;0,0505302
1249,6466;0,0502543
1250,6108;0,0499716
1251,5751;0,0496883
1252,5393;0,0494088
1253,5035;0,0491336
1254,4678;0,0488585
1255,4320;0,0485763
1256,3962;0,0482791
1257,3605;0,0479629
1258,3247;0,0476283
1259,2889;0,0472806
1260,2532;0,0469256
1261,2174;0,0465656
1262,1816;0,0461974
1263,1459;0,0458128
1264,1101;0,0454025
1265,0743;0,0449597
1266,0386;0,0444823
1267,0028;0,0439724
1267,9670;0,0434352
1268,9313;0,0428767
1269,8955;0,0423025
1270,8597;0,0417174
1271,8240;0,0411257
1272,7882;0,0405316
1273,7524;0,0399404
1274,7167;0,0393584
1275,6809;0,0387928
1276,6451;0,038249
1277,6094;0,0377292
1278,5736;0,0372318
1279,5378;0,036753
1280,5021;0,0362904
1281,4663;0,0358448
1282,4305;0,0354207
1283,3948;0,0350232
1284,3590;0,0346553
1285,3232;0,0343171
1286,2875;0,0340074
1287,2517;0,0337256
1288,2159;0,033473
1289,1802;0,033252
1290,1444;0,0330643
1291,1086;0,0329111
1292,0729;0,0327935
1293,0371;0,0327141
1294,0013;0,0326763
1294,9656;0,0326823
1295,9298;0,0327307
1296,8940;0,0328164
1297,8583;0,0329331
1298,8225;0,0330769
1299,7867;0,033248
1300,7510;0,0334498
1301,7152;0,0336846
1302,6794;0,0339511
1303,6437;0,0342431
1304,6079;0,0345522
1305,5721;0,0348711
1306,5364;0,0351966
1307,5006;0,0355294
1308,4648;0,0358719
1309,4291;0,0362238
1310,3933;0,0365805
1311,3575;0,0369326
1312,3218;0,0372679
1313,2860;0,0375738
1314,2502;0,037839
1315,2145;0,038053
1316,1787;0,0382055
1317,1429;0,0382881
1318,1072;0,0382987
1319,0714;0,0382465
1320,0356;0,0381508
1320,9999;0,0380342
1321,9641;0,0379139
1322,9283;0,0377986
1323,8926;0,0376902
1324,8568;0,0375896
1325,8210;0,0374986
1326,7853;0,0374188
1327,7495;0,0373477
1328,7137;0,0372772
1329,6780;0,0371957
1330,6422;0,0370943
1331,6064;0,0369723
1332,5707;0,036838
1333,5349;0,036703
1334,4991;0,036573
1335,4634;0,0364399
1336,4276;0,0362806
1337,3918;0,0360641
1338,3561;0,0357707
1339,3203;0,0354114
1340,2845;0,0350294
1341,2488;0,0346766
1342,2130;0,034386
1343,1772;0,0341642
1344,1415;0,0340011
1345,1057;0,0338831
1346,0699;0,0338021
1347,0342;0,0337594
1347,9984;0,0337628
1348,9626;0,0338203
1349,9269;0,033933
1350,8911;0,0340926
1351,8553;0,0342853
1352,8196;0,0344992
1353,7838;0,0347303
1354,7480;0,0349833
1355,7123;0,0352663
1356,6765;0,0355844
1357,6407;0,0359356
1358,6050;0,0363118
1359,5692;0,0367003
1360,5334;0,0370833
1361,4977;0,0374378
1362,4619;0,0377433
1363,4261;0,0379925
1364,3904;0,0381968
1365,3546;0,0383768
1366,3188;0,0385498
1367,2831;0,0387218
1368,2473;0,0388867
1369,2115;0,0390295
1370,1758;0,0391305
1371,1400;0,0391686
1372,1042;0,0391235
1373,0685;0,0389831
1374,0327;0,038754
1374,9969;0,0384635
1375,9612;0,0381428
1376,9254;0,0378019
1377,8896;0,0374238
1378,8539;0,0369824
1379,8181;0,0364689
1380,7823;0,0359071
1381,7466;0,0353431
1382,7108;0,0348137
1383,6750;0,0343204
1384,6393;0,0338294
1385,6035;0,0332999
1386,5677;0,0327271
1387,5320;0,0321648
1388,4962;0,0316911
1389,4604;0,0313489
1390,4247;0,0311268
1391,3889;0,0309833
1392,3531;0,0308752
1393,3174;0,0307732
1394,2816;0,0306679
1395,2458;0,0305657
1396,2101;0,0304774
1397,1743;0,0304097
1398,1385;0,0303661
1399,1028;0,0303527
1400,0670;0,0303767
1401,0313;0,030441
1401,9955;0,0305416
1402,9597;0,0306695
1403,9240;0,0308175
1404,8882;0,0309844
1405,8524;0,0311748
1406,8167;0,0313926
1407,7809;0,0316372
1408,7451;0,0319058
1409,7094;0,0321978
1410,6736;0,032517
1411,6378;0,0328684
1412,6021;0,0332528
1413,5663;0,0336628
1414,5305;0,0340831
1415,4948;0,034489
1416,4590;0,034846
1417,4232;0,0351166
1418,3875;0,0352852
1419,3517;0,0353756
1420,3159;0,0354281
1421,2802;0,0354605
1422,2444;0,0354605
1423,2086;0,035406
1424,1729;0,0352846
1425,1371;0,0350983
1426,1013;0,0348527
1427,0656;0,0345425
1428,0298;0,0341546
1428,9940;0,0336921
1429,9583;0,033197
1430,9225;0,0327371
1431,8867;0,0323573
1432,8510;0,0320437
1433,8152;0,0317282
1434,7794;0,0313271
1435,7437;0,0308062
1436,7079;0,030239
1437,6721;0,0297674
1438,6364;0,0294784
1439,6006;0,0293604
1440,5648;0,0293595
1441,5291;0,0294311
1442,4933;0,029551
1443,4575;0,0297082
1444,4218;0,029895
1445,3860;0,0301015
1446,3502;0,0303162
1447,3145;0,03053
1448,2787;0,0307409
1449,2429;0,0309538
1450,2072;0,0311762
1451,1714;0,0314124
1452,1356;0,031658
1453,0999;0,031891
1454,0641;0,0320599
1455,0283;0,0320777
1455,9926;0,0318664
1456,9568;0,0314893
1457,9210;0,0311769
1458,8853;0,0310686
1459,8495;0,0311087
1460,8137;0,0311891
1461,7780;0,0312187
1462,7422;0,031116
1463,7064;0,0308188
1464,6707;0,0303352
1465,6349;0,0297672
1466,5991;0,0292338
1467,5634;0,0287754
1468,5276;0,0283443
1469,4918;0,0278424
1470,4561;0,0271533
1471,4203;0,0261922
1472,3845;0,0250069
1473,3488;0,0238242
1474,3130;0,022877
1475,2772;0,0222099
1476,2415;0,0217329
1477,2057;0,0213577
1478,1699;0,0210396
1479,1342;0,0207626
1480,0984;0,0205215
1481,0626;0,0203171
1482,0269;0,0201571
1482,9911;0,0200543
1483,9553;0,0200179
1484,9196;0,0200443
1485,8838;0,0201128
1486,8480;0,0201906
1487,8123;0,020251
1488,7765;0,020301
1489,7407;0,0203846
1490,7050;0,020539
1491,6692;0,0207674
1492,6334;0,0210548
1493,5977;0,0213858
1494,5619;0,021747
1495,5261;0,0221288
1496,4904;0,0225336
1497,4546;0,0229766
1498,4188;0,023464
1499,3831;0,0239755
1500,3473;0,0244824
1501,3115;0,0249665
1502,2758;0,0254165
1503,2400;0,0258128
1504,2042;0,0261114
1505,1685;0,0262368
1506,1327;0,0261238
1507,0969;0,0258329
1508,0612;0,0255355
1509,0254;0,0253045
1509,9896;0,0251084
1510,9539;0,0249138
1511,9181;0,0246966
1512,8823;0,0244262
1513,8466;0,0240663
1514,8108;0,0235961
1515,7750;0,0230325
1516,7393;0,0224263
1517,7035;0,0218219
1518,6677;0,0212217
1519,6320;0,0205993
1520,5962;0,0199553
1521,5604;0,0193541
1522,5247;0,0188816
1523,4889;0,0185688
1524,4531;0,0183769
1525,4174;0,0182468
1526,3816;0,0181468
1527,3458;0,0180824
1528,3101;0,0180715
1529,2743;0,0181148
1530,2385;0,0181842
1531,2028;0,0182339
1532,1670;0,0182302
1533,1312;0,018188
1534,0955;0,0181678
1535,0597;0,0182198
1536,0239;0,0183397
1536,9882;0,0184678
1537,9524;0,0185007
1538,9166;0,0183215
1539,8809;0,017923
1540,8451;0,0175653
1541,8093;0,0175399
1542,7736;0,017785
1543,7378;0,0180879
1544,7020;0,0183423
1545,6663;0,0185388
1546,6305;0,0187009
1547,5947;0,0188495
1548,5590;0,0189897
1549,5232;0,0191136
1550,4874;0,0192135
1551,4517;0,0192955
1552,4159;0,0193802
1553,3801;0,0194863
1554,3444;0,0196091
1555,3086;0,0197043
1556,2728;0,0196822
1557,2371;0,0194535
1558,2013;0,0190976
1559,1655;0,0189175
1560,1298;0,0190312
1561,0940;0,0192818
1562,0582;0,0195518
1563,0225;0,0198185
1563,9867;0,0200849
1564,9509;0,0203447
1565,9152;0,0205792
1566,8794;0,0207713
1567,8436;0,0209283
1568,8079;0,0210925
1569,7721;0,0213118
1570,7363;0,0215971
1571,7006;0,0219218
1572,6648;0,0222515
1573,6290;0,0225616
1574,5933;0,022845
1575,5575;0,023125
1576,5217;0,0234488
1577,4860;0,0238395
1578,4502;0,0242768
1579,4144;0,0247366
1580,3787;0,0252119
1581,3429;0,0257015
1582,3071;0,0261983
1583,2714;0,0266909
1584,2356;0,0271713
1585,1998;0,0276397
1586,1641;0,0280999
1587,1283;0,0285511
1588,0925;0,028983
1589,0568;0,029379
1590,0210;0,0297208
1590,9852;0,0299928
1591,9495;0,0301811
1592,9137;0,0302755
1593,8779;0,0302745
1594,8422;0,030191
1595,8064;0,0300504
1596,7706;0,0298799
1597,7349;0,0296978
1598,6991;0,0295109
1599,6633;0,0293199
1600,6276;0,0291265
1601,5918;0,0289375
1602,5560;0,0287631
1603,5203;0,0286102
1604,4845;0,0284761
1605,4487;0,0283466
1606,4130;0,0282019
1607,3772;0,0280305
1608,3414;0,027844
1609,3057;0,0276794
1610,2699;0,0275774
1611,2341;0,0275524
1612,1984;0,0275815
1613,1626;0,027612
1614,1268;0,0275809
1615,0911;0,0274533
1616,0553;0,0272756
1617,0195;0,0271641
1617,9838;0,0271928
1618,9480;0,0273337
1619,9122;0,0275129
1620,8765;0,0276657
1621,8407;0,0277537
1622,8049;0,0277737
1623,7692;0,0277582
1624,7334;0,0277501
1625,6976;0,0277709
1626,6619;0,0278207
1627,6261;0,0278985
1628,5903;0,0280123
1629,5546;0,0281702
1630,5188;0,0283669
1631,4830;0,0285745
1632,4473;0,0287366
1633,4115;0,028769
1634,3757;0,0285983
1635,3400;0,0282649
1636,3042;0,0279632
1637,2684;0,0278509
1638,2327;0,0279109
1639,1969;0,0280583
1640,1611;0,0282388
1641,1254;0,0284293
1642,0896;0,0286094
1643,0538;0,0287361
1644,0181;0,0287354
1644,9823;0,0285361
1645,9465;0,0281691
1646,9108;0,0278213
1647,8750;0,0276793
1648,8392;0,02776
1649,8035;0,0279463
1650,7677;0,0280604
1651,7319;0,0278913
1652,6962;0,0273401
1653,6604;0,0266738
1654,6246;0,0262693
1655,5889;0,0261462
1656,5531;0,0261522
1657,5173;0,0261848
1658,4816;0,0261848
1659,4458;0,0260979
1660,4100;0,0258779
1661,3743;0,0255282
1662,3385;0,025135
1663,3027;0,0248159
1664,2670;0,0246276
1665,2312;0,024539
1666,1954;0,0244654
1667,1597;0,0243052
1668,1239;0,0239843
1669,0881;0,023523
1670,0524;0,0230543
1671,0166;0,0227115
1671,9808;0,0225095
1672,9451;0,0223664
1673,9093;0,0221927
1674,8735;0,0219567
1675,8378;0,0217043
1676,8020;0,0215174
1677,7662;0,0214455
1678,7305;0,0214786
1679,6947;0,0215608
1680,6589;0,0215977
1681,6232;0,0214589
1682,5874;0,0210348
1683,5516;0,0203887
1684,5159;0,0197975
1685,4801;0,0194621
1686,4443;0,0193397
1687,4086;0,0193094
1688,3728;0,0193007
1689,3370;0,0192998
1690,3013;0,0193212
1691,2655;0,0193804
1692,2297;0,0194749
1693,1940;0,0195785
1694,1582;0,0196497
1695,1224;0,019651
1696,0867;0,0195737
1697,0509;0,01945
1698,0151;0,0193401
1698,9794;0,0192952
1699,9436;0,0193286
1700,9078;0,0194203
1701,8721;0,0195479
1702,8363;0,0197069
1703,8005;0,0199063
1704,7648;0,0201537
1705,7290;0,0204464
1706,6932;0,020771
1707,6575;0,0211128
1708,6217;0,0214685
1709,5859;0,0218482
1710,5502;0,0222643
1711,5144;0,0227171
1712,4786;0,0231859
1713,4429;0,0236303
1714,4071;0,0240034
1715,3713;0,0242835
1716,3356;0,0245151
1717,2998;0,0247904
1718,2640;0,0251504
1719,2283;0,025558
1720,1925;0,0259719
1721,1567;0,0263807
1722,1210;0,0267852
1723,0852;0,0271811
1724,0494;0,0275592
1725,0137;0,0279128
1725,9779;0,028245
1726,9421;0,028566
1727,9064;0,0288836
1728,8706;0,0291915
1729,8348;0,0294593
1730,7991;0,0296283
1731,7633;0,0296274
1732,7275;0,0294299
1733,6918;0,0291154
1734,6560;0,02882
1735,6202;0,028606
1736,5845;0,0284364
1737,5487;0,0282395
1738,5129;0,027957
1739,4772;0,0275671
1740,4414;0,0270962
1741,4056;0,0266004
1742,3699;0,0261209
1743,3341;0,0256573
1744,2983;0,0251847
1745,2626;0,0246794
1746,2268;0,0241224
1747,1910;0,0234875
1748,1553;0,0227426
1749,1195;0,0218867
1750,0837;0,0209894
1751,0480;0,0201616
1752,0122;0,0194722
1752,9764;0,0189118
1753,9407;0,0184239
1754,9049;0,0179509
1755,8691;0,0174666
1756,8334;0,0169827
1757,7976;0,016526
1758,7618;0,0161017
1759,7261;0,0156817
1760,6903;0,0152326
1761,6545;0,0147592
1762,6188;0,0143145
1763,5830;0,0139609
1764,5472;0,0137241
1765,5115;0,013582
1766,4757;0,0134833
1767,4399;0,0133712
1768,4042;0,0131968
1769,3684;0,0129271
1770,3326;0,0125578
1771,2969;0,0121322
1772,2611;0,0117424
1773,2253;0,0114791
1774,1896;0,0113687
1775,1538;0,0113729
1776,1180;0,0114294
1777,0823;0,0114834
1778,0465;0,0114994
1779,0107;0,0114689
1779,9750;0,01141
1780,9392;0,0113508
1781,9034;0,0113053
1782,8677;0,011266
1783,8319;0,0112217
1784,7961;0,0111776
1785,7604;0,0111584
1786,7246;0,0111888
1787,6888;0,0112695
1788,6531;0,0113668
1789,6173;0,0114176
1790,5815;0,0113593
1791,5458;0,0111809
1792,5100;0,0109541
1793,4742;0,0107817
1794,4385;0,0107125
1795,4027;0,0107268
1796,3669;0,0107776
1797,3312;0,0108214
1798,2954;0,0108312
1799,2596;0,0108017
1800,2239;0,0107464
1801,1881;0,0106859
1802,1523;0,0106351
1803,1166;0,0106018
1804,0808;0,0105918
1805,0450;0,0106089
1806,0093;0,010649
1806,9735;0,0106957
1807,9377;0,0107224
1808,9020;0,0107042
1809,8662;0,0106357
1810,8304;0,0105392
1811,7947;0,0104537
1812,7589;0,0104097
1813,7231;0,0104135
1814,6874;0,0104479
1815,6516;0,0104856
1816,6158;0,0105052
1817,5801;0,0105036
1818,5443;0,010496
1819,5085;0,0105016
1820,4728;0,010527
1821,4370;0,0105604
1822,4012;0,0105785
1823,3655;0,010563
1824,3297;0,0105131
1825,2939;0,010444
1826,2582;0,0103714
1827,2224;0,0102992
1828,1866;0,0102238
1829,1509;0,0101511
1830,1151;0,0101051
1831,0793;0,0101123
1832,0436;0,0101767
1833,0078;0,0102742
1833,9720;0,0103667
1834,9363;0,0104197
1835,9005;0,0104205
1836,8647;0,0103905
1837,8290;0,0103755
1838,7932;0,0104149
1839,7574;0,0105143
1840,7217;0,0106398
1841,6859;0,0107324
1842,6501;0,0107346
1843,6144;0,0106281
1844,5786;0,0104541
1845,5428;0,0102821
1846,5071;0,0101561
1847,4713;0,010081
1848,4355;0,0100436
1849,3998;0,0100325
1850,3640;0,0100434
1851,3282;0,0100738
1852,2925;0,0101171
1853,2567;0,0101609
1854,2209;0,010194
1855,1852;0,0102132
1856,1494;0,0102249
1857,1136;0,0102374
1858,0779;0,0102521
1859,0421;0,0102603
1860,0063;0,0102518
1860,9706;0,0102271
1861,9348;0,0102022
1862,8990;0,0102002
1863,8633;0,010235
1864,8275;0,0102993
1865,7917;0,0103634
1866,7560;0,0103882
1867,7202;0,0103511
1868,6844;0,0102655
1869,6487;0,0101711
1870,6129;0,0101006
1871,5771;0,0100619
1872,5414;0,0100452
1873,5056;0,0100361
1874,4698;0,010025
1875,4341;0,0100116
1876,3983;0,0100047
1877,3625;0,0100153
1878,3268;0,0100475
1879,2910;0,0100942
1880,2552;0,0101398
1881,2195;0,0101684
1882,1837;0,0101717
1883,1479;0,0101536
1884,1122;0,0101267
1885,0764;0,0101043
1886,0406;0,0100926
1887,0049;0,0100885
1887,9691;0,0100835
1888,9333;0,0100701
1889,8976;0,010046
1890,8618;0,0100131
1891,8260;0,00997461
1892,7903;0,00993379
1893,7545;0,00989576
1894,7188;0,00986897
1895,6830;0,00986285
1896,6472;0,0098808
1897,6115;0,00991424
1898,5757;0,00994482
1899,5399;0,00995409
1900,5042;0,00993401
1901,4684;0,00989155
1902,4326;0,00984472
1903,3969;0,00981218
1904,3611;0,00980374
1905,3253;0,00981818
1906,2896;0,00984801
1907,2538;0,00988534
1908,2180;0,00992361
1909,1823;0,00995567
1910,1465;0,00997289
1911,1107;0,00996884
1912,0750;0,00994488
1913,0392;0,00991101
1914,0034;0,00987999
1914,9677;0,00985953
1915,9319;0,00984831
1916,8961;0,00983897
1917,8604;0,00982621
1918,8246;0,00981355
1919,7888;0,0098121
1920,7531;0,00983053
1921,7173;0,00986335
1922,6815;0,00988652
1923,6458;0,00986633
1924,6100;0,00977933
1925,5742;0,00963011
1926,5385;0,00945283
1927,5027;0,00929607
1928,4669;0,00920084
1929,4312;0,00918195
1930,3954;0,00921944
1931,3596;0,00926675
1932,3239;0,0092752
1933,2881;0,00922105
1934,2523;0,00911841
1935,2166;0,00900999
1936,1808;0,00894131
1937,1450;0,00893445
1938,1093;0,00897783
1939,0735;0,00903599
1940,0377;0,00907091
1941,0020;0,00906265
1941,9662;0,00901864
1942,9304;0,0089643
1943,8947;0,00892074
1944,8589;0,00888978
1945,8231;0,00885901
1946,7874;0,00881785
1947,7516;0,00876888
1948,7158;0,00872699
1949,6801;0,00870857
1950,6443;0,00871876
1951,6085;0,00874531
1952,5728;0,00876219
1953,5370;0,00873857
1954,5012;0,00864704
1955,4655;0,00846948
1956,4297;0,00820387
1957,3939;0,00787354
1958,3582;0,00753406
1959,3224;0,00726589
1960,2866;0,00714506
1961,2509;0,00720192
1962,2151;0,00739688
1963,1793;0,00763506
1964,1436;0,00781313
1965,1078;0,00787033
1966,0720;0,00781596
1967,0363;0,00771583
1968,0005;0,00764226
1968,9647;0,00762225
1969,9290;0,00762428
1970,8932;0,00758952
1971,8574;0,00747811
1972,8217;0,00729823
1973,7859;0,00710324
1974,7501;0,0069609
1975,7144;0,00691283
1976,6786;0,00695334
1977,6428;0,00704436
1978,6071;0,00715441
1979,5713;0,0072866
1980,5355;0,00747177
1981,4998;0,00773531
1982,4640;0,00806409
1983,4282;0,00839586
1984,3925;0,00863963
1985,3567;0,00871963
1986,3209;0,00861945
1987,2852;0,00839784
1988,2494;0,00816401
1989,2136;0,0080258
1990,1779;0,00803764
1991,1421;0,00817515
1992,1063;0,00835316
1993,0706;0,00847986
1994,0348;0,00851034
1994,9990;0,00846215
1995,9633;0,00838923
1996,9275;0,0083397
1997,8917;0,00832468
1998,8560;0,00831269
1999,8202;0,00825122
2000,7844;0,00810303
2001,7487;0,00787562
2002,7129;0,00762696
2003,6771;0,00744489
2004,6414;0,00740869
2005,6056;0,00754664
2006,5698;0,00780898
2007,5341;0,00807696
2008,4983;0,00821142
2009,4625;0,00811594
2010,4268;0,0077784
2011,3910;0,00727161
2012,3552;0,00672148
2013,3195;0,00626477
2014,2837;0,00601385
2015,2479;0,0060337
2016,2122;0,00632799
2017,1764;0,00683324
2018,1406;0,00742654
2019,1049;0,00795325
2020,0691;0,00827112
2021,0333;0,00829788
2021,9976;0,00804563
2022,9618;0,00762534
2023,9260;0,00721045
2024,8903;0,00696498
2025,8545;0,00696814
2026,8187;0,00717877
2027,7830;0,00746305
2028,7472;0,00766947
2029,7114;0,00770793
2030,6757;0,00759111
2031,6399;0,00742067
2032,6041;0,00732949
2033,5684;0,00741128
2034,5326;0,00767407
2035,4968;0,00804025
2036,4611;0,00838955
2037,4253;0,0086169
2038,3895;0,00867526
2039,3538;0,00858677
2040,3180;0,00842268
2041,2822;0,00826451
2042,2465;0,00816784
2043,2107;0,00814942
2044,1749;0,00820239
2045,1392;0,00832183
2046,1034;0,0085153
2047,0676;0,00878725
2048,0320;0,00911214
2048,9961;0,00942614
2049,9604;0,00965302
2050,9246;0,00974592
2051,8889;0,00971372
2052,8530;0,00961612
2053,8174;0,0095324
2054,7815;0,0095205
2055,7458;0,00958749
2056,7100;0,00969051
2057,6743;0,00976853
2058,6384;0,00978305
2059,6028;0,00973952
2060,5669;0,00967694
2061,5313;0,00963609
2062,4954;0,00963029
2063,4597;0,00963829
2064,4238;0,00962268
2065,3882;0,00955879
2066,3523;0,00945268
2067,3167;0,00933729
2068,2808;0,0092533
2069,2451;0,00923078
2070,2092;0,00928194
2071,1736;0,009404
2072,1377;0,00958471
2073,1021;0,00980455
2074,0662;0,0100367
2075,0305;0,010249
2075,9946;0,0104109
2076,9590;0,0105023
2077,9231;0,0105188
2078,8875;0,0104715
2079,8516;0,0103808
2080,8159;0,0102709
2081,7800;0,0101669
2082,7444;0,010093
2083,7085;0,0100675
2084,6729;0,0100951
2085,6370;0,0101613
2086,6013;0,0102341
2087,5654;0,0102765
2088,5298;0,0102643
2089,4939;0,0101989
2090,4583;0,0101065
2091,4224;0,0100249
2092,3867;0,00998494
2093,3508;0,00999773
2094,3152;0,0100542
2095,2793;0,0101337
2096,2437;0,0102153
2097,2078;0,0102842
2098,1721;0,0103315
2099,1362;0,010351
2100,1006;0,0103377
2101,0647;0,0102934
2102,0291;0,0102279
2102,9932;0,0101623
2103,9575;0,0101219
2104,9216;0,0101268
2105,8860;0,0101829
2106,8501;0,0102799
2107,8145;0,0103951
2108,7786;0,0105016
2109,7429;0,0105768
2110,7070;0,0106073
2111,6714;0,0105911
2112,6355;0,0105379
2113,5999;0,0104663
2114,5640;0,0103995
2115,5283;0,0103581
2116,4924;0,0103533
2117,4568;0,0103823
2118,4209;0,0104293
2119,3853;0,010472
2120,3494;0,0104909
2121,3137;0,0104765
2122,2778;0,0104311
2123,2422;0,0103669
2124,2063;0,0103001
2125,1707;0,0102464
2126,1348;0,0102169
2127,0991;0,010215
2128,0632;0,0102345
2129,0276;0,0102601
2129,9917;0,0102728
2130,9561;0,0102596
2131,9202;0,0102231
2132,8845;0,0101839
2133,8486;0,0101712
2134,8130;0,0102039
2135,7771;0,0102736
2136,7415;0,010344
2137,7056;0,0103681
2138,6699;0,0103144
2139,6340;0,0101842
2140,5984;0,010009
2141,5625;0,00983422
2142,5269;0,00969747
2143,4910;0,00961677
2144,4553;0,00959268
2145,4194;0,00961906
2146,3838;0,00969152
2147,3479;0,00980554
2148,3123;0,00994624
2149,2764;0,01008
2150,2407;0,0101585
2151,2048;0,0101373
2152,1692;0,00999983
2153,1333;0,00977184
2154,0977;0,00951685
2155,0618;0,00931234
2156,0261;0,00921576
2156,9902;0,00923332
2157,9546;0,00930926
2158,9187;0,00935372
2159,8831;0,00930159
2160,8472;0,00915809
2161,8115;0,00899459
2162,7756;0,00890571
2163,7400;0,0089596
2164,7041;0,00916046
2165,6685;0,00943489
2166,6326;0,00965307
2167,5969;0,00968403
2168,5610;0,00946126
2169,5254;0,00902318
2170,4895;0,00850531
2171,4539;0,00808537
2172,4180;0,00790623
2173,3823;0,00801293
2174,3464;0,0083371
2175,3108;0,00873868
2176,2749;0,00908047
2177,2393;0,00928888
2178,2034;0,00936737
2179,1677;0,00936558
2180,1318;0,00933467
2181,0962;0,0092992
2182,0603;0,00925743
2183,0247;0,00920097
2183,9888;0,00913465
2184,9531;0,00908143
2185,9172;0,00907127
2186,8816;0,00912382
2187,8457;0,00923537
2188,8101;0,00937646
2189,7742;0,00950181
2190,7385;0,00956945
2191,7026;0,00956171
2192,6670;0,00949724
2193,6311;0,00942561
2194,5955;0,0094041
2195,5596;0,00946791
2196,5239;0,00961104
2197,4880;0,00978999
2198,4524;0,00994804
2199,4165;0,0100441
2200,3809;0,0100683
2201,3450;0,0100365
2202,3093;0,0099723
2203,2734;0,00989225
2204,2378;0,00980489
2205,2019;0,00972084
2206,1663;0,00966056
2207,1304;0,00964924
2208,0947;0,00970019
2209,0588;0,00979942
2210,0232;0,0099054
2210,9873;0,00996742
2211,9517;0,00995238
2212,9158;0,00986361
2213,8801;0,00974019
2214,8442;0,00963817
2215,8086;0,00960488
2216,7727;0,0096602
2217,7371;0,00979211
2218,7012;0,00996565
2219,6655;0,0101387
2220,6296;0,0102773
2221,5940;0,0103648
2222,5581;0,0104034
2223,5225;0,0104078
2224,4866;0,0103943
2225,4509;0,0103725
2226,4150;0,0103421
2227,3794;0,0102991
2228,3435;0,0102428
2229,3079;0,0101815
2230,2720;0,0101295
2231,2363;0,0100995
2232,2004;0,0100965
2233,1648;0,0101181
2234,1289;0,0101601
2235,0933;0,010221
2236,0574;0,0103004
2237,0217;0,0103923
2237,9858;0,0104801
2238,9502;0,0105401
2239,9143;0,0105524
2240,8787;0,0105124
2241,8428;0,0104346
2242,8071;0,0103463
2243,7712;0,0102761
2244,7356;0,0102445
2245,6997;0,0102608
2246,6641;0,0103235
2247,6282;0,0104214
2248,5925;0,0105335
2249,5566;0,0106317
2250,5210;0,0106888
2251,4851;0,0106906
2252,4495;0,0106429
2253,4136;0,0105695
2254,3779;0,0104989
2255,3420;0,0104498
2256,3064;0,0104245
2257,2705;0,0104147
2258,2349;0,0104126
2259,1990;0,0104184
2260,1633;0,0104374
2261,1274;0,0104713
2262,0918;0,0105109
2263,0559;0,0105386
2264,0203;0,010539
2264,9844;0,0105108
2265,9487;0,0104702
2266,9128;0,0104431
2267,8772;0,0104503
2268,8413;0,0104946
2269,8057;0,0105584
2270,7698;0,0106123
2271,7341;0,0106308
2272,6982;0,010606
2273,6626;0,0105523
2274,6267;0,0104992
2275,5911;0,010477
2276,5552;0,0105024
2277,5195;0,010572
2278,4836;0,0106669
2279,4480;0,010764
2280,4121;0,010848
2281,3765;0,0109155
2282,3406;0,0109714
2283,3049;0,0110199
2284,2690;0,0110581
2285,2334;0,0110775
2286,1975;0,0110711
2287,1619;0,011043
2288,1260;0,0110114
2289,0903;0,0110022
2290,0544;0,011036
2291,0188;0,0111161
2291,9829;0,0112272
2292,9473;0,0113443
2293,9114;0,0114469
2294,8757;0,0115298
2295,8398;0,0116024
2296,8042;0,0116791
2297,7683;0,0117689
2298,7327;0,0118722
2299,6968;0,0119858
2300,6611;0,0121109
2301,6252;0,0122541
2302,5896;0,0124218
2303,5537;0,0126106
2304,5181;0,012805
2305,4822;0,0129842
2306,4465;0,0131348
2307,4106;0,0132606
2308,3750;0,0133802
2309,3391;0,0135135
2310,3035;0,013668
2311,2676;0,0138328
2312,2319;0,0139874
2313,1960;0,0141176
2314,1604;0,0142264
2315,1245;0,0143337
2316,0889;0,0144636
2317,0530;0,0146289
2318,0173;0,0148192
2318,9814;0,0149982
2319,9458;0,0151128
2320,9099;0,0151128
2321,8743;0,0149745
2322,8384;0,0147166
2323,8027;0,0143968
2324,7668;0,0140919
2325,7312;0,0138689
2326,6953;0,0137616
2327,6597;0,0137583
2328,6238;0,0138045
2329,5881;0,0138229
2330,5522;0,0137457
2331,5166;0,0135455
2332,4807;0,0132472
2333,4451;0,0129118
2334,4092;0,0126027
2335,3735;0,012357
2336,3376;0,0121776
2337,3020;0,0120447
2338,2661;0,0119357
2339,2305;0,0118386
2340,1946;0,0117578
2341,1589;0,0117187
2342,1230;0,0117697
2343,0874;0,0119525
2344,0515;0,0122289
2345,0159;0,0124683
2345,9800;0,0125728
2346,9443;0,0125821
2347,9084;0,0126258
2348,8728;0,012807
2349,8369;0,0131288
2350,8013;0,0134916
2351,7654;0,0137544
2352,7297;0,0138398
2353,6938;0,0138028
2354,6582;0,013761
2355,6223;0,013737
2356,5867;0,0136183
2357,5508;0,0132897
2358,5151;0,0127736
2359,4792;0,0122376
2360,4436;0,0118768
2361,4077;0,0117931
2362,3721;0,0119672
2363,3362;0,0123055
2364,3005;0,0126975
2365,2646;0,013056
2366,2290;0,0133393
2367,1931;0,0135535
2368,1575;0,0137324
2369,1216;0,0139074
2370,0859;0,0140864
2371,0500;0,0142526
2372,0144;0,0143798
2372,9785;0,0144467
2373,9429;0,0144437
2374,9070;0,0143692
2375,8713;0,0142249
2376,8354;0,0140134
2377,7998;0,013742
2378,7639;0,0134257
2379,7283;0,0130887
2380,6924;0,01276
2381,6567;0,0124666
2382,6208;0,0122265
2383,5852;0,0120459
2384,5493;0,0119194
2385,5137;0,0118337
2386,4778;0,0117728
2387,4421;0,0117229
2388,4063;0,011676
2389,3706;0,0116311
2390,3347;0,0115932
2391,2991;0,011569
2392,2632;0,0115623
2393,2275;0,0115711
2394,1917;0,0115888
2395,1560;0,0116087
2396,1201;0,0116283
2397,0845;0,0116495
2398,0486;0,0116752
2399,0129;0,0117042
2399,9771;0,0117294
2400,9414;0,0117398
2401,9055;0,0117288
2402,8699;0,011699
2403,8340;0,0116636
2404,7983;0,01164
2405,7625;0,0116406
2406,7268;0,0116666
2407,6909;0,0117073
2408,6553;0,0117457
2409,6194;0,0117682
2410,5837;0,0117707
2411,5479;0,0117602
2412,5122;0,0117501
2413,4763;0,0117532
2414,4407;0,0117753
2415,4048;0,0118121
2416,3691;0,0118519
2417,3333;0,0118809
2418,2976;0,0118904
2419,2617;0,0118802
2420,2261;0,0118588
2421,1902;0,0118396
2422,1545;0,0118349
2423,1187;0,0118515
2424,0830;0,0118878
2425,0471;0,0119349
2426,0115;0,0119802
2426,9756;0,0120118
2427,9399;0,0120229
2428,9041;0,0120141
2429,8684;0,0119927
2430,8325;0,0119687
2431,7969;0,0119511
2432,7610;0,0119438
2433,7253;0,0119462
2434,6895;0,0119545
2435,6538;0,0119651
2436,6179;0,0119773
2437,5823;0,0119925
2438,5464;0,0120134
2439,5107;0,0120406
2440,4749;0,0120721
2441,4392;0,0121033
2442,4033;0,012129
2443,3677;0,0121455
2444,3318;0,0121516
2445,2961;0,0121477
2446,2603;0,0121353
2447,2246;0,0121149
2448,1887;0,0120875
2449,1531;0,012056
2450,1172;0,0120269
2451,0815;0,0120095
2452,0457;0,0120121
2453,0100;0,0120375
2453,9741;0,0120801
2454,9385;0,0121272
2455,9026;0,0121649
2456,8669;0,012184
2457,8311;0,0121826
2458,7954;0,0121653
2459,7595;0,0121396
2460,7239;0,0121134
2461,6880;0,0120935
2462,6523;0,012087
2463,6165;0,0120993
2464,5808;0,0121318
2465,5449;0,0121786
2466,5093;0,0122274
2467,4734;0,0122644
2468,4377;0,0122808
2469,4019;0,0122772
2470,3662;0,0122621
2471,3303;0,0122458
2472,2947;0,0122347
2473,2588;0,0122301
2474,2231;0,0122306
2475,1873;0,0122357
2476,1516;0,0122471
2477,1157;0,0122653
2478,0801;0,0122878
2479,0442;0,0123085
2480,0085;0,0123213
2480,9727;0,0123253
2481,9370;0,0123251
2482,9011;0,0123281
2483,8655;0,0123397
2484,8296;0,0123599
2485,7939;0,0123837
2486,7581;0,0124041
2487,7224;0,0124154
2488,6865;0,0124149
2489,6509;0,0124034
2490,6150;0,0123854
2491,5793;0,0123675
2492,5435;0,0123565
2493,5078;0,0123552
2494,4719;0,01236
2495,4363;0,0123619
2496,4004;0,0123525
2497,3647;0,0123311
2498,3289;0,0123073
2499,2932;0,0122967
2500,2573;0,0123109
2501,2217;0,0123495
2502,1858;0,0123986
2503,1501;0,012438
2504,1143;0,0124526
2505,0786;0,0124396
2506,0427;0,0124082
2507,0071;0,0123734
2507,9712;0,0123475
2508,9355;0,0123359
2509,8997;0,0123374
2510,8640;0,0123477
2511,8281;0,0123625
2512,7925;0,0123787
2513,7566;0,0123938
2514,7209;0,0124053
2515,6851;0,0124108
2516,6494;0,01241
2517,6135;0,0124055
2518,5779;0,0124021
2519,5420;0,0124058
2520,5063;0,0124202
2521,4705;0,0124443
2522,4348;0,0124725
2523,3989;0,0124956
2524,3633;0,0125059
2525,3274;0,0125008
2526,2917;0,0124854
2527,2559;0,0124699
2528,2202;0,0124652
2529,1843;0,0124765
2530,1487;0,0125003
2531,1128;0,0125261
2532,0771;0,0125431
2533,0413;0,012546
2534,0056;0,0125387
2534,9697;0,0125312
2535,9341;0,0125337
2536,8982;0,0125505
2537,8625;0,0125776
2538,8267;0,0126064
2539,7910;0,0126288
2540,7551;0,012641
2541,7195;0,0126435
2542,6836;0,0126382
2543,6479;0,0126251
2544,6121;0,0126029
2545,5764;0,0125718
2546,5405;0,0125365
2547,5049;0,0125066
2548,4690;0,0124928
2549,4333;0,0125007
2550,3975;0,0125276
2551,3618;0,0125622
2552,3259;0,012591
2553,2903;0,0126045
2554,2544;0,0126024
2555,2188;0,0125933
2556,1829;0,0125899
2557,1472;0,0126014
2558,1113;0,0126285
2559,0757;0,012662
2560,0398;0,0126884
2561,0042;0,0126964
2561,9683;0,0126832
2562,9326;0,012656
2563,8967;0,0126275
2564,8611;0,0126096
2565,8252;0,0126071
2566,7896;0,0126177
2567,7537;0,0126345
2568,7180;0,0126516
2569,6821;0,0126662
2570,6465;0,0126787
2571,6106;0,012689
2572,5750;0,0126952
2573,5391;0,012694
2574,5034;0,0126838
2575,4675;0,0126671
2576,4319;0,0126503
2577,3960;0,012641
2578,3604;0,0126447
2579,3245;0,0126621
2580,2888;0,0126902
2581,2529;0,0127234
2582,2173;0,0127552
2583,1814;0,0127802
2584,1458;0,0127943
2585,1099;0,0127967
2586,0742;0,0127904
2587,0383;0,0127814
2588,0027;0,0127763
2588,9668;0,0127789
2589,9312;0,0127892
2590,8953;0,0128041
2591,8596;0,0128204
2592,8237;0,0128367
2593,7881;0,012853
2594,7522;0,012869
2595,7166;0,0128827
2596,6807;0,0128918
2597,6450;0,0128953
2598,6091;0,0128953
2599,5735;0,0128954
2600,5376;0,0128979
2601,5020;0,0129025
2602,4661;0,0129076
2603,4304;0,0129137
2604,3945;0,0129249
2605,3589;0,0129465
2606,3230;0,0129797
2607,2874;0,0130181
2608,2515;0,0130492
2609,2158;0,0130609
2610,1799;0,0130495
2611,1443;0,0130225
2612,1084;0,0129947
2613,0728;0,0129809
2614,0369;0,0129888
2615,0012;0,0130164
2615,9653;0,0130551
2616,9297;0,013095
2617,8938;0,0131289
2618,8582;0,0131539
2619,8223;0,0131705
2620,7866;0,0131809
2621,7507;0,0131874
2622,7151;0,0131916
2623,6792;0,0131944
2624,6436;0,0131966
2625,6077;0,0131992
2626,5720;0,0132039
2627,5361;0,0132127
2628,5005;0,013227
2629,4646;0,0132463
2630,4290;0,0132685
2631,3931;0,0132903
2632,3574;0,0133086
2633,3215;0,0133218
2634,2859;0,0133306
2635,2500;0,0133366
2636,2144;0,0133421
2637,1785;0,0133484
2638,1428;0,013356
2639,1069;0,0133641
2640,0713;0,0133716
2641,0354;0,0133777
2641,9998;0,0133828
2642,9639;0,0133885
2643,9282;0,0133971
2644,8923;0,013411
2645,8567;0,0134309
2646,8208;0,0134561
2647,7852;0,0134841
2648,7493;0,0135123
2649,7136;0,0135389
2650,6777;0,0135633
2651,6421;0,0135866
2652,6062;0,0136094
2653,5706;0,0136314
2654,5347;0,0136509
2655,4990;0,0136656
2656,4631;0,0136739
2657,4275;0,0136761
2658,3916;0,0136749
2659,3560;0,013674
2660,3201;0,013677
2661,2844;0,0136854
2662,2485;0,0136987
2663,2129;0,0137151
2664,1770;0,0137325
2665,1414;0,0137495
2666,1055;0,0137653
2667,0698;0,0137792
2668,0339;0,0137899
2668,9983;0,0137962
2669,9624;0,0137977
2670,9268;0,0137968
2671,8909;0,0137982
2672,8552;0,0138078
2673,8193;0,0138295
2674,7837;0,0138622
2675,7478;0,0138996
2676,7122;0,0139321
2677,6763;0,0139515
2678,6406;0,0139556
2679,6047;0,0139491
2680,5691;0,0139421
2681,5332;0,0139445
2682,4976;0,0139614
2683,4617;0,0139911
2684,4260;0,0140267
2685,3901;0,01406
2686,3545;0,0140857
2687,3186;0,0141028
2688,2830;0,0141135
2689,2471;0,0141215
2690,2114;0,0141295
2691,1755;0,0141381
2692,1399;0,0141468
2693,1040;0,0141541
2694,0684;0,0141591
2695,0325;0,0141624
2695,9968;0,0141658
2696,9609;0,0141727
2697,9253;0,0141864
2698,8894;0,014209
2699,8538;0,0142398
2700,8179;0,0142761
2701,7822;0,0143133
2702,7463;0,0143471
2703,7107;0,0143744
2704,6748;0,0143944
2705,6392;0,0144083
2706,6033;0,0144193
2707,5676;0,0144315
2708,5317;0,0144487
2709,4961;0,0144726
2710,4602;0,0145015
2711,4246;0,0145308
2712,3887;0,0145551
2713,3530;0,0145712
2714,3171;0,0145801
2715,2815;0,0145864
2716,2456;0,0145958
2717,2100;0,0146112
2718,1741;0,0146315
2719,1384;0,0146526
2720,1025;0,01467
2721,0669;0,0146815
2722,0310;0,0146879
2722,9954;0,0146916
2723,9595;0,0146953
2724,9238;0,0147009
2725,8879;0,0147105
2726,8523;0,0147261
2727,8164;0,0147498
2728,7808;0,0147815
2729,7449;0,0148184
2730,7092;0,0148545
2731,6733;0,0148833
2732,6377;0,0149003
2733,6018;0,0149051
2734,5662;0,0149016
2735,5303;0,0148962
2736,4946;0,014895
2737,4587;0,0149017
2738,4231;0,0149172
2739,3872;0,0149395
2740,3516;0,0149648
2741,3157;0,0149887
2742,2800;0,0150074
2743,2441;0,0150187
2744,2085;0,0150222
2745,1726;0,0150195
2746,1370;0,0150141
2747,1011;0,0150101
2748,0654;0,0150116
2749,0295;0,0150218
2749,9939;0,0150419
2750,9580;0,0150706
2751,9224;0,0151049
2752,8865;0,0151399
2753,8508;0,0151713
2754,8149;0,0151957
2755,7793;0,0152121
2756,7434;0,0152221
2757,7078;0,0152288
2758,6719;0,0152363
2759,6362;0,0152483
2760,6003;0,015267
2761,5647;0,0152921
2762,5288;0,0153214
2763,4932;0,0153513
2764,4573;0,0153783
2765,4216;0,0154005
2766,3857;0,0154184
2767,3501;0,0154346
2768,3142;0,0154521
2769,2786;0,0154723
2770,2427;0,0154944
2771,2070;0,0155155
2772,1711;0,0155323
2773,1355;0,0155437
2774,0996;0,0155522
2775,0640;0,0155632
2776,0281;0,0155827
2776,9924;0,0156142
2777,9565;0,0156565
2778,9209;0,0157044
2779,8850;0,0157511
2780,8494;0,015792
2781,8135;0,015827
2782,7778;0,0158595
2783,7419;0,0158939
2784,7063;0,0159313
2785,6704;0,0159689
2786,6348;0,016001
2787,5989;0,0160227
2788,5632;0,0160333
2789,5273;0,016038
2790,4917;0,0160453
2791,4558;0,0160639
2792,4202;0,0160987
2793,3843;0,0161489
2794,3486;0,0162095
2795,3127;0,0162733
2796,2771;0,016334
2797,2412;0,0163883
2798,2056;0,0164363
2799,1697;0,0164804
2800,1340;0,016524
2801,0981;0,0165703
2802,0625;0,0166213
2803,0266;0,0166771
2803,9910;0,0167367
2804,9551;0,0167978
2805,9194;0,0168576
2806,8835;0,0169143
2807,8479;0,0169675
2808,8120;0,0170191
2809,7764;0,0170726
2810,7405;0,0171318
2811,7048;0,0171987
2812,6689;0,0172725
2813,6333;0,0173492
2814,5974;0,0174243
2815,5618;0,0174949
2816,5259;0,0175617
2817,4902;0,0176296
2818,4543;0,0177046
2819,4187;0,0177914
2820,3828;0,0178899
2821,3472;0,0179959
2822,3113;0,0181033
2823,2756;0,0182082
2824,2397;0,0183116
2825,2041;0,018419
2826,1682;0,0185368
2827,1326;0,0186672
2828,0967;0,018807
2829,0610;0,0189484
2830,0251;0,019085
2830,9895;0,0192163
2831,9536;0,0193496
2832,9180;0,0194957
2833,8821;0,0196633
2834,8464;0,0198531
2835,8105;0,0200582
2836,7749;0,0202685
2837,7390;0,020478
2838,7034;0,0206891
2839,6675;0,0209118
2840,6318;0,0211588
2841,5959;0,021439
2842,5603;0,0217542
2843,5244;0,0220988
2844,4888;0,0224623
2845,4529;0,022832
2846,4172;0,023194
2847,3813;0,023533
2848,3457;0,023833
2849,3098;0,0240789
2850,2742;0,0242601
2851,2383;0,0243728
2852,2026;0,0244215
2853,1667;0,024417
2854,1311;0,0243728
2855,0952;0,0243019
2856,0596;0,0242146
2857,0237;0,0241195
2857,9880;0,0240248
2858,9521;0,0239403
2859,9165;0,0238766
2860,8806;0,0238426
2861,8450;0,0238425
2862,8091;0,0238736
2863,7734;0,0239281
2864,7375;0,0239963
2865,7019;0,0240707
2866,6660;0,0241477
2867,6304;0,0242267
2868,5945;0,0243067
2869,5588;0,0243844
2870,5229;0,0244534
2871,4873;0,0245077
2872,4514;0,0245443
2873,4158;0,0245655
2874,3799;0,0245776
2875,3442;0,0245888
2876,3083;0,0246053
2877,2727;0,0246301
2878,2368;0,0246634
2879,2012;0,0247037
2880,1653;0,0247496
2881,1296;0,0247998
2882,0938;0,024854
2883,0581;0,0249116
2884,0222;0,0249719
2884,9866;0,0250332
2885,9507;0,0250936
2886,9150;0,0251515
2887,8792;0,0252068
2888,8435;0,0252618
2889,8076;0,025321
2890,7720;0,0253886
2891,7361;0,0254665
2892,7004;0,0255524
2893,6646;0,0256407
2894,6289;0,0257251
2895,5930;0,0258015
2896,5574;0,0258698
2897,5215;0,0259332
2898,4858;0,0259956
2899,4500;0,0260602
2900,4143;0,0261287
2901,3784;0,0262019
2902,3428;0,0262808
2903,3069;0,0263657
2904,2712;0,0264562
2905,2354;0,026551
2906,1997;0,0266503
2907,1638;0,026758
2908,1282;0,0268826
2909,0923;0,027034
2910,0566;0,0272189
2911,0208;0,0274365
2911,9851;0,0276771
2912,9492;0,0279254
2913,9136;0,0281655
2914,8777;0,0283849
2915,8420;0,028576
2916,8062;0,0287342
2917,7705;0,0288562
2918,7346;0,0289391
2919,6990;0,0289803
2920,6631;0,0289785
2921,6274;0,0289349
2922,5916;0,0288531
2923,5559;0,0287387
2924,5200;0,0285983
2925,4844;0,0284385
2926,4485;0,0282641
2927,4128;0,0280777
2928,3770;0,0278793
2929,3413;0,0276684
2930,3054;0,0274455
2931,2698;0,027214
2932,2339;0,0269796
2933,1982;0,0267488
2934,1624;0,0265265
2935,1267;0,0263145
2936,0908;0,0261101
2937,0552;0,0259073
2938,0193;0,0256987
2938,9836;0,0254792
2939,9478;0,0252486
2940,9121;0,025013
2941,8762;0,0247819
2942,8406;0,0245643
2943,8047;0,0243648
2944,7690;0,0241826
2945,7332;0,024014
2946,6975;0,023856
2947,6616;0,0237084
2948,6260;0,0235724
2949,5901;0,0234482
2950,5544;0,0233323
2951,5186;0,0232195
2952,4829;0,0231052
2953,4470;0,0229889
2954,4114;0,022874
2955,3755;0,0227641
2956,3398;0,0226594
2957,3040;0,0225557
2958,2683;0,0224453
2959,2324;0,0223215
2960,1968;0,0221814
2961,1609;0,0220268
2962,1252;0,0218634
2963,0894;0,0216986
2964,0537;0,0215393
2965,0178;0,02139
2965,9822;0,0212513
2966,9463;0,0211187
2967,9106;0,0209839
2968,8748;0,0208385
2969,8391;0,0206782
2970,8032;0,0205061
2971,7676;0,0203325
2972,7317;0,0201703
2973,6960;0,0200291
2974,6602;0,0199111
2975,6245;0,01981
2976,5886;0,0197157
2977,5530;0,0196195
2978,5171;0,0195181
2979,4814;0,0194137
2980,4456;0,0193111
2981,4099;0,0192138
2982,3740;0,019123
2983,3384;0,0190377
2984,3025;0,0189575
2985,2668;0,0188841
2986,2310;0,0188201
2987,1953;0,0187675
2988,1594;0,0187254
2989,1238;0,0186912
2990,0879;0,0186627
2991,0522;0,0186403
2992,0164;0,0186267
2992,9807;0,0186235
2993,9448;0,0186287
2994,9092;0,0186364
2995,8733;0,0186393
2996,8376;0,0186333
2997,8018;0,0186196
2998,7661;0,0186035
2999,7302;0,0185911
3000,6946;0,0185856
3001,6587;0,0185871
3002,6230;0,0185937
3003,5872;0,0186033
3004,5515;0,0186138
3005,5156;0,0186231
3006,4800;0,0186285
3007,4441;0,0186283
3008,4084;0,0186239
3009,3726;0,0186201
3010,3369;0,0186229
3011,3010;0,0186352
3012,2654;0,0186534
3013,2295;0,0186695
3014,1938;0,0186755
3015,1580;0,0186703
3016,1223;0,0186617
3017,0864;0,018663
3018,0508;0,018686
3019,0149;0,0187342
3019,9792;0,0188004
3020,9434;0,0188711
3021,9077;0,0189322
3022,8718;0,0189753
3023,8362;0,0189998
3024,8003;0,0190113
3025,7646;0,0190184
3026,7288;0,0190286
3027,6931;0,0190474
3028,6572;0,0190769
3029,6216;0,0191161
3030,5857;0,0191608
3031,5500;0,0192058
3032,5142;0,0192469
3033,4785;0,019284
3034,4426;0,0193211
3035,4070;0,019364
3036,3711;0,0194166
3037,3354;0,0194769
3038,2996;0,0195384
3039,2639;0,0195928
3040,2280;0,0196355
3041,1924;0,0196684
3042,1565;0,0196988
3043,1208;0,0197357
3044,0850;0,0197852
3045,0493;0,0198474
3046,0134;0,0199173
3046,9778;0,0199877
3047,9419;0,0200531
3048,9063;0,0201122
3049,8704;0,0201679
3050,8347;0,0202252
3051,7988;0,0202875
3052,7632;0,0203543
3053,7273;0,0204215
3054,6917;0,0204839
3055,6558;0,0205401
3056,6201;0,0205941
3057,5842;0,0206537
3058,5486;0,0207257
3059,5127;0,0208106
3060,4771;0,0209017
3061,4412;0,0209875
3062,4055;0,021058
3063,3696;0,021109
3064,3340;0,021144
3065,2981;0,0211718
3066,2625;0,0212021
3067,2266;0,0212427
3068,1909;0,021298
3069,1550;0,0213696
3070,1194;0,0214565
3071,0835;0,0215548
3072,0479;0,0216571
3073,0120;0,0217542
3073,9763;0,0218377
3074,9404;0,0219039
3075,9048;0,0219546
3076,8689;0,0219962
3077,8333;0,0220354
3078,7974;0,0220763
3079,7617;0,0221195
3080,7258;0,0221646
3081,6902;0,0222129
3082,6543;0,0222684
3083,6187;0,0223359
3084,5828;0,0224173
3085,5471;0,0225088
3086,5112;0,0226025
3087,4756;0,0226891
3088,4397;0,0227625
3089,4041;0,022821
3090,3682;0,022867
3091,3325;0,0229049
3092,2966;0,0229406
3093,2610;0,0229814
3094,2251;0,023035
3095,1895;0,023107
3096,1536;0,0231969
3097,1179;0,0232962
3098,0820;0,0233904
3099,0464;0,0234665
3100,0105;0,0235203
3100,9749;0,0235595
3101,9390;0,0235997
3102,9033;0,0236554
3103,8674;0,0237315
3104,8318;0,0238218
3105,7959;0,023914
3106,7603;0,0239989
3107,7244;0,0240754
3108,6887;0,0241504
3109,6528;0,0242326
3110,6172;0,0243261
3111,5813;0,0244276
3112,5457;0,0245289
3113,5098;0,0246226
3114,4741;0,024706
3115,4382;0,024781
3116,4026;0,0248509
3117,3667;0,0249172
3118,3311;0,024979
3119,2952;0,0250352
3120,2595;0,0250875
3121,2236;0,0251408
3122,1880;0,0252016
3123,1521;0,0252744
3124,1165;0,0253604
3125,0806;0,0254574
3126,0449;0,0255616
3127,0090;0,0256684
3127,9734;0,0257728
3128,9375;0,0258697
3129,9019;0,0259546
3130,8660;0,0260264
3131,8303;0,0260892
3132,7944;0,026151
3133,7588;0,026221
3134,7229;0,0263048
3135,6873;0,0264017
3136,6514;0,0265063
3137,6157;0,0266116
3138,5798;0,026713
3139,5442;0,0268099
3140,5083;0,0269042
3141,4727;0,0269982
3142,4368;0,0270917
3143,4011;0,0271825
3144,3652;0,027268
3145,3296;0,0273481
3146,2937;0,0274262
3147,2581;0,0275073
3148,2222;0,0275959
3149,1865;0,0276918
3150,1506;0,0277907
3151,1150;0,0278868
3152,0791;0,0279769
3153,0435;0,0280637
3154,0076;0,0281543
3154,9719;0,0282555
3155,9360;0,0283684
3156,9004;0,0284862
3157,8645;0,0285974
3158,8289;0,0286925
3159,7930;0,0287692
3160,7573;0,0288337
3161,7214;0,0288972
3162,6858;0,028969
3163,6499;0,0290523
3164,6143;0,029144
3165,5784;0,0292379
3166,5427;0,0293298
3167,5068;0,0294203
3168,4712;0,0295132
3169,4353;0,0295991
3170,3997;0,0297073
3171,3638;0,0298206
3172,3281;0,0299325
3173,2922;0,0300363
3174,2566;0,0301281
3175,2207;0,030209
3176,1851;0,0302852
3177,1492;0,0303657
3178,1135;0,0304586
3179,0776;0,0305668
3180,0420;0,0306866
3181,0061;0,0308085
3181,9705;0,0309221
3182,9346;0,0310218
3183,8989;0,0311088
3184,8630;0,0311901
3185,8274;0,0312726
3186,7915;0,0313586
3187,7559;0,0314453
3188,7200;0,0315285
3189,6843;0,0316075
3190,6484;0,0316873
3191,6128;0,0317746
3192,5769;0,0318735
3193,5413;0,0319812
3194,5054;0,03209
3195,4697;0,0321924
3196,4338;0,0322854
3197,3982;0,0323709
3198,3623;0,0324518
3199,3267;0,0325292
3200,2908;0,0326012
3201,2551;0,0326667
3202,2192;0,0327283
3203,1836;0,032793
3204,1477;0,0328688
3205,1121;0,0329601
3206,0762;0,033065
3207,0405;0,0331756
3208,0046;0,0332823
3208,9690;0,0333773
3209,9331;0,0334571
3210,8975;0,0335225
3211,8616;0,0335783
3212,8259;0,0336315
3213,7900;0,0336897
3214,7544;0,0337591
3215,7185;0,0338425
3216,6829;0,0339383
3217,6470;0,0340411
3218,6113;0,0341446
3219,5754;0,0342441
3220,5398;0,0343381
3221,5039;0,0344271
3222,4683;0,0345122
3223,4324;0,0345934
3224,3967;0,0346706
3225,3608;0,034745
3226,3252;0,03482
3227,2893;0,0349005
3228,2537;0,0349892
3229,2178;0,0350849
3230,1821;0,0351816
3231,1462;0,0352728
3232,1106;0,0353545
3233,0747;0,0354285
3234,0391;0,0354999
3235,0032;0,0355738
3235,9675;0,0356508
3236,9316;0,0357272
3237,8960;0,0357976
3238,8601;0,0358598
3239,8245;0,0359173
3240,7886;0,0359782
3241,7529;0,0360513
3242,7170;0,0361407
3243,6814;0,0362428
3244,6455;0,0363477
3245,6099;0,0364443
3246,5740;0,0365264
3247,5383;0,0365961
3248,5024;0,0366618
3249,4668;0,0367327
3250,4309;0,0368133
3251,3953;0,0369011
3252,3594;0,03699
3253,3237;0,0370751
3254,2878;0,0371569
3255,2522;0,0372403
3256,2163;0,0373302
3257,1807;0,0374274
3258,1448;0,0375275
3259,1091;0,0376246
3260,0732;0,0377153
3261,0376;0,0378004
3262,0017;0,037883
3262,9661;0,0379657
3263,9302;0,0380486
3264,8945;0,0381295
3265,8586;0,0382062
3266,8230;0,0382776
3267,7871;0,0383434
3268,7515;0,0384029
3269,7156;0,0384546
3270,6799;0,0384973
3271,6440;0,0385323
3272,6084;0,0385638
3273,5725;0,0385988
3274,5369;0,0386437
3275,5010;0,0387017
3276,4653;0,0387706
3277,4294;0,0388429
3278,3938;0,0389093
3279,3579;0,0389625
3280,3223;0,0390018
3281,2864;0,0390331
3282,2507;0,0390656
3283,2148;0,0391059
3284,1792;0,0391522
3285,1433;0,0391954
3286,1077;0,0392238
3287,0718;0,0392315
3288,0361;0,0392229
3289,0002;0,0392111
3289,9646;0,0392109
3290,9287;0,0392308
3291,8931;0,0392689
3292,8572;0,0393145
3293,8215;0,0393553
3294,7856;0,0393826
3295,7500;0,0393949
3296,7141;0,0393968
3297,6785;0,0393958
3298,6426;0,0393989
3299,6069;0,0394101
3300,5710;0,0394293
3301,5354;0,0394534
3302,4995;0,0394775
3303,4639;0,039497
3304,4280;0,0395101
3305,3923;0,0395181
3306,3564;0,0395247
3307,3208;0,0395339
3308,2849;0,0395479
3309,2493;0,0395662
3310,2134;0,0395859
3311,1777;0,0396043
3312,1418;0,0396209
3313,1062;0,0396384
3314,0703;0,0396618
3315,0347;0,0396958
3315,9988;0,0397415
3316,9631;0,0397959
3317,9272;0,0398525
3318,8916;0,0399045
3319,8557;0,0399485
3320,8201;0,0399852
3321,7842;0,0400186
3322,7485;0,0400533
3323,7126;0,0400918
3324,6770;0,0401338
3325,6411;0,0401767
3326,6055;0,0402177
3327,5696;0,0402545
3328,5339;0,040286
3329,4980;0,0403117
3330,4624;0,0403313
3331,4265;0,0403448
3332,3909;0,0403524
3333,3550;0,0403553
3334,3193;0,0403552
3335,2834;0,0403545
3336,2478;0,0403542
3337,2119;0,0403529
3338,1763;0,0403462
3339,1404;0,0403283
3340,1047;0,0402947
3341,0688;0,0402455
3342,0332;0,0401864
3342,9973;0,0401272
3343,9617;0,0400766
3344,9258;0,040038
3345,8901;0,0400078
3346,8542;0,039978
3347,8186;0,0399405
3348,7827;0,0398915
3349,7471;0,0398328
3350,7112;0,03977
3351,6755;0,0397097
3352,6396;0,039656
3353,6040;0,03961
3354,5681;0,0395699
3355,5325;0,0395326
3356,4966;0,0394944
3357,4609;0,0394525
3358,4250;0,0394049
3359,3894;0,039351
3360,3535;0,039291
3361,3179;0,0392263
3362,2820;0,0391591
3363,2463;0,0390925
3364,2104;0,03903
3365,1748;0,0389743
3366,1389;0,0389255
3367,1033;0,0388811
3368,0674;0,0388361
3369,0317;0,0387858
3369,9958;0,0387273
3370,9602;0,0386598
3371,9243;0,0385838
3372,8887;0,0384995
3373,8528;0,0384072
3374,8171;0,0383093
3375,7813;0,0382127
3376,7456;0,038128
3377,7097;0,0380657
3378,6741;0,0380301
3379,6382;0,038015
3380,6025;0,0380053
3381,5667;0,0379835
3382,5310;0,0379385
3383,4951;0,0378712
3384,4595;0,0377937
3385,4236;0,0377212
3386,3879;0,0376635
3387,3521;0,0376185
3388,3164;0,0375745
3389,2805;0,0375169
3390,2449;0,037437
3391,2090;0,037337
3392,1733;0,0372297
3393,1375;0,037133
3394,1018;0,0370616
3395,0659;0,03702
3396,0303;0,0370014
3396,9944;0,0369904
3397,9587;0,0369692
3398,9229;0,0369247
3399,8872;0,0368525
3400,8513;0,0367577
3401,8157;0,0366505
3402,7798;0,0365417
3403,7441;0,0364383
3404,7083;0,0363427
3405,6726;0,0362546
3406,6367;0,0361731
3407,6011;0,0360971
3408,5652;0,036025
3409,5295;0,0359527
3410,4937;0,0358751
3411,4580;0,0357887
3412,4221;0,0356946
3413,3865;0,0355985
3414,3506;0,0355079
3415,3149;0,0354264
3416,2791;0,0353512
3417,2434;0,035274
3418,2075;0,0351861
3419,1719;0,0350839
3420,1360;0,0349711
3421,1003;0,0348568
3422,0645;0,0347492
3423,0288;0,0346513
3423,9929;0,0345608
3424,9573;0,0344732
3425,9214;0,0343854
3426,8857;0,0342965
3427,8499;0,0342059
3428,8142;0,034111
3429,7783;0,034007
3430,7427;0,0338901
3431,7068;0,0337619
3432,6711;0,0336307
3433,6353;0,033508
3434,5996;0,0334011
3435,5637;0,0333082
3436,5281;0,0332194
3437,4922;0,0331235
3438,4565;0,0330167
3439,4207;0,032905
3440,3850;0,0327993
3441,3491;0,032705
3442,3135;0,0326152
3443,2776;0,0325126
3444,2419;0,0323817
3445,2061;0,0322203
3446,1704;0,0320445
3447,1345;0,03188
3448,0989;0,0317457
3449,0630;0,031642
3450,0273;0,0315533
3450,9915;0,03146
3451,9558;0,0313518
3452,9199;0,031232
3453,8843;0,0311124
3454,8484;0,0310035
3455,8127;0,030906
3456,7769;0,0308107
3457,7412;0,0307054
3458,7053;0,0305837
3459,6697;0,0304495
3460,6338;0,0303151
3461,5981;0,0301926
3462,5623;0,0300862
3463,5266;0,0299889
3464,4907;0,0298862
3465,4551;0,0297647
3466,4192;0,0296203
3467,3835;0,0294612
3468,3477;0,0293027
3469,3120;0,0291587
3470,2761;0,0290344
3471,2405;0,0289247
3472,2046;0,02882
3473,1689;0,028714
3474,1331;0,0286074
3475,0974;0,0285051
3476,0615;0,0284093
3477,0259;0,0283145
3477,9900;0,0282092
3478,9543;0,0280844
3479,9185;0,0279413
3480,8828;0,0277936
3481,8469;0,0276596
3482,8113;0,0275492
3483,7754;0,027456
3484,7397;0,0273613
3485,7039;0,0272459
3486,6682;0,0271028
3487,6323;0,0269416
3488,5967;0,0267837
3489,5608;0,026648
3490,5251;0,0265398
3491,4893;0,0264479
3492,4536;0,0263537
3493,4177;0,0262439
3494,3821;0,0261207
3495,3462;0,0260014
3496,3105;0,0259075
3497,2747;0,0258476
3498,2390;0,0258083
3499,2031;0,0257588
3500,1675;0,0256658
3501,1316;0,0255134
3502,0959;0,0253164
3503,0601;0,0251146
3504,0244;0,0249488
3504,9885;0,0248343
3505,9529;0,0247549
3506,9170;0,0246766
3507,8813;0,0245696
3508,8455;0,024424
3509,8098;0,0242544
3510,7739;0,0240881
3511,7383;0,0239469
3512,7024;0,0238361
3513,6667;0,0237465
3514,6309;0,0236655
3515,5952;0,0235856
3516,5593;0,0235066
3517,5237;0,0234319
3518,4878;0,0233617
3519,4521;0,0232909
3520,4163;0,0232112
3521,3806;0,0231162
3522,3447;0,0230047
3523,3091;0,0228796
3524,2732;0,0227428
3525,2375;0,0225922
3526,2017;0,0224239
3527,1660;0,0222395
3528,1301;0,0220518
3529,0945;0,021882
3530,0586;0,0217489
3531,0229;0,0216576
3531,9871;0,0215958
3532,9514;0,0215394
3533,9155;0,0214625
3534,8799;0,0213495
3535,8440;0,0212036
3536,8083;0,0210473
3537,7725;0,0209129
3538,7368;0,0208256
3539,7009;0,0207913
3540,6653;0,0207924
3541,6294;0,0207925
3542,5938;0,0207471
3543,5579;0,0206232
3544,5222;0,0204202
3545,4863;0,0201773
3546,4507;0,019951
3547,4148;0,0197784
3548,3792;0,0196574
3549,3433;0,0195565
3550,3076;0,019439
3551,2717;0,0192867
3552,2361;0,0191121
3553,2002;0,01895
3554,1646;0,0188317
3555,1287;0,0187626
3556,0930;0,0187209
3557,0571;0,0186752
3558,0215;0,0186071
3558,9856;0,0185265
3559,9500;0,0184682
3560,9141;0,0184658
3561,8784;0,0185213
3562,8425;0,0185882
3563,8069;0,0185768
3564,7710;0,0183888
3565,7354;0,0179868
3566,6995;0,0174615
3567,6638;0,0169929
3568,6279;0,0167073
3569,5923;0,0166029
3570,5564;0,0166005
3571,5208;0,0166145
3572,4849;0,0165888
3573,4492;0,0165059
3574,4133;0,0163814
3575,3777;0,0162441
3576,3418;0,0161124
3577,3062;0,0159865
3578,2703;0,0158615
3579,2346;0,0157479
3580,1987;0,0156755
3581,1631;0,0156745
3582,1272;0,0157451
3583,0916;0,0158404
3584,0557;0,0158683
3585,0200;0,0157235
3585,9841;0,0153551
3586,9485;0,0148417
3587,9126;0,0143672
3588,8770;0,0140753
3589,8411;0,0139737
3590,8054;0,0139742
3591,7695;0,0139726
3592,7339;0,0138988
3593,6980;0,0137397
3594,6624;0,0135354
3595,6265;0,0133386
3596,5908;0,0131673
3597,5549;0,0129985
3598,5193;0,0128075
3599,4834;0,0126099
3600,4478;0,012465
3601,4119;0,0124331
3602,3762;0,0125237
3603,3403;0,012684
3604,3047;0,0128287
3605,2688;0,0128822
3606,2332;0,0128174
3607,1973;0,0126728
3608,1616;0,0125276
3609,1257;0,0124386
3610,0901;0,0124003
3611,0542;0,0123666
3612,0186;0,0123016
3612,9827;0,0122073
3613,9470;0,0121083
3614,9111;0,0120122
3615,8755;0,0118817
3616,8396;0,011645
3617,8040;0,0112495
3618,7681;0,0107352
3619,7324;0,0102516
3620,6965;0,00996752
3621,6609;0,00995932
3622,6250;0,0101924
3623,5894;0,0105669
3624,5535;0,0109482
3625,5178;0,0111692
3626,4819;0,011051
3627,4463;0,0105116
3628,4104;0,00972545
3629,3748;0,009062
3630,3389;0,00874912
3631,3032;0,0087383
3632,2673;0,0088706
3633,2317;0,00902162
3634,1958;0,00913522
3635,1602;0,00920856
3636,1243;0,00926385
3637,0886;0,00931954
3638,0527;0,00937722
3639,0171;0,00943102
3639,9812;0,00948764
3640,9456;0,00957629
3641,9097;0,00973655
3642,8740;0,00999012
3643,8381;0,0103122
3644,8025;0,0106098
3645,7666;0,0107073
3646,7310;0,0103755
3647,6951;0,00950036
3648,6594;0,0083673
3649,6235;0,00755735
3650,5879;0,00734774
3651,5520;0,00756586
3652,5164;0,00792778
3653,4805;0,00822753
3654,4448;0,00835255
3655,4089;0,00828507
3656,3733;0,00810556
3657,3374;0,00793968
3658,3018;0,00786329
3659,2659;0,00786478
3660,2302;0,00789195
3661,1943;0,00791679
3662,1587;0,0079642
3663,1228;0,00808986
3664,0872;0,00832493
3665,0513;0,00863013
3666,0156;0,00889103
3666,9797;0,00895791
3667,9441;0,00873634
3668,9082;0,00830347
3669,8726;0,00790621
3670,8367;0,00774978
3671,8010;0,00781321
3672,7651;0,00789409
3673,7295;0,00776423
3674,6936;0,00733334
3675,6580;0,00675966
3676,6221;0,00633088
3677,5864;0,00618663
3678,5505;0,00625865
3679,5149;0,00641971
3680,4790;0,0065926
3681,4434;0,00676817
3682,4075;0,00697813
3683,3718;0,00725048
3684,3359;0,0075678
3685,3003;0,00784483
3686,2644;0,00793428
3687,2288;0,0076815
3688,1929;0,00705422
3689,1572;0,00626153
3690,1213;0,00563717
3691,0857;0,00535331
3692,0498;0,00535334
3693,0142;0,00550341
3693,9783;0,0057068
3694,9426;0,00592251
3695,9067;0,00614015
3696,8711;0,00634688
3697,8352;0,00650473
3698,7996;0,00655229
3699,7637;0,00643826
3700,7280;0,00617485
3701,6921;0,00586636
3702,6565;0,00566282
3703,6206;0,00566612
3704,5850;0,00587965
3705,5491;0,0062283
3706,5134;0,00659726
3707,4775;0,00685568
3708,4419;0,00688182
3709,4060;0,00662578
3710,3704;0,00619436
3711,3345;0,0058261
3712,2988;0,00569829
3713,2629;0,00580436
3714,2273;0,00603421
3715,1914;0,00628235
3716,1558;0,00648065
3717,1199;0,00659384
3718,0842;0,0066155
3719,0483;0,00656581
3720,0127;0,00647833
3720,9768;0,00637428
3721,9412;0,00624556
3722,9053;0,00606875
3723,8696;0,00584348
3724,8337;0,00561925
3725,7981;0,00547849
3726,7622;0,0054875
3727,7266;0,00566234
3728,6907;0,00597155
3729,6550;0,00635362
3730,6191;0,00672491
3731,5835;0,00697723
3732,5476;0,006988
3733,5120;0,00668137
3734,4761;0,00613742
3735,4404;0,00561489
3736,4045;0,00537587
3737,3689;0,00551062
3738,3330;0,00595503
3739,2974;0,00658346
3740,2615;0,00724852
3741,2258;0,00777906
3742,1899;0,0080013
3743,1543;0,00784297
3744,1184;0,00746451
3745,0828;0,00718062
3746,0469;0,00716627
3747,0112;0,00733227
3747,9753;0,0074414
3748,9397;0,00726167
3749,9038;0,00673632
3750,8682;0,00611373
3751,8323;0,00576427
3752,7966;0,00581981
3753,7607;0,0061472
3754,7251;0,00654638
3755,6892;0,00685493
3756,6536;0,00697158
3757,6177;0,00688444
3758,5820;0,00669001
3759,5461;0,00653862
3760,5105;0,00652864
3761,4746;0,00665788
3762,4390;0,00685825
3763,4031;0,00704893
3764,3674;0,00716868
3765,3315;0,00718759
3766,2959;0,00710446
3767,2600;0,00693598
3768,2244;0,00671058
3769,1885;0,00647387
3770,1528;0,00629109
3771,1169;0,00622677
3772,0813;0,00631084
3773,0454;0,00652178
3774,0098;0,00679547
3774,9739;0,0070448
3775,9382;0,00718299
3776,9023;0,00715774
3777,8667;0,00698943
3778,8308;0,00677301
3779,7952;0,00661493
3780,7593;0,00655837
3781,7236;0,0065731
3782,6877;0,00660096
3783,6521;0,00660168
3784,6162;0,00657158
3785,5806;0,00653553
3786,5447;0,00652514
3787,5090;0,00656118
3788,4731;0,0066496
3789,4375;0,00678496
3790,4016;0,00695141
3791,3660;0,00712171
3792,3301;0,00726227
3793,2944;0,00734901
3794,2585;0,0073865
3795,2229;0,00740959
3796,1870;0,00745247
3797,1514;0,0075033
3798,1155;0,00748836
3799,0798;0,0073163
3800,0439;0,00697202
3801,0083;0,0065819
3801,9724;0,0063377
3802,9368;0,00632524
3803,9009;0,00646137
3804,8652;0,00658235
3805,8293;0,00656691
3806,7937;0,00642397
3807,7578;0,00629291
3808,7222;0,00632907
3809,6863;0,00658258
3810,6506;0,00698589
3811,6147;0,00740846
3812,5791;0,00770822
3813,5432;0,00778461
3814,5076;0,00764458
3815,4717;0,00741813
3816,4360;0,00725137
3817,4001;0,00717012
3818,3645;0,0070744
3819,3286;0,00685662
3820,2930;0,00652681
3821,2571;0,00622748
3822,2214;0,00610245
3823,1855;0,0061758
3824,1499;0,00637285
3825,1140;0,00660189
3826,0784;0,00680059
3827,0425;0,00694428
3828,0068;0,00703687
3828,9709;0,00709573
3829,9353;0,00714015
3830,8994;0,00718876
3831,8638;0,00725973
3832,8279;0,00736275
3833,7922;0,00748255
3834,7563;0,00756841
3835,7207;0,00754879
3836,6848;0,00737775
3837,6492;0,00708684
3838,6133;0,00678179
3839,5776;0,00656375
3840,5417;0,00645756
3841,5061;0,00642226
3842,4702;0,00640988
3843,4346;0,00640983
3844,3987;0,00645693
3845,3630;0,00660902
3846,3271;0,00691384
3847,2915;0,00738443
3848,2556;0,00798383
3849,2200;0,00860531
3850,1841;0,00904369
3851,1484;0,00900511
3852,1125;0,00829101
3853,0769;0,00715377
3854,0410;0,00622107
3855,0054;0,00583947
3855,9695;0,00591732
3856,9338;0,00625613
3857,8979;0,00670831
3858,8623;0,00716258
3859,8264;0,00751572
3860,7908;0,00768135
3861,7549;0,00763539
3862,7192;0,00745765
3863,6833;0,00729994
3864,6477;0,00727879
3865,6118;0,00740024
3866,5762;0,00757872
3867,5403;0,00769933
3868,5046;0,00767291
3869,4688;0,0074765
3870,4331;0,00716862
3871,3972;0,00685968
3872,3616;0,00665243
3873,3257;0,00660029
3874,2900;0,00670308
3875,2542;0,00692101
3876,2185;0,00718881
3877,1826;0,00743103
3878,1470;0,00758495
3879,1111;0,00762903
3880,0754;0,00759398
3881,0396;0,00753179
3882,0039;0,00746498
3882,9680;0,00737491
3883,9324;0,00724489
3884,8965;0,00710742
3885,8608;0,00703548
3886,8250;0,0070781
3887,7893;0,00720711
3888,7534;0,00732444
3889,7178;0,00732081
3890,6819;0,00715845
3891,6462;0,00692654
3892,6104;0,00679108
3893,5747;0,00686456
3894,5388;0,00713981
3895,5032;0,00752747
3896,4673;0,00791529
3897,4316;0,00820692
3898,3958;0,00834781
3899,3601;0,00833375
3900,3242;0,00818776
3901,2886;0,00792687
3902,2527;0,00756675
3903,2170;0,0071585
3904,1812;0,00679369
3905,1455;0,00655426
3906,1096;0,00646466
3907,0740;0,00649449
3908,0381;0,00659272
3909,0024;0,00671824
3909,9666;0,00685419
3910,9309;0,00700523
3911,8950;0,00718012
3912,8594;0,00736918
3913,8235;0,00753277
3914,7878;0,00761295
3915,7520;0,0075682
3916,7163;0,00741278
3917,6804;0,00722296
3918,6448;0,00709026
3919,6089;0,00705999
3920,5732;0,00711067
3921,5374;0,0071793
3922,5017;0,00720491
3923,4658;0,00716755
3924,4302;0,00710193
3925,3943;0,00707078
3926,3586;0,00711623
3927,3228;0,00723012
3928,2871;0,00735971
3929,2512;0,00743623
3930,2156;0,0074116
3931,1797;0,00728763
3932,1440;0,00711592
3933,1082;0,00696344
3934,0725;0,00687527
3935,0366;0,00686432
3936,0010;0,00692227
3936,9651;0,00703059
3937,9294;0,00716367
3938,8936;0,00728881
3939,8579;0,0073718
3940,8220;0,00739171
3941,7864;0,00735661
3942,7505;0,00730358
3943,7148;0,00727542
3944,6790;0,00729089
3945,6433;0,00733156
3946,6074;0,00735336
3947,5718;0,00731457
3948,5359;0,00720494
3949,5002;0,00705647
3950,4644;0,0069245
3951,4287;0,00685348
3952,3928;0,00685543
3953,3572;0,00691225
3954,3213;0,00699213
3955,2856;0,00706631
3956,2498;0,00711842
3957,2141;0,00714449
3958,1782;0,00714733
3959,1426;0,00713148
3960,1067;0,00710186
3961,0710;0,00706502
3962,0352;0,00702936
3962,9995;0,00700282
3963,9636;0,00698995
3964,9280;0,00699075
3965,8921;0,00700207
3966,8564;0,00701972
3967,8206;0,00703967
3968,7849;0,00705795
3969,7490;0,00707001
3970,7134;0,007071
3971,6775;0,00705762
3972,6418;0,00703065
3973,6060;0,00699608
3974,5703;0,00696361
3975,5344;0,00694249
3976,4988;0,00693716
3977,4629;0,00694535
3978,4272;0,00695958
3979,3914;0,00697123
3980,3557;0,00697477
3981,3198;0,00697039
3982,2842;0,00696357
3983,2483;0,00696222
3984,2126;0,00697289
3985,1768;0,00699828
3986,1411;0,00703664
3987,1052;0,00708255
3988,0696;0,00712818
3989,0337;0,00716417
3989,9980;0,00718117
3990,9622;0,00717197
3991,9265;0,00713463
3992,8906;0,00707516
3993,8550;0,00700761
3994,8191;0,00695026
3995,7834;0,00691845
3996,7476;0,00691771
3997,7119;0,00694122
3998,6760;0,00697358
3999,6404;0,00699895
4000,6045;0,00688012

##### Extended Information
[Comments]
Sample name
Comment
Username
Division
Organization;UNIVERSIDAD INDUSTRIAL DE SANTANDER

[Detailed Information]
Creation date;19/02/2025 12:33 p.m.

Data array type;Linear data array
Horizontal axis;Wavenumber [cm-1]
Vertical axis;Abs
Start;399,193 cm-1
End;4000,6 cm-1
Data interval;0,964233 cm-1
Data points;3736    

[Measurement Information]
Model name;FT/IR-4X1typeA
Serial No.;A035162111

Accessory;ATR PRO 4X
Accessory S/N;A021162126
Incident angle;45 deg

Measurement date;19/02/2025 12:33 p.m.

Light source;Standard
Detector;TGS
Accumulation;40
Resolution;4 cm-1
Zero filling;On
Apodization;Cosine
Gain;Auto (8)
Aperture;Auto (7 mm)
Scan speed;Auto (2 mm/sec)
Filter;Auto (12800 Hz)

