TITLE;
DATA TYPE;INFRARED SPECTRUM
ORIGIN;JASCO
OWNER;
DATE;25/02/19
TIME;12:28:33
SPECTROMETER/DATA SYSTEM;
LOCALE;9226
RESOLUTION;
DELTAX;0,964233
XUNITS;1/CM
YUNITS;ABSORBANCE
FIRSTX;  399,1927
LASTX; 4000,6047
NPOINTS;    3736
FIRSTY;     0,15462
MAXY;     0,24113
MINY;     0,01216
XYDATA
399,1927;0,154619
400,1569;0,157096
401,1211;0,158607
402,0854;0,159141
403,0496;0,159034
404,0138;0,158671
404,9781;0,158361
405,9423;0,158278
406,9065;0,158458
407,8708;0,158839
408,8350;0,159343
409,7992;0,159919
410,7635;0,160532
411,7277;0,161128
412,6919;0,161634
413,6562;0,162003
414,6204;0,162267
415,5846;0,162559
416,5489;0,163105
417,5131;0,164124
418,4773;0,165593
419,4416;0,167052
420,4058;0,16796
421,3700;0,168221
422,3343;0,16813
423,2985;0,16803
424,2627;0,168133
425,2270;0,168475
426,1912;0,168939
427,1554;0,169351
428,1197;0,169594
429,0839;0,169677
430,0481;0,169722
431,0124;0,169899
431,9766;0,170318
432,9408;0,170955
433,9051;0,171618
434,8693;0,172011
435,8335;0,171863
436,7978;0,171084
437,7620;0,169836
438,7262;0,168461
439,6905;0,167329
440,6547;0,166693
441,6189;0,166601
442,5832;0,16688
443,5474;0,167226
444,5116;0,167385
445,4759;0,167283
446,4401;0,167012
447,4043;0,166707
448,3686;0,166446
449,3328;0,166218
450,2970;0,165959
451,2613;0,165598
452,2255;0,165086
453,1897;0,164402
454,1540;0,163554
455,1182;0,162605
456,0824;0,161691
457,0467;0,161006
458,0109;0,160704
458,9751;0,160765
459,9394;0,160985
460,9036;0,161133
461,8678;0,1611
462,8321;0,16092
463,7963;0,160706
464,7605;0,160562
465,7248;0,160513
466,6890;0,160498
467,6532;0,160422
468,6175;0,160228
469,5817;0,159926
470,5459;0,159583
471,5102;0,159294
472,4744;0,159142
473,4386;0,15917
474,4029;0,15938
475,3671;0,159744
476,3313;0,160214
477,2956;0,160727
478,2598;0,161209
479,2240;0,161592
480,1883;0,161836
481,1525;0,161952
482,1167;0,162
483,0810;0,162069
484,0452;0,162231
485,0094;0,162509
485,9737;0,162864
486,9379;0,163212
487,9021;0,163471
488,8664;0,163592
489,8306;0,163579
490,7948;0,163498
491,7591;0,163463
492,7233;0,163585
493,6875;0,163917
494,6518;0,164422
495,6160;0,164988
496,5802;0,165491
497,5445;0,165858
498,5087;0,166097
499,4729;0,166289
500,4372;0,166535
501,4014;0,166886
502,3656;0,167304
503,3299;0,167679
504,2941;0,167912
505,2583;0,167985
506,2226;0,167973
507,1868;0,167999
508,1510;0,168173
509,1153;0,168548
510,0795;0,169108
511,0437;0,169798
512,0080;0,170555
512,9722;0,171331
513,9365;0,172082
514,9007;0,172763
515,8649;0,173319
516,8292;0,173702
517,7934;0,173894
518,7576;0,173921
519,7219;0,173847
520,6861;0,173753
521,6503;0,173712
522,6146;0,173779
523,5788;0,173986
524,5430;0,17433
525,5073;0,174748
526,4715;0,175125
527,4357;0,175342
528,4000;0,175338
529,3642;0,175135
530,3284;0,174823
531,2927;0,17451
532,2569;0,174273
533,2211;0,174127
534,1854;0,174021
535,1496;0,173881
536,1138;0,17366
537,0781;0,173385
538,0423;0,173138
539,0065;0,17301
539,9708;0,173039
540,9350;0,173181
541,8992;0,173347
542,8635;0,173454
543,8277;0,17349
544,7919;0,173519
545,7562;0,173649
546,7204;0,173953
547,6846;0,174422
548,6489;0,174966
549,6131;0,175461
550,5773;0,17583
551,5416;0,176079
552,5058;0,176293
553,4700;0,176581
554,4343;0,177013
555,3985;0,177572
556,3627;0,178152
557,3270;0,178594
558,2912;0,178753
559,2554;0,178552
560,2197;0,178013
561,1839;0,177237
562,1481;0,176364
563,1124;0,175513
564,0766;0,174748
565,0408;0,174073
566,0051;0,173468
566,9693;0,172917
567,9335;0,172438
568,8978;0,172061
569,8620;0,171801
570,8262;0,171632
571,7905;0,1715
572,7547;0,171352
573,7189;0,171175
574,6832;0,170998
575,6474;0,170869
576,6116;0,170812
577,5759;0,170801
578,5401;0,170775
579,5043;0,170681
580,4686;0,170506
581,4328;0,170295
582,3970;0,170112
583,3613;0,170008
584,3255;0,169993
585,2897;0,170038
586,2540;0,1701
587,2182;0,170155
588,1824;0,170198
589,1467;0,170242
590,1109;0,170296
591,0751;0,170353
592,0394;0,17039
593,0036;0,170375
593,9678;0,170278
594,9321;0,170089
595,8963;0,169814
596,8605;0,16948
597,8248;0,169121
598,7890;0,168773
599,7532;0,168459
600,7175;0,168182
601,6817;0,167932
602,6459;0,167685
603,6102;0,167414
604,5744;0,167089
605,5386;0,166681
606,5029;0,16617
607,4671;0,165557
608,4313;0,164872
609,3956;0,164167
610,3598;0,163493
611,3240;0,162875
612,2883;0,1623
613,2525;0,16173
614,2167;0,161117
615,1810;0,160424
616,1452;0,159643
617,1094;0,158782
618,0737;0,157863
619,0379;0,156898
620,0021;0,155892
620,9664;0,154844
621,9306;0,153763
622,8948;0,152675
623,8591;0,151627
624,8233;0,150681
625,7875;0,149857
626,7518;0,149157
627,7160;0,148547
628,6802;0,147974
629,6445;0,147392
630,6087;0,146778
631,5729;0,146133
632,5372;0,145474
633,5014;0,144819
634,4656;0,144178
635,4299;0,143558
636,3941;0,142969
637,3583;0,142423
638,3226;0,141935
639,2868;0,141504
640,2510;0,141111
641,2153;0,140714
642,1795;0,140271
643,1437;0,139759
644,1080;0,139186
645,0722;0,138589
646,0364;0,138015
647,0007;0,137499
647,9649;0,137047
648,9291;0,136647
649,8934;0,136287
650,8576;0,135974
651,8218;0,135735
652,7861;0,135603
653,7503;0,135596
654,7145;0,135705
655,6788;0,135896
656,6430;0,136121
657,6072;0,136331
658,5715;0,136479
659,5357;0,136526
660,4999;0,136449
661,4642;0,136276
662,4284;0,13608
663,3926;0,135949
664,3569;0,13592
665,3211;0,135919
666,2853;0,135717
667,2496;0,134992
668,2138;0,133647
669,1780;0,132065
670,1423;0,130657
671,1065;0,12946
672,0707;0,128331
673,0350;0,127134
673,9992;0,125784
674,9634;0,124273
675,9277;0,122686
676,8919;0,121152
677,8561;0,119755
678,8204;0,118501
679,7846;0,117353
680,7488;0,116284
681,7131;0,115296
682,6773;0,114404
683,6415;0,113619
684,6058;0,112942
685,5700;0,112374
686,5342;0,111912
687,4985;0,111544
688,4627;0,111242
689,4269;0,110976
690,3912;0,110723
691,3554;0,110476
692,3196;0,110237
693,2839;0,110005
694,2481;0,109771
695,2123;0,109523
696,1766;0,109252
697,1408;0,108959
698,1050;0,108652
699,0693;0,108338
700,0335;0,108018
700,9977;0,107687
701,9620;0,107343
702,9262;0,106986
703,8904;0,106619
704,8547;0,106241
705,8189;0,105844
706,7831;0,105419
707,7474;0,104967
708,7116;0,104495
709,6758;0,104018
710,6401;0,103549
711,6043;0,103094
712,5685;0,102652
713,5328;0,102221
714,4970;0,101802
715,4612;0,101594
716,4255;0,101148
717,3897;0,100676
718,3539;0,100163
719,3182;0,0996029
720,2824;0,0990005
721,2466;0,0983679
722,2109;0,0977185
723,1751;0,0970596
724,1393;0,0963909
725,1036;0,0957102
726,0678;0,0950188
727,0320;0,0943241
727,9963;0,0936382
728,9605;0,0929744
729,9247;0,0923443
730,8890;0,0917573
731,8532;0,0912202
732,8174;0,0907355
733,7817;0,0902992
734,7459;0,0898989
735,7101;0,089516
736,6744;0,0891302
737,6386;0,0887263
738,6028;0,0882994
739,5671;0,0878575
740,5313;0,087418
741,4955;0,0870007
742,4598;0,0866179
743,4240;0,086267
744,3882;0,0859308
745,3525;0,0855845
746,3167;0,0852078
747,2809;0,0847929
748,2452;0,0843465
749,2094;0,0838846
750,1736;0,0834226
751,1379;0,082969
752,1021;0,0825234
753,0663;0,0820803
754,0306;0,0816363
754,9948;0,0811948
755,9590;0,0807667
756,9233;0,0803653
757,8875;0,0799974
758,8517;0,0796582
759,8160;0,0793318
760,7802;0,0789985
761,7444;0,078645
762,7087;0,07827
763,6729;0,0778829
764,6371;0,0774976
765,6014;0,0771257
766,5656;0,0767734
767,5298;0,0764416
768,4941;0,0761261
769,4583;0,0758183
770,4225;0,0755075
771,3868;0,0751873
772,3510;0,0748631
773,3152;0,0745541
774,2795;0,0742855
775,2437;0,0740721
776,2079;0,0739042
777,1722;0,0737474
778,1364;0,0735588
779,1006;0,0733097
780,0649;0,0730007
781,0291;0,0726583
781,9933;0,0723174
782,9576;0,0720026
783,9218;0,07172
784,8860;0,0714622
785,8503;0,0712209
786,8145;0,0709937
787,7787;0,0707834
788,7430;0,0705915
789,7072;0,0704138
790,6714;0,0702428
791,6357;0,0700746
792,5999;0,0699134
793,5641;0,0697694
794,5284;0,0696505
795,4926;0,0695545
796,4568;0,0694674
797,4211;0,0693695
798,3853;0,0692453
799,3495;0,0690913
800,3138;0,0689176
801,2780;0,0687414
802,2422;0,068579
803,2065;0,0684393
804,1707;0,0683212
805,1349;0,0682164
806,0992;0,0681144
807,0634;0,068007
808,0276;0,0678916
808,9919;0,0677706
809,9561;0,06765
810,9203;0,0675351
811,8846;0,0674276
812,8488;0,0673244
813,8130;0,0672197
814,7773;0,0671082
815,7415;0,0669885
816,7057;0,0668634
817,6700;0,0667364
818,6342;0,0666089
819,5984;0,0664784
820,5627;0,0663413
821,5269;0,0661979
822,4911;0,0660551
823,4554;0,0659262
824,4196;0,0658251
825,3839;0,0657599
826,3481;0,0657282
827,3123;0,0657159
828,2766;0,0657017
829,2408;0,0656629
830,2050;0,0655832
831,1693;0,0654584
832,1335;0,0652969
833,0977;0,0651148
834,0620;0,0649266
835,0262;0,0647362
835,9904;0,0645358
836,9547;0,0643128
837,9189;0,0640618
838,8831;0,0637924
839,8474;0,0635267
840,8116;0,063288
841,7758;0,0630866
842,7401;0,0629162
843,7043;0,0627602
844,6685;0,0626053
845,6328;0,0624513
846,5970;0,0623101
847,5612;0,0621964
848,5255;0,0621161
849,4897;0,0620611
850,4539;0,0620144
851,4182;0,0619589
852,3824;0,0618866
853,3466;0,0618016
854,3109;0,0617171
855,2751;0,0616486
856,2393;0,0616077
857,2036;0,0615985
858,1678;0,0616179
859,1320;0,0616581
860,0963;0,0617118
861,0605;0,061775
862,0247;0,0618483
862,9890;0,0619347
863,9532;0,0620371
864,9174;0,062157
865,8817;0,062295
866,8459;0,0624516
867,8101;0,0626283
868,7744;0,0628249
869,7386;0,0630381
870,7028;0,06326
871,6671;0,0634794
872,6313;0,0636845
873,5955;0,0638663
874,5598;0,0640204
875,5240;0,0641483
876,4882;0,0642578
877,4525;0,0643625
878,4167;0,0644812
879,3809;0,0646345
880,3452;0,0648412
881,3094;0,0651151
882,2736;0,0654637
883,2379;0,0658891
884,2021;0,066391
885,1663;0,0669692
886,1306;0,0676245
887,0948;0,0683577
888,0590;0,069166
889,0233;0,0700398
889,9875;0,0709595
890,9517;0,0718959
891,9160;0,0728127
892,8802;0,0736706
893,8444;0,0744315
894,8087;0,0750605
895,7729;0,0755268
896,7371;0,0758052
897,7014;0,0758795
898,6656;0,0757473
899,6298;0,0754226
900,5941;0,0749345
901,5583;0,0743207
902,5225;0,073619
903,4868;0,0728603
904,4510;0,0720692
905,4152;0,0712681
906,3795;0,0704844
907,3437;0,0697526
908,3079;0,0691102
909,2722;0,068588
910,2364;0,0681997
911,2007;0,0679374
912,1649;0,0677754
913,1292;0,0676807
914,0934;0,0676254
915,0576;0,0675955
916,0219;0,0675915
916,9861;0,0676235
917,9503;0,0677028
918,9146;0,0678343
919,8788;0,0680133
920,8430;0,0682257
921,8073;0,0684514
922,7715;0,0686705
923,7357;0,0688692
924,7000;0,0690463
925,6642;0,0692142
926,6284;0,0693939
927,5927;0,0696052
928,5569;0,0698559
929,5211;0,0701373
930,4854;0,0704286
931,4496;0,0707087
932,4138;0,0709691
933,3781;0,0712183
934,3423;0,0714779
935,3065;0,0717708
936,2708;0,0721113
937,2350;0,0725018
938,1992;0,072937
939,1635;0,0734124
940,1277;0,0739305
941,0919;0,0745022
942,0562;0,0751419
943,0204;0,0758623
943,9846;0,0766682
944,9489;0,0775561
945,9131;0,0785153
946,8773;0,0795333
947,8416;0,0806011
948,8058;0,0817172
949,7700;0,0828886
950,7343;0,0841281
951,6985;0,0854486
952,6627;0,0868575
953,6270;0,0883532
954,5912;0,0899257
955,5554;0,0915601
956,5197;0,0932412
957,4839;0,0949568
958,4481;0,0966974
959,4124;0,0984548
960,3766;0,10022
961,3408;0,101982
962,3051;0,103733
963,2693;0,105469
964,2335;0,107195
965,1978;0,108924
966,1620;0,110672
967,1262;0,112455
968,0905;0,114283
969,0547;0,116169
970,0189;0,118128
970,9832;0,120185
971,9474;0,122371
972,9116;0,124718
973,8759;0,127255
974,8401;0,129996
975,8043;0,13295
976,7686;0,136114
977,7328;0,139478
978,6970;0,143018
979,6613;0,146688
980,6255;0,150411
981,5897;0,15409
982,5540;0,157618
983,5182;0,160901
984,4824;0,163874
985,4467;0,166511
986,4109;0,168825
987,3751;0,170855
988,3394;0,172648
989,3036;0,174248
990,2678;0,175682
991,2321;0,176961
992,1963;0,17809
993,1605;0,17908
994,1248;0,17996
995,0890;0,18078
996,0532;0,181593
997,0175;0,18244
997,9817;0,183336
998,9459;0,184276
999,9102;0,185244
1000,8744;0,186239
1001,8386;0,187284
1002,8029;0,18842
1003,7671;0,189694
1004,7313;0,191142
1005,6956;0,192781
1006,6598;0,194612
1007,6240;0,196637
1008,5883;0,198863
1009,5525;0,201296
1010,5167;0,20393
1011,4810;0,206733
1012,4452;0,209642
1013,4094;0,212575
1014,3737;0,215451
1015,3379;0,218206
1016,3021;0,220805
1017,2664;0,223227
1018,2306;0,225462
1019,1948;0,227502
1020,1591;0,229343
1021,1233;0,230996
1022,0875;0,232492
1023,0518;0,233877
1024,0160;0,235189
1024,9802;0,236451
1025,9445;0,23765
1026,9087;0,238751
1027,8729;0,239702
1028,8372;0,240451
1029,8014;0,240944
1030,7656;0,241134
1031,7299;0,240969
1032,6941;0,240407
1033,6583;0,239424
1034,6226;0,238035
1035,5868;0,236303
1036,5510;0,234339
1037,5153;0,232284
1038,4795;0,230291
1039,4437;0,228488
1040,4080;0,226966
1041,3722;0,225753
1042,3364;0,224825
1043,3007;0,224109
1044,2649;0,22351
1045,2291;0,222932
1046,1934;0,2223
1047,1576;0,221562
1048,1218;0,22069
1049,0861;0,219665
1050,0503;0,218468
1051,0145;0,217078
1051,9788;0,215479
1052,9430;0,213671
1053,9072;0,211674
1054,8715;0,209519
1055,8357;0,207228
1056,7999;0,204796
1057,7642;0,202189
1058,7284;0,199359
1059,6926;0,196278
1060,6569;0,192961
1061,6211;0,189477
1062,5853;0,185935
1063,5496;0,182452
1064,5138;0,179127
1065,4780;0,176026
1066,4423;0,173178
1067,4065;0,170586
1068,3707;0,16823
1069,3350;0,166074
1070,2992;0,164065
1071,2634;0,162146
1072,2277;0,160261
1073,1919;0,158368
1074,1561;0,156443
1075,1204;0,154478
1076,0846;0,152478
1077,0488;0,150459
1078,0131;0,148444
1078,9773;0,146474
1079,9415;0,144597
1080,9058;0,142868
1081,8700;0,141331
1082,8342;0,140007
1083,7985;0,138887
1084,7627;0,13794
1085,7269;0,137122
1086,6912;0,136396
1087,6554;0,135738
1088,6196;0,135141
1089,5839;0,134607
1090,5481;0,134141
1091,5123;0,133744
1092,4766;0,133413
1093,4408;0,133145
1094,4050;0,132939
1095,3693;0,132793
1096,3335;0,132703
1097,2977;0,132664
1098,2620;0,132663
1099,2262;0,132692
1100,1904;0,132736
1101,1547;0,132778
1102,1189;0,132793
1103,0831;0,132752
1104,0474;0,132628
1105,0116;0,132406
1105,9758;0,132088
1106,9401;0,131686
1107,9043;0,131214
1108,8685;0,130671
1109,8328;0,130038
1110,7970;0,129281
1111,7612;0,128367
1112,7255;0,127285
1113,6897;0,126052
1114,6539;0,124721
1115,6182;0,123365
1116,5824;0,122063
1117,5466;0,120873
1118,5109;0,119821
1119,4751;0,118885
1120,4393;0,118
1121,4036;0,117078
1122,3678;0,116024
1123,3320;0,114767
1124,2963;0,113269
1125,2605;0,111535
1126,2247;0,109599
1127,1890;0,107509
1128,1532;0,105315
1129,1174;0,103059
1130,0817;0,100777
1131,0459;0,0985027
1132,0101;0,0962748
1132,9744;0,0941371
1133,9386;0,092136
1134,9028;0,0903161
1135,8671;0,0887142
1136,8313;0,0873556
1137,7955;0,0862512
1138,7598;0,0853984
1139,7240;0,0847833
1140,6882;0,0843851
1141,6525;0,0841807
1142,6167;0,0841477
1143,5809;0,0842662
1144,5452;0,0845175
1145,5094;0,0848825
1146,4736;0,0853424
1147,4379;0,0858796
1148,4021;0,0864798
1149,3663;0,0871322
1150,3306;0,0878271
1151,2948;0,0885512
1152,2590;0,0892843
1153,2233;0,0899962
1154,1875;0,090648
1155,1517;0,0911933
1156,1160;0,091581
1157,0802;0,0917569
1158,0444;0,0916668
1159,0087;0,0912591
1159,9729;0,0904895
1160,9371;0,0893262
1161,9014;0,0877566
1162,8656;0,0857936
1163,8298;0,0834793
1164,7941;0,080886
1165,7583;0,0781098
1166,7225;0,0752585
1167,6868;0,0724361
1168,6510;0,0697278
1169,6152;0,0671915
1170,5795;0,0648574
1171,5437;0,0627358
1172,5079;0,060827
1173,4722;0,0591281
1174,4364;0,0576346
1175,4006;0,0563382
1176,3649;0,0552244
1177,3291;0,0542739
1178,2933;0,0534657
1179,2576;0,0527815
1180,2218;0,0522073
1181,1860;0,0517322
1182,1503;0,0513472
1183,1145;0,0510447
1184,0787;0,0508197
1185,0430;0,050671
1186,0072;0,0506017
1186,9714;0,0506168
1187,9357;0,0507217
1188,8999;0,0509204
1189,8641;0,0512157
1190,8284;0,0516088
1191,7926;0,0520979
1192,7568;0,0526759
1193,7211;0,0533293
1194,6853;0,0540396
1195,6495;0,054787
1196,6138;0,0555548
1197,5780;0,0563314
1198,5422;0,0571104
1199,5065;0,0578777
1200,4707;0,0586491
1201,4349;0,0594101
1202,3992;0,0601581
1203,3634;0,0608932
1204,3276;0,0616176
1205,2919;0,0623349
1206,2561;0,0630494
1207,2203;0,0637687
1208,1846;0,064506
1209,1488;0,0652818
1210,1130;0,0661201
1211,0773;0,0670416
1212,0415;0,0680551
1213,0057;0,0691542
1213,9700;0,0703188
1214,9342;0,0715226
1215,8984;0,0727405
1216,8627;0,0739528
1217,8269;0,0751453
1218,7911;0,0763081
1219,7554;0,0774335
1220,7196;0,0785161
1221,6838;0,0795525
1222,6481;0,0805413
1223,6123;0,0814819
1224,5765;0,0823729
1225,5408;0,083212
1226,5050;0,0839969
1227,4692;0,0847267
1228,4335;0,0854024
1229,3977;0,0860256
1230,3619;0,0865968
1231,3262;0,0871139
1232,2904;0,0875719
1233,2546;0,0879651
1234,2189;0,0882903
1235,1831;0,0885495
1236,1473;0,0887512
1237,1116;0,0889078
1238,0758;0,0890305
1239,0400;0,0891243
1240,0043;0,0891838
1240,9685;0,0891953
1241,9327;0,0891414
1242,8970;0,0890086
1243,8612;0,0887921
1244,8254;0,0884963
1245,7897;0,0881319
1246,7539;0,0877108
1247,7181;0,087244
1248,6824;0,0867411
1249,6466;0,0862111
1250,6108;0,0856637
1251,5751;0,0851071
1252,5393;0,0845466
1253,5035;0,0839816
1254,4678;0,0834066
1255,4320;0,0828133
1256,3962;0,0821946
1257,3605;0,0815484
1258,3247;0,0808785
1259,2889;0,0801924
1260,2532;0,0794961
1261,2174;0,0787889
1262,1816;0,0780627
1263,1459;0,0773048
1264,1101;0,0765041
1265,0743;0,0756551
1266,0386;0,0747577
1267,0028;0,0738146
1267,9670;0,0728288
1268,9313;0,0718031
1269,8955;0,0707444
1270,8597;0,0696656
1271,8240;0,0685844
1272,7882;0,0675194
1273,7524;0,0664838
1274,7167;0,0654846
1275,6809;0,0645244
1276,6451;0,0636045
1277,6094;0,0627257
1278,5736;0,0618863
1279,5378;0,0610812
1280,5021;0,0603024
1281,4663;0,0595443
1282,4305;0,0588072
1283,3948;0,0580988
1284,3590;0,0574306
1285,3232;0,0568128
1286,2875;0,0562515
1287,2517;0,0557488
1288,2159;0,0553063
1289,1802;0,0549272
1290,1444;0,0546167
1291,1086;0,0543801
1292,0729;0,05422
1293,0371;0,0541357
1294,0013;0,0541232
1294,9656;0,0541766
1295,9298;0,0542902
1296,8940;0,0544601
1297,8583;0,0546861
1298,8225;0,0549707
1299,7867;0,0553179
1300,7510;0,0557292
1301,7152;0,0562014
1302,6794;0,0567268
1303,6437;0,0572953
1304,6079;0,0578982
1305,5721;0,058529
1306,5364;0,0591832
1307,5006;0,0598559
1308,4648;0,0605405
1309,4291;0,0612285
1310,3933;0,0619111
1311,3575;0,0625786
1312,3218;0,0632197
1313,2860;0,0638195
1314,2502;0,0643581
1315,2145;0,064811
1316,1787;0,065152
1317,1429;0,0653603
1318,1072;0,0654301
1319,0714;0,0653777
1320,0356;0,0652393
1320,9999;0,0650578
1321,9641;0,0648675
1322,9283;0,0646869
1323,8926;0,0645216
1324,8568;0,0643723
1325,8210;0,0642392
1326,7853;0,0641222
1327,7495;0,0640163
1328,7137;0,0639086
1329,6780;0,0637807
1330,6422;0,0636153
1331,6064;0,0634042
1332,5707;0,0631506
1333,5349;0,0628634
1334,4991;0,0625451
1335,4634;0,0621823
1336,4276;0,0617468
1337,3918;0,061211
1338,3561;0,0605766
1339,3203;0,0598943
1340,2845;0,0592478
1341,2488;0,058706
1342,2130;0,0582891
1343,1772;0,0579763
1344,1415;0,0577329
1345,1057;0,0575347
1346,0699;0,0573784
1347,0342;0,0572801
1347,9984;0,0572647
1348,9626;0,05735
1349,9269;0,0575365
1350,8911;0,0578067
1351,8553;0,058136
1352,8196;0,0585064
1353,7838;0,0589165
1354,7480;0,0593798
1355,7123;0,0599122
1356,6765;0,0605172
1357,6407;0,0611807
1358,6050;0,0618774
1359,5692;0,0625795
1360,5334;0,0632613
1361,4977;0,0639004
1362,4619;0,0644821
1363,4261;0,0650044
1364,3904;0,0654772
1365,3546;0,0659131
1366,3188;0,066318
1367,2831;0,0666879
1368,2473;0,0670109
1369,2115;0,0672695
1370,1758;0,067442
1371,1400;0,0675005
1372,1042;0,0674124
1373,0685;0,0671532
1374,0327;0,0667301
1374,9969;0,0661904
1375,9612;0,0655915
1376,9254;0,0649532
1377,8896;0,0642445
1378,8539;0,0634164
1379,8181;0,0624513
1380,7823;0,0613916
1381,7466;0,0603193
1382,7108;0,0592996
1383,6750;0,0583344
1384,6393;0,0573663
1385,6035;0,0563317
1386,5677;0,0552367
1387,5320;0,0541894
1388,4962;0,0533295
1389,4604;0,05272
1390,4247;0,052321
1391,3889;0,0520422
1392,3531;0,051799
1393,3174;0,0515428
1394,2816;0,0512714
1395,2458;0,0510195
1396,2101;0,05083
1397,1743;0,050726
1398,1385;0,0507085
1399,1028;0,050769
1400,0670;0,0508984
1401,0313;0,0510857
1401,9955;0,0513161
1402,9597;0,0515748
1403,9240;0,0518542
1404,8882;0,0521592
1405,8524;0,0525028
1406,8167;0,0528945
1407,7809;0,0533335
1408,7451;0,0538134
1409,7094;0,0543321
1410,6736;0,0548954
1411,6378;0,0555107
1412,6021;0,0561761
1413,5663;0,0568751
1414,5305;0,0575804
1415,4948;0,0582571
1416,4590;0,0588651
1417,4232;0,059367
1418,3875;0,0597522
1419,3517;0,0600486
1420,3159;0,0602906
1421,2802;0,0604755
1422,2444;0,0605663
1423,2086;0,060526
1424,1729;0,0603455
1425,1371;0,0600442
1426,1013;0,0596415
1427,0656;0,0591271
1428,0298;0,0584658
1428,9940;0,0576473
1429,9583;0,0567374
1430,9225;0,0558614
1431,8867;0,055113
1432,8510;0,0544819
1433,8152;0,0538577
1434,7794;0,0531003
1435,7437;0,0521543
1436,7079;0,0511493
1437,6721;0,0503302
1438,6364;0,0498419
1439,6006;0,0496514
1440,5648;0,049651
1441,5291;0,0497553
1442,4933;0,0499249
1443,4575;0,0501521
1444,4218;0,0504383
1445,3860;0,0507775
1446,3502;0,0511525
1447,3145;0,0515408
1448,2787;0,0519259
1449,2429;0,0523041
1450,2072;0,052682
1451,1714;0,0530659
1452,1356;0,0534497
1453,0999;0,0538032
1454,0641;0,0540564
1455,0283;0,0540897
1455,9926;0,0537911
1456,9568;0,053247
1457,9210;0,052805
1458,8853;0,0526971
1459,8495;0,0528436
1460,8137;0,05306
1461,7780;0,0531793
1462,7422;0,0530476
1463,7064;0,0525405
1464,6707;0,0516569
1465,6349;0,0505791
1466,5991;0,0495431
1467,5634;0,0486448
1468,5276;0,0478091
1469,4918;0,0468615
1470,4561;0,0455937
1471,4203;0,0438513
1472,3845;0,0417062
1473,3488;0,0395502
1474,3130;0,037809
1475,2772;0,0365829
1476,2415;0,0357177
1477,2057;0,0350452
1478,1699;0,0344732
1479,1342;0,0339658
1480,0984;0,0335129
1481,0626;0,0331183
1482,0269;0,0327973
1482,9911;0,0325714
1483,9553;0,0324532
1484,9196;0,0324324
1485,8838;0,0324733
1486,8480;0,032526
1487,8123;0,0325575
1488,7765;0,0325947
1489,7407;0,0327225
1490,7050;0,0330044
1491,6692;0,0334328
1492,6334;0,0339658
1493,5977;0,0345671
1494,5619;0,0352137
1495,5261;0,0358938
1496,4904;0,0366086
1497,4546;0,0373706
1498,4188;0,0381823
1499,3831;0,0390209
1500,3473;0,0398513
1501,3115;0,0406441
1502,2758;0,0413726
1503,2400;0,0419952
1504,2042;0,0424295
1505,1685;0,0425278
1506,1327;0,0421397
1507,0969;0,0413688
1508,0612;0,0406281
1509,0254;0,0401432
1509,9896;0,0398262
1510,9539;0,0395428
1511,9181;0,0392044
1512,8823;0,0387456
1513,8466;0,0381134
1514,8108;0,0372885
1515,7750;0,0363143
1516,7393;0,0352843
1517,7035;0,0342772
1518,6677;0,0333006
1519,6320;0,0323096
1520,5962;0,0312921
1521,5604;0,0303314
1522,5247;0,029553
1523,4889;0,0290125
1524,4531;0,0286645
1525,4174;0,0284281
1526,3816;0,0282554
1527,3458;0,0281469
1528,3101;0,028119
1529,2743;0,0281656
1530,2385;0,0282463
1531,2028;0,0283029
1532,1670;0,0282979
1533,1312;0,0282578
1534,0955;0,0282639
1535,0597;0,0283788
1536,0239;0,0285918
1536,9882;0,0288256
1537,9524;0,0289527
1538,9166;0,0288223
1539,8809;0,0283886
1540,8451;0,0279228
1541,8093;0,0278113
1542,7736;0,0280629
1543,7378;0,0284504
1544,7020;0,0288274
1545,6663;0,0291569
1546,6305;0,0294484
1547,5947;0,0297151
1548,5590;0,0299577
1549,5232;0,0301675
1550,4874;0,0303409
1551,4517;0,0304938
1552,4159;0,0306573
1553,3801;0,0308552
1554,3444;0,0310793
1555,3086;0,0312757
1556,2728;0,0313418
1557,2371;0,0311739
1558,2013;0,0308526
1559,1655;0,030725
1560,1298;0,0309576
1561,0940;0,0313888
1562,0582;0,0318711
1563,0225;0,0323585
1563,9867;0,0328398
1564,9509;0,0332974
1565,9152;0,0337053
1566,8794;0,0340482
1567,8436;0,0343515
1568,8079;0,0346868
1569,7721;0,0351219
1570,7363;0,0356604
1571,7006;0,0362517
1572,6648;0,036843
1573,6290;0,037406
1574,5933;0,0379428
1575,5575;0,0384902
1576,5217;0,0391033
1577,4860;0,0398036
1578,4502;0,0405676
1579,4144;0,0413719
1580,3787;0,0422119
1581,3429;0,0430858
1582,3071;0,0439804
1583,2714;0,0448755
1584,2356;0,0457575
1585,1998;0,0466278
1586,1641;0,0474945
1587,1283;0,0483551
1588,0925;0,0491883
1589,0568;0,0499596
1590,0210;0,0506333
1590,9852;0,051179
1591,9495;0,0515705
1592,9137;0,0517859
1593,8779;0,0518175
1594,8422;0,0516841
1595,8064;0,0514303
1596,7706;0,0511071
1597,7349;0,0507501
1598,6991;0,0503731
1599,6633;0,0499769
1600,6276;0,0495653
1601,5918;0,0491532
1602,5560;0,0487647
1603,5203;0,0484199
1604,4845;0,0481213
1605,4487;0,0478483
1606,4130;0,047567
1607,3772;0,0472519
1608,3414;0,0469132
1609,3057;0,0466047
1610,2699;0,0463927
1611,2341;0,0463083
1612,1984;0,0463233
1613,1626;0,0463602
1614,1268;0,0463182
1615,0911;0,0461263
1616,0553;0,0458259
1617,0195;0,0455813
1617,9838;0,0455297
1618,9480;0,0456626
1619,9122;0,0458807
1620,8765;0,0460817
1621,8407;0,0462003
1622,8049;0,0462271
1623,7692;0,0462094
1624,7334;0,0462088
1625,6976;0,0462487
1626,6619;0,0463143
1627,6261;0,0463911
1628,5903;0,0464919
1629,5546;0,0466462
1630,5188;0,046868
1631,4830;0,0471311
1632,4473;0,0473589
1633,4115;0,0474265
1634,3757;0,0472093
1635,3400;0,0467284
1636,3042;0,0462413
1637,2684;0,0460017
1638,2327;0,0460204
1639,1969;0,0461801
1640,1611;0,0463918
1641,1254;0,0466166
1642,0896;0,0468309
1643,0538;0,0469857
1644,0181;0,0469845
1644,9823;0,0467176
1645,9465;0,0461947
1646,9108;0,0456506
1647,8750;0,0453628
1648,8392;0,0453891
1649,8035;0,0455786
1650,7677;0,0456735
1651,7319;0,0453571
1652,6962;0,0444653
1653,6604;0,0433902
1654,6246;0,0427387
1655,5889;0,0425696
1656,5531;0,0426267
1657,5173;0,0427178
1658,4816;0,0427341
1659,4458;0,0425938
1660,4100;0,0422383
1661,3743;0,041686
1662,3385;0,0410736
1663,3027;0,0405789
1664,2670;0,040282
1665,2312;0,0401293
1666,1954;0,0399879
1667,1597;0,039703
1668,1239;0,039165
1669,0881;0,0384088
1670,0524;0,0376438
1671,0166;0,0370826
1671,9808;0,0367523
1672,9451;0,0365211
1673,9093;0,0362396
1674,8735;0,0358468
1675,8378;0,0354083
1676,8020;0,0350566
1677,7662;0,034878
1678,7305;0,0348623
1679,6947;0,0349248
1680,6589;0,0349262
1681,6232;0,0346801
1682,5874;0,0340277
1683,5516;0,0330517
1684,5159;0,0321534
1685,4801;0,0316484
1686,4443;0,0314932
1687,4086;0,0315045
1688,3728;0,0315596
1689,3370;0,0316178
1690,3013;0,031686
1691,2655;0,0317813
1692,2297;0,0319054
1693,1940;0,0320348
1694,1582;0,0321274
1695,1224;0,0321431
1696,0867;0,0320718
1697,0509;0,031952
1698,0151;0,0318608
1698,9794;0,0318736
1699,9436;0,0320188
1700,9078;0,0322704
1701,8721;0,0325865
1702,8363;0,0329459
1703,8005;0,033352
1704,7648;0,0338169
1705,7290;0,0343456
1706,6932;0,0349286
1707,6575;0,0355499
1708,6217;0,0362014
1709,5859;0,0368888
1710,5502;0,0376194
1711,5144;0,0383845
1712,4786;0,0391513
1713,4429;0,0398677
1714,4071;0,0404852
1715,3713;0,041
1716,3356;0,0414921
1717,2998;0,0420787
1718,2640;0,0427886
1719,2283;0,0435543
1720,1925;0,0443194
1721,1567;0,0450739
1722,1210;0,0458218
1723,0852;0,0465563
1724,0494;0,0472584
1725,0137;0,0479105
1725,9779;0,0485098
1726,9421;0,0490687
1727,9064;0,0496011
1728,8706;0,0501046
1729,8348;0,0505428
1730,7991;0,0508355
1731,7633;0,0508729
1732,7275;0,050595
1733,6918;0,0500989
1734,6560;0,0495971
1735,6202;0,0492141
1736,5845;0,0489071
1737,5487;0,0485524
1738,5129;0,0480327
1739,4772;0,0472911
1740,4414;0,0463631
1741,4056;0,045357
1742,3699;0,0443734
1743,3341;0,0434396
1744,2983;0,0425223
1745,2626;0,0415733
1746,2268;0,0405466
1747,1910;0,0393878
1748,1553;0,038042
1749,1195;0,0365168
1750,0837;0,0349433
1751,0480;0,0335158
1752,0122;0,0323436
1752,9764;0,0313936
1753,9407;0,0305522
1754,9049;0,0297108
1755,8691;0,0288238
1756,8334;0,02792
1757,7976;0,0270621
1758,7618;0,0262809
1759,7261;0,0255462
1760,6903;0,0248063
1761,6545;0,0240539
1762,6188;0,0233478
1763,5830;0,0227631
1764,5472;0,0223276
1765,5115;0,0220085
1766,4757;0,0217402
1767,4399;0,0214583
1768,4042;0,0211164
1769,3684;0,0206889
1770,3326;0,020175
1771,2969;0,0196159
1772,2611;0,019104
1773,2253;0,0187379
1774,1896;0,0185534
1775,1538;0,0185111
1776,1180;0,0185377
1777,0823;0,0185632
1778,0465;0,0185404
1779,0107;0,0184571
1779,9750;0,0183373
1780,9392;0,0182195
1781,9034;0,0181255
1782,8677;0,0180487
1783,8319;0,0179737
1784,7961;0,0179021
1785,7604;0,0178569
1786,7246;0,0178629
1787,6888;0,0179219
1788,6531;0,0179996
1789,6173;0,0180324
1790,5815;0,0179575
1791,5458;0,017765
1792,5100;0,0175287
1793,4742;0,0173524
1794,4385;0,0172841
1795,4027;0,017303
1796,3669;0,0173602
1797,3312;0,0174097
1798,2954;0,0174205
1799,2596;0,0173832
1800,2239;0,0173104
1801,1881;0,0172267
1802,1523;0,0171545
1803,1166;0,0171074
1804,0808;0,0170916
1805,0450;0,0171066
1806,0093;0,0171422
1806,9735;0,0171775
1807,9377;0,0171859
1808,9020;0,017148
1809,8662;0,0170665
1810,8304;0,0169688
1811,7947;0,0168913
1812,7589;0,0168558
1813,7231;0,0168595
1814,6874;0,0168816
1815,6516;0,016899
1816,6158;0,016901
1817,5801;0,0168965
1818,5443;0,0169072
1819,5085;0,0169503
1820,4728;0,0170223
1821,4370;0,0170985
1822,4012;0,017145
1823,3655;0,0171373
1824,3297;0,0170743
1825,2939;0,0169761
1826,2582;0,0168653
1827,2224;0,0167518
1828,1866;0,0166376
1829,1509;0,0165343
1830,1151;0,0164716
1831,0793;0,0164779
1832,0436;0,0165532
1833,0078;0,0166668
1833,9720;0,0167751
1834,9363;0,0168411
1835,9005;0,0168529
1836,8647;0,0168334
1837,8290;0,0168298
1838,7932;0,016881
1839,7574;0,0169911
1840,7217;0,0171255
1841,6859;0,0172255
1842,6501;0,0172349
1843,6144;0,0171365
1844,5786;0,0169712
1845,5428;0,0168073
1846,5071;0,0166892
1847,4713;0,0166235
1848,4355;0,0165979
1849,3998;0,0165985
1850,3640;0,0166148
1851,3282;0,0166392
1852,2925;0,0166648
1853,2567;0,0166868
1854,2209;0,0167051
1855,1852;0,0167241
1856,1494;0,0167494
1857,1136;0,0167809
1858,0779;0,0168103
1859,0421;0,0168255
1860,0063;0,01682
1860,9706;0,0167997
1861,9348;0,0167805
1862,8990;0,0167782
1863,8633;0,0167984
1864,8275;0,0168318
1865,7917;0,0168586
1866,7560;0,0168602
1867,7202;0,0168333
1868,6844;0,0167929
1869,6487;0,0167567
1870,6129;0,0167293
1871,5771;0,016705
1872,5414;0,0166777
1873,5056;0,0166444
1874,4698;0,0166054
1875,4341;0,0165653
1876,3983;0,0165332
1877,3625;0,0165193
1878,3268;0,0165294
1879,2910;0,0165604
1880,2552;0,0166011
1881,2195;0,0166362
1882,1837;0,0166542
1883,1479;0,0166529
1884,1122;0,0166392
1885,0764;0,0166244
1886,0406;0,0166163
1887,0049;0,0166153
1887,9691;0,0166157
1888,9333;0,0166102
1889,8976;0,0165938
1890,8618;0,0165651
1891,8260;0,0165263
1892,7903;0,016483
1893,7545;0,0164459
1894,7188;0,0164303
1895,6830;0,016452
1896,6472;0,0165168
1897,6115;0,0166116
1898,5757;0,0167065
1899,5399;0,0167668
1900,5042;0,0167685
1901,4684;0,0167107
1902,4326;0,0166171
1903,3969;0,0165258
1904,3611;0,0164719
1905,3253;0,0164732
1906,2896;0,0165273
1907,2538;0,0166171
1908,2180;0,016718
1909,1823;0,0168033
1910,1465;0,0168496
1911,1107;0,016843
1912,0750;0,0167845
1913,0392;0,016691
1914,0034;0,0165903
1914,9677;0,0165134
1915,9319;0,0164854
1916,8961;0,016514
1917,8604;0,0165831
1918,8246;0,0166591
1919,7888;0,0167111
1920,7531;0,016727
1921,7173;0,0167134
1922,6815;0,0166828
1923,6458;0,0166406
1924,6100;0,016581
1925,5742;0,0164934
1926,5385;0,0163758
1927,5027;0,0162422
1928,4669;0,0161206
1929,4312;0,0160439
1930,3954;0,0160353
1931,3596;0,0160979
1932,3239;0,0162119
1933,2881;0,0163422
1934,2523;0,0164503
1935,2166;0,016506
1936,1808;0,0164964
1937,1450;0,01643
1938,1093;0,0163327
1939,0735;0,0162359
1940,0377;0,0161641
1941,0020;0,0161258
1941,9662;0,0161126
1942,9304;0,0161066
1943,8947;0,0160938
1944,8589;0,0160714
1945,8231;0,0160434
1946,7874;0,0160109
1947,7516;0,0159688
1948,7158;0,015913
1949,6801;0,0158495
1950,6443;0,015797
1951,6085;0,0157756
1952,5728;0,0157894
1953,5370;0,0158167
1954,5012;0,0158176
1955,4655;0,0157565
1956,4297;0,0156245
1957,3939;0,015449
1958,3582;0,0152835
1959,3224;0,0151834
1960,2866;0,0151794
1961,2509;0,0152625
1962,2151;0,0153889
1963,1793;0,0155013
1964,1436;0,0155539
1965,1078;0,0155284
1966,0720;0,0154358
1967,0363;0,0153015
1968,0005;0,0151411
1968,9647;0,0149447
1969,9290;0,0146871
1970,8932;0,0143601
1971,8574;0,0140046
1972,8217;0,0137173
1973,7859;0,0136199
1974,7501;0,0137943
1975,7144;0,0142174
1976,6786;0,014747
1977,6428;0,015187
1978,6071;0,0153981
1979,5713;0,0153711
1980,5355;0,0152131
1981,4998;0,0150707
1982,4640;0,0150505
1983,4282;0,0151785
1984,3925;0,0154026
1985,3567;0,0156304
1986,3209;0,0157787
1987,2852;0,0158117
1988,2494;0,0157515
1989,2136;0,0156622
1990,1779;0,0156183
1991,1421;0,0156725
1992,1063;0,0158319
1993,0706;0,0160583
1994,0348;0,0162911
1994,9990;0,0164803
1995,9633;0,0166057
1996,9275;0,0166751
1997,8917;0,0167062
1998,8560;0,0167021
1999,8202;0,0166402
2000,7844;0,0164844
2001,7487;0,0162202
2002,7129;0,0158888
2003,6771;0,0155941
2004,6414;0,0154663
2005,6056;0,0155902
2006,5698;0,0159384
2007,5341;0,0163629
2008,4983;0,016668
2009,4625;0,0167202
2010,4268;0,0165171
2011,3910;0,016171
2012,3552;0,0158316
2013,3195;0,015606
2014,2837;0,0155228
2015,2479;0,0155523
2016,2122;0,0156561
2017,1764;0,0158238
2018,1406;0,0160666
2019,1049;0,0163768
2020,0691;0,0166986
2021,0333;0,0169428
2021,9976;0,0170375
2022,9618;0,0169789
2023,9260;0,0168387
2024,8903;0,0167185
2025,8545;0,0166789
2026,8187;0,0167003
2027,7830;0,0167066
2028,7472;0,016635
2029,7114;0,0164947
2030,6757;0,0163694
2031,6399;0,0163605
2032,6041;0,0165182
2033,5684;0,0168108
2034,5326;0,0171538
2035,4968;0,0174683
2036,4611;0,0177172
2037,4253;0,0178937
2038,3895;0,0179868
2039,3538;0,0179612
2040,3180;0,0177752
2041,2822;0,0174245
2042,2465;0,016974
2043,2107;0,01655
2044,1749;0,0162927
2045,1392;0,0162981
2046,1034;0,0165778
2047,0676;0,0170533
2048,0320;0,0175892
2048,9961;0,0180517
2049,9604;0,0183594
2050,9246;0,0184999
2051,8889;0,0185118
2052,8530;0,0184548
2053,8174;0,0183842
2054,7815;0,0183349
2055,7458;0,0183137
2056,7100;0,0183044
2057,6743;0,0182823
2058,6384;0,0182325
2059,6028;0,0181631
2060,5669;0,0181038
2061,5313;0,0180908
2062,4954;0,0181451
2063,4597;0,0182567
2064,4238;0,018385
2065,3882;0,0184773
2066,3523;0,0184951
2067,3167;0,018433
2068,2808;0,0183188
2069,2451;0,018198
2070,2092;0,0181148
2071,1736;0,0180969
2072,1377;0,0181517
2073,1021;0,0182681
2074,0662;0,0184226
2075,0305;0,0185845
2075,9946;0,0187223
2076,9590;0,0188115
2077,9231;0,0188421
2078,8875;0,0188234
2079,8516;0,0187794
2080,8159;0,0187386
2081,7800;0,0187215
2082,7444;0,0187333
2083,7085;0,0187657
2084,6729;0,0188035
2085,6370;0,0188325
2086,6013;0,0188428
2087,5654;0,0188288
2088,5298;0,0187896
2089,4939;0,0187299
2090,4583;0,0186639
2091,4224;0,0186142
2092,3867;0,0186055
2093,3508;0,0186525
2094,3152;0,0187502
2095,2793;0,0188716
2096,2437;0,0189792
2097,2078;0,0190416
2098,1721;0,0190479
2099,1362;0,0190083
2100,1006;0,0189442
2101,0647;0,0188785
2102,0291;0,0188245
2102,9932;0,0187885
2103,9575;0,0187728
2104,9216;0,0187781
2105,8860;0,0188032
2106,8501;0,0188438
2107,8145;0,0188938
2108,7786;0,0189477
2109,7429;0,0190029
2110,7070;0,0190592
2111,6714;0,0191149
2112,6355;0,0191647
2113,5999;0,0192011
2114,5640;0,0192182
2115,5283;0,0192165
2116,4924;0,0192026
2117,4568;0,0191847
2118,4209;0,0191673
2119,3853;0,019149
2120,3494;0,0191253
2121,3137;0,0190936
2122,2778;0,0190571
2123,2422;0,0190238
2124,2063;0,0190017
2125,1707;0,0189936
2126,1348;0,0189946
2127,0991;0,0189939
2128,0632;0,0189809
2129,0276;0,0189505
2129,9917;0,0189077
2130,9561;0,0188667
2131,9202;0,0188463
2132,8845;0,0188625
2133,8486;0,0189213
2134,8130;0,0190155
2135,7771;0,019127
2136,7415;0,0192342
2137,7056;0,0193198
2138,6699;0,0193752
2139,6340;0,0194024
2140,5984;0,019413
2141,5625;0,0194257
2142,5269;0,0194583
2143,4910;0,019519
2144,4553;0,019599
2145,4194;0,0196752
2146,3838;0,0197229
2147,3479;0,0197286
2148,3123;0,0196941
2149,2764;0,0196264
2150,2407;0,0195257
2151,2048;0,0193846
2152,1692;0,0192039
2153,1333;0,0190127
2154,0977;0,0188724
2155,0618;0,0188529
2156,0261;0,0189892
2156,9902;0,0192421
2157,9546;0,0195003
2158,9187;0,0196431
2159,8831;0,0196221
2160,8472;0,0194879
2161,8115;0,0193399
2162,7756;0,0192603
2163,7400;0,0192823
2164,7041;0,0193914
2165,6685;0,019539
2166,6326;0,019657
2167,5969;0,0196746
2168,5610;0,019542
2169,5254;0,0192556
2170,4895;0,0188727
2171,4539;0,0185019
2172,4180;0,0182672
2173,3823;0,0182584
2174,3464;0,018491
2175,3108;0,0188994
2176,2749;0,0193656
2177,2393;0,0197666
2178,2034;0,0200138
2179,1677;0,0200683
2180,1318;0,0199372
2181,0962;0,0196604
2182,0603;0,0192977
2183,0247;0,0189166
2183,9888;0,0185814
2184,9531;0,0183442
2185,9172;0,0182362
2186,8816;0,0182614
2187,8457;0,0183926
2188,8101;0,018577
2189,7742;0,0187546
2190,7385;0,0188829
2191,7026;0,0189562
2192,6670;0,0190037
2193,6311;0,0190657
2194,5955;0,0191607
2195,5596;0,0192664
2196,5239;0,0193299
2197,4880;0,0193003
2198,4524;0,019165
2199,4165;0,0189647
2200,3809;0,0187776
2201,3450;0,018682
2202,3093;0,0187195
2203,2734;0,0188778
2204,2378;0,0190995
2205,2019;0,0193096
2206,1663;0,0194462
2207,1304;0,0194807
2208,0947;0,0194196
2209,0588;0,0192924
2210,0232;0,0191336
2210,9873;0,0189711
2211,9517;0,0188242
2212,9158;0,0187089
2213,8801;0,0186411
2214,8442;0,0186317
2215,8086;0,0186782
2216,7727;0,0187612
2217,7371;0,0188534
2218,7012;0,018937
2219,6655;0,019016
2220,6296;0,0191121
2221,5940;0,019244
2222,5581;0,0194054
2223,5225;0,0195589
2224,4866;0,019652
2225,4509;0,0196463
2226,4150;0,0195402
2227,3794;0,0193702
2228,3435;0,019192
2229,3079;0,0190539
2230,2720;0,0189806
2231,2363;0,0189719
2232,2004;0,0190136
2233,1648;0,0190898
2234,1289;0,019187
2235,0933;0,0192908
2236,0574;0,019381
2237,0217;0,0194332
2237,9858;0,0194284
2238,9502;0,0193661
2239,9143;0,0192708
2240,8787;0,0191839
2241,8428;0,0191445
2242,8071;0,0191687
2243,7712;0,0192404
2244,7356;0,0193215
2245,6997;0,0193737
2246,6641;0,0193788
2247,6282;0,0193451
2248,5925;0,0192969
2249,5566;0,019258
2250,5210;0,0192394
2251,4851;0,019238
2252,4495;0,0192426
2253,4136;0,0192401
2254,3779;0,0192199
2255,3420;0,0191766
2256,3064;0,0191129
2257,2705;0,0190429
2258,2349;0,0189893
2259,1990;0,0189739
2260,1633;0,0190058
2261,1274;0,0190749
2262,0918;0,0191576
2263,0559;0,0192301
2264,0203;0,0192807
2264,9844;0,0193122
2265,9487;0,0193341
2266,9128;0,0193525
2267,8772;0,0193655
2268,8413;0,0193674
2269,8057;0,0193554
2270,7698;0,0193323
2271,7341;0,0193035
2272,6982;0,0192725
2273,6626;0,0192408
2274,6267;0,0192105
2275,5911;0,019189
2276,5552;0,0191864
2277,5195;0,0192101
2278,4836;0,0192576
2279,4480;0,0193163
2280,4121;0,0193703
2281,3765;0,0194094
2282,3406;0,019435
2283,3049;0,0194566
2284,2690;0,0194844
2285,2334;0,0195224
2286,1975;0,0195668
2287,1619;0,0196101
2288,1260;0,019647
2289,0903;0,0196781
2290,0544;0,0197086
2291,0188;0,0197439
2291,9829;0,0197874
2292,9473;0,0198405
2293,9114;0,0199043
2294,8757;0,0199808
2295,8398;0,0200707
2296,8042;0,0201696
2297,7683;0,0202683
2298,7327;0,0203565
2299,6968;0,0204302
2300,6611;0,0204965
2301,6252;0,020571
2302,5896;0,0206695
2303,5537;0,0207984
2304,5181;0,0209515
2305,4822;0,0211133
2306,4465;0,0212685
2307,4106;0,0214081
2308,3750;0,021531
2309,3391;0,0216403
2310,3035;0,0217382
2311,2676;0,0218251
2312,2319;0,0219029
2313,1960;0,0219776
2314,1604;0,0220599
2315,1245;0,0221606
2316,0889;0,0222855
2317,0530;0,0224309
2318,0173;0,0225825
2318,9814;0,0227162
2319,9458;0,0228026
2320,9099;0,0228141
2321,8743;0,0227352
2322,8384;0,0225714
2323,8027;0,0223516
2324,7668;0,0221192
2325,7312;0,0219186
2326,6953;0,0217805
2327,6597;0,0217118
2328,6238;0,0216942
2329,5881;0,0216892
2330,5522;0,0216532
2331,5166;0,0215561
2332,4807;0,0213938
2333,4451;0,0211868
2334,4092;0,0209651
2335,3735;0,0207528
2336,3376;0,0205624
2337,3020;0,0203996
2338,2661;0,0202701
2339,2305;0,0201811
2340,1946;0,0201368
2341,1589;0,0201384
2342,1230;0,0201904
2343,0874;0,0202974
2344,0515;0,02044
2345,0159;0,0205687
2345,9800;0,0206538
2346,9443;0,0207264
2347,9084;0,0208522
2348,8728;0,021075
2349,8369;0,0213809
2350,8013;0,0216969
2351,7654;0,0219252
2352,7297;0,0220055
2353,6938;0,0219653
2354,6582;0,0218905
2355,6223;0,0218273
2356,5867;0,021736
2357,5508;0,0215477
2358,5151;0,0212465
2359,4792;0,0208925
2360,4436;0,0205798
2361,4077;0,0203796
2362,3721;0,0203175
2363,3362;0,0203781
2364,3005;0,0205172
2365,2646;0,0206767
2366,2290;0,0208085
2367,1931;0,0208987
2368,1575;0,0209684
2369,1216;0,0210516
2370,0859;0,0211651
2371,0500;0,0212945
2372,0144;0,0214052
2372,9785;0,0214659
2373,9429;0,0214659
2374,9070;0,0214169
2375,8713;0,0213402
2376,8354;0,0212519
2377,7998;0,0211559
2378,7639;0,0210476
2379,7283;0,0209235
2380,6924;0,0207877
2381,6567;0,0206517
2382,6208;0,0205292
2383,5852;0,0204286
2384,5493;0,0203502
2385,5137;0,0202878
2386,4778;0,0202339
2387,4421;0,0201851
2388,4063;0,0201436
2389,3706;0,0201158
2390,3347;0,0201072
2391,2991;0,0201181
2392,2632;0,0201427
2393,2275;0,0201713
2394,1917;0,020196
2395,1560;0,0202152
2396,1201;0,020234
2397,0845;0,0202596
2398,0486;0,0202949
2399,0129;0,0203344
2399,9771;0,0203659
2400,9414;0,0203777
2401,9055;0,0203667
2402,8699;0,0203417
2403,8340;0,0203199
2404,7983;0,0203178
2405,7625;0,0203424
2406,7268;0,0203878
2407,6909;0,020439
2408,6553;0,0204793
2409,6194;0,0204978
2410,5837;0,0204929
2411,5479;0,0204707
2412,5122;0,0204423
2413,4763;0,0204196
2414,4407;0,0204127
2415,4048;0,0204271
2416,3691;0,0204631
2417,3333;0,020516
2418,2976;0,0205778
2419,2617;0,0206396
2420,2261;0,0206935
2421,1902;0,0207337
2422,1545;0,020757
2423,1187;0,0207642
2424,0830;0,0207606
2425,0471;0,020756
2426,0115;0,0207615
2426,9756;0,0207843
2427,9399;0,0208238
2428,9041;0,0208713
2429,8684;0,0209144
2430,8325;0,0209446
2431,7969;0,0209619
2432,7610;0,020974
2433,7253;0,0209905
2434,6895;0,021016
2435,6538;0,0210463
2436,6179;0,0210722
2437,5823;0,0210856
2438,5464;0,0210858
2439,5107;0,02108
2440,4749;0,0210797
2441,4392;0,0210931
2442,4033;0,0211211
2443,3677;0,0211571
2444,3318;0,0211914
2445,2961;0,0212168
2446,2603;0,0212311
2447,2246;0,0212366
2448,1887;0,0212374
2449,1531;0,0212366
2450,1172;0,0212361
2451,0815;0,0212377
2452,0457;0,0212442
2453,0100;0,0212589
2453,9741;0,0212831
2454,9385;0,0213134
2455,9026;0,0213422
2456,8669;0,0213607
2457,8311;0,0213631
2458,7954;0,0213505
2459,7595;0,0213304
2460,7239;0,0213137
2461,6880;0,0213105
2462,6523;0,0213266
2463,6165;0,0213616
2464,5808;0,0214104
2465,5449;0,021464
2466,5093;0,0215129
2467,4734;0,0215488
2468,4377;0,0215675
2469,4019;0,0215696
2470,3662;0,0215601
2471,3303;0,0215471
2472,2947;0,0215395
2473,2588;0,0215449
2474,2231;0,0215679
2475,1873;0,0216077
2476,1516;0,0216574
2477,1157;0,0217039
2478,0801;0,0217328
2479,0442;0,021735
2480,0085;0,0217124
2480,9727;0,0216785
2481,9370;0,0216525
2482,9011;0,021649
2483,8655;0,021671
2484,8296;0,021709
2485,7939;0,0217482
2486,7581;0,0217773
2487,7224;0,0217943
2488,6865;0,0218049
2489,6509;0,0218162
2490,6150;0,0218315
2491,5793;0,0218481
2492,5435;0,0218601
2493,5078;0,0218618
2494,4719;0,0218511
2495,4363;0,0218302
2496,4004;0,0218052
2497,3647;0,021785
2498,3289;0,0217788
2499,2932;0,0217919
2500,2573;0,0218228
2501,2217;0,0218617
2502,1858;0,021895
2503,1501;0,0219116
2504,1143;0,0219091
2505,0786;0,021894
2506,0427;0,0218774
2507,0071;0,0218687
2507,9712;0,0218721
2508,9355;0,021888
2509,8997;0,0219158
2510,8640;0,0219552
2511,8281;0,0220031
2512,7925;0,0220508
2513,7566;0,0220847
2514,7209;0,0220917
2515,6851;0,022068
2516,6494;0,0220228
2517,6135;0,021975
2518,5779;0,0219436
2519,5420;0,0219386
2520,5063;0,0219569
2521,4705;0,0219871
2522,4348;0,0220167
2523,3989;0,0220386
2524,3633;0,0220533
2525,3274;0,0220653
2526,2917;0,0220799
2527,2559;0,0220996
2528,2202;0,0221234
2529,1843;0,0221469
2530,1487;0,0221639
2531,1128;0,0221689
2532,0771;0,0221603
2533,0413;0,0221433
2534,0056;0,0221286
2534,9697;0,0221293
2535,9341;0,0221538
2536,8982;0,0222018
2537,8625;0,0222636
2538,8267;0,0223245
2539,7910;0,0223707
2540,7551;0,0223945
2541,7195;0,0223956
2542,6836;0,0223792
2543,6479;0,0223537
2544,6121;0,0223266
2545,5764;0,0223029
2546,5405;0,0222838
2547,5049;0,0222673
2548,4690;0,0222505
2549,4333;0,0222328
2550,3975;0,0222173
2551,3618;0,0222106
2552,3259;0,0222188
2553,2903;0,0222437
2554,2544;0,0222809
2555,2188;0,0223215
2556,1829;0,0223561
2557,1472;0,0223789
2558,1113;0,0223885
2559,0757;0,0223871
2560,0398;0,0223777
2561,0042;0,0223632
2561,9683;0,0223468
2562,9326;0,0223328
2563,8967;0,0223251
2564,8611;0,0223263
2565,8252;0,0223355
2566,7896;0,0223494
2567,7537;0,0223642
2568,7180;0,0223778
2569,6821;0,0223897
2570,6465;0,0223993
2571,6106;0,0224046
2572,5750;0,022403
2573,5391;0,0223943
2574,5034;0,022384
2575,4675;0,0223815
2576,4319;0,0223953
2577,3960;0,0224269
2578,3604;0,0224682
2579,3245;0,0225058
2580,2888;0,022529
2581,2529;0,0225365
2582,2173;0,0225365
2583,1814;0,0225408
2584,1458;0,0225569
2585,1099;0,0225834
2586,0742;0,0226119
2587,0383;0,0226324
2588,0027;0,02264
2588,9668;0,0226371
2589,9312;0,0226316
2590,8953;0,0226327
2591,8596;0,0226468
2592,8237;0,0226747
2593,7881;0,0227119
2594,7522;0,0227502
2595,7166;0,0227818
2596,6807;0,0228029
2597,6450;0,0228155
2598,6091;0,0228251
2599,5735;0,0228369
2600,5376;0,0228522
2601,5020;0,0228675
2602,4661;0,0228785
2603,4304;0,0228841
2604,3945;0,0228889
2605,3589;0,0229008
2606,3230;0,0229255
2607,2874;0,0229623
2608,2515;0,0230044
2609,2158;0,0230425
2610,1799;0,0230694
2611,1443;0,0230833
2612,1084;0,0230873
2613,0728;0,0230878
2614,0369;0,0230914
2615,0012;0,0231038
2615,9653;0,0231286
2616,9297;0,0231664
2617,8938;0,0232145
2618,8582;0,0232667
2619,8223;0,0233155
2620,7866;0,0233538
2621,7507;0,0233777
2622,7151;0,0233875
2623,6792;0,0233878
2624,6436;0,0233863
2625,6077;0,0233912
2626,5720;0,0234083
2627,5361;0,0234387
2628,5005;0,0234781
2629,4646;0,0235195
2630,4290;0,023556
2631,3931;0,023584
2632,3574;0,023604
2633,3215;0,0236191
2634,2859;0,0236323
2635,2500;0,0236452
2636,2144;0,0236576
2637,1785;0,0236692
2638,1428;0,0236803
2639,1069;0,0236928
2640,0713;0,0237083
2641,0354;0,0237279
2641,9998;0,0237512
2642,9639;0,0237773
2643,9282;0,0238054
2644,8923;0,0238353
2645,8567;0,0238678
2646,8208;0,0239031
2647,7852;0,0239403
2648,7493;0,0239772
2649,7136;0,0240104
2650,6777;0,0240373
2651,6421;0,0240573
2652,6062;0,024072
2653,5706;0,0240843
2654,5347;0,0240966
2655,4990;0,0241101
2656,4631;0,0241243
2657,4275;0,0241389
2658,3916;0,0241541
2659,3560;0,0241714
2660,3201;0,0241918
2661,2844;0,0242156
2662,2485;0,0242416
2663,2129;0,0242684
2664,1770;0,0242947
2665,1414;0,0243201
2666,1055;0,0243439
2667,0698;0,0243643
2668,0339;0,0243788
2668,9983;0,0243859
2669,9624;0,0243864
2670,9268;0,024385
2671,8909;0,0243883
2672,8552;0,0244025
2673,8193;0,02443
2674,7837;0,0244682
2675,7478;0,0245104
2676,7122;0,0245488
2677,6763;0,0245782
2678,6406;0,0245991
2679,6047;0,0246175
2680,5691;0,0246416
2681,5332;0,0246773
2682,4976;0,0247246
2683,4617;0,0247765
2684,4260;0,0248232
2685,3901;0,0248564
2686,3545;0,0248742
2687,3186;0,0248816
2688,2830;0,0248869
2689,2471;0,0248976
2690,2114;0,0249166
2691,1755;0,0249424
2692,1399;0,0249711
2693,1040;0,0249994
2694,0684;0,0250262
2695,0325;0,0250524
2695,9968;0,02508
2696,9609;0,0251108
2697,9253;0,0251457
2698,8894;0,0251839
2699,8538;0,0252239
2700,8179;0,025263
2701,7822;0,0252993
2702,7463;0,025332
2703,7107;0,0253617
2704,6748;0,0253901
2705,6392;0,0254185
2706,6033;0,0254469
2707,5676;0,0254744
2708,5317;0,025501
2709,4961;0,0255276
2710,4602;0,0255561
2711,4246;0,0255881
2712,3887;0,0256233
2713,3530;0,0256601
2714,3171;0,0256965
2715,2815;0,0257308
2716,2456;0,0257625
2717,2100;0,0257914
2718,1741;0,0258173
2719,1384;0,02584
2720,1025;0,0258604
2721,0669;0,0258809
2722,0310;0,025904
2722,9954;0,025931
2723,9595;0,0259607
2724,9238;0,0259896
2725,8879;0,0260149
2726,8523;0,0260365
2727,8164;0,0260578
2728,7808;0,0260838
2729,7449;0,0261183
2730,7092;0,0261606
2731,6733;0,026206
2732,6377;0,0262472
2733,6018;0,026278
2734,5662;0,0262958
2735,5303;0,0263029
2736,4946;0,0263048
2737,4587;0,0263082
2738,4231;0,0263184
2739,3872;0,0263376
2740,3516;0,0263643
2741,3157;0,0263947
2742,2800;0,0264239
2743,2441;0,0264475
2744,2085;0,0264621
2745,1726;0,0264665
2746,1370;0,0264619
2747,1011;0,0264528
2748,0654;0,0264463
2749,0295;0,0264507
2749,9939;0,0264727
2750,9580;0,026514
2751,9224;0,0265706
2752,8865;0,026634
2753,8508;0,026694
2754,8149;0,026743
2755,7793;0,0267782
2756,7434;0,0268016
2757,7078;0,0268185
2758,6719;0,0268346
2759,6362;0,0268537
2760,6003;0,0268776
2761,5647;0,026906
2762,5288;0,0269377
2763,4932;0,0269709
2764,4573;0,0270046
2765,4216;0,0270383
2766,3857;0,0270721
2767,3501;0,0271072
2768,3142;0,0271442
2769,2786;0,027183
2770,2427;0,0272218
2771,2070;0,0272576
2772,1711;0,0272875
2773,1355;0,0273106
2774,0996;0,0273296
2775,0640;0,0273505
2776,0281;0,0273806
2776,9924;0,0274254
2777,9565;0,0274864
2778,9209;0,0275601
2779,8850;0,0276396
2780,8494;0,0277176
2781,8135;0,0277889
2782,7778;0,027851
2783,7419;0,0279045
2784,7063;0,0279505
2785,6704;0,0279902
2786,6348;0,0280248
2787,5989;0,0280567
2788,5632;0,0280899
2789,5273;0,0281297
2790,4917;0,0281808
2791,4558;0,0282444
2792,4202;0,0283178
2793,3843;0,0283953
2794,3486;0,028471
2795,3127;0,0285416
2796,2771;0,0286073
2797,2412;0,0286712
2798,2056;0,0287373
2799,1697;0,0288087
2800,1340;0,0288878
2801,0981;0,0289757
2802,0625;0,0290728
2803,0266;0,0291774
2803,9910;0,0292853
2804,9551;0,0293906
2805,9194;0,0294874
2806,8835;0,0295737
2807,8479;0,0296526
2808,8120;0,0297321
2809,7764;0,0298208
2810,7405;0,0299241
2811,7048;0,0300416
2812,6689;0,030168
2813,6333;0,0302965
2814,5974;0,0304229
2815,5618;0,0305478
2816,5259;0,0306749
2817,4902;0,0308086
2818,4543;0,0309511
2819,4187;0,0311008
2820,3828;0,0312541
2821,3472;0,0314079
2822,3113;0,031562
2823,2756;0,0317204
2824,2397;0,0318895
2825,2041;0,0320755
2826,1682;0,0322817
2827,1326;0,0325068
2828,0967;0,0327455
2829,0610;0,0329912
2830,0251;0,0332396
2830,9895;0,033491
2831,9536;0,0337503
2832,9180;0,0340241
2833,8821;0,034317
2834,8464;0,034629
2835,8105;0,0349564
2836,7749;0,0352956
2837,7390;0,0356474
2838,7034;0,0360192
2839,6675;0,0364239
2840,6318;0,0368762
2841,5959;0,0373881
2842,5603;0,0379665
2843,5244;0,0386104
2844,4888;0,0393092
2845,4529;0,0400391
2846,4172;0,0407618
2847,3813;0,0414276
2848,3457;0,0419841
2849,3098;0,0423898
2850,2742;0,0426253
2851,2383;0,0426977
2852,2026;0,0426361
2853,1667;0,0424808
2854,1311;0,042272
2855,0952;0,0420428
2856,0596;0,0418164
2857,0237;0,0416084
2857,9880;0,0414285
2858,9521;0,0412834
2859,9165;0,0411772
2860,8806;0,0411124
2861,8450;0,0410906
2862,8091;0,041112
2863,7734;0,041175
2864,7375;0,0412751
2865,7019;0,0414042
2866,6660;0,0415507
2867,6304;0,0417012
2868,5945;0,0418426
2869,5588;0,0419654
2870,5229;0,0420652
2871,4873;0,0421432
2872,4514;0,0422049
2873,4158;0,0422572
2874,3799;0,0423054
2875,3442;0,0423526
2876,3083;0,0424006
2877,2727;0,0424516
2878,2368;0,0425092
2879,2012;0,042577
2880,1653;0,0426569
2881,1296;0,0427475
2882,0938;0,0428452
2883,0581;0,0429462
2884,0222;0,0430494
2884,9866;0,0431562
2885,9507;0,0432694
2886,9150;0,0433902
2887,8792;0,0435175
2888,8435;0,0436491
2889,8076;0,0437832
2890,7720;0,043919
2891,7361;0,0440559
2892,7004;0,0441921
2893,6646;0,0443238
2894,6289;0,0444477
2895,5930;0,0445629
2896,5574;0,0446727
2897,5215;0,044783
2898,4858;0,0448988
2899,4500;0,045022
2900,4143;0,0451507
2901,3784;0,0452818
2902,3428;0,0454136
2903,3069;0,0455481
2904,2712;0,0456898
2905,2354;0,0458454
2906,1997;0,0460226
2907,1638;0,0462304
2908,1282;0,0464798
2909,0923;0,0467816
2910,0566;0,0471431
2911,0208;0,0475639
2911,9851;0,0480324
2912,9492;0,0485263
2913,9136;0,0490155
2914,8777;0,0494662
2915,8420;0,0498458
2916,8062;0,0501268
2917,7705;0,0502912
2918,7346;0,0503332
2919,6990;0,0502606
2920,6631;0,0500923
2921,6274;0,0498532
2922,5916;0,0495669
2923,5559;0,0492501
2924,5200;0,0489106
2925,4844;0,0485498
2926,4485;0,0481671
2927,4128;0,0477643
2928,3770;0,0473471
2929,3413;0,0469241
2930,3054;0,0465037
2931,2698;0,0460918
2932,2339;0,0456908
2933,1982;0,045301
2934,1624;0,0449218
2935,1267;0,044552
2936,0908;0,0441896
2937,0552;0,0438312
2938,0193;0,0434719
2938,9836;0,0431077
2939,9478;0,0427371
2940,9121;0,0423633
2941,8762;0,0419937
2942,8406;0,0416369
2943,8047;0,0412998
2944,7690;0,0409854
2945,7332;0,0406929
2946,6975;0,0404204
2947,6616;0,0401665
2948,6260;0,0399311
2949,5901;0,0397138
2950,5544;0,0395119
2951,5186;0,0393202
2952,4829;0,0391324
2953,4470;0,0389434
2954,4114;0,0387508
2955,3755;0,0385539
2956,3398;0,0383524
2957,3040;0,038144
2958,2683;0,0379259
2959,2324;0,0376967
2960,1968;0,037458
2961,1609;0,0372144
2962,1252;0,036971
2963,0894;0,0367306
2964,0537;0,0364931
2965,0178;0,0362566
2965,9822;0,0360191
2966,9463;0,0357799
2967,9106;0,0355386
2968,8748;0,0352942
2969,8391;0,0350456
2970,8032;0,034793
2971,7676;0,0345394
2972,7317;0,0342912
2973,6960;0,0340559
2974,6602;0,0338396
2975,6245;0,0336444
2976,5886;0,033469
2977,5530;0,0333105
2978,5171;0,0331657
2979,4814;0,0330316
2980,4456;0,0329049
2981,4099;0,0327818
2982,3740;0,0326588
2983,3384;0,0325352
2984,3025;0,0324143
2985,2668;0,0323028
2986,2310;0,032207
2987,1953;0,0321295
2988,1594;0,0320672
2989,1238;0,032013
2990,0879;0,0319601
2991,0522;0,0319067
2992,0164;0,031857
2992,9807;0,0318183
2993,9448;0,0317959
2994,9092;0,0317899
2995,8733;0,0317951
2996,8376;0,0318049
2997,8018;0,0318159
2998,7661;0,0318287
2999,7302;0,0318464
3000,6946;0,0318699
3001,6587;0,0318955
3002,6230;0,0319166
3003,5872;0,0319275
3004,5515;0,0319273
3005,5156;0,0319205
3006,4800;0,0319147
3007,4441;0,0319162
3008,4084;0,0319272
3009,3726;0,0319458
3010,3369;0,031968
3011,3010;0,0319895
3012,2654;0,0320074
3013,2295;0,0320203
3014,1938;0,0320292
3015,1580;0,0320379
3016,1223;0,0320533
3017,0864;0,0320835
3018,0508;0,0321343
3019,0149;0,0322049
3019,9792;0,0322865
3020,9434;0,0323657
3021,9077;0,0324303
3022,8718;0,0324761
3023,8362;0,0325088
3024,8003;0,0325408
3025,7646;0,0325836
3026,7288;0,0326413
3027,6931;0,0327094
3028,6572;0,0327785
3029,6216;0,0328409
3030,5857;0,0328946
3031,5500;0,0329437
3032,5142;0,0329954
3033,4785;0,0330556
3034,4426;0,033127
3035,4070;0,0332089
3036,3711;0,0332982
3037,3354;0,0333909
3038,2996;0,0334827
3039,2639;0,0335702
3040,2280;0,0336533
3041,1924;0,0337352
3042,1565;0,0338208
3043,1208;0,0339135
3044,0850;0,034012
3045,0493;0,0341105
3046,0134;0,0342025
3046,9778;0,0342857
3047,9419;0,0343643
3048,9063;0,0344473
3049,8704;0,0345436
3050,8347;0,0346569
3051,7988;0,0347835
3052,7632;0,0349147
3053,7273;0,0350409
3054,6917;0,0351564
3055,6558;0,0352612
3056,6201;0,0353616
3057,5842;0,0354668
3058,5486;0,0355847
3059,5127;0,0357176
3060,4771;0,0358598
3061,4412;0,0359992
3062,4055;0,0361222
3063,3696;0,0362202
3064,3340;0,0362945
3065,2981;0,0363572
3066,2625;0,036426
3067,2266;0,0365157
3068,1909;0,0366325
3069,1550;0,0367729
3070,1194;0,036927
3071,0835;0,0370841
3072,0479;0,0372369
3073,0120;0,0373819
3073,9763;0,0375184
3074,9404;0,0376461
3075,9048;0,0377638
3076,8689;0,0378694
3077,8333;0,0379613
3078,7974;0,0380403
3079,7617;0,0381113
3080,7258;0,0381838
3081,6902;0,0382691
3082,6543;0,0383762
3083,6187;0,0385068
3084,5828;0,0386533
3085,5471;0,038802
3086,5112;0,0389402
3087,4756;0,0390632
3088,4397;0,0391762
3089,4041;0,0392904
3090,3682;0,0394141
3091,3325;0,039547
3092,2966;0,0396815
3093,2610;0,0398087
3094,2251;0,0399262
3095,1895;0,04004
3096,1536;0,0401597
3097,1179;0,0402905
3098,0820;0,0404285
3099,0464;0,0405634
3100,0105;0,0406858
3100,9749;0,0407944
3101,9390;0,040897
3102,9033;0,0410058
3103,8674;0,0411296
3104,8318;0,0412694
3105,7959;0,0414199
3106,7603;0,0415737
3107,7244;0,0417262
3108,6887;0,0418766
3109,6528;0,0420258
3110,6172;0,042174
3111,5813;0,0423197
3112,5457;0,0424625
3113,5098;0,0426041
3114,4741;0,0427482
3115,4382;0,0428973
3116,4026;0,0430492
3117,3667;0,043197
3118,3311;0,0433331
3119,2952;0,0434554
3120,2595;0,0435701
3121,2236;0,0436891
3122,1880;0,0438236
3123,1521;0,0439783
3124,1165;0,0441502
3125,0806;0,0443317
3126,0449;0,0445155
3127,0090;0,0446962
3127,9734;0,0448691
3128,9375;0,0450288
3129,9019;0,0451705
3130,8660;0,0452946
3131,8303;0,0454097
3132,7944;0,0455318
3133,7588;0,0456763
3134,7229;0,0458499
3135,6873;0,0460462
3136,6514;0,0462488
3137,6157;0,046441
3138,5798;0,0466135
3139,5442;0,0467684
3140,5083;0,046915
3141,4727;0,0470637
3142,4368;0,0472198
3143,4011;0,0473823
3144,3652;0,047547
3145,3296;0,0477112
3146,2937;0,0478755
3147,2581;0,0480436
3148,2222;0,0482186
3149,1865;0,0483996
3150,1506;0,0485816
3151,1150;0,048758
3152,0791;0,0489253
3153,0435;0,0490857
3154,0076;0,0492466
3154,9719;0,0494155
3155,9360;0,0495952
3156,9004;0,0497817
3157,8645;0,0499664
3158,8289;0,0501421
3159,7930;0,0503068
3160,7573;0,0504653
3161,7214;0,0506257
3162,6858;0,0507949
3163,6499;0,050975
3164,6143;0,0511634
3165,5784;0,0513548
3166,5427;0,0515441
3167,5068;0,051728
3168,4712;0,0519065
3169,4353;0,0520706
3170,3997;0,0522463
3171,3638;0,0524261
3172,3281;0,0526112
3173,2922;0,0527993
3174,2566;0,0529845
3175,2207;0,0531603
3176,1851;0,0533241
3177,1492;0,0534807
3178,1135;0,053641
3179,0776;0,0538169
3180,0420;0,0540142
3181,0061;0,0542283
3181,9705;0,0544459
3182,9346;0,0546526
3183,8989;0,0548393
3184,8630;0,0550065
3185,8274;0,0551623
3186,7915;0,0553171
3187,7559;0,0554784
3188,7200;0,0556498
3189,6843;0,055832
3190,6484;0,0560242
3191,6128;0,0562231
3192,5769;0,0564223
3193,5413;0,0566131
3194,5054;0,056788
3195,4697;0,0569449
3196,4338;0,0570893
3197,3982;0,0572318
3198,3623;0,0573814
3199,3267;0,0575417
3200,2908;0,0577099
3201,2551;0,0578811
3202,2192;0,0580526
3203,1836;0,0582259
3204,1477;0,0584042
3205,1121;0,058589
3206,0762;0,0587781
3207,0405;0,0589665
3208,0046;0,0591486
3208,9690;0,059321
3209,9331;0,0594826
3210,8975;0,0596339
3211,8616;0,0597776
3212,8259;0,0599179
3213,7900;0,0600607
3214,7544;0,0602117
3215,7185;0,060374
3216,6829;0,0605464
3217,6470;0,0607241
3218,6113;0,060902
3219,5754;0,0610782
3220,5398;0,0612537
3221,5039;0,0614307
3222,4683;0,0616084
3223,4324;0,0617827
3224,3967;0,0619486
3225,3608;0,0621048
3226,3252;0,062256
3227,2893;0,0624107
3228,2537;0,0625752
3229,2178;0,0627487
3230,1821;0,0629227
3231,1462;0,0630871
3232,1106;0,0632367
3233,0747;0,0633748
3234,0391;0,0635111
3235,0032;0,0636548
3235,9675;0,0638098
3236,9316;0,0639738
3237,8960;0,064142
3238,8601;0,0643107
3239,8245;0,0644793
3240,7886;0,0646485
3241,7529;0,0648185
3242,7170;0,0649878
3243,6814;0,0651542
3244,6455;0,0653162
3245,6099;0,0654742
3246,5740;0,0656297
3247,5383;0,0657857
3248,5024;0,0659454
3249,4668;0,0661122
3250,4309;0,0662879
3251,3953;0,066471
3252,3594;0,0666559
3253,3237;0,066835
3254,2878;0,0670033
3255,2522;0,0671622
3256,2163;0,0673194
3257,1807;0,0674845
3258,1448;0,0676625
3259,1091;0,0678508
3260,0732;0,0680409
3261,0376;0,0682245
3262,0017;0,0683982
3262,9661;0,0685654
3263,9302;0,0687324
3264,8945;0,0689044
3265,8586;0,069081
3266,8230;0,0692571
3267,7871;0,0694253
3268,7515;0,0695784
3269,7156;0,069712
3270,6799;0,0698248
3271,6440;0,0699192
3272,6084;0,0700006
3273,5725;0,0700774
3274,5369;0,0701582
3275,5010;0,0702489
3276,4653;0,0703506
3277,4294;0,0704596
3278,3938;0,0705696
3279,3579;0,0706746
3280,3223;0,0707706
3281,2864;0,0708566
3282,2507;0,0709335
3283,2148;0,071004
3284,1792;0,0710724
3285,1433;0,0711433
3286,1077;0,0712193
3287,0718;0,0712987
3288,0361;0,0713752
3289,0002;0,0714402
3289,9646;0,0714881
3290,9287;0,0715201
3291,8931;0,0715445
3292,8572;0,0715715
3293,8215;0,0716077
3294,7856;0,0716523
3295,7500;0,0716991
3296,7141;0,0717412
3297,6785;0,0717762
3298,6426;0,0718064
3299,6069;0,0718375
3300,5710;0,0718744
3301,5354;0,0719194
3302,4995;0,0719718
3303,4639;0,0720282
3304,4280;0,0720841
3305,3923;0,0721348
3306,3564;0,0721772
3307,3208;0,0722112
3308,2849;0,0722397
3309,2493;0,0722672
3310,2134;0,0722969
3311,1777;0,0723296
3312,1418;0,0723661
3313,1062;0,0724095
3314,0703;0,0724666
3315,0347;0,0725447
3315,9988;0,0726463
3316,9631;0,0727653
3317,9272;0,0728887
3318,8916;0,0730032
3319,8557;0,0731023
3320,8201;0,0731882
3321,7842;0,0732689
3322,7485;0,0733512
3323,7126;0,0734366
3324,6770;0,0735219
3325,6411;0,0736034
3326,6055;0,073681
3327,5696;0,0737584
3328,5339;0,0738398
3329,4980;0,0739258
3330,4624;0,0740119
3331,4265;0,0740897
3332,3909;0,0741502
3333,3550;0,0741871
3334,3193;0,0741986
3335,2834;0,0741885
3336,2478;0,0741641
3337,2119;0,074133
3338,1763;0,0741001
3339,1404;0,0740647
3340,1047;0,0740224
3341,0688;0,0739683
3342,0332;0,073901
3342,9973;0,0738244
3343,9617;0,0737453
3344,9258;0,07367
3345,8901;0,0736008
3346,8542;0,0735359
3347,8186;0,0734711
3348,7827;0,0734013
3349,7471;0,0733218
3350,7112;0,0732275
3351,6755;0,0731135
3352,6396;0,0729779
3353,6040;0,0728242
3354,5681;0,0726628
3355,5325;0,0725075
3356,4966;0,0723697
3357,4609;0,072253
3358,4250;0,072153
3359,3894;0,072061
3360,3535;0,0719701
3361,3179;0,0718786
3362,2820;0,071789
3363,2463;0,0717027
3364,2104;0,0716168
3365,1748;0,0715234
3366,1389;0,071414
3367,1033;0,0712846
3368,0674;0,0711393
3369,0317;0,0709875
3369,9958;0,0708394
3370,9602;0,0707009
3371,9243;0,0705713
3372,8887;0,0704453
3373,8528;0,0703171
3374,8171;0,0701839
3375,7813;0,0700475
3376,7456;0,0699129
3377,7097;0,0697853
3378,6741;0,0696669
3379,6382;0,0695553
3380,6025;0,0694444
3381,5667;0,069327
3382,5310;0,0691995
3383,4951;0,0690648
3384,4595;0,0689324
3385,4236;0,0688132
3386,3879;0,0687132
3387,3521;0,0686282
3388,3164;0,0685445
3389,2805;0,0684459
3390,2449;0,0683214
3391,2090;0,0681719
3392,1733;0,0680095
3393,1375;0,0678501
3394,1018;0,0677055
3395,0659;0,0675778
3396,0303;0,0674612
3396,9944;0,0673457
3397,9587;0,0672218
3398,9229;0,0670828
3399,8872;0,0669265
3400,8513;0,0667553
3401,8157;0,066577
3402,7798;0,0664023
3403,7441;0,0662405
3404,7083;0,0660946
3405,6726;0,0659592
3406,6367;0,0658242
3407,6011;0,0656794
3408,5652;0,0655194
3409,5295;0,0653436
3410,4937;0,0651538
3411,4580;0,0649532
3412,4221;0,0647478
3413,3865;0,0645469
3414,3506;0,0643613
3415,3149;0,0641964
3416,2791;0,0640455
3417,2434;0,0638901
3418,2075;0,0637085
3419,1719;0,0634897
3420,1360;0,0632417
3421,1003;0,062989
3422,0645;0,0627576
3423,0288;0,0625597
3423,9929;0,062389
3424,9573;0,0622289
3425,9214;0,0620641
3426,8857;0,0618883
3427,8499;0,0617025
3428,8142;0,0615095
3429,7783;0,0613078
3430,7427;0,0610934
3431,7068;0,0608652
3432,6711;0,0606305
3433,6353;0,0604037
3434,5996;0,0601978
3435,5637;0,0600156
3436,5281;0,059846
3437,4922;0,0596706
3438,4565;0,059475
3439,4207;0,0592581
3440,3850;0,0590323
3441,3491;0,0588125
3442,3135;0,0586031
3443,2776;0,0583918
3444,2419;0,0581568
3445,2061;0,0578828
3446,1704;0,0575753
3447,1345;0,0572621
3448,0989;0,0569774
3449,0630;0,0567412
3450,0273;0,0565491
3450,9915;0,0563785
3451,9558;0,056204
3452,9199;0,0560102
3453,8843;0,0557961
3454,8484;0,0555703
3455,8127;0,0553415
3456,7769;0,0551125
3457,7412;0,0548799
3458,7053;0,0546395
3459,6697;0,0543906
3460,6338;0,0541375
3461,5981;0,0538869
3462,5623;0,0536433
3463,5266;0,0534057
3464,4907;0,053169
3465,4551;0,0529282
3466,4192;0,0526832
3467,3835;0,052441
3468,3477;0,0522117
3469,3120;0,0520017
3470,2761;0,0518061
3471,2405;0,0516098
3472,2046;0,0513958
3473,1689;0,0511579
3474,1331;0,0509069
3475,0974;0,0506651
3476,0615;0,0504493
3477,0259;0,0502572
3477,9900;0,0500657
3478,9543;0,0498457
3479,9185;0,0495831
3480,8828;0,0492916
3481,8469;0,0490061
3482,8113;0,0487582
3483,7754;0,0485533
3484,7397;0,0483677
3485,7039;0,0481664
3486,6682;0,0479274
3487,6323;0,0476581
3488,5967;0,0473905
3489,5608;0,0471598
3490,5251;0,0469794
3491,4893;0,0468318
3492,4536;0,0466787
3493,4177;0,0464854
3494,3821;0,0462433
3495,3462;0,0459788
3496,3105;0,0457388
3497,2747;0,0455591
3498,2390;0,045438
3499,2031;0,0453331
3500,1675;0,0451824
3501,1316;0,0449407
3502,0959;0,0446118
3503,0601;0,044252
3504,0244;0,0439343
3504,9885;0,043698
3505,9529;0,0435272
3506,9170;0,0433687
3507,8813;0,0431697
3508,8455;0,0429116
3509,8098;0,0426204
3510,7739;0,0423455
3511,7383;0,0421235
3512,7024;0,0419553
3513,6667;0,0418137
3514,6309;0,0416671
3515,5952;0,0415009
3516,5593;0,0413221
3517,5237;0,0411475
3518,4878;0,0409858
3519,4521;0,0408296
3520,4163;0,0406609
3521,3806;0,0404654
3522,3447;0,0402422
3523,3091;0,0400015
3524,2732;0,0397522
3525,2375;0,0394912
3526,2017;0,039208
3527,1660;0,0389
3528,1301;0,0385858
3529,0945;0,0383008
3530,0586;0,0380763
3531,0229;0,0379183
3531,9871;0,0378034
3532,9514;0,0376907
3533,9155;0,0375431
3534,8799;0,0373448
3535,8440;0,0371095
3536,8083;0,0368733
3537,7725;0,0366751
3538,7368;0,036537
3539,7009;0,0364544
3540,6653;0,0363964
3541,6294;0,0363137
3542,5938;0,0361521
3543,5579;0,0358761
3544,5222;0,0354958
3545,4863;0,0350744
3546,4507;0,0346954
3547,4148;0,0344103
3548,3792;0,0342122
3549,3433;0,0340513
3550,3076;0,0338702
3551,2717;0,0336391
3552,2361;0,0333732
3553,2002;0,0331222
3554,1646;0,0329322
3555,1287;0,0328123
3556,0930;0,03273
3557,0571;0,0326356
3558,0215;0,0324959
3558,9856;0,0323195
3559,9500;0,0321562
3560,9141;0,0320627
3561,8784;0,0320557
3562,8425;0,0320824
3563,8069;0,0320236
3564,7710;0,0317398
3565,7354;0,031168
3566,6995;0,0304221
3567,6638;0,0297488
3568,6279;0,0293314
3569,5923;0,0291765
3570,5564;0,0291766
3571,5208;0,0292092
3572,4849;0,0291897
3573,4492;0,0290865
3574,4133;0,0289148
3575,3777;0,0287107
3576,3418;0,0284985
3577,3062;0,0282782
3578,2703;0,0280445
3579,2346;0,0278149
3580,1987;0,027637
3581,1631;0,0275616
3582,1272;0,0275994
3583,0916;0,0276937
3584,0557;0,0277216
3585,0200;0,0275343
3585,9841;0,0270487
3586,9485;0,0263548
3587,9126;0,0256969
3588,8770;0,0252824
3589,8411;0,025139
3590,8054;0,0251556
3591,7695;0,0251863
3592,7339;0,0251215
3593,6980;0,0249259
3594,6624;0,0246456
3595,6265;0,024361
3596,5908;0,0241168
3597,5549;0,0238955
3598,5193;0,0236571
3599,4834;0,023397
3600,4478;0,0231677
3601,4119;0,0230408
3602,3762;0,0230438
3603,3403;0,023133
3604,3047;0,0232163
3605,2688;0,0232016
3606,2332;0,0230461
3607,1973;0,0227867
3608,1616;0,0225164
3609,1257;0,0223094
3610,0901;0,022167
3611,0542;0,0220391
3612,0186;0,0218867
3612,9827;0,0217186
3613,9470;0,0215733
3614,9111;0,0214671
3615,8755;0,0213549
3616,8396;0,0211388
3617,8040;0,0207327
3618,7681;0,020157
3619,7324;0,0195738
3620,6965;0,0191907
3621,6609;0,0191214
3622,6250;0,0193472
3623,5894;0,0197637
3624,5535;0,0202165
3625,5178;0,0205036
3626,4819;0,0203953
3627,4463;0,0197601
3628,4104;0,0187714
3629,3748;0,0178713
3630,3389;0,0173713
3631,3032;0,0172515
3632,2673;0,0173336
3633,2317;0,0174596
3634,1958;0,0175455
3635,1602;0,0175723
3636,1243;0,0175585
3637,0886;0,0175264
3638,0527;0,0174836
3639,0171;0,0174298
3639,9812;0,0173786
3640,9456;0,0173698
3641,9097;0,0174562
3642,8740;0,0176702
3643,8381;0,0179894
3644,8025;0,0183104
3645,7666;0,0184313
3646,7310;0,0180783
3647,6951;0,0170937
3648,6594;0,0157714
3649,6235;0,0147739
3650,5879;0,0144542
3651,5520;0,0146491
3652,5164;0,0150439
3653,4805;0,0153944
3654,4448;0,0155513
3655,4089;0,0154698
3656,3733;0,0152253
3657,3374;0,0149657
3658,3018;0,0148001
3659,2659;0,014737
3660,2302;0,0147245
3661,1943;0,0147231
3662,1587;0,0147471
3663,1228;0,014849
3664,0872;0,0150633
3665,0513;0,0153535
3666,0156;0,0156008
3666,9797;0,0156436
3667,9441;0,0153784
3668,9082;0,0148907
3669,8726;0,014457
3670,8367;0,0143092
3671,8010;0,014427
3672,7651;0,0145826
3673,7295;0,0145087
3674,6936;0,0140796
3675,6580;0,0134482
3676,6221;0,0129364
3677,5864;0,0127261
3678,5505;0,0127667
3679,5149;0,0129258
3680,4790;0,0131124
3681,4434;0,0133063
3682,4075;0,0135345
3683,3718;0,0138271
3684,3359;0,0141721
3685,3003;0,0144885
3686,2644;0,0146281
3687,2288;0,0144284
3688,1929;0,0138439
3689,1572;0,0130726
3690,1213;0,0124494
3691,0857;0,0121605
3692,0498;0,0121647
3693,0142;0,012336
3693,9783;0,0125757
3694,9426;0,012834
3695,9067;0,0130895
3696,8711;0,0133218
3697,8352;0,0134914
3698,7996;0,0135408
3699,7637;0,0134241
3700,7280;0,0131563
3701,6921;0,0128411
3702,6565;0,0126279
3703,6206;0,0126226
3704,5850;0,0128372
3705,5491;0,0132052
3706,5134;0,0136139
3707,4775;0,0139212
3708,4419;0,0139759
3709,4060;0,0136862
3710,3704;0,0131329
3711,3345;0,0125813
3712,2988;0,0122795
3713,2629;0,0122798
3714,2273;0,0124897
3715,1914;0,0127918
3716,1558;0,013094
3717,1199;0,0133337
3718,0842;0,013478
3719,0483;0,0135266
3720,0127;0,0135043
3720,9768;0,013437
3721,9412;0,0133291
3722,9053;0,0131681
3723,8696;0,0129581
3724,8337;0,012749
3725,7981;0,0126232
3726,7622;0,0126488
3727,7266;0,0128422
3728,6907;0,0131686
3729,6550;0,0135589
3730,6191;0,0139203
3731,5835;0,014139
3732,5476;0,0140967
3733,5120;0,0137326
3734,4761;0,0131421
3735,4404;0,0125827
3736,4045;0,0123011
3737,3689;0,0123793
3738,3330;0,0127611
3739,2974;0,013335
3740,2615;0,013963
3741,2258;0,0144737
3742,1899;0,0146828
3743,1543;0,0145045
3744,1184;0,014095
3745,0828;0,0137819
3746,0469;0,0137591
3747,0112;0,0139475
3747,9753;0,014106
3748,9397;0,0139824
3749,9038;0,0134881
3750,8682;0,0128454
3751,8323;0,01243
3752,7966;0,0124043
3753,7607;0,0126633
3754,7251;0,0130186
3755,6892;0,0133067
3756,6536;0,0134185
3757,6177;0,0133326
3758,5820;0,0131394
3759,5461;0,0129886
3760,5105;0,0129815
3761,4746;0,013119
3762,4390;0,0133341
3763,4031;0,0135448
3764,3674;0,013688
3765,3315;0,0137318
3766,2959;0,0136723
3767,2600;0,0135215
3768,2244;0,0133017
3769,1885;0,0130545
3770,1528;0,012848
3771,1169;0,0127576
3772,0813;0,0128265
3773,0454;0,0130414
3774,0098;0,0133378
3774,9739;0,0136207
3775,9382;0,0137909
3776,9023;0,0137837
3777,8667;0,013614
3778,8308;0,0133818
3779,7952;0,0132057
3780,7593;0,0131395
3781,7236;0,0131564
3782,6877;0,0131956
3783,6521;0,013211
3784,6162;0,0131927
3785,5806;0,0131599
3786,5447;0,0131409
3787,5090;0,0131576
3788,4731;0,0132221
3789,4375;0,0133388
3790,4016;0,0135015
3791,3660;0,013687
3792,3301;0,0138578
3793,2944;0,0139781
3794,2585;0,0140386
3795,2229;0,014067
3796,1870;0,0141023
3797,1514;0,0141473
3798,1155;0,0141426
3799,0798;0,0139997
3800,0439;0,0136911
3801,0083;0,0133227
3801,9724;0,0130744
3802,9368;0,0130385
3803,9009;0,0131486
3804,8652;0,0132527
3805,8293;0,0132292
3806,7937;0,0130781
3807,7578;0,0129317
3808,7222;0,012948
3809,6863;0,0131888
3810,6506;0,0135981
3811,6147;0,0140496
3812,5791;0,0143949
3813,5432;0,0145184
3814,5076;0,014411
3815,4717;0,0141976
3816,4360;0,0140359
3817,4001;0,0139694
3818,3645;0,0139045
3819,3286;0,0137205
3820,2930;0,0134021
3821,2571;0,0130747
3822,2214;0,0128891
3823,1855;0,0128944
3824,1499;0,0130387
3825,1140;0,0132409
3826,0784;0,0134377
3827,0425;0,0135967
3828,0068;0,0137125
3828,9709;0,0137959
3829,9353;0,0138638
3830,8994;0,0139357
3831,8638;0,0140314
3832,8279;0,0141608
3833,7922;0,0143062
3834,7563;0,014411
3835,7207;0,014395
3836,6848;0,0142043
3837,6492;0,0138696
3838,6133;0,0135078
3839,5776;0,0132389
3840,5417;0,0131034
3841,5061;0,0130654
3842,4702;0,0130717
3843,4346;0,0131007
3844,3987;0,0131761
3845,3630;0,0133498
3846,3271;0,0136712
3847,2915;0,0141605
3848,2556;0,0147885
3849,2200;0,0154516
3850,1841;0,0159387
3851,1484;0,0159386
3852,1125;0,0152301
3853,0769;0,0140588
3854,0410;0,013073
3855,0054;0,0126458
3855,9695;0,0126979
3856,9338;0,0130323
3857,8979;0,0134979
3858,8623;0,0139766
3859,8264;0,0143556
3860,7908;0,0145377
3861,7549;0,0144912
3862,7192;0,0142971
3863,6833;0,0141188
3864,6477;0,0140871
3865,6118;0,0142156
3866,5762;0,0144157
3867,5403;0,0145616
3868,5046;0,0145492
3869,4688;0,0143441
3870,4331;0,0140036
3871,3972;0,01365
3872,3616;0,0134048
3873,3257;0,0133368
3874,2900;0,0134513
3875,2542;0,0137042
3876,2185;0,0140187
3877,1826;0,0143034
3878,1470;0,0144798
3879,1111;0,0145178
3880,0754;0,0144536
3881,0396;0,0143576
3882,0039;0,0142711
3882,9680;0,014182
3883,9324;0,0140666
3884,8965;0,013946
3885,8608;0,0138876
3886,8250;0,0139443
3887,7893;0,0140942
3888,7534;0,0142389
3889,7178;0,0142586
3890,6819;0,0140999
3891,6462;0,0138437
3892,6104;0,0136647
3893,5747;0,0136951
3894,5388;0,0139439
3895,5032;0,0143256
3896,4673;0,0147215
3897,4316;0,0150238
3898,3958;0,0151686
3899,3601;0,0151496
3900,3242;0,0149936
3901,2886;0,0147221
3902,2527;0,0143506
3903,2170;0,0139284
3904,1812;0,0135493
3905,1455;0,0133022
3906,1096;0,0132193
3907,0740;0,0132736
3908,0381;0,0134113
3909,0024;0,0135827
3909,9666;0,01376
3910,9309;0,0139385
3911,8950;0,0141224
3912,8594;0,0143047
3913,8235;0,0144531
3914,7878;0,014518
3915,7520;0,0144646
3916,7163;0,0143097
3917,6804;0,0141281
3918,6448;0,0140069
3919,6089;0,0139865
3920,5732;0,0140413
3921,5374;0,0141055
3922,5017;0,0141172
3923,4658;0,0140597
3924,4302;0,0139753
3925,3943;0,0139356
3926,3586;0,0139874
3927,3228;0,01412
3928,2871;0,0142722
3929,2512;0,014365
3930,2156;0,0143432
3931,1797;0,0142088
3932,1440;0,0140213
3933,1082;0,0138573
3934,0725;0,0137673
3935,0366;0,0137646
3936,0010;0,0138378
3936,9651;0,0139644
3937,9294;0,0141142
3938,8936;0,0142496
3939,8579;0,0143314
3940,8220;0,0143362
3941,7864;0,014275
3942,7505;0,0141943
3943,7148;0,014148
3944,6790;0,0141623
3945,6433;0,0142183
3946,6074;0,0142653
3947,5718;0,014253
3948,5359;0,0141646
3949,5002;0,0140304
3950,4644;0,0139074
3951,4287;0,013842
3952,3928;0,0138455
3953,3572;0,0138977
3954,3213;0,0139659
3955,2856;0,0140238
3956,2498;0,0140605
3957,2141;0,0140771
3958,1782;0,014078
3959,1426;0,0140655
3960,1067;0,0140411
3961,0710;0,0140098
3962,0352;0,013982
3962,9995;0,0139681
3963,9636;0,0139726
3964,9280;0,013991
3965,8921;0,0140134
3966,8564;0,0140314
3967,8206;0,0140427
3968,7849;0,0140517
3969,7490;0,0140634
3970,7134;0,0140779
3971,6775;0,0140886
3972,6418;0,0140859
3973,6060;0,0140644
3974,5703;0,0140283
3975,5344;0,0139892
3976,4988;0,0139602
3977,4629;0,0139483
3978,4272;0,0139511
3979,3914;0,0139599
3980,3557;0,0139656
3981,3198;0,013965
3982,2842;0,0139618
3983,2483;0,0139632
3984,2126;0,0139747
3985,1768;0,0139958
3986,1411;0,0140209
3987,1052;0,0140433
3988,0696;0,0140589
3989,0337;0,0140671
3989,9980;0,0140691
3990,9622;0,0140649
3991,9265;0,0140527
3992,8906;0,0140319
3993,8550;0,0140066
3994,8191;0,0139869
3995,7834;0,0139841
3996,7476;0,014004
3997,7119;0,0140417
3998,6760;0,0140835
3999,6404;0,0141138
4000,6045;0,0139837

##### Extended Information
[Comments]
Sample name
Comment
Username
Division
Organization;UNIVERSIDAD INDUSTRIAL DE SANTANDER

[Detailed Information]
Creation date;19/02/2025 12:28 p.m.

Data array type;Linear data array
Horizontal axis;Wavenumber [cm-1]
Vertical axis;Abs
Start;399,193 cm-1
End;4000,6 cm-1
Data interval;0,964233 cm-1
Data points;3736    

[Measurement Information]
Model name;FT/IR-4X1typeA
Serial No.;A035162111

Accessory;ATR PRO 4X
Accessory S/N;A021162126
Incident angle;45 deg

Measurement date;19/02/2025 12:27 p.m.

Light source;Standard
Detector;TGS
Accumulation;40
Resolution;4 cm-1
Zero filling;On
Apodization;Cosine
Gain;Auto (8)
Aperture;Auto (7 mm)
Scan speed;Auto (2 mm/sec)
Filter;Auto (12800 Hz)

