TITLE;
DATA TYPE;INFRARED SPECTRUM
ORIGIN;JASCO
OWNER;
DATE;25/02/19
TIME;12:25:49
SPECTROMETER/DATA SYSTEM;
LOCALE;9226
RESOLUTION;
DELTAX;0,964233
XUNITS;1/CM
YUNITS;ABSORBANCE
FIRSTX;  399,1927
LASTX; 4000,6047
NPOINTS;    3736
FIRSTY;     0,09662
MAXY;     0,11733
MINY;     0,00518
XYDATA
399,1927;0,0966237
400,1569;0,0967732
401,1211;0,0966318
402,0854;0,0963073
403,0496;0,0959226
404,0138;0,0955573
404,9781;0,0952453
405,9423;0,0949921
406,9065;0,0947972
407,8708;0,0946755
408,8350;0,0946735
409,7992;0,0948678
410,7635;0,0953321
411,7277;0,0960796
412,6919;0,0970275
413,6562;0,0980267
414,6204;0,0989255
415,5846;0,0996012
416,5489;0,0999395
417,5131;0,099817
418,4773;0,0991751
419,4416;0,0981758
420,4058;0,0971747
421,3700;0,0964649
422,3343;0,0961733
423,2985;0,0963337
424,2627;0,0969162
425,2270;0,0977858
426,1912;0,0986918
427,1554;0,0993531
428,1197;0,0995908
429,0839;0,0994046
430,0481;0,0989565
431,0124;0,0984865
431,9766;0,0982055
432,9408;0,0982069
433,9051;0,0984319
434,8693;0,0986978
435,8335;0,0987718
436,7978;0,0984685
437,7620;0,0977271
438,7262;0,0966331
439,6905;0,0953839
440,6547;0,0942304
441,6189;0,0934093
442,5832;0,0930675
443,5474;0,0932016
444,5116;0,0936644
445,4759;0,0942466
446,4401;0,0947638
447,4043;0,0950899
448,3686;0,0951539
449,3328;0,0949428
450,2970;0,0945217
451,2613;0,0940313
452,2255;0,0936295
453,1897;0,0933965
454,1540;0,0932753
455,1182;0,0930943
456,0824;0,0926705
457,0467;0,0919512
458,0109;0,0910995
458,9751;0,0904053
459,9394;0,0900645
460,9036;0,0900579
461,8678;0,0902269
462,8321;0,0904137
463,7963;0,090539
464,7605;0,0906019
465,7248;0,0906325
466,6890;0,0906436
467,6532;0,0906199
468,6175;0,0905512
469,5817;0,0904699
470,5459;0,0904522
471,5102;0,0905687
472,4744;0,0908101
473,4386;0,0910606
474,4029;0,0911684
475,3671;0,0910513
476,3313;0,0907455
477,2956;0,0903769
478,2598;0,0900949
479,2240;0,0900027
480,1883;0,0901139
481,1525;0,0903531
482,1167;0,0906015
483,0810;0,0907604
484,0452;0,0907983
485,0094;0,0907558
485,9737;0,0907045
486,9379;0,090695
487,9021;0,0907355
488,8664;0,0908072
489,8306;0,0908946
490,7948;0,0910053
491,7591;0,0911655
492,7233;0,0913957
493,6875;0,0916866
494,6518;0,0919959
495,6160;0,092271
496,5802;0,0924784
497,5445;0,0926179
498,5087;0,0927175
499,4729;0,0928141
500,4372;0,0929325
501,4014;0,0930749
502,3656;0,0932255
503,3299;0,0933687
504,2941;0,0935057
505,2583;0,0936546
506,2226;0,0938362
507,1868;0,0940582
508,1510;0,094308
509,1153;0,0945596
510,0795;0,0947882
511,0437;0,0949819
512,0080;0,0951428
512,9722;0,0952795
513,9365;0,0954011
514,9007;0,0955151
515,8649;0,0956284
516,8292;0,095745
517,7934;0,0958588
518,7576;0,0959509
519,7219;0,095999
520,6861;0,0959953
521,6503;0,0959588
522,6146;0,0959298
523,5788;0,095953
524,5430;0,0960543
525,5073;0,0962215
526,4715;0,0964056
527,4357;0,0965486
528,4000;0,0966152
529,3642;0,0966026
530,3284;0,0965272
531,2927;0,0964079
532,2569;0,0962612
533,2211;0,0961062
534,1854;0,0959672
535,1496;0,0958679
536,1138;0,0958198
537,0781;0,0958161
538,0423;0,0958385
539,0065;0,0958713
539,9708;0,0959107
540,9350;0,0959606
541,8992;0,0960203
542,8635;0,096078
543,8277;0,0961169
544,7919;0,096131
545,7562;0,0961343
546,7204;0,0961527
547,6846;0,0962028
548,6489;0,0962779
549,6131;0,0963559
550,5773;0,0964244
551,5416;0,0964998
552,5058;0,0966229
553,4700;0,09683
554,4343;0,0971207
555,3985;0,0974464
556,3627;0,0977292
557,3270;0,0978981
558,2912;0,0979178
559,2554;0,0977936
560,2197;0,0975565
561,1839;0,0972454
562,1481;0,0968963
563,1124;0,0965414
564,0766;0,096208
565,0408;0,0959173
566,0051;0,0956817
566,9693;0,095507
567,9335;0,0953956
568,8978;0,0953463
569,8620;0,0953491
570,8262;0,0953794
571,7905;0,0954019
572,7547;0,0953844
573,7189;0,0953144
574,6832;0,0952076
575,6474;0,0950981
576,6116;0,0950161
577,5759;0,0949682
578,5401;0,0949366
579,5043;0,0948971
580,4686;0,0948384
581,4328;0,094766
582,3970;0,0946898
583,3613;0,0946087
584,3255;0,0945081
585,2897;0,0943742
586,2540;0,0942118
587,2182;0,0940485
588,1824;0,0939202
589,1467;0,0938472
590,1109;0,0938193
591,0751;0,0937985
592,0394;0,0937391
593,0036;0,0936139
593,9678;0,0934292
594,9321;0,0932202
595,8963;0,0930346
596,8605;0,0929126
597,8248;0,0928709
598,7890;0,0928912
599,7532;0,0929209
600,7175;0,0928921
601,6817;0,0927527
602,6459;0,0924942
603,6102;0,0921548
604,5744;0,0917965
605,5386;0,0914693
606,5029;0,0911845
607,4671;0,0909151
608,4313;0,0906215
609,3956;0,0902842
610,3598;0,0899181
611,3240;0,0895599
612,2883;0,0892392
613,2525;0,0889566
614,2167;0,0886852
615,1810;0,0883899
616,1452;0,0880514
617,1094;0,0876747
618,0737;0,0872784
619,0379;0,0868736
620,0021;0,0864536
620,9664;0,0860034
621,9306;0,0855195
622,8948;0,0850232
623,8591;0,0845562
624,8233;0,0841711
625,7875;0,0838664
626,7518;0,0836254
627,7160;0,0834063
628,6802;0,0831669
629,6445;0,0828815
630,6087;0,0825492
631,5729;0,0821873
632,5372;0,0818231
633,5014;0,0814828
634,4656;0,0811831
635,4299;0,0809244
636,3941;0,0806895
637,3583;0,0804496
638,3226;0,0801771
639,2868;0,0798586
640,2510;0,0795017
641,2153;0,0791286
642,1795;0,0787627
643,1437;0,0784163
644,1080;0,0780891
645,0722;0,0777763
646,0364;0,0774788
647,0007;0,0772059
647,9649;0,0769686
648,9291;0,0767699
649,8934;0,0766012
650,8576;0,0764503
651,8218;0,0763124
652,7861;0,0761963
653,7503;0,0761193
654,7145;0,0760967
655,6788;0,0761329
656,6430;0,0762166
657,6072;0,0763233
658,5715;0,0764189
659,5357;0,0764673
660,4999;0,0764451
661,4642;0,0763598
662,4284;0,0762548
663,3926;0,076187
664,3569;0,076182
665,3211;0,0761819
666,2853;0,0760204
667,2496;0,0755057
668,2138;0,0746694
669,1780;0,0738286
670,1423;0,0731639
671,1065;0,072594
672,0707;0,0720202
673,0350;0,0713946
673,9992;0,070688
674,9634;0,0698995
675,9277;0,0690758
676,8919;0,0682937
677,8561;0,0676102
678,8204;0,0670359
679,7846;0,0665498
680,7488;0,0661288
681,7131;0,0657595
682,6773;0,0654386
683,6415;0,0651671
684,6058;0,0649491
685,5700;0,0647901
686,5342;0,0646907
687,4985;0,0646389
688,4627;0,0646065
689,4269;0,0645635
690,3912;0,0644885
691,3554;0,0643785
692,3196;0,064248
693,2839;0,0641198
694,2481;0,0640135
695,2123;0,0639372
696,1766;0,0638848
697,1408;0,0638391
698,1050;0,0637792
699,0693;0,0636895
700,0335;0,0635652
700,9977;0,0634137
701,9620;0,0632486
702,9262;0,0630822
703,8904;0,0629232
704,8547;0,062768
705,8189;0,06261
706,7831;0,0624437
707,7474;0,0622681
708,7116;0,0620849
709,6758;0,0618956
710,6401;0,0616988
711,6043;0,0614912
712,5685;0,0612694
713,5328;0,0610317
714,4970;0,0607788
715,4612;0,0607206
716,4255;0,0603988
717,3897;0,0600524
718,3539;0,0597
719,3182;0,059369
720,2824;0,0590847
721,2466;0,0588558
722,2109;0,0586688
723,1751;0,0584935
724,1393;0,058297
725,1036;0,0580551
726,0678;0,0577575
727,0320;0,0574087
727,9963;0,0570238
728,9605;0,0566245
729,9247;0,0562347
730,8890;0,055877
731,8532;0,0555701
732,8174;0,0553234
733,7817;0,0551328
734,7459;0,0549791
735,7101;0,0548335
736,6744;0,0546678
737,6386;0,0544656
738,6028;0,0542278
739,5671;0,0539697
740,5313;0,0537133
741,4955;0,0534769
742,4598;0,0532703
743,4240;0,0530929
744,3882;0,0529357
745,3525;0,052783
746,3167;0,0526157
747,2809;0,0524165
748,2452;0,0521781
749,2094;0,051909
750,1736;0,0516324
751,1379;0,0513754
752,1021;0,051155
753,0663;0,0509678
754,0306;0,0507936
754,9948;0,0506092
755,9590;0,0504039
756,9233;0,0501851
757,8875;0,0499709
758,8517;0,0497759
759,8160;0,049601
760,7802;0,0494341
761,7444;0,0492601
762,7087;0,0490709
763,6729;0,0488694
764,6371;0,0486652
765,6014;0,0484676
766,5656;0,0482812
767,5298;0,0481059
768,4941;0,0479386
769,4583;0,047774
770,4225;0,0476059
771,3868;0,0474293
772,3510;0,0472445
773,3152;0,0470593
774,2795;0,0468871
775,2437;0,0467387
776,2079;0,046614
777,1722;0,0464989
778,1364;0,0463714
779,1006;0,0462139
780,0649;0,0460227
781,0291;0,0458104
781,9933;0,0455983
782,9576;0,045406
783,9218;0,045244
784,8860;0,0451122
785,8503;0,0450043
786,8145;0,0449124
787,7787;0,0448304
788,7430;0,0447545
789,7072;0,0446808
790,6714;0,0446048
791,6357;0,0445206
792,5999;0,0444234
793,5641;0,0443118
794,5284;0,0441908
795,4926;0,0440713
796,4568;0,0439666
797,4211;0,0438856
798,3853;0,0438279
799,3495;0,0437836
800,3138;0,0437389
801,2780;0,0436846
802,2422;0,0436222
803,2065;0,0435614
804,1707;0,0435125
805,1349;0,0434775
806,0992;0,043447
807,0634;0,0434065
808,0276;0,0433456
808,9919;0,0432656
809,9561;0,0431785
810,9203;0,0430988
811,8846;0,0430335
812,8488;0,0429774
813,8130;0,0429163
814,7773;0,0428353
815,7415;0,0427282
816,7057;0,0426008
817,6700;0,0424692
818,6342;0,0423519
819,5984;0,0422619
820,5627;0,0422011
821,5269;0,0421595
822,4911;0,0421202
823,4554;0,0420677
824,4196;0,0419959
825,3839;0,0419117
826,3481;0,04183
827,3123;0,041764
828,2766;0,0417157
829,2408;0,041674
830,2050;0,0416208
831,1693;0,0415431
832,1335;0,0414409
833,0977;0,0413254
834,0620;0,0412094
835,0262;0,0410971
835,9904;0,0409809
836,9547;0,0408488
837,9189;0,0406942
838,8831;0,0405224
839,8474;0,0403473
840,8116;0,0401834
841,7758;0,0400385
842,7401;0,0399138
843,7043;0,0398079
844,6685;0,0397216
845,6328;0,0396566
846,5970;0,0396122
847,5612;0,0395817
848,5255;0,0395549
849,4897;0,0395226
850,4539;0,0394818
851,4182;0,0394354
852,3824;0,0393888
853,3466;0,0393456
854,3109;0,0393075
855,2751;0,0392764
856,2393;0,0392559
857,2036;0,0392513
858,1678;0,0392656
859,1320;0,0392963
860,0963;0,0393359
861,0605;0,0393747
862,0247;0,039406
862,9890;0,0394291
863,9532;0,0394494
864,9174;0,0394769
865,8817;0,0395217
866,8459;0,0395912
867,8101;0,0396871
868,7744;0,0398048
869,7386;0,0399344
870,7028;0,0400643
871,6671;0,0401847
872,6313;0,040291
873,5955;0,0403843
874,5598;0,0404701
875,5240;0,0405564
876,4882;0,0406507
877,4525;0,0407588
878,4167;0,0408839
879,3809;0,0410276
880,3452;0,0411915
881,3094;0,0413784
882,2736;0,0415935
883,2379;0,0418439
884,2021;0,0421359
885,1663;0,0424731
886,1306;0,0428555
887,0948;0,0432804
888,0590;0,0437448
889,0233;0,0442463
889,9875;0,0447817
890,9517;0,0453422
891,9160;0,0459092
892,8802;0,0464516
893,8444;0,0469298
894,8087;0,0473042
895,7729;0,0475449
896,7371;0,0476396
897,7014;0,0475949
898,6656;0,0474313
899,6298;0,0471747
900,5941;0,0468496
901,5583;0,0464747
902,5225;0,0460633
903,4868;0,0456261
904,4510;0,0451735
905,4152;0,0447182
906,3795;0,0442756
907,3437;0,0438637
908,3079;0,0435009
909,2722;0,0432029
910,2364;0,0429789
911,2007;0,0428282
912,1649;0,0427408
913,1292;0,0427003
914,0934;0,04269
915,0576;0,0426975
916,0219;0,0427179
916,9861;0,0427535
917,9503;0,0428106
918,9146;0,0428956
919,8788;0,0430111
920,8430;0,0431532
921,8073;0,0433117
922,7715;0,0434728
923,7357;0,0436244
924,7000;0,0437606
925,6642;0,043884
926,6284;0,0440035
927,5927;0,0441285
928,5569;0,0442635
929,5211;0,0444066
930,4854;0,044553
931,4496;0,0447005
932,4138;0,0448546
933,3781;0,045027
934,3423;0,0452302
935,3065;0,0454696
936,2708;0,04574
937,2350;0,0460288
938,1992;0,0463238
939,1635;0,0466217
940,1277;0,0469311
941,0919;0,0472682
942,0562;0,0476492
943,0204;0,0480827
943,9846;0,0485688
944,9489;0,0491022
945,9131;0,049678
946,8773;0,0502949
947,8416;0,0509539
948,8058;0,051656
949,7700;0,0523989
950,7343;0,0531775
951,6985;0,0539846
952,6627;0,0548126
953,6270;0,0556543
954,5912;0,0565045
955,5554;0,0573613
956,5197;0,058228
957,4839;0,0591122
958,4481;0,0600204
959,4124;0,0609522
960,3766;0,0618958
961,3408;0,0628308
962,3051;0,0637382
963,2693;0,0646098
964,2335;0,0654535
965,1978;0,0662887
966,1620;0,0671363
967,1262;0,0680093
968,0905;0,0689114
969,0547;0,0698413
970,0189;0,0708015
970,9832;0,0718028
971,9474;0,0728627
972,9116;0,0739997
973,8759;0,0752265
974,8401;0,0765466
975,8043;0,0779549
976,7686;0,0794393
977,7328;0,0809835
978,6970;0,0825672
979,6613;0,0841662
980,6255;0,0857514
981,5897;0,0872908
982,5540;0,0887517
983,5182;0,0901062
984,4824;0,0913353
985,4467;0,0924328
986,4109;0,093404
987,3751;0,0942621
988,3394;0,0950231
989,3036;0,0957005
990,2678;0,0963043
991,2321;0,0968401
992,1963;0,097311
993,1605;0,0977201
994,1248;0,0980726
995,0890;0,0983782
996,0532;0,0986531
997,0175;0,098918
997,9817;0,0991949
998,9459;0,0995014
999,9102;0,0998473
1000,8744;0,100235
1001,8386;0,100663
1002,8029;0,101133
1003,7671;0,10165
1004,7313;0,102225
1005,6956;0,102872
1006,6598;0,103605
1007,6240;0,104434
1008,5883;0,105364
1009,5525;0,106386
1010,5167;0,10748
1011,4810;0,108609
1012,4452;0,109732
1013,4094;0,110811
1014,3737;0,111817
1015,3379;0,112741
1016,3021;0,113579
1017,2664;0,11433
1018,2306;0,114991
1019,1948;0,115554
1020,1591;0,116015
1021,1233;0,116381
1022,0875;0,116666
1023,0518;0,116888
1024,0160;0,117064
1024,9802;0,117198
1025,9445;0,11729
1026,9087;0,11733
1027,8729;0,11731
1028,8372;0,117222
1029,8014;0,117055
1030,7656;0,116802
1031,7299;0,116451
1032,6941;0,116
1033,6583;0,115449
1034,6226;0,114811
1035,5868;0,114104
1036,5510;0,113356
1037,5153;0,112597
1038,4795;0,111862
1039,4437;0,111184
1040,4080;0,110589
1041,3722;0,110085
1042,3364;0,109665
1043,3007;0,1093
1044,2649;0,108953
1045,2291;0,108589
1046,1934;0,108182
1047,1576;0,107718
1048,1218;0,107193
1049,0861;0,106609
1050,0503;0,105967
1051,0145;0,105267
1051,9788;0,10451
1052,9430;0,1037
1053,9072;0,102843
1054,8715;0,101942
1055,8357;0,100998
1056,7999;0,100004
1057,7642;0,0989511
1058,7284;0,0978297
1059,6926;0,0966375
1060,6569;0,0953813
1061,6211;0,0940779
1062,5853;0,0927526
1063,5496;0,0914381
1064,5138;0,0901715
1065,4780;0,0889896
1066,4423;0,0879202
1067,4065;0,0869732
1068,3707;0,0861345
1069,3350;0,0853691
1070,2992;0,0846312
1071,2634;0,0838794
1072,2277;0,0830883
1073,1919;0,0822519
1074,1561;0,0813793
1075,1204;0,0804864
1076,0846;0,0795892
1077,0488;0,0787007
1078,0131;0,0778336
1078,9773;0,0770016
1079,9415;0,0762208
1080,9058;0,0755065
1081,8700;0,0748693
1082,8342;0,0743113
1083,7985;0,073825
1084,7627;0,0733962
1085,7269;0,0730097
1086,6912;0,0726556
1087,6554;0,072332
1088,6196;0,0720424
1089,5839;0,0717904
1090,5481;0,0715744
1091,5123;0,0713866
1092,4766;0,0712185
1093,4408;0,0710668
1094,4050;0,0709362
1095,3693;0,0708343
1096,3335;0,0707643
1097,2977;0,0707192
1098,2620;0,0706834
1099,2262;0,0706412
1100,1904;0,0705845
1101,1547;0,070515
1102,1189;0,0704387
1103,0831;0,070357
1104,0474;0,0702632
1105,0116;0,0701458
1105,9758;0,0699965
1106,9401;0,0698151
1107,9043;0,0696072
1108,8685;0,069375
1109,8328;0,0691098
1110,7970;0,0687922
1111,7612;0,0684015
1112,7255;0,0679294
1113,6897;0,0673887
1114,6539;0,0668111
1115,6182;0,0662367
1116,5824;0,0656989
1117,5466;0,0652142
1118,5109;0,0647793
1119,4751;0,0643747
1120,4393;0,0639712
1121,4036;0,0635365
1122,3678;0,0630395
1123,3320;0,0624549
1124,2963;0,0617666
1125,2605;0,0609708
1126,2247;0,060076
1127,1890;0,0591014
1128,1532;0,0580721
1129,1174;0,0570136
1130,0817;0,0559485
1131,0459;0,0548945
1132,0101;0,0538661
1132,9744;0,0528772
1133,9386;0,0519442
1134,9028;0,0510873
1135,8671;0,0503288
1136,8313;0,0496884
1137,7955;0,0491784
1138,7598;0,0488008
1139,7240;0,0485481
1140,6882;0,0484065
1141,6525;0,048361
1142,6167;0,0483975
1143,5809;0,048504
1144,5452;0,0486691
1145,5094;0,0488825
1146,4736;0,0491355
1147,4379;0,0494224
1148,4021;0,0497403
1149,3663;0,0500855
1150,3306;0,0504497
1151,2948;0,0508176
1152,2590;0,0511675
1153,2233;0,051475
1154,1875;0,0517167
1155,1517;0,0518721
1156,1160;0,051923
1157,0802;0,0518514
1158,0444;0,0516389
1159,0087;0,0512674
1159,9729;0,0507212
1160,9371;0,0499907
1161,9014;0,0490747
1162,8656;0,0479841
1163,8298;0,0467439
1164,7941;0,0453922
1165,7583;0,0439771
1166,7225;0,042549
1167,6868;0,0411527
1168,6510;0,0398207
1169,6152;0,0385719
1170,5795;0,0374138
1171,5437;0,0363482
1172,5079;0,0353757
1173,4722;0,0344982
1174,4364;0,0337181
1175,4006;0,033036
1176,3649;0,0324495
1177,3291;0,0319524
1178,2933;0,031536
1179,2576;0,0311899
1180,2218;0,0309041
1181,1860;0,0306695
1182,1503;0,0304794
1183,1145;0,0303294
1184,0787;0,0302176
1185,0430;0,030144
1186,0072;0,0301101
1186,9714;0,0301188
1187,9357;0,0301744
1188,8999;0,0302825
1189,8641;0,0304489
1190,8284;0,0306774
1191,7926;0,0309667
1192,7568;0,0313099
1193,7211;0,0316941
1194,6853;0,0321044
1195,6495;0,0325278
1196,6138;0,0329562
1197,5780;0,0333873
1198,5422;0,0338224
1199,5065;0,0342687
1200,4707;0,0347151
1201,4349;0,0351641
1202,3992;0,035611
1203,3634;0,0360515
1204,3276;0,0364835
1205,2919;0,0369074
1206,2561;0,0373261
1207,2203;0,0377445
1208,1846;0,0381701
1209,1488;0,0386125
1210,1130;0,039083
1211,0773;0,0395918
1212,0415;0,0401449
1213,0057;0,0407416
1213,9700;0,0413733
1214,9342;0,0420262
1215,8984;0,042685
1216,8627;0,043337
1217,8269;0,0439741
1218,7911;0,0445928
1219,7554;0,0451923
1220,7196;0,0457719
1221,6838;0,0463296
1222,6481;0,0468614
1223,6123;0,0473628
1224,5765;0,0478294
1225,5408;0,0482585
1226,5050;0,0486493
1227,4692;0,0490031
1228,4335;0,0493226
1229,3977;0,0496114
1230,3619;0,0498725
1231,3262;0,0501071
1232,2904;0,0503142
1233,2546;0,0504917
1234,2189;0,0506383
1235,1831;0,0507554
1236,1473;0,0508481
1237,1116;0,0509235
1238,0758;0,050987
1239,0400;0,0510393
1240,0043;0,0510753
1240,9685;0,0510857
1241,9327;0,0510607
1242,8970;0,0509945
1243,8612;0,0508868
1244,8254;0,0507424
1245,7897;0,0505679
1246,7539;0,0503696
1247,7181;0,0501519
1248,6824;0,0499183
1249,6466;0,0496726
1250,6108;0,0494195
1251,5751;0,0491633
1252,5393;0,0489064
1253,5035;0,0486478
1254,4678;0,0483837
1255,4320;0,0481093
1256,3962;0,0478215
1257,3605;0,04752
1258,3247;0,0472069
1259,2889;0,0468853
1260,2532;0,0465568
1261,2174;0,0462204
1262,1816;0,0458725
1263,1459;0,0455078
1264,1101;0,0451203
1265,0743;0,0447039
1266,0386;0,0442535
1267,0028;0,0437662
1267,9670;0,0432437
1268,9313;0,0426929
1269,8955;0,0421257
1270,8597;0,0415543
1271,8240;0,040987
1272,7882;0,0404251
1273,7524;0,039865
1274,7167;0,0393029
1275,6809;0,0387404
1276,6451;0,0381855
1277,6094;0,0376491
1278,5736;0,0371399
1279,5378;0,0366598
1280,5021;0,0362055
1281,4663;0,0357722
1282,4305;0,0353584
1283,3948;0,0349669
1284,3590;0,0346024
1285,3232;0,0342685
1286,2875;0,0339662
1287,2517;0,0336954
1288,2159;0,0334579
1289,1802;0,0332581
1290,1444;0,0331021
1291,1086;0,032994
1292,0729;0,032934
1293,0371;0,0329185
1294,0013;0,0329417
1294,9656;0,0329983
1295,9298;0,0330849
1296,8940;0,0332006
1297,8583;0,0333454
1298,8225;0,0335194
1299,7867;0,033722
1300,7510;0,0339518
1301,7152;0,0342074
1302,6794;0,0344881
1303,6437;0,0347941
1304,6079;0,035125
1305,5721;0,0354781
1306,5364;0,0358478
1307,5006;0,0362263
1308,4648;0,0366056
1309,4291;0,0369802
1310,3933;0,0373465
1311,3575;0,0377015
1312,3218;0,0380407
1313,2860;0,0383564
1314,2502;0,0386384
1315,2145;0,0388763
1316,1787;0,0390604
1317,1429;0,0391845
1318,1072;0,039247
1319,0714;0,0392536
1320,0356;0,0392168
1320,9999;0,0391524
1321,9641;0,0390749
1322,9283;0,038995
1323,8926;0,0389192
1324,8568;0,0388507
1325,8210;0,0387906
1326,7853;0,0387368
1327,7495;0,0386845
1328,7137;0,0386255
1329,6780;0,0385507
1330,6422;0,0384519
1331,6064;0,0383253
1332,5707;0,0381723
1333,5349;0,0379977
1334,4991;0,0378057
1335,4634;0,0375952
1336,4276;0,0373581
1337,3918;0,0370839
1338,3561;0,0367697
1339,3203;0,0364307
1340,2845;0,0360975
1341,2488;0,0358007
1342,2130;0,0355566
1343,1772;0,0353666
1344,1415;0,0352236
1345,1057;0,0351203
1346,0699;0,035054
1347,0342;0,0350272
1347,9984;0,0350458
1348,9626;0,0351141
1349,9269;0,0352306
1350,8911;0,0353881
1351,8553;0,0355769
1352,8196;0,0357892
1353,7838;0,0360228
1354,7480;0,0362795
1355,7123;0,036562
1356,6765;0,036871
1357,6407;0,0372054
1358,6050;0,0375641
1359,5692;0,0379452
1360,5334;0,0383411
1361,4977;0,0387333
1362,4619;0,0390947
1363,4261;0,0394039
1364,3904;0,0396597
1365,3546;0,0398774
1366,3188;0,0400738
1367,2831;0,0402548
1368,2473;0,0404137
1369,2115;0,040537
1370,1758;0,0406128
1371,1400;0,0406326
1372,1042;0,0405886
1373,0685;0,0404732
1374,0327;0,0402836
1374,9969;0,0400284
1375,9612;0,0397233
1376,9254;0,0393771
1377,8896;0,0389833
1378,8539;0,0385275
1379,8181;0,038005
1380,7823;0,0374344
1381,7466;0,0368523
1382,7108;0,0362904
1383,6750;0,035753
1384,6393;0,0352162
1385,6035;0,0346506
1386,5677;0,0340576
1387,5320;0,0334873
1388,4962;0,0330073
1389,4604;0,0326519
1390,4247;0,0324085
1391,3889;0,0322387
1392,3531;0,0321022
1393,3174;0,0319714
1394,2816;0,0318394
1395,2458;0,0317187
1396,2101;0,0316295
1397,1743;0,0315846
1398,1385;0,0315851
1399,1028;0,0316254
1400,0670;0,0317002
1401,0313;0,031806
1401,9955;0,031941
1402,9597;0,0321041
1403,9240;0,032294
1404,8882;0,0325082
1405,8524;0,0327429
1406,8167;0,0329947
1407,7809;0,0332638
1408,7451;0,0335551
1409,7094;0,0338747
1410,6736;0,0342234
1411,6378;0,0345919
1412,6021;0,0349648
1413,5663;0,03533
1414,5305;0,0356844
1415,4948;0,0360297
1416,4590;0,036364
1417,4232;0,036676
1418,3875;0,0369458
1419,3517;0,0371541
1420,3159;0,0372909
1421,2802;0,0373542
1422,2444;0,0373428
1423,2086;0,0372546
1424,1729;0,0370923
1425,1371;0,036867
1426,1013;0,0365894
1427,0656;0,036256
1428,0298;0,0358502
1428,9940;0,0353648
1429,9583;0,0348289
1430,9225;0,0343046
1431,8867;0,0338454
1432,8510;0,0334571
1433,8152;0,0330943
1434,7794;0,0326897
1435,7437;0,0322087
1436,7079;0,0317001
1437,6721;0,0312706
1438,6364;0,0309901
1439,6006;0,0308551
1440,5648;0,0308275
1441,5291;0,0308718
1442,4933;0,0309646
1443,4575;0,0310933
1444,4218;0,031253
1445,3860;0,0314437
1446,3502;0,031666
1447,3145;0,0319144
1448,2787;0,0321726
1449,2429;0,0324175
1450,2072;0,0326321
1451,1714;0,0328143
1452,1356;0,0329712
1453,0999;0,0331041
1454,0641;0,0331929
1455,0283;0,0331929
1455,9926;0,0330697
1456,9568;0,0328755
1457,9210;0,0327346
1458,8853;0,0326942
1459,8495;0,0327106
1460,8137;0,0327336
1461,7780;0,0327163
1462,7422;0,0325966
1463,7064;0,032307
1464,6707;0,0318287
1465,6349;0,0312318
1466,5991;0,0306251
1467,5634;0,030064
1468,5276;0,0295236
1469,4918;0,0289215
1470,4561;0,0281472
1471,4203;0,0271166
1472,3845;0,025875
1473,3488;0,0246445
1474,3130;0,0236519
1475,2772;0,022937
1476,2415;0,02241
1477,2057;0,0219844
1478,1699;0,0216168
1479,1342;0,0212916
1480,0984;0,0210041
1481,0626;0,0207553
1482,0269;0,0205525
1482,9911;0,0204062
1483,9553;0,020322
1484,9196;0,0202916
1485,8838;0,020291
1486,8480;0,02029
1487,8123;0,0202779
1488,7765;0,0202911
1489,7407;0,0203936
1490,7050;0,0206111
1491,6692;0,0209182
1492,6334;0,0212818
1493,5977;0,0216836
1494,5619;0,0221143
1495,5261;0,0225689
1496,4904;0,0230482
1497,4546;0,0235542
1498,4188;0,0240741
1499,3831;0,0245801
1500,3473;0,0250539
1501,3115;0,0254959
1502,2758;0,02591
1503,2400;0,0262832
1504,2042;0,0265671
1505,1685;0,0266693
1506,1327;0,0265046
1507,0969;0,0261375
1508,0612;0,0257711
1509,0254;0,0254942
1509,9896;0,0252679
1510,9539;0,0250467
1511,9181;0,024796
1512,8823;0,0244743
1513,8466;0,024038
1514,8108;0,0234671
1515,7750;0,0227917
1516,7393;0,0220827
1517,7035;0,0214007
1518,6677;0,0207518
1519,6320;0,0201009
1520,5962;0,0194347
1521,5604;0,0188066
1522,5247;0,018301
1523,4889;0,0179549
1524,4531;0,0177373
1525,4174;0,0175919
1526,3816;0,0174834
1527,3458;0,0174105
1528,3101;0,017385
1529,2743;0,0174045
1530,2385;0,0174395
1531,2028;0,0174423
1532,1670;0,0173798
1533,1312;0,0172731
1534,0955;0,0171954
1535,0597;0,0172091
1536,0239;0,0173161
1536,9882;0,0174562
1537,9524;0,0175187
1538,9166;0,0173702
1539,8809;0,0169829
1540,8451;0,0166143
1541,8093;0,0165833
1542,7736;0,0168529
1543,7378;0,0172102
1544,7020;0,0175334
1545,6663;0,0177931
1546,6305;0,0179971
1547,5947;0,0181606
1548,5590;0,0182946
1549,5232;0,0184031
1550,4874;0,0184883
1551,4517;0,0185588
1552,4159;0,0186314
1553,3801;0,0187219
1554,3444;0,0188304
1555,3086;0,0189278
1556,2728;0,0189517
1557,2371;0,0188492
1558,2013;0,018707
1559,1655;0,0187388
1560,1298;0,0189607
1561,0940;0,0192269
1562,0582;0,0194797
1563,0225;0,0197341
1563,9867;0,0200042
1564,9509;0,020283
1565,9152;0,020549
1566,8794;0,020786
1567,8436;0,0210033
1568,8079;0,0212373
1569,7721;0,0215183
1570,7363;0,0218413
1571,7006;0,022181
1572,6648;0,0225218
1573,6290;0,0228644
1574,5933;0,0232244
1575,5575;0,02363
1576,5217;0,024099
1577,4860;0,0246072
1578,4502;0,0251139
1579,4144;0,0256122
1580,3787;0,0261221
1581,3429;0,0266589
1582,3071;0,0272186
1583,2714;0,0277841
1584,2356;0,0283409
1585,1998;0,0288857
1586,1641;0,0294223
1587,1283;0,0299481
1588,0925;0,0304474
1589,0568;0,0308964
1590,0210;0,0312731
1590,9852;0,0315638
1591,9495;0,031761
1592,9137;0,0318595
1593,8779;0,0318593
1594,8422;0,0317703
1595,8064;0,0316134
1596,7706;0,0314131
1597,7349;0,0311886
1598,6991;0,0309507
1599,6633;0,0307054
1600,6276;0,0304588
1601,5918;0,0302188
1602,5560;0,0299938
1603,5203;0,0297887
1604,4845;0,0296021
1605,4487;0,0294262
1606,4130;0,0292496
1607,3772;0,0290632
1608,3414;0,0288698
1609,3057;0,0286886
1610,2699;0,0285455
1611,2341;0,0284565
1612,1984;0,0284165
1613,1626;0,0283982
1614,1268;0,0283594
1615,0911;0,0282683
1616,0553;0,0281423
1617,0195;0,0280475
1617,9838;0,028032
1618,9480;0,0280892
1619,9122;0,028187
1620,8765;0,0282939
1621,8407;0,0283849
1622,8049;0,0284479
1623,7692;0,0284909
1624,7334;0,0285318
1625,6976;0,0285812
1626,6619;0,0286385
1627,6261;0,0286997
1628,5903;0,0287658
1629,5546;0,0288454
1630,5188;0,0289479
1631,4830;0,0290704
1632,4473;0,0291839
1633,4115;0,0292259
1634,3757;0,0291296
1635,3400;0,0289069
1636,3042;0,028687
1637,2684;0,0285808
1638,2327;0,0285809
1639,1969;0,0286351
1640,1611;0,028712
1641,1254;0,0288006
1642,0896;0,0288904
1643,0538;0,0289516
1644,0181;0,0289235
1644,9823;0,0287365
1645,9465;0,0283945
1646,9108;0,0280338
1647,8750;0,0278163
1648,8392;0,027788
1649,8035;0,0278872
1650,7677;0,027993
1651,7319;0,0279441
1652,6962;0,0276383
1653,6604;0,0272062
1654,6246;0,0268675
1655,5889;0,0266565
1656,5531;0,0265212
1657,5173;0,0264278
1658,4816;0,0263459
1659,4458;0,0262297
1660,4100;0,0260289
1661,3743;0,0257287
1662,3385;0,0253817
1663,3027;0,0250752
1664,2670;0,024858
1665,2312;0,0247127
1666,1954;0,0245744
1667,1597;0,0243558
1668,1239;0,0239906
1669,0881;0,0235003
1670,0524;0,0230142
1671,0166;0,0226621
1671,9808;0,0224617
1672,9451;0,022336
1673,9093;0,0221918
1674,8735;0,0219774
1675,8378;0,0217094
1676,8020;0,0214527
1677,7662;0,0212669
1678,7305;0,0211704
1679,6947;0,0211368
1680,6589;0,0210945
1681,6232;0,0209296
1682,5874;0,0205394
1683,5516;0,0199664
1684,5159;0,0194335
1685,4801;0,0191019
1686,4443;0,01894
1687,4086;0,0188601
1688,3728;0,0188144
1689,3370;0,0187948
1690,3013;0,018809
1691,2655;0,0188606
1692,2297;0,0189358
1693,1940;0,0190008
1694,1582;0,0190128
1695,1224;0,0189436
1696,0867;0,018806
1697,0509;0,0186598
1698,0151;0,0185793
1698,9794;0,0185997
1699,9436;0,0186949
1700,9078;0,0188137
1701,8721;0,0189318
1702,8363;0,0190651
1703,8005;0,0192457
1704,7648;0,0194952
1705,7290;0,0198114
1706,6932;0,02017
1707,6575;0,0205407
1708,6217;0,0209078
1709,5859;0,0212755
1710,5502;0,0216543
1711,5144;0,0220449
1712,4786;0,0224315
1713,4429;0,0227886
1714,4071;0,0231002
1715,3713;0,02339
1716,3356;0,0237332
1717,2998;0,0241891
1718,2640;0,0247127
1719,2283;0,0252125
1720,1925;0,0256555
1721,1567;0,0260643
1722,1210;0,0264661
1723,0852;0,0268671
1724,0494;0,027253
1725,0137;0,0276042
1725,9779;0,0279096
1726,9421;0,0281728
1727,9064;0,0284074
1728,8706;0,0286255
1729,8348;0,028825
1730,7991;0,0289796
1731,7633;0,0290422
1732,7275;0,0289762
1733,6918;0,028799
1734,6560;0,0285718
1735,6202;0,028337
1736,5845;0,0280943
1737,5487;0,0278187
1738,5129;0,0274789
1739,4772;0,0270588
1740,4414;0,0265744
1741,4056;0,0260672
1742,3699;0,0255692
1743,3341;0,0250799
1744,2983;0,0245782
1745,2626;0,0240438
1746,2268;0,0234616
1747,1910;0,0228137
1748,1553;0,0220829
1749,1195;0,0212805
1750,0837;0,0204683
1751,0480;0,0197272
1752,0122;0,0190961
1752,9764;0,0185554
1753,9407;0,0180553
1754,9049;0,0175515
1755,8691;0,0170294
1756,8334;0,0165082
1757,7976;0,0160177
1758,7618;0,0155643
1759,7261;0,0151209
1760,6903;0,0146546
1761,6545;0,0141684
1762,6188;0,0137093
1763,5830;0,0133317
1764,5472;0,0130553
1765,5115;0,0128573
1766,4757;0,0126906
1767,4399;0,0125069
1768,4042;0,0122699
1769,3684;0,0119612
1770,3326;0,0115871
1771,2969;0,0111888
1772,2611;0,010839
1773,2253;0,0106006
1774,1896;0,0104854
1775,1538;0,0104594
1776,1180;0,010475
1777,0823;0,0104903
1778,0465;0,010476
1779,0107;0,0104233
1779,9750;0,0103471
1780,9392;0,0102726
1781,9034;0,0102139
1782,8677;0,0101653
1783,8319;0,0101141
1784,7961;0,0100592
1785,7604;0,0100168
1786,7246;0,0100069
1787,6888;0,0100347
1788,6531;0,0100781
1789,6173;0,0100908
1790,5815;0,0100255
1791,5458;0,00987633
1792,5100;0,00969925
1793,4742;0,00956768
1794,4385;0,00951079
1795,4027;0,00951078
1796,3669;0,00953405
1797,3312;0,00955106
1798,2954;0,00954444
1799,2596;0,00951345
1800,2239;0,00947127
1801,1881;0,00943221
1802,1523;0,00940106
1803,1166;0,00937614
1804,0808;0,00935809
1805,0450;0,00935149
1806,0093;0,0093586
1806,9735;0,00937274
1807,9377;0,00937782
1808,9020;0,00935674
1809,8662;0,00930479
1810,8304;0,00923727
1811,7947;0,00918133
1812,7589;0,00915761
1813,7231;0,00916763
1814,6874;0,00919473
1815,6516;0,00921496
1816,6158;0,00921191
1817,5801;0,00918807
1818,5443;0,00916383
1819,5085;0,0091623
1820,4728;0,00919198
1821,4370;0,00924071
1822,4012;0,00928308
1823,3655;0,0092955
1824,3297;0,00926938
1825,2939;0,00921222
1826,2582;0,00913656
1827,2224;0,00904952
1828,1866;0,00895564
1829,1509;0,00886879
1830,1151;0,00881508
1831,0793;0,00881546
1832,0436;0,00886719
1833,0078;0,00894607
1833,9720;0,00902128
1834,9363;0,00906828
1835,9005;0,00907987
1836,8647;0,00907257
1837,8290;0,00907845
1838,7932;0,00912292
1839,7574;0,009207
1840,7217;0,00930498
1841,6859;0,0093742
1842,6501;0,00937518
1843,6144;0,00929832
1844,5786;0,00917413
1845,5428;0,00904691
1846,5071;0,00894175
1847,4713;0,0088626
1848,4355;0,00880792
1849,3998;0,00877981
1850,3640;0,00878282
1851,3282;0,00881756
1852,2925;0,00887495
1853,2567;0,00893634
1854,2209;0,00898082
1855,1852;0,00899532
1856,1494;0,0089806
1857,1136;0,00894944
1858,0779;0,00891905
1859,0421;0,00890258
1860,0063;0,00890471
1860,9706;0,00892253
1861,9348;0,00894941
1862,8990;0,00897816
1863,8633;0,00900157
1864,8275;0,00901131
1865,7917;0,00899937
1866,7560;0,00896551
1867,7202;0,00892558
1868,6844;0,00890513
1869,6487;0,0089164
1870,6129;0,0089474
1871,5771;0,00897664
1872,5414;0,00898861
1873,5056;0,00897582
1874,4698;0,00893662
1875,4341;0,00887713
1876,3983;0,00881358
1877,3625;0,00876961
1878,3268;0,00876604
1879,2910;0,00880975
1880,2552;0,00888781
1881,2195;0,00897092
1882,1837;0,00902638
1883,1479;0,00903536
1884,1122;0,00900399
1885,0764;0,00895986
1886,0406;0,00893586
1887,0049;0,00895134
1887,9691;0,00900065
1888,9333;0,00905553
1889,8976;0,0090824
1890,8618;0,0090648
1891,8260;0,00901323
1892,7903;0,00895599
1893,7545;0,00892108
1894,7188;0,00892194
1895,6830;0,00895236
1896,6472;0,00899131
1897,6115;0,0090151
1898,5757;0,00900998
1899,5399;0,00897786
1900,5042;0,00893357
1901,4684;0,00889676
1902,4326;0,0088816
1903,3969;0,00888894
1904,3611;0,00890604
1905,3253;0,00891568
1906,2896;0,00890874
1907,2538;0,008892
1908,2180;0,00888459
1909,1823;0,0089034
1910,1465;0,0089472
1911,1107;0,00899455
1912,0750;0,00901943
1913,0392;0,00901015
1914,0034;0,00897631
1914,9677;0,00894189
1915,9319;0,00893143
1916,8961;0,00895543
1917,8604;0,00900269
1918,8246;0,00904761
1919,7888;0,00906891
1920,7531;0,00906235
1921,7173;0,00903722
1922,6815;0,0090031
1923,6458;0,0089594
1924,6100;0,00889601
1925,5742;0,0088048
1926,5385;0,00869305
1927,5027;0,00858789
1928,4669;0,00852837
1929,4312;0,00854851
1930,3954;0,00865752
1931,3596;0,00882875
1932,3239;0,00900773
1933,2881;0,00913637
1934,2523;0,00917937
1935,2166;0,00913791
1936,1808;0,00904435
1937,1450;0,00894224
1938,1093;0,00886537
1939,0735;0,00882831
1940,0377;0,00883016
1941,0020;0,00886401
1941,9662;0,00892271
1942,9304;0,00899671
1943,8947;0,00906971
1944,8589;0,00912027
1945,8231;0,00912967
1946,7874;0,00908861
1947,7516;0,00899987
1948,7158;0,00887876
1949,6801;0,00875276
1950,6443;0,00865827
1951,6085;0,00863111
1952,5728;0,00869014
1953,5370;0,00881969
1954,5012;0,00896328
1955,4655;0,00904096
1956,4297;0,0089898
1957,3939;0,00880779
1958,3582;0,00857114
1959,3224;0,00840484
1960,2866;0,00841378
1961,2509;0,00861591
1962,2151;0,00892785
1963,1793;0,00921688
1964,1436;0,00938055
1965,1078;0,00939983
1966,0720;0,0093356
1967,0363;0,0092734
1968,0005;0,00925568
1968,9647;0,00925524
1969,9290;0,00920973
1970,8932;0,00908142
1971,8574;0,00889272
1972,8217;0,00871699
1973,7859;0,0086371
1974,7501;0,00869852
1975,7144;0,00888357
1976,6786;0,00912356
1977,6428;0,0093408
1978,6071;0,0094917
1979,5713;0,00958246
1980,5355;0,0096525
1981,4998;0,00974312
1982,4640;0,00987058
1983,4282;0,0100142
1984,3925;0,0101236
1985,3567;0,0101439
1986,3209;0,0100494
1987,2852;0,00986581
1988,2494;0,00966474
1989,2136;0,00953194
1990,1779;0,00952317
1991,1421;0,00963222
1992,1063;0,00979349
1993,0706;0,00992322
1994,0348;0,00997232
1994,9990;0,00995182
1995,9633;0,00991754
1996,9275;0,00993089
1997,8917;0,0100205
1998,8560;0,0101631
1999,8202;0,0102928
2000,7844;0,0103363
2001,7487;0,0102547
2002,7129;0,0100706
2003,6771;0,00986546
2004,6414;0,00974802
2005,6056;0,00980267
2006,5698;0,0100393
2007,5341;0,0103774
2008,4983;0,0106828
2009,4625;0,0108384
2010,4268;0,0108014
2011,3910;0,0106118
2012,3552;0,0103575
2013,3195;0,0101246
2014,2837;0,00996732
2015,2479;0,00990972
2016,2122;0,00996632
2017,1764;0,0101548
2018,1406;0,0104811
2019,1049;0,0109072
2020,0691;0,011335
2021,0333;0,0116328
2021,9976;0,0116966
2022,9618;0,0115126
2023,9260;0,0111775
2024,8903;0,0108537
2025,8545;0,0106779
2026,8187;0,0106842
2027,7830;0,0107961
2028,7472;0,0108931
2029,7114;0,0109039
2030,6757;0,0108585
2031,6399;0,0108635
2032,6041;0,0110187
2033,5684;0,0113359
2034,5326;0,0117203
2035,4968;0,0120264
2036,4611;0,0121443
2037,4253;0,0120527
2038,3895;0,0118132
2039,3538;0,0115226
2040,3180;0,0112623
2041,2822;0,0110697
2042,2465;0,0109418
2043,2107;0,0108605
2044,1749;0,010819
2045,1392;0,0108334
2046,1034;0,0109311
2047,0676;0,0111257
2048,0320;0,0113924
2048,9961;0,0116661
2049,9604;0,011865
2050,9246;0,011927
2051,8889;0,0118355
2052,8530;0,0116252
2053,8174;0,0113662
2054,7815;0,0111348
2055,7458;0,0109789
2056,7100;0,0109004
2057,6743;0,010864
2058,6384;0,0108298
2059,6028;0,0107827
2060,5669;0,0107392
2061,5313;0,0107282
2062,4954;0,0107617
2063,4597;0,0108196
2064,4238;0,0108608
2065,3882;0,0108505
2066,3523;0,0107831
2067,3167;0,0106826
2068,2808;0,0105844
2069,2451;0,0105158
2070,2092;0,0104895
2071,1736;0,01051
2072,1377;0,0105802
2073,1021;0,0106987
2074,0662;0,0108496
2075,0305;0,010998
2075,9946;0,0111007
2076,9590;0,0111284
2077,9231;0,0110841
2078,8875;0,0110023
2079,8516;0,0109289
2080,8159;0,0108953
2081,7800;0,0109054
2082,7444;0,0109412
2083,7085;0,0109794
2084,6729;0,0110055
2085,6370;0,0110153
2086,6013;0,0110075
2087,5654;0,0109776
2088,5298;0,0109197
2089,4939;0,010836
2090,4583;0,0107439
2091,4224;0,0106719
2092,3867;0,0106474
2093,3508;0,0106822
2094,3152;0,0107662
2095,2793;0,0108729
2096,2437;0,0109728
2097,2078;0,0110462
2098,1721;0,0110865
2099,1362;0,0110959
2100,1006;0,0110777
2101,0647;0,0110355
2102,0291;0,0109714
2102,9932;0,010893
2103,9575;0,0108145
2104,9216;0,0107546
2105,8860;0,0107309
2106,8501;0,0107537
2107,8145;0,0108218
2108,7786;0,0109218
2109,7429;0,0110314
2110,7070;0,0111264
2111,6714;0,0111873
2112,6355;0,0112047
2113,5999;0,0111812
2114,5640;0,0111284
2115,5283;0,0110617
2116,4924;0,0109944
2117,4568;0,0109347
2118,4209;0,0108861
2119,3853;0,0108501
2120,3494;0,0108281
2121,3137;0,0108224
2122,2778;0,0108337
2123,2422;0,0108589
2124,2063;0,0108901
2125,1707;0,0109176
2126,1348;0,0109336
2127,0991;0,0109364
2128,0632;0,0109297
2129,0276;0,0109212
2129,9917;0,0109187
2130,9561;0,0109292
2131,9202;0,010958
2132,8845;0,0110076
2133,8486;0,0110751
2134,8130;0,01115
2135,7771;0,0112152
2136,7415;0,0112549
2137,7056;0,0112623
2138,6699;0,0112436
2139,6340;0,0112132
2140,5984;0,0111852
2141,5625;0,0111684
2142,5269;0,0111702
2143,4910;0,0112038
2144,4553;0,011292
2145,4194;0,011458
2146,3838;0,0117059
2147,3479;0,0120058
2148,3123;0,0122958
2149,2764;0,0125041
2150,2407;0,012579
2151,2048;0,0125104
2152,1692;0,0123311
2153,1333;0,012101
2154,0977;0,0118881
2155,0618;0,0117532
2156,0261;0,0117416
2156,9902;0,0118706
2157,9546;0,0121126
2158,9187;0,0123901
2159,8831;0,0126054
2160,8472;0,0126921
2161,8115;0,0126471
2162,7756;0,01252
2163,7400;0,0123777
2164,7041;0,0122671
2165,6685;0,0121959
2166,6326;0,0121354
2167,5969;0,0120441
2168,5610;0,0118955
2169,5254;0,0116946
2170,4895;0,0114761
2171,4539;0,0112875
2172,4180;0,011169
2173,3823;0,0111385
2174,3464;0,0111876
2175,3108;0,0112875
2176,2749;0,0114002
2177,2393;0,0114893
2178,2034;0,0115263
2179,1677;0,0114953
2180,1318;0,011396
2181,0962;0,0112471
2182,0603;0,0110861
2183,0247;0,0109594
2183,9888;0,0109067
2184,9531;0,0109447
2185,9172;0,0110593
2186,8816;0,0112102
2187,8457;0,0113452
2188,8101;0,0114189
2189,7742;0,0114082
2190,7385;0,0113177
2191,7026;0,011175
2192,6670;0,0110177
2193,6311;0,010879
2194,5955;0,0107778
2195,5596;0,0107166
2196,5239;0,0106868
2197,4880;0,0106771
2198,4524;0,0106812
2199,4165;0,0107002
2200,3809;0,0107383
2201,3450;0,0107947
2202,3093;0,010858
2203,2734;0,0109082
2204,2378;0,0109267
2205,2019;0,010909
2206,1663;0,0108701
2207,1304;0,0108373
2208,0947;0,0108328
2209,0588;0,0108564
2210,0232;0,0108831
2210,9873;0,0108768
2211,9517;0,0108153
2212,9158;0,0107072
2213,8801;0,0105908
2214,8442;0,0105125
2215,8086;0,0105006
2216,7727;0,0105507
2217,7371;0,0106327
2218,7012;0,0107117
2219,6655;0,0107699
2220,6296;0,0108128
2221,5940;0,0108597
2222,5581;0,0109244
2223,5225;0,0110034
2224,4866;0,0110759
2225,4509;0,0111166
2226,4150;0,0111114
2227,3794;0,0110636
2228,3435;0,0109878
2229,3079;0,0108983
2230,2720;0,0107999
2231,2363;0,0106912
2232,2004;0,0105781
2233,1648;0,0104846
2234,1289;0,0104498
2235,0933;0,0105057
2236,0574;0,0106506
2237,0217;0,0108356
2237,9858;0,0109818
2238,9502;0,0110199
2239,9143;0,0109309
2240,8787;0,0107581
2241,8428;0,0105822
2242,8071;0,0104737
2243,7712;0,0104548
2244,7356;0,0104956
2245,6997;0,0105431
2246,6641;0,0105599
2247,6282;0,0105436
2248,5925;0,0105175
2249,5566;0,0105037
2250,5210;0,0105038
2251,4851;0,0105012
2252,4495;0,0104789
2253,4136;0,0104358
2254,3779;0,0103864
2255,3420;0,0103456
2256,3064;0,0103143
2257,2705;0,0102796
2258,2349;0,0102292
2259,1990;0,0101661
2260,1633;0,010112
2261,1274;0,0100945
2262,0918;0,0101285
2263,0559;0,0102061
2264,0203;0,0102997
2264,9844;0,0103769
2265,9487;0,0104151
2266,9128;0,0104083
2267,8772;0,0103649
2268,8413;0,0103003
2269,8057;0,0102293
2270,7698;0,0101623
2271,7341;0,0101041
2272,6982;0,0100549
2273,6626;0,0100144
2274,6267;0,00998536
2275,5911;0,00997503
2276,5552;0,00999206
2277,5195;0,0100399
2278,4836;0,0101112
2279,4480;0,0101878
2280,4121;0,0102482
2281,3765;0,0102774
2282,3406;0,0102739
2283,3049;0,0102476
2284,2690;0,0102123
2285,2334;0,0101781
2286,1975;0,0101475
2287,1619;0,010118
2288,1260;0,010087
2289,0903;0,0100558
2290,0544;0,010029
2291,0188;0,0100119
2291,9829;0,0100084
2292,9473;0,0100209
2293,9114;0,010052
2294,8757;0,0101042
2295,8398;0,0101784
2296,8042;0,0102723
2297,7683;0,0103795
2298,7327;0,0104929
2299,6968;0,0106077
2300,6611;0,010723
2301,6252;0,0108382
2302,5896;0,0109498
2303,5537;0,0110492
2304,5181;0,0111269
2305,4822;0,0111799
2306,4465;0,0112173
2307,4106;0,0112586
2308,3750;0,011325
2309,3391;0,011428
2310,3035;0,0115631
2311,2676;0,0117125
2312,2319;0,0118553
2313,1960;0,0119779
2314,1604;0,0120794
2315,1245;0,0121701
2316,0889;0,0122641
2317,0530;0,0123706
2318,0173;0,0124853
2318,9814;0,012586
2319,9458;0,012634
2320,9099;0,0125863
2321,8743;0,0124165
2322,8384;0,0121345
2323,8027;0,0117907
2324,7668;0,011459
2325,7312;0,0112094
2326,6953;0,0110834
2327,6597;0,0110787
2328,6238;0,0111497
2329,5881;0,0112216
2330,5522;0,0112198
2331,5166;0,0111027
2332,4807;0,0108797
2333,4451;0,0106013
2334,4092;0,0103279
2335,3735;0,0100994
2336,3376;0,00992276
2337,3020;0,00978131
2338,2661;0,00965669
2339,2305;0,00954748
2340,1946;0,00947515
2341,1589;0,00947889
2342,1230;0,00960014
2343,0874;0,00984361
2344,0515;0,0101268
2345,0159;0,0103064
2345,9800;0,0103065
2346,9443;0,0101927
2347,9084;0,0101069
2348,8728;0,0101577
2349,8369;0,0103574
2350,8013;0,010619
2351,7654;0,0108054
2352,7297;0,0108183
2353,6938;0,0106732
2354,6582;0,0104742
2355,6223;0,0103001
2356,5867;0,0101444
2357,5508;0,00996937
2358,5151;0,00977537
2359,4792;0,00960392
2360,4436;0,00949389
2361,4077;0,00945787
2362,3721;0,00949766
2363,3362;0,00961957
2364,3005;0,00982277
2365,2646;0,0100816
2366,2290;0,0103522
2367,1931;0,0105995
2368,1575;0,0108165
2369,1216;0,0110171
2370,0859;0,0112142
2371,0500;0,0114042
2372,0144;0,0115686
2372,9785;0,0116863
2373,9429;0,0117451
2374,9070;0,0117426
2375,8713;0,0116825
2376,8354;0,0115691
2377,7998;0,0114069
2378,7639;0,0112045
2379,7283;0,0109776
2380,6924;0,0107489
2381,6567;0,0105425
2382,6208;0,0103765
2383,5852;0,0102579
2384,5493;0,010183
2385,5137;0,0101405
2386,4778;0,0101181
2387,4421;0,0101057
2388,4063;0,0100982
2389,3706;0,0100937
2390,3347;0,0100922
2391,2991;0,0100936
2392,2632;0,0100972
2393,2275;0,0101025
2394,1917;0,010109
2395,1560;0,0101174
2396,1201;0,0101296
2397,0845;0,0101475
2398,0486;0,0101714
2399,0129;0,0101994
2399,9771;0,0102268
2400,9414;0,010247
2401,9055;0,0102547
2402,8699;0,0102488
2403,8340;0,0102335
2404,7983;0,0102178
2405,7625;0,0102115
2406,7268;0,010222
2407,6909;0,0102499
2408,6553;0,0102884
2409,6194;0,0103259
2410,5837;0,0103504
2411,5479;0,0103558
2412,5122;0,0103458
2413,4763;0,0103337
2414,4407;0,0103363
2415,4048;0,0103659
2416,3691;0,0104229
2417,3333;0,0104937
2418,2976;0,0105568
2419,2617;0,0105925
2420,2261;0,0105927
2421,1902;0,0105653
2422,1545;0,0105297
2423,1187;0,0105083
2424,0830;0,0105165
2425,0471;0,0105562
2426,0115;0,0106169
2426,9756;0,0106806
2427,9399;0,0107307
2428,9041;0,0107577
2429,8684;0,0107623
2430,8325;0,0107531
2431,7969;0,0107417
2432,7610;0,0107375
2433,7253;0,0107444
2434,6895;0,010761
2435,6538;0,0107825
2436,6179;0,0108041
2437,5823;0,0108244
2438,5464;0,0108453
2439,5107;0,0108715
2440,4749;0,010906
2441,4392;0,0109481
2442,4033;0,0109917
2443,3677;0,0110278
2444,3318;0,0110488
2445,2961;0,0110521
2446,2603;0,0110414
2447,2246;0,0110241
2448,1887;0,0110078
2449,1531;0,0109972
2450,1172;0,0109945
2451,0815;0,011
2452,0457;0,0110135
2453,0100;0,011033
2453,9741;0,0110542
2454,9385;0,0110704
2455,9026;0,0110756
2456,8669;0,0110683
2457,8311;0,0110522
2458,7954;0,0110348
2459,7595;0,0110224
2460,7239;0,0110166
2461,6880;0,0110151
2462,6523;0,011015
2463,6165;0,0110174
2464,5808;0,0110281
2465,5449;0,0110534
2466,5093;0,011095
2467,4734;0,0111462
2468,4377;0,0111939
2469,4019;0,011224
2470,3662;0,0112287
2471,3303;0,0112103
2472,2947;0,0111805
2473,2588;0,0111552
2474,2231;0,0111478
2475,1873;0,0111634
2476,1516;0,0111978
2477,1157;0,0112396
2478,0801;0,011277
2479,0442;0,0113039
2480,0085;0,0113232
2480,9727;0,0113439
2481,9370;0,0113745
2482,9011;0,0114166
2483,8655;0,0114616
2484,8296;0,0114957
2485,7939;0,0115069
2486,7581;0,0114926
2487,7224;0,0114614
2488,6865;0,0114285
2489,6509;0,0114087
2490,6150;0,0114093
2491,5793;0,0114284
2492,5435;0,0114562
2493,5078;0,0114798
2494,4719;0,0114889
2495,4363;0,0114797
2496,4004;0,0114568
2497,3647;0,0114315
2498,3289;0,0114173
2499,2932;0,0114234
2500,2573;0,0114507
2501,2217;0,0114905
2502,1858;0,0115295
2503,1501;0,0115559
2504,1143;0,0115641
2505,0786;0,0115565
2506,0427;0,0115406
2507,0071;0,0115253
2507,9712;0,0115175
2508,9355;0,0115211
2509,8997;0,0115368
2510,8640;0,0115623
2511,8281;0,0115921
2512,7925;0,0116183
2513,7566;0,0116332
2514,7209;0,0116315
2515,6851;0,0116137
2516,6494;0,0115864
2517,6135;0,0115606
2518,5779;0,0115472
2519,5420;0,0115518
2520,5063;0,0115723
2521,4705;0,0115989
2522,4348;0,0116189
2523,3989;0,011623
2524,3633;0,0116107
2525,3274;0,0115915
2526,2917;0,0115802
2527,2559;0,0115894
2528,2202;0,0116219
2529,1843;0,0116694
2530,1487;0,0117164
2531,1128;0,0117484
2532,0771;0,0117595
2533,0413;0,0117551
2534,0056;0,0117474
2534,9697;0,0117486
2535,9341;0,011764
2536,8982;0,01179
2537,8625;0,0118179
2538,8267;0,0118398
2539,7910;0,0118542
2540,7551;0,0118656
2541,7195;0,0118804
2542,6836;0,0119013
2543,6479;0,0119237
2544,6121;0,0119372
2545,5764;0,0119315
2546,5405;0,0119025
2547,5049;0,0118552
2548,4690;0,011801
2549,4333;0,0117531
2550,3975;0,0117207
2551,3618;0,0117069
2552,3259;0,0117109
2553,2903;0,0117298
2554,2544;0,0117617
2555,2188;0,0118045
2556,1829;0,0118545
2557,1472;0,0119053
2558,1113;0,0119479
2559,0757;0,0119736
2560,0398;0,0119771
2561,0042;0,0119591
2561,9683;0,0119261
2562,9326;0,0118883
2563,8967;0,0118564
2564,8611;0,011838
2565,8252;0,0118354
2566,7896;0,0118456
2567,7537;0,0118629
2568,7180;0,011882
2569,6821;0,0119002
2570,6465;0,0119181
2571,6106;0,0119369
2572,5750;0,0119564
2573,5391;0,0119737
2574,5034;0,0119846
2575,4675;0,0119869
2576,4319;0,0119826
2577,3960;0,0119777
2578,3604;0,0119796
2579,3245;0,0119931
2580,2888;0,0120183
2581,2529;0,0120509
2582,2173;0,0120842
2583,1814;0,0121129
2584,1458;0,0121351
2585,1099;0,0121528
2586,0742;0,0121702
2587,0383;0,0121904
2588,0027;0,0122122
2588,9668;0,0122303
2589,9312;0,012237
2590,8953;0,0122281
2591,8596;0,0122066
2592,8237;0,0121834
2593,7881;0,0121723
2594,7522;0,0121824
2595,7166;0,0122128
2596,6807;0,0122532
2597,6450;0,0122901
2598,6091;0,0123141
2599,5735;0,0123243
2600,5376;0,0123267
2601,5020;0,0123291
2602,4661;0,0123369
2603,4304;0,0123511
2604,3945;0,0123708
2605,3589;0,0123947
2606,3230;0,0124221
2607,2874;0,0124513
2608,2515;0,0124786
2609,2158;0,012499
2610,1799;0,0125086
2611,1443;0,0125068
2612,1084;0,0124978
2613,0728;0,0124887
2614,0369;0,0124876
2615,0012;0,0125006
2615,9653;0,0125294
2616,9297;0,0125704
2617,8938;0,0126159
2618,8582;0,0126567
2619,8223;0,012686
2620,7866;0,0127018
2621,7507;0,0127068
2622,7151;0,0127063
2623,6792;0,0127043
2624,6436;0,0127028
2625,6077;0,0127024
2626,5720;0,0127052
2627,5361;0,0127156
2628,5005;0,012738
2629,4646;0,0127729
2630,4290;0,0128145
2631,3931;0,0128522
2632,3574;0,0128754
2633,3215;0,0128793
2634,2859;0,0128679
2635,2500;0,012852
2636,2144;0,0128442
2637,1785;0,0128528
2638,1428;0,0128795
2639,1069;0,0129186
2640,0713;0,0129602
2641,0354;0,0129938
2641,9998;0,0130125
2642,9639;0,0130155
2643,9282;0,0130086
2644,8923;0,0130023
2645,8567;0,0130067
2646,8208;0,0130273
2647,7852;0,0130615
2648,7493;0,0131005
2649,7136;0,0131337
2650,6777;0,0131544
2651,6421;0,0131631
2652,6062;0,013166
2653,5706;0,0131711
2654,5347;0,0131829
2655,4990;0,0132004
2656,4631;0,0132178
2657,4275;0,0132291
2658,3916;0,0132315
2659,3560;0,0132271
2660,3201;0,0132218
2661,2844;0,0132219
2662,2485;0,013231
2663,2129;0,0132488
2664,1770;0,0132718
2665,1414;0,013295
2666,1055;0,013314
2667,0698;0,0133259
2668,0339;0,0133298
2668,9983;0,0133267
2669,9624;0,0133191
2670,9268;0,0133119
2671,8909;0,0133108
2672,8552;0,0133214
2673,8193;0,0133461
2674,7837;0,0133827
2675,7478;0,0134242
2676,7122;0,0134616
2677,6763;0,0134883
2678,6406;0,0135036
2679,6047;0,0135128
2680,5691;0,0135243
2681,5332;0,0135447
2682,4976;0,013575
2683,4617;0,0136107
2684,4260;0,0136445
2685,3901;0,0136715
2686,3545;0,0136909
2687,3186;0,013706
2688,2830;0,0137209
2689,2471;0,0137378
2690,2114;0,0137555
2691,1755;0,013771
2692,1399;0,0137822
2693,1040;0,0137896
2694,0684;0,0137966
2695,0325;0,0138074
2695,9968;0,0138254
2696,9609;0,0138513
2697,9253;0,0138836
2698,8894;0,0139188
2699,8538;0,0139531
2700,8179;0,013983
2701,7822;0,0140067
2702,7463;0,0140245
2703,7107;0,0140388
2704,6748;0,0140535
2705,6392;0,0140722
2706,6033;0,0140968
2707,5676;0,0141269
2708,5317;0,0141597
2709,4961;0,0141917
2710,4602;0,01422
2711,4246;0,0142433
2712,3887;0,0142624
2713,3530;0,0142793
2714,3171;0,0142968
2715,2815;0,0143167
2716,2456;0,0143393
2717,2100;0,0143627
2718,1741;0,014384
2719,1384;0,0144001
2720,1025;0,0144099
2721,0669;0,0144152
2722,0310;0,0144199
2722,9954;0,0144283
2723,9595;0,014443
2724,9238;0,0144633
2725,8879;0,014487
2726,8523;0,0145119
2727,8164;0,0145378
2728,7808;0,0145661
2729,7449;0,0145979
2730,7092;0,014632
2731,6733;0,0146643
2732,6377;0,0146894
2733,6018;0,0147041
2734,5662;0,0147092
2735,5303;0,0147095
2736,4946;0,0147106
2737,4587;0,0147163
2738,4231;0,0147263
2739,3872;0,0147376
2740,3516;0,0147472
2741,3157;0,0147541
2742,2800;0,0147598
2743,2441;0,0147662
2744,2085;0,0147743
2745,1726;0,0147833
2746,1370;0,0147917
2747,1011;0,0147996
2748,0654;0,0148095
2749,0295;0,0148249
2749,9939;0,014849
2750,9580;0,0148823
2751,9224;0,014922
2752,8865;0,0149629
2753,8508;0,0149992
2754,8149;0,015026
2755,7793;0,0150408
2756,7434;0,0150443
2757,7078;0,015041
2758,6719;0,0150376
2759,6362;0,0150411
2760,6003;0,0150556
2761,5647;0,0150805
2762,5288;0,0151108
2763,4932;0,0151394
2764,4573;0,0151615
2765,4216;0,015177
2766,3857;0,0151903
2767,3501;0,0152075
2768,3142;0,0152325
2769,2786;0,0152646
2770,2427;0,015299
2771,2070;0,01533
2772,1711;0,0153544
2773,1355;0,0153734
2774,0996;0,0153914
2775,0640;0,0154131
2776,0281;0,0154411
2776,9924;0,0154745
2777,9565;0,0155106
2778,9209;0,0155463
2779,8850;0,0155805
2780,8494;0,015614
2781,8135;0,0156474
2782,7778;0,0156805
2783,7419;0,0157116
2784,7063;0,015739
2785,6704;0,0157627
2786,6348;0,0157856
2787,5989;0,0158122
2788,5632;0,0158462
2789,5273;0,0158883
2790,4917;0,0159352
2791,4558;0,015982
2792,4202;0,0160249
2793,3843;0,0160632
2794,3486;0,0161001
2795,3127;0,0161404
2796,2771;0,0161877
2797,2412;0,0162429
2798,2056;0,0163037
2799,1697;0,0163671
2800,1340;0,0164309
2801,0981;0,0164954
2802,0625;0,0165622
2803,0266;0,0166325
2803,9910;0,0167049
2804,9551;0,0167753
2805,9194;0,0168387
2806,8835;0,0168922
2807,8479;0,016937
2808,8120;0,0169787
2809,7764;0,017025
2810,7405;0,0170821
2811,7048;0,0171525
2812,6689;0,0172341
2813,6333;0,0173224
2814,5974;0,0174129
2815,5618;0,0175032
2816,5259;0,0175937
2817,4902;0,0176858
2818,4543;0,017781
2819,4187;0,0178795
2820,3828;0,01798
2821,3472;0,0180809
2822,3113;0,0181819
2823,2756;0,0182847
2824,2397;0,0183934
2825,2041;0,0185123
2826,1682;0,0186447
2827,1326;0,0187909
2828,0967;0,0189482
2829,0610;0,0191125
2830,0251;0,0192803
2830,9895;0,0194504
2831,9536;0,0196236
2832,9180;0,0198019
2833,8821;0,0199863
2834,8464;0,0201767
2835,8105;0,0203728
2836,7749;0,0205762
2837,7390;0,0207907
2838,7034;0,0210218
2839,6675;0,0212744
2840,6318;0,0215502
2841,5959;0,0218481
2842,5603;0,0221656
2843,5244;0,0225004
2844,4888;0,0228504
2845,4529;0,0232115
2846,4172;0,0235737
2847,3813;0,0239192
2848,3457;0,0242251
2849,3098;0,0244698
2850,2742;0,0246406
2851,2383;0,0247377
2852,2026;0,0247737
2853,1667;0,0247672
2854,1311;0,0247361
2855,0952;0,0246928
2856,0596;0,0246432
2857,0237;0,0245896
2857,9880;0,0245345
2858,9521;0,0244829
2859,9165;0,0244431
2860,8806;0,0244251
2861,8450;0,0244371
2862,8091;0,0244832
2863,7734;0,0245612
2864,7375;0,0246624
2865,7019;0,0247742
2866,6660;0,0248831
2867,6304;0,0249799
2868,5945;0,0250615
2869,5588;0,0251314
2870,5229;0,0251961
2871,4873;0,0252616
2872,4514;0,0253295
2873,4158;0,0253963
2874,3799;0,0254557
2875,3442;0,025502
2876,3083;0,0255336
2877,2727;0,025555
2878,2368;0,0255749
2879,2012;0,0256028
2880,1653;0,0256451
2881,1296;0,0257021
2882,0938;0,0257688
2883,0581;0,0258378
2884,0222;0,025903
2884,9866;0,0259624
2885,9507;0,0260176
2886,9150;0,0260709
2887,8792;0,0261231
2888,8435;0,0261723
2889,8076;0,0262154
2890,7720;0,0262517
2891,7361;0,0262842
2892,7004;0,0263196
2893,6646;0,0263644
2894,6289;0,0264221
2895,5930;0,026491
2896,5574;0,0265645
2897,5215;0,0266348
2898,4858;0,0266957
2899,4500;0,0267459
2900,4143;0,0267897
2901,3784;0,0268353
2902,3428;0,0268909
2903,3069;0,026961
2904,2712;0,0270438
2905,2354;0,027133
2906,1997;0,0272218
2907,1638;0,0273093
2908,1282;0,0274035
2909,0923;0,0275184
2910,0566;0,0276674
2911,0208;0,0278551
2911,9851;0,0280741
2912,9492;0,0283071
2913,9136;0,028534
2914,8777;0,0287385
2915,8420;0,0289115
2916,8062;0,0290493
2917,7705;0,0291499
2918,7346;0,0292105
2919,6990;0,0292276
2920,6631;0,0291994
2921,6274;0,0291284
2922,5916;0,0290215
2923,5559;0,0288887
2924,5200;0,0287402
2925,4844;0,0285833
2926,4485;0,0284207
2927,4128;0,0282508
2928,3770;0,0280693
2929,3413;0,0278723
2930,3054;0,0276595
2931,2698;0,0274355
2932,2339;0,0272087
2933,1982;0,0269878
2934,1624;0,0267775
2935,1267;0,0265767
2936,0908;0,0263789
2937,0552;0,0261762
2938,0193;0,0259626
2938,9836;0,0257373
2939,9478;0,0255042
2940,9121;0,0252714
2941,8762;0,0250473
2942,8406;0,0248377
2943,8047;0,0246441
2944,7690;0,0244627
2945,7332;0,0242873
2946,6975;0,0241126
2947,6616;0,0239373
2948,6260;0,0237646
2949,5901;0,0235997
2950,5544;0,023446
2951,5186;0,0233027
2952,4829;0,0231656
2953,4470;0,0230301
2954,4114;0,022894
2955,3755;0,022758
2956,3398;0,0226234
2957,3040;0,0224899
2958,2683;0,0223545
2959,2324;0,0222136
2960,1968;0,0220657
2961,1609;0,021913
2962,1252;0,02176
2963,0894;0,0216111
2964,0537;0,0214681
2965,0178;0,0213297
2965,9822;0,021193
2966,9463;0,0210549
2967,9106;0,020913
2968,8748;0,0207663
2969,8391;0,0206147
2970,8032;0,0204599
2971,7676;0,0203056
2972,7317;0,0201559
2973,6960;0,0200148
2974,6602;0,0198836
2975,6245;0,0197617
2976,5886;0,0196471
2977,5530;0,0195387
2978,5171;0,0194375
2979,4814;0,0193453
2980,4456;0,0192634
2981,4099;0,0191896
2982,3740;0,0191191
2983,3384;0,0190457
2984,3025;0,0189663
2985,2668;0,0188823
2986,2310;0,0188008
2987,1953;0,0187305
2988,1594;0,0186777
2989,1238;0,0186429
2990,0879;0,0186211
2991,0522;0,0186049
2992,0164;0,018589
2992,9807;0,0185731
2993,9448;0,0185606
2994,9092;0,0185553
2995,8733;0,0185588
2996,8376;0,0185687
2997,8018;0,0185806
2998,7661;0,0185909
2999,7302;0,0185985
3000,6946;0,0186043
3001,6587;0,0186094
3002,6230;0,018614
3003,5872;0,0186168
3004,5515;0,0186168
3005,5156;0,0186136
3006,4800;0,0186088
3007,4441;0,0186044
3008,4084;0,0186022
3009,3726;0,0186034
3010,3369;0,0186082
3011,3010;0,0186162
3012,2654;0,0186265
3013,2295;0,0186385
3014,1938;0,0186527
3015,1580;0,0186706
3016,1223;0,0186955
3017,0864;0,0187305
3018,0508;0,0187769
3019,0149;0,0188326
3019,9792;0,0188918
3020,9434;0,0189476
3021,9077;0,0189947
3022,8718;0,0190321
3023,8362;0,019063
3024,8003;0,0190921
3025,7646;0,0191231
3026,7288;0,0191564
3027,6931;0,0191908
3028,6572;0,0192251
3029,6216;0,0192606
3030,5857;0,0193002
3031,5500;0,0193465
3032,5142;0,0193998
3033,4785;0,0194575
3034,4426;0,0195168
3035,4070;0,0195764
3036,3711;0,019637
3037,3354;0,0197
3038,2996;0,0197651
3039,2639;0,0198302
3040,2280;0,0198928
3041,1924;0,0199524
3042,1565;0,0200113
3043,1208;0,0200737
3044,0850;0,0201425
3045,0493;0,0202175
3046,0134;0,0202958
3046,9778;0,0203732
3047,9419;0,0204469
3048,9063;0,0205172
3049,8704;0,0205866
3050,8347;0,0206588
3051,7988;0,0207368
3052,7632;0,0208211
3053,7273;0,0209101
3054,6917;0,0210001
3055,6558;0,0210884
3056,6201;0,0211746
3057,5842;0,0212611
3058,5486;0,0213513
3059,5127;0,0214458
3060,4771;0,0215409
3061,4412;0,0216299
3062,4055;0,0217071
3063,3696;0,0217724
3064,3340;0,0218319
3065,2981;0,0218953
3066,2625;0,0219703
3067,2266;0,0220589
3068,1909;0,0221579
3069,1550;0,0222622
3070,1194;0,0223677
3071,0835;0,0224722
3072,0479;0,0225742
3073,0120;0,0226719
3073,9763;0,0227639
3074,9404;0,0228506
3075,9048;0,0229344
3076,8689;0,0230185
3077,8333;0,0231036
3078,7974;0,0231873
3079,7617;0,0232659
3080,7258;0,0233379
3081,6902;0,0234067
3082,6543;0,0234783
3083,6187;0,0235583
3084,5828;0,0236477
3085,5471;0,023744
3086,5112;0,0238435
3087,4756;0,0239453
3088,4397;0,0240505
3089,4041;0,0241593
3090,3682;0,0242684
3091,3325;0,0243705
3092,2966;0,0244592
3093,2610;0,0245335
3094,2251;0,0246
3095,1895;0,0246698
3096,1536;0,0247519
3097,1179;0,0248478
3098,0820;0,0249514
3099,0464;0,0250531
3100,0105;0,0251463
3100,9749;0,0252306
3101,9390;0,0253119
3102,9033;0,0253978
3103,8674;0,0254933
3104,8318;0,0255989
3105,7959;0,0257108
3106,7603;0,025824
3107,7244;0,0259348
3108,6887;0,026042
3109,6528;0,0261471
3110,6172;0,0262522
3111,5813;0,0263592
3112,5457;0,026469
3113,5098;0,026582
3114,4741;0,0266985
3115,4382;0,0268184
3116,4026;0,0269401
3117,3667;0,02706
3118,3311;0,0271735
3119,2952;0,0272772
3120,2595;0,027371
3121,2236;0,0274586
3122,1880;0,0275466
3123,1521;0,0276418
3124,1165;0,0277491
3125,0806;0,0278705
3126,0449;0,0280046
3127,0090;0,0281464
3127,9734;0,0282877
3128,9375;0,0284184
3129,9019;0,028531
3130,8660;0,0286237
3131,8303;0,0287036
3132,7944;0,0287842
3133,7588;0,0288795
3134,7229;0,0289972
3135,6873;0,0291351
3136,6514;0,0292823
3137,6157;0,0294254
3138,5798;0,0295543
3139,5442;0,0296672
3140,5083;0,0297705
3141,4727;0,0298749
3142,4368;0,0299903
3143,4011;0,0301205
3144,3652;0,0302612
3145,3296;0,0304022
3146,2937;0,0305337
3147,2581;0,0306511
3148,2222;0,0307585
3149,1865;0,0308656
3150,1506;0,0309821
3151,1150;0,0311118
3152,0791;0,0312513
3153,0435;0,0313929
3154,0076;0,0315302
3154,9719;0,0316606
3155,9360;0,031785
3156,9004;0,031904
3157,8645;0,0320165
3158,8289;0,0321205
3159,7930;0,0322171
3160,7573;0,0323124
3161,7214;0,0324155
3162,6858;0,0325342
3163,6499;0,0326693
3164,6143;0,0328144
3165,5784;0,0329598
3166,5427;0,0330979
3167,5068;0,0332273
3168,4712;0,0333519
3169,4353;0,0334872
3170,3997;0,0336183
3171,3638;0,0337551
3172,3281;0,0338959
3173,2922;0,0340377
3174,2566;0,0341776
3175,2207;0,034312
3176,1851;0,0344381
3177,1492;0,0345546
3178,1135;0,0346644
3179,0776;0,0347735
3180,0420;0,0348887
3181,0061;0,0350131
3181,9705;0,0351437
3182,9346;0,0352732
3183,8989;0,0353941
3184,8630;0,0355037
3185,8274;0,0356059
3186,7915;0,0357088
3187,7559;0,0358207
3188,7200;0,035946
3189,6843;0,0360842
3190,6484;0,0362304
3191,6128;0,0363777
3192,5769;0,0365194
3193,5413;0,0366502
3194,5054;0,0367674
3195,4697;0,0368718
3196,4338;0,0369675
3197,3982;0,0370602
3198,3623;0,0371553
3199,3267;0,0372568
3200,2908;0,0373666
3201,2551;0,037485
3202,2192;0,0376113
3203,1836;0,0377436
3204,1477;0,0378777
3205,1121;0,0380074
3206,0762;0,0381263
3207,0405;0,0382302
3208,0046;0,0383203
3208,9690;0,0384028
3209,9331;0,0384871
3210,8975;0,038581
3211,8616;0,0386874
3212,8259;0,0388028
3213,7900;0,0389194
3214,7544;0,0390299
3215,7185;0,0391311
3216,6829;0,039226
3217,6470;0,0393215
3218,6113;0,0394249
3219,5754;0,0395394
3220,5398;0,0396626
3221,5039;0,0397878
3222,4683;0,0399072
3223,4324;0,0400159
3224,3967;0,0401138
3225,3608;0,0402058
3226,3252;0,0402988
3227,2893;0,0403985
3228,2537;0,040506
3229,2178;0,0406165
3230,1821;0,0407214
3231,1462;0,0408126
3232,1106;0,0408877
3233,0747;0,0409517
3234,0391;0,0410155
3235,0032;0,0410905
3235,9675;0,0411827
3236,9316;0,0412902
3237,8960;0,0414043
3238,8601;0,0415148
3239,8245;0,0416154
3240,7886;0,0417071
3241,7529;0,0417972
3242,7170;0,0418945
3243,6814;0,0420036
3244,6455;0,0421213
3245,6099;0,0422374
3246,5740;0,04234
3247,5383;0,042423
3248,5024;0,04249
3249,4668;0,042553
3250,4309;0,0426257
3251,3953;0,0427165
3252,3594;0,0428245
3253,3237;0,0429413
3254,2878;0,0430565
3255,2522;0,0431647
3256,2163;0,0432673
3257,1807;0,0433697
3258,1448;0,043476
3259,1091;0,0435848
3260,0732;0,0436897
3261,0376;0,0437836
3262,0017;0,0438631
3262,9661;0,0439314
3263,9302;0,0439971
3264,8945;0,0440692
3265,8586;0,0441528
3266,8230;0,0442461
3267,7871;0,0443413
3268,7515;0,0444294
3269,7156;0,0445039
3270,6799;0,0445642
3271,6440;0,0446149
3272,6084;0,0446625
3273,5725;0,0447123
3274,5369;0,0447665
3275,5010;0,0448241
3276,4653;0,0448826
3277,4294;0,0449388
3278,3938;0,0449899
3279,3579;0,0450343
3280,3223;0,0450721
3281,2864;0,045106
3282,2507;0,0451397
3283,2148;0,0451763
3284,1792;0,0452159
3285,1433;0,0452554
3286,1077;0,0452907
3287,0718;0,0453194
3288,0361;0,0453422
3289,0002;0,0453614
3289,9646;0,0453796
3290,9287;0,0453982
3291,8931;0,0454185
3292,8572;0,0454431
3293,8215;0,0454746
3294,7856;0,0455139
3295,7500;0,0455572
3296,7141;0,0455957
3297,6785;0,0456204
3298,6426;0,045627
3299,6069;0,0456191
3300,5710;0,0456061
3301,5354;0,0455978
3302,4995;0,0455993
3303,4639;0,0456102
3304,4280;0,0456275
3305,3923;0,0456504
3306,3564;0,0456819
3307,3208;0,0457259
3308,2849;0,0457826
3309,2493;0,0458452
3310,2134;0,0459013
3311,1777;0,0459393
3312,1418;0,0459546
3313,1062;0,0459526
3314,0703;0,0459459
3315,0347;0,0459483
3315,9988;0,0459683
3316,9631;0,0460068
3317,9272;0,046059
3318,8916;0,0461189
3319,8557;0,0461824
3320,8201;0,0462473
3321,7842;0,0463108
3322,7485;0,0463676
3323,7126;0,0464109
3324,6770;0,0464368
3325,6411;0,0464486
3326,6055;0,0464576
3327,5696;0,0464774
3328,5339;0,0465166
3329,4980;0,0465729
3330,4624;0,0466338
3331,4265;0,046683
3332,3909;0,0467088
3333,3550;0,0467093
3334,3193;0,0466911
3335,2834;0,0466649
3336,2478;0,0466388
3337,2119;0,0466164
3338,1763;0,0465966
3339,1404;0,0465772
3340,1047;0,0465557
3341,0688;0,0465299
3342,0332;0,0464966
3342,9973;0,046452
3343,9617;0,0463944
3344,9258;0,0463264
3345,8901;0,0462555
3346,8542;0,0461909
3347,8186;0,0461394
3348,7827;0,0461013
3349,7471;0,0460705
3350,7112;0,0460383
3351,6755;0,0459975
3352,6396;0,0459457
3353,6040;0,0458845
3354,5681;0,0458176
3355,5325;0,0457477
3356,4966;0,0456768
3357,4609;0,045607
3358,4250;0,0455414
3359,3894;0,0454836
3360,3535;0,0454357
3361,3179;0,0453962
3362,2820;0,0453596
3363,2463;0,0453187
3364,2104;0,0452675
3365,1748;0,0452035
3366,1389;0,0451281
3367,1033;0,0450455
3368,0674;0,0449609
3369,0317;0,0448793
3369,9958;0,0448041
3370,9602;0,0447364
3371,9243;0,0446743
3372,8887;0,0446132
3373,8528;0,0445472
3374,8171;0,0444722
3375,7813;0,0443885
3376,7456;0,0443009
3377,7097;0,044217
3378,6741;0,044143
3379,6382;0,0440805
3380,6025;0,0440256
3381,5667;0,0439714
3382,5310;0,0439114
3383,4951;0,0438432
3384,4595;0,0437698
3385,4236;0,043697
3386,3879;0,0436298
3387,3521;0,0435681
3388,3164;0,0435062
3389,2805;0,0434348
3390,2449;0,0433466
3391,2090;0,0432407
3392,1733;0,0431249
3393,1375;0,0430129
3394,1018;0,0429188
3395,0659;0,0428504
3396,0303;0,0428061
3396,9944;0,0427756
3397,9587;0,0427434
3398,9229;0,0426945
3399,8872;0,0426203
3400,8513;0,0425213
3401,8157;0,0424073
3402,7798;0,042292
3403,7441;0,0421872
3404,7083;0,0420967
3405,6726;0,0420155
3406,6367;0,0419341
3407,6011;0,0418444
3408,5652;0,041744
3409,5295;0,0416353
3410,4937;0,0415221
3411,4580;0,0414053
3412,4221;0,0412836
3413,3865;0,0411573
3414,3506;0,0410306
3415,3149;0,0409108
3416,2791;0,0408029
3417,2434;0,0407041
3418,2075;0,0406042
3419,1719;0,040491
3420,1360;0,0403587
3421,1003;0,0402121
3422,0645;0,0400639
3423,0288;0,0399262
3423,9929;0,0398049
3424,9573;0,0396992
3425,9214;0,0396059
3426,8857;0,0395224
3427,8499;0,039446
3428,8142;0,039371
3429,7783;0,0392867
3430,7427;0,039181
3431,7068;0,0390474
3432,6711;0,0388907
3433,6353;0,038726
3434,5996;0,0385709
3435,5637;0,0384356
3436,5281;0,0383178
3437,4922;0,0382063
3438,4565;0,0380894
3439,4207;0,0379631
3440,3850;0,0378323
3441,3491;0,0377053
3442,3135;0,037586
3443,2776;0,0374689
3444,2419;0,0373411
3445,2061;0,0371906
3446,1704;0,0370142
3447,1345;0,0368218
3448,0989;0,0366317
3449,0630;0,0364622
3450,0273;0,0363232
3450,9915;0,0362134
3451,9558;0,0361219
3452,9199;0,0360332
3453,8843;0,0359326
3454,8484;0,0358113
3455,8127;0,0356695
3456,7769;0,0355143
3457,7412;0,0353549
3458,7053;0,0351981
3459,6697;0,035045
3460,6338;0,0348931
3461,5981;0,0347396
3462,5623;0,0345845
3463,5266;0,0344311
3464,4907;0,0342825
3465,4551;0,0341395
3466,4192;0,0339992
3467,3835;0,0338582
3468,3477;0,0337153
3469,3120;0,033572
3470,2761;0,0334303
3471,2405;0,0332893
3472,2046;0,0331455
3473,1689;0,0329961
3474,1331;0,0328433
3475,0974;0,0326948
3476,0615;0,032559
3477,0259;0,0324372
3477,9900;0,032321
3478,9543;0,0321959
3479,9185;0,0320512
3480,8828;0,0318885
3481,8469;0,0317223
3482,8113;0,0315698
3483,7754;0,031438
3484,7397;0,0313186
3485,7039;0,0311934
3486,6682;0,0310468
3487,6323;0,0308767
3488,5967;0,0306967
3489,5608;0,0305276
3490,5251;0,0303832
3491,4893;0,0302616
3492,4536;0,030146
3493,4177;0,0300151
3494,3821;0,029857
3495,3462;0,0296792
3496,3105;0,0295057
3497,2747;0,0293624
3498,2390;0,0292589
3499,2031;0,02918
3500,1675;0,0290918
3501,1316;0,0289595
3502,0959;0,0287708
3503,0601;0,0285464
3504,0244;0,0283278
3504,9885;0,0281486
3505,9529;0,0280142
3506,9170;0,0279028
3507,8813;0,0277826
3508,8455;0,0276331
3509,8098;0,0274585
3510,7739;0,0272828
3511,7383;0,0271315
3512,7024;0,0270138
3513,6667;0,0269196
3514,6309;0,0268287
3515,5952;0,0267248
3516,5593;0,0266035
3517,5237;0,0264717
3518,4878;0,0263394
3519,4521;0,0262121
3520,4163;0,0260881
3521,3806;0,0259618
3522,3447;0,0258287
3523,3091;0,0256869
3524,2732;0,0255344
3525,2375;0,0253663
3526,2017;0,0251774
3527,1660;0,0249689
3528,1301;0,0247556
3529,0945;0,0245622
3530,0586;0,0244115
3531,0229;0,0243098
3531,9871;0,024243
3532,9514;0,0241817
3533,9155;0,0240944
3534,8799;0,0239616
3535,8440;0,0237852
3536,8083;0,023589
3537,7725;0,0234059
3538,7368;0,0232618
3539,7009;0,0231651
3540,6653;0,0231034
3541,6294;0,0230477
3542,5938;0,0229602
3543,5579;0,0228095
3544,5222;0,0225893
3545,4863;0,0223283
3546,4507;0,0220764
3547,4148;0,0218737
3548,3792;0,0217294
3549,3433;0,021623
3550,3076;0,0215204
3551,2717;0,0213946
3552,2361;0,0212408
3553,2002;0,021078
3554,1646;0,0209332
3555,1287;0,0208198
3556,0930;0,02073
3557,0571;0,0206417
3558,0215;0,0205363
3558,9856;0,0204141
3559,9500;0,0202985
3560,9141;0,0202192
3561,8784;0,0201867
3562,8425;0,020172
3563,8069;0,0201068
3564,7710;0,0199091
3565,7354;0,0195443
3566,6995;0,0190838
3567,6638;0,0186736
3568,6279;0,0184173
3569,5923;0,0183157
3570,5564;0,0183058
3571,5208;0,0183147
3572,4849;0,018287
3573,4492;0,0181978
3574,4133;0,018054
3575,3777;0,0178819
3576,3418;0,0177039
3577,3062;0,0175254
3578,2703;0,0173422
3579,2346;0,0171608
3580,1987;0,0170093
3581,1631;0,0169246
3582,1272;0,0169237
3583,0916;0,0169794
3584,0557;0,0170144
3585,0200;0,0169228
3585,9841;0,0166316
3586,9485;0,0161787
3587,9126;0,0157135
3588,8770;0,0153792
3589,8411;0,0152129
3590,8054;0,0151601
3591,7695;0,0151341
3592,7339;0,0150602
3593,6980;0,014905
3594,6624;0,0146873
3595,6265;0,0144555
3596,5908;0,0142442
3597,5549;0,0140551
3598,5193;0,0138755
3599,4834;0,0137094
3600,4478;0,0135865
3601,4119;0,0135391
3602,3762;0,0135694
3603,3403;0,0136401
3604,3047;0,0136912
3605,2688;0,0136692
3606,2332;0,013556
3607,1973;0,0133847
3608,1616;0,0132194
3609,1257;0,0131031
3610,0901;0,0130271
3611,0542;0,0129528
3612,0186;0,0128552
3612,9827;0,0127439
3613,9470;0,0126465
3614,9111;0,0125712
3615,8755;0,0124822
3616,8396;0,0123087
3617,8040;0,0119928
3618,7681;0,0115545
3619,7324;0,0111112
3620,6965;0,0108075
3621,6609;0,0107222
3622,6250;0,0108471
3623,5894;0,0111182
3624,5535;0,0114342
3625,5178;0,0116528
3626,4819;0,0116052
3627,4463;0,0111879
3628,4104;0,0105135
3629,3748;0,00988502
3630,3389;0,00952004
3631,3032;0,00941485
3632,2673;0,00945983
3633,2317;0,00955417
3634,1958;0,00963809
3635,1602;0,00968933
3636,1243;0,00970937
3637,0886;0,00970636
3638,0527;0,00968457
3639,0171;0,00964795
3639,9812;0,0096123
3640,9456;0,00961102
3641,9097;0,00968402
3642,8740;0,00985359
3643,8381;0,0100995
3644,8025;0,0103394
3645,7666;0,0104169
3646,7310;0,0101301
3647,6951;0,00938508
3648,6594;0,00843653
3649,6235;0,0077751
3650,5879;0,00761642
3651,5520;0,00780836
3652,5164;0,00812202
3653,4805;0,00839274
3654,4448;0,00852144
3655,4089;0,00847776
3656,3733;0,00831454
3657,3374;0,00813595
3658,3018;0,00801887
3659,2659;0,0079699
3660,2302;0,00795262
3661,1943;0,00793901
3662,1587;0,00793968
3663,1228;0,00799518
3664,0872;0,00813517
3665,0513;0,00833624
3666,0156;0,00850955
3666,9797;0,00852859
3667,9441;0,00830828
3668,9082;0,0079125
3669,8726;0,00755834
3670,8367;0,00743202
3671,8010;0,00752414
3672,7651;0,00766176
3673,7295;0,00763594
3674,6936;0,00734052
3675,6580;0,00687977
3676,6221;0,00649019
3677,5864;0,00631033
3678,5505;0,00630939
3679,5149;0,00639369
3680,4790;0,00649594
3681,4434;0,00659878
3682,4075;0,00672277
3683,3718;0,00689524
3684,3359;0,00711335
3685,3003;0,0073181
3686,2644;0,00739258
3687,2288;0,00720555
3688,1929;0,00672107
3689,1572;0,00609991
3690,1213;0,00560678
3691,0857;0,00538057
3692,0498;0,00538055
3693,0142;0,00550396
3693,9783;0,00567344
3694,9426;0,00585221
3695,9067;0,00602772
3696,8711;0,00618898
3697,8352;0,00630915
3698,7996;0,00634441
3699,7637;0,00625652
3700,7280;0,00605204
3701,6921;0,00580492
3702,6565;0,00562489
3703,6206;0,00559048
3704,5850;0,00571187
3705,5491;0,00594269
3706,5134;0,00620466
3707,4775;0,00640263
3708,4419;0,00644323
3709,4060;0,00628342
3710,3704;0,00599433
3711,3345;0,0057417
3712,2988;0,00564729
3713,2629;0,00570782
3714,2273;0,0058547
3715,1914;0,00602315
3716,1558;0,00616685
3717,1199;0,00625197
3718,0842;0,0062579
3719,0483;0,00618467
3720,0127;0,00605366
3720,9768;0,005894
3721,9412;0,00572521
3722,9053;0,0055551
3723,8696;0,00539584
3724,8337;0,00527793
3725,7981;0,00524168
3726,7622;0,00531291
3727,7266;0,00548798
3728,6907;0,00573661
3729,6550;0,0060096
3730,6191;0,0062418
3731,5835;0,00635491
3732,5476;0,00627625
3733,5120;0,00598968
3734,4761;0,00559447
3735,4404;0,00527823
3736,4045;0,00518424
3737,3689;0,00533651
3738,3330;0,00568728
3739,2974;0,00617016
3740,2615;0,00670072
3741,2258;0,00715656
3742,1899;0,00738577
3743,1543;0,00729178
3744,1184;0,00696067
3745,0828;0,00663701
3746,0469;0,00650044
3747,0112;0,00653622
3747,9753;0,00659856
3748,9397;0,00652238
3749,9038;0,00624819
3750,8682;0,00591374
3751,8323;0,00573707
3752,7966;0,00579296
3753,7607;0,00600339
3754,7251;0,00625454
3755,6892;0,00645064
3756,6536;0,00652742
3757,6177;0,00647642
3758,5820;0,00636129
3759,5461;0,00627947
3760,5105;0,0062905
3761,4746;0,00638735
3762,4390;0,00652301
3763,4031;0,00664629
3764,3674;0,00672262
3765,3315;0,00674063
3766,2959;0,00670693
3767,2600;0,00663365
3768,2244;0,00653127
3769,1885;0,0064149
3770,1528;0,00631386
3771,1169;0,0062664
3772,0813;0,0062992
3773,0454;0,00641086
3774,0098;0,00656988
3774,9739;0,00672253
3775,9382;0,0068079
3776,9023;0,00678454
3777,8667;0,00666184
3778,8308;0,00650423
3779,7952;0,00638681
3780,7593;0,00634201
3781,7236;0,00635224
3782,6877;0,00638095
3783,6521;0,0064024
3784,6162;0,00641201
3785,5806;0,00641932
3786,5447;0,00643537
3787,5090;0,00646624
3788,4731;0,00651588
3789,4375;0,00658883
3790,4016;0,00668568
3791,3660;0,00679479
3792,3301;0,00689054
3793,2944;0,0069452
3794,2585;0,00694994
3795,2229;0,00692655
3796,1870;0,00691107
3797,1514;0,00691587
3798,1155;0,00690483
3799,0798;0,00681281
3800,0439;0,00660961
3801,0083;0,00635703
3801,9724;0,00617584
3802,9368;0,00613738
3803,9009;0,00620984
3804,8652;0,00630063
3805,8293;0,00632893
3806,7937;0,00628422
3807,7578;0,00623633
3808,7222;0,0062756
3809,6863;0,00644112
3810,6506;0,00670456
3811,6147;0,00699124
3812,5791;0,00720507
3813,5432;0,00726521
3814,5076;0,00716064
3815,4717;0,00697313
3816,4360;0,00680903
3817,4001;0,00670033
3818,3645;0,00659265
3819,3286;0,00642225
3820,2930;0,00619974
3821,2571;0,00601666
3822,2214;0,00595736
3823,1855;0,00602719
3824,1499;0,00617421
3825,1140;0,00634069
3826,0784;0,00648772
3827,0425;0,0065982
3828,0068;0,00667238
3828,9709;0,00672025
3829,9353;0,00675487
3830,8994;0,00679002
3831,8638;0,00683868
3832,8279;0,00690632
3833,7922;0,00697908
3834,7563;0,00701755
3835,7207;0,00696957
3836,6848;0,00680643
3837,6492;0,00656123
3838,6133;0,00632207
3839,5776;0,00616878
3840,5417;0,00611946
3841,5061;0,00614032
3842,4702;0,00618806
3843,4346;0,00624078
3844,3987;0,00630671
3845,3630;0,00641599
3846,3271;0,00660379
3847,2915;0,00689249
3848,2556;0,00727438
3849,2200;0,00769045
3850,1841;0,00800663
3851,1484;0,00802208
3852,1125;0,00759914
3853,0769;0,00689718
3854,0410;0,00630725
3855,0054;0,00603654
3855,9695;0,00603656
3856,9338;0,00620716
3857,8979;0,00647338
3858,8623;0,0067667
3859,8264;0,00700932
3860,7908;0,00712735
3861,7549;0,00709087
3862,7192;0,00695085
3863,6833;0,00681934
3864,6477;0,00678929
3865,6118;0,00687421
3866,5762;0,00701686
3867,5403;0,00713174
3868,5046;0,0071454
3869,4688;0,00702962
3870,4331;0,00681883
3871,3972;0,00659326
3872,3616;0,00643431
3873,3257;0,00638842
3874,2900;0,00645949
3875,2542;0,00661817
3876,2185;0,00681334
3877,1826;0,00698517
3878,1470;0,00708462
3879,1111;0,00709816
3880,0754;0,00705768
3881,0396;0,00701388
3882,0039;0,0069908
3882,9680;0,00697134
3883,9324;0,00692946
3884,8965;0,00687112
3885,8608;0,00683769
3886,8250;0,0068655
3887,7893;0,00694449
3888,7534;0,00701452
3889,7178;0,00700064
3890,6819;0,00687258
3891,6462;0,00668995
3892,6104;0,00657193
3893,5747;0,00660458
3894,5388;0,00678949
3895,5032;0,00706509
3896,4673;0,00734585
3897,4316;0,00755181
3898,3958;0,00763427
3899,3601;0,00759041
3900,3242;0,00744906
3901,2886;0,0072392
3902,2527;0,00698239
3903,2170;0,00671402
3904,1812;0,00648975
3905,1455;0,00635759
3906,1096;0,00632986
3907,0740;0,00638487
3908,0381;0,00648665
3909,0024;0,00660302
3909,9666;0,00671604
3910,9309;0,00682366
3911,8950;0,0069313
3912,8594;0,0070374
3913,8235;0,00712344
3914,7878;0,00715856
3915,7520;0,00712051
3916,7163;0,00702014
3917,6804;0,00690443
3918,6448;0,00682662
3919,6089;0,00680941
3920,5732;0,00683529
3921,5374;0,00686407
3922,5017;0,00686088
3923,4658;0,00682018
3924,4302;0,00677129
3925,3943;0,00675648
3926,3586;0,0067979
3927,3228;0,0068815
3928,2871;0,00696568
3929,2512;0,00700379
3930,2156;0,00696983
3931,1797;0,00687523
3932,1440;0,00676153
3933,1082;0,00667158
3934,0725;0,00662685
3935,0366;0,0066281
3936,0010;0,00666788
3936,9651;0,00673766
3937,9294;0,00682618
3938,8936;0,00691516
3939,8579;0,00698064
3940,8220;0,0070036
3941,7864;0,00698393
3942,7505;0,00694417
3943,7148;0,00691487
3944,6790;0,00691275
3945,6433;0,00692905
3946,6074;0,00693624
3947,5718;0,00690769
3948,5359;0,00683836
3949,5002;0,00675129
3950,4644;0,00668264
3951,4287;0,0066575
3952,3928;0,00667688
3953,3572;0,0067224
3954,3213;0,00677026
3955,2856;0,00680396
3956,2498;0,00681928
3957,2141;0,00682082
3958,1782;0,00681463
3959,1426;0,00680366
3960,1067;0,00678852
3961,0710;0,00677096
3962,0352;0,00675548
3962,9995;0,00674716
3963,9636;0,00674811
3964,9280;0,00675575
3965,8921;0,00676481
3966,8564;0,00677061
3967,8206;0,00677138
3968,7849;0,00676808
3969,7490;0,00676217
3970,7134;0,00675383
3971,6775;0,00674225
3972,6418;0,0067278
3973,6060;0,00671355
3974,5703;0,00670415
3975,5344;0,00670247
3976,4988;0,00670649
3977,4629;0,00670963
3978,4272;0,00670469
3979,3914;0,006689
3980,3557;0,00666725
3981,3198;0,00664981
3982,2842;0,00664702
3983,2483;0,00666298
3984,2126;0,00669304
3985,1768;0,00672675
3986,1411;0,00675382
3987,1052;0,00676913
3988,0696;0,00677366
3989,0337;0,00677136
3989,9980;0,00676493
3990,9622;0,00675357
3991,9265;0,00673478
3992,8906;0,00670867
3993,8550;0,0066809
3994,8191;0,00666151
3995,7834;0,00665965
3996,7476;0,00667791
3997,7119;0,0067102
3998,6760;0,00674485
3999,6404;0,00677069
4000,6045;0,00666759

##### Extended Information
[Comments]
Sample name
Comment
Username
Division
Organization;UNIVERSIDAD INDUSTRIAL DE SANTANDER

[Detailed Information]
Creation date;19/02/2025 12:25 p.m.

Data array type;Linear data array
Horizontal axis;Wavenumber [cm-1]
Vertical axis;Abs
Start;399,193 cm-1
End;4000,6 cm-1
Data interval;0,964233 cm-1
Data points;3736    

[Measurement Information]
Model name;FT/IR-4X1typeA
Serial No.;A035162111

Accessory;ATR PRO 4X
Accessory S/N;A021162126
Incident angle;45 deg

Measurement date;19/02/2025 12:22 p.m.

Light source;Standard
Detector;TGS
Accumulation;40
Resolution;4 cm-1
Zero filling;On
Apodization;Cosine
Gain;Auto (8)
Aperture;Auto (7 mm)
Scan speed;Auto (2 mm/sec)
Filter;Auto (12800 Hz)

