TITLE;
DATA TYPE;INFRARED SPECTRUM
ORIGIN;JASCO
OWNER;
DATE;25/02/19
TIME;12:12:11
SPECTROMETER/DATA SYSTEM;
LOCALE;9226
RESOLUTION;
DELTAX;0,964233
XUNITS;1/CM
YUNITS;ABSORBANCE
FIRSTX;  399,1927
LASTX; 4000,6047
NPOINTS;    3736
FIRSTY;     0,08761
MAXY;     0,10317
MINY;     0,00779
XYDATA
399,1927;0,0876108
400,1569;0,0875133
401,1211;0,0876425
402,0854;0,0879991
403,0496;0,0884607
404,0138;0,0888315
404,9781;0,0889314
405,9423;0,0887025
406,9065;0,0882702
407,8708;0,0878968
408,8350;0,0878412
409,7992;0,0882155
410,7635;0,0889123
411,7277;0,0896462
412,6919;0,0901148
413,6562;0,0901781
414,6204;0,0899292
415,5846;0,0896515
416,5489;0,0897373
417,5131;0,0905236
418,4773;0,0919335
419,4416;0,0932419
420,4058;0,0936538
421,3700;0,0930866
422,3343;0,0920381
423,2985;0,0910665
424,2627;0,0905263
425,2270;0,0904936
426,1912;0,0907844
427,1554;0,0910838
428,1197;0,0911389
429,0839;0,0908858
430,0481;0,0904485
431,0124;0,0900427
431,9766;0,0898533
432,9408;0,0899479
433,9051;0,0902579
434,8693;0,0906171
435,8335;0,0908286
436,7978;0,0907349
437,7620;0,0902742
438,7262;0,0895026
439,6905;0,0885811
440,6547;0,0877362
441,6189;0,0871926
442,5832;0,0870776
443,5474;0,0873404
444,5116;0,0877664
445,4759;0,0881054
446,4401;0,088212
447,4043;0,088094
448,3686;0,0878648
449,3328;0,0876622
450,2970;0,087576
451,2613;0,0876048
452,2255;0,087652
453,1897;0,0875633
454,1540;0,0871911
455,1182;0,0864664
456,0824;0,085467
457,0467;0,0844482
458,0109;0,0837574
458,9751;0,0836172
459,9394;0,0839562
460,9036;0,0844758
461,8678;0,0848563
462,8321;0,0849063
463,7963;0,0846055
464,7605;0,0840819
465,7248;0,0835442
466,6890;0,083186
467,6532;0,0831065
468,6175;0,0832907
469,5817;0,0836366
470,5459;0,0839933
471,5102;0,0842017
472,4744;0,0841545
473,4386;0,0838553
474,4029;0,0834207
475,3671;0,0830118
476,3313;0,0827562
477,2956;0,0827085
478,2598;0,0828505
479,2240;0,0831124
480,1883;0,0834085
481,1525;0,0836713
482,1167;0,0838699
483,0810;0,0840045
484,0452;0,0840881
485,0094;0,0841304
485,9737;0,084138
486,9379;0,0841255
487,9021;0,0841223
488,8664;0,0841668
489,8306;0,0842883
490,7948;0,084488
491,7591;0,0847325
492,7233;0,0849703
493,6875;0,0851623
494,6518;0,0853004
495,6160;0,0853978
496,5802;0,0854656
497,5445;0,0854977
498,5087;0,0854806
499,4729;0,08542
500,4372;0,085362
501,4014;0,0853853
502,3656;0,0855552
503,3299;0,0858734
504,2941;0,0862686
505,2583;0,0866407
506,2226;0,0869186
507,1868;0,087093
508,1510;0,0872064
509,1153;0,0873151
510,0795;0,0874509
511,0437;0,0876103
512,0080;0,0877711
512,9722;0,0879168
513,9365;0,0880462
514,9007;0,0881657
515,8649;0,0882764
516,8292;0,0883702
517,7934;0,0884409
518,7576;0,0884975
519,7219;0,088564
520,6861;0,0886618
521,6503;0,0887934
522,6146;0,0889408
523,5788;0,0890763
524,5430;0,0891767
525,5073;0,0892327
526,4715;0,0892494
527,4357;0,0892382
528,4000;0,0892075
529,3642;0,0891611
530,3284;0,0891016
531,2927;0,0890319
532,2569;0,0889515
533,2211;0,0888538
534,1854;0,0887301
535,1496;0,0885822
536,1138;0,0884334
537,0781;0,0883258
538,0423;0,0883006
539,0065;0,0883716
539,9708;0,0885122
540,9350;0,0886668
541,8992;0,0887794
542,8635;0,0888226
543,8277;0,0888076
544,7919;0,0887716
545,7562;0,0887522
546,7204;0,0887673
547,6846;0,088813
548,6489;0,0888774
549,6131;0,0889576
550,5773;0,0890647
551,5416;0,0892145
552,5058;0,0894147
553,4700;0,0896573
554,4343;0,0899214
555,3985;0,0901805
556,3627;0,0904066
557,3270;0,0905688
558,2912;0,0906327
559,2554;0,0905657
560,2197;0,0903521
561,1839;0,090008
562,1481;0,0895849
563,1124;0,0891542
564,0766;0,0887805
565,0408;0,0885002
566,0051;0,0883163
566,9693;0,0882101
567,9335;0,0881581
568,8978;0,0881433
569,8620;0,0881534
570,8262;0,0881741
571,7905;0,0881846
572,7547;0,0881625
573,7189;0,0880944
574,6832;0,087985
575,6474;0,0878571
576,6116;0,0877399
577,5759;0,087652
578,5401;0,087592
579,5043;0,0875416
580,4686;0,0874797
581,4328;0,0873962
582,3970;0,0872982
583,3613;0,0872043
584,3255;0,0871321
585,2897;0,0870884
586,2540;0,0870682
587,2182;0,0870633
588,1824;0,0870713
589,1467;0,0870971
590,1109;0,0871451
591,0751;0,0872059
592,0394;0,0872504
593,0036;0,087238
593,9678;0,0871383
594,9321;0,0869492
595,8963;0,0867011
596,8605;0,0864437
597,8248;0,086227
598,7890;0,086082
599,7532;0,0860094
600,7175;0,0859812
601,6817;0,0859532
602,6459;0,0858819
603,6102;0,0857367
604,5744;0,0855057
605,5386;0,0851943
606,5029;0,084821
607,4671;0,0844119
608,4313;0,083996
609,3956;0,083601
610,3598;0,0832488
611,3240;0,0829505
612,2883;0,0827015
613,2525;0,0824805
614,2167;0,082254
615,1810;0,081986
616,1452;0,0816497
617,1094;0,0812372
618,0737;0,0807624
619,0379;0,0802519
620,0021;0,0797333
620,9664;0,0792272
621,9306;0,078748
622,8948;0,0783067
623,8591;0,0779099
624,8233;0,0775524
625,7875;0,0772253
626,7518;0,076907
627,7160;0,0765797
628,6802;0,0762381
629,6445;0,0758919
630,6087;0,0755585
631,5729;0,0752536
632,5372;0,0749846
633,5014;0,07475
634,4656;0,0745427
635,4299;0,0743535
636,3941;0,0741725
637,3583;0,0739884
638,3226;0,0737903
639,2868;0,0735693
640,2510;0,0733213
641,2153;0,0730469
642,1795;0,07275
643,1437;0,0724362
644,1080;0,0721129
645,0722;0,0717905
646,0364;0,0714825
647,0007;0,0712025
647,9649;0,0709608
648,9291;0,0707614
649,8934;0,0706041
650,8576;0,0704884
651,8218;0,0704179
652,7861;0,0703985
653,7503;0,0704317
654,7145;0,070507
655,6788;0,0705999
656,6430;0,0706796
657,6072;0,0707223
658,5715;0,0707205
659,5357;0,0706802
660,4999;0,0706109
661,4642;0,0705116
662,4284;0,0703641
663,3926;0,070135
664,3569;0,0697842
665,3211;0,0692756
666,2853;0,0685992
667,2496;0,0678194
668,2138;0,0671296
669,1780;0,0667485
670,1423;0,0666661
671,1065;0,0666661
672,0707;0,0665549
673,0350;0,0662414
673,9992;0,0657133
674,9634;0,0650129
675,9277;0,0642203
676,8919;0,0634243
677,8561;0,062688
678,8204;0,0620365
679,7846;0,0614722
680,7488;0,0609907
681,7131;0,0605844
682,6773;0,0602391
683,6415;0,0599383
684,6058;0,0596731
685,5700;0,0594458
686,5342;0,0592636
687,4985;0,0591262
688,4627;0,0590207
689,4269;0,0589265
690,3912;0,0588289
691,3554;0,0587259
692,3196;0,0586255
693,2839;0,0585361
694,2481;0,0584586
695,2123;0,058386
696,1766;0,0583088
697,1408;0,0582211
698,1050;0,0581247
699,0693;0,058028
700,0335;0,0579411
700,9977;0,0578689
701,9620;0,0578071
702,9262;0,0577419
703,8904;0,0576537
704,8547;0,0575283
705,8189;0,0573615
706,7831;0,0571604
707,7474;0,0569381
708,7116;0,0567061
709,6758;0,0564701
710,6401;0,0562316
711,6043;0,0559924
712,5685;0,0557569
713,5328;0,0555303
714,4970;0,0553129
715,4612;0,0550386
716,4255;0,0548201
717,3897;0,0545766
718,3539;0,0542984
719,3182;0,0539888
720,2824;0,0536649
721,2466;0,0533507
722,2109;0,0530649
723,1751;0,0528119
724,1393;0,0525812
725,1036;0,0523525
726,0678;0,0521043
727,0320;0,0518223
727,9963;0,0515064
728,9605;0,0511723
729,9247;0,050846
730,8890;0,0505519
731,8532;0,050303
732,8174;0,0500958
733,7817;0,0499155
734,7459;0,0497456
735,7101;0,0495766
736,6744;0,0494076
737,6386;0,04924
738,6028;0,0490704
739,5671;0,0488904
740,5313;0,0486931
741,4955;0,0484832
742,4598;0,0482794
743,4240;0,0481044
744,3882;0,0479692
745,3525;0,0478611
746,3167;0,047747
747,2809;0,0475907
748,2452;0,0473751
749,2094;0,0471133
750,1736;0,0468409
751,1379;0,0465953
752,1021;0,0463934
753,0663;0,0462249
754,0306;0,0460634
754,9948;0,0458862
755,9590;0,0456899
756,9233;0,0454894
757,8875;0,0453039
758,8517;0,0451414
759,8160;0,0449933
760,7802;0,0448417
761,7444;0,0446728
762,7087;0,044484
763,6729;0,0442824
764,6371;0,044077
765,6014;0,0438735
766,5656;0,043676
767,5298;0,0434904
768,4941;0,0433254
769,4583;0,043185
770,4225;0,0430608
771,3868;0,0429314
772,3510;0,0427733
773,3152;0,0425772
774,2795;0,0423569
775,2437;0,0421434
776,2079;0,0419665
777,1722;0,0418363
778,1364;0,0417382
779,1006;0,0416428
780,0649;0,0415241
781,0291;0,0413729
781,9933;0,0411976
782,9576;0,0410156
783,9218;0,0408423
784,8860;0,0406864
785,8503;0,0405495
786,8145;0,0404301
787,7787;0,0403248
788,7430;0,0402284
789,7072;0,0401344
790,6714;0,0400379
791,6357;0,039939
792,5999;0,0398442
793,5641;0,0397631
794,5284;0,0397014
795,4926;0,0396576
796,4568;0,0396232
797,4211;0,0395881
798,3853;0,039546
799,3495;0,0394951
800,3138;0,0394356
801,2780;0,0393657
802,2422;0,039282
803,2065;0,0391837
804,1707;0,0390769
805,1349;0,0389748
806,0992;0,0388921
807,0634;0,0388366
808,0276;0,0388042
808,9919;0,0387817
809,9561;0,0387535
810,9203;0,0387093
811,8846;0,0386475
812,8488;0,0385721
813,8130;0,0384887
814,7773;0,0384019
815,7415;0,0383155
816,7057;0,0382338
817,6700;0,038162
818,6342;0,0381029
819,5984;0,0380539
820,5627;0,038007
821,5269;0,0379528
822,4911;0,0378857
823,4554;0,0378076
824,4196;0,0377263
825,3839;0,0376509
826,3481;0,0375865
827,3123;0,0375312
828,2766;0,0374781
829,2408;0,037419
830,2050;0,0373484
831,1693;0,0372653
832,1335;0,0371722
833,0977;0,0370729
834,0620;0,0369691
835,0262;0,0368593
835,9904;0,0367393
836,9547;0,0366051
837,9189;0,0364569
838,8831;0,0363012
839,8474;0,0361486
840,8116;0,0360092
841,7758;0,0358875
842,7401;0,035781
843,7043;0,0356832
844,6685;0,0355882
845,6328;0,0354954
846,5970;0,0354089
847,5612;0,0353345
848,5255;0,0352756
849,4897;0,0352309
850,4539;0,035195
851,4182;0,0351614
852,3824;0,0351249
853,3466;0,0350843
854,3109;0,035043
855,2751;0,0350084
856,2393;0,0349886
857,2036;0,0349882
858,1678;0,0350046
859,1320;0,0350276
860,0963;0,035044
861,0605;0,0350446
862,0247;0,0350301
862,9890;0,0350121
863,9532;0,0350077
864,9174;0,0350312
865,8817;0,0350875
866,8459;0,0351707
867,8101;0,0352684
868,7744;0,0353675
869,7386;0,0354588
870,7028;0,0355384
871,6671;0,0356053
872,6313;0,03566
873,5955;0,0357044
874,5598;0,0357426
875,5240;0,0357827
876,4882;0,0358348
877,4525;0,0359075
878,4167;0,0360032
879,3809;0,0361162
880,3452;0,0362354
881,3094;0,0363517
882,2736;0,0364651
883,2379;0,0365887
884,2021;0,0367454
885,1663;0,0369589
886,1306;0,0372428
887,0948;0,0375945
888,0590;0,0379958
889,0233;0,0384202
889,9875;0,0388439
890,9517;0,0392522
891,9160;0,03964
892,8802;0,0400061
893,8444;0,040345
894,8087;0,0406429
895,7729;0,040878
896,7371;0,0410272
897,7014;0,0410729
898,6656;0,0410082
899,6298;0,0408371
900,5941;0,0405729
901,5583;0,0402353
902,5225;0,0398488
903,4868;0,03944
904,4510;0,0390344
905,4152;0,0386531
906,3795;0,0383093
907,3437;0,0380089
908,3079;0,0377532
909,2722;0,0375423
910,2364;0,0373761
911,2007;0,0372539
912,1649;0,0371719
913,1292;0,0371237
914,0934;0,0371032
915,0576;0,0371074
916,0219;0,037137
916,9861;0,0371933
917,9503;0,0372738
918,9146;0,0373708
919,8788;0,0374746
920,8430;0,0375786
921,8073;0,0376823
922,7715;0,0377896
923,7357;0,0379034
924,7000;0,0380209
925,6642;0,038134
926,6284;0,0382327
927,5927;0,0383119
928,5569;0,0383737
929,5211;0,038428
930,4854;0,0384887
931,4496;0,0385692
932,4138;0,0386785
933,3781;0,0388184
934,3423;0,0389829
935,3065;0,039161
936,2708;0,0393425
937,2350;0,0395239
938,1992;0,0397106
939,1635;0,039914
940,1277;0,0401446
941,0919;0,040407
942,0562;0,0406999
943,0204;0,0410209
943,9846;0,0413714
944,9489;0,0417573
945,9131;0,0421842
946,8773;0,0426525
947,8416;0,0431559
948,8058;0,0436858
949,7700;0,0442368
950,7343;0,0448093
951,6985;0,0454075
952,6627;0,0460342
953,6270;0,0466886
954,5912;0,0473677
955,5554;0,0480702
956,5197;0,0487976
957,4839;0,049552
958,4481;0,0503303
959,4124;0,0511213
960,3766;0,0519084
961,3408;0,0526761
962,3051;0,0534171
963,2693;0,0541343
964,2335;0,0548383
965,1978;0,0555417
966,1620;0,0562542
967,1262;0,0569823
968,0905;0,0577301
969,0547;0,0585035
970,0189;0,0593112
970,9832;0,0601652
971,9474;0,0610782
972,9116;0,062061
973,8759;0,0631201
974,8401;0,064257
975,8043;0,0654695
976,7686;0,0667528
977,7328;0,0680997
978,6970;0,0694989
979,6613;0,0709311
980,6255;0,0723673
981,5897;0,0737702
982,5540;0,0750999
983,5182;0,0763231
984,4824;0,0774205
985,4467;0,0783902
986,4109;0,0792445
987,3751;0,0800032
988,3394;0,0806848
989,3036;0,0813003
990,2678;0,0818515
991,2321;0,0823332
992,1963;0,0827402
993,1605;0,0830742
994,1248;0,0833493
995,0890;0,0835913
996,0532;0,0838314
997,0175;0,0840965
997,9817;0,0844008
998,9459;0,0847438
999,9102;0,0851153
1000,8744;0,0855039
1001,8386;0,0859058
1002,8029;0,0863283
1003,7671;0,0867873
1004,7313;0,0873015
1005,6956;0,0878876
1006,6598;0,0885562
1007,6240;0,0893123
1008,5883;0,0901544
1009,5525;0,0910749
1010,5167;0,092059
1011,4810;0,0930846
1012,4452;0,094124
1013,4094;0,0951471
1014,3737;0,0961266
1015,3379;0,0970423
1016,3021;0,0978836
1017,2664;0,0986487
1018,2306;0,0993415
1019,1948;0,0999673
1020,1591;0,10053
1021,1233;0,10103
1022,0875;0,101468
1023,0518;0,101849
1024,0160;0,102178
1024,9802;0,102463
1025,9445;0,10271
1026,9087;0,102917
1027,8729;0,103074
1028,8372;0,103164
1029,8014;0,103168
1030,7656;0,103067
1031,7299;0,102852
1032,6941;0,10252
1033,6583;0,102075
1034,6226;0,101527
1035,5868;0,100889
1036,5510;0,100184
1037,5153;0,0994502
1038,4795;0,0987317
1039,4437;0,0980766
1040,4080;0,0975209
1041,3722;0,0970776
1042,3364;0,0967325
1043,3007;0,0964501
1044,2649;0,0961883
1045,2291;0,0959117
1046,1934;0,095599
1047,1576;0,0952415
1048,1218;0,0948345
1049,0861;0,0943713
1050,0503;0,0938413
1051,0145;0,0932353
1051,9788;0,092553
1052,9430;0,0918068
1053,9072;0,0910176
1054,8715;0,0902049
1055,8357;0,0893751
1056,7999;0,0885157
1057,7642;0,0875994
1058,7284;0,0865965
1059,6926;0,0854905
1060,6569;0,084288
1061,6211;0,0830198
1062,5853;0,0817317
1063,5496;0,0804718
1064,5138;0,0792803
1065,4780;0,078184
1066,4423;0,0771968
1067,4065;0,07632
1068,3707;0,0755432
1069,3350;0,0748442
1070,2992;0,0741914
1071,2634;0,073549
1072,2277;0,0728866
1073,1919;0,0721873
1074,1561;0,0714516
1075,1204;0,0706947
1076,0846;0,0699383
1077,0488;0,0692006
1078,0131;0,0684914
1078,9773;0,0678131
1079,9415;0,067167
1080,9058;0,0665609
1081,8700;0,0660112
1082,8342;0,0655383
1083,7985;0,0651569
1084,7627;0,0648657
1085,7269;0,0646457
1086,6912;0,0644667
1087,6554;0,0643003
1088,6196;0,064132
1089,5839;0,0639646
1090,5481;0,0638129
1091,5123;0,0636925
1092,4766;0,063609
1093,4408;0,0635551
1094,4050;0,0635142
1095,3693;0,0634689
1096,3335;0,0634084
1097,2977;0,063332
1098,2620;0,0632461
1099,2262;0,0631592
1100,1904;0,0630757
1101,1547;0,0629919
1102,1189;0,0628971
1103,0831;0,0627774
1104,0474;0,0626215
1105,0116;0,0624263
1105,9758;0,0621987
1106,9401;0,0619516
1107,9043;0,0616973
1108,8685;0,0614394
1109,8328;0,0611689
1110,7970;0,0608665
1111,7612;0,0605126
1112,7255;0,0600981
1113,6897;0,0596326
1114,6539;0,0591438
1115,6182;0,0586688
1116,5824;0,0582406
1117,5466;0,0578766
1118,5109;0,0575731
1119,4751;0,0573086
1120,4393;0,0570506
1121,4036;0,0567637
1122,3678;0,0564156
1123,3320;0,0559798
1124,2963;0,0554385
1125,2605;0,0547846
1126,2247;0,0540233
1127,1890;0,0531723
1128,1532;0,0522583
1129,1174;0,0513118
1130,0817;0,0503606
1131,0459;0,049427
1132,0101;0,048527
1132,9744;0,0476735
1133,9386;0,0468795
1134,9028;0,0461597
1135,8671;0,0455295
1136,8313;0,045001
1137,7955;0,0445789
1138,7598;0,0442589
1139,7240;0,0440297
1140,6882;0,0438772
1141,6525;0,0437895
1142,6167;0,0437591
1143,5809;0,0437804
1144,5452;0,0438472
1145,5094;0,0439497
1146,4736;0,0440768
1147,4379;0,044221
1148,4021;0,0443818
1149,3663;0,0445664
1150,3306;0,044783
1151,2948;0,0450329
1152,2590;0,0453045
1153,2233;0,0455731
1154,1875;0,0458061
1155,1517;0,0459701
1156,1160;0,0460365
1157,0802;0,0459832
1158,0444;0,0457943
1159,0087;0,0454582
1159,9729;0,0449667
1160,9371;0,0443157
1161,9014;0,0435066
1162,8656;0,0425484
1163,8298;0,0414594
1164,7941;0,0402678
1165,7583;0,03901
1166,7225;0,0377275
1167,6868;0,0364615
1168,6510;0,0352476
1169,6152;0,0341124
1170,5795;0,0330722
1171,5437;0,0321343
1172,5079;0,0313
1173,4722;0,0305667
1174,4364;0,0299304
1175,4006;0,0293857
1176,3649;0,028926
1177,3291;0,0285425
1178,2933;0,0282248
1179,2576;0,0279625
1180,2218;0,0277468
1181,1860;0,0275734
1182,1503;0,0274427
1183,1145;0,027358
1184,0787;0,027323
1185,0430;0,0273389
1186,0072;0,0274043
1186,9714;0,0275163
1187,9357;0,0276727
1188,8999;0,0278726
1189,8641;0,0281153
1190,8284;0,0283979
1191,7926;0,0287141
1192,7568;0,029053
1193,7211;0,0294012
1194,6853;0,0297453
1195,6495;0,0300742
1196,6138;0,0303822
1197,5780;0,0306699
1198,5422;0,0309441
1199,5065;0,0312102
1200,4707;0,0314874
1201,4349;0,0317751
1202,3992;0,0320717
1203,3634;0,0323707
1204,3276;0,0326647
1205,2919;0,0329502
1206,2561;0,0332307
1207,2203;0,0335164
1208,1846;0,0338224
1209,1488;0,034164
1210,1130;0,0345524
1211,0773;0,0349915
1212,0415;0,0354764
1213,0057;0,0359951
1213,9700;0,0365328
1214,9342;0,0370767
1215,8984;0,0376192
1216,8627;0,038158
1217,8269;0,0386931
1218,7911;0,0392235
1219,7554;0,0397454
1220,7196;0,0402521
1221,6838;0,0407364
1222,6481;0,0411926
1223,6123;0,0416175
1224,5765;0,04201
1225,5408;0,042371
1226,5050;0,0427022
1227,4692;0,0430053
1228,4335;0,0432817
1229,3977;0,0435321
1230,3619;0,0437558
1231,3262;0,0439523
1232,2904;0,044122
1233,2546;0,0442667
1234,2189;0,04439
1235,1831;0,0444952
1236,1473;0,0445845
1237,1116;0,0446579
1238,0758;0,0447144
1239,0400;0,0447528
1240,0043;0,0447719
1240,9685;0,0447703
1241,9327;0,0447452
1242,8970;0,0446931
1243,8612;0,0446105
1244,8254;0,0444963
1245,7897;0,0443521
1246,7539;0,0441821
1247,7181;0,0439905
1248,6824;0,0437807
1249,6466;0,0435551
1250,6108;0,0433167
1251,5751;0,0430703
1252,5393;0,0428219
1253,5035;0,0425767
1254,4678;0,0423356
1255,4320;0,0420944
1256,3962;0,0418452
1257,3605;0,0415803
1258,3247;0,041296
1259,2889;0,0409937
1260,2532;0,0406784
1261,2174;0,0403549
1262,1816;0,0400241
1263,1459;0,039683
1264,1101;0,0393261
1265,0743;0,038948
1266,0386;0,0385457
1267,0028;0,0381183
1267,9670;0,0376674
1268,9313;0,0371961
1269,8955;0,0367093
1270,8597;0,0362133
1271,8240;0,0357146
1272,7882;0,0352184
1273,7524;0,0347282
1274,7167;0,0342462
1275,6809;0,0337745
1276,6451;0,0333165
1277,6094;0,032876
1278,5736;0,0324552
1279,5378;0,0320535
1280,5021;0,0316676
1281,4663;0,0312936
1282,4305;0,0309295
1283,3948;0,030577
1284,3590;0,0302411
1285,3232;0,0299293
1286,2875;0,0296502
1287,2517;0,0294113
1288,2159;0,029217
1289,1802;0,0290675
1290,1444;0,0289579
1291,1086;0,0288807
1292,0729;0,0288291
1293,0371;0,0287997
1294,0013;0,028794
1294,9656;0,0288167
1295,9298;0,0288722
1296,8940;0,0289617
1297,8583;0,029083
1298,8225;0,0292319
1299,7867;0,029405
1300,7510;0,0296008
1301,7152;0,0298195
1302,6794;0,0300616
1303,6437;0,0303259
1304,6079;0,0306093
1305,5721;0,0309072
1306,5364;0,0312139
1307,5006;0,0315242
1308,4648;0,031834
1309,4291;0,032141
1310,3933;0,0324445
1311,3575;0,0327444
1312,3218;0,0330383
1313,2860;0,0333202
1314,2502;0,0335795
1315,2145;0,0338017
1316,1787;0,0339726
1317,1429;0,0340815
1318,1072;0,0341265
1319,0714;0,0341162
1320,0356;0,0340673
1320,9999;0,033998
1321,9641;0,0339221
1322,9283;0,0338471
1323,8926;0,0337761
1324,8568;0,0337108
1325,8210;0,0336519
1326,7853;0,0335986
1327,7495;0,0335467
1328,7137;0,0334892
1329,6780;0,0334182
1330,6422;0,0333279
1331,6064;0,0332161
1332,5707;0,0330839
1333,5349;0,0329324
1334,4991;0,0327604
1335,4634;0,0325627
1336,4276;0,0323326
1337,3918;0,032068
1338,3561;0,0317796
1339,3203;0,0314922
1340,2845;0,0312342
1341,2488;0,0310216
1342,2130;0,0308521
1343,1772;0,0307134
1344,1415;0,0305946
1345,1057;0,0304938
1346,0699;0,0304186
1347,0342;0,0303824
1347,9984;0,0303965
1348,9626;0,0304628
1349,9269;0,0305728
1350,8911;0,0307114
1351,8553;0,0308662
1352,8196;0,0310332
1353,7838;0,0312176
1354,7480;0,0314283
1355,7123;0,0316699
1356,6765;0,0319388
1357,6407;0,0322266
1358,6050;0,0325261
1359,5692;0,032835
1360,5334;0,0331525
1361,4977;0,0334715
1362,4619;0,0337747
1363,4261;0,0340425
1364,3904;0,0342661
1365,3546;0,0344512
1366,3188;0,0346103
1367,2831;0,0347519
1368,2473;0,0348765
1369,2115;0,0349778
1370,1758;0,0350457
1371,1400;0,0350696
1372,1042;0,0350387
1373,0685;0,0349435
1374,0327;0,0347819
1374,9969;0,034563
1375,9612;0,0343019
1376,9254;0,0340071
1377,8896;0,0336739
1378,8539;0,0332921
1379,8181;0,0328602
1380,7823;0,0323945
1381,7466;0,0319233
1382,7108;0,0314676
1383,6750;0,0310264
1384,6393;0,0305787
1385,6035;0,0301044
1386,5677;0,0296118
1387,5320;0,0291474
1388,4962;0,028766
1389,4604;0,0284896
1390,4247;0,0283005
1391,3889;0,0281634
1392,3531;0,028046
1393,3174;0,0279286
1394,2816;0,0278083
1395,2458;0,0276968
1396,2101;0,0276113
1397,1743;0,0275649
1398,1385;0,0275621
1399,1028;0,0276007
1400,0670;0,0276739
1401,0313;0,0277729
1401,9955;0,0278899
1402,9597;0,0280209
1403,9240;0,0281664
1404,8882;0,0283306
1405,8524;0,0285159
1406,8167;0,0287205
1407,7809;0,02894
1408,7451;0,0291723
1409,7094;0,0294189
1410,6736;0,0296819
1411,6378;0,0299597
1412,6021;0,0302452
1413,5663;0,0305307
1414,5305;0,0308122
1415,4948;0,0310894
1416,4590;0,0313616
1417,4232;0,0316223
1418,3875;0,0318577
1419,3517;0,032051
1420,3159;0,0321912
1421,2802;0,0322738
1422,2444;0,0322958
1423,2086;0,0322534
1424,1729;0,0321464
1425,1371;0,0319811
1426,1013;0,0317639
1427,0656;0,0314924
1428,0298;0,0311566
1428,9940;0,0307557
1429,9583;0,0303172
1430,9225;0,0298905
1431,8867;0,0295132
1432,8510;0,0291841
1433,8152;0,0288641
1434,7794;0,0285036
1435,7437;0,0280864
1436,7079;0,0276646
1437,6721;0,0273279
1438,6364;0,0271249
1439,6006;0,027041
1440,5648;0,0270383
1441,5291;0,0270877
1442,4933;0,0271735
1443,4575;0,0272886
1444,4218;0,0274293
1445,3860;0,0275926
1446,3502;0,0277746
1447,3145;0,0279684
1448,2787;0,0281617
1449,2429;0,02834
1450,2072;0,0284928
1451,1714;0,0286188
1452,1356;0,0287219
1453,0999;0,0288017
1454,0641;0,0288445
1455,0283;0,0288219
1455,9926;0,028715
1456,9568;0,0285679
1457,9210;0,0284734
1458,8853;0,0284623
1459,8495;0,0284927
1460,8137;0,0285167
1461,7780;0,0284916
1462,7422;0,0283683
1463,7064;0,0281017
1464,6707;0,0276918
1465,6349;0,0272083
1466,5991;0,0267391
1467,5634;0,0263174
1468,5276;0,0259091
1469,4918;0,0254384
1470,4561;0,0248121
1471,4203;0,0239626
1472,3845;0,0229326
1473,3488;0,0219162
1474,3130;0,0211133
1475,2772;0,0205622
1476,2415;0,0201832
1477,2057;0,0198944
1478,1699;0,0196499
1479,1342;0,0194294
1480,0984;0,0192255
1481,0626;0,0190405
1482,0269;0,0188855
1482,9911;0,0187757
1483,9553;0,0187189
1484,9196;0,0187077
1485,8838;0,0187188
1486,8480;0,018723
1487,8123;0,0187085
1488,7765;0,0187066
1489,7407;0,018778
1490,7050;0,0189529
1491,6692;0,0192114
1492,6334;0,0195199
1493,5977;0,0198561
1494,5619;0,0202087
1495,5261;0,0205738
1496,4904;0,0209563
1497,4546;0,0213648
1498,4188;0,0217963
1499,3831;0,0222294
1500,3473;0,0226424
1501,3115;0,0230248
1502,2758;0,0233702
1503,2400;0,0236627
1504,2042;0,0238629
1505,1685;0,023903
1506,1327;0,0237307
1507,0969;0,0234223
1508,0612;0,0231543
1509,0254;0,0229835
1509,9896;0,0228546
1510,9539;0,022717
1511,9181;0,0225401
1512,8823;0,0222959
1513,8466;0,0219587
1514,8108;0,021522
1515,7750;0,0210145
1516,7393;0,020489
1517,7035;0,0199838
1518,6677;0,0194936
1519,6320;0,0189865
1520,5962;0,0184546
1521,5604;0,017948
1522,5247;0,0175397
1523,4889;0,0172606
1524,4531;0,0170851
1525,4174;0,0169698
1526,3816;0,0168906
1527,3458;0,0168481
1528,3101;0,0168481
1529,2743;0,0168812
1530,2385;0,0169177
1531,2028;0,0169205
1532,1670;0,0168725
1533,1312;0,0168054
1534,0955;0,0167859
1535,0597;0,016858
1536,0239;0,0170095
1536,9882;0,0171803
1537,9524;0,017275
1538,9166;0,0171787
1539,8809;0,0168519
1540,8451;0,0164902
1541,8093;0,0163805
1542,7736;0,0165368
1543,7378;0,0167991
1544,7020;0,0170614
1545,6663;0,0172915
1546,6305;0,0174889
1547,5947;0,0176583
1548,5590;0,0177998
1549,5232;0,0179102
1550,4874;0,0179907
1551,4517;0,0180549
1552,4159;0,0181263
1553,3801;0,0182241
1554,3444;0,0183476
1555,3086;0,0184658
1556,2728;0,0185149
1557,2371;0,0184284
1558,2013;0,0182515
1559,1655;0,0181835
1560,1298;0,0183052
1561,0940;0,0185174
1562,0582;0,0187467
1563,0225;0,0189793
1563,9867;0,0192144
1564,9509;0,0194425
1565,9152;0,0196469
1566,8794;0,0198158
1567,8436;0,019959
1568,8079;0,0201124
1569,7721;0,0203111
1570,7363;0,0205592
1571,7006;0,0208357
1572,6648;0,0211202
1573,6290;0,021404
1574,5933;0,0216909
1575,5575;0,0219975
1576,5217;0,022341
1577,4860;0,0227148
1578,4502;0,0230976
1579,4144;0,0234833
1580,3787;0,0238813
1581,3429;0,0242981
1582,3071;0,0247289
1583,2714;0,0251615
1584,2356;0,0255872
1585,1998;0,0260065
1586,1641;0,0264248
1587,1283;0,0268423
1588,0925;0,0272476
1589,0568;0,027621
1590,0210;0,0279413
1590,9852;0,0281923
1591,9495;0,0283627
1592,9137;0,0284458
1593,8779;0,0284415
1594,8422;0,0283602
1595,8064;0,0282218
1596,7706;0,0280481
1597,7349;0,0278557
1598,6991;0,0276543
1599,6633;0,0274499
1600,6276;0,0272494
1601,5918;0,0270605
1602,5560;0,0268896
1603,5203;0,0267382
1604,4845;0,026602
1605,4487;0,0264723
1606,4130;0,0263394
1607,3772;0,0261971
1608,3414;0,026049
1609,3057;0,0259103
1610,2699;0,0258009
1611,2341;0,0257327
1612,1984;0,0257026
1613,1626;0,0256928
1614,1268;0,0256764
1615,0911;0,0256334
1616,0553;0,0255732
1617,0195;0,0255333
1617,9838;0,0255383
1618,9480;0,0255814
1619,9122;0,0256436
1620,8765;0,0257077
1621,8407;0,0257611
1622,8049;0,0257996
1623,7692;0,0258294
1624,7334;0,0258612
1625,6976;0,0259004
1626,6619;0,0259474
1627,6261;0,0260028
1628,5903;0,0260698
1629,5546;0,0261527
1630,5188;0,026253
1631,4830;0,0263632
1632,4473;0,0264591
1633,4115;0,0264958
1634,3757;0,0264277
1635,3400;0,0262668
1636,3042;0,0261081
1637,2684;0,0260309
1638,2327;0,0260292
1639,1969;0,0260656
1640,1611;0,0261189
1641,1254;0,026183
1642,0896;0,0262515
1643,0538;0,0263034
1644,0181;0,026295
1644,9823;0,0261764
1645,9465;0,0259503
1646,9108;0,0257132
1647,8750;0,0255784
1648,8392;0,0255743
1649,8035;0,0256502
1650,7677;0,0257082
1651,7319;0,0256154
1652,6962;0,0252892
1653,6604;0,0248562
1654,6246;0,024529
1655,5889;0,0243407
1656,5531;0,0242286
1657,5173;0,0241473
1658,4816;0,0240646
1659,4458;0,0239432
1660,4100;0,0237472
1661,3743;0,0234727
1662,3385;0,0231702
1663,3027;0,0229128
1664,2670;0,0227364
1665,2312;0,0226211
1666,1954;0,022511
1667,1597;0,0223366
1668,1239;0,022048
1669,0881;0,0216645
1670,0524;0,0212856
1671,0166;0,0210064
1671,9808;0,0208318
1672,9451;0,0206957
1673,9093;0,0205262
1674,8735;0,0202941
1675,8378;0,0200313
1676,8020;0,0198044
1677,7662;0,0196615
1678,7305;0,0196072
1679,6947;0,0196084
1680,6589;0,0196
1681,6232;0,0194857
1682,5874;0,0191761
1683,5516;0,0186965
1684,5159;0,0182271
1685,4801;0,0179137
1686,4443;0,0177447
1687,4086;0,0176519
1688,3728;0,017595
1689,3370;0,0175658
1690,3013;0,0175701
1691,2655;0,0176102
1692,2297;0,0176749
1693,1940;0,0177384
1694,1582;0,0177679
1695,1224;0,0177398
1696,0867;0,0176567
1697,0509;0,0175505
1698,0151;0,0174651
1698,9794;0,0174279
1699,9436;0,0174383
1700,9078;0,0174812
1701,8721;0,0175488
1702,8363;0,0176476
1703,8005;0,0177891
1704,7648;0,0179794
1705,7290;0,018213
1706,6932;0,0184752
1707,6575;0,0187502
1708,6217;0,0190301
1709,5859;0,0193171
1710,5502;0,0196151
1711,5144;0,0199209
1712,4786;0,0202224
1713,4429;0,0205051
1714,4071;0,0207665
1715,3713;0,021035
1716,3356;0,0213665
1717,2998;0,0217856
1718,2640;0,0222333
1719,2283;0,022635
1720,1925;0,0229765
1721,1567;0,0232866
1722,1210;0,0235931
1723,0852;0,0239034
1724,0494;0,0242066
1725,0137;0,0244856
1725,9779;0,0247293
1726,9421;0,0249374
1727,9064;0,0251183
1728,8706;0,0252807
1729,8348;0,025426
1730,7991;0,0255423
1731,7633;0,0256054
1732,7275;0,0255943
1733,6918;0,0255115
1734,6560;0,0253774
1735,6202;0,0252061
1736,5845;0,0249979
1737,5487;0,0247427
1738,5129;0,024426
1739,4772;0,0240413
1740,4414;0,0236033
1741,4056;0,0231443
1742,3699;0,0226903
1743,3341;0,0222458
1744,2983;0,0218019
1745,2626;0,0213508
1746,2268;0,0208849
1747,1910;0,0203881
1748,1553;0,0198359
1749,1195;0,0192191
1750,0837;0,0185728
1751,0480;0,0179617
1752,0122;0,0174292
1752,9764;0,016973
1753,9407;0,0165614
1754,9049;0,0161614
1755,8691;0,0157599
1756,8334;0,0153679
1757,7976;0,0150046
1758,7618;0,0146729
1759,7261;0,0143515
1760,6903;0,0140152
1761,6545;0,0136639
1762,6188;0,0133289
1763,5830;0,0130477
1764,5472;0,0128351
1765,5115;0,0126776
1766,4757;0,0125462
1767,4399;0,0124094
1768,4042;0,0122408
1769,3684;0,012021
1770,3326;0,0117438
1771,2969;0,0114323
1772,2611;0,0111451
1773,2253;0,0109452
1774,1896;0,0108554
1775,1538;0,0108522
1776,1180;0,0108924
1777,0823;0,0109335
1778,0465;0,0109437
1779,0107;0,0109101
1779,9750;0,0108428
1780,9392;0,0107663
1781,9034;0,0106993
1782,8677;0,0106444
1783,8319;0,0105959
1784,7961;0,0105538
1785,7604;0,0105305
1786,7246;0,0105405
1787,6888;0,0105864
1788,6531;0,0106477
1789,6173;0,0106824
1790,5815;0,0106452
1791,5458;0,0105238
1792,5100;0,0103635
1793,4742;0,0102346
1794,4385;0,0101742
1795,4027;0,0101742
1796,3669;0,0102057
1797,3312;0,0102389
1798,2954;0,0102529
1799,2596;0,0102417
1800,2239;0,0102138
1801,1881;0,0101832
1802,1523;0,0101589
1803,1166;0,0101445
1804,0808;0,0101425
1805,0450;0,010156
1806,0093;0,010184
1806,9735;0,0102173
1807,9377;0,0102387
1808,9020;0,0102317
1809,8662;0,0101922
1810,8304;0,0101349
1811,7947;0,0100839
1812,7589;0,0100563
1813,7231;0,0100513
1814,6874;0,0100538
1815,6516;0,010046
1816,6158;0,0100196
1817,5801;0,00998396
1818,5443;0,00996067
1819,5085;0,00996875
1820,4728;0,0100116
1821,4370;0,0100753
1822,4012;0,0101368
1823,3655;0,0101749
1824,3297;0,0101786
1825,2939;0,0101475
1826,2582;0,0100853
1827,2224;0,00999571
1828,1866;0,0098884
1829,1509;0,00978838
1830,1151;0,00973237
1831,0793;0,00974488
1832,0436;0,00981873
1833,0078;0,00992209
1833,9720;0,0100184
1834,9363;0,0100809
1835,9005;0,0101019
1836,8647;0,0100975
1837,8290;0,0100992
1838,7932;0,0101327
1839,7574;0,0102015
1840,7217;0,0102834
1841,6859;0,0103398
1842,6501;0,010333
1843,6144;0,010252
1844,5786;0,0101265
1845,5428;0,0100052
1846,5071;0,00992074
1847,4713;0,00988053
1848,4355;0,0098783
1849,3998;0,00990411
1850,3640;0,00994674
1851,3282;0,00999305
1852,2925;0,0100288
1853,2567;0,0100425
1854,2209;0,0100314
1855,1852;0,0100047
1856,1494;0,00998121
1857,1136;0,00998033
1858,0779;0,0100108
1859,0421;0,0100651
1860,0063;0,0101233
1860,9706;0,0101649
1861,9348;0,0101809
1862,8990;0,0101765
1863,8633;0,010165
1864,8275;0,0101571
1865,7917;0,0101558
1866,7560;0,0101581
1867,7202;0,0101616
1868,6844;0,0101669
1869,6487;0,0101726
1870,6129;0,0101723
1871,5771;0,0101609
1872,5414;0,0101368
1873,5056;0,0101009
1874,4698;0,0100554
1875,4341;0,0100061
1876,3983;0,00996531
1877,3625;0,00994847
1878,3268;0,00996663
1879,2910;0,0100186
1880,2552;0,0100881
1881,2195;0,0101493
1882,1837;0,0101781
1883,1479;0,0101667
1884,1122;0,0101285
1885,0764;0,0100914
1886,0406;0,010081
1887,0049;0,0101059
1887,9691;0,0101521
1888,9333;0,0101904
1889,8976;0,0101959
1890,8618;0,0101647
1891,8260;0,0101166
1892,7903;0,0100819
1893,7545;0,0100838
1894,7188;0,0101281
1895,6830;0,0102005
1896,6472;0,0102734
1897,6115;0,0103194
1898,5757;0,0103239
1899,5399;0,0102902
1900,5042;0,010236
1901,4684;0,0101838
1902,4326;0,0101497
1903,3969;0,0101359
1904,3611;0,0101314
1905,3253;0,0101224
1906,2896;0,010105
1907,2538;0,0100907
1908,2180;0,010101
1909,1823;0,010151
1910,1465;0,010235
1911,1107;0,0103273
1912,0750;0,0103988
1913,0392;0,0104343
1914,0034;0,0104372
1914,9677;0,0104236
1915,9319;0,0104124
1916,8961;0,0104166
1917,8604;0,0104376
1918,8246;0,0104651
1919,7888;0,0104835
1920,7531;0,0104797
1921,7173;0,0104466
1922,6815;0,0103849
1923,6458;0,0103043
1924,6100;0,010222
1925,5742;0,0101566
1926,5385;0,0101221
1927,5027;0,0101231
1928,4669;0,0101566
1929,4312;0,0102142
1930,3954;0,0102864
1931,3596;0,0103641
1932,3239;0,0104398
1933,2881;0,0105066
1934,2523;0,0105576
1935,2166;0,0105853
1936,1808;0,0105834
1937,1450;0,0105482
1938,1093;0,0104817
1939,0735;0,0103939
1940,0377;0,0103054
1941,0020;0,0102451
1941,9662;0,0102405
1942,9304;0,0103006
1943,8947;0,0104061
1944,8589;0,01052
1945,8231;0,0106089
1946,7874;0,0106568
1947,7516;0,0106646
1948,7158;0,010643
1949,6801;0,0106066
1950,6443;0,0105717
1951,6085;0,010555
1952,5728;0,0105677
1953,5370;0,0106042
1954,5012;0,0106355
1955,4655;0,0106175
1956,4297;0,010518
1957,3939;0,0103494
1958,3582;0,0101809
1959,3224;0,0101144
1960,2866;0,0102283
1961,2509;0,0105237
1962,2151;0,0109142
1963,1793;0,0112709
1964,1436;0,0114904
1965,1078;0,0115421
1966,0720;0,011472
1967,0363;0,0113614
1968,0005;0,0112659
1968,9647;0,0111799
1969,9290;0,0110529
1970,8932;0,010844
1971,8574;0,0105714
1972,8217;0,0103251
1973,7859;0,0102305
1974,7501;0,0103747
1975,7144;0,0107344
1976,6786;0,0111625
1977,6428;0,011464
1978,6071;0,0115209
1979,5713;0,0113679
1980,5355;0,0111627
1981,4998;0,0110831
1982,4640;0,0112284
1983,4282;0,0115735
1984,3925;0,0119893
1985,3567;0,0123103
1986,3209;0,0124156
1987,2852;0,0122783
1988,2494;0,0119641
1989,2136;0,0115908
1990,1779;0,0112783
1991,1421;0,0111093
1992,1063;0,0111096
1993,0706;0,0112501
1994,0348;0,0114692
1994,9990;0,0117011
1995,9633;0,011898
1996,9275;0,0120383
1997,8917;0,0121233
1998,8560;0,0121653
1999,8202;0,0121737
2000,7844;0,0121478
2001,7487;0,0120844
2002,7129;0,0119952
2003,6771;0,0119193
2004,6414;0,0119152
2005,6056;0,0120304
2006,5698;0,0122637
2007,5341;0,0125535
2008,4983;0,012808
2009,4625;0,0129571
2010,4268;0,0129865
2011,3910;0,012927
2012,3552;0,0128168
2013,3195;0,0126718
2014,2837;0,012489
2015,2479;0,0122803
2016,2122;0,0121017
2017,1764;0,0120416
2018,1406;0,0121635
2019,1049;0,0124464
2020,0691;0,0127784
2021,0333;0,0130163
2021,9976;0,0130702
2022,9618;0,0129567
2023,9260;0,0127858
2024,8903;0,0126845
2025,8545;0,0127102
2026,8187;0,0128136
2027,7830;0,0128772
2028,7472;0,0127999
2029,7114;0,0125674
2030,6757;0,0122654
2031,6399;0,0120329
2032,6041;0,0119897
2033,5684;0,0121777
2034,5326;0,0125449
2035,4968;0,012972
2036,4611;0,0133245
2037,4253;0,013503
2038,3895;0,0134753
2039,3538;0,0132825
2040,3180;0,0130178
2041,2822;0,0127821
2042,2465;0,0126371
2043,2107;0,0125821
2044,1749;0,01257
2045,1392;0,0125501
2046,1034;0,0125039
2047,0676;0,0124508
2048,0320;0,0124201
2048,9961;0,0124164
2049,9604;0,0124114
2050,9246;0,0123686
2051,8889;0,0122756
2052,8530;0,0121594
2053,8174;0,0120729
2054,7815;0,0120623
2055,7458;0,012135
2056,7100;0,0122514
2057,6743;0,0123473
2058,6384;0,0123719
2059,6028;0,0123138
2060,5669;0,0122
2061,5313;0,0120716
2062,4954;0,0119574
2063,4597;0,0118623
2064,4238;0,0117761
2065,3882;0,0116913
2066,3523;0,0116126
2067,3167;0,0115519
2068,2808;0,0115165
2069,2451;0,0115035
2070,2092;0,0115062
2071,1736;0,011525
2072,1377;0,0115702
2073,1021;0,0116535
2074,0662;0,0117728
2075,0305;0,0119053
2075,9946;0,0120166
2076,9590;0,0120797
2077,9231;0,0120893
2078,8875;0,0120621
2079,8516;0,0120224
2080,8159;0,0119872
2081,7800;0,0119601
2082,7444;0,0119368
2083,7085;0,0119144
2084,6729;0,0118948
2085,6370;0,0118799
2086,6013;0,0118657
2087,5654;0,0118413
2088,5298;0,0117976
2089,4939;0,0117382
2090,4583;0,0116829
2091,4224;0,0116605
2092,3867;0,0116935
2093,3508;0,0117843
2094,3152;0,0119115
2095,2793;0,0120381
2096,2437;0,0121272
2097,2078;0,0121562
2098,1721;0,0121227
2099,1362;0,0120416
2100,1006;0,0119382
2101,0647;0,0118423
2102,0291;0,0117791
2102,9932;0,0117648
2103,9575;0,0118016
2104,9216;0,0118768
2105,8860;0,011968
2106,8501;0,0120516
2107,8145;0,0121113
2108,7786;0,0121412
2109,7429;0,0121435
2110,7070;0,0121241
2111,6714;0,0120883
2112,6355;0,0120419
2113,5999;0,0119919
2114,5640;0,0119475
2115,5283;0,011917
2116,4924;0,0119051
2117,4568;0,0119102
2118,4209;0,0119263
2119,3853;0,0119455
2120,3494;0,0119609
2121,3137;0,0119675
2122,2778;0,0119611
2123,2422;0,01194
2124,2063;0,0119066
2125,1707;0,0118706
2126,1348;0,011848
2127,0991;0,0118547
2128,0632;0,0118986
2129,0276;0,0119736
2129,9917;0,0120621
2130,9561;0,0121446
2131,9202;0,0122112
2132,8845;0,0122674
2133,8486;0,0123309
2134,8130;0,0124199
2135,7771;0,0125412
2136,7415;0,0126838
2137,7056;0,012824
2138,6699;0,012934
2139,6340;0,0129913
2140,5984;0,0129862
2141,5625;0,0129257
2142,5269;0,0128354
2143,4910;0,0127558
2144,4553;0,0127309
2145,4194;0,0127919
2146,3838;0,0129445
2147,3479;0,0131674
2148,3123;0,0134241
2149,2764;0,0136809
2150,2407;0,0139177
2151,2048;0,0141257
2152,1692;0,0142972
2153,1333;0,014416
2154,0977;0,0144598
2155,0618;0,0144133
2156,0261;0,0142833
2156,9902;0,0141059
2157,9546;0,0139366
2158,9187;0,0138248
2159,8831;0,0137929
2160,8472;0,0138368
2161,8115;0,0139399
2162,7756;0,0140805
2163,7400;0,0142249
2164,7041;0,0143214
2165,6685;0,0143103
2166,6326;0,0141494
2167,5969;0,0138402
2168,5610;0,0134345
2169,5254;0,0130164
2170,4895;0,012672
2171,4539;0,0124637
2172,4180;0,0124188
2173,3823;0,0125318
2174,3464;0,0127709
2175,3108;0,0130828
2176,2749;0,0133974
2177,2393;0,0136377
2178,2034;0,0137401
2179,1677;0,0136766
2180,1318;0,0134678
2181,0962;0,0131738
2182,0603;0,0128661
2183,0247;0,0125966
2183,9888;0,012386
2184,9531;0,0122378
2185,9172;0,0121589
2186,8816;0,0121645
2187,8457;0,0122601
2188,8101;0,0124176
2189,7742;0,0125716
2190,7385;0,0126472
2191,7026;0,0126042
2192,6670;0,0124655
2193,6311;0,0123068
2194,5955;0,0122112
2195,5596;0,012219
2196,5239;0,0123065
2197,4880;0,0124074
2198,4524;0,0124593
2199,4165;0,0124424
2200,3809;0,0123842
2201,3450;0,0123326
2202,3093;0,0123175
2203,2734;0,0123315
2204,2378;0,0123393
2205,2019;0,0123075
2206,1663;0,0122298
2207,1304;0,0121324
2208,0947;0,0120542
2209,0588;0,0120202
2210,0232;0,012024
2210,9873;0,0120335
2211,9517;0,0120122
2212,9158;0,0119443
2213,8801;0,0118444
2214,8442;0,0117487
2215,8086;0,0116945
2216,7727;0,0117019
2217,7371;0,011768
2218,7012;0,0118743
2219,6655;0,0119979
2220,6296;0,0121189
2221,5940;0,0122202
2222,5581;0,0122861
2223,5225;0,0123033
2224,4866;0,0122671
2225,4509;0,0121861
2226,4150;0,0120809
2227,3794;0,0119764
2228,3435;0,0118903
2229,3079;0,0118269
2230,2720;0,0117792
2231,2363;0,0117369
2232,2004;0,0116954
2233,1648;0,0116596
2234,1289;0,0116409
2235,0933;0,0116494
2236,0574;0,011684
2237,0217;0,011729
2237,9858;0,0117574
2238,9502;0,0117438
2239,9143;0,0116786
2240,8787;0,0115757
2241,8428;0,0114673
2242,8071;0,011388
2243,7712;0,0113577
2244,7356;0,0113736
2245,6997;0,0114165
2246,6641;0,0114646
2247,6282;0,0115049
2248,5925;0,0115338
2249,5566;0,011552
2250,5210;0,0115586
2251,4851;0,011552
2252,4495;0,0115337
2253,4136;0,0115101
2254,3779;0,0114869
2255,3420;0,0114616
2256,3064;0,0114228
2257,2705;0,011359
2258,2349;0,0112713
2259,1990;0,0111797
2260,1633;0,0111143
2261,1274;0,0110981
2262,0918;0,0111325
2263,0559;0,0111967
2264,0203;0,0112603
2264,9844;0,0113008
2265,9487;0,0113129
2266,9128;0,0113043
2267,8772;0,0112857
2268,8413;0,0112611
2269,8057;0,0112278
2270,7698;0,0111822
2271,7341;0,0111262
2272,6982;0,0110688
2273,6626;0,0110225
2274,6267;0,0109976
2275,5911;0,0109986
2276,5552;0,0110233
2277,5195;0,0110642
2278,4836;0,0111113
2279,4480;0,0111548
2280,4121;0,0111872
2281,3765;0,0112046
2282,3406;0,0112061
2283,3049;0,0111914
2284,2690;0,0111593
2285,2334;0,011109
2286,1975;0,0110427
2287,1619;0,0109697
2288,1260;0,0109065
2289,0903;0,0108717
2290,0544;0,0108776
2291,0188;0,0109227
2291,9829;0,010992
2292,9473;0,0110638
2293,9114;0,0111215
2294,8757;0,011161
2295,8398;0,0111908
2296,8042;0,0112235
2297,7683;0,0112663
2298,7327;0,0113158
2299,6968;0,0113616
2300,6611;0,0113938
2301,6252;0,0114097
2302,5896;0,011414
2303,5537;0,011414
2304,5181;0,0114149
2305,4822;0,0114183
2306,4465;0,0114251
2307,4106;0,0114391
2308,3750;0,0114665
2309,3391;0,0115127
2310,3035;0,0115764
2311,2676;0,0116493
2312,2319;0,0117198
2313,1960;0,01178
2314,1604;0,0118305
2315,1245;0,0118792
2316,0889;0,0119354
2317,0530;0,0120037
2318,0173;0,01208
2318,9814;0,0121505
2319,9458;0,0121951
2320,9099;0,0121936
2321,8743;0,0121331
2322,8384;0,0120158
2323,8027;0,0118602
2324,7668;0,0116974
2325,7312;0,0115618
2326,6953;0,0114811
2327,6597;0,0114665
2328,6238;0,0115055
2329,5881;0,0115618
2330,5522;0,0115863
2331,5166;0,01154
2332,4807;0,0114133
2333,4451;0,0112288
2334,4092;0,0110248
2335,3735;0,0108356
2336,3376;0,0106793
2337,3020;0,0105574
2338,2661;0,0104629
2339,2305;0,0103886
2340,1946;0,0103336
2341,1589;0,0103068
2342,1230;0,0103279
2343,0874;0,0104153
2344,0515;0,0105568
2345,0159;0,0107025
2345,9800;0,010807
2346,9443;0,0108693
2347,9084;0,0109218
2348,8728;0,0109954
2349,8369;0,0110968
2350,8013;0,0112076
2351,7654;0,0113006
2352,7297;0,0113626
2353,6938;0,0114028
2354,6582;0,0114251
2355,6223;0,0113969
2356,5867;0,0112668
2357,5508;0,0110217
2358,5151;0,0107195
2359,4792;0,0104627
2360,4436;0,0103323
2361,4077;0,0103419
2362,3721;0,0104453
2363,3362;0,010576
2364,3005;0,0106811
2365,2646;0,0107377
2366,2290;0,0107542
2367,1931;0,0107607
2368,1575;0,0107904
2369,1216;0,0108616
2370,0859;0,0109694
2371,0500;0,0110904
2372,0144;0,0111977
2372,9785;0,0112731
2373,9429;0,0113121
2374,9070;0,0113199
2375,8713;0,011305
2376,8354;0,0112747
2377,7998;0,0112343
2378,7639;0,0111883
2379,7283;0,0111408
2380,6924;0,0110957
2381,6567;0,0110555
2382,6208;0,0110216
2383,5852;0,0109953
2384,5493;0,0109773
2385,5137;0,0109684
2386,4778;0,0109677
2387,4421;0,0109729
2388,4063;0,0109805
2389,3706;0,0109877
2390,3347;0,0109933
2391,2991;0,0109971
2392,2632;0,0109988
2393,2275;0,0109971
2394,1917;0,0109916
2395,1560;0,0109857
2396,1201;0,0109872
2397,0845;0,0110052
2398,0486;0,0110436
2399,0129;0,0110977
2399,9771;0,0111543
2400,9414;0,0111984
2401,9055;0,0112214
2402,8699;0,0112243
2403,8340;0,0112155
2404,7983;0,0112044
2405,7625;0,0111963
2406,7268;0,0111922
2407,6909;0,011191
2408,6553;0,0111922
2409,6194;0,0111963
2410,5837;0,0112028
2411,5479;0,0112095
2412,5122;0,0112151
2413,4763;0,0112215
2414,4407;0,0112349
2415,4048;0,0112623
2416,3691;0,0113057
2417,3333;0,0113592
2418,2976;0,0114107
2419,2617;0,011448
2420,2261;0,0114649
2421,1902;0,0114629
2422,1545;0,0114483
2423,1187;0,0114286
2424,0830;0,0114097
2425,0471;0,0113972
2426,0115;0,0113974
2426,9756;0,0114168
2427,9399;0,0114584
2428,9041;0,0115176
2429,8684;0,0115812
2430,8325;0,011632
2431,7969;0,0116556
2432,7610;0,0116479
2433,7253;0,0116161
2434,6895;0,0115755
2435,6538;0,011542
2436,6179;0,0115259
2437,5823;0,0115297
2438,5464;0,0115497
2439,5107;0,0115805
2440,4749;0,0116181
2441,4392;0,01166
2442,4033;0,0117042
2443,3677;0,0117465
2444,3318;0,0117806
2445,2961;0,0117998
2446,2603;0,0118002
2447,2246;0,0117826
2448,1887;0,0117526
2449,1531;0,0117182
2450,1172;0,0116882
2451,0815;0,0116699
2452,0457;0,0116686
2453,0100;0,0116866
2453,9741;0,0117214
2454,9385;0,0117651
2455,9026;0,0118054
2456,8669;0,0118294
2457,8311;0,0118291
2458,7954;0,0118053
2459,7595;0,0117682
2460,7239;0,0117325
2461,6880;0,011712
2462,6523;0,0117144
2463,6165;0,0117394
2464,5808;0,0117803
2465,5449;0,0118272
2466,5093;0,01187
2467,4734;0,0119019
2468,4377;0,0119205
2469,4019;0,0119286
2470,3662;0,0119322
2471,3303;0,0119371
2472,2947;0,0119454
2473,2588;0,011955
2474,2231;0,011961
2475,1873;0,01196
2476,1516;0,0119525
2477,1157;0,0119424
2478,0801;0,0119346
2479,0442;0,0119323
2480,0085;0,0119365
2480,9727;0,0119476
2481,9370;0,0119663
2482,9011;0,0119933
2483,8655;0,0120266
2484,8296;0,01206
2485,7939;0,0120848
2486,7581;0,012094
2487,7224;0,0120866
2488,6865;0,012069
2489,6509;0,0120527
2490,6150;0,0120486
2491,5793;0,0120617
2492,5435;0,0120885
2493,5078;0,0121179
2494,4719;0,0121356
2495,4363;0,0121298
2496,4004;0,0120974
2497,3647;0,012047
2498,3289;0,0119965
2499,2932;0,0119663
2500,2573;0,0119697
2501,2217;0,012006
2502,1858;0,0120608
2503,1501;0,0121132
2504,1143;0,0121468
2505,0786;0,0121566
2506,0427;0,0121494
2507,0071;0,0121369
2507,9712;0,0121284
2508,9355;0,0121258
2509,8997;0,0121261
2510,8640;0,0121257
2511,8281;0,0121251
2512,7925;0,0121279
2513,7566;0,0121377
2514,7209;0,0121533
2515,6851;0,0121689
2516,6494;0,012177
2517,6135;0,0121745
2518,5779;0,0121653
2519,5420;0,0121588
2520,5063;0,0121636
2521,4705;0,0121821
2522,4348;0,0122087
2523,3989;0,0122324
2524,3633;0,0122437
2525,3274;0,0122394
2526,2917;0,0122242
2527,2559;0,0122079
2528,2202;0,0121995
2529,1843;0,012204
2530,1487;0,0122212
2531,1128;0,0122473
2532,0771;0,0122786
2533,0413;0,0123125
2534,0056;0,0123481
2534,9697;0,0123834
2535,9341;0,0124142
2536,8982;0,0124337
2537,8625;0,0124353
2538,8267;0,0124166
2539,7910;0,0123819
2540,7551;0,012342
2541,7195;0,0123099
2542,6836;0,0122952
2543,6479;0,0123
2544,6121;0,0123182
2545,5764;0,0123394
2546,5405;0,0123536
2547,5049;0,0123561
2548,4690;0,0123484
2549,4333;0,0123363
2550,3975;0,0123266
2551,3618;0,0123233
2552,3259;0,0123261
2553,2903;0,0123305
2554,2544;0,0123318
2555,2188;0,0123286
2556,1829;0,0123257
2557,1472;0,0123319
2558,1113;0,0123539
2559,0757;0,0123906
2560,0398;0,01243
2561,0042;0,0124543
2561,9683;0,0124494
2562,9326;0,0124138
2563,8967;0,0123599
2564,8611;0,0123082
2565,8252;0,0122753
2566,7896;0,0122665
2567,7537;0,0122752
2568,7180;0,0122898
2569,6821;0,0123019
2570,6465;0,0123102
2571,6106;0,0123178
2572,5750;0,0123276
2573,5391;0,0123382
2574,5034;0,0123455
2575,4675;0,0123469
2576,4319;0,0123438
2577,3960;0,0123418
2578,3604;0,0123472
2579,3245;0,0123629
2580,2888;0,012387
2581,2529;0,012414
2582,2173;0,0124374
2583,1814;0,0124519
2584,1458;0,0124552
2585,1099;0,0124492
2586,0742;0,0124401
2587,0383;0,0124365
2588,0027;0,0124464
2588,9668;0,0124721
2589,9312;0,0125078
2590,8953;0,0125421
2591,8596;0,0125642
2592,8237;0,01257
2593,7881;0,0125647
2594,7522;0,0125595
2595,7166;0,012564
2596,6807;0,0125811
2597,6450;0,0126063
2598,6091;0,0126313
2599,5735;0,0126495
2600,5376;0,0126583
2601,5020;0,0126583
2602,4661;0,0126521
2603,4304;0,0126424
2604,3945;0,0126328
2605,3589;0,0126279
2606,3230;0,0126313
2607,2874;0,0126436
2608,2515;0,0126611
2609,2158;0,0126768
2610,1799;0,0126847
2611,1443;0,0126833
2612,1084;0,0126763
2613,0728;0,0126709
2614,0369;0,0126737
2615,0012;0,0126884
2615,9653;0,0127151
2616,9297;0,0127508
2617,8938;0,0127908
2618,8582;0,0128292
2619,8223;0,01286
2620,7866;0,0128779
2621,7507;0,0128801
2622,7151;0,0128671
2623,6792;0,012843
2624,6436;0,0128148
2625,6077;0,0127908
2626,5720;0,012779
2627,5361;0,0127853
2628,5005;0,0128116
2629,4646;0,012854
2630,4290;0,0129035
2631,3931;0,0129479
2632,3574;0,0129764
2633,3215;0,0129833
2634,2859;0,0129713
2635,2500;0,0129496
2636,2144;0,0129303
2637,1785;0,0129233
2638,1428;0,0129323
2639,1069;0,0129552
2640,0713;0,0129853
2641,0354;0,013016
2641,9998;0,0130427
2642,9639;0,0130639
2643,9282;0,0130797
2644,8923;0,0130908
2645,8567;0,0130975
2646,8208;0,0131003
2647,7852;0,0131008
2648,7493;0,0131012
2649,7136;0,0131041
2650,6777;0,0131108
2651,6421;0,013121
2652,6062;0,0131333
2653,5706;0,0131457
2654,5347;0,0131571
2655,4990;0,013167
2656,4631;0,0131763
2657,4275;0,0131861
2658,3916;0,0131973
2659,3560;0,0132102
2660,3201;0,0132235
2661,2844;0,0132353
2662,2485;0,0132433
2663,2129;0,0132466
2664,1770;0,0132468
2665,1414;0,0132478
2666,1055;0,0132535
2667,0698;0,0132654
2668,0339;0,0132812
2668,9983;0,0132949
2669,9624;0,0133011
2670,9268;0,013298
2671,8909;0,0132897
2672,8552;0,0132846
2673,8193;0,0132904
2674,7837;0,0133097
2675,7478;0,0133386
2676,7122;0,0133682
2677,6763;0,0133904
2678,6406;0,0134022
2679,6047;0,0134072
2680,5691;0,0134126
2681,5332;0,0134247
2682,4976;0,013445
2683,4617;0,01347
2684,4260;0,013494
2685,3901;0,0135126
2686,3545;0,0135248
2687,3186;0,013533
2688,2830;0,0135406
2689,2471;0,0135503
2690,2114;0,013563
2691,1755;0,0135785
2692,1399;0,0135959
2693,1040;0,0136136
2694,0684;0,0136302
2695,0325;0,013644
2695,9968;0,0136546
2696,9609;0,0136632
2697,9253;0,0136727
2698,8894;0,0136858
2699,8538;0,0137044
2700,8179;0,0137274
2701,7822;0,0137518
2702,7463;0,0137736
2703,7107;0,01379
2704,6748;0,0138002
2705,6392;0,013806
2706,6033;0,0138109
2707,5676;0,0138182
2708,5317;0,0138306
2709,4961;0,0138488
2710,4602;0,0138722
2711,4246;0,0138989
2712,3887;0,013927
2713,3530;0,0139543
2714,3171;0,0139784
2715,2815;0,0139978
2716,2456;0,0140113
2717,2100;0,0140193
2718,1741;0,0140234
2719,1384;0,0140261
2720,1025;0,0140294
2721,0669;0,0140346
2722,0310;0,0140422
2722,9954;0,0140527
2723,9595;0,014067
2724,9238;0,0140856
2725,8879;0,0141085
2726,8523;0,0141342
2727,8164;0,0141604
2728,7808;0,0141854
2729,7449;0,0142084
2730,7092;0,0142293
2731,6733;0,0142475
2732,6377;0,0142609
2733,6018;0,0142665
2734,5662;0,0142626
2735,5303;0,0142504
2736,4946;0,0142348
2737,4587;0,0142228
2738,4231;0,0142206
2739,3872;0,0142314
2740,3516;0,0142541
2741,3157;0,0142846
2742,2800;0,0143164
2743,2441;0,0143426
2744,2085;0,0143574
2745,1726;0,0143582
2746,1370;0,014347
2747,1011;0,0143302
2748,0654;0,0143174
2749,0295;0,014317
2749,9939;0,0143332
2750,9580;0,0143644
2751,9224;0,0144037
2752,8865;0,0144423
2753,8508;0,0144731
2754,8149;0,0144924
2755,7793;0,0145008
2756,7434;0,0145019
2757,7078;0,0145002
2758,6719;0,0145
2759,6362;0,0145042
2760,6003;0,0145137
2761,5647;0,0145276
2762,5288;0,0145443
2763,4932;0,0145622
2764,4573;0,0145808
2765,4216;0,0146009
2766,3857;0,0146235
2767,3501;0,0146491
2768,3142;0,0146756
2769,2786;0,0146993
2770,2427;0,0147157
2771,2070;0,0147221
2772,1711;0,0147197
2773,1355;0,0147137
2774,0996;0,0147119
2775,0640;0,0147209
2776,0281;0,0147433
2776,9924;0,0147762
2777,9565;0,0148133
2778,9209;0,0148482
2779,8850;0,0148775
2780,8494;0,0149024
2781,8135;0,0149267
2782,7778;0,0149539
2783,7419;0,0149843
2784,7063;0,0150143
2785,6704;0,0150385
2786,6348;0,0150529
2787,5989;0,0150578
2788,5632;0,0150582
2789,5273;0,0150619
2790,4917;0,0150764
2791,4558;0,0151056
2792,4202;0,0151486
2793,3843;0,0152002
2794,3486;0,0152537
2795,3127;0,0153028
2796,2771;0,0153435
2797,2412;0,0153751
2798,2056;0,015399
2799,1697;0,0154191
2800,1340;0,0154405
2801,0981;0,0154685
2802,0625;0,0155072
2803,0266;0,0155574
2803,9910;0,0156157
2804,9551;0,0156754
2805,9194;0,0157288
2806,8835;0,0157711
2807,8479;0,0158031
2808,8120;0,0158305
2809,7764;0,0158619
2810,7405;0,015904
2811,7048;0,0159593
2812,6689;0,0160252
2813,6333;0,0160964
2814,5974;0,016168
2815,5618;0,0162377
2816,5259;0,0163052
2817,4902;0,0163714
2818,4543;0,0164366
2819,4187;0,0165009
2820,3828;0,0165643
2821,3472;0,0166278
2822,3113;0,0166931
2823,2756;0,0167623
2824,2397;0,0168379
2825,2041;0,016922
2826,1682;0,0170163
2827,1326;0,017121
2828,0967;0,0172338
2829,0610;0,0173494
2830,0251;0,017462
2830,9895;0,0175685
2831,9536;0,0176707
2832,9180;0,0177755
2833,8821;0,0178902
2834,8464;0,0180183
2835,8105;0,0181576
2836,7749;0,0183019
2837,7390;0,0184465
2838,7034;0,0185921
2839,6675;0,0187447
2840,6318;0,0189119
2841,5959;0,0190983
2842,5603;0,0193031
2843,5244;0,0195209
2844,4888;0,0197444
2845,4529;0,0199666
2846,4172;0,0201806
2847,3813;0,0203786
2848,3457;0,0205516
2849,3098;0,020691
2850,2742;0,0207907
2851,2383;0,0208495
2852,2026;0,0208709
2853,1667;0,0208623
2854,1311;0,0208326
2855,0952;0,0207916
2856,0596;0,0207484
2857,0237;0,0207109
2857,9880;0,020685
2858,9521;0,0206747
2859,9165;0,0206829
2860,8806;0,0207112
2861,8450;0,0207602
2862,8091;0,020828
2863,7734;0,0209096
2864,7375;0,0209976
2865,7019;0,0210842
2866,6660;0,021164
2867,6304;0,0212357
2868,5945;0,0213014
2869,5588;0,0213639
2870,5229;0,0214243
2871,4873;0,0214813
2872,4514;0,0215324
2873,4158;0,0215748
2874,3799;0,0216075
2875,3442;0,0216315
2876,3083;0,0216493
2877,2727;0,0216653
2878,2368;0,021685
2879,2012;0,0217131
2880,1653;0,0217523
2881,1296;0,0218011
2882,0938;0,0218542
2883,0581;0,0219047
2884,0222;0,0219475
2884,9866;0,0219818
2885,9507;0,0220107
2886,9150;0,0220393
2887,8792;0,0220714
2888,8435;0,0221084
2889,8076;0,0221488
2890,7720;0,0221901
2891,7361;0,0222298
2892,7004;0,0222661
2893,6646;0,0222987
2894,6289;0,0223295
2895,5930;0,0223622
2896,5574;0,0224013
2897,5215;0,0224492
2898,4858;0,022504
2899,4500;0,0225593
2900,4143;0,022607
2901,3784;0,0226423
2902,3428;0,0226668
2903,3069;0,0226877
2904,2712;0,0227142
2905,2354;0,0227526
2906,1997;0,0228043
2907,1638;0,0228671
2908,1282;0,0229393
2909,0923;0,0230216
2910,0566;0,0231167
2911,0208;0,0232265
2911,9851;0,0233488
2912,9492;0,0234773
2913,9136;0,0236034
2914,8777;0,0237179
2915,8420;0,0238133
2916,8062;0,0238824
2917,7705;0,0239191
2918,7346;0,0239193
2919,6990;0,0238828
2920,6631;0,0238154
2921,6274;0,0237275
2922,5916;0,0236302
2923,5559;0,0235313
2924,5200;0,023432
2925,4844;0,0233288
2926,4485;0,0232167
2927,4128;0,0230942
2928,3770;0,0229649
2929,3413;0,022836
2930,3054;0,0227145
2931,2698;0,0226041
2932,2339;0,0225036
2933,1982;0,0224089
2934,1624;0,0223155
2935,1267;0,0222198
2936,0908;0,0221195
2937,0552;0,0220118
2938,0193;0,0218932
2938,9836;0,0217605
2939,9478;0,0216136
2940,9121;0,0214573
2941,8762;0,0213005
2942,8406;0,0211527
2943,8047;0,0210195
2944,7690;0,0209
2945,7332;0,0207881
2946,6975;0,0206773
2947,6616;0,0205643
2948,6260;0,020451
2949,5901;0,020342
2950,5544;0,0202411
2951,5186;0,0201484
2952,4829;0,020061
2953,4470;0,0199752
2954,4114;0,0198886
2955,3755;0,0198015
2956,3398;0,0197153
2957,3040;0,0196309
2958,2683;0,0195478
2959,2324;0,0194639
2960,1968;0,0193764
2961,1609;0,0192833
2962,1252;0,0191846
2963,0894;0,0190828
2964,0537;0,0189824
2965,0178;0,0188885
2965,9822;0,0188031
2966,9463;0,0187239
2967,9106;0,018644
2968,8748;0,018556
2969,8391;0,0184559
2970,8032;0,0183464
2971,7676;0,0182352
2972,7317;0,0181311
2973,6960;0,0180388
2974,6602;0,0179573
2975,6245;0,0178818
2976,5886;0,0178078
2977,5530;0,0177347
2978,5171;0,0176657
2979,4814;0,0176045
2980,4456;0,0175525
2981,4099;0,0175067
2982,3740;0,0174615
2983,3384;0,0174123
2984,3025;0,0173586
2985,2668;0,0173041
2986,2310;0,0172546
2987,1953;0,0172143
2988,1594;0,0171837
2989,1238;0,0171588
2990,0879;0,0171345
2991,0522;0,017108
2992,0164;0,0170814
2992,9807;0,0170607
2993,9448;0,0170526
2994,9092;0,0170603
2995,8733;0,017082
2996,8376;0,0171111
2997,8018;0,01714
2998,7661;0,0171628
2999,7302;0,0171774
3000,6946;0,0171846
3001,6587;0,0171869
3002,6230;0,0171865
3003,5872;0,0171844
3004,5515;0,0171804
3005,5156;0,0171736
3006,4800;0,0171636
3007,4441;0,0171518
3008,4084;0,0171418
3009,3726;0,0171394
3010,3369;0,0171495
3011,3010;0,0171734
3012,2654;0,0172071
3013,2295;0,0172429
3014,1938;0,0172732
3015,1580;0,017295
3016,1223;0,0173115
3017,0864;0,0173307
3018,0508;0,0173603
3019,0149;0,0174029
3019,9792;0,0174545
3020,9434;0,0175066
3021,9077;0,0175506
3022,8718;0,0175826
3023,8362;0,0176041
3024,8003;0,0176208
3025,7646;0,0176385
3026,7288;0,0176603
3027,6931;0,0176858
3028,6572;0,0177133
3029,6216;0,0177421
3030,5857;0,0177729
3031,5500;0,0178076
3032,5142;0,017847
3033,4785;0,0178905
3034,4426;0,0179367
3035,4070;0,0179845
3036,3711;0,0180339
3037,3354;0,0180852
3038,2996;0,0181377
3039,2639;0,0181897
3040,2280;0,0182393
3041,1924;0,018286
3042,1565;0,0183313
3043,1208;0,0183777
3044,0850;0,0184269
3045,0493;0,0184792
3046,0134;0,0185329
3046,9778;0,0185861
3047,9419;0,0186377
3048,9063;0,0186878
3049,8704;0,0187376
3050,8347;0,0187893
3051,7988;0,0188445
3052,7632;0,0189045
3053,7273;0,0189687
3054,6917;0,0190349
3055,6558;0,0191004
3056,6201;0,0191639
3057,5842;0,0192261
3058,5486;0,0192896
3059,5127;0,0193563
3060,4771;0,0194252
3061,4412;0,0194921
3062,4055;0,0195521
3063,3696;0,0196025
3064,3340;0,0196452
3065,2981;0,0196855
3066,2625;0,0197297
3067,2266;0,0197819
3068,1909;0,0198441
3069,1550;0,0199161
3070,1194;0,0199965
3071,0835;0,0200829
3072,0479;0,0201707
3073,0120;0,0202536
3073,9763;0,020326
3074,9404;0,020385
3075,9048;0,020432
3076,8689;0,0204713
3077,8333;0,0205077
3078,7974;0,0205449
3079,7617;0,0205855
3080,7258;0,0206329
3081,6902;0,0206916
3082,6543;0,0207653
3083,6187;0,0208536
3084,5828;0,0209501
3085,5471;0,0210444
3086,5112;0,0211271
3087,4756;0,0211951
3088,4397;0,0212528
3089,4041;0,0213087
3090,3682;0,0213697
3091,3325;0,0214369
3092,2966;0,0215063
3093,2610;0,0215726
3094,2251;0,0216333
3095,1895;0,0216908
3096,1536;0,0217496
3097,1179;0,0218133
3098,0820;0,0218813
3099,0464;0,0219498
3100,0105;0,0220145
3100,9749;0,0220734
3101,9390;0,0221285
3102,9033;0,0221844
3103,8674;0,0222463
3104,8318;0,0223165
3105,7959;0,0223942
3106,7603;0,0224754
3107,7244;0,0225552
3108,6887;0,0226295
3109,6528;0,0226971
3110,6172;0,0227603
3111,5813;0,0228239
3112,5457;0,0228931
3113,5098;0,0229719
3114,4741;0,0230604
3115,4382;0,023155
3116,4026;0,0232491
3117,3667;0,0233355
3118,3311;0,0234098
3119,2952;0,0234727
3120,2595;0,0235297
3121,2236;0,0235892
3122,1880;0,023659
3123,1521;0,0237429
3124,1165;0,02384
3125,0806;0,0239455
3126,0449;0,0240531
3127,0090;0,0241567
3127,9734;0,0242517
3128,9375;0,0243352
3129,9019;0,0244068
3130,8660;0,024469
3131,8303;0,0245276
3132,7944;0,02459
3133,7588;0,0246628
3134,7229;0,0247486
3135,6873;0,0248456
3136,6514;0,0249485
3137,6157;0,0250514
3138,5798;0,02515
3139,5442;0,0252425
3140,5083;0,0253295
3141,4727;0,0254131
3142,4368;0,0254956
3143,4011;0,0255783
3144,3652;0,0256614
3145,3296;0,0257435
3146,2937;0,0258233
3147,2581;0,0259006
3148,2222;0,0259772
3149,1865;0,0260564
3150,1506;0,0261414
3151,1150;0,0262339
3152,0791;0,0263336
3153,0435;0,0264394
3154,0076;0,02655
3154,9719;0,0266638
3155,9360;0,0267776
3156,9004;0,0268855
3157,8645;0,02698
3158,8289;0,0270559
3159,7930;0,0271138
3160,7573;0,0271617
3161,7214;0,0272118
3162,6858;0,0272744
3163,6499;0,0273536
3164,6143;0,0274463
3165,5784;0,0275462
3166,5427;0,0276482
3167,5068;0,0277514
3168,4712;0,0278575
3169,4353;0,0279635
3170,3997;0,0280764
3171,3638;0,028187
3172,3281;0,0282904
3173,2922;0,0283837
3174,2566;0,0284678
3175,2207;0,0285457
3176,1851;0,0286223
3177,1492;0,0287032
3178,1135;0,0287931
3179,0776;0,0288947
3180,0420;0,0290063
3181,0061;0,0291213
3181,9705;0,0292307
3182,9346;0,0293278
3183,8989;0,0294114
3184,8630;0,0294866
3185,8274;0,0295607
3186,7915;0,0296385
3187,7559;0,0297189
3188,7200;0,0297975
3189,6843;0,0298715
3190,6484;0,0299433
3191,6128;0,0300201
3192,5769;0,0301093
3193,5413;0,0302134
3194,5054;0,0303275
3195,4697;0,0304417
3196,4338;0,0305457
3197,3982;0,030633
3198,3623;0,0307031
3199,3267;0,0307605
3200,2908;0,0308125
3201,2551;0,0308667
3202,2192;0,0309296
3203,1836;0,0310052
3204,1477;0,0310946
3205,1121;0,0311944
3206,0762;0,0312981
3207,0405;0,0313971
3208,0046;0,0314843
3208,9690;0,0315567
3209,9331;0,0316169
3210,8975;0,0316726
3211,8616;0,0317331
3212,8259;0,0318059
3213,7900;0,031893
3214,7544;0,0319914
3215,7185;0,0320939
3216,6829;0,0321934
3217,6470;0,0322847
3218,6113;0,0323666
3219,5754;0,0324407
3220,5398;0,0325109
3221,5039;0,0325815
3222,4683;0,0326563
3223,4324;0,0327369
3224,3967;0,0328224
3225,3608;0,0329094
3226,3252;0,0329938
3227,2893;0,0330733
3228,2537;0,0331482
3229,2178;0,0332211
3230,1821;0,033295
3231,1462;0,0333706
3232,1106;0,0334466
3233,0747;0,0335202
3234,0391;0,03359
3235,0032;0,0336566
3235,9675;0,0337229
3236,9316;0,0337914
3237,8960;0,0338633
3238,8601;0,0339374
3239,8245;0,0340113
3240,7886;0,0340834
3241,7529;0,0341536
3242,7170;0,0342239
3243,6814;0,0342969
3244,6455;0,034374
3245,6099;0,0344543
3246,5740;0,0345351
3247,5383;0,0346135
3248,5024;0,034688
3249,4668;0,034759
3250,4309;0,0348286
3251,3953;0,0348987
3252,3594;0,0349711
3253,3237;0,0350466
3254,2878;0,0351259
3255,2522;0,0352094
3256,2163;0,0352961
3257,1807;0,0353837
3258,1448;0,0354688
3259,1091;0,0355489
3260,0732;0,035624
3261,0376;0,0356962
3262,0017;0,0357683
3262,9661;0,035842
3263,9302;0,0359166
3264,8945;0,0359899
3265,8586;0,0360601
3266,8230;0,0361265
3267,7871;0,036189
3268,7515;0,0362468
3269,7156;0,0362981
3270,6799;0,0363415
3271,6440;0,0363778
3272,6084;0,036411
3273,5725;0,0364474
3274,5369;0,0364922
3275,5010;0,0365469
3276,4653;0,0366083
3277,4294;0,0366701
3278,3938;0,0367264
3279,3579;0,0367738
3280,3223;0,0368133
3281,2864;0,036849
3282,2507;0,0368851
3283,2148;0,0369232
3284,1792;0,0369608
3285,1433;0,0369931
3286,1077;0,0370163
3287,0718;0,0370304
3288,0361;0,0370407
3289,0002;0,0370542
3289,9646;0,0370757
3290,9287;0,0371041
3291,8931;0,0371329
3292,8572;0,0371539
3293,8215;0,0371628
3294,7856;0,0371617
3295,7500;0,0371584
3296,7141;0,0371617
3297,6785;0,0371755
3298,6426;0,0371974
3299,6069;0,0372196
3300,5710;0,0372344
3301,5354;0,0372388
3302,4995;0,0372363
3303,4639;0,0372353
3304,4280;0,037244
3305,3923;0,0372666
3306,3564;0,0373011
3307,3208;0,0373411
3308,2849;0,037379
3309,2493;0,0374094
3310,2134;0,0374298
3311,1777;0,0374408
3312,1418;0,037445
3313,1062;0,0374464
3314,0703;0,0374494
3315,0347;0,0374585
3315,9988;0,0374769
3316,9631;0,0375051
3317,9272;0,0375416
3318,8916;0,0375832
3319,8557;0,0376267
3320,8201;0,0376692
3321,7842;0,0377082
3322,7485;0,0377411
3323,7126;0,0377661
3324,6770;0,037783
3325,6411;0,0377942
3326,6055;0,037804
3327,5696;0,0378172
3328,5339;0,0378366
3329,4980;0,0378616
3330,4624;0,0378889
3331,4265;0,0379132
3332,3909;0,0379297
3333,3550;0,0379355
3334,3193;0,0379311
3335,2834;0,0379203
3336,2478;0,0379086
3337,2119;0,0379003
3338,1763;0,0378952
3339,1404;0,0378877
3340,1047;0,0378693
3341,0688;0,0378339
3342,0332;0,0377815
3342,9973;0,0377198
3343,9617;0,0376607
3344,9258;0,0376138
3345,8901;0,0375817
3346,8542;0,0375589
3347,8186;0,037535
3348,7827;0,0375006
3349,7471;0,0374522
3350,7112;0,0373933
3351,6755;0,0373317
3352,6396;0,0372749
3353,6040;0,0372262
3354,5681;0,0371838
3355,5325;0,0371417
3356,4966;0,0370943
3357,4609;0,0370388
3358,4250;0,0369769
3359,3894;0,0369139
3360,3535;0,0368556
3361,3179;0,0368057
3362,2820;0,0367644
3363,2463;0,0367286
3364,2104;0,0366935
3365,1748;0,0366538
3366,1389;0,0366054
3367,1033;0,0365463
3368,0674;0,0364766
3369,0317;0,036399
3369,9958;0,0363181
3370,9602;0,0362389
3371,9243;0,0361651
3372,8887;0,0360971
3373,8528;0,0360326
3374,8171;0,0359681
3375,7813;0,0359015
3376,7456;0,0358342
3377,7097;0,0357703
3378,6741;0,0357143
3379,6382;0,0356677
3380,6025;0,035627
3381,5667;0,0355855
3382,5310;0,0355369
3383,4951;0,0354788
3384,4595;0,0354146
3385,4236;0,0353506
3386,3879;0,0352918
3387,3521;0,0352379
3388,3164;0,035183
3389,2805;0,0351196
3390,2449;0,0350433
3391,2090;0,0349574
3392,1733;0,0348719
3393,1375;0,0347985
3394,1018;0,0347442
3395,0659;0,0347069
3396,0303;0,0346766
3396,9944;0,0346412
3397,9587;0,034592
3398,9229;0,0345277
3399,8872;0,0344536
3400,8513;0,0343777
3401,8157;0,0343063
3402,7798;0,0342409
3403,7441;0,0341776
3404,7083;0,0341094
3405,6726;0,034029
3406,6367;0,033933
3407,6011;0,0338236
3408,5652;0,0337089
3409,5295;0,0335987
3410,4937;0,0334997
3411,4580;0,0334124
3412,4221;0,033331
3413,3865;0,0332479
3414,3506;0,0331588
3415,3149;0,033065
3416,2791;0,0329714
3417,2434;0,0328826
3418,2075;0,0327995
3419,1719;0,0327194
3420,1360;0,0326389
3421,1003;0,0325563
3422,0645;0,0324728
3423,0288;0,03239
3423,9929;0,0323085
3424,9573;0,0322276
3425,9214;0,0321464
3426,8857;0,0320654
3427,8499;0,0319859
3428,8142;0,0319078
3429,7783;0,0318289
3430,7427;0,0317458
3431,7068;0,0316559
3432,6711;0,0315594
3433,6353;0,0314584
3434,5996;0,0313548
3435,5637;0,0312486
3436,5281;0,0311387
3437,4922;0,0310255
3438,4565;0,030912
3439,4207;0,0308025
3440,3850;0,0306994
3441,3491;0,0305996
3442,3135;0,0304956
3443,2776;0,0303796
3444,2419;0,0302494
3445,2061;0,030111
3446,1704;0,029977
3447,1345;0,0298589
3448,0989;0,0297607
3449,0630;0,0296772
3450,0273;0,0295979
3450,9915;0,0295133
3451,9558;0,0294188
3452,9199;0,0293149
3453,8843;0,0292049
3454,8484;0,0290921
3455,8127;0,0289777
3456,7769;0,0288608
3457,7412;0,0287406
3458,7053;0,0286177
3459,6697;0,0284954
3460,6338;0,0283786
3461,5981;0,0282715
3462,5623;0,0281751
3463,5266;0,0280856
3464,4907;0,0279951
3465,4551;0,027895
3466,4192;0,0277798
3467,3835;0,0276498
3468,3477;0,0275116
3469,3120;0,0273747
3470,2761;0,0272474
3471,2405;0,0271332
3472,2046;0,0270307
3473,1689;0,0269362
3474,1331;0,0268461
3475,0974;0,0267584
3476,0615;0,0266713
3477,0259;0,026581
3477,9900;0,0264816
3478,9543;0,0263679
3479,9185;0,02624
3480,8828;0,0261059
3481,8469;0,0259784
3482,8113;0,025867
3483,7754;0,0257713
3484,7397;0,0256808
3485,7039;0,0255821
3486,6682;0,0254676
3487,6323;0,0253412
3488,5967;0,0252163
3489,5608;0,0251066
3490,5251;0,0250166
3491,4893;0,0249384
3492,4536;0,0248574
3493,4177;0,0247608
3494,3821;0,0246458
3495,3462;0,0245219
3496,3105;0,0244043
3497,2747;0,0243035
3498,2390;0,0242184
3499,2031;0,0241363
3500,1675;0,0240405
3501,1316;0,0239208
3502,0959;0,0237815
3503,0601;0,0236399
3504,0244;0,0235151
3504,9885;0,0234142
3505,9529;0,0233283
3506,9170;0,023239
3507,8813;0,0231304
3508,8455;0,0229989
3509,8098;0,0228564
3510,7739;0,0227229
3511,7383;0,0226126
3512,7024;0,0225265
3513,6667;0,0224548
3514,6309;0,0223849
3515,5952;0,0223098
3516,5593;0,0222297
3517,5237;0,0221482
3518,4878;0,0220663
3519,4521;0,0219805
3520,4163;0,0218852
3521,3806;0,0217789
3522,3447;0,0216659
3523,3091;0,0215529
3524,2732;0,0214421
3525,2375;0,0213277
3526,2017;0,0211995
3527,1660;0,0210537
3528,1301;0,0208989
3529,0945;0,0207538
3530,0586;0,0206359
3531,0229;0,0205513
3531,9871;0,0204912
3532,9514;0,020438
3533,9155;0,0203742
3534,8799;0,02029
3535,8440;0,0201876
3536,8083;0,02008
3537,7725;0,0199833
3538,7368;0,0199084
3539,7009;0,0198552
3540,6653;0,0198113
3541,6294;0,0197552
3542,5938;0,0196632
3543,5579;0,0195227
3544,5222;0,0193434
3545,4863;0,0191587
3546,4507;0,0190057
3547,4148;0,0189021
3548,3792;0,0188378
3549,3433;0,0187855
3550,3076;0,0187171
3551,2717;0,0186183
3552,2361;0,0184949
3553,2002;0,018368
3554,1646;0,0182582
3555,1287;0,0181723
3556,0930;0,0181021
3557,0571;0,0180333
3558,0215;0,0179578
3558,9856;0,0178814
3559,9500;0,0178209
3560,9141;0,0177904
3561,8784;0,0177852
3562,8425;0,0177741
3563,8069;0,017705
3564,7710;0,0175281
3565,7354;0,0172376
3566,6995;0,0169031
3567,6638;0,01663
3568,6279;0,0164748
3569,5923;0,0164194
3570,5564;0,0164125
3571,5208;0,016407
3572,4849;0,016374
3573,4492;0,016304
3574,4133;0,0162033
3575,3777;0,0160858
3576,3418;0,0159632
3577,3062;0,0158413
3578,2703;0,0157267
3579,2346;0,0156329
3580,1987;0,0155785
3581,1631;0,0155747
3582,1272;0,0156122
3583,0916;0,0156543
3584,0557;0,0156429
3585,0200;0,0155189
3585,9841;0,0152648
3586,9485;0,0149432
3587,9126;0,014669
3588,8770;0,0145176
3589,8411;0,0144795
3590,8054;0,0144947
3591,7695;0,0144985
3592,7339;0,0144468
3593,6980;0,0143299
3594,6624;0,0141734
3595,6265;0,0140161
3596,5908;0,0138779
3597,5549;0,0137509
3598,5193;0,0136197
3599,4834;0,0134863
3600,4478;0,0133769
3601,4119;0,0133216
3602,3762;0,0133276
3603,3403;0,0133707
3604,3047;0,013408
3605,2688;0,0133998
3606,2332;0,0133304
3607,1973;0,0132189
3608,1616;0,013105
3609,1257;0,0130156
3610,0901;0,0129456
3611,0542;0,0128731
3612,0186;0,0127877
3612,9827;0,0127009
3613,9470;0,0126319
3614,9111;0,0125812
3615,8755;0,0125169
3616,8396;0,0123873
3617,8040;0,0121591
3618,7681;0,0118619
3619,7324;0,0115924
3620,6965;0,0114514
3621,6609;0,0114786
3622,6250;0,0116483
3623,5894;0,0119
3624,5535;0,0121522
3625,5178;0,0122999
3626,4819;0,0122272
3627,4463;0,0118794
3628,4104;0,0113647
3629,3748;0,0109106
3630,3389;0,0106539
3631,3032;0,0105673
3632,2673;0,0105629
3633,2317;0,0105747
3634,1958;0,0105746
3635,1602;0,0105622
3636,1243;0,0105482
3637,0886;0,010539
3638,0527;0,0105306
3639,0171;0,010517
3639,9812;0,0105039
3640,9456;0,0105141
3641,9097;0,0105783
3642,8740;0,0107149
3643,8381;0,0109102
3644,8025;0,0111036
3645,7666;0,0111795
3646,7310;0,0109892
3647,6951;0,0104635
3648,6594;0,00978527
3649,6235;0,0093041
3650,5879;0,00916803
3651,5520;0,00926405
3652,5164;0,00943032
3653,4805;0,00955547
3654,4448;0,00957889
3655,4089;0,00949212
3656,3733;0,00934389
3657,3374;0,00920944
3658,3018;0,00913422
3659,2659;0,0091127
3660,2302;0,00911607
3661,1943;0,00912875
3662,1587;0,00916429
3663,1228;0,00925332
3664,0872;0,00941304
3665,0513;0,00962043
3666,0156;0,00980751
3666,9797;0,00988201
3667,9441;0,00978088
3668,9082;0,00954283
3669,8726;0,00931125
3670,8367;0,00921024
3671,8010;0,00923392
3672,7651;0,00926861
3673,7295;0,0091808
3674,6936;0,00891417
3675,6580;0,00855742
3676,6221;0,00827534
3677,5864;0,00815001
3678,5505;0,00814965
3679,5149;0,00821127
3680,4790;0,00829664
3681,4434;0,00840015
3682,4075;0,00853519
3683,3718;0,00871209
3684,3359;0,00891607
3685,3003;0,009094
3686,2644;0,00915751
3687,2288;0,00901838
3688,1929;0,00866874
3689,1572;0,0082435
3690,1213;0,00793364
3691,0857;0,00781987
3692,0498;0,00785441
3693,0142;0,0079572
3693,9783;0,00807532
3694,9426;0,00818785
3695,9067;0,00829119
3696,8711;0,00838213
3697,8352;0,00844586
3698,7996;0,00845609
3699,7637;0,0083917
3700,7280;0,00826332
3701,6921;0,00812599
3702,6565;0,00805361
3703,6206;0,00809289
3704,5850;0,00824149
3705,5491;0,00845812
3706,5134;0,00867783
3707,4775;0,00881991
3708,4419;0,00880328
3709,4060;0,00859255
3710,3704;0,00826016
3711,3345;0,00796917
3712,2988;0,00783964
3713,2629;0,00786874
3714,2273;0,00798905
3715,1914;0,00813904
3716,1558;0,00827967
3717,1199;0,00838755
3718,0842;0,00845093
3719,0483;0,00847032
3720,0127;0,00845562
3720,9768;0,00841681
3721,9412;0,00835665
3722,9053;0,0082755
3723,8696;0,00818545
3724,8337;0,0081173
3725,7981;0,00810813
3726,7622;0,00817912
3727,7266;0,00832498
3728,6907;0,00851868
3729,6550;0,00871835
3730,6191;0,0088692
3731,5835;0,00890632
3732,5476;0,0087738
3733,5120;0,00847235
3734,4761;0,00810616
3735,4404;0,00784267
3736,4045;0,00778644
3737,3689;0,00792792
3738,3330;0,00820472
3739,2974;0,00855423
3740,2615;0,00891251
3741,2258;0,00919681
3742,1899;0,00931389
3743,1543;0,00922257
3744,1184;0,00900954
3745,0828;0,00884247
3746,0469;0,00881101
3747,0112;0,0088682
3747,9753;0,00889358
3748,9397;0,00877113
3749,9038;0,0084799
3750,8682;0,00815602
3751,8323;0,007981
3752,7966;0,00800246
3753,7607;0,0081461
3754,7251;0,00831853
3755,6892;0,00844599
3756,6536;0,00847964
3757,6177;0,00841289
3758,5820;0,00829526
3759,5461;0,00820418
3760,5105;0,00818964
3761,4746;0,00825065
3762,4390;0,00835372
3763,4031;0,00845873
3764,3674;0,00853399
3765,3315;0,00856226
3766,2959;0,00853996
3767,2600;0,00847258
3768,2244;0,00837225
3769,1885;0,00826081
3770,1528;0,00817039
3771,1169;0,00813247
3772,0813;0,00816149
3773,0454;0,00824784
3774,0098;0,00836216
3774,9739;0,00846381
3775,9382;0,00851202
3776,9023;0,00848437
3777,8667;0,00839648
3778,8308;0,00829893
3779,7952;0,00824082
3780,7593;0,00823442
3781,7236;0,00825718
3782,6877;0,00827762
3783,6521;0,00827607
3784,6162;0,00825121
3785,5806;0,00821554
3786,5447;0,00818661
3787,5090;0,00818011
3788,4731;0,00820746
3789,4375;0,00827405
3790,4016;0,00837574
3791,3660;0,00849636
3792,3301;0,00861124
3793,2944;0,00869891
3794,2585;0,0087551
3795,2229;0,00879607
3796,1870;0,00884163
3797,1514;0,00888808
3798,1155;0,00889697
3799,0798;0,00881816
3800,0439;0,0086408
3801,0083;0,0084282
3801,9724;0,00827661
3802,9368;0,00822803
3803,9009;0,00824334
3804,8652;0,00824995
3805,8293;0,00820159
3806,7937;0,00811612
3807,7578;0,00806637
3808,7222;0,00811971
3809,6863;0,00828876
3810,6506;0,00853622
3811,6147;0,00879976
3812,5791;0,0090089
3813,5432;0,00910712
3814,5076;0,0090868
3815,4717;0,00900111
3816,4360;0,00891489
3817,4001;0,00884105
3818,3645;0,00874008
3819,3286;0,00857678
3820,2930;0,00837475
3821,2571;0,00820985
3822,2214;0,00813938
3823,1855;0,00815781
3824,1499;0,00822455
3825,1140;0,0083036
3826,0784;0,0083764
3827,0425;0,00843876
3828,0068;0,00849482
3828,9709;0,0085516
3829,9353;0,0086166
3830,8994;0,00869811
3831,8638;0,00880347
3832,8279;0,00893129
3833,7922;0,00906057
3834,7563;0,00914684
3835,7207;0,00913537
3836,6848;0,00899408
3837,6492;0,00874853
3838,6133;0,00847875
3839,5776;0,00826579
3840,5417;0,00814294
3841,5061;0,00809914
3842,4702;0,00811054
3843,4346;0,00816281
3844,3987;0,00825605
3845,3630;0,0084001
3846,3271;0,00860692
3847,2915;0,00888203
3848,2556;0,00921167
3849,2200;0,00954292
3850,1841;0,00976302
3851,1484;0,00971275
3852,1125;0,00930766
3853,0769;0,00872358
3854,0410;0,00828982
3855,0054;0,00813177
3855,9695;0,00816846
3856,9338;0,00830678
3857,8979;0,00849107
3858,8623;0,00867609
3859,8264;0,00881249
3860,7908;0,00885911
3861,7549;0,00881252
3862,7192;0,00872547
3863,6833;0,00867815
3864,6477;0,00871714
3865,6118;0,00882645
3866,5762;0,00894907
3867,5403;0,00902079
3868,5046;0,00899565
3869,4688;0,00886557
3870,4331;0,00866869
3871,3972;0,00847216
3872,3616;0,00833742
3873,3257;0,00829565
3874,2900;0,00834558
3875,2542;0,00846242
3876,2185;0,00860741
3877,1826;0,00873784
3878,1470;0,00882106
3879,1111;0,00885011
3880,0754;0,00884648
3881,0396;0,00883824
3882,0039;0,00883148
3882,9680;0,00880879
3883,9324;0,00875713
3884,8965;0,00869276
3885,8608;0,00865349
3886,8250;0,0086633
3887,7893;0,00870646
3888,7534;0,00873373
3889,7178;0,00869413
3890,6819;0,00857823
3891,6462;0,00844275
3892,6104;0,00837602
3893,5747;0,00842928
3894,5388;0,00859172
3895,5032;0,0088154
3896,4673;0,00904245
3897,4316;0,00922069
3898,3958;0,00931676
3899,3601;0,00932246
3900,3242;0,00924502
3901,2886;0,00909225
3902,2527;0,00887669
3903,2170;0,00863244
3904,1812;0,00841229
3905,1455;0,00825985
3906,1096;0,008189
3907,0740;0,00818885
3908,0381;0,00823936
3909,0024;0,00832178
3909,9666;0,00842238
3910,9309;0,00853167
3911,8950;0,00864027
3912,8594;0,0087341
3913,8235;0,00879334
3914,7878;0,00879922
3915,7520;0,00874783
3916,7163;0,00866142
3917,6804;0,00858097
3918,6448;0,00853959
3919,6089;0,00854113
3920,5732;0,00856297
3921,5374;0,0085741
3922,5017;0,00855486
3923,4658;0,00851044
3924,4302;0,00846939
3925,3943;0,0084633
3926,3586;0,00850296
3927,3228;0,00857101
3928,2871;0,00863224
3929,2512;0,00865164
3930,2156;0,00861322
3931,1797;0,00853105
3932,1440;0,00844093
3933,1082;0,00837653
3934,0725;0,00835248
3935,0366;0,00836638
3936,0010;0,00840881
3936,9651;0,00846887
3937,9294;0,00853396
3938,8936;0,00858888
3939,8579;0,0086192
3940,8220;0,00861917
3941,7864;0,00859811
3942,7505;0,00857687
3943,7148;0,00857376
3944,6790;0,00859148
3945,6433;0,00861523
3946,6074;0,00862215
3947,5718;0,00859605
3948,5359;0,00853918
3949,5002;0,00847247
3950,4644;0,00842224
3951,4287;0,00840433
3952,3928;0,00841815
3953,3572;0,00845147
3954,3213;0,00848874
3955,2856;0,00851738
3956,2498;0,0085303
3957,2141;0,00852543
3958,1782;0,00850463
3959,1426;0,00847329
3960,1067;0,00844042
3961,0710;0,00841689
3962,0352;0,00841125
3962,9995;0,00842516
3963,9636;0,00845229
3964,9280;0,00848144
3965,8921;0,00850224
3966,8564;0,00850963
3967,8206;0,00850511
3968,7849;0,00849461
3969,7490;0,00848402
3970,7134;0,00847546
3971,6775;0,00846637
3972,6418;0,00845211
3973,6060;0,00842995
3974,5703;0,0084019
3975,5344;0,00837443
3976,4988;0,00835542
3977,4629;0,00835039
3978,4272;0,00836017
3979,3914;0,00838107
3980,3557;0,00840688
3981,3198;0,00843142
3982,2842;0,00845046
3983,2483;0,00846242
3984,2126;0,00846814
3985,1768;0,00847
3986,1411;0,00847087
3987,1052;0,00847303
3988,0696;0,0084771
3989,0337;0,00848128
3989,9980;0,0084819
3990,9622;0,00847528
3991,9265;0,00846028
3992,8906;0,00844018
3993,8550;0,0084221
3994,8191;0,0084139
3995,7834;0,00841988
3996,7476;0,00843798
3997,7119;0,00846053
3998,6760;0,00847815
3999,6404;0,00848464
4000,6045;0,00836675

##### Extended Information
[Comments]
Sample name
Comment
Username
Division
Organization;UNIVERSIDAD INDUSTRIAL DE SANTANDER

[Detailed Information]
Creation date;19/02/2025 12:12 p.m.

Data array type;Linear data array
Horizontal axis;Wavenumber [cm-1]
Vertical axis;Abs
Start;399,193 cm-1
End;4000,6 cm-1
Data interval;0,964233 cm-1
Data points;3736    

[Measurement Information]
Model name;FT/IR-4X1typeA
Serial No.;A035162111

Accessory;ATR PRO 4X
Accessory S/N;A021162126
Incident angle;45 deg

Measurement date;19/02/2025 12:11 p.m.

Light source;Standard
Detector;TGS
Accumulation;40
Resolution;4 cm-1
Zero filling;On
Apodization;Cosine
Gain;Auto (8)
Aperture;Auto (7 mm)
Scan speed;Auto (2 mm/sec)
Filter;Auto (12800 Hz)

