TITLE;
DATA TYPE;INFRARED SPECTRUM
ORIGIN;JASCO
OWNER;
DATE;25/03/31
TIME;19:15:53
SPECTROMETER/DATA SYSTEM;
LOCALE;9226
RESOLUTION;
DELTAX;0,964233
XUNITS;1/CM
YUNITS;ABSORBANCE
FIRSTX;  399,1927
LASTX; 4000,6047
NPOINTS;    3736
FIRSTY;     0,20612
MAXY;     0,20618
MINY;     0,00659
XYDATA
399,1927;0,206116
400,1569;0,206181
401,1211;0,204876
402,0854;0,202757
403,0496;0,200397
404,0138;0,198298
404,9781;0,196843
405,9423;0,196214
406,9065;0,196317
407,8708;0,196815
408,8350;0,19727
409,7992;0,197319
410,7635;0,196811
411,7277;0,195884
412,6919;0,194903
413,6562;0,194282
414,6204;0,194316
415,5846;0,195114
416,5489;0,196556
417,5131;0,198181
418,4773;0,199215
419,4416;0,199153
420,4058;0,198401
421,3700;0,197771
422,3343;0,197648
423,2985;0,197906
424,2627;0,198182
425,2270;0,198147
426,1912;0,197683
427,1554;0,196929
428,1197;0,196152
429,0839;0,19557
430,0481;0,195262
431,0124;0,195198
431,9766;0,195315
432,9408;0,195555
433,9051;0,195836
434,8693;0,195996
435,8335;0,195808
436,7978;0,195099
437,7620;0,193896
438,7262;0,192453
439,6905;0,191137
440,6547;0,19026
441,6189;0,189932
442,5832;0,190003
443,5474;0,190137
444,5116;0,190021
445,4759;0,189544
446,4401;0,188798
447,4043;0,187944
448,3686;0,187094
449,3328;0,186285
450,2970;0,185525
451,2613;0,18485
452,2255;0,184334
453,1897;0,18404
454,1540;0,183963
455,1182;0,184002
456,0824;0,183983
457,0467;0,183741
458,0109;0,18323
458,9751;0,182578
459,9394;0,182001
460,9036;0,181643
461,8678;0,181513
462,8321;0,181522
463,7963;0,18155
464,7605;0,181506
465,7248;0,181374
466,6890;0,181216
467,6532;0,181126
468,6175;0,181166
469,5817;0,181308
470,5459;0,181432
471,5102;0,181376
472,4744;0,181034
473,4386;0,180435
474,4029;0,179719
475,3671;0,17902
476,3313;0,178401
477,2956;0,177853
478,2598;0,177363
479,2240;0,17696
480,1883;0,176715
481,1525;0,176694
482,1167;0,176887
483,0810;0,177174
484,0452;0,177361
485,0094;0,177291
485,9737;0,176957
486,9379;0,176513
487,9021;0,176179
488,8664;0,176121
489,8306;0,176364
490,7948;0,176768
491,7591;0,177085
492,7233;0,177076
493,6875;0,176647
494,6518;0,175891
495,6160;0,175025
496,5802;0,174277
497,5445;0,173794
498,5087;0,17362
499,4729;0,173717
500,4372;0,174009
501,4014;0,174413
502,3656;0,174853
503,3299;0,175265
504,2941;0,175593
505,2583;0,175798
506,2226;0,175872
507,1868;0,175845
508,1510;0,175769
509,1153;0,175687
510,0795;0,175606
511,0437;0,175504
512,0080;0,175362
512,9722;0,175205
513,9365;0,175101
514,9007;0,175127
515,8649;0,175311
516,8292;0,175576
517,7934;0,175767
518,7576;0,175739
519,7219;0,17546
520,6861;0,175024
521,6503;0,17457
522,6146;0,174194
523,5788;0,173913
524,5430;0,173673
525,5073;0,173392
526,4715;0,173009
527,4357;0,172514
528,4000;0,17194
529,3642;0,171331
530,3284;0,170726
531,2927;0,170155
532,2569;0,169649
533,2211;0,169231
534,1854;0,168901
535,1496;0,168633
536,1138;0,168384
537,0781;0,168128
538,0423;0,167869
539,0065;0,167645
539,9708;0,167491
540,9350;0,167406
541,8992;0,167341
542,8635;0,167221
543,8277;0,166995
544,7919;0,166678
545,7562;0,166349
546,7204;0,16611
547,6846;0,166017
548,6489;0,166041
549,6131;0,166085
550,5773;0,166049
551,5416;0,165885
552,5058;0,165614
553,4700;0,165301
554,4343;0,165005
555,3985;0,164753
556,3627;0,164538
557,3270;0,164329
558,2912;0,164092
559,2554;0,163781
560,2197;0,163345
561,1839;0,162744
562,1481;0,161976
563,1124;0,161099
564,0766;0,160212
565,0408;0,159409
566,0051;0,15874
566,9693;0,158196
567,9335;0,157741
568,8978;0,157355
569,8620;0,157049
570,8262;0,15685
571,7905;0,156762
572,7547;0,156747
573,7189;0,156738
574,6832;0,156677
575,6474;0,156548
576,6116;0,156377
577,5759;0,156205
578,5401;0,156042
579,5043;0,155854
580,4686;0,155586
581,4328;0,155197
582,3970;0,154697
583,3613;0,15415
584,3255;0,153647
585,2897;0,153273
586,2540;0,153067
587,2182;0,153016
588,1824;0,153055
589,1467;0,153089
590,1109;0,15302
591,0751;0,152781
592,0394;0,152359
593,0036;0,151809
593,9678;0,151217
594,9321;0,150663
595,8963;0,150186
596,8605;0,149784
597,8248;0,14943
598,7890;0,14909
599,7532;0,148738
600,7175;0,148356
601,6817;0,147939
602,6459;0,147496
603,6102;0,147046
604,5744;0,146617
605,5386;0,146229
606,5029;0,145876
607,4671;0,145523
608,4313;0,145123
609,3956;0,144646
610,3598;0,144108
611,3240;0,14357
612,2883;0,143105
613,2525;0,142756
614,2167;0,142502
615,1810;0,142255
616,1452;0,141889
617,1094;0,141301
618,0737;0,140471
619,0379;0,139469
620,0021;0,138424
620,9664;0,137454
621,9306;0,136633
622,8948;0,135974
623,8591;0,135448
624,8233;0,134972
625,7875;0,134549
626,7518;0,134146
627,7160;0,133752
628,6802;0,133373
629,6445;0,13302
630,6087;0,132702
631,5729;0,132419
632,5372;0,132162
633,5014;0,131913
634,4656;0,131655
635,4299;0,131376
636,3941;0,131073
637,3583;0,130752
638,3226;0,130425
639,2868;0,130106
640,2510;0,129805
641,2153;0,129527
642,1795;0,129267
643,1437;0,129017
644,1080;0,128769
645,0722;0,128514
646,0364;0,12825
647,0007;0,127975
647,9649;0,127687
648,9291;0,127388
649,8934;0,127085
650,8576;0,126799
651,8218;0,126553
652,7861;0,126368
653,7503;0,126248
654,7145;0,126177
655,6788;0,126118
656,6430;0,126033
657,6072;0,125903
658,5715;0,125729
659,5357;0,125523
660,4999;0,125266
661,4642;0,124899
662,4284;0,124326
663,3926;0,123455
664,3569;0,122271
665,3211;0,120937
666,2853;0,119864
667,2496;0,119533
668,2138;0,119925
669,1780;0,120356
670,1423;0,120356
671,1065;0,119949
672,0707;0,119202
673,0350;0,118149
673,9992;0,116895
674,9634;0,115605
675,9277;0,114417
676,8919;0,113375
677,8561;0,112446
678,8204;0,111601
679,7846;0,110852
680,7488;0,110239
681,7131;0,109769
682,6773;0,109394
683,6415;0,109038
684,6058;0,108649
685,5700;0,108228
686,5342;0,107815
687,4985;0,107442
688,4627;0,107114
689,4269;0,106797
690,3912;0,106465
691,3554;0,10612
692,3196;0,105792
693,2839;0,105516
694,2481;0,105294
695,2123;0,105094
696,1766;0,104862
697,1408;0,104552
698,1050;0,104152
699,0693;0,10369
700,0335;0,103215
700,9977;0,102772
701,9620;0,102376
702,9262;0,102021
703,8904;0,101672
704,8547;0,101312
705,8189;0,100934
706,7831;0,100537
707,7474;0,100124
708,7116;0,0996866
709,6758;0,0992175
710,6401;0,0987121
711,6043;0,0981797
712,5685;0,097646
713,5328;0,0971489
714,4970;0,0967275
715,4612;0,09584
716,4255;0,0957364
717,3897;0,0957318
718,3539;0,0957132
719,3182;0,0955404
720,2824;0,0951114
721,2466;0,0944227
722,2109;0,0935743
723,1751;0,0927128
724,1393;0,0919559
725,1036;0,0913496
726,0678;0,0908701
727,0320;0,0904581
727,9963;0,0900594
728,9605;0,0896513
729,9247;0,0892437
730,8890;0,0888606
731,8532;0,0885185
732,8174;0,0882139
733,7817;0,0879266
734,7459;0,0876322
735,7101;0,087317
736,6744;0,0869867
737,6386;0,0866633
738,6028;0,0863728
739,5671;0,0861292
740,5313;0,0859241
741,4955;0,0857284
742,4598;0,0855061
743,4240;0,0852312
744,3882;0,0848983
745,3525;0,0845223
746,3167;0,0841278
747,2809;0,0837377
748,2452;0,0833667
749,2094;0,0830216
750,1736;0,0827037
751,1379;0,0824116
752,1021;0,0821406
753,0663;0,0818831
754,0306;0,0816315
754,9948;0,0813848
755,9590;0,0811521
756,9233;0,0809505
757,8875;0,0807948
758,8517;0,0806853
759,8160;0,0806016
760,7802;0,0805082
761,7444;0,080372
762,7087;0,0801808
763,6729;0,0799506
764,6371;0,0797186
765,6014;0,0795226
766,5656;0,0793815
767,5298;0,0792878
768,4941;0,0792153
769,4583;0,0791371
770,4225;0,0790413
771,3868;0,0789366
772,3510;0,0788461
773,3152;0,0787946
774,2795;0,078796
775,2437;0,0788475
776,2079;0,0789291
777,1722;0,0790075
778,1364;0,079042
779,1006;0,0789926
780,0649;0,0788274
781,0291;0,0785315
781,9933;0,0781126
782,9576;0,077602
783,9218;0,0770472
784,8860;0,0764995
785,8503;0,0759978
786,8145;0,075559
787,7787;0,0751778
788,7430;0,0748382
789,7072;0,0745277
790,6714;0,0742475
791,6357;0,0740103
792,5999;0,0738283
793,5641;0,0737007
794,5284;0,0736097
795,4926;0,0735292
796,4568;0,0734403
797,4211;0,0733426
798,3853;0,0732537
799,3495;0,073197
800,3138;0,0731877
801,2780;0,0732248
802,2422;0,0732921
803,2065;0,0733665
804,1707;0,0734258
805,1349;0,0734544
806,0992;0,0734449
807,0634;0,0733996
808,0276;0,073329
808,9919;0,0732493
809,9561;0,0731768
810,9203;0,0731208
811,8846;0,0730807
812,8488;0,0730478
813,8130;0,073013
814,7773;0,0729746
815,7415;0,0729411
816,7057;0,0729273
817,6700;0,0729449
818,6342;0,0729943
819,5984;0,0730609
820,5627;0,0731213
821,5269;0,0731536
822,4911;0,0731481
823,4554;0,0731124
824,4196;0,0730676
825,3839;0,0730379
826,3481;0,0730401
827,3123;0,0730765
828,2766;0,0731351
829,2408;0,0731952
830,2050;0,0732345
831,1693;0,0732351
832,1335;0,0731867
833,0977;0,0730875
834,0620;0,0729422
835,0262;0,0727586
835,9904;0,0725433
836,9547;0,0722986
837,9189;0,0720226
838,8831;0,0717133
839,8474;0,0713728
840,8116;0,07101
841,7758;0,0706389
842,7401;0,070274
843,7043;0,0699265
844,6685;0,0696024
845,6328;0,0693036
846,5970;0,0690287
847,5612;0,068773
848,5255;0,0685284
849,4897;0,0682854
850,4539;0,0680373
851,4182;0,0677848
852,3824;0,0675373
853,3466;0,0673083
854,3109;0,0671089
855,2751;0,0669404
856,2393;0,0667943
857,2036;0,066657
858,1678;0,0665186
859,1320;0,0663784
860,0963;0,066247
861,0605;0,0661407
862,0247;0,0660752
862,9890;0,0660579
863,9532;0,0660863
864,9174;0,0661499
865,8817;0,0662352
866,8459;0,0663321
867,8101;0,0664359
868,7744;0,0665475
869,7386;0,0666704
870,7028;0,0668069
871,6671;0,0669566
872,6313;0,0671169
873,5955;0,0672842
874,5598;0,0674554
875,5240;0,0676291
876,4882;0,0678067
877,4525;0,0679933
878,4167;0,0681981
879,3809;0,0684336
880,3452;0,0687135
881,3094;0,0690499
882,2736;0,0694509
883,2379;0,0699185
884,2021;0,0704472
885,1663;0,0710244
886,1306;0,0716325
887,0948;0,0722523
888,0590;0,0728678
889,0233;0,0734694
889,9875;0,0740526
890,9517;0,0746133
891,9160;0,0751421
892,8802;0,0756216
893,8444;0,0760276
894,8087;0,0763333
895,7729;0,0765145
896,7371;0,0765525
897,7014;0,0764365
898,6656;0,0761672
899,6298;0,0757599
900,5941;0,0752451
901,5583;0,0746638
902,5225;0,0740579
903,4868;0,0734612
904,4510;0,0728959
905,4152;0,0723766
906,3795;0,0719164
907,3437;0,0715296
908,3079;0,0712274
909,2722;0,0710105
910,2364;0,0708665
911,2007;0,0707751
912,1649;0,0707183
913,1292;0,0706896
914,0934;0,0706937
915,0576;0,0707393
916,0219;0,0708309
916,9861;0,0709655
917,9503;0,0711361
918,9146;0,0713366
919,8788;0,0715625
920,8430;0,0718087
921,8073;0,072066
922,7715;0,0723239
923,7357;0,0725773
924,7000;0,0728325
925,6642;0,0731054
926,6284;0,0734115
927,5927;0,0737544
928,5569;0,0741209
929,5211;0,0744882
930,4854;0,0748382
931,4496;0,0751701
932,4138;0,0755008
933,3781;0,0758552
934,3423;0,0762512
935,3065;0,0766911
936,2708;0,0771646
937,2350;0,0776603
938,1992;0,0781776
939,1635;0,0787306
940,1277;0,0793406
941,0919;0,0800244
942,0562;0,0807838
943,0204;0,0816059
943,9846;0,0824715
944,9489;0,0833669
945,9131;0,0842907
946,8773;0,0852515
947,8416;0,0862588
948,8058;0,0873149
949,7700;0,0884118
950,7343;0,0895358
951,6985;0,0906758
952,6627;0,0918274
953,6270;0,0929925
954,5912;0,0941738
955,5554;0,0953695
956,5197;0,0965729
957,4839;0,0977757
958,4481;0,0989727
959,4124;0,100163
960,3766;0,101349
961,3408;0,10253
962,3051;0,103704
963,2693;0,104866
964,2335;0,106014
965,1978;0,107147
966,1620;0,108273
967,1262;0,1094
968,0905;0,110537
969,0547;0,111697
970,0189;0,112891
970,9832;0,114133
971,9474;0,115432
972,9116;0,116789
973,8759;0,118195
974,8401;0,119632
975,8043;0,121084
976,7686;0,122537
977,7328;0,123989
978,6970;0,125439
979,6613;0,126882
980,6255;0,128307
981,5897;0,129692
982,5540;0,131015
983,5182;0,13226
984,4824;0,133419
985,4467;0,134491
986,4109;0,13548
987,3751;0,13639
988,3394;0,137225
989,3036;0,137991
990,2678;0,138689
991,2321;0,13932
992,1963;0,139885
993,1605;0,140382
994,1248;0,140815
995,0890;0,141193
996,0532;0,141532
997,0175;0,141848
997,9817;0,142161
998,9459;0,142491
999,9102;0,142857
1000,8744;0,143276
1001,8386;0,143758
1002,8029;0,14431
1003,7671;0,144931
1004,7313;0,145623
1005,6956;0,146391
1006,6598;0,14725
1007,6240;0,148214
1008,5883;0,149283
1009,5525;0,150441
1010,5167;0,151653
1011,4810;0,152879
1012,4452;0,154079
1013,4094;0,155229
1014,3737;0,15631
1015,3379;0,157316
1016,3021;0,158237
1017,2664;0,159067
1018,2306;0,159801
1019,1948;0,160437
1020,1591;0,160978
1021,1233;0,161431
1022,0875;0,161809
1023,0518;0,162126
1024,0160;0,162402
1024,9802;0,162649
1025,9445;0,162875
1026,9087;0,163072
1027,8729;0,163226
1028,8372;0,163311
1029,8014;0,163299
1030,7656;0,163155
1031,7299;0,162845
1032,6941;0,162344
1033,6583;0,161642
1034,6226;0,160761
1035,5868;0,159749
1036,5510;0,158676
1037,5153;0,157609
1038,4795;0,1566
1039,4437;0,155676
1040,4080;0,154841
1041,3722;0,154087
1042,3364;0,153399
1043,3007;0,152756
1044,2649;0,152132
1045,2291;0,151494
1046,1934;0,150812
1047,1576;0,150061
1048,1218;0,149231
1049,0861;0,148319
1050,0503;0,147325
1051,0145;0,146249
1051,9788;0,145088
1052,9430;0,143845
1053,9072;0,142534
1054,8715;0,14117
1055,8357;0,139765
1056,7999;0,138319
1057,7642;0,136817
1058,7284;0,13524
1059,6926;0,133582
1060,6569;0,131853
1061,6211;0,130088
1062,5853;0,128331
1063,5496;0,126629
1064,5138;0,125024
1065,4780;0,123542
1066,4423;0,122199
1067,4065;0,120994
1068,3707;0,119913
1069,3350;0,118926
1070,2992;0,117996
1071,2634;0,117085
1072,2277;0,116161
1073,1919;0,115209
1074,1561;0,114224
1075,1204;0,113217
1076,0846;0,112201
1077,0488;0,111189
1078,0131;0,110194
1078,9773;0,109227
1079,9415;0,108301
1080,9058;0,10743
1081,8700;0,106628
1082,8342;0,105902
1083,7985;0,105251
1084,7627;0,104659
1085,7269;0,104106
1086,6912;0,10357
1087,6554;0,10304
1088,6196;0,102512
1089,5839;0,101996
1090,5481;0,101505
1091,5123;0,101047
1092,4766;0,100627
1093,4408;0,100246
1094,4050;0,0999017
1095,3693;0,0995959
1096,3335;0,0993303
1097,2977;0,0991052
1098,2620;0,0989163
1099,2262;0,0987545
1100,1904;0,0986077
1101,1547;0,098464
1102,1189;0,0983133
1103,0831;0,0981465
1104,0474;0,0979554
1105,0116;0,0977337
1105,9758;0,097479
1106,9401;0,0971943
1107,9043;0,0968852
1108,8685;0,0965523
1109,8328;0,0961841
1110,7970;0,0957558
1111,7612;0,0952376
1112,7255;0,0946104
1113,6897;0,0938789
1114,6539;0,0930756
1115,6182;0,0922504
1116,5824;0,0914524
1117,5466;0,0907117
1118,5109;0,0900305
1119,4751;0,0893846
1120,4393;0,088734
1121,4036;0,0880347
1122,3678;0,0872497
1123,3320;0,0863552
1124,2963;0,0853431
1125,2605;0,0842199
1126,2247;0,0830031
1127,1890;0,0817158
1128,1532;0,0803817
1129,1174;0,0790217
1130,0817;0,0776537
1131,0459;0,0762956
1132,0101;0,0749695
1132,9744;0,0737034
1133,9386;0,0725299
1134,9028;0,0714808
1135,8671;0,070581
1136,8313;0,0698437
1137,7955;0,06927
1138,7598;0,0688528
1139,7240;0,0685817
1140,6882;0,0684478
1141,6525;0,0684445
1142,6167;0,0685659
1143,5809;0,0688043
1144,5452;0,0691479
1145,5094;0,0695805
1146,4736;0,0700827
1147,4379;0,0706335
1148,4021;0,0712138
1149,3663;0,0718074
1150,3306;0,0724017
1151,2948;0,0729859
1152,2590;0,0735471
1153,2233;0,0740674
1154,1875;0,0745225
1155,1517;0,0748834
1156,1160;0,0751204
1157,0802;0,0752064
1158,0444;0,075119
1159,0087;0,0748384
1159,9729;0,0743466
1160,9371;0,0736283
1161,9014;0,0726756
1162,8656;0,0714957
1163,8298;0,070116
1164,7941;0,0685835
1165,7583;0,066958
1166,7225;0,0653003
1167,6868;0,0636615
1168,6510;0,0620778
1169,6152;0,0605705
1170,5795;0,0591522
1171,5437;0,0578323
1172,5079;0,0566202
1173,4722;0,0555243
1174,4364;0,0545485
1175,4006;0,0536897
1176,3649;0,0529378
1177,3291;0,0522803
1178,2933;0,0517064
1179,2576;0,0512101
1180,2218;0,0507892
1181,1860;0,050442
1182,1503;0,0501634
1183,1145;0,0499447
1184,0787;0,0497749
1185,0430;0,0496448
1186,0072;0,0495494
1186,9714;0,0494896
1187,9357;0,0494698
1188,8999;0,0494959
1189,8641;0,0495729
1190,8284;0,049704
1191,7926;0,0498906
1192,7568;0,0501329
1193,7211;0,0504292
1194,6853;0,0507752
1195,6495;0,0511634
1196,6138;0,051584
1197,5780;0,0520279
1198,5422;0,0524887
1199,5065;0,0528316
1200,4707;0,0533357
1201,4349;0,0538522
1202,3992;0,0543751
1203,3634;0,0548966
1204,3276;0,05541
1205,2919;0,0559124
1206,2561;0,0564069
1207,2203;0,0569006
1208,1846;0,0574029
1209,1488;0,057923
1210,1130;0,0584693
1211,0773;0,059048
1212,0415;0,0596615
1213,0057;0,0603071
1213,9700;0,060977
1214,9342;0,06166
1215,8984;0,0623453
1216,8627;0,0630232
1217,8269;0,0636857
1218,7911;0,0643258
1219,7554;0,0649362
1220,7196;0,0655101
1221,6838;0,0660433
1222,6481;0,0665359
1223,6123;0,0669923
1224,5765;0,0674187
1225,5408;0,0678198
1226,5050;0,0681977
1227,4692;0,0685523
1228,4335;0,0688826
1229,3977;0,0691869
1230,3619;0,0694631
1231,3262;0,0697077
1232,2904;0,0699172
1233,2546;0,0700904
1234,2189;0,0702299
1235,1831;0,0703416
1236,1473;0,0704324
1237,1116;0,070507
1238,0758;0,070566
1239,0400;0,0706062
1240,0043;0,0706226
1240,9685;0,0706108
1241,9327;0,0705674
1242,8970;0,0704908
1243,8612;0,0703797
1244,8254;0,0702333
1245,7897;0,0700516
1246,7539;0,0698364
1247,7181;0,0695917
1248,6824;0,0693239
1249,6466;0,0690414
1250,6108;0,0687528
1251,5751;0,0684661
1252,5393;0,0681881
1253,5035;0,0679238
1254,4678;0,0676755
1255,4320;0,0674413
1256,3962;0,0672136
1257,3605;0,0669799
1258,3247;0,0667248
1259,2889;0,0664348
1260,2532;0,0661029
1261,2174;0,065731
1262,1816;0,0653273
1263,1459;0,0649029
1264,1101;0,0644671
1265,0743;0,064025
1266,0386;0,0635766
1267,0028;0,0631161
1267,9670;0,0626322
1268,9313;0,0621108
1269,8955;0,0615409
1270,8597;0,0609207
1271,8240;0,0602617
1272,7882;0,0595861
1273,7524;0,05892
1274,7167;0,0582847
1275,6809;0,0576913
1276,6451;0,0571406
1277,6094;0,0566257
1278,5736;0,0561368
1279,5378;0,0556661
1280,5021;0,0552109
1281,4663;0,0547756
1282,4305;0,0543695
1283,3948;0,0540037
1284,3590;0,0536861
1285,3232;0,0534187
1286,2875;0,0531965
1287,2517;0,0530101
1288,2159;0,0528497
1289,1802;0,0527093
1290,1444;0,0525896
1291,1086;0,0524972
1292,0729;0,0524424
1293,0371;0,052435
1294,0013;0,0524798
1294,9656;0,0525745
1295,9298;0,0527092
1296,8940;0,0528707
1297,8583;0,0530475
1298,8225;0,0532354
1299,7867;0,0534382
1300,7510;0,0536649
1301,7152;0,0539261
1302,6794;0,0542272
1303,6437;0,054567
1304,6079;0,05494
1305,5721;0,0553404
1306,5364;0,0557668
1307,5006;0,0562249
1308,4648;0,0567246
1309,4291;0,0572733
1310,3933;0,0578671
1311,3575;0,0584846
1312,3218;0,0590884
1313,2860;0,0596343
1314,2502;0,0600817
1315,2145;0,0603991
1316,1787;0,0605604
1317,1429;0,0605428
1318,1072;0,0603339
1319,0714;0,0599465
1320,0356;0,0594282
1320,9999;0,0588509
1321,9641;0,0582849
1322,9283;0,0577769
1323,8926;0,0573442
1324,8568;0,0569816
1325,8210;0,0566731
1326,7853;0,0564008
1327,7495;0,0561485
1328,7137;0,0559033
1329,6780;0,0556539
1330,6422;0,0553942
1331,6064;0,0551282
1332,5707;0,0548727
1333,5349;0,0546554
1334,4991;0,0545021
1335,4634;0,0544206
1336,4276;0,0543822
1337,3918;0,0543112
1338,3561;0,0541024
1339,3203;0,0536853
1340,2845;0,0530911
1341,2488;0,0524405
1342,2130;0,05186
1343,1772;0,0514186
1344,1415;0,0511252
1345,1057;0,0509543
1346,0699;0,0508702
1347,0342;0,0508419
1347,9984;0,0508526
1348,9626;0,0509016
1349,9269;0,0509973
1350,8911;0,0511466
1351,8553;0,0513478
1352,8196;0,0515902
1353,7838;0,0518588
1354,7480;0,0521403
1355,7123;0,05243
1356,6765;0,0527334
1357,6407;0,0530641
1358,6050;0,053437
1359,5692;0,0538567
1360,5334;0,0542986
1361,4977;0,0546976
1362,4619;0,0549791
1363,4261;0,0551242
1364,3904;0,0551857
1365,3546;0,0552347
1366,3188;0,0553105
1367,2831;0,0554144
1368,2473;0,0555263
1369,2115;0,0556226
1370,1758;0,0556886
1371,1400;0,0557186
1372,1042;0,055706
1373,0685;0,0556318
1374,0327;0,0554682
1374,9969;0,0552006
1375,9612;0,0548406
1376,9254;0,0544039
1377,8896;0,0538861
1378,8539;0,0532715
1379,8181;0,0525659
1380,7823;0,0518156
1381,7466;0,0510925
1382,7108;0,0504519
1383,6750;0,0499026
1384,6393;0,0494076
1385,6035;0,0489076
1386,5677;0,0483587
1387,5320;0,0477778
1388,4962;0,0472428
1389,4604;0,0468241
1390,4247;0,0465325
1391,3889;0,0463421
1392,3531;0,0462339
1393,3174;0,0462048
1394,2816;0,0462425
1395,2458;0,0463011
1396,2101;0,0463167
1397,1743;0,0462537
1398,1385;0,0461356
1399,1028;0,0460296
1400,0670;0,0460028
1401,0313;0,046087
1401,9955;0,0462728
1402,9597;0,0465266
1403,9240;0,046811
1404,8882;0,0471011
1405,8524;0,0473945
1406,8167;0,0477062
1407,7809;0,0480505
1408,7451;0,0484279
1409,7094;0,0488307
1410,6736;0,0492543
1411,6378;0,0497003
1412,6021;0,0501693
1413,5663;0,0506537
1414,5305;0,0511377
1415,4948;0,0516058
1416,4590;0,0520385
1417,4232;0,0523917
1418,3875;0,052608
1419,3517;0,0526972
1420,3159;0,052752
1421,2802;0,0528311
1422,2444;0,0528952
1423,2086;0,0528645
1424,1729;0,0526932
1425,1371;0,0523935
1426,1013;0,0520104
1427,0656;0,0515823
1428,0298;0,0511226
1428,9940;0,0506344
1429,9583;0,0501349
1430,9225;0,0496577
1431,8867;0,0492199
1432,8510;0,0487974
1433,8152;0,0483408
1434,7794;0,0478108
1435,7437;0,0472134
1436,7079;0,0466358
1437,6721;0,0462276
1438,6364;0,0460794
1439,6006;0,0461493
1440,5648;0,046333
1441,5291;0,0465574
1442,4933;0,0468061
1443,4575;0,0470948
1444,4218;0,0474361
1445,3860;0,0478199
1446,3502;0,0482182
1447,3145;0,0486039
1448,2787;0,0489703
1449,2429;0,04933
1450,2072;0,049688
1451,1714;0,0500157
1452,1356;0,050262
1453,0999;0,0503953
1454,0641;0,0504414
1455,0283;0,0504698
1455,9926;0,0504769
1456,9568;0,0503031
1457,9210;0,0499377
1458,8853;0,0496667
1459,8495;0,0496057
1460,8137;0,0496053
1461,7780;0,0494892
1462,7422;0,0491602
1463,7064;0,0485965
1464,6707;0,0478495
1465,6349;0,047049
1466,5991;0,0463238
1467,5634;0,0456886
1468,5276;0,045054
1469,4918;0,0443202
1470,4561;0,0434273
1471,4203;0,042341
1472,3845;0,0410474
1473,3488;0,0396399
1474,3130;0,0383523
1475,2772;0,0373605
1476,2415;0,0366542
1477,2057;0,0361345
1478,1699;0,0357173
1479,1342;0,0353578
1480,0984;0,0350394
1481,0626;0,034766
1482,0269;0,0345578
1482,9911;0,0344419
1483,9553;0,0344362
1484,9196;0,034543
1485,8838;0,0347528
1486,8480;0,0350355
1487,8123;0,0353054
1488,7765;0,0354296
1489,7407;0,0353786
1490,7050;0,0353113
1491,6692;0,0353866
1492,6334;0,0356237
1493,5977;0,0359738
1494,5619;0,0364158
1495,5261;0,0369712
1496,4904;0,0376512
1497,4546;0,0384099
1498,4188;0,0391814
1499,3831;0,0399277
1500,3473;0,0405997
1501,3115;0,0411141
1502,2758;0,041404
1503,2400;0,0414893
1504,2042;0,0415298
1505,1685;0,0418038
1506,1327;0,0424297
1507,0969;0,0429423
1508,0612;0,0428414
1509,0254;0,042392
1509,9896;0,041946
1510,9539;0,0415459
1511,9181;0,0411364
1512,8823;0,0406891
1513,8466;0,0402
1514,8108;0,0396589
1515,7750;0,0390419
1516,7393;0,0383315
1517,7035;0,0375317
1518,6677;0,03666
1519,6320;0,0357415
1520,5962;0,0348301
1521,5604;0,0340264
1522,5247;0,0334263
1523,4889;0,033033
1524,4531;0,0327518
1525,4174;0,0324809
1526,3816;0,0321946
1527,3458;0,0319404
1528,3101;0,0317684
1529,2743;0,0316777
1530,2385;0,0316256
1531,2028;0,0315654
1532,1670;0,0314732
1533,1312;0,0313588
1534,0955;0,0312594
1535,0597;0,0311904
1536,0239;0,0311096
1536,9882;0,0309667
1537,9524;0,0307898
1538,9166;0,0307107
1539,8809;0,0308405
1540,8451;0,0310839
1541,8093;0,0313131
1542,7736;0,0315714
1543,7378;0,0318684
1544,7020;0,0321538
1545,6663;0,0324146
1546,6305;0,0326746
1547,5947;0,0329486
1548,5590;0,0332207
1549,5232;0,0334578
1550,4874;0,0336393
1551,4517;0,0337726
1552,4159;0,0338776
1553,3801;0,0339512
1554,3444;0,0339555
1555,3086;0,0338484
1556,2728;0,0336218
1557,2371;0,0332834
1558,2013;0,032837
1559,1655;0,0325269
1560,1298;0,0327885
1561,0940;0,0336056
1562,0582;0,034622
1563,0225;0,0355575
1563,9867;0,0362971
1564,9509;0,0368361
1565,9152;0,0372283
1566,8794;0,0375559
1567,8436;0,0379029
1568,8079;0,0383232
1569,7721;0,0388193
1570,7363;0,0393463
1571,7006;0,0398411
1572,6648;0,0402701
1573,6290;0,0406758
1574,5933;0,041178
1575,5575;0,0418897
1576,5217;0,0427938
1577,4860;0,0437658
1578,4502;0,044715
1579,4144;0,0456168
1580,3787;0,0464756
1581,3429;0,0473117
1582,3071;0,0481488
1583,2714;0,0489954
1584,2356;0,0498422
1585,1998;0,0506775
1586,1641;0,051497
1587,1283;0,0522965
1588,0925;0,0530615
1589,0568;0,0537676
1590,0210;0,0543907
1590,9852;0,0549166
1591,9495;0,0553388
1592,9137;0,0556505
1593,8779;0,0558446
1594,8422;0,0559235
1595,8064;0,0559106
1596,7706;0,0558466
1597,7349;0,0557732
1598,6991;0,0557172
1599,6633;0,0556867
1600,6276;0,0556764
1601,5918;0,0556779
1602,5560;0,0556882
1603,5203;0,0557113
1604,4845;0,0557525
1605,4487;0,0558092
1606,4130;0,0558698
1607,3772;0,0559194
1608,3414;0,0559502
1609,3057;0,0559666
1610,2699;0,0559777
1611,2341;0,0559782
1612,1984;0,0559465
1613,1626;0,0558714
1614,1268;0,0557808
1615,0911;0,0557351
1616,0553;0,0557816
1617,0195;0,0559244
1617,9838;0,0561364
1618,9480;0,056363
1619,9122;0,0565338
1620,8765;0,0566033
1621,8407;0,0565719
1622,8049;0,0564713
1623,7692;0,0563373
1624,7334;0,0561925
1625,6976;0,0560353
1626,6619;0,0558459
1627,6261;0,0556116
1628,5903;0,0553429
1629,5546;0,0550574
1630,5188;0,0547513
1631,4830;0,0543988
1632,4473;0,0539884
1633,4115;0,0535542
1634,3757;0,0531557
1635,3400;0,0528076
1636,3042;0,0524911
1637,2684;0,0522379
1638,2327;0,0520612
1639,1969;0,0518932
1640,1611;0,0516576
1641,1254;0,0513252
1642,0896;0,0509093
1643,0538;0,0504425
1644,0181;0,0499499
1644,9823;0,0494117
1645,9465;0,0487567
1646,9108;0,0479787
1647,8750;0,0472058
1648,8392;0,0465136
1649,8035;0,0458239
1650,7677;0,0450189
1651,7319;0,0440215
1652,6962;0,0428102
1653,6604;0,0416184
1654,6246;0,0409268
1655,5889;0,0408006
1656,5531;0,0408802
1657,5173;0,0408514
1658,4816;0,0405878
1659,4458;0,0400924
1660,4100;0,0394259
1661,3743;0,0386709
1662,3385;0,0379342
1663,3027;0,0373291
1664,2670;0,0369016
1665,2312;0,0365962
1666,1954;0,0363068
1667,1597;0,0359351
1668,1239;0,0354156
1669,0881;0,0347444
1670,0524;0,0340171
1671,0166;0,0333711
1671,9808;0,0328456
1672,9451;0,0323642
1673,9093;0,0318535
1674,8735;0,0313431
1675,8378;0,0309629
1676,8020;0,0308288
1677,7662;0,0309224
1678,7305;0,031098
1679,6947;0,0311813
1680,6589;0,0310426
1681,6232;0,0306055
1682,5874;0,0298409
1683,5516;0,0288535
1684,5159;0,0279954
1685,4801;0,0275959
1686,4443;0,027605
1687,4086;0,0277489
1688,3728;0,0278125
1689,3370;0,0277227
1690,3013;0,0275121
1691,2655;0,0272566
1692,2297;0,0270307
1693,1940;0,0268876
1694,1582;0,026851
1695,1224;0,0268957
1696,0867;0,0269283
1697,0509;0,026814
1698,0151;0,0264825
1698,9794;0,0260401
1699,9436;0,0257333
1700,9078;0,0257527
1701,8721;0,0260941
1702,8363;0,0266062
1703,8005;0,0271177
1704,7648;0,0275212
1705,7290;0,0277977
1706,6932;0,0280036
1707,6575;0,0282236
1708,6217;0,0285118
1709,5859;0,0288666
1710,5502;0,0292523
1711,5144;0,0296321
1712,4786;0,0299842
1713,4429;0,0302974
1714,4071;0,0305476
1715,3713;0,03066
1716,3356;0,0305293
1717,2998;0,0301944
1718,2640;0,0299203
1719,2283;0,0299171
1720,1925;0,0301514
1721,1567;0,0304715
1722,1210;0,0307511
1723,0852;0,0309368
1724,0494;0,0310417
1725,0137;0,0311218
1725,9779;0,0312404
1726,9421;0,0314326
1727,9064;0,0316853
1728,8706;0,0319431
1729,8348;0,0321298
1730,7991;0,0321659
1731,7633;0,0319787
1732,7275;0,0315382
1733,6918;0,0309467
1734,6560;0,0304368
1735,6202;0,0301552
1736,5845;0,0300383
1737,5487;0,0299345
1738,5129;0,0297483
1739,4772;0,0294846
1740,4414;0,029217
1741,4056;0,0290173
1742,3699;0,0288938
1743,3341;0,0287895
1744,2983;0,0286326
1745,2626;0,0283783
1746,2268;0,0280086
1747,1910;0,0274992
1748,1553;0,0267974
1749,1195;0,0258686
1750,0837;0,0247965
1751,0480;0,0237816
1752,0122;0,0229832
1752,9764;0,0224131
1753,9407;0,0219838
1754,9049;0,0216007
1755,8691;0,0212135
1756,8334;0,020816
1757,7976;0,0204161
1758,7618;0,0200032
1759,7261;0,019545
1760,6903;0,0190228
1761,6545;0,0184722
1762,6188;0,0179809
1763,5830;0,0176287
1764,5472;0,0174302
1765,5115;0,0173353
1766,4757;0,0172701
1767,4399;0,0171721
1768,4042;0,017001
1769,3684;0,0167337
1770,3326;0,0163592
1771,2969;0,0158974
1772,2611;0,0154322
1773,2253;0,0150935
1774,1896;0,0149606
1775,1538;0,0150023
1776,1180;0,0151198
1777,0823;0,0152198
1778,0465;0,0152519
1779,0107;0,0152097
1779,9750;0,0151127
1780,9392;0,0149844
1781,9034;0,0148371
1782,8677;0,0146754
1783,8319;0,0145152
1784,7961;0,0143935
1785,7604;0,0143515
1786,7246;0,0144032
1787,6888;0,0145209
1788,6531;0,0146495
1789,6173;0,0147296
1790,5815;0,0147123
1791,5458;0,0145804
1792,5100;0,014384
1793,4742;0,0142283
1794,4385;0,0141793
1795,4027;0,0142107
1796,3669;0,0142518
1797,3312;0,0142511
1798,2954;0,0141981
1799,2596;0,0141083
1800,2239;0,0140013
1801,1881;0,0138903
1802,1523;0,0137862
1803,1166;0,013702
1804,0808;0,0136505
1805,0450;0,0136385
1806,0093;0,0136613
1806,9735;0,0137001
1807,9377;0,0137234
1808,9020;0,0136974
1809,8662;0,0136035
1810,8304;0,0134545
1811,7947;0,0132896
1812,7589;0,0131482
1813,7231;0,0130471
1814,6874;0,0129819
1815,6516;0,0129425
1816,6158;0,0129253
1817,5801;0,012936
1818,5443;0,0129829
1819,5085;0,0130672
1820,4728;0,0131771
1821,4370;0,0132906
1822,4012;0,0133828
1823,3655;0,0134337
1824,3297;0,0134357
1825,2939;0,0133953
1826,2582;0,0133239
1827,2224;0,0132244
1828,1866;0,0130905
1829,1509;0,012925
1830,1151;0,0127624
1831,0793;0,012662
1832,0436;0,012662
1833,0078;0,0127471
1833,9720;0,0128631
1834,9363;0,0129547
1835,9005;0,012993
1836,8647;0,0129861
1837,8290;0,01297
1838,7932;0,0129803
1839,7574;0,0130273
1840,7217;0,0130957
1841,6859;0,0131598
1842,6501;0,0131914
1843,6144;0,0131673
1844,5786;0,0130925
1845,5428;0,0130083
1846,5071;0,0129529
1847,4713;0,0129225
1848,4355;0,0128858
1849,3998;0,0128206
1850,3640;0,0127315
1851,3282;0,012643
1852,2925;0,0125802
1853,2567;0,0125545
1854,2209;0,0125619
1855,1852;0,0125928
1856,1494;0,0126399
1857,1136;0,0126992
1858,0779;0,0127629
1859,0421;0,0128173
1860,0063;0,0128494
1860,9706;0,0128593
1861,9348;0,0128668
1862,8990;0,0129026
1863,8633;0,0129917
1864,8275;0,0131393
1865,7917;0,0133199
1866,7560;0,0134707
1867,7202;0,0135069
1868,6844;0,0133819
1869,6487;0,013146
1870,6129;0,0129068
1871,5771;0,0127366
1872,5414;0,0126398
1873,5056;0,0125851
1874,4698;0,0125426
1875,4341;0,0125007
1876,3983;0,0124669
1877,3625;0,0124575
1878,3268;0,0124833
1879,2910;0,01254
1880,2552;0,0126095
1881,2195;0,0126698
1882,1837;0,0127068
1883,1479;0,0127204
1884,1122;0,0127211
1885,0764;0,0127195
1886,0406;0,0127187
1887,0049;0,0127131
1887,9691;0,0126957
1888,9333;0,0126678
1889,8976;0,012644
1890,8618;0,0126434
1891,8260;0,0126729
1892,7903;0,0127186
1893,7545;0,0127546
1894,7188;0,0127585
1895,6830;0,0127248
1896,6472;0,0126673
1897,6115;0,0126086
1898,5757;0,0125649
1899,5399;0,0125393
1900,5042;0,0125273
1901,4684;0,0125267
1902,4326;0,0125422
1903,3969;0,0125825
1904,3611;0,0126511
1905,3253;0,0127393
1906,2896;0,0128256
1907,2538;0,0128812
1908,2180;0,0128815
1909,1823;0,0128193
1910,1465;0,0127122
1911,1107;0,0125971
1912,0750;0,0125105
1913,0392;0,0124732
1914,0034;0,0124883
1914,9677;0,0125468
1915,9319;0,0126332
1916,8961;0,0127287
1917,8604;0,0128171
1918,8246;0,0128892
1919,7888;0,0129395
1920,7531;0,0129591
1921,7173;0,0129355
1922,6815;0,0128616
1923,6458;0,0127457
1924,6100;0,0126115
1925,5742;0,0124854
1926,5385;0,0123827
1927,5027;0,0123063
1928,4669;0,0122557
1929,4312;0,0122351
1930,3954;0,0122512
1931,3596;0,0123018
1932,3239;0,0123649
1933,2881;0,0124031
1934,2523;0,0123824
1935,2166;0,0122966
1936,1808;0,012178
1937,1450;0,0120826
1938,1093;0,0120614
1939,0735;0,0121356
1940,0377;0,0122893
1941,0020;0,0124802
1941,9662;0,0126617
1942,9304;0,0128063
1943,8947;0,0129111
1944,8589;0,0129791
1945,8231;0,0129979
1946,7874;0,0129418
1947,7516;0,0127961
1948,7158;0,0125815
1949,6801;0,0123562
1950,6443;0,01219
1951,6085;0,012125
1952,5728;0,0121521
1953,5370;0,0122189
1954,5012;0,0122631
1955,4655;0,0122464
1956,4297;0,012165
1957,3939;0,0120375
1958,3582;0,0118862
1959,3224;0,0117322
1960,2866;0,0116072
1961,2509;0,0115591
1962,2151;0,0116354
1963,1793;0,011845
1964,1436;0,012129
1965,1078;0,0123667
1966,0720;0,0124307
1967,0363;0,0122676
1968,0005;0,0119461
1968,9647;0,0116202
1969,9290;0,0114323
1970,8932;0,0114376
1971,8574;0,0116019
1972,8217;0,0118552
1973,7859;0,0121503
1974,7501;0,0124831
1975,7144;0,0128616
1976,6786;0,0132524
1977,6428;0,0135634
1978,6071;0,0136903
1979,5713;0,0135897
1980,5355;0,0133131
1981,4998;0,0129786
1982,4640;0,0127102
1983,4282;0,0125855
1984,3925;0,0126148
1985,3567;0,0127532
1986,3209;0,0129375
1987,2852;0,0131265
1988,2494;0,0133207
1989,2136;0,0135499
1990,1779;0,0138365
1991,1421;0,0141562
1992,1063;0,0144288
1993,0706;0,0145539
1994,0348;0,0144675
1994,9990;0,01418
1995,9633;0,013769
1996,9275;0,0133413
1997,8917;0,0129859
1998,8560;0,0127415
1999,8202;0,0125967
2000,7844;0,012524
2001,7487;0,0125204
2002,7129;0,012618
2003,6771;0,0128505
2004,6414;0,0131962
2005,6056;0,0135451
2006,5698;0,0137317
2007,5341;0,0136315
2008,4983;0,0132565
2009,4625;0,0127711
2010,4268;0,0124069
2011,3910;0,0123378
2012,3552;0,0125961
2013,3195;0,0130717
2014,2837;0,0135812
2015,2479;0,0139621
2016,2122;0,0141445
2017,1764;0,0141615
2018,1406;0,0140988
2019,1049;0,0140237
2020,0691;0,0139461
2021,0333;0,0138333
2021,9976;0,013654
2022,9618;0,0134151
2023,9260;0,0131667
2024,8903;0,0129768
2025,8545;0,0128927
2026,8187;0,0129184
2027,7830;0,0130213
2028,7472;0,0131628
2029,7114;0,0133305
2030,6757;0,0135475
2031,6399;0,013851
2032,6041;0,0142499
2033,5684;0,0146947
2034,5326;0,0150842
2035,4968;0,0153138
2036,4611;0,0153337
2037,4253;0,0151782
2038,3895;0,0149461
2039,3538;0,0147452
2040,3180;0,0146352
2041,2822;0,0146033
2042,2465;0,0145916
2043,2107;0,0145579
2044,1749;0,0145252
2045,1392;0,0145783
2046,1034;0,0148033
2047,0676;0,0152072
2048,0320;0,0156798
2048,9961;0,0160404
2049,9604;0,01614
2050,9246;0,0159424
2051,8889;0,0155318
2052,8530;0,0150606
2053,8174;0,0146779
2054,7815;0,014471
2055,7458;0,0144431
2056,7100;0,0145299
2057,6743;0,014644
2058,6384;0,0147167
2059,6028;0,0147199
2060,5669;0,0146643
2061,5313;0,0145854
2062,4954;0,0145263
2063,4597;0,0145199
2064,4238;0,0145728
2065,3882;0,0146592
2066,3523;0,0147307
2067,3167;0,0147431
2068,2808;0,0146829
2069,2451;0,0145775
2070,2092;0,0144789
2071,1736;0,0144317
2072,1377;0,0144463
2073,1021;0,0144957
2074,0662;0,0145384
2075,0305;0,0145497
2075,9946;0,0145366
2076,9590;0,0145281
2077,9231;0,014548
2078,8875;0,0145968
2079,8516;0,0146529
2080,8159;0,014692
2081,7800;0,014706
2082,7444;0,0147065
2083,7085;0,0147112
2084,6729;0,0147246
2085,6370;0,0147307
2086,6013;0,0147011
2087,5654;0,0146155
2088,5298;0,0144778
2089,4939;0,0143184
2090,4583;0,0141814
2091,4224;0,0141053
2092,3867;0,0141077
2093,3508;0,0141822
2094,3152;0,0143056
2095,2793;0,0144489
2096,2437;0,0145872
2097,2078;0,014702
2098,1721;0,0147785
2099,1362;0,0148026
2100,1006;0,0147645
2101,0647;0,0146639
2102,0291;0,0145232
2102,9932;0,0143837
2103,9575;0,0142927
2104,9216;0,0142833
2105,8860;0,0143578
2106,8501;0,0144873
2107,8145;0,0146279
2108,7786;0,0147437
2109,7429;0,0148199
2110,7070;0,0148614
2111,6714;0,0148772
2112,6355;0,0148674
2113,5999;0,0148205
2114,5640;0,0147246
2115,5283;0,0145801
2116,4924;0,014406
2117,4568;0,0142338
2118,4209;0,0140945
2119,3853;0,0140069
2120,3494;0,0139739
2121,3137;0,0139842
2122,2778;0,0140177
2123,2422;0,0140489
2124,2063;0,0140496
2125,1707;0,0139932
2126,1348;0,0138629
2127,0991;0,0136616
2128,0632;0,0134174
2129,0276;0,0131815
2129,9917;0,0130167
2130,9561;0,0129807
2131,9202;0,0131056
2132,8845;0,0133822
2133,8486;0,013753
2134,8130;0,0141232
2135,7771;0,0143932
2136,7415;0,0144996
2137,7056;0,0144437
2138,6699;0,0142887
2139,6340;0,0141273
2140,5984;0,0140372
2141,5625;0,0140488
2142,5269;0,0141418
2143,4910;0,0142685
2144,4553;0,0143872
2145,4194;0,0144853
2146,3838;0,0145796
2147,3479;0,0146969
2148,3123;0,0148508
2149,2764;0,0150266
2150,2407;0,0151831
2151,2048;0,0152677
2152,1692;0,0152413
2153,1333;0,0151046
2154,0977;0,0149179
2155,0618;0,0148015
2156,0261;0,0149031
2156,9902;0,0153276
2157,9546;0,0160506
2158,9187;0,0168897
2159,8831;0,017593
2160,8472;0,0179893
2161,8115;0,0180645
2162,7756;0,0179195
2163,7400;0,017677
2164,7041;0,0174146
2165,6685;0,01715
2166,6326;0,0168669
2167,5969;0,0165523
2168,5610;0,0162171
2169,5254;0,0158907
2170,4895;0,0156038
2171,4539;0,0153741
2172,4180;0,015206
2173,3823;0,0150976
2174,3464;0,0150459
2175,3108;0,0150461
2176,2749;0,0150874
2177,2393;0,0151549
2178,2034;0,0152371
2179,1677;0,0153345
2180,1318;0,0154584
2181,0962;0,0156205
2182,0603;0,0158177
2183,0247;0,0160243
2183,9888;0,0161986
2184,9531;0,0162981
2185,9172;0,0162962
2186,8816;0,0161922
2187,8457;0,0160141
2188,8101;0,0158134
2189,7742;0,0156527
2190,7385;0,0155845
2191,7026;0,0156288
2192,6670;0,0157605
2193,6311;0,0159176
2194,5955;0,01603
2195,5596;0,0160559
2196,5239;0,0160024
2197,4880;0,0159175
2198,4524;0,0158559
2199,4165;0,0158433
2200,3809;0,0158627
2201,3450;0,0158731
2202,3093;0,0158443
2203,2734;0,015782
2204,2378;0,0157223
2205,2019;0,0157014
2206,1663;0,0157222
2207,1304;0,0157462
2208,0947;0,0157165
2209,0588;0,0155975
2210,0232;0,0154023
2210,9873;0,0151904
2211,9517;0,0150376
2212,9158;0,0149972
2213,8801;0,0150767
2214,8442;0,0152387
2215,8086;0,0154221
2216,7727;0,0155682
2217,7371;0,015641
2218,7012;0,0156344
2219,6655;0,0155695
2220,6296;0,015483
2221,5940;0,0154132
2222,5581;0,0153855
2223,5225;0,0154047
2224,4866;0,0154563
2225,4509;0,0155166
2226,4150;0,0155647
2227,3794;0,0155892
2228,3435;0,0155889
2229,3079;0,0155677
2230,2720;0,0155312
2231,2363;0,0154873
2232,2004;0,015449
2233,1648;0,0154334
2234,1289;0,0154558
2235,0933;0,0155213
2236,0574;0,0156193
2237,0217;0,015726
2237,9858;0,0158121
2238,9502;0,0158536
2239,9143;0,0158389
2240,8787;0,0157714
2241,8428;0,0156675
2242,8071;0,0155519
2243,7712;0,0154508
2244,7356;0,0153855
2245,6997;0,0153655
2246,6641;0,0153854
2247,6282;0,0154256
2248,5925;0,0154595
2249,5566;0,0154642
2250,5210;0,0154314
2251,4851;0,0153735
2252,4495;0,015319
2253,4136;0,0152986
2254,3779;0,0153276
2255,3420;0,0153948
2256,3064;0,0154659
2257,2705;0,0155017
2258,2349;0,0154786
2259,1990;0,0154012
2260,1633;0,0152973
2261,1274;0,0152022
2262,0918;0,0151428
2263,0559;0,0151293
2264,0203;0,0151591
2264,9844;0,0152233
2265,9487;0,0153117
2266,9128;0,0154117
2267,8772;0,0155069
2268,8413;0,0155801
2269,8057;0,0156192
2270,7698;0,0156224
2271,7341;0,015597
2272,6982;0,0155538
2273,6626;0,0155011
2274,6267;0,0154456
2275,5911;0,0153969
2276,5552;0,0153708
2277,5195;0,0153857
2278,4836;0,0154534
2279,4480;0,0155713
2280,4121;0,0157227
2281,3765;0,0158863
2282,3406;0,0160464
2283,3049;0,0161972
2284,2690;0,01634
2285,2334;0,0164768
2286,1975;0,0166077
2287,1619;0,0167331
2288,1260;0,0168584
2289,0903;0,0169941
2290,0544;0,0171506
2291,0188;0,0173308
2291,9829;0,0175271
2292,9473;0,0177258
2293,9114;0,0179156
2294,8757;0,0180939
2295,8398;0,0182654
2296,8042;0,0184351
2297,7683;0,0186024
2298,7327;0,018761
2299,6968;0,0189065
2300,6611;0,0190433
2301,6252;0,0191858
2302,5896;0,0193511
2303,5537;0,0195498
2304,5181;0,01978
2305,4822;0,0200269
2306,4465;0,020267
2307,4106;0,0204733
2308,3750;0,0206189
2309,3391;0,0206816
2310,3035;0,0206523
2311,2676;0,0205434
2312,2319;0,0203906
2313,1960;0,0202411
2314,1604;0,0201332
2315,1245;0,0200792
2316,0889;0,0200656
2317,0530;0,020068
2318,0173;0,0200697
2318,9814;0,0200697
2319,9458;0,0200763
2320,9099;0,0200924
2321,8743;0,0201072
2322,8384;0,0201012
2323,8027;0,0200544
2324,7668;0,0199491
2325,7312;0,0197691
2326,6953;0,0194999
2327,6597;0,0191336
2328,6238;0,018678
2329,5881;0,0181677
2330,5522;0,0176689
2331,5166;0,0172617
2332,4807;0,0170002
2333,4451;0,0168812
2334,4092;0,0168472
2335,3735;0,0168269
2336,3376;0,016783
2337,3020;0,0167379
2338,2661;0,0167598
2339,2305;0,0169087
2340,1946;0,0171744
2341,1589;0,0174506
2342,1230;0,017581
2343,0874;0,0174931
2344,0515;0,0173395
2345,0159;0,0174317
2345,9800;0,017948
2346,9443;0,0187658
2347,9084;0,0195839
2348,8728;0,0201307
2349,8369;0,020286
2350,8013;0,0201018
2351,7654;0,0197524
2352,7297;0,0194346
2353,6938;0,0192616
2354,6582;0,0192313
2355,6223;0,0192829
2356,5867;0,0193526
2357,5508;0,0193799
2358,5151;0,0193094
2359,4792;0,0191195
2360,4436;0,0188422
2361,4077;0,0185345
2362,3721;0,0182316
2363,3362;0,0179332
2364,3005;0,0176306
2365,2646;0,0173336
2366,2290;0,0170678
2367,1931;0,0168523
2368,1575;0,0166847
2369,1216;0,0165465
2370,0859;0,0164192
2371,0500;0,0162981
2372,0144;0,0161955
2372,9785;0,0161348
2373,9429;0,0161396
2374,9070;0,0162229
2375,8713;0,01638
2376,8354;0,0165886
2377,7998;0,0168141
2378,7639;0,0170171
2379,7283;0,0171604
2380,6924;0,0172141
2381,6567;0,0171603
2382,6208;0,0169973
2383,5852;0,016742
2384,5493;0,0164279
2385,5137;0,0160976
2386,4778;0,0157915
2387,4421;0,0155371
2388,4063;0,0153434
2389,3706;0,0152026
2390,3347;0,0150982
2391,2991;0,0150153
2392,2632;0,0149473
2393,2275;0,0148973
2394,1917;0,014874
2395,1560;0,0148851
2396,1201;0,0149307
2397,0845;0,0150014
2398,0486;0,0150805
2399,0129;0,0151479
2399,9771;0,0151883
2400,9414;0,0151964
2401,9055;0,0151788
2402,8699;0,0151514
2403,8340;0,0151313
2404,7983;0,0151302
2405,7625;0,0151496
2406,7268;0,0151824
2407,6909;0,0152194
2408,6553;0,0152557
2409,6194;0,0152921
2410,5837;0,0153329
2411,5479;0,0153792
2412,5122;0,0154263
2413,4763;0,0154661
2414,4407;0,0154931
2415,4048;0,0155091
2416,3691;0,0155234
2417,3333;0,0155459
2418,2976;0,0155811
2419,2617;0,0156249
2420,2261;0,0156678
2421,1902;0,0157
2422,1545;0,0157154
2423,1187;0,0157129
2424,0830;0,0156952
2425,0471;0,0156689
2426,0115;0,0156446
2426,9756;0,0156363
2427,9399;0,0156554
2428,9041;0,0157043
2429,8684;0,015772
2430,8325;0,0158378
2431,7969;0,015883
2432,7610;0,0159009
2433,7253;0,0159009
2434,6895;0,0159014
2435,6538;0,0159175
2436,6179;0,0159517
2437,5823;0,0159945
2438,5464;0,0160323
2439,5107;0,0160569
2440,4749;0,0160694
2441,4392;0,0160776
2442,4033;0,0160889
2443,3677;0,0161061
2444,3318;0,0161272
2445,2961;0,0161489
2446,2603;0,0161702
2447,2246;0,0161935
2448,1887;0,016223
2449,1531;0,0162612
2450,1172;0,0163064
2451,0815;0,0163517
2452,0457;0,0163869
2453,0100;0,0164027
2453,9741;0,0163962
2454,9385;0,0163736
2455,9026;0,016349
2456,8669;0,0163379
2457,8311;0,0163487
2458,7954;0,0163778
2459,7595;0,0164118
2460,7239;0,0164351
2461,6880;0,0164396
2462,6523;0,0164295
2463,6165;0,0164183
2464,5808;0,0164193
2465,5449;0,0164378
2466,5093;0,0164684
2467,4734;0,0164997
2468,4377;0,0165223
2469,4019;0,0165342
2470,3662;0,016541
2471,3303;0,0165507
2472,2947;0,0165682
2473,2588;0,0165922
2474,2231;0,0166173
2475,1873;0,0166369
2476,1516;0,0166468
2477,1157;0,0166464
2478,0801;0,0166385
2479,0442;0,0166279
2480,0085;0,0166208
2480,9727;0,0166228
2481,9370;0,0166377
2482,9011;0,0166664
2483,8655;0,0167062
2484,8296;0,0167525
2485,7939;0,0167999
2486,7581;0,0168436
2487,7224;0,0168805
2488,6865;0,0169086
2489,6509;0,016928
2490,6150;0,0169405
2491,5793;0,0169493
2492,5435;0,0169579
2493,5078;0,0169676
2494,4719;0,016977
2495,4363;0,016984
2496,4004;0,0169877
2497,3647;0,0169906
2498,3289;0,0169973
2499,2932;0,0170111
2500,2573;0,0170319
2501,2217;0,0170552
2502,1858;0,0170754
2503,1501;0,0170893
2504,1143;0,0170976
2505,0786;0,0171043
2506,0427;0,0171133
2507,0071;0,0171264
2507,9712;0,0171421
2508,9355;0,017157
2509,8997;0,0171667
2510,8640;0,0171686
2511,8281;0,0171629
2512,7925;0,0171545
2513,7566;0,0171525
2514,7209;0,0171669
2515,6851;0,0172034
2516,6494;0,0172583
2517,6135;0,0173177
2518,5779;0,0173636
2519,5420;0,0173818
2520,5063;0,0173699
2521,4705;0,017338
2522,4348;0,017304
2523,3989;0,0172846
2524,3633;0,0172891
2525,3274;0,0173172
2526,2917;0,0173621
2527,2559;0,0174139
2528,2202;0,0174632
2529,1843;0,0175021
2530,1487;0,0175256
2531,1128;0,017532
2532,0771;0,0175241
2533,0413;0,0175082
2534,0056;0,0174913
2534,9697;0,0174788
2535,9341;0,0174726
2536,8982;0,0174724
2537,8625;0,0174787
2538,8267;0,0174937
2539,7910;0,0175204
2540,7551;0,0175592
2541,7195;0,0176053
2542,6836;0,0176487
2543,6479;0,0176789
2544,6121;0,0176903
2545,5764;0,0176856
2546,5405;0,0176752
2547,5049;0,0176712
2548,4690;0,017682
2549,4333;0,0177084
2550,3975;0,017744
2551,3618;0,0177797
2552,3259;0,0178079
2553,2903;0,0178254
2554,2544;0,0178334
2555,2188;0,0178346
2556,1829;0,0178308
2557,1472;0,0178227
2558,1113;0,0178102
2559,0757;0,017795
2560,0398;0,0177816
2561,0042;0,0177767
2561,9683;0,0177856
2562,9326;0,0178095
2563,8967;0,0178434
2564,8611;0,0178779
2565,8252;0,0179035
2566,7896;0,0179161
2567,7537;0,0179191
2568,7180;0,0179223
2569,6821;0,0179355
2570,6465;0,0179631
2571,6106;0,0180005
2572,5750;0,0180374
2573,5391;0,0180632
2574,5034;0,0180736
2575,4675;0,0180728
2576,4319;0,0180716
2577,3960;0,0180811
2578,3604;0,0181071
2579,3245;0,0181473
2580,2888;0,0181919
2581,2529;0,0182283
2582,2173;0,0182461
2583,1814;0,0182419
2584,1458;0,0182206
2585,1099;0,0181935
2586,0742;0,018174
2587,0383;0,0181713
2588,0027;0,0181874
2588,9668;0,0182165
2589,9312;0,0182481
2590,8953;0,0182722
2591,8596;0,0182839
2592,8237;0,0182849
2593,7881;0,0182822
2594,7522;0,0182849
2595,7166;0,0183006
2596,6807;0,0183323
2597,6450;0,0183778
2598,6091;0,0184306
2599,5735;0,0184823
2600,5376;0,0185262
2601,5020;0,0185597
2602,4661;0,0185841
2603,4304;0,0186027
2604,3945;0,0186176
2605,3589;0,0186288
2606,3230;0,0186354
2607,2874;0,0186382
2608,2515;0,0186404
2609,2158;0,0186467
2610,1799;0,0186598
2611,1443;0,0186787
2612,1084;0,0187
2613,0728;0,018721
2614,0369;0,0187425
2615,0012;0,0187678
2615,9653;0,0187987
2616,9297;0,0188331
2617,8938;0,018865
2618,8582;0,0188893
2619,8223;0,0189052
2620,7866;0,0189171
2621,7507;0,0189307
2622,7151;0,0189474
2623,6792;0,0189634
2624,6436;0,0189725
2625,6077;0,0189728
2626,5720;0,0189696
2627,5361;0,0189737
2628,5005;0,0189949
2629,4646;0,0190352
2630,4290;0,0190868
2631,3931;0,0191362
2632,3574;0,0191714
2633,3215;0,019188
2634,2859;0,0191899
2635,2500;0,0191864
2636,2144;0,019186
2637,1785;0,0191927
2638,1428;0,0192056
2639,1069;0,0192208
2640,0713;0,0192354
2641,0354;0,0192488
2641,9998;0,0192627
2642,9639;0,0192791
2643,9282;0,0192987
2644,8923;0,0193202
2645,8567;0,0193412
2646,8208;0,0193595
2647,7852;0,0193734
2648,7493;0,0193824
2649,7136;0,0193872
2650,6777;0,0193891
2651,6421;0,0193912
2652,6062;0,019397
2653,5706;0,0194091
2654,5347;0,0194278
2655,4990;0,0194498
2656,4631;0,019469
2657,4275;0,0194799
2658,3916;0,0194795
2659,3560;0,0194688
2660,3201;0,0194514
2661,2844;0,0194317
2662,2485;0,0194128
2663,2129;0,0193962
2664,1770;0,0193833
2665,1414;0,0193755
2666,1055;0,0193744
2667,0698;0,0193796
2668,0339;0,0193886
2668,9983;0,0193968
2669,9624;0,0194005
2670,9268;0,0193997
2671,8909;0,0193988
2672,8552;0,019404
2673,8193;0,0194204
2674,7837;0,0194481
2675,7478;0,0194826
2676,7122;0,0195168
2677,6763;0,019545
2678,6406;0,0195657
2679,6047;0,0195818
2680,5691;0,0195989
2681,5332;0,0196219
2682,4976;0,0196528
2683,4617;0,0196897
2684,4260;0,0197282
2685,3901;0,0197638
2686,3545;0,0197937
2687,3186;0,0198178
2688,2830;0,0198377
2689,2471;0,0198549
2690,2114;0,0198698
2691,1755;0,0198822
2692,1399;0,0198927
2693,1040;0,0199039
2694,0684;0,0199197
2695,0325;0,0199426
2695,9968;0,0199714
2696,9609;0,0200009
2697,9253;0,0200246
2698,8894;0,0200386
2699,8538;0,020044
2700,8179;0,020047
2701,7822;0,0200554
2702,7463;0,0200749
2703,7107;0,0201068
2704,6748;0,0201482
2705,6392;0,0201934
2706,6033;0,0202364
2707,5676;0,0202723
2708,5317;0,0202989
2709,4961;0,0203164
2710,4602;0,020328
2711,4246;0,0203383
2712,3887;0,0203515
2713,3530;0,0203698
2714,3171;0,0203927
2715,2815;0,0204179
2716,2456;0,0204433
2717,2100;0,0204676
2718,1741;0,0204913
2719,1384;0,0205153
2720,1025;0,0205401
2721,0669;0,020565
2722,0310;0,0205888
2722,9954;0,0206111
2723,9595;0,0206323
2724,9238;0,0206535
2725,8879;0,0206755
2726,8523;0,0206977
2727,8164;0,0207192
2728,7808;0,0207388
2729,7449;0,020757
2730,7092;0,0207752
2731,6733;0,0207953
2732,6377;0,0208175
2733,6018;0,0208405
2734,5662;0,0208618
2735,5303;0,0208797
2736,4946;0,0208946
2737,4587;0,0209077
2738,4231;0,0209199
2739,3872;0,0209312
2740,3516;0,0209407
2741,3157;0,0209488
2742,2800;0,020958
2743,2441;0,0209723
2744,2085;0,0209937
2745,1726;0,021021
2746,1370;0,0210499
2747,1011;0,0210757
2748,0654;0,0210969
2749,0295;0,0211155
2749,9939;0,0211347
2750,9580;0,021156
2751,9224;0,0211777
2752,8865;0,0211966
2753,8508;0,0212113
2754,8149;0,0212237
2755,7793;0,021238
2756,7434;0,0212573
2757,7078;0,0212808
2758,6719;0,0213048
2759,6362;0,0213262
2760,6003;0,0213451
2761,5647;0,0213658
2762,5288;0,0213932
2763,4932;0,0214288
2764,4573;0,021469
2765,4216;0,0215069
2766,3857;0,0215373
2767,3501;0,02156
2768,3142;0,0215805
2769,2786;0,0216062
2770,2427;0,0216415
2771,2070;0,0216841
2772,1711;0,0217264
2773,1355;0,0217605
2774,0996;0,0217832
2775,0640;0,0217989
2776,0281;0,0218179
2776,9924;0,0218502
2777,9565;0,0218995
2778,9209;0,0219606
2779,8850;0,0220221
2780,8494;0,0220728
2781,8135;0,0221079
2782,7778;0,0221307
2783,7419;0,0221505
2784,7063;0,0221759
2785,6704;0,0222106
2786,6348;0,0222517
2787,5989;0,0222928
2788,5632;0,0223295
2789,5273;0,0223615
2790,4917;0,0223935
2791,4558;0,0224312
2792,4202;0,0224783
2793,3843;0,0225347
2794,3486;0,0225976
2795,3127;0,0226636
2796,2771;0,0227303
2797,2412;0,0227969
2798,2056;0,0228622
2799,1697;0,0229249
2800,1340;0,0229836
2801,0981;0,0230385
2802,0625;0,0230928
2803,0266;0,0231516
2803,9910;0,0232192
2804,9551;0,0232967
2805,9194;0,0233801
2806,8835;0,0234622
2807,8479;0,0235367
2808,8120;0,0236017
2809,7764;0,0236614
2810,7405;0,0237239
2811,7048;0,0237965
2812,6689;0,0238823
2813,6333;0,0239787
2814,5974;0,0240794
2815,5618;0,0241789
2816,5259;0,024275
2817,4902;0,0243698
2818,4543;0,024467
2819,4187;0,024569
2820,3828;0,0246753
2821,3472;0,0247836
2822,3113;0,0248921
2823,2756;0,0250024
2824,2397;0,0251191
2825,2041;0,0252472
2826,1682;0,0253891
2827,1326;0,0255431
2828,0967;0,0257049
2829,0610;0,0258695
2830,0251;0,0260342
2830,9895;0,0261988
2831,9536;0,0263644
2832,9180;0,0265328
2833,8821;0,0267062
2834,8464;0,0268887
2835,8105;0,027086
2836,7749;0,0273037
2837,7390;0,0275446
2838,7034;0,0278068
2839,6675;0,0280856
2840,6318;0,0283763
2841,5959;0,0286784
2842,5603;0,0289958
2843,5244;0,0293343
2844,4888;0,0296972
2845,4529;0,0300814
2846,4172;0,0304767
2847,3813;0,0308672
2848,3457;0,0312333
2849,3098;0,0315546
2850,2742;0,031813
2851,2383;0,0319955
2852,2026;0,0320974
2853,1667;0,0321243
2854,1311;0,0320901
2855,0952;0,0320128
2856,0596;0,03191
2857,0237;0,0317958
2857,9880;0,0316812
2858,9521;0,0315766
2859,9165;0,0314926
2860,8806;0,0314398
2861,8450;0,0314247
2862,8091;0,0314475
2863,7734;0,0315017
2864,7375;0,0315771
2865,7019;0,0316639
2866,6660;0,0317555
2867,6304;0,031848
2868,5945;0,0319381
2869,5588;0,0320206
2870,5229;0,0320891
2871,4873;0,0321393
2872,4514;0,0321721
2873,4158;0,032195
2874,3799;0,0322183
2875,3442;0,0322504
2876,3083;0,0322933
2877,2727;0,0323428
2878,2368;0,0323927
2879,2012;0,0324396
2880,1653;0,0324846
2881,1296;0,032532
2882,0938;0,0325848
2883,0581;0,0326431
2884,0222;0,0327042
2884,9866;0,032766
2885,9507;0,0328292
2886,9150;0,0328962
2887,8792;0,0329692
2888,8435;0,0330478
2889,8076;0,0331299
2890,7720;0,0332133
2891,7361;0,033298
2892,7004;0,0333851
2893,6646;0,0334748
2894,6289;0,0335645
2895,5930;0,0336499
2896,5574;0,0337285
2897,5215;0,0338017
2898,4858;0,033874
2899,4500;0,0339496
2900,4143;0,0340288
2901,3784;0,034108
2902,3428;0,0341838
2903,3069;0,034257
2904,2712;0,0343349
2905,2354;0,0344274
2906,1997;0,0345411
2907,1638;0,0346756
2908,1282;0,0348243
2909,0923;0,0349804
2910,0566;0,0351428
2911,0208;0,0353186
2911,9851;0,0355191
2912,9492;0,0357519
2913,9136;0,0360146
2914,8777;0,0362925
2915,8420;0,0365625
2916,8062;0,0368007
2917,7705;0,0369888
2918,7346;0,0371191
2919,6990;0,0371932
2920,6631;0,0372188
2921,6274;0,0372043
2922,5916;0,0371545
2923,5559;0,0370689
2924,5200;0,0369433
2925,4844;0,0367743
2926,4485;0,0365639
2927,4128;0,036321
2928,3770;0,0360598
2929,3413;0,0357945
2930,3054;0,0355337
2931,2698;0,0352783
2932,2339;0,0350232
2933,1982;0,0347618
2934,1624;0,0344908
2935,1267;0,0342115
2936,0908;0,0339293
2937,0552;0,0336496
2938,0193;0,0333759
2938,9836;0,0331091
2939,9478;0,0328488
2940,9121;0,0325948
2941,8762;0,032348
2942,8406;0,03211
2943,8047;0,0318822
2944,7690;0,0316656
2945,7332;0,031461
2946,6975;0,03127
2947,6616;0,031095
2948,6260;0,0309382
2949,5901;0,0307994
2950,5544;0,0306745
2951,5186;0,0305559
2952,4829;0,0304345
2953,4470;0,0303039
2954,4114;0,030163
2955,3755;0,0300166
2956,3398;0,0298714
2957,3040;0,0297318
2958,2683;0,0295969
2959,2324;0,0294614
2960,1968;0,0293202
2961,1609;0,029172
2962,1252;0,0290215
2963,0894;0,0288755
2964,0537;0,0287388
2965,0178;0,0286102
2965,9822;0,0284831
2966,9463;0,0283499
2967,9106;0,0282064
2968,8748;0,0280541
2969,8391;0,027899
2970,8032;0,0277484
2971,7676;0,0276084
2972,7317;0,0274826
2973,6960;0,0273722
2974,6602;0,0272766
2975,6245;0,0271928
2976,5886;0,0271152
2977,5530;0,027037
2978,5171;0,0269529
2979,4814;0,0268614
2980,4456;0,0267666
2981,4099;0,0266752
2982,3740;0,0265933
2983,3384;0,0265228
2984,3025;0,0264611
2985,2668;0,0264036
2986,2310;0,0263473
2987,1953;0,0262926
2988,1594;0,0262434
2989,1238;0,0262044
2990,0879;0,0261778
2991,0522;0,0261622
2992,0164;0,0261532
2992,9807;0,0261454
2993,9448;0,0261358
2994,9092;0,0261256
2995,8733;0,0261199
2996,8376;0,026125
2997,8018;0,026145
2998,7661;0,0261786
2999,7302;0,0262192
3000,6946;0,026258
3001,6587;0,0262885
3002,6230;0,0263102
3003,5872;0,0263286
3004,5515;0,0263513
3005,5156;0,0263836
3006,4800;0,0264251
3007,4441;0,0264708
3008,4084;0,0265146
3009,3726;0,0265521
3010,3369;0,0265823
3011,3010;0,0266058
3012,2654;0,0266234
3013,2295;0,026635
3014,1938;0,0266408
3015,1580;0,0266435
3016,1223;0,026649
3017,0864;0,0266647
3018,0508;0,0266974
3019,0149;0,0267492
3019,9792;0,0268164
3020,9434;0,0268906
3021,9077;0,0269617
3022,8718;0,0270226
3023,8362;0,0270722
3024,8003;0,0271164
3025,7646;0,0271646
3026,7288;0,0272249
3027,6931;0,0272994
3028,6572;0,0273826
3029,6216;0,0274645
3030,5857;0,0275357
3031,5500;0,0275926
3032,5142;0,0276386
3033,4785;0,0276812
3034,4426;0,0277269
3035,4070;0,0277775
3036,3711;0,0278309
3037,3354;0,0278843
3038,2996;0,027937
3039,2639;0,0279918
3040,2280;0,0280524
3041,1924;0,0281212
3042,1565;0,028198
3043,1208;0,028281
3044,0850;0,0283683
3045,0493;0,0284597
3046,0134;0,028555
3046,9778;0,0286532
3047,9419;0,0287515
3048,9063;0,0288466
3049,8704;0,0289369
3050,8347;0,0290231
3051,7988;0,0291077
3052,7632;0,0291922
3053,7273;0,0292763
3054,6917;0,029358
3055,6558;0,0294358
3056,6201;0,0295104
3057,5842;0,0295852
3058,5486;0,0296645
3059,5127;0,0297513
3060,4771;0,0298461
3061,4412;0,0299463
3062,4055;0,0300484
3063,3696;0,0301481
3064,3340;0,0302413
3065,2981;0,0303238
3066,2625;0,0303926
3067,2266;0,030447
3068,1909;0,0304896
3069,1550;0,0305271
3070,1194;0,0305687
3071,0835;0,0306228
3072,0479;0,0306947
3073,0120;0,0307842
3073,9763;0,0308862
3074,9404;0,0309928
3075,9048;0,0310962
3076,8689;0,0311908
3077,8333;0,0312746
3078,7974;0,0313486
3079,7617;0,0314162
3080,7258;0,0314811
3081,6902;0,0315464
3082,6543;0,0316134
3083,6187;0,0316817
3084,5828;0,0317499
3085,5471;0,0318168
3086,5112;0,0318833
3087,4756;0,0319524
3088,4397;0,0320281
3089,4041;0,0321128
3090,3682;0,0322053
3091,3325;0,032301
3092,2966;0,0323934
3093,2610;0,0324783
3094,2251;0,0325563
3095,1895;0,032633
3096,1536;0,0327156
3097,1179;0,0328086
3098,0820;0,03291
3099,0464;0,0330119
3100,0105;0,0331038
3100,9749;0,0331785
3101,9390;0,0332362
3102,9033;0,0332843
3103,8674;0,0333344
3104,8318;0,0333973
3105,7959;0,0334786
3106,7603;0,0335779
3107,7244;0,0336905
3108,6887;0,0338095
3109,6528;0,0339288
3110,6172;0,0340444
3111,5813;0,0341538
3112,5457;0,0342558
3113,5098;0,0343499
3114,4741;0,0344367
3115,4382;0,0345179
3116,4026;0,0345962
3117,3667;0,034674
3118,3311;0,0347528
3119,2952;0,0348328
3120,2595;0,0349142
3121,2236;0,0349985
3122,1880;0,0350882
3123,1521;0,0351854
3124,1165;0,0352895
3125,0806;0,0353961
3126,0449;0,0354987
3127,0090;0,0355922
3127,9734;0,0356759
3128,9375;0,0357544
3129,9019;0,0358352
3130,8660;0,035924
3131,8303;0,036022
3132,7944;0,0361249
3133,7588;0,0362262
3134,7229;0,0363205
3135,6873;0,0364064
3136,6514;0,0364869
3137,6157;0,0365667
3138,5798;0,0366503
3139,5442;0,0367401
3140,5083;0,0368358
3141,4727;0,0369352
3142,4368;0,0370357
3143,4011;0,0371352
3144,3652;0,0372343
3145,3296;0,0373352
3146,2937;0,0374415
3147,2581;0,0375556
3148,2222;0,0376771
3149,1865;0,0378023
3150,1506;0,0379251
3151,1150;0,0380398
3152,0791;0,0381432
3153,0435;0,038236
3154,0076;0,0383221
3154,9719;0,0384075
3155,9360;0,0384976
3156,9004;0,0385962
3157,8645;0,0387036
3158,8289;0,0388169
3159,7930;0,0389321
3160,7573;0,0390454
3161,7214;0,0391558
3162,6858;0,0392647
3163,6499;0,0393741
3164,6143;0,0394843
3165,5784;0,0395935
3166,5427;0,0396986
3167,5068;0,039798
3168,4712;0,0398934
3169,4353;0,0398854
3170,3997;0,0399844
3171,3638;0,0400879
3172,3281;0,0401927
3173,2922;0,0402952
3174,2566;0,0403944
3175,2207;0,0404923
3176,1851;0,040592
3177,1492;0,040694
3178,1135;0,0407955
3179,0776;0,0408922
3180,0420;0,0409829
3181,0061;0,041071
3181,9705;0,041163
3182,9346;0,0412641
3183,8989;0,0413742
3184,8630;0,0414876
3185,8274;0,0415976
3186,7915;0,0417004
3187,7559;0,041798
3188,7200;0,0418953
3189,6843;0,0419959
3190,6484;0,0420986
3191,6128;0,0421982
3192,5769;0,04229
3193,5413;0,042373
3194,5054;0,0424512
3195,4697;0,042531
3196,4338;0,0426167
3197,3982;0,0427084
3198,3623;0,0428034
3199,3267;0,0428986
3200,2908;0,0429935
3201,2551;0,0430894
3202,2192;0,043187
3203,1836;0,0432847
3204,1477;0,043378
3205,1121;0,0434625
3206,0762;0,0435369
3207,0405;0,0436036
3208,0046;0,0436687
3208,9690;0,0437386
3209,9331;0,0438181
3210,8975;0,043909
3211,8616;0,0440109
3212,8259;0,0441208
3213,7900;0,0442339
3214,7544;0,0443436
3215,7185;0,0444427
3216,6829;0,0445256
3217,6470;0,0445901
3218,6113;0,0446394
3219,5754;0,0446808
3220,5398;0,0447236
3221,5039;0,0447757
3222,4683;0,0448407
3223,4324;0,0449178
3224,3967;0,0450033
3225,3608;0,0450927
3226,3252;0,0451828
3227,2893;0,0452724
3228,2537;0,0453606
3229,2178;0,0454459
3230,1821;0,045526
3231,1462;0,0455987
3232,1106;0,0456637
3233,0747;0,0457241
3234,0391;0,0457849
3235,0032;0,0458503
3235,9675;0,0459223
3236,9316;0,0459998
3237,8960;0,0460808
3238,8601;0,046164
3239,8245;0,0462497
3240,7886;0,0463381
3241,7529;0,0464273
3242,7170;0,046514
3243,6814;0,0465942
3244,6455;0,0466666
3245,6099;0,0467338
3246,5740;0,0468006
3247,5383;0,0468712
3248,5024;0,0469474
3249,4668;0,0470287
3250,4309;0,0471144
3251,3953;0,0472041
3252,3594;0,0472968
3253,3237;0,0473899
3254,2878;0,0474788
3255,2522;0,0475597
3256,2163;0,047632
3257,1807;0,0476997
3258,1448;0,0477686
3259,1091;0,0478425
3260,0732;0,0479206
3261,0376;0,0479982
3262,0017;0,0480704
3262,9661;0,0481363
3263,9302;0,0481989
3264,8945;0,0482622
3265,8586;0,0483268
3266,8230;0,0483879
3267,7871;0,0484392
3268,7515;0,0484773
3269,7156;0,0485058
3270,6799;0,0485347
3271,6440;0,0485742
3272,6084;0,0486286
3273,5725;0,0486923
3274,5369;0,0487526
3275,5010;0,0487972
3276,4653;0,0488207
3277,4294;0,0488276
3278,3938;0,0488282
3279,3579;0,0488323
3280,3223;0,0488439
3281,2864;0,0488605
3282,2507;0,0488771
3283,2148;0,0488909
3284,1792;0,0489047
3285,1433;0,0489242
3286,1077;0,0489534
3287,0718;0,04899
3288,0361;0,0490252
3289,0002;0,0490472
3289,9646;0,0490481
3290,9287;0,0490283
3291,8931;0,0489962
3292,8572;0,0489639
3293,8215;0,0489412
3294,7856;0,0489319
3295,7500;0,0489345
3296,7141;0,048945
3297,6785;0,04896
3298,6426;0,048977
3299,6069;0,0489932
3300,5710;0,0490049
3301,5354;0,0490086
3302,4995;0,0490037
3303,4639;0,0489942
3304,4280;0,0489878
3305,3923;0,0489924
3306,3564;0,0490112
3307,3208;0,0490416
3308,2849;0,0490763
3309,2493;0,0491079
3310,2134;0,0491322
3311,1777;0,0491498
3312,1418;0,0491642
3313,1062;0,0491798
3314,0703;0,0491998
3315,0347;0,0492252
3315,9988;0,0492553
3316,9631;0,049288
3317,9272;0,0493203
3318,8916;0,04935
3319,8557;0,0493767
3320,8201;0,0494022
3321,7842;0,0494293
3322,7485;0,0494593
3323,7126;0,0494911
3324,6770;0,0495204
3325,6411;0,0495431
3326,6055;0,049557
3327,5696;0,0495641
3328,5339;0,0495695
3329,4980;0,0495784
3330,4624;0,0495934
3331,4265;0,0496125
3332,3909;0,0496294
3333,3550;0,0496357
3334,3193;0,0496239
3335,2834;0,0495904
3336,2478;0,0495374
3337,2119;0,0494714
3338,1763;0,0494004
3339,1404;0,0493309
3340,1047;0,049266
3341,0688;0,049206
3342,0332;0,0491504
3342,9973;0,0490984
3343,9617;0,0490487
3344,9258;0,0489981
3345,8901;0,0489418
3346,8542;0,048875
3347,8186;0,0487962
3348,7827;0,0487095
3349,7471;0,0486231
3350,7112;0,0485464
3351,6755;0,0484842
3352,6396;0,0484352
3353,6040;0,0483926
3354,5681;0,0483482
3355,5325;0,0482964
3356,4966;0,0482363
3357,4609;0,0481704
3358,4250;0,0481019
3359,3894;0,0480327
3360,3535;0,0479629
3361,3179;0,0478926
3362,2820;0,0478228
3363,2463;0,0477555
3364,2104;0,0476923
3365,1748;0,0476326
3366,1389;0,0475727
3367,1033;0,0475074
3368,0674;0,0474319
3369,0317;0,0473449
3369,9958;0,0472493
3370,9602;0,047151
3371,9243;0,0470569
3372,8887;0,0469715
3373,8528;0,046896
3374,8171;0,0468274
3375,7813;0,0467604
3376,7456;0,0466911
3377,7097;0,0466184
3378,6741;0,0465456
3379,6382;0,0464779
3380,6025;0,0464192
3381,5667;0,046369
3382,5310;0,0463216
3383,4951;0,0462684
3384,4595;0,0462035
3385,4236;0,0461272
3386,3879;0,0460464
3387,3521;0,0459712
3388,3164;0,0459082
3389,2805;0,0458568
3390,2449;0,0458098
3391,2090;0,0457572
3392,1733;0,0456924
3393,1375;0,0456157
3394,1018;0,0455335
3395,0659;0,0454527
3396,0303;0,0453762
3396,9944;0,0453015
3397,9587;0,045223
3398,9229;0,0451357
3399,8872;0,0450386
3400,8513;0,0449344
3401,8157;0,044828
3402,7798;0,0447243
3403,7441;0,0446263
3404,7083;0,0445347
3405,6726;0,0444471
3406,6367;0,0443588
3407,6011;0,0442645
3408,5652;0,04416
3409,5295;0,0440447
3410,4937;0,0439233
3411,4580;0,0438045
3412,4221;0,0436989
3413,3865;0,0436142
3414,3506;0,0435512
3415,3149;0,0435025
3416,2791;0,0434549
3417,2434;0,0433936
3418,2075;0,0433073
3419,1719;0,0431921
3420,1360;0,0430528
3421,1003;0,0428999
3422,0645;0,0427445
3423,0288;0,0425929
3423,9929;0,0424461
3424,9573;0,0423022
3425,9214;0,0421606
3426,8857;0,0420223
3427,8499;0,04189
3428,8142;0,0417648
3429,7783;0,0416456
3430,7427;0,0415292
3431,7068;0,0414116
3432,6711;0,0412887
3433,6353;0,0411576
3434,5996;0,0410178
3435,5637;0,0408726
3436,5281;0,0407291
3437,4922;0,0405959
3438,4565;0,04048
3439,4207;0,0403834
3440,3850;0,0403022
3441,3491;0,0402286
3442,3135;0,0401537
3443,2776;0,0400681
3444,2419;0,0399623
3445,2061;0,0398262
3446,1704;0,0396528
3447,1345;0,0394442
3448,0989;0,0392149
3449,0630;0,0389875
3450,0273;0,0387819
3450,9915;0,038608
3451,9558;0,0384642
3452,9199;0,0383417
3453,8843;0,0382299
3454,8484;0,0381208
3455,8127;0,0380102
3456,7769;0,0378971
3457,7412;0,0377801
3458,7053;0,037657
3459,6697;0,0375256
3460,6338;0,0373862
3461,5981;0,037243
3462,5623;0,0371019
3463,5266;0,0369669
3464,4907;0,0368368
3465,4551;0,0367059
3466,4192;0,0365675
3467,3835;0,0364187
3468,3477;0,0362619
3469,3120;0,0361031
3470,2761;0,0359467
3471,2405;0,0357924
3472,2046;0,0356366
3473,1689;0,0354773
3474,1331;0,0353201
3475,0974;0,0351771
3476,0615;0,035061
3477,0259;0,0349757
3477,9900;0,0349119
3478,9543;0,03485
3479,9185;0,0347686
3480,8828;0,0346552
3481,8469;0,0345111
3482,8113;0,0343486
3483,7754;0,03418
3484,7397;0,0340104
3485,7039;0,0338384
3486,6682;0,0336618
3487,6323;0,0334845
3488,5967;0,0333162
3489,5608;0,0331671
3490,5251;0,0330409
3491,4893;0,0329316
3492,4536;0,0328256
3493,4177;0,0327099
3494,3821;0,03258
3495,3462;0,0324463
3496,3105;0,0323314
3497,2747;0,0322579
3498,2390;0,0322323
3499,2031;0,032235
3500,1675;0,0322226
3501,1316;0,0321431
3502,0959;0,0319639
3503,0601;0,0316987
3504,0244;0,0314063
3504,9885;0,0311535
3505,9529;0,0309738
3506,9170;0,0308548
3507,8813;0,030754
3508,8455;0,0306258
3509,8098;0,0304478
3510,7739;0,0302322
3511,7383;0,0300133
3512,7024;0,0298211
3513,6667;0,0296652
3514,6309;0,0295372
3515,5952;0,0294252
3516,5593;0,0293258
3517,5237;0,0292479
3518,4878;0,0292052
3519,4521;0,0292035
3520,4163;0,0292317
3521,3806;0,0292617
3522,3447;0,0292581
3523,3091;0,0291944
3524,2732;0,0290638
3525,2375;0,0288765
3526,2017;0,0286476
3527,1660;0,0283871
3528,1301;0,028102
3529,0945;0,027806
3530,0586;0,0275241
3531,0229;0,0272841
3531,9871;0,0271033
3532,9514;0,026979
3533,9155;0,0268876
3534,8799;0,0267931
3535,8440;0,0266656
3536,8083;0,026502
3537,7725;0,0263331
3538,7368;0,0262075
3539,7009;0,0261641
3540,6653;0,0262126
3541,6294;0,0263271
3542,5938;0,02645
3543,5579;0,0265037
3544,5222;0,0264228
3545,4863;0,0261963
3546,4507;0,0258826
3547,4148;0,0255667
3548,3792;0,0253013
3549,3433;0,0250848
3550,3076;0,0248813
3551,2717;0,024655
3552,2361;0,0243986
3553,2002;0,024142
3554,1646;0,0239314
3555,1287;0,0237948
3556,0930;0,023726
3557,0571;0,0236963
3558,0215;0,02368
3558,9856;0,0236734
3559,9500;0,0236972
3560,9141;0,0237796
3561,8784;0,0239286
3562,8425;0,0241135
3563,8069;0,0242571
3564,7710;0,0242362
3565,7354;0,0239246
3566,6995;0,0233141
3567,6638;0,0225976
3568,6279;0,0220269
3569,5923;0,0217041
3570,5564;0,0215681
3571,5208;0,0215077
3572,4849;0,0214434
3573,4492;0,0213485
3574,4133;0,0212333
3575,3777;0,0211189
3576,3418;0,0210154
3577,3062;0,0209201
3578,2703;0,0208324
3579,2346;0,0207675
3580,1987;0,0207541
3581,1631;0,020812
3582,1272;0,0209296
3583,0916;0,0210588
3584,0557;0,021124
3585,0200;0,0210379
3585,9841;0,0207388
3586,9485;0,0202677
3587,9126;0,0198049
3588,8770;0,0195443
3589,8411;0,0195315
3590,8054;0,0196682
3591,7695;0,0198166
3592,7339;0,0198755
3593,6980;0,0198087
3594,6624;0,0196464
3595,6265;0,0194556
3596,5908;0,0192847
3597,5549;0,0191287
3598,5193;0,01895
3599,4834;0,0187283
3600,4478;0,0184933
3601,4119;0,0183059
3602,3762;0,0182059
3603,3403;0,0181782
3604,3047;0,0181654
3605,2688;0,0181024
3606,2332;0,0179464
3607,1973;0,0176973
3608,1616;0,0174033
3609,1257;0,0171371
3610,0901;0,0169518
3611,0542;0,0168597
3612,0186;0,0168433
3612,9827;0,0168741
3613,9470;0,0169165
3614,9111;0,0169219
3615,8755;0,0168283
3616,8396;0,0165773
3617,8040;0,0161547
3618,7681;0,0156441
3619,7324;0,0152328
3620,6965;0,015102
3621,6609;0,015292
3622,6250;0,0156913
3623,5894;0,0161262
3624,5535;0,016437
3625,5178;0,0164977
3626,4819;0,0162105
3627,4463;0,0155415
3628,4104;0,0146473
3629,3748;0,0138957
3630,3389;0,0135523
3631,3032;0,0135523
3632,2673;0,0136623
3633,2317;0,0137011
3634,1958;0,0136133
3635,1602;0,0134414
3636,1243;0,0132619
3637,0886;0,0131265
3638,0527;0,0130432
3639,0171;0,0129994
3639,9812;0,0129952
3640,9456;0,0130532
3641,9097;0,0131967
3642,8740;0,0134203
3643,8381;0,0136766
3644,8025;0,013883
3645,7666;0,0139183
3646,7310;0,0135998
3647,6951;0,0127305
3648,6594;0,0114127
3649,6235;0,0102618
3650,5879;0,0097969
3651,5520;0,00992837
3652,5164;0,0102722
3653,4805;0,0105168
3654,4448;0,010523
3655,4089;0,010316
3656,3733;0,01004
3657,3374;0,00985774
3658,3018;0,00983209
3659,2659;0,00990486
3660,2302;0,00998374
3661,1943;0,0100323
3662,1587;0,0100889
3663,1228;0,0102159
3664,0872;0,0104281
3665,0513;0,0106654
3666,0156;0,0108237
3666,9797;0,010812
3667,9441;0,0106077
3668,9082;0,0102987
3669,8726;0,0100592
3670,8367;0,0100049
3671,8010;0,0100705
3672,7651;0,0100676
3673,7295;0,00982565
3674,6936;0,00931628
3675,6580;0,0087324
3676,6221;0,00838004
3677,5864;0,00839261
3678,5505;0,00865254
3679,5149;0,00897775
3680,4790;0,00927354
3681,4434;0,00954574
3682,4075;0,00983847
3683,3718;0,0101661
3684,3359;0,0104841
3685,3003;0,010705
3686,2644;0,0107315
3687,2288;0,0104919
3688,1929;0,0099987
3689,1572;0,00942817
3690,1213;0,0090627
3691,0857;0,00905156
3692,0498;0,0093175
3693,0142;0,00969869
3693,9783;0,0100797
3694,9426;0,0104138
3695,9067;0,0106895
3696,8711;0,0108923
3697,8352;0,0109882
3698,7996;0,0109351
3699,7637;0,0107177
3700,7280;0,0103886
3701,6921;0,0100797
3702,6565;0,00994173
3703,6206;0,0100468
3704,5850;0,0103497
3705,5491;0,0107327
3706,5134;0,0110659
3707,4775;0,0112315
3708,4419;0,0111191
3709,4060;0,0106428
3710,3704;0,00984584
3711,3345;0,00900532
3712,2988;0,00847827
3713,2629;0,0084055
3714,2273;0,00867768
3715,1914;0,00910589
3716,1558;0,00954492
3717,1199;0,00992323
3718,0842;0,0102292
3719,0483;0,0104852
3720,0127;0,010719
3720,9768;0,0109388
3721,9412;0,0111233
3722,9053;0,0112356
3723,8696;0,0112561
3724,8337;0,011211
3725,7981;0,011167
3726,7622;0,0111876
3727,7266;0,0112928
3728,6907;0,0114597
3729,6550;0,0116497
3730,6191;0,0118266
3731,5835;0,011945
3732,5476;0,0119186
3733,5120;0,0116256
3734,4761;0,0110343
3735,4404;0,010358
3736,4045;0,00993587
3737,3689;0,009921
3738,3330;0,0101987
3739,2974;0,0105338
3740,2615;0,0107084
3741,2258;0,0105848
3742,1899;0,0101438
3743,1543;0,00953085
3744,1184;0,00904833
3745,0828;0,00896158
3746,0469;0,00924605
3747,0112;0,00960753
3747,9753;0,00970171
3748,9397;0,00930496
3749,9038;0,00845838
3750,8682;0,00757334
3751,8323;0,00717311
3752,7966;0,00739626
3753,7607;0,0079708
3754,7251;0,00854839
3755,6892;0,00890094
3756,6536;0,00894715
3757,6177;0,00873939
3758,5820;0,0084383
3759,5461;0,0082312
3760,5105;0,00821749
3761,4746;0,00837
3762,4390;0,0085932
3763,4031;0,00879436
3764,3674;0,00891506
3765,3315;0,00893011
3766,2959;0,00883503
3767,2600;0,00863752
3768,2244;0,00836237
3769,1885;0,00806659
3770,1528;0,00784058
3771,1169;0,00777097
3772,0813;0,00788569
3773,0454;0,00813341
3774,0098;0,00841286
3774,9739;0,00861926
3775,9382;0,00868081
3776,9023;0,00858348
3777,8667;0,00838584
3778,8308;0,00820305
3779,7952;0,00814004
3780,7593;0,00821957
3781,7236;0,00837762
3782,6877;0,00851866
3783,6521;0,00857236
3784,6162;0,00852181
3785,5806;0,00840314
3786,5447;0,0082813
3787,5090;0,00821632
3788,4731;0,00823864
3789,4375;0,00834303
3790,4016;0,00849783
3791,3660;0,00866233
3792,3301;0,00880646
3793,2944;0,00892509
3794,2585;0,00903828
3795,2229;0,00917113
3796,1870;0,00932097
3797,1514;0,00943625
3798,1155;0,00943031
3799,0798;0,0092322
3800,0439;0,00885663
3801,0083;0,00844027
3801,9724;0,00816085
3802,9368;0,00807592
3803,9009;0,00807472
3804,8652;0,00799398
3805,8293;0,00776546
3806,7937;0,00749002
3807,7578;0,00737782
3808,7222;0,00756958
3809,6863;0,00801556
3810,6506;0,00853406
3811,6147;0,00894381
3812,5791;0,00914724
3813,5432;0,00915528
3814,5076;0,00907317
3815,4717;0,00903545
3816,4360;0,00909764
3817,4001;0,0091768
3818,3645;0,00911536
3819,3286;0,00881553
3820,2930;0,00835066
3821,2571;0,00795096
3822,2214;0,00781954
3823,1855;0,00796716
3824,1499;0,0082525
3825,1140;0,00852218
3826,0784;0,00869486
3827,0425;0,00876939
3828,0068;0,00879235
3828,9709;0,00881625
3829,9353;0,00887183
3830,8994;0,00896462
3831,8638;0,00908537
3832,8279;0,00921766
3833,7922;0,00933667
3834,7563;0,00940629
3835,7207;0,00938449
3836,6848;0,00924302
3837,6492;0,00899648
3838,6133;0,00871192
3839,5776;0,008466
3840,5417;0,00828812
3841,5061;0,00816238
3842,4702;0,0080804
3843,4346;0,00807849
3844,3987;0,00822251
3845,3630;0,00855604
3846,3271;0,00905782
3847,2915;0,00964
3848,2556;0,0101759
3849,2200;0,0105232
3850,1841;0,010523
3851,1484;0,00999856
3852,1125;0,00887539
3853,0769;0,00750384
3854,0410;0,00662256
3855,0054;0,00659391
3855,9695;0,0071625
3856,9338;0,00792899
3857,8979;0,00863618
3858,8623;0,00917191
3859,8264;0,00950577
3860,7908;0,00964508
3861,7549;0,00962216
3862,7192;0,0095032
3863,6833;0,00938394
3864,6477;0,00934203
3865,6118;0,00938676
3866,5762;0,00946388
3867,5403;0,00949819
3868,5046;0,00942961
3869,4688;0,00923484
3870,4331;0,0089431
3871,3972;0,00863526
3872,3616;0,00840909
3873,3257;0,00832958
3874,2900;0,00840392
3875,2542;0,00859102
3876,2185;0,00882835
3877,1826;0,00905776
3878,1470;0,00924256
3879,1111;0,00937181
3880,0754;0,00944949
3881,0396;0,00947173
3882,0039;0,00941175
3882,9680;0,00923916
3883,9324;0,00896884
3884,8965;0,00869045
3885,8608;0,00852728
3886,8250;0,00854326
3887,7893;0,00868978
3888,7534;0,00884195
3889,7178;0,00888297
3890,6819;0,00878503
3891,6462;0,00864625
3892,6104;0,00862834
3893,5747;0,00882171
3894,5388;0,00918463
3895,5032;0,0096037
3896,4673;0,00997468
3897,4316;0,0102359
3898,3958;0,0103634
3899,3601;0,0103529
3900,3242;0,0102035
3901,2886;0,00991106
3902,2527;0,00948638
3903,2170;0,00898887
3904,1812;0,00852808
3905,1455;0,00820525
3906,1096;0,00805155
3907,0740;0,00802934
3908,0381;0,0080799
3909,0024;0,00816506
3909,9666;0,0082792
3910,9309;0,00843582
3911,8950;0,00864257
3912,8594;0,00888094
3913,8235;0,00910225
3914,7878;0,00924309
3915,7520;0,009257
3916,7163;0,00915216
3917,6804;0,00900438
3918,6448;0,00891465
3919,6089;0,00893807
3920,5732;0,00905069
3921,5374;0,00917505
3922,5017;0,00923223
3923,4658;0,00919032
3924,4302;0,00908691
3925,3943;0,00900381
3926,3586;0,00900602
3927,3228;0,00909728
3928,2871;0,00922257
3929,2512;0,00930084
3930,2156;0,00926549
3931,1797;0,00910172
3932,1440;0,00886099
3933,1082;0,00863116
3934,0725;0,00848341
3935,0366;0,00844388
3936,0010;0,00850159
3936,9651;0,00862754
3937,9294;0,00878584
3938,8936;0,00893789
3939,8579;0,00904838
3940,8220;0,00909834
3941,7864;0,0090988
3942,7505;0,00908905
3943,7148;0,00911071
3944,6790;0,0091749
3945,6433;0,00925064
3946,6074;0,00928187
3947,5718;0,0092204
3948,5359;0,0090577
3949,5002;0,00883609
3950,4644;0,00862561
3951,4287;0,00848201
3952,3928;0,00842125
3953,3572;0,00842564
3954,3213;0,00846581
3955,2856;0,00851851
3956,2498;0,00857201
3957,2141;0,00862103
3958,1782;0,00865861
3959,1426;0,00867302
3960,1067;0,00865247
3961,0710;0,00859437
3962,0352;0,00851146
3962,9995;0,0084289
3963,9636;0,00837299
3964,9280;0,00835953
3965,8921;0,00838825
3966,8564;0,0084452
3967,8206;0,00851005
3968,7849;0,00856456
3969,7490;0,00859842
3970,7134;0,00861013
3971,6775;0,0086038
3972,6418;0,00858483
3973,6060;0,00855764
3974,5703;0,00852583
3975,5344;0,00849309
3976,4988;0,0084628
3977,4629;0,00843646
3978,4272;0,00841242
3979,3914;0,0083867
3980,3557;0,00835607
3981,3198;0,00832165
3982,2842;0,00829076
3983,2483;0,00827488
3984,2126;0,00828431
3985,1768;0,00832231
3986,1411;0,00838239
3987,1052;0,00845006
3988,0696;0,00850833
3989,0337;0,00854417
3989,9980;0,00855231
3990,9622;0,00853482
3991,9265;0,00849738
3992,8906;0,00844562
3993,8550;0,00838432
3994,8191;0,0083191
3995,7834;0,0082579
3996,7476;0,00820987
3997,7119;0,00818214
3998,6760;0,0081769
3999,6404;0,00819126
4000,6045;0,00830896

##### Extended Information
[Comments]
Sample name
Comment
Username
Division
Organization;UNIVERSIDAD INDUSTRIAL DE SANTANDER

[Detailed Information]
Creation date;31/03/2025 7:15 p.m.

Data array type;Linear data array
Horizontal axis;Wavenumber [cm-1]
Vertical axis;Abs
Start;399,193 cm-1
End;4000,6 cm-1
Data interval;0,964233 cm-1
Data points;3736    

[Measurement Information]
Model name;FT/IR-4X1typeA
Serial No.;A035162111

Accessory;ATR PRO 4X
Accessory S/N;A021162126
Incident angle;45 deg

Measurement date;31/03/2025 7:15 p.m.

Light source;Standard
Detector;TGS
Accumulation;40
Resolution;4 cm-1
Zero filling;On
Apodization;Cosine
Gain;Auto (8)
Aperture;Auto (7 mm)
Scan speed;Auto (2 mm/sec)
Filter;Auto (12800 Hz)

