TITLE;
DATA TYPE;INFRARED SPECTRUM
ORIGIN;JASCO
OWNER;
DATE;25/03/31
TIME;19:17:37
SPECTROMETER/DATA SYSTEM;
LOCALE;9226
RESOLUTION;
DELTAX;0,964233
XUNITS;1/CM
YUNITS;ABSORBANCE
FIRSTX;  399,1927
LASTX; 4000,6047
NPOINTS;    3736
FIRSTY;     0,18681
MAXY;     0,18726
MINY;     0,00519
XYDATA
399,1927;0,186811
400,1569;0,187258
401,1211;0,186358
402,0854;0,184664
403,0496;0,182813
404,0138;0,181288
404,9781;0,180331
405,9423;0,179925
406,9065;0,17987
407,8708;0,179942
408,8350;0,180032
409,7992;0,180161
410,7635;0,180395
411,7277;0,180745
412,6919;0,181156
413,6562;0,181554
414,6204;0,18189
415,5846;0,182131
416,5489;0,182226
417,5131;0,182104
418,4773;0,181785
419,4416;0,181512
420,4058;0,181595
421,3700;0,182096
422,3343;0,182816
423,2985;0,18346
424,2627;0,183769
425,2270;0,183612
426,1912;0,183052
427,1554;0,182316
428,1197;0,181661
429,0839;0,181258
430,0481;0,181159
431,0124;0,181339
431,9766;0,181743
432,9408;0,182296
433,9051;0,182854
434,8693;0,183185
435,8335;0,183028
436,7978;0,182249
437,7620;0,180957
438,7262;0,179485
439,6905;0,178242
440,6547;0,177544
441,6189;0,177481
442,5832;0,177867
443,5474;0,178335
444,5116;0,178544
445,4759;0,178377
446,4401;0,177936
447,4043;0,177397
448,3686;0,176858
449,3328;0,176305
450,2970;0,175677
451,2613;0,174966
452,2255;0,174276
453,1897;0,173779
454,1540;0,173608
455,1182;0,173749
456,0824;0,17401
457,0467;0,17409
458,0109;0,173771
458,9751;0,173116
459,9394;0,172427
460,9036;0,172007
461,8678;0,17196
462,8321;0,172179
463,7963;0,172438
464,7605;0,172509
465,7248;0,172282
466,6890;0,171819
467,6532;0,17132
468,6175;0,171002
469,5817;0,170989
470,5459;0,171251
471,5102;0,171605
472,4744;0,1718
473,4386;0,171656
474,4029;0,17116
475,3671;0,170435
476,3313;0,169641
477,2956;0,168907
478,2598;0,16832
479,2240;0,167938
480,1883;0,167788
481,1525;0,167844
482,1167;0,168013
483,0810;0,168137
484,0452;0,168057
485,0094;0,167701
485,9737;0,167148
486,9379;0,166587
487,9021;0,166225
488,8664;0,166188
489,8306;0,166478
490,7948;0,166964
491,7591;0,167424
492,7233;0,167629
493,6875;0,167445
494,6518;0,166896
495,6160;0,166143
496,5802;0,165414
497,5445;0,16492
498,5087;0,16478
499,4729;0,164989
500,4372;0,165416
501,4014;0,165862
502,3656;0,166163
503,3299;0,166268
504,2941;0,166255
505,2583;0,166241
506,2226;0,166298
507,1868;0,166411
508,1510;0,166507
509,1153;0,166503
510,0795;0,166366
511,0437;0,16612
512,0080;0,165832
512,9722;0,16558
513,9365;0,16544
514,9007;0,16546
515,8649;0,165637
516,8292;0,16589
517,7934;0,166064
518,7576;0,165998
519,7219;0,165627
520,6861;0,165014
521,6503;0,164303
522,6146;0,163631
523,5788;0,163083
524,5430;0,162682
525,5073;0,162397
526,4715;0,162183
527,4357;0,162004
528,4000;0,161834
529,3642;0,161637
530,3284;0,161363
531,2927;0,160965
532,2569;0,16044
533,2211;0,159852
534,1854;0,159318
535,1496;0,158946
536,1138;0,158765
537,0781;0,158712
538,0423;0,158664
539,0065;0,158524
539,9708;0,158272
540,9350;0,157969
541,8992;0,157711
542,8635;0,157566
543,8277;0,15754
544,7919;0,157582
545,7562;0,157621
546,7204;0,157598
547,6846;0,157492
548,6489;0,157314
549,6131;0,157096
550,5773;0,156877
551,5416;0,156694
552,5058;0,156568
553,4700;0,156489
554,4343;0,156409
555,3985;0,156256
556,3627;0,155968
557,3270;0,155524
558,2912;0,154962
559,2554;0,154344
560,2197;0,153725
561,1839;0,153122
562,1481;0,152515
563,1124;0,151878
564,0766;0,151203
565,0408;0,150514
566,0051;0,149854
566,9693;0,149266
567,9335;0,148778
568,8978;0,148397
569,8620;0,148117
570,8262;0,147922
571,7905;0,147792
572,7547;0,1477
573,7189;0,14762
574,6832;0,14753
575,6474;0,147421
576,6116;0,147296
577,5759;0,147161
578,5401;0,147009
579,5043;0,146814
580,4686;0,14654
581,4328;0,14616
582,3970;0,145681
583,3613;0,145153
584,3255;0,14466
585,2897;0,144286
586,2540;0,144086
587,2182;0,144057
588,1824;0,144144
589,1467;0,144253
590,1109;0,144286
591,0751;0,144176
592,0394;0,143916
593,0036;0,143561
593,9678;0,143193
594,9321;0,142868
595,8963;0,142588
596,8605;0,14231
597,8248;0,141973
598,7890;0,141542
599,7532;0,14103
600,7175;0,14049
601,6817;0,139984
602,6459;0,139544
603,6102;0,139164
604,5744;0,138818
605,5386;0,138473
606,5029;0,138106
607,4671;0,137703
608,4313;0,137254
609,3956;0,136756
610,3598;0,136231
611,3240;0,135729
612,2883;0,135315
613,2525;0,135031
614,2167;0,134857
615,1810;0,1347
616,1452;0,134421
617,1094;0,133913
618,0737;0,133167
619,0379;0,132286
620,0021;0,131418
620,9664;0,130673
621,9306;0,130078
622,8948;0,129585
623,8591;0,129124
624,8233;0,12862
625,7875;0,128121
626,7518;0,127652
627,7160;0,127238
628,6802;0,126878
629,6445;0,12656
630,6087;0,126265
631,5729;0,125987
632,5372;0,125724
633,5014;0,125475
634,4656;0,125233
635,4299;0,124992
636,3941;0,124759
637,3583;0,124547
638,3226;0,124363
639,2868;0,1242
640,2510;0,124036
641,2153;0,123849
642,1795;0,12363
643,1437;0,123391
644,1080;0,123151
645,0722;0,122925
646,0364;0,122713
647,0007;0,122502
647,9649;0,122278
648,9291;0,122029
649,8934;0,121756
650,8576;0,121468
651,8218;0,121185
652,7861;0,120932
653,7503;0,120736
654,7145;0,12061
655,6788;0,12054
656,6430;0,120493
657,6072;0,12043
658,5715;0,120319
659,5357;0,120138
660,4999;0,119855
661,4642;0,11942
662,4284;0,118764
663,3926;0,117829
664,3569;0,116628
665,3211;0,115347
666,2853;0,114415
667,2496;0,114304
668,2138;0,114926
669,1780;0,115487
670,1423;0,115487
671,1065;0,115021
672,0707;0,114229
673,0350;0,113185
673,9992;0,112006
674,9634;0,110852
675,9277;0,109843
676,8919;0,108987
677,8561;0,108212
678,8204;0,107454
679,7846;0,106718
680,7488;0,106065
681,7131;0,105552
682,6773;0,105185
683,6415;0,104913
684,6058;0,104666
685,5700;0,104395
686,5342;0,104084
687,4985;0,103741
688,4627;0,103384
689,4269;0,103013
690,3912;0,102633
691,3554;0,102251
692,3196;0,101884
693,2839;0,101545
694,2481;0,101237
695,2123;0,100946
696,1766;0,10065
697,1408;0,10033
698,1050;0,0999845
699,0693;0,0996301
700,0335;0,0992901
700,9977;0,0989796
701,9620;0,0986949
702,9262;0,0984127
703,8904;0,0980924
704,8547;0,0977144
705,8189;0,0972791
706,7831;0,0968074
707,7474;0,0963279
708,7116;0,0958605
709,6758;0,0954057
710,6401;0,0949458
711,6043;0,09446
712,5685;0,0939452
713,5328;0,0934313
714,4970;0,0929765
715,4612;0,0920852
716,4255;0,0920156
717,3897;0,0921012
718,3539;0,0922075
719,3182;0,0921555
720,2824;0,0918087
721,2466;0,0911522
722,2109;0,0903007
723,1751;0,0894283
724,1393;0,0886756
725,1036;0,0880979
726,0678;0,087669
727,0320;0,0873212
727,9963;0,0869923
728,9605;0,0866524
729,9247;0,0863046
730,8890;0,0859661
731,8532;0,0856486
732,8174;0,0853506
733,7817;0,0850604
734,7459;0,0847641
735,7101;0,0844535
736,6744;0,0841314
737,6386;0,0838127
738,6028;0,0835194
739,5671;0,0832702
740,5313;0,0830668
741,4955;0,0828875
742,4598;0,0826933
743,4240;0,0824468
744,3882;0,0821319
745,3525;0,0817619
746,3167;0,0813703
747,2809;0,0809915
748,2452;0,080645
749,2094;0,0803325
750,1736;0,0800479
751,1379;0,0797881
752,1021;0,0795553
753,0663;0,0793504
754,0306;0,0791646
754,9948;0,0789797
755,9590;0,0787782
756,9233;0,078556
757,8875;0,0783262
758,8517;0,0781109
759,8160;0,0779266
760,7802;0,0777737
761,7444;0,0776376
762,7087;0,0775002
763,6729;0,0773526
764,6371;0,0772002
765,6014;0,0770587
766,5656;0,0769432
767,5298;0,0768584
768,4941;0,0767961
769,4583;0,0767393
770,4225;0,0766725
771,3868;0,0765912
772,3510;0,0765068
773,3152;0,0764426
774,2795;0,0764217
775,2437;0,0764532
776,2079;0,076523
777,1722;0,0765956
778,1364;0,0766247
779,1006;0,0765687
780,0649;0,0764019
781,0291;0,076118
781,9933;0,0757277
782,9576;0,075254
783,9218;0,0747287
784,8860;0,0741891
785,8503;0,0736724
786,8145;0,0732082
787,7787;0,0728113
788,7430;0,0724793
789,7072;0,0721973
790,6714;0,0719479
791,6357;0,0717208
792,5999;0,0715175
793,5641;0,071349
794,5284;0,0712275
795,4926;0,0711576
796,4568;0,0711326
797,4211;0,0711362
798,3853;0,0711504
799,3495;0,0711635
800,3138;0,071174
801,2780;0,0711875
802,2422;0,0712088
803,2065;0,0712342
804,1707;0,0712505
805,1349;0,0712412
806,0992;0,0711973
807,0634;0,0711252
808,0276;0,0710457
808,9919;0,0709839
809,9561;0,0709556
810,9203;0,0709583
811,8846;0,0709721
812,8488;0,070971
813,8130;0,0709378
814,7773;0,070874
815,7415;0,0708003
816,7057;0,0707454
817,6700;0,0707314
818,6342;0,0707628
819,5984;0,0708251
820,5627;0,0708942
821,5269;0,0709502
822,4911;0,0709861
823,4554;0,0710091
824,4196;0,0710327
825,3839;0,0710668
826,3481;0,071113
827,3123;0,0711653
828,2766;0,0712155
829,2408;0,0712556
830,2050;0,071277
831,1693;0,0712674
832,1335;0,0712114
833,0977;0,0710956
834,0620;0,0709164
835,0262;0,0706833
835,9904;0,0704145
836,9547;0,0701267
837,9189;0,0698258
838,8831;0,0695053
839,8474;0,069154
840,8116;0,0687667
841,7758;0,0683523
842,7401;0,0679321
843,7043;0,0675309
844,6685;0,0671655
845,6328;0,0668378
846,5970;0,0665347
847,5612;0,0662372
848,5255;0,0659322
849,4897;0,0656221
850,4539;0,0653255
851,4182;0,0650686
852,3824;0,0648692
853,3466;0,0647239
854,3109;0,064605
855,2751;0,064472
856,2393;0,0642922
857,2036;0,0640576
858,1678;0,0637901
859,1320;0,0635312
860,0963;0,0633226
861,0605;0,0631894
862,0247;0,0631327
862,9890;0,0631344
863,9532;0,0631686
864,9174;0,0632138
865,8817;0,0632606
866,8459;0,0633129
867,8101;0,0633831
868,7744;0,0634829
869,7386;0,0636142
870,7028;0,0637655
871,6671;0,0639173
872,6313;0,0640544
873,5955;0,0641773
874,5598;0,064305
875,5240;0,0644641
876,4882;0,0646731
877,4525;0,0649308
878,4167;0,0652189
879,3809;0,0655168
880,3452;0,0658187
881,3094;0,0661389
882,2736;0,0665044
883,2379;0,0669372
884,2021;0,0674412
885,1663;0,0680009
886,1306;0,068591
887,0948;0,0691896
888,0590;0,0697853
889,0233;0,0703748
889,9875;0,0709549
890,9517;0,0715148
891,9160;0,0720336
892,8802;0,0724846
893,8444;0,0728415
894,8087;0,0730841
895,7729;0,0731997
896,7371;0,0731825
897,7014;0,0730324
898,6656;0,0727552
899,6298;0,0723649
900,5941;0,0718841
901,5583;0,0713429
902,5225;0,0707748
903,4868;0,0702108
904,4510;0,0696757
905,4152;0,0691882
906,3795;0,068762
907,3437;0,0684078
908,3079;0,0681308
909,2722;0,0679282
910,2364;0,067787
911,2007;0,0676884
912,1649;0,0676153
913,1292;0,0675612
914,0934;0,0675336
915,0576;0,0675493
916,0219;0,0676259
916,9861;0,0677726
917,9503;0,0679873
918,9146;0,0682574
919,8788;0,0685649
920,8430;0,0688895
921,8073;0,0692117
922,7715;0,0695165
923,7357;0,0697976
924,7000;0,0700614
925,6642;0,070325
926,6284;0,0706095
927,5927;0,0709299
928,5569;0,0712874
929,5211;0,0716698
930,4854;0,0720594
931,4496;0,0724425
932,4138;0,0728161
933,3781;0,0731881
934,3423;0,0735727
935,3065;0,0739845
936,2708;0,0744351
937,2350;0,0749314
938,1992;0,0754753
939,1635;0,0760652
940,1277;0,0766972
941,0919;0,0773683
942,0562;0,0780792
943,0204;0,0788342
943,9846;0,0796399
944,9489;0,0805007
945,9131;0,0814154
946,8773;0,082377
947,8416;0,0833758
948,8058;0,0844041
949,7700;0,0854595
950,7343;0,0865446
951,6985;0,0876639
952,6627;0,0888179
953,6270;0,09
954,5912;0,0911966
955,5554;0,0923924
956,5197;0,0935773
957,4839;0,0947496
958,4481;0,0959141
959,4124;0,0970749
960,3766;0,0982293
961,3408;0,0993673
962,3051;0,100479
963,2693;0,101562
964,2335;0,102627
965,1978;0,103692
966,1620;0,104771
967,1262;0,105871
968,0905;0,10699
969,0547;0,108129
970,0189;0,109296
970,9832;0,110505
971,9474;0,111766
972,9116;0,113076
973,8759;0,114417
974,8401;0,115766
975,8043;0,117104
976,7686;0,118428
977,7328;0,119745
978,6970;0,121063
979,6613;0,12238
980,6255;0,123688
981,5897;0,124968
982,5540;0,126202
983,5182;0,127375
984,4824;0,128473
985,4467;0,129486
986,4109;0,130409
987,3751;0,131244
988,3394;0,131997
989,3036;0,132681
990,2678;0,133304
991,2321;0,133872
992,1963;0,134388
993,1605;0,134853
994,1248;0,13527
995,0890;0,135644
996,0532;0,135981
997,0175;0,136292
997,9817;0,136588
998,9459;0,136888
999,9102;0,13721
1000,8744;0,13757
1001,8386;0,137978
1002,8029;0,138438
1003,7671;0,138952
1004,7313;0,139532
1005,6956;0,140196
1006,6598;0,140968
1007,6240;0,141861
1008,5883;0,142869
1009,5525;0,143964
1010,5167;0,145103
1011,4810;0,14624
1012,4452;0,147339
1013,4094;0,148379
1014,3737;0,149346
1015,3379;0,150234
1016,3021;0,151037
1017,2664;0,151748
1018,2306;0,152366
1019,1948;0,152892
1020,1591;0,153333
1021,1233;0,1537
1022,0875;0,154007
1023,0518;0,154272
1024,0160;0,15451
1024,9802;0,154736
1025,9445;0,15495
1026,9087;0,155141
1027,8729;0,155286
1028,8372;0,155358
1029,8014;0,155328
1030,7656;0,155172
1031,7299;0,154871
1032,6941;0,154412
1033,6583;0,153792
1034,6226;0,153023
1035,5868;0,15214
1036,5510;0,151197
1037,5153;0,150261
1038,4795;0,149393
1039,4437;0,148631
1040,4080;0,147988
1041,3722;0,147446
1042,3364;0,146974
1043,3007;0,146531
1044,2649;0,146082
1045,2291;0,145603
1046,1934;0,145079
1047,1576;0,144506
1048,1218;0,143885
1049,0861;0,143207
1050,0503;0,142458
1051,0145;0,141618
1051,9788;0,140671
1052,9430;0,139615
1053,9072;0,13847
1054,8715;0,137263
1055,8357;0,136022
1056,7999;0,134755
1057,7642;0,133448
1058,7284;0,132079
1059,6926;0,130629
1060,6569;0,129102
1061,6211;0,127524
1062,5853;0,125938
1063,5496;0,124393
1064,5138;0,122927
1065,4780;0,12157
1066,4423;0,120332
1067,4065;0,119213
1068,3707;0,118201
1069,3350;0,117271
1070,2992;0,116394
1071,2634;0,115539
1072,2277;0,114679
1073,1919;0,113794
1074,1561;0,112875
1075,1204;0,111923
1076,0846;0,110951
1077,0488;0,109977
1078,0131;0,10902
1078,9773;0,108095
1079,9415;0,10721
1080,9058;0,106373
1081,8700;0,10559
1082,8342;0,10487
1083,7985;0,104223
1084,7627;0,103648
1085,7269;0,103134
1086,6912;0,10266
1087,6554;0,102201
1088,6196;0,101741
1089,5839;0,101277
1090,5481;0,10082
1091,5123;0,100382
1092,4766;0,0999771
1093,4408;0,0996133
1094,4050;0,0992942
1095,3693;0,0990203
1096,3335;0,0987893
1097,2977;0,0985945
1098,2620;0,0984251
1099,2262;0,0982677
1100,1904;0,0981102
1101,1547;0,0979445
1102,1189;0,0977663
1103,0831;0,0975731
1104,0474;0,0973616
1105,0116;0,0971268
1105,9758;0,0968633
1106,9401;0,0965668
1107,9043;0,0962339
1108,8685;0,0958594
1109,8328;0,0954345
1110,7970;0,0949466
1111,7612;0,0943836
1112,7255;0,0937407
1113,6897;0,0930271
1114,6539;0,0922671
1115,6182;0,0914953
1116,5824;0,0907461
1117,5466;0,090042
1118,5109;0,0893854
1119,4751;0,0887577
1120,4393;0,0881255
1121,4036;0,0874498
1122,3678;0,086696
1123,3320;0,0858402
1124,2963;0,0848709
1125,2605;0,0837886
1126,2247;0,0826044
1127,1890;0,0813376
1128,1532;0,0800135
1129,1174;0,0786603
1130,0817;0,0773063
1131,0459;0,075978
1132,0101;0,074699
1132,9744;0,073492
1133,9386;0,072379
1134,9028;0,0713812
1135,8671;0,0705165
1136,8313;0,0697969
1137,7955;0,0692277
1138,7598;0,0688076
1139,7240;0,0685314
1140,6882;0,0683924
1141,6525;0,0683838
1142,6167;0,0684995
1143,5809;0,0687327
1144,5452;0,0690746
1145,5094;0,069512
1146,4736;0,0700267
1147,4379;0,0705964
1148,4021;0,0711977
1149,3663;0,0718097
1150,3306;0,0724171
1151,2948;0,0730086
1152,2590;0,0735737
1153,2233;0,0740977
1154,1875;0,0745586
1155,1517;0,074928
1156,1160;0,075174
1157,0802;0,0752665
1158,0444;0,0751791
1159,0087;0,0748909
1159,9729;0,0743864
1160,9371;0,0736566
1161,9014;0,0727014
1162,8656;0,0715336
1163,8298;0,0701804
1164,7941;0,068683
1165,7583;0,0670919
1166,7225;0,0654603
1167,6868;0,0638371
1168,6510;0,0622613
1169,6152;0,0607597
1170,5795;0,0593483
1171,5437;0,0580363
1172,5079;0,0568302
1173,4722;0,0557355
1174,4364;0,0547564
1175,4006;0,053893
1176,3649;0,0531399
1177,3291;0,0524874
1178,2933;0,0519249
1179,2576;0,0514441
1180,2218;0,0510404
1181,1860;0,0507107
1182,1503;0,0504499
1183,1145;0,0502493
1184,0787;0,0500967
1185,0430;0,0499797
1186,0072;0,0498896
1186,9714;0,049824
1187,9357;0,0497875
1188,8999;0,0497885
1189,8641;0,0498369
1190,8284;0,0499402
1191,7926;0,0501028
1192,7568;0,0503255
1193,7211;0,0506061
1194,6853;0,0509399
1195,6495;0,0513192
1196,6138;0,051734
1197,5780;0,0521723
1198,5422;0,0526235
1199,5065;0,0529665
1200,4707;0,0534391
1201,4349;0,0539152
1202,3992;0,0543947
1203,3634;0,0548764
1204,3276;0,055357
1205,2919;0,0558333
1206,2561;0,056305
1207,2203;0,0567758
1208,1846;0,057253
1209,1488;0,0577455
1210,1130;0,0582614
1211,0773;0,0588071
1212,0415;0,0593856
1213,0057;0,0599967
1213,9700;0,0606356
1214,9342;0,0612935
1215,8984;0,0619581
1216,8627;0,062615
1217,8269;0,0632499
1218,7911;0,0638532
1219,7554;0,0644203
1220,7196;0,0649521
1221,6838;0,0654521
1222,6481;0,0659246
1223,6123;0,0663715
1224,5765;0,0667913
1225,5408;0,0671793
1226,5050;0,0675296
1227,4692;0,0678383
1228,4335;0,0681051
1229,3977;0,0683351
1230,3619;0,0685372
1231,3262;0,0687213
1232,2904;0,0688946
1233,2546;0,0690589
1234,2189;0,0692098
1235,1831;0,0693392
1236,1473;0,0694398
1237,1116;0,0695087
1238,0758;0,0695491
1239,0400;0,069567
1240,0043;0,0695674
1240,9685;0,0695499
1241,9327;0,0695092
1242,8970;0,0694389
1243,8612;0,0693356
1244,8254;0,069202
1245,7897;0,0690447
1246,7539;0,0688697
1247,7181;0,0686797
1248,6824;0,0684732
1249,6466;0,0682483
1250,6108;0,0680068
1251,5751;0,067756
1252,5393;0,0675075
1253,5035;0,0672726
1254,4678;0,0670573
1255,4320;0,0668599
1256,3962;0,0666713
1257,3605;0,0664781
1258,3247;0,0662681
1259,2889;0,066033
1260,2532;0,0657702
1261,2174;0,0654805
1262,1816;0,0651648
1263,1459;0,0648221
1264,1101;0,0644497
1265,0743;0,0640462
1266,0386;0,063613
1267,0028;0,0631532
1267,9670;0,0626679
1268,9313;0,0621537
1269,8955;0,0616037
1270,8597;0,0610133
1271,8240;0,0603856
1272,7882;0,0597345
1273,7524;0,0590815
1274,7167;0,0584488
1275,6809;0,0578529
1276,6451;0,0573011
1277,6094;0,0567908
1278,5736;0,0563135
1279,5378;0,0558588
1280,5021;0,0554201
1281,4663;0,0549983
1282,4305;0,0546013
1283,3948;0,054241
1284,3590;0,0539278
1285,3232;0,053666
1286,2875;0,0534516
1287,2517;0,0532743
1288,2159;0,0531221
1289,1802;0,0529865
1290,1444;0,0528664
1291,1086;0,0527687
1292,0729;0,0527049
1293,0371;0,0526861
1294,0013;0,052718
1294,9656;0,0527978
1295,9298;0,0529152
1296,8940;0,0530561
1297,8583;0,0532095
1298,8225;0,0533708
1299,7867;0,0535432
1300,7510;0,0537346
1301,7152;0,0539552
1302,6794;0,0542121
1303,6437;0,0545079
1304,6079;0,0548426
1305,5721;0,0552138
1306,5364;0,0556203
1307,5006;0,0560638
1308,4648;0,0565489
1309,4291;0,0570785
1310,3933;0,0576464
1311,3575;0,0582311
1312,3218;0,0587954
1313,2860;0,0592952
1314,2502;0,0596912
1315,2145;0,0599547
1316,1787;0,0600654
1317,1429;0,0600065
1318,1072;0,0597681
1319,0714;0,0593598
1320,0356;0,0588206
1320,9999;0,0582134
1321,9641;0,0576049
1322,9283;0,057046
1323,8926;0,0565646
1324,8568;0,0561671
1325,8210;0,055845
1326,7853;0,0555806
1327,7495;0,0553515
1328,7137;0,0551346
1329,6780;0,0549102
1330,6422;0,0546676
1331,6064;0,0544113
1332,5707;0,0541619
1333,5349;0,0539517
1334,4991;0,0538104
1335,4634;0,0537477
1336,4276;0,0537345
1337,3918;0,0536924
1338,3561;0,0535118
1339,3203;0,0531173
1340,2845;0,0525358
1341,2488;0,0518869
1342,2130;0,0512996
1343,1772;0,0508466
1344,1415;0,0505403
1345,1057;0,0503579
1346,0699;0,0502662
1347,0342;0,0502365
1347,9984;0,050252
1348,9626;0,0503088
1349,9269;0,0504087
1350,8911;0,0505524
1351,8553;0,0507358
1352,8196;0,0509515
1353,7838;0,0511915
1354,7480;0,0514499
1355,7123;0,051725
1356,6765;0,0520216
1357,6407;0,0523503
1358,6050;0,0527246
1359,5692;0,0531502
1360,5334;0,0536031
1361,4977;0,0540149
1362,4619;0,0543023
1363,4261;0,0544359
1364,3904;0,0544658
1365,3546;0,0544703
1366,3188;0,0545022
1367,2831;0,0545741
1368,2473;0,054671
1369,2115;0,0547671
1370,1758;0,0548401
1371,1400;0,0548767
1372,1042;0,0548655
1373,0685;0,0547873
1374,0327;0,0546165
1374,9969;0,0543417
1375,9612;0,0539767
1376,9254;0,0535402
1377,8896;0,0530321
1378,8539;0,0524406
1379,8181;0,051771
1380,7823;0,0510645
1381,7466;0,0503851
1382,7108;0,0497842
1383,6750;0,0492731
1384,6393;0,0488231
1385,6035;0,0483823
1386,5677;0,0479064
1387,5320;0,047399
1388,4962;0,04692
1389,4604;0,0465313
1390,4247;0,0462509
1391,3889;0,0460666
1392,3531;0,0459712
1393,3174;0,0459667
1394,2816;0,0460389
1395,2458;0,0461349
1396,2101;0,046182
1397,1743;0,0461389
1398,1385;0,0460274
1399,1028;0,0459164
1400,0670;0,0458762
1401,0313;0,0459432
1401,9955;0,046113
1402,9597;0,0463557
1403,9240;0,0466344
1404,8882;0,0469199
1405,8524;0,0472029
1406,8167;0,0474945
1407,7809;0,0478115
1408,7451;0,0481619
1409,7094;0,0485462
1410,6736;0,0489623
1411,6378;0,0494076
1412,6021;0,0498754
1413,5663;0,0503535
1414,5305;0,0508282
1415,4948;0,0512914
1416,4590;0,0517325
1417,4232;0,0521116
1418,3875;0,0523639
1419,3517;0,0524778
1420,3159;0,0525273
1421,2802;0,0525717
1422,2444;0,0525872
1423,2086;0,0525104
1424,1729;0,0523044
1425,1371;0,0519835
1426,1013;0,0515921
1427,0656;0,0511698
1428,0298;0,0507326
1428,9940;0,0502833
1429,9583;0,0498322
1430,9225;0,0494002
1431,8867;0,0489962
1432,8510;0,0485983
1433,8152;0,048167
1434,7794;0,0476733
1435,7437;0,0471262
1436,7079;0,0466012
1437,6721;0,0462263
1438,6364;0,0460808
1439,6006;0,0461308
1440,5648;0,0462882
1441,5291;0,0464917
1442,4933;0,0467303
1443,4575;0,0470205
1444,4218;0,0473757
1445,3860;0,0477865
1446,3502;0,0482227
1447,3145;0,0486482
1448,2787;0,0490407
1449,2429;0,0494002
1450,2072;0,0497313
1451,1714;0,0500184
1452,1356;0,0502285
1453,0999;0,0503457
1454,0641;0,0504057
1455,0283;0,0504837
1455,9926;0,0505736
1456,9568;0,0504868
1457,9210;0,0501528
1458,8853;0,0498295
1459,8495;0,0496658
1460,8137;0,04956
1461,7780;0,0493679
1462,7422;0,0490091
1463,7064;0,0484641
1464,6707;0,0477665
1465,6349;0,0470101
1466,5991;0,0462952
1467,5634;0,0456368
1468,5276;0,0449678
1469,4918;0,0442138
1470,4561;0,0433365
1471,4203;0,0423151
1472,3845;0,0411295
1473,3488;0,0398324
1474,3130;0,0386073
1475,2772;0,0376162
1476,2415;0,0368722
1477,2057;0,0363043
1478,1699;0,0358459
1479,1342;0,0354577
1480,0984;0,0351214
1481,0626;0,0348355
1482,0269;0,0346146
1482,9911;0,0344827
1483,9553;0,0344589
1484,9196;0,0345514
1485,8838;0,0347603
1486,8480;0,0350676
1487,8123;0,0353971
1488,7765;0,0356095
1489,7407;0,0356419
1490,7050;0,0356186
1491,6692;0,0356954
1492,6334;0,035913
1493,5977;0,0362474
1494,5619;0,0366952
1495,5261;0,0372865
1496,4904;0,0380304
1497,4546;0,0388609
1498,4188;0,0396803
1499,3831;0,0404322
1500,3473;0,0410756
1501,3115;0,0415493
1502,2758;0,041808
1503,2400;0,0418891
1504,2042;0,0419704
1505,1685;0,042357
1506,1327;0,0431916
1507,0969;0,0439568
1508,0612;0,0440071
1509,0254;0,0435556
1509,9896;0,0430258
1510,9539;0,0425305
1511,9181;0,0420463
1512,8823;0,0415525
1513,8466;0,0410419
1514,8108;0,0404973
1515,7750;0,0398874
1516,7393;0,0391893
1517,7035;0,0384051
1518,6677;0,0375516
1519,6320;0,0366518
1520,5962;0,0357534
1521,5604;0,034949
1522,5247;0,0343324
1523,4889;0,0339145
1524,4531;0,033612
1525,4174;0,0333292
1526,3816;0,0330362
1527,3458;0,0327719
1528,3101;0,0325827
1529,2743;0,0324743
1530,2385;0,0324178
1531,2028;0,032381
1532,1670;0,0323434
1533,1312;0,0322974
1534,0955;0,032248
1535,0597;0,03219
1536,0239;0,0320892
1536,9882;0,0319222
1537,9524;0,0317519
1538,9166;0,0317519
1539,8809;0,0320647
1540,8451;0,0325397
1541,8093;0,0329015
1542,7736;0,0331415
1543,7378;0,0333374
1544,7020;0,0335061
1545,6663;0,0336638
1546,6305;0,033841
1547,5947;0,0340516
1548,5590;0,0342785
1549,5232;0,0344883
1550,4874;0,0346577
1551,4517;0,034788
1552,4159;0,0348902
1553,3801;0,0349559
1554,3444;0,034948
1555,3086;0,0348305
1556,2728;0,0346039
1557,2371;0,0342865
1558,2013;0,0338837
1559,1655;0,0336022
1560,1298;0,0338315
1561,0940;0,0345641
1562,0582;0,0354791
1563,0225;0,0363201
1563,9867;0,0369821
1564,9509;0,0374634
1565,9152;0,0378197
1566,8794;0,0381349
1567,8436;0,0384908
1568,8079;0,0389294
1569,7721;0,0394323
1570,7363;0,0399405
1571,7006;0,0403956
1572,6648;0,0407825
1573,6290;0,0411655
1574,5933;0,0416814
1575,5575;0,0424426
1576,5217;0,0434014
1577,4860;0,0443893
1578,4502;0,0453026
1579,4144;0,0461393
1580,3787;0,0469332
1581,3429;0,0477223
1582,3071;0,048533
1583,2714;0,049365
1584,2356;0,0501966
1585,1998;0,0510096
1586,1641;0,0518029
1587,1283;0,052581
1588,0925;0,0533354
1589,0568;0,0540402
1590,0210;0,0546646
1590,9852;0,0551889
1591,9495;0,0556074
1592,9137;0,0559199
1593,8779;0,0561249
1594,8422;0,0562247
1595,8064;0,0562357
1596,7706;0,0561906
1597,7349;0,0561285
1598,6991;0,0560811
1599,6633;0,0560648
1600,6276;0,0560792
1601,5918;0,0561136
1602,5560;0,056155
1603,5203;0,0561972
1604,4845;0,0562411
1605,4487;0,0562905
1606,4130;0,0563461
1607,3772;0,0564051
1608,3414;0,0564624
1609,3057;0,056512
1610,2699;0,0565453
1611,2341;0,0565454
1612,1984;0,0564923
1613,1626;0,056389
1614,1268;0,0562857
1615,0911;0,0562664
1616,0553;0,0563842
1617,0195;0,0566112
1617,9838;0,0568735
1618,9480;0,0570996
1619,9122;0,0572371
1620,8765;0,0572696
1621,8407;0,0572214
1622,8049;0,0571329
1623,7692;0,057029
1624,7334;0,0569108
1625,6976;0,0567642
1626,6619;0,0565731
1627,6261;0,056334
1628,5903;0,0560588
1629,5546;0,0557575
1630,5188;0,0554187
1631,4830;0,0550175
1632,4473;0,0545543
1633,4115;0,0540882
1634,3757;0,0537146
1635,3400;0,0534694
1636,3042;0,0532943
1637,2684;0,0531433
1638,2327;0,0529983
1639,1969;0,0528103
1640,1611;0,0525286
1641,1254;0,0521376
1642,0896;0,0516561
1643,0538;0,0511232
1644,0181;0,0505805
1644,9823;0,0500373
1645,9465;0,0494431
1646,9108;0,0487632
1647,8750;0,0480563
1648,8392;0,0473578
1649,8035;0,0465993
1650,7677;0,045698
1651,7319;0,0446258
1652,6962;0,0434154
1653,6604;0,0422882
1654,6246;0,0416249
1655,5889;0,0414419
1656,5531;0,0414099
1657,5173;0,0412555
1658,4816;0,0408781
1659,4458;0,0402943
1660,4100;0,0395694
1661,3743;0,0387784
1662,3385;0,0380096
1663,3027;0,0373582
1664,2670;0,0368661
1665,2312;0,0364863
1666,1954;0,036124
1667,1597;0,0356894
1668,1239;0,0351222
1669,0881;0,0344186
1670,0524;0,0336669
1671,0166;0,0329943
1671,9808;0,0324364
1672,9451;0,0319219
1673,9093;0,031384
1674,8735;0,0308547
1675,8378;0,0304592
1676,8020;0,0303052
1677,7662;0,0303706
1678,7305;0,030513
1679,6947;0,030565
1680,6589;0,0304021
1681,6232;0,0299486
1682,5874;0,0291672
1683,5516;0,028147
1684,5159;0,0272294
1685,4801;0,0267511
1686,4443;0,0266778
1687,4086;0,0267469
1688,3728;0,0267477
1689,3370;0,0266076
1690,3013;0,0263568
1691,2655;0,0260667
1692,2297;0,0258055
1693,1940;0,0256208
1694,1582;0,0255322
1695,1224;0,0255155
1696,0867;0,0254839
1697,0509;0,0253122
1698,0151;0,0249355
1698,9794;0,0244565
1699,9436;0,024112
1700,9078;0,0240851
1701,8721;0,0243679
1702,8363;0,0248075
1703,8005;0,025232
1704,7648;0,0255366
1705,7290;0,025712
1706,6932;0,0258286
1707,6575;0,0259818
1708,6217;0,0262264
1709,5859;0,0265539
1710,5502;0,0269208
1711,5144;0,0272855
1712,4786;0,0276244
1713,4429;0,0279257
1714,4071;0,028164
1715,3713;0,0282627
1716,3356;0,0281157
1717,2998;0,027763
1718,2640;0,0274703
1719,2283;0,0274465
1720,1925;0,0276579
1721,1567;0,0279538
1722,1210;0,0282108
1723,0852;0,0283784
1724,0494;0,0284724
1725,0137;0,0285491
1725,9779;0,0286698
1726,9421;0,0288661
1727,9064;0,0291216
1728,8706;0,0293786
1729,8348;0,0295591
1730,7991;0,029583
1731,7633;0,0293797
1732,7275;0,0289261
1733,6918;0,0283331
1734,6560;0,0278358
1735,6202;0,0275747
1736,5845;0,0274793
1737,5487;0,0273958
1738,5129;0,0272293
1739,4772;0,0269861
1740,4414;0,0267408
1741,4056;0,0265646
1742,3699;0,0264641
1743,3341;0,026381
1744,2983;0,0262427
1745,2626;0,0260056
1746,2268;0,0256551
1747,1910;0,0251725
1748,1553;0,0245115
1749,1195;0,0236379
1750,0837;0,0226261
1751,0480;0,0216635
1752,0122;0,020904
1752,9764;0,0203634
1753,9407;0,0199619
1754,9049;0,0196105
1755,8691;0,0192578
1756,8334;0,0188923
1757,7976;0,0185161
1758,7618;0,0181179
1759,7261;0,0176715
1760,6903;0,0171661
1761,6545;0,0166407
1762,6188;0,0161783
1763,5830;0,0158504
1764,5472;0,0156666
1765,5115;0,0155774
1766,4757;0,0155133
1767,4399;0,0154161
1768,4042;0,0152481
1769,3684;0,0149867
1770,3326;0,0146225
1771,2969;0,0141785
1772,2611;0,0137415
1773,2253;0,0134377
1774,1896;0,0133361
1775,1538;0,0133958
1776,1180;0,0135134
1777,0823;0,0135967
1778,0465;0,0136023
1779,0107;0,0135344
1779,9750;0,0134243
1780,9392;0,0133015
1781,9034;0,0131748
1782,8677;0,0130388
1783,8319;0,0128991
1784,7961;0,0127875
1785,7604;0,0127461
1786,7246;0,0127937
1787,6888;0,0129071
1788,6531;0,0130332
1789,6173;0,0131117
1790,5815;0,0130916
1791,5458;0,0129534
1792,5100;0,0127483
1793,4742;0,0125857
1794,4385;0,0125348
1795,4027;0,0125694
1796,3669;0,0126169
1797,3312;0,0126237
1798,2954;0,0125776
1799,2596;0,012493
1800,2239;0,0123875
1801,1881;0,0122724
1802,1523;0,0121581
1803,1166;0,0120594
1804,0808;0,0119932
1805,0450;0,011971
1806,0093;0,0119912
1806,9735;0,0120343
1807,9377;0,0120642
1808,9020;0,0120391
1809,8662;0,0119352
1810,8304;0,0117674
1811,7947;0,0115849
1812,7589;0,0114375
1813,7231;0,0113465
1814,6874;0,0113032
1815,6516;0,0112875
1816,6158;0,0112848
1817,5801;0,0112931
1818,5443;0,0113196
1819,5085;0,0113706
1820,4728;0,0114412
1821,4370;0,0115156
1822,4012;0,0115742
1823,3655;0,0116018
1824,3297;0,0115943
1825,2939;0,0115582
1826,2582;0,0115013
1827,2224;0,0114215
1828,1866;0,0113097
1829,1509;0,011168
1830,1151;0,0110296
1831,0793;0,0109494
1832,0436;0,0109598
1833,0078;0,0110422
1833,9720;0,0111441
1834,9363;0,0112175
1835,9005;0,0112429
1836,8647;0,0112352
1837,8290;0,0112287
1838,7932;0,0112496
1839,7574;0,0112986
1840,7217;0,0113576
1841,6859;0,0114078
1842,6501;0,0114363
1843,6144;0,0114339
1844,5786;0,0114046
1845,5428;0,0113711
1846,5071;0,0113491
1847,4713;0,0113227
1848,4355;0,0112619
1849,3998;0,0111533
1850,3640;0,0110137
1851,3282;0,0108803
1852,2925;0,0107883
1853,2567;0,0107532
1854,2209;0,0107695
1855,1852;0,01082
1856,1494;0,0108873
1857,1136;0,0109573
1858,0779;0,0110172
1859,0421;0,0110537
1860,0063;0,0110593
1860,9706;0,0110422
1861,9348;0,0110291
1862,8990;0,0110551
1863,8633;0,011147
1864,8275;0,0113101
1865,7917;0,0115179
1866,7560;0,0117025
1867,7202;0,0117668
1868,6844;0,0116486
1869,6487;0,0113891
1870,6129;0,0111024
1871,5771;0,0108781
1872,5414;0,0107422
1873,5056;0,0106823
1874,4698;0,0106801
1875,4341;0,0107202
1876,3983;0,0107853
1877,3625;0,0108529
1878,3268;0,0109003
1879,2910;0,0109138
1880,2552;0,0108947
1881,2195;0,0108587
1882,1837;0,0108272
1883,1479;0,0108172
1884,1122;0,0108337
1885,0764;0,0108706
1886,0406;0,0109163
1887,0049;0,0109594
1887,9691;0,0109905
1888,9333;0,0110033
1889,8976;0,0109977
1890,8618;0,0109807
1891,8260;0,0109616
1892,7903;0,0109456
1893,7545;0,0109323
1894,7188;0,0109181
1895,6830;0,0108989
1896,6472;0,0108719
1897,6115;0,010837
1898,5757;0,0107953
1899,5399;0,0107495
1900,5042;0,0107047
1901,4684;0,0106698
1902,4326;0,0106565
1903,3969;0,0106751
1904,3611;0,0107296
1905,3253;0,0108144
1906,2896;0,0109135
1907,2538;0,011002
1908,2180;0,0110505
1909,1823;0,0110375
1910,1465;0,0109636
1911,1107;0,0108554
1912,0750;0,0107517
1913,0392;0,0106836
1914,0034;0,0106634
1914,9677;0,0106863
1915,9319;0,0107375
1916,8961;0,0108016
1917,8604;0,010874
1918,8246;0,0109606
1919,7888;0,0110617
1920,7531;0,011155
1921,7173;0,0111983
1922,6815;0,0111537
1923,6458;0,0110192
1924,6100;0,01084
1925,5742;0,0106846
1926,5385;0,0106028
1927,5027;0,010601
1928,4669;0,0106477
1929,4312;0,0106973
1930,3954;0,0107138
1931,3596;0,0106853
1932,3239;0,0106202
1933,2881;0,0105361
1934,2523;0,0104508
1935,2166;0,0103821
1936,1808;0,0103471
1937,1450;0,0103555
1938,1093;0,0104008
1939,0735;0,0104582
1940,0377;0,0104958
1941,0020;0,0104954
1941,9662;0,0104709
1942,9304;0,010466
1943,8947;0,0105201
1944,8589;0,0106288
1945,8231;0,0107386
1946,7874;0,0107812
1947,7516;0,0107211
1948,7158;0,0105808
1949,6801;0,0104298
1950,6443;0,0103402
1951,6085;0,0103385
1952,5728;0,01039
1953,5370;0,0104285
1954,5012;0,0104086
1955,4655;0,0103417
1956,4297;0,0102858
1957,3939;0,0102979
1958,3582;0,0103843
1959,3224;0,0104904
1960,2866;0,0105395
1961,2509;0,0104925
1962,2151;0,0103781
1963,1793;0,0102665
1964,1436;0,0102106
1965,1078;0,0102039
1966,0720;0,0101855
1967,0363;0,0100935
1968,0005;0,00992301
1968,9647;0,00973655
1969,9290;0,00961735
1970,8932;0,00961242
1971,8574;0,00971353
1972,8217;0,00988079
1973,7859;0,0100814
1974,7501;0,0103113
1975,7144;0,0105847
1976,6786;0,0108994
1977,6428;0,0112108
1978,6071;0,0114422
1979,5713;0,0115229
1980,5355;0,0114264
1981,4998;0,0111827
1982,4640;0,0108694
1983,4282;0,0105876
1984,3925;0,0104316
1985,3567;0,0104542
1986,3209;0,0106466
1987,2852;0,0109453
1988,2494;0,0112659
1989,2136;0,011542
1990,1779;0,0117446
1991,1421;0,0118723
1992,1063;0,0119275
1993,0706;0,011901
1994,0348;0,0117813
1994,9990;0,0115757
1995,9633;0,0113211
1996,9275;0,0110707
1997,8917;0,0108668
1998,8560;0,0107195
1999,8202;0,010612
2000,7844;0,010531
2001,7487;0,0104957
2002,7129;0,0105542
2003,6771;0,0107441
2004,6414;0,0110433
2005,6056;0,011354
2006,5698;0,0115424
2007,5341;0,0115199
2008,4983;0,0113052
2009,4625;0,0110181
2010,4268;0,0108097
2011,3910;0,0107828
2012,3552;0,0109504
2013,3195;0,0112437
2014,2837;0,0115512
2015,2479;0,0117672
2016,2122;0,0118352
2017,1764;0,011772
2018,1406;0,0116587
2019,1049;0,0115962
2020,0691;0,0116482
2021,0333;0,0118056
2021,9976;0,0119908
2022,9618;0,0120997
2023,9260;0,012058
2024,8903;0,0118623
2025,8545;0,0115786
2026,8187;0,0113024
2027,7830;0,0111116
2028,7472;0,0110453
2029,7114;0,0111147
2030,6757;0,0113253
2031,6399;0,0116802
2032,6041;0,0121564
2033,5684;0,0126813
2034,5326;0,0131405
2035,4968;0,013426
2036,4611;0,0134908
2037,4253;0,0133695
2038,3895;0,0131492
2039,3538;0,0129163
2040,3180;0,0127161
2041,2822;0,01255
2042,2465;0,0124056
2043,2107;0,012292
2044,1749;0,0122493
2045,1392;0,0123238
2046,1034;0,0125283
2047,0676;0,0128175
2048,0320;0,0131002
2048,9961;0,0132846
2049,9604;0,0133206
2050,9246;0,0132126
2051,8889;0,0130041
2052,8530;0,0127554
2053,8174;0,0125296
2054,7815;0,0123811
2055,7458;0,0123429
2056,7100;0,0124108
2057,6743;0,0125394
2058,6384;0,0126564
2059,6028;0,0126959
2060,5669;0,0126329
2061,5313;0,0124988
2062,4954;0,0123671
2063,4597;0,0123132
2064,4238;0,0123713
2065,3882;0,0125149
2066,3523;0,0126739
2067,3167;0,0127758
2068,2808;0,0127827
2069,2451;0,012703
2070,2092;0,0125777
2071,1736;0,012455
2072,1377;0,0123681
2073,1021;0,0123284
2074,0662;0,0123317
2075,0305;0,0123684
2075,9946;0,0124306
2076,9590;0,0125113
2077,9231;0,0125998
2078,8875;0,0126807
2079,8516;0,0127373
2080,8159;0,0127601
2081,7800;0,0127515
2082,7444;0,0127253
2083,7085;0,0126975
2084,6729;0,012676
2085,6370;0,0126547
2086,6013;0,0126154
2087,5654;0,0125398
2088,5298;0,0124224
2089,4939;0,012278
2090,4583;0,0121397
2091,4224;0,0120464
2092,3867;0,0120276
2093,3508;0,0120923
2094,3152;0,0122265
2095,2793;0,0123988
2096,2437;0,0125709
2097,2078;0,0127083
2098,1721;0,0127871
2099,1362;0,0127973
2100,1006;0,0127454
2101,0647;0,0126511
2102,0291;0,0125493
2102,9932;0,0124766
2103,9575;0,012458
2104,9216;0,0124944
2105,8860;0,0125618
2106,8501;0,0126241
2107,8145;0,0126537
2108,7786;0,0126483
2109,7429;0,0126304
2110,7070;0,0126306
2111,6714;0,0126647
2112,6355;0,012719
2113,5999;0,0127545
2114,5640;0,0127273
2115,5283;0,0126126
2116,4924;0,0124194
2117,4568;0,0121884
2118,4209;0,0119764
2119,3853;0,0118357
2120,3494;0,0117974
2121,3137;0,0118627
2122,2778;0,0120023
2123,2422;0,0121633
2124,2063;0,0122811
2125,1707;0,0122971
2126,1348;0,0121794
2127,0991;0,011938
2128,0632;0,0116284
2129,0276;0,0113367
2129,9917;0,0111499
2130,9561;0,0111247
2131,9202;0,0112659
2132,8845;0,0115246
2133,8486;0,0118174
2134,8130;0,0120579
2135,7771;0,0121887
2136,7415;0,0122002
2137,7056;0,0121276
2138,6699;0,012033
2139,6340;0,0119805
2140,5984;0,0120118
2141,5625;0,0121307
2142,5269;0,0123015
2143,4910;0,0124653
2144,4553;0,0125697
2145,4194;0,0125973
2146,3838;0,012575
2147,3479;0,0125565
2148,3123;0,0125848
2149,2764;0,0126594
2150,2407;0,0127301
2151,2048;0,0127248
2152,1692;0,0125965
2153,1333;0,012365
2154,0977;0,0121288
2155,0618;0,0120391
2156,0261;0,0122393
2156,9902;0,0127843
2157,9546;0,0135754
2158,9187;0,0143766
2159,8831;0,0149354
2160,8472;0,0151228
2161,8115;0,0149763
2162,7756;0,0146383
2163,7400;0,0142711
2164,7041;0,0140006
2165,6685;0,0138929
2166,6326;0,0139514
2167,5969;0,0141242
2168,5610;0,014321
2169,5254;0,0144386
2170,4895;0,0143958
2171,4539;0,014167
2172,4180;0,0137999
2173,3823;0,0134029
2174,3464;0,0130981
2175,3108;0,0129646
2176,2749;0,0130021
2177,2393;0,0131414
2178,2034;0,0132922
2179,1677;0,0133946
2180,1318;0,013443
2181,0962;0,0134732
2182,0603;0,0135251
2183,0247;0,0136085
2183,9888;0,0136915
2184,9531;0,0137182
2185,9172;0,013639
2186,8816;0,0134381
2187,8457;0,0131448
2188,8101;0,0128279
2189,7742;0,0125725
2190,7385;0,0124498
2191,7026;0,0124889
2192,6670;0,0126654
2193,6311;0,0129137
2194,5955;0,0131571
2195,5596;0,0133405
2196,5239;0,0134482
2197,4880;0,0134967
2198,4524;0,0135122
2199,4165;0,0135101
2200,3809;0,0134903
2201,3450;0,0134503
2202,3093;0,0133992
2203,2734;0,0133596
2204,2378;0,0133537
2205,2019;0,0133835
2206,1663;0,0134233
2207,1304;0,0134326
2208,0947;0,0133811
2209,0588;0,0132684
2210,0232;0,0131248
2210,9873;0,0129928
2211,9517;0,012903
2212,9158;0,0128609
2213,8801;0,012852
2214,8442;0,0128602
2215,8086;0,0128831
2216,7727;0,0129349
2217,7371;0,0130346
2218,7012;0,0131869
2219,6655;0,0133715
2220,6296;0,013546
2221,5940;0,0136629
2222,5581;0,0136925
2223,5225;0,013639
2224,4866;0,0135405
2225,4509;0,0134514
2226,4150;0,013415
2227,3794;0,0134405
2228,3435;0,0134997
2229,3079;0,0135443
2230,2720;0,013536
2231,2363;0,0134716
2232,2004;0,0133858
2233,1648;0,01333
2234,1289;0,0133393
2235,0933;0,0134097
2236,0574;0,0134998
2237,0217;0,0135568
2237,9858;0,0135491
2238,9502;0,0134866
2239,9143;0,0134136
2240,8787;0,0133813
2241,8428;0,0134156
2242,8071;0,0135003
2243,7712;0,0135857
2244,7356;0,0136171
2245,6997;0,0135654
2246,6641;0,0134433
2247,6282;0,0132971
2248,5925;0,0131819
2249,5566;0,013134
2250,5210;0,013158
2251,4851;0,0132324
2252,4495;0,0133266
2253,4136;0,0134173
2254,3779;0,0134935
2255,3420;0,0135506
2256,3064;0,0135824
2257,2705;0,0135798
2258,2349;0,0135383
2259,1990;0,0134658
2260,1633;0,0133838
2261,1274;0,013319
2262,0918;0,0132906
2263,0559;0,0133035
2264,0203;0,0133498
2264,9844;0,0134173
2265,9487;0,0134956
2266,9128;0,0135756
2267,8772;0,0136459
2268,8413;0,0136916
2269,8057;0,0136997
2270,7698;0,0136682
2271,7341;0,01361
2272,6982;0,0135486
2273,6626;0,0135061
2274,6267;0,013493
2275,5911;0,0135056
2276,5552;0,0135335
2277,5195;0,0135692
2278,4836;0,0136149
2279,4480;0,013681
2280,4121;0,013779
2281,3765;0,0139145
2282,3406;0,0140828
2283,3049;0,0142701
2284,2690;0,0144584
2285,2334;0,0146324
2286,1975;0,0147852
2287,1619;0,0149219
2288,1260;0,0150566
2289,0903;0,0152052
2290,0544;0,0153769
2291,0188;0,0155693
2291,9829;0,0157708
2292,9473;0,0159677
2293,9114;0,0161527
2294,8757;0,0163268
2295,8398;0,0164953
2296,8042;0,0166605
2297,7683;0,0168192
2298,7327;0,0169657
2299,6968;0,0170995
2300,6611;0,0172313
2301,6252;0,0173816
2302,5896;0,0175718
2303,5537;0,0178141
2304,5181;0,0181035
2305,4822;0,0184155
2306,4465;0,0187104
2307,4106;0,0189414
2308,3750;0,0190681
2309,3391;0,01907
2310,3035;0,0189582
2311,2676;0,0187759
2312,2319;0,0185852
2313,1960;0,0184421
2314,1604;0,018373
2315,1245;0,0183663
2316,0889;0,018386
2317,0530;0,0183958
2318,0173;0,0183807
2318,9814;0,0183514
2319,9458;0,018331
2320,9099;0,0183326
2321,8743;0,0183472
2322,8384;0,018349
2323,8027;0,0183114
2324,7668;0,0182168
2325,7312;0,0180577
2326,6953;0,0178326
2327,6597;0,0175408
2328,6238;0,0171792
2329,5881;0,0167501
2330,5522;0,0162772
2331,5166;0,0158131
2332,4807;0,0154189
2333,4451;0,0151296
2334,4092;0,0149376
2335,3735;0,0148117
2336,3376;0,0147336
2337,3020;0,0147244
2338,2661;0,0148354
2339,2305;0,0151027
2340,1946;0,0154909
2341,1589;0,0158697
2342,1230;0,0160639
2343,0874;0,0159946
2344,0515;0,01583
2345,0159;0,0159104
2345,9800;0,0164324
2346,9443;0,0172702
2347,9084;0,0181053
2348,8728;0,0186491
2349,8369;0,0187724
2350,8013;0,0185291
2351,7654;0,0181067
2352,7297;0,0177228
2353,6938;0,0175118
2354,6582;0,0174829
2355,6223;0,01757
2356,5867;0,0176923
2357,5508;0,0177685
2358,5151;0,0177286
2359,4792;0,0175509
2360,4436;0,0172844
2361,4077;0,0170127
2362,3721;0,0167878
2363,3362;0,0165998
2364,3005;0,0164013
2365,2646;0,0161527
2366,2290;0,0158506
2367,1931;0,0155263
2368,1575;0,0152259
2369,1216;0,0149882
2370,0859;0,0148294
2371,0500;0,0147396
2372,0144;0,014694
2372,9785;0,0146726
2373,9429;0,0146726
2374,9070;0,0147081
2375,8713;0,0147962
2376,8354;0,0149413
2377,7998;0,0151264
2378,7639;0,0153158
2379,7283;0,0154645
2380,6924;0,0155306
2381,6567;0,015486
2382,6208;0,0153226
2383,5852;0,0150548
2384,5493;0,0147168
2385,5137;0,014354
2386,4778;0,0140125
2387,4421;0,0137271
2388,4063;0,0135145
2389,3706;0,0133715
2390,3347;0,0132812
2391,2991;0,0132222
2392,2632;0,0131776
2393,2275;0,0131401
2394,1917;0,0131125
2395,1560;0,0131035
2396,1201;0,0131211
2397,0845;0,0131679
2398,0486;0,0132384
2399,0129;0,0133192
2399,9771;0,0133937
2400,9414;0,0134486
2401,9055;0,0134779
2402,8699;0,0134841
2403,8340;0,0134755
2404,7983;0,0134622
2405,7625;0,0134517
2406,7268;0,0134474
2407,6909;0,0134505
2408,6553;0,0134623
2409,6194;0,0134843
2410,5837;0,0135183
2411,5479;0,0135629
2412,5122;0,0136134
2413,4763;0,0136622
2414,4407;0,0137029
2415,4048;0,0137332
2416,3691;0,0137564
2417,3333;0,013779
2418,2976;0,0138065
2419,2617;0,0138396
2420,2261;0,0138736
2421,1902;0,0139002
2422,1545;0,0139126
2423,1187;0,0139088
2424,0830;0,013894
2425,0471;0,013879
2426,0115;0,0138759
2426,9756;0,0138926
2427,9399;0,0139291
2428,9041;0,0139766
2429,8684;0,0140221
2430,8325;0,0140553
2431,7969;0,0140746
2432,7610;0,0140883
2433,7253;0,0141086
2434,6895;0,0141434
2435,6538;0,0141904
2436,6179;0,014238
2437,5823;0,0142718
2438,5464;0,0142838
2439,5107;0,0142759
2440,4749;0,0142579
2441,4392;0,0142418
2442,4033;0,0142364
2443,3677;0,0142459
2444,3318;0,0142716
2445,2961;0,0143132
2446,2603;0,0143685
2447,2246;0,0144315
2448,1887;0,0144929
2449,1531;0,0145434
2450,1172;0,0145783
2451,0815;0,0145993
2452,0457;0,0146121
2453,0100;0,0146209
2453,9741;0,014625
2454,9385;0,0146197
2455,9026;0,0146015
2456,8669;0,0145726
2457,8311;0,0145418
2458,7954;0,0145207
2459,7595;0,0145185
2460,7239;0,0145387
2461,6880;0,0145794
2462,6523;0,0146355
2463,6165;0,0147001
2464,5808;0,0147643
2465,5449;0,0148177
2466,5093;0,0148497
2467,4734;0,0148548
2468,4377;0,0148364
2469,4019;0,0148071
2470,3662;0,0147842
2471,3303;0,0147806
2472,2947;0,0147991
2473,2588;0,0148309
2474,2231;0,0148617
2475,1873;0,0148801
2476,1516;0,0148835
2477,1157;0,0148785
2478,0801;0,0148747
2479,0442;0,0148789
2480,0085;0,0148916
2480,9727;0,0149095
2481,9370;0,0149302
2482,9011;0,0149549
2483,8655;0,0149874
2484,8296;0,0150293
2485,7939;0,0150765
2486,7581;0,0151198
2487,7224;0,0151507
2488,6865;0,0151667
2489,6509;0,0151735
2490,6150;0,0151811
2491,5793;0,0151968
2492,5435;0,015221
2493,5078;0,0152471
2494,4719;0,015267
2495,4363;0,0152764
2496,4004;0,0152775
2497,3647;0,0152764
2498,3289;0,0152786
2499,2932;0,0152856
2500,2573;0,015294
2501,2217;0,0152995
2502,1858;0,0153
2503,1501;0,0152982
2504,1143;0,0152999
2505,0786;0,0153112
2506,0427;0,0153348
2507,0071;0,0153684
2507,9712;0,0154061
2508,9355;0,0154403
2509,8997;0,0154647
2510,8640;0,0154762
2511,8281;0,015476
2512,7925;0,0154696
2513,7566;0,0154659
2514,7209;0,0154741
2515,6851;0,0154995
2516,6494;0,0155403
2517,6135;0,0155869
2518,5779;0,0156255
2519,5420;0,0156444
2520,5063;0,0156403
2521,4705;0,0156195
2522,4348;0,0155954
2523,3989;0,0155822
2524,3633;0,0155897
2525,3274;0,0156212
2526,2917;0,0156733
2527,2559;0,0157377
2528,2202;0,0158024
2529,1843;0,0158546
2530,1487;0,0158832
2531,1128;0,015884
2532,0771;0,0158616
2533,0413;0,0158285
2534,0056;0,0157996
2534,9697;0,0157853
2535,9341;0,0157884
2536,8982;0,0158051
2537,8625;0,0158301
2538,8267;0,0158608
2539,7910;0,0158967
2540,7551;0,0159364
2541,7195;0,015974
2542,6836;0,0159993
2543,6479;0,0160028
2544,6121;0,0159824
2545,5764;0,0159459
2546,5405;0,0159087
2547,5049;0,0158863
2548,4690;0,0158875
2549,4333;0,0159107
2550,3975;0,0159459
2551,3618;0,0159809
2552,3259;0,0160071
2553,2903;0,0160236
2554,2544;0,0160364
2555,2188;0,0160537
2556,1829;0,0160801
2557,1472;0,0161118
2558,1113;0,0161374
2559,0757;0,0161439
2560,0398;0,0161262
2561,0042;0,0160924
2561,9683;0,016062
2562,9326;0,0160554
2563,8967;0,0160818
2564,8611;0,0161328
2565,8252;0,0161876
2566,7896;0,0162263
2567,7537;0,0162425
2568,7180;0,0162466
2569,6821;0,0162567
2570,6465;0,0162847
2571,6106;0,0163272
2572,5750;0,0163673
2573,5391;0,0163864
2574,5034;0,0163772
2575,4675;0,0163481
2576,4319;0,0163188
2577,3960;0,016308
2578,3604;0,0163248
2579,3245;0,0163657
2580,2888;0,0164192
2581,2529;0,0164735
2582,2173;0,0165205
2583,1814;0,0165567
2584,1458;0,0165812
2585,1099;0,016594
2586,0742;0,0165965
2587,0383;0,016592
2588,0027;0,0165848
2588,9668;0,0165789
2589,9312;0,0165755
2590,8953;0,0165732
2591,8596;0,0165709
2592,8237;0,0165705
2593,7881;0,0165778
2594,7522;0,0165999
2595,7166;0,0166403
2596,6807;0,0166953
2597,6450;0,0167552
2598,6091;0,0168085
2599,5735;0,0168472
2600,5376;0,0168701
2601,5020;0,0168822
2602,4661;0,0168909
2603,4304;0,0169016
2604,3945;0,016916
2605,3589;0,0169319
2606,3230;0,0169459
2607,2874;0,016955
2608,2515;0,0169588
2609,2158;0,0169591
2610,1799;0,0169596
2611,1443;0,0169649
2612,1084;0,0169791
2613,0728;0,0170047
2614,0369;0,017042
2615,0012;0,0170881
2615,9653;0,0171367
2616,9297;0,0171799
2617,8938;0,0172109
2618,8582;0,0172269
2619,8223;0,0172308
2620,7866;0,0172295
2621,7507;0,0172304
2622,7151;0,0172377
2623,6792;0,0172513
2624,6436;0,0172682
2625,6077;0,0172866
2626,5720;0,0173084
2627,5361;0,0173375
2628,5005;0,0173767
2629,4646;0,0174236
2630,4290;0,0174706
2631,3931;0,0175082
2632,3574;0,0175305
2633,3215;0,0175381
2634,2859;0,0175374
2635,2500;0,0175364
2636,2144;0,0175407
2637,1785;0,0175513
2638,1428;0,0175658
2639,1069;0,0175817
2640,0713;0,0175978
2641,0354;0,0176144
2641,9998;0,017632
2642,9639;0,0176501
2643,9282;0,0176669
2644,8923;0,0176807
2645,8567;0,0176911
2646,8208;0,017699
2647,7852;0,0177062
2648,7493;0,0177138
2649,7136;0,0177224
2650,6777;0,0177315
2651,6421;0,017741
2652,6062;0,0177508
2653,5706;0,0177608
2654,5347;0,017771
2655,4990;0,0177808
2656,4631;0,0177897
2657,4275;0,017797
2658,3916;0,0178026
2659,3560;0,0178061
2660,3201;0,017807
2661,2844;0,0178047
2662,2485;0,0177987
2663,2129;0,0177897
2664,1770;0,01778
2665,1414;0,0177733
2666,1055;0,0177729
2667,0698;0,0177805
2668,0339;0,0177943
2668,9983;0,0178101
2669,9624;0,0178228
2670,9268;0,0178301
2671,8909;0,0178337
2672,8552;0,0178394
2673,8193;0,0178534
2674,7837;0,0178787
2675,7478;0,0179122
2676,7122;0,0179463
2677,6763;0,0179732
2678,6406;0,0179899
2679,6047;0,0180001
2680,5691;0,0180121
2681,5332;0,0180335
2682,4976;0,0180664
2683,4617;0,0181061
2684,4260;0,0181445
2685,3901;0,0181751
2686,3545;0,0181973
2687,3186;0,0182155
2688,2830;0,0182349
2689,2471;0,018257
2690,2114;0,0182784
2691,1755;0,0182938
2692,1399;0,0183016
2693,1040;0,0183066
2694,0684;0,0183185
2695,0325;0,0183449
2695,9968;0,0183861
2696,9609;0,0184329
2697,9253;0,0184721
2698,8894;0,0184941
2699,8538;0,0184988
2700,8179;0,0184961
2701,7822;0,0184992
2702,7463;0,0185178
2703,7107;0,0185528
2704,6748;0,018598
2705,6392;0,0186441
2706,6033;0,018684
2707,5676;0,0187154
2708,5317;0,0187401
2709,4961;0,0187613
2710,4602;0,0187819
2711,4246;0,018803
2712,3887;0,0188244
2713,3530;0,0188454
2714,3171;0,0188652
2715,2815;0,0188838
2716,2456;0,0189017
2717,2100;0,0189196
2718,1741;0,0189386
2719,1384;0,0189591
2720,1025;0,0189814
2721,0669;0,0190059
2722,0310;0,0190335
2722,9954;0,0190645
2723,9595;0,0190985
2724,9238;0,0191331
2725,8879;0,0191644
2726,8523;0,0191883
2727,8164;0,0192031
2728,7808;0,0192105
2729,7449;0,0192153
2730,7092;0,0192234
2731,6733;0,0192389
2732,6377;0,0192627
2733,6018;0,0192921
2734,5662;0,0193227
2735,5303;0,0193504
2736,4946;0,0193732
2737,4587;0,0193912
2738,4231;0,0194059
2739,3872;0,0194192
2740,3516;0,0194325
2741,3157;0,0194469
2742,2800;0,0194628
2743,2441;0,0194801
2744,2085;0,019498
2745,1726;0,0195154
2746,1370;0,0195318
2747,1011;0,0195478
2748,0654;0,0195651
2749,0295;0,0195849
2749,9939;0,0196067
2750,9580;0,019628
2751,9224;0,0196463
2752,8865;0,0196612
2753,8508;0,0196757
2754,8149;0,0196945
2755,7793;0,0197211
2756,7434;0,0197551
2757,7078;0,0197925
2758,6719;0,0198278
2759,6362;0,0198578
2760,6003;0,0198829
2761,5647;0,0199062
2762,5288;0,0199308
2763,4932;0,0199578
2764,4573;0,0199866
2765,4216;0,0200157
2766,3857;0,0200454
2767,3501;0,0200778
2768,3142;0,0201156
2769,2786;0,0201602
2770,2427;0,0202101
2771,2070;0,02026
2772,1711;0,0203031
2773,1355;0,0203336
2774,0996;0,02035
2775,0640;0,0203571
2776,0281;0,0203647
2776,9924;0,0203836
2777,9565;0,02042
2778,9209;0,0204731
2779,8850;0,0205348
2780,8494;0,0205951
2781,8135;0,0206465
2782,7778;0,0206874
2783,7419;0,0207215
2784,7063;0,020754
2785,6704;0,0207884
2786,6348;0,0208256
2787,5989;0,0208645
2788,5632;0,0209043
2789,5273;0,0209456
2790,4917;0,0209899
2791,4558;0,0210384
2792,4202;0,0210916
2793,3843;0,021149
2794,3486;0,0212097
2795,3127;0,0212726
2796,2771;0,0213356
2797,2412;0,0213962
2798,2056;0,0214522
2799,1697;0,0215033
2800,1340;0,0215522
2801,0981;0,0216042
2802,0625;0,0216649
2803,0266;0,0217376
2803,9910;0,0218211
2804,9551;0,02191
2805,9194;0,0219967
2806,8835;0,0220749
2807,8479;0,0221419
2808,8120;0,0221995
2809,7764;0,0222538
2810,7405;0,0223124
2811,7048;0,0223827
2812,6689;0,0224683
2813,6333;0,0225682
2814,5974;0,0226767
2815,5618;0,0227869
2816,5259;0,0228934
2817,4902;0,0229953
2818,4543;0,0230955
2819,4187;0,0231984
2820,3828;0,0233064
2821,3472;0,0234191
2822,3113;0,0235349
2823,2756;0,0236535
2824,2397;0,0237771
2825,2041;0,0239091
2826,1682;0,0240513
2827,1326;0,0242024
2828,0967;0,0243588
2829,0610;0,0245183
2830,0251;0,0246815
2830,9895;0,0248512
2831,9536;0,02503
2832,9180;0,0252179
2833,8821;0,0254132
2834,8464;0,0256151
2835,8105;0,025826
2836,7749;0,0260508
2837,7390;0,0262936
2838,7034;0,0265546
2839,6675;0,0268305
2840,6318;0,0271182
2841,5959;0,0274193
2842,5603;0,0277408
2843,5244;0,0280911
2844,4888;0,0284736
2845,4529;0,0288812
2846,4172;0,0292964
2847,3813;0,0296953
2848,3457;0,0300546
2849,3098;0,0303561
2850,2742;0,0305887
2851,2383;0,0307476
2852,2026;0,0308334
2853,1667;0,0308515
2854,1311;0,0308126
2855,0952;0,030732
2856,0596;0,0306277
2857,0237;0,0305176
2857,9880;0,0304171
2858,9521;0,030337
2859,9165;0,030284
2860,8806;0,0302611
2861,8450;0,0302685
2862,8091;0,0303043
2863,7734;0,0303645
2864,7375;0,0304441
2865,7019;0,0305377
2866,6660;0,0306401
2867,6304;0,0307455
2868,5945;0,0308477
2869,5588;0,0309392
2870,5229;0,031013
2871,4873;0,0310653
2872,4514;0,0310973
2873,4158;0,0311163
2874,3799;0,0311329
2875,3442;0,0311568
2876,3083;0,0311932
2877,2727;0,0312415
2878,2368;0,0312967
2879,2012;0,0313535
2880,1653;0,0314085
2881,1296;0,0314618
2882,0938;0,0315158
2883,0581;0,031573
2884,0222;0,0316354
2884,9866;0,0317034
2885,9507;0,0317766
2886,9150;0,031854
2887,8792;0,0319337
2888,8435;0,0320132
2889,8076;0,0320907
2890,7720;0,0321657
2891,7361;0,0322397
2892,7004;0,0323164
2893,6646;0,032399
2894,6289;0,0324885
2895,5930;0,0325827
2896,5574;0,0326769
2897,5215;0,0327664
2898,4858;0,0328486
2899,4500;0,0329243
2900,4143;0,0329965
2901,3784;0,0330693
2902,3428;0,0331461
2903,3069;0,0332293
2904,2712;0,0333214
2905,2354;0,0334249
2906,1997;0,0335421
2907,1638;0,0336752
2908,1282;0,0338252
2909,0923;0,0339931
2910,0566;0,0341809
2911,0208;0,0343915
2911,9851;0,0346267
2912,9492;0,0348842
2913,9136;0,0351545
2914,8777;0,0354212
2915,8420;0,0356644
2916,8062;0,0358665
2917,7705;0,0360173
2918,7346;0,0361154
2919,6990;0,0361668
2920,6631;0,0361789
2921,6274;0,0361569
2922,5916;0,0361011
2923,5559;0,036008
2924,5200;0,0358744
2925,4844;0,0357005
2926,4485;0,0354923
2927,4128;0,0352603
2928,3770;0,0350164
2929,3413;0,0347706
2930,3054;0,0345277
2931,2698;0,0342872
2932,2339;0,0340452
2933,1982;0,0337972
2934,1624;0,0335408
2935,1267;0,0332771
2936,0908;0,0330102
2937,0552;0,032745
2938,0193;0,0324853
2938,9836;0,0322323
2939,9478;0,0319848
2940,9121;0,0317404
2941,8762;0,0314979
2942,8406;0,031259
2943,8047;0,0310284
2944,7690;0,0308117
2945,7332;0,0306127
2946,6975;0,0304321
2947,6616;0,0302675
2948,6260;0,0301154
2949,5901;0,0299735
2950,5544;0,0298405
2951,5186;0,0297149
2952,4829;0,0295931
2953,4470;0,0294693
2954,4114;0,0293381
2955,3755;0,0291971
2956,3398;0,0290483
2957,3040;0,0288972
2958,2683;0,0287491
2959,2324;0,028607
2960,1968;0,0284708
2961,1609;0,0283379
2962,1252;0,028205
2963,0894;0,0280681
2964,0537;0,0279233
2965,0178;0,027768
2965,9822;0,027602
2966,9463;0,0274298
2967,9106;0,0272599
2968,8748;0,0271012
2969,8391;0,0269592
2970,8032;0,0268335
2971,7676;0,0267187
2972,7317;0,0266085
2973,6960;0,0265001
2974,6602;0,0263946
2975,6245;0,0262955
2976,5886;0,0262046
2977,5530;0,0261191
2978,5171;0,0260328
2979,4814;0,0259394
2980,4456;0,0258372
2981,4099;0,0257301
2982,3740;0,0256274
2983,3384;0,0255393
2984,3025;0,025473
2985,2668;0,0254299
2986,2310;0,0254055
2987,1953;0,0253908
2988,1594;0,0253761
2989,1238;0,0253545
2990,0879;0,0253234
2991,0522;0,0252853
2992,0164;0,0252456
2992,9807;0,0252096
2993,9448;0,0251812
2994,9092;0,0251624
2995,8733;0,0251546
2996,8376;0,0251597
2997,8018;0,0251788
2998,7661;0,0252114
2999,7302;0,025253
3000,6946;0,0252965
3001,6587;0,0253347
3002,6230;0,0253645
3003,5872;0,0253879
3004,5515;0,0254111
3005,5156;0,0254403
3006,4800;0,0254777
3007,4441;0,0255211
3008,4084;0,0255652
3009,3726;0,0256048
3010,3369;0,0256376
3011,3010;0,025664
3012,2654;0,025686
3013,2295;0,0257053
3014,1938;0,0257224
3015,1580;0,0257377
3016,1223;0,0257531
3017,0864;0,0257728
3018,0508;0,0258027
3019,0149;0,0258479
3019,9792;0,0259092
3020,9434;0,025982
3021,9077;0,0260565
3022,8718;0,0261226
3023,8362;0,0261755
3024,8003;0,0262186
3025,7646;0,0262635
3026,7288;0,0263238
3027,6931;0,0264081
3028,6572;0,026515
3029,6216;0,026633
3030,5857;0,0267459
3031,5500;0,0268398
3032,5142;0,0269095
3033,4785;0,0269589
3034,4426;0,0269977
3035,4070;0,027036
3036,3711;0,0270804
3037,3354;0,027133
3038,2996;0,0271932
3039,2639;0,0272599
3040,2280;0,0273316
3041,1924;0,0274074
3042,1565;0,0274858
3043,1208;0,0275656
3044,0850;0,0276464
3045,0493;0,0277296
3046,0134;0,0278178
3046,9778;0,0279129
3047,9419;0,028015
3048,9063;0,0281211
3049,8704;0,0282265
3050,8347;0,0283267
3051,7988;0,0284189
3052,7632;0,0285023
3053,7273;0,0285781
3054,6917;0,0286486
3055,6558;0,0287172
3056,6201;0,0287878
3057,5842;0,0288649
3058,5486;0,0289512
3059,5127;0,0290475
3060,4771;0,0291514
3061,4412;0,0292587
3062,4055;0,0293641
3063,3696;0,0294629
3064,3340;0,0295522
3065,2981;0,029631
3066,2625;0,0297002
3067,2266;0,029762
3068,1909;0,0298202
3069,1550;0,0298787
3070,1194;0,0299421
3071,0835;0,0300136
3072,0479;0,0300949
3073,0120;0,0301842
3073,9763;0,030277
3074,9404;0,0303671
3075,9048;0,0304488
3076,8689;0,0305199
3077,8333;0,0305824
3078,7974;0,030642
3079,7617;0,0307048
3080,7258;0,030774
3081,6902;0,0308479
3082,6543;0,0309209
3083,6187;0,030987
3084,5828;0,031044
3085,5471;0,0310958
3086,5112;0,0311513
3087,4756;0,0312207
3088,4397;0,0313105
3089,4041;0,0314197
3090,3682;0,0315401
3091,3325;0,0316589
3092,2966;0,031765
3093,2610;0,0318531
3094,2251;0,031926
3095,1895;0,0319928
3096,1536;0,0320645
3097,1179;0,0321479
3098,0820;0,0322426
3099,0464;0,0323403
3100,0105;0,0324289
3100,9749;0,032499
3101,9390;0,032549
3102,9033;0,0325874
3103,8674;0,0326286
3104,8318;0,0326868
3105,7959;0,0327691
3106,7603;0,0328731
3107,7244;0,0329891
3108,6887;0,0331058
3109,6528;0,0332163
3110,6172;0,0333207
3111,5813;0,0334232
3112,5457;0,0335281
3113,5098;0,0336352
3114,4741;0,0337401
3115,4382;0,033837
3116,4026;0,0339225
3117,3667;0,0339979
3118,3311;0,0340682
3119,2952;0,0341395
3120,2595;0,0342165
3121,2236;0,0343012
3122,1880;0,0343924
3123,1521;0,0344869
3124,1165;0,0345805
3125,0806;0,0346697
3126,0449;0,034754
3127,0090;0,0348361
3127,9734;0,0349211
3128,9375;0,0350136
3129,9019;0,0351143
3130,8660;0,0352191
3131,8303;0,0353219
3132,7944;0,0354183
3133,7588;0,0355098
3134,7229;0,0356031
3135,6873;0,0357061
3136,6514;0,0358224
3137,6157;0,0359482
3138,5798;0,0360734
3139,5442;0,036187
3140,5083;0,0362829
3141,4727;0,0363626
3142,4368;0,0364351
3143,4011;0,0365119
3144,3652;0,0366021
3145,3296;0,0367079
3146,2937;0,0368248
3147,2581;0,0369439
3148,2222;0,0370567
3149,1865;0,0371593
3150,1506;0,0372539
3151,1150;0,0373463
3152,0791;0,0374416
3153,0435;0,0375412
3154,0076;0,0376426
3154,9719;0,0377422
3155,9360;0,0378393
3156,9004;0,0379369
3157,8645;0,0380394
3158,8289;0,0381489
3159,7930;0,0382632
3160,7573;0,0383771
3161,7214;0,038487
3162,6858;0,0385929
3163,6499;0,0386986
3164,6143;0,0388074
3165,5784;0,0389198
3166,5427;0,0390325
3167,5068;0,0391421
3168,4712;0,039248
3169,4353;0,0392522
3170,3997;0,039362
3171,3638;0,0394773
3172,3281;0,0395932
3173,2922;0,0397019
3174,2566;0,0397976
3175,2207;0,0398805
3176,1851;0,0399573
3177,1492;0,0400367
3178,1135;0,0401247
3179,0776;0,0402224
3180,0420;0,0403267
3181,0061;0,0404342
3181,9705;0,0405428
3182,9346;0,0406522
3183,8989;0,0407608
3184,8630;0,0408656
3185,8274;0,0409627
3186,7915;0,0410511
3187,7559;0,0411346
3188,7200;0,0412209
3189,6843;0,0413175
3190,6484;0,0414274
3191,6128;0,0415473
3192,5769;0,04167
3193,5413;0,0417878
3194,5054;0,0418961
3195,4697;0,041993
3196,4338;0,0420786
3197,3982;0,0421537
3198,3623;0,0422209
3199,3267;0,0422856
3200,2908;0,0423558
3201,2551;0,0424385
3202,2192;0,0425362
3203,1836;0,0426439
3204,1477;0,0427517
3205,1121;0,0428489
3206,0762;0,0429305
3207,0405;0,0429992
3208,0046;0,0430643
3208,9690;0,0431372
3209,9331;0,0432253
3210,8975;0,043329
3211,8616;0,0434411
3212,8259;0,0435502
3213,7900;0,0436452
3214,7544;0,0437201
3215,7185;0,043777
3216,6829;0,0438244
3217,6470;0,0438735
3218,6113;0,0439328
3219,5754;0,044005
3220,5398;0,0440869
3221,5039;0,0441728
3222,4683;0,0442582
3223,4324;0,0443417
3224,3967;0,0444243
3225,3608;0,0445073
3226,3252;0,0445908
3227,2893;0,0446732
3228,2537;0,0447519
3229,2178;0,0448247
3230,1821;0,0448907
3231,1462;0,0449514
3232,1106;0,0450099
3233,0747;0,0450713
3234,0391;0,0451403
3235,0032;0,0452201
3235,9675;0,0453103
3236,9316;0,0454075
3237,8960;0,045507
3238,8601;0,0456053
3239,8245;0,0457011
3240,7886;0,0457952
3241,7529;0,0458876
3242,7170;0,0459763
3243,6814;0,046057
3244,6455;0,0461253
3245,6099;0,0461807
3246,5740;0,0462291
3247,5383;0,0462813
3248,5024;0,0463489
3249,4668;0,0464393
3250,4309;0,0465516
3251,3953;0,0466769
3252,3594;0,0468014
3253,3237;0,0469127
3254,2878;0,0470049
3255,2522;0,0470808
3256,2163;0,0471487
3257,1807;0,0472175
3258,1448;0,047292
3259,1091;0,0473711
3260,0732;0,0474506
3261,0376;0,047526
3262,0017;0,0475959
3262,9661;0,0476623
3263,9302;0,0477289
3264,8945;0,0477979
3265,8586;0,0478689
3266,8230;0,047938
3267,7871;0,0480011
3268,7515;0,0480559
3269,7156;0,0481035
3270,6799;0,0481476
3271,6440;0,0481918
3272,6084;0,0482373
3273,5725;0,0482816
3274,5369;0,0483204
3275,5010;0,0483512
3276,4653;0,0483752
3277,4294;0,0483973
3278,3938;0,0484227
3279,3579;0,0484531
3280,3223;0,0484856
3281,2864;0,0485137
3282,2507;0,0485316
3283,2148;0,048538
3284,1792;0,0485374
3285,1433;0,0485373
3286,1077;0,0485444
3287,0718;0,0485601
3288,0361;0,048581
3289,0002;0,0486005
3289,9646;0,0486136
3290,9287;0,0486189
3291,8931;0,0486193
3292,8572;0,048618
3293,8215;0,0486166
3294,7856;0,0486134
3295,7500;0,0486055
3296,7141;0,0485921
3297,6785;0,0485759
3298,6426;0,0485615
3299,6069;0,0485517
3300,5710;0,0485456
3301,5354;0,0485395
3302,4995;0,0485312
3303,4639;0,048523
3304,4280;0,0485221
3305,3923;0,0485356
3306,3564;0,048565
3307,3208;0,0486033
3308,2849;0,0486377
3309,2493;0,0486563
3310,2134;0,0486549
3311,1777;0,0486377
3312,1418;0,048615
3313,1062;0,0485969
3314,0703;0,0485899
3315,0347;0,0485962
3315,9988;0,048616
3316,9631;0,0486482
3317,9272;0,0486908
3318,8916;0,0487399
3319,8557;0,0487903
3320,8201;0,0488371
3321,7842;0,0488776
3322,7485;0,0489124
3323,7126;0,0489432
3324,6770;0,0489704
3325,6411;0,048992
3326,6055;0,0490058
3327,5696;0,0490122
3328,5339;0,0490159
3329,4980;0,0490241
3330,4624;0,0490411
3331,4265;0,0490648
3332,3909;0,0490861
3333,3550;0,0490933
3334,3193;0,0490782
3335,2834;0,0490404
3336,2478;0,048987
3337,2119;0,0489278
3338,1763;0,0488692
3339,1404;0,0488116
3340,1047;0,0487504
3341,0688;0,0486807
3342,0332;0,0486019
3342,9973;0,0485185
3343,9617;0,0484375
3344,9258;0,0483646
3345,8901;0,0483003
3346,8542;0,0482401
3347,8186;0,0481778
3348,7827;0,0481094
3349,7471;0,048036
3350,7112;0,0479628
3351,6755;0,0478949
3352,6396;0,0478336
3353,6040;0,0477748
3354,5681;0,0477116
3355,5325;0,0476392
3356,4966;0,0475587
3357,4609;0,0474769
3358,4250;0,0474024
3359,3894;0,0473408
3360,3535;0,0472919
3361,3179;0,0472511
3362,2820;0,0472124
3363,2463;0,0471718
3364,2104;0,0471272
3365,1748;0,0470766
3366,1389;0,0470158
3367,1033;0,046939
3368,0674;0,0468418
3369,0317;0,046725
3369,9958;0,046597
3370,9602;0,0464708
3371,9243;0,0463601
3372,8887;0,0462741
3373,8528;0,0462137
3374,8171;0,0461721
3375,7813;0,0461367
3376,7456;0,046095
3377,7097;0,0460381
3378,6741;0,0459648
3379,6382;0,0458801
3380,6025;0,0457927
3381,5667;0,0457097
3382,5310;0,0456335
3383,4951;0,045561
3384,4595;0,045488
3385,4236;0,045413
3386,3879;0,0453404
3387,3521;0,0452779
3388,3164;0,0452309
3389,2805;0,0451975
3390,2449;0,0451671
3391,2090;0,0451251
3392,1733;0,0450605
3393,1375;0,0449734
3394,1018;0,0448742
3395,0659;0,0447778
3396,0303;0,0446942
3396,9944;0,0446235
3397,9587;0,0445566
3398,9229;0,0444805
3399,8872;0,0443861
3400,8513;0,044272
3401,8157;0,0441446
3402,7798;0,044015
3403,7441;0,0438941
3404,7083;0,0437882
3405,6726;0,0436977
3406,6367;0,0436173
3407,6011;0,0435393
3408,5652;0,0434567
3409,5295;0,043366
3410,4937;0,0432684
3411,4580;0,0431678
3412,4221;0,043069
3413,3865;0,0429752
3414,3506;0,0428873
3415,3149;0,0428042
3416,2791;0,0427244
3417,2434;0,0426449
3418,2075;0,0425601
3419,1719;0,0424627
3420,1360;0,0423462
3421,1003;0,0422095
3422,0645;0,0420591
3423,0288;0,0419065
3423,9929;0,0417624
3424,9573;0,0416312
3425,9214;0,0415099
3426,8857;0,0413909
3427,8499;0,0412666
3428,8142;0,0411345
3429,7783;0,0409969
3430,7427;0,040859
3431,7068;0,0407241
3432,6711;0,0405911
3433,6353;0,0404563
3434,5996;0,040317
3435,5637;0,0401752
3436,5281;0,0400372
3437,4922;0,0399102
3438,4565;0,0397982
3439,4207;0,0396994
3440,3850;0,0396075
3441,3491;0,0395147
3442,3135;0,0394148
3443,2776;0,039303
3444,2419;0,0391742
3445,2061;0,0390224
3446,1704;0,0388433
3447,1345;0,038639
3448,0989;0,0384213
3449,0630;0,0382074
3450,0273;0,0380123
3450,9915;0,0378428
3451,9558;0,0376981
3452,9199;0,0375735
3453,8843;0,037464
3454,8484;0,0373654
3455,8127;0,0372736
3456,7769;0,0371824
3457,7412;0,0370826
3458,7053;0,036965
3459,6697;0,0368246
3460,6338;0,0366646
3461,5981;0,0364956
3462,5623;0,0363308
3463,5266;0,0361785
3464,4907;0,0360389
3465,4551;0,0359061
3466,4192;0,0357731
3467,3835;0,0356363
3468,3477;0,0354963
3469,3120;0,0353539
3470,2761;0,0352063
3471,2405;0,0350471
3472,2046;0,0348715
3473,1689;0,034683
3474,1331;0,0344965
3475,0974;0,0343333
3476,0615;0,0342099
3477,0259;0,0341279
3477,9900;0,0340718
3478,9543;0,034016
3479,9185;0,0339363
3480,8828;0,0338211
3481,8469;0,033676
3482,8113;0,0335177
3483,7754;0,0333621
3484,7397;0,0332147
3485,7039;0,0330706
3486,6682;0,032921
3487,6323;0,0327606
3488,5967;0,0325914
3489,5608;0,0324216
3490,5251;0,0322599
3491,4893;0,0321105
3492,4536;0,0319716
3493,4177;0,0318381
3494,3821;0,0317069
3495,3462;0,0315824
3496,3105;0,0314769
3497,2747;0,0314046
3498,2390;0,0313695
3499,2031;0,0313565
3500,1675;0,0313308
3501,1316;0,031249
3502,0959;0,0310819
3503,0601;0,0308391
3504,0244;0,0305705
3504,9885;0,0303347
3505,9529;0,0301621
3506,9170;0,0300422
3507,8813;0,0299362
3508,8455;0,029801
3509,8098;0,0296141
3510,7739;0,0293863
3511,7383;0,0291512
3512,7024;0,028941
3513,6667;0,0287693
3514,6309;0,0286324
3515,5952;0,0285207
3516,5593;0,0284298
3517,5237;0,0283641
3518,4878;0,0283318
3519,4521;0,0283342
3520,4163;0,0283592
3521,3806;0,0283807
3522,3447;0,0283676
3523,3091;0,0282975
3524,2732;0,0281656
3525,2375;0,0279818
3526,2017;0,0277593
3527,1660;0,0275066
3528,1301;0,0272295
3529,0945;0,026941
3530,0586;0,0266648
3531,0229;0,0264271
3531,9871;0,0262434
3532,9514;0,0261102
3533,9155;0,026004
3534,8799;0,0258907
3535,8440;0,0257436
3536,8083;0,0255628
3537,7725;0,0253813
3538,7368;0,025247
3539,7009;0,0251961
3540,6653;0,0252351
3541,6294;0,0253368
3542,5938;0,0254453
3543,5579;0,0254893
3544,5222;0,02541
3545,4863;0,0251985
3546,4507;0,0249062
3547,4148;0,0246062
3548,3792;0,0243421
3549,3433;0,0241105
3550,3076;0,0238816
3551,2717;0,023629
3552,2361;0,0233539
3553,2002;0,0230889
3554,1646;0,0228773
3555,1287;0,0227433
3556,0930;0,0226805
3557,0571;0,0226646
3558,0215;0,0226744
3558,9856;0,0227053
3559,9500;0,0227686
3560,9141;0,0228772
3561,8784;0,0230262
3562,8425;0,0231808
3563,8069;0,0232712
3564,7710;0,0231948
3565,7354;0,0228531
3566,6995;0,0222559
3567,6638;0,0215864
3568,6279;0,0210667
3569,5923;0,0207756
3570,5564;0,0206466
3571,5208;0,0205736
3572,4849;0,0204855
3573,4492;0,0203628
3574,4133;0,0202209
3575,3777;0,0200833
3576,3418;0,0199608
3577,3062;0,0198509
3578,2703;0,0197535
3579,2346;0,0196847
3580,1987;0,0196728
3581,1631;0,0197351
3582,1272;0,0198562
3583,0916;0,0199841
3584,0557;0,0200418
3585,0200;0,0199451
3585,9841;0,0196411
3586,9485;0,0191813
3587,9126;0,0187476
3588,8770;0,0185224
3589,8411;0,0185375
3590,8054;0,018686
3591,7695;0,018828
3592,7339;0,0188645
3593,6980;0,0187649
3594,6624;0,0185664
3595,6265;0,0183412
3596,5908;0,0181388
3597,5549;0,0179536
3598,5193;0,0177495
3599,4834;0,0175129
3600,4478;0,0172804
3601,4119;0,017116
3602,3762;0,017054
3603,3403;0,0170686
3604,3047;0,01709
3605,2688;0,0170424
3606,2332;0,0168777
3607,1973;0,0165994
3608,1616;0,01627
3609,1257;0,0159801
3610,0901;0,0157945
3611,0542;0,0157245
3612,0186;0,0157416
3612,9827;0,0158014
3613,9470;0,0158549
3614,9111;0,0158484
3615,8755;0,0157251
3616,8396;0,015439
3617,8040;0,0149906
3618,7681;0,0144732
3619,7324;0,0140706
3620,6965;0,013951
3621,6609;0,0141433
3622,6250;0,0145333
3623,5894;0,0149524
3624,5535;0,0152476
3625,5178;0,0152992
3626,4819;0,0150122
3627,4463;0,0143507
3628,4104;0,0134616
3629,3748;0,0127014
3630,3389;0,0123338
3631,3032;0,0123023
3632,2673;0,0123837
3633,2317;0,0124027
3634,1958;0,0123048
3635,1602;0,0121297
3636,1243;0,0119495
3637,0886;0,011813
3638,0527;0,0117275
3639,0171;0,0116813
3639,9812;0,0116751
3640,9456;0,0117304
3641,9097;0,0118684
3642,8740;0,0120805
3643,8381;0,0123175
3644,8025;0,0124959
3645,7666;0,0124978
3646,7310;0,0121514
3647,6951;0,0112823
3648,6594;0,0100083
3649,6235;0,00892179
3650,5879;0,00849914
3651,5520;0,00863355
3652,5164;0,00894902
3653,4805;0,00914863
3654,4448;0,00910747
3655,4089;0,00886237
3656,3733;0,00856495
3657,3374;0,00837729
3658,3018;0,00835552
3659,2659;0,008435
3660,2302;0,00852058
3661,1943;0,00857501
3662,1587;0,00863528
3663,1228;0,00876099
3664,0872;0,00896509
3665,0513;0,00918918
3666,0156;0,00933495
3666,9797;0,00932022
3667,9441;0,00912968
3668,9082;0,00884952
3669,8726;0,00863855
3670,8367;0,00859394
3671,8010;0,0086457
3672,7651;0,00861584
3673,7295;0,00835108
3674,6936;0,00783684
3675,6580;0,00726552
3676,6221;0,00692687
3677,5864;0,00694019
3678,5505;0,00718911
3679,5149;0,00750132
3680,4790;0,00778902
3681,4434;0,00805737
3682,4075;0,00834374
3683,3718;0,00865516
3684,3359;0,00894505
3685,3003;0,00913178
3686,2644;0,0091318
3687,2288;0,00889018
3688,1929;0,00842844
3689,1572;0,00790872
3690,1213;0,0075815
3691,0857;0,00757716
3692,0498;0,00782526
3693,0142;0,00818053
3693,9783;0,00853836
3694,9426;0,00885399
3695,9067;0,00911244
3696,8711;0,0092967
3697,8352;0,00937583
3698,7996;0,00931707
3699,7637;0,00911568
3700,7280;0,00882761
3701,6921;0,00857311
3702,6565;0,00848077
3703,6206;0,00860474
3704,5850;0,00889674
3705,5491;0,00924869
3706,5134;0,0095452
3707,4775;0,00968204
3708,4419;0,00955772
3709,4060;0,00908838
3710,3704;0,00830986
3711,3345;0,00748602
3712,2988;0,00696623
3713,2629;0,00689449
3714,2273;0,00716897
3715,1914;0,00760588
3716,1558;0,00806109
3717,1199;0,00846118
3718,0842;0,00879098
3719,0483;0,0090686
3720,0127;0,00931783
3720,9768;0,00954486
3721,9412;0,00972959
3722,9053;0,00983986
3723,8696;0,00986193
3724,8337;0,00982489
3725,7981;0,0097919
3726,7622;0,00981845
3727,7266;0,00991788
3728,6907;0,0100659
3729,6550;0,0102285
3730,6191;0,010378
3731,5835;0,0104794
3732,5476;0,010455
3733,5120;0,0101833
3734,4761;0,00961918
3735,4404;0,00895619
3736,4045;0,00852489
3737,3689;0,00848565
3738,3330;0,00873666
3739,2974;0,00905181
3740,2615;0,00921656
3741,2258;0,00909137
3742,1899;0,00865006
3743,1543;0,00802848
3744,1184;0,00752305
3745,0828;0,00740386
3746,0469;0,00766017
3747,0112;0,00801184
3747,9753;0,00812337
3748,9397;0,0077709
3749,9038;0,00697987
3750,8682;0,00613052
3751,8323;0,00572247
3752,7966;0,00589932
3753,7607;0,00641132
3754,7251;0,00693015
3755,6892;0,00724038
3756,6536;0,0072681
3757,6177;0,00706801
3758,5820;0,00679532
3759,5461;0,00662467
3760,5105;0,00664266
3761,4746;0,00681619
3762,4390;0,00705062
3763,4031;0,00725674
3764,3674;0,00737889
3765,3315;0,00739278
3766,2959;0,0072936
3767,2600;0,00708923
3768,2244;0,00680618
3769,1885;0,00650384
3770,1528;0,00627351
3771,1169;0,0062002
3772,0813;0,00630924
3773,0454;0,00654832
3774,0098;0,00681765
3774,9739;0,00701547
3775,9382;0,00707296
3776,9023;0,00697744
3777,8667;0,00678608
3778,8308;0,00661037
3779,7952;0,00655187
3780,7593;0,00663297
3781,7236;0,00679175
3782,6877;0,00693423
3783,6521;0,00698864
3784,6162;0,00693409
3785,5806;0,00680313
3786,5447;0,00666107
3787,5090;0,00657278
3788,4731;0,00657529
3789,4375;0,00666799
3790,4016;0,00682009
3791,3660;0,00698893
3792,3301;0,0071419
3793,2944;0,00727258
3794,2585;0,00740093
3795,2229;0,00755145
3796,1870;0,00771856
3797,1514;0,00784565
3798,1155;0,00784168
3799,0798;0,00763551
3800,0439;0,00724778
3801,0083;0,00682422
3801,9724;0,00654737
3802,9368;0,00647153
3803,9009;0,00647936
3804,8652;0,00640323
3805,8293;0,00617374
3806,7937;0,00589252
3807,7578;0,00577101
3808,7222;0,00595151
3809,6863;0,00638667
3810,6506;0,00689802
3811,6147;0,00730698
3812,5791;0,00751636
3813,5432;0,00753337
3814,5076;0,00745536
3815,4717;0,00740871
3816,4360;0,00744728
3817,4001;0,00749615
3818,3645;0,00741138
3819,3286;0,0071072
3820,2930;0,00666027
3821,2571;0,00629181
3822,2214;0,00619
3823,1855;0,00635639
3824,1499;0,00664956
3825,1140;0,00692028
3826,0784;0,00709094
3827,0425;0,00716233
3828,0068;0,00718175
3828,9709;0,00720158
3829,9353;0,0072516
3830,8994;0,00733583
3831,8638;0,0074444
3832,8279;0,00756338
3833,7922;0,00767471
3834,7563;0,00775153
3835,7207;0,00775867
3836,6848;0,00766604
3837,6492;0,00747473
3838,6133;0,00723283
3839,5776;0,00700562
3840,5417;0,00682435
3841,5061;0,0066812
3842,4702;0,00657363
3843,4346;0,00653987
3844,3987;0,00664737
3845,3630;0,00694412
3846,3271;0,00741564
3847,2915;0,00798029
3848,2556;0,0085143
3849,2200;0,00887434
3850,1841;0,00889806
3851,1484;0,00840683
3852,1125;0,00732887
3853,0769;0,00601545
3854,0410;0,00518908
3855,0054;0,00518909
3855,9695;0,00575246
3856,9338;0,00648633
3857,8979;0,00714443
3858,8623;0,00762656
3859,8264;0,00791517
3860,7908;0,00803066
3861,7549;0,00801407
3862,7192;0,00792842
3863,6833;0,00785195
3864,6477;0,00784102
3865,6118;0,00789407
3866,5762;0,00795955
3867,5403;0,00797209
3868,5046;0,00788197
3869,4688;0,00767297
3870,4331;0,00737672
3871,3972;0,00707257
3872,3616;0,00685496
3873,3257;0,00678564
3874,2900;0,00686899
3875,2542;0,00706127
3876,2185;0,00729738
3877,1826;0,00751728
3878,1470;0,00768395
3879,1111;0,00778889
3880,0754;0,00784146
3881,0396;0,00784442
3882,0039;0,00777621
3882,9680;0,0076088
3883,9324;0,0073561
3884,8965;0,00710321
3885,8608;0,00696594
3886,8250;0,00700092
3887,7893;0,00715613
3888,7534;0,00730823
3889,7178;0,00734553
3890,6819;0,00724608
3891,6462;0,0071104
3892,6104;0,00709606
3893,5747;0,00728519
3894,5388;0,00762957
3895,5032;0,00801428
3896,4673;0,00833891
3897,4316;0,00855187
3898,3958;0,00864554
3899,3601;0,00863336
3900,3242;0,00852112
3901,2886;0,00829213
3902,2527;0,00792986
3903,2170;0,0074675
3904,1812;0,00700441
3905,1455;0,0066507
3906,1096;0,00645587
3907,0740;0,00639844
3908,0381;0,00642851
3909,0024;0,00650964
3909,9666;0,00663269
3910,9309;0,00680453
3911,8950;0,0070258
3912,8594;0,00727309
3913,8235;0,00749646
3914,7878;0,00763455
3915,7520;0,00764453
3916,7163;0,00753739
3917,6804;0,00738904
3918,6448;0,00729805
3919,6089;0,00731682
3920,5732;0,00742026
3921,5374;0,00753159
3922,5017;0,00757377
3923,4658;0,00751755
3924,4302;0,00740347
3925,3943;0,00731578
3926,3586;0,00732067
3927,3228;0,00742174
3928,2871;0,00756259
3929,2512;0,00765975
3930,2156;0,00764346
3931,1797;0,00749594
3932,1440;0,00726702
3933,1082;0,00704456
3934,0725;0,00690051
3935,0366;0,00686139
3936,0010;0,00691613
3936,9651;0,00703585
3937,9294;0,00718581
3938,8936;0,0073296
3939,8579;0,00743412
3940,8220;0,00748099
3941,7864;0,00747959
3942,7505;0,00746638
3943,7148;0,00748168
3944,6790;0,00753849
3945,6433;0,00761013
3946,6074;0,00764467
3947,5718;0,00759523
3948,5359;0,00745059
3949,5002;0,00724743
3950,4644;0,00705055
3951,4287;0,00691354
3952,3928;0,0068535
3953,3572;0,00685512
3954,3213;0,00689074
3955,2856;0,00693749
3956,2498;0,00698313
3957,2141;0,00702185
3958,1782;0,00704693
3959,1426;0,00704783
3960,1067;0,007015
3961,0710;0,00694896
3962,0352;0,00686589
3962,9995;0,00679337
3963,9636;0,00675757
3964,9280;0,00677059
3965,8921;0,00682527
3966,8564;0,00689973
3967,8206;0,00696796
3968,7849;0,00701133
3969,7490;0,0070251
3970,7134;0,00701666
3971,6775;0,00699742
3972,6418;0,00697455
3973,6060;0,0069483
3974,5703;0,00691549
3975,5344;0,00687531
3976,4988;0,00683193
3977,4629;0,00679202
3978,4272;0,00675967
3979,3914;0,00673337
3980,3557;0,00670761
3981,3198;0,00667831
3982,2842;0,00664805
3983,2483;0,00662714
3984,2126;0,00662867
3985,1768;0,00666076
3986,1411;0,0067208
3987,1052;0,0067951
3988,0696;0,00686388
3989,0337;0,00690925
3989,9980;0,00692153
3990,9622;0,00690144
3991,9265;0,00685746
3992,8906;0,00680091
3993,8550;0,0067421
3994,8191;0,00668856
3995,7834;0,00664483
3996,7476;0,00661251
3997,7119;0,00659063
3998,6760;0,00657682
3999,6404;0,00656923
4000,6045;0,00665312

##### Extended Information
[Comments]
Sample name
Comment
Username
Division
Organization;UNIVERSIDAD INDUSTRIAL DE SANTANDER

[Detailed Information]
Creation date;31/03/2025 7:17 p.m.

Data array type;Linear data array
Horizontal axis;Wavenumber [cm-1]
Vertical axis;Abs
Start;399,193 cm-1
End;4000,6 cm-1
Data interval;0,964233 cm-1
Data points;3736    

[Measurement Information]
Model name;FT/IR-4X1typeA
Serial No.;A035162111

Accessory;ATR PRO 4X
Accessory S/N;A021162126
Incident angle;45 deg

Measurement date;31/03/2025 7:16 p.m.

Light source;Standard
Detector;TGS
Accumulation;40
Resolution;4 cm-1
Zero filling;On
Apodization;Cosine
Gain;Auto (8)
Aperture;Auto (7 mm)
Scan speed;Auto (2 mm/sec)
Filter;Auto (12800 Hz)

