TITLE;
DATA TYPE;INFRARED SPECTRUM
ORIGIN;JASCO
OWNER;
DATE;25/02/25
TIME;17:38:54
SPECTROMETER/DATA SYSTEM;
LOCALE;9226
RESOLUTION;
DELTAX;0,964233
XUNITS;1/CM
YUNITS;ABSORBANCE
FIRSTX;  399,1927
LASTX; 4000,6047
NPOINTS;    3736
FIRSTY;     0,17208
MAXY;     0,21570
MINY;     0,00567
XYDATA
399,1927;0,172084
400,1569;0,17103
401,1211;0,168773
402,0854;0,166055
403,0496;0,16356
404,0138;0,161732
404,9781;0,160745
405,9423;0,160514
406,9065;0,16081
407,8708;0,16142
408,8350;0,162255
409,7992;0,163298
410,7635;0,164456
411,7277;0,165487
412,6919;0,166092
413,6562;0,166081
414,6204;0,165452
415,5846;0,164342
416,5489;0,162977
417,5131;0,1617
418,4773;0,16097
419,4416;0,161102
420,4058;0,161969
421,3700;0,163179
422,3343;0,16443
423,2985;0,165568
424,2627;0,166486
425,2270;0,167077
426,1912;0,167269
427,1554;0,167084
428,1197;0,166645
429,0839;0,166142
430,0481;0,165775
431,0124;0,165708
431,9766;0,166027
432,9408;0,166709
433,9051;0,167621
434,8693;0,168559
435,8335;0,169312
436,7978;0,169735
437,7620;0,169791
438,7262;0,169527
439,6905;0,169025
440,6547;0,168369
441,6189;0,167653
442,5832;0,166989
443,5474;0,166492
444,5116;0,166219
445,4759;0,166127
446,4401;0,166099
447,4043;0,166009
448,3686;0,165792
449,3328;0,165457
450,2970;0,165067
451,2613;0,1647
452,2255;0,164411
453,1897;0,16423
454,1540;0,164172
455,1182;0,164241
456,0824;0,164421
457,0467;0,164649
458,0109;0,164823
458,9751;0,164875
459,9394;0,164834
460,9036;0,164812
461,8678;0,16492
462,8321;0,165194
463,7963;0,16557
464,7605;0,165914
465,7248;0,166092
466,6890;0,166051
467,6532;0,165846
468,6175;0,165598
469,5817;0,165417
470,5459;0,16535
471,5102;0,165368
472,4744;0,165406
473,4386;0,165421
474,4029;0,165434
475,3671;0,165511
476,3313;0,16571
477,2956;0,16604
478,2598;0,16645
479,2240;0,166854
480,1883;0,16718
481,1525;0,167407
482,1167;0,167576
483,0810;0,167748
484,0452;0,167945
485,0094;0,168124
485,9737;0,1682
486,9379;0,168116
487,9021;0,167886
488,8664;0,167588
489,8306;0,167323
490,7948;0,167162
491,7591;0,167113
492,7233;0,167123
493,6875;0,16712
494,6518;0,16706
495,6160;0,166949
496,5802;0,166824
497,5445;0,166727
498,5087;0,166678
499,4729;0,166673
500,4372;0,166691
501,4014;0,16671
502,3656;0,166728
503,3299;0,166772
504,2941;0,16688
505,2583;0,167079
506,2226;0,167362
507,1868;0,167685
508,1510;0,167995
509,1153;0,168249
510,0795;0,168444
511,0437;0,168602
512,0080;0,168748
512,9722;0,168894
513,9365;0,169041
514,9007;0,169204
515,8649;0,169421
516,8292;0,16974
517,7934;0,170167
518,7576;0,170622
519,7219;0,170966
520,6861;0,171078
521,6503;0,170931
522,6146;0,170607
523,5788;0,170254
524,5430;0,17002
525,5073;0,16997
526,4715;0,17004
527,4357;0,170083
528,4000;0,169968
529,3642;0,169665
530,3284;0,169233
531,2927;0,168765
532,2569;0,168316
533,2211;0,167884
534,1854;0,167432
535,1496;0,166951
536,1138;0,166487
537,0781;0,166124
538,0423;0,165924
539,0065;0,165872
539,9708;0,165886
540,9350;0,165874
541,8992;0,165795
542,8635;0,165686
543,8277;0,165625
544,7919;0,165671
545,7562;0,165818
546,7204;0,165997
547,6846;0,16613
548,6489;0,166185
549,6131;0,166199
550,5773;0,166253
551,5416;0,166431
552,5058;0,16678
553,4700;0,167293
554,4343;0,167903
555,3985;0,168492
556,3627;0,168908
557,3270;0,169007
558,2912;0,168696
559,2554;0,167979
560,2197;0,166956
561,1839;0,165785
562,1481;0,164624
563,1124;0,163571
564,0766;0,162644
565,0408;0,161807
566,0051;0,16102
566,9693;0,160279
567,9335;0,159623
568,8978;0,159098
569,8620;0,158726
570,8262;0,158475
571,7905;0,158282
572,7547;0,158082
573,7189;0,15784
574,6832;0,157552
575,6474;0,157243
576,6116;0,156949
577,5759;0,1567
578,5401;0,156513
579,5043;0,156391
580,4686;0,156321
581,4328;0,156278
582,3970;0,156227
583,3613;0,156142
584,3255;0,156017
585,2897;0,155871
586,2540;0,155735
587,2182;0,155635
588,1824;0,155574
589,1467;0,155534
590,1109;0,15549
591,0751;0,155429
592,0394;0,155355
593,0036;0,155279
593,9678;0,1552
594,9321;0,1551
595,8963;0,154946
596,8605;0,154715
597,8248;0,154407
598,7890;0,154051
599,7532;0,153687
600,7175;0,153345
601,6817;0,153035
602,6459;0,152739
603,6102;0,152437
604,5744;0,152116
605,5386;0,151768
606,5029;0,151388
607,4671;0,150958
608,4313;0,150451
609,3956;0,14985
610,3598;0,149162
611,3240;0,148419
612,2883;0,147672
613,2525;0,146961
614,2167;0,146301
615,1810;0,145681
616,1452;0,145075
617,1094;0,14445
618,0737;0,143781
619,0379;0,143048
620,0021;0,142241
620,9664;0,141358
621,9306;0,140412
622,8948;0,139435
623,8591;0,138474
624,8233;0,137563
625,7875;0,136747
626,7518;0,136025
627,7160;0,135373
628,6802;0,134763
629,6445;0,134177
630,6087;0,133612
631,5729;0,133074
632,5372;0,132579
633,5014;0,132137
634,4656;0,13175
635,4299;0,131401
636,3941;0,131049
637,3583;0,130649
638,3226;0,130168
639,2868;0,129608
640,2510;0,129011
641,2153;0,128432
642,1795;0,127912
643,1437;0,127454
644,1080;0,127029
645,0722;0,126598
646,0364;0,126142
647,0007;0,125673
647,9649;0,125231
648,9291;0,12486
649,8934;0,124577
650,8576;0,124365
651,8218;0,124185
652,7861;0,123998
653,7503;0,123797
654,7145;0,123608
655,6788;0,123476
656,6430;0,123433
657,6072;0,123472
658,5715;0,12355
659,5357;0,12361
660,4999;0,12361
661,4642;0,12353
662,4284;0,123349
663,3926;0,123014
664,3569;0,122429
665,3211;0,121481
666,2853;0,120084
667,2496;0,11827
668,2138;0,116374
669,1780;0,115019
670,1423;0,114498
671,1065;0,114444
672,0707;0,114322
673,0350;0,113812
673,9992;0,112845
674,9634;0,111529
675,9277;0,110061
676,8919;0,108629
677,8561;0,107328
678,8204;0,106167
679,7846;0,105137
680,7488;0,104252
681,7131;0,103535
682,6773;0,102972
683,6415;0,102502
684,6058;0,102049
685,5700;0,10157
686,5342;0,101072
687,4985;0,100601
688,4627;0,100207
689,4269;0,0999092
690,3912;0,0996988
691,3554;0,0995493
692,3196;0,0994349
693,2839;0,099337
694,2481;0,0992426
695,2123;0,0991387
696,1766;0,0990091
697,1408;0,0988399
698,1050;0,0986282
699,0693;0,0983891
700,0335;0,0981508
700,9977;0,0979388
701,9620;0,097758
702,9262;0,0975841
703,8904;0,0973695
704,8547;0,0970755
705,8189;0,0966891
706,7831;0,0962307
707,7474;0,0957423
708,7116;0,0952673
709,6758;0,0948345
710,6401;0,0944533
711,6043;0,0941143
712,5685;0,0937924
713,5328;0,0934489
714,4970;0,0930384
715,4612;0,0922945
716,4255;0,0917053
717,3897;0,0910315
718,3539;0,0903128
719,3182;0,0896014
720,2824;0,088942
721,2466;0,0883512
722,2109;0,0878119
723,1751;0,0872869
724,1393;0,0867434
725,1036;0,0861702
726,0678;0,0855823
727,0320;0,08501
727,9963;0,0844796
728,9605;0,0839951
729,9247;0,0835349
730,8890;0,0830652
731,8532;0,0825629
732,8174;0,0820325
733,7817;0,0815061
734,7459;0,0810257
735,7101;0,0806188
736,6744;0,0802824
737,6386;0,0799851
738,6028;0,0796844
739,5671;0,0793488
740,5313;0,078972
741,4955;0,0785711
742,4598;0,078173
743,4240;0,0777982
744,3882;0,0774499
745,3525;0,0771135
746,3167;0,0767639
747,2809;0,0763761
748,2452;0,0759355
749,2094;0,0754465
750,1736;0,0749345
751,1379;0,0744402
752,1021;0,0740035
753,0663;0,0736453
754,0306;0,0733545
754,9948;0,0730912
755,9590;0,0728062
756,9233;0,0724666
757,8875;0,0720726
758,8517;0,0716553
759,8160;0,0712578
760,7802;0,0709111
761,7444;0,070619
762,7087;0,0703604
763,6729;0,0701032
764,6371;0,0698236
765,6014;0,0695167
766,5656;0,0691965
767,5298;0,0688859
768,4941;0,0686025
769,4583;0,0683492
770,4225;0,0681124
771,3868;0,0678704
772,3510;0,0676061
773,3152;0,0673182
774,2795;0,0670234
775,2437;0,0667485
776,2079;0,0665162
777,1722;0,0663326
778,1364;0,0661829
779,1006;0,0660374
780,0649;0,0658648
781,0291;0,0656438
781,9933;0,0653697
782,9576;0,0650528
783,9218;0,064712
784,8860;0,0643663
785,8503;0,0640294
786,8145;0,0637084
787,7787;0,0634058
788,7430;0,0631239
789,7072;0,0628666
790,6714;0,0626392
791,6357;0,0624451
792,5999;0,0622828
793,5641;0,0621449
794,5284;0,0620203
795,4926;0,0618987
796,4568;0,061774
797,4211;0,0616456
798,3853;0,0615152
799,3495;0,0613845
800,3138;0,0612521
801,2780;0,0611151
802,2422;0,0609722
803,2065;0,0608264
804,1707;0,0606851
805,1349;0,0605557
806,0992;0,0604399
807,0634;0,0603322
808,0276;0,0602225
808,9919;0,0601048
809,9561;0,0599837
810,9203;0,0598739
811,8846;0,0597917
812,8488;0,0597425
813,8130;0,0597142
814,7773;0,0596815
815,7415;0,0596196
816,7057;0,0595189
817,6700;0,0593901
818,6342;0,0592574
819,5984;0,0591438
820,5627;0,0590585
821,5269;0,058994
822,4911;0,0589337
823,4554;0,0588628
824,4196;0,0587763
825,3839;0,0586792
826,3481;0,0585808
827,3123;0,0584877
828,2766;0,0584003
829,2408;0,0583135
830,2050;0,0582208
831,1693;0,0581179
832,1335;0,0580047
833,0977;0,0578834
834,0620;0,0577556
835,0262;0,0576194
835,9904;0,0574693
836,9547;0,0572997
837,9189;0,0571082
838,8831;0,0568982
839,8474;0,0566774
840,8116;0,056455
841,7758;0,0562389
842,7401;0,0560354
843,7043;0,0558508
844,6685;0,0556923
845,6328;0,055566
846,5970;0,0554732
847,5612;0,0554077
848,5255;0,0553569
849,4897;0,0553067
850,4539;0,0552476
851,4182;0,0551776
852,3824;0,0551017
853,3466;0,0550278
854,3109;0,0549627
855,2751;0,0549103
856,2393;0,054872
857,2036;0,0548485
858,1678;0,0548412
859,1320;0,0548526
860,0963;0,0548855
861,0605;0,0549417
862,0247;0,0550212
862,9890;0,0551233
863,9532;0,0552489
864,9174;0,0554012
865,8817;0,0555851
866,8459;0,055803
867,8101;0,0560488
868,7744;0,0563072
869,7386;0,0565576
870,7028;0,0567831
871,6671;0,056979
872,6313;0,0571539
873,5955;0,0573231
874,5598;0,0574991
875,5240;0,057686
876,4882;0,0578817
877,4525;0,0580866
878,4167;0,0583096
879,3809;0,0585684
880,3452;0,0588818
881,3094;0,0592624
882,2736;0,059714
883,2379;0,0602361
884,2021;0,0608294
885,1663;0,0614984
886,1306;0,0622471
887,0948;0,0630727
888,0590;0,0639619
889,0233;0,064893
889,9875;0,0658421
890,9517;0,0667859
891,9160;0,0677001
892,8802;0,0685543
893,8444;0,0693091
894,8087;0,0699202
895,7729;0,0703479
896,7371;0,0705681
897,7014;0,0705776
898,6656;0,0703922
899,6298;0,0700385
900,5941;0,0695462
901,5583;0,0689429
902,5225;0,0682544
903,4868;0,0675062
904,4510;0,066727
905,4152;0,0659487
906,3795;0,0652056
907,3437;0,064531
908,3079;0,0639519
909,2722;0,0634842
910,2364;0,0631298
911,2007;0,0628763
912,1649;0,062703
913,1292;0,0625889
914,0934;0,0625211
915,0576;0,0625003
916,0219;0,0625386
916,9861;0,0626519
917,9503;0,0628488
918,9146;0,0631215
919,8788;0,0634448
920,8430;0,0637838
921,8073;0,0641074
922,7715;0,0644001
923,7357;0,0646666
924,7000;0,0649248
925,6642;0,065194
926,6284;0,0654833
927,5927;0,0657888
928,5569;0,0660986
929,5211;0,0664021
930,4854;0,0666968
931,4496;0,0669887
932,4138;0,0672879
933,3781;0,0676043
934,3423;0,067946
935,3065;0,0683216
936,2708;0,0687421
937,2350;0,0692208
938,1992;0,0697694
939,1635;0,0703955
940,1277;0,0711007
941,0919;0,0718829
942,0562;0,0727377
943,0204;0,0736594
943,9846;0,0746404
944,9489;0,0756721
945,9131;0,0767489
946,8773;0,077872
947,8416;0,0790518
948,8058;0,0803038
949,7700;0,0816406
950,7343;0,0830647
951,6985;0,0845673
952,6627;0,0861345
953,6270;0,087755
954,5912;0,0894254
955,5554;0,0911469
956,5197;0,09292
957,4839;0,0947383
958,4481;0,0965895
959,4124;0,0984592
960,3766;0,100335
961,3408;0,102205
962,3051;0,104062
963,2693;0,105896
964,2335;0,107704
965,1978;0,109491
966,1620;0,111275
967,1262;0,11308
968,0905;0,114927
969,0547;0,116833
970,0189;0,118814
970,9832;0,120886
971,9474;0,123077
972,9116;0,125416
973,8759;0,127929
974,8401;0,130625
975,8043;0,133495
976,7686;0,13651
977,7328;0,139637
978,6970;0,142837
979,6613;0,146063
980,6255;0,149257
981,5897;0,152348
982,5540;0,155261
983,5182;0,157935
984,4824;0,16033
985,4467;0,162437
986,4109;0,164275
987,3751;0,165876
988,3394;0,167276
989,3036;0,168506
990,2678;0,169587
991,2321;0,170533
992,1963;0,171357
993,1605;0,172073
994,1248;0,172701
995,0890;0,173269
996,0532;0,173804
997,0175;0,17433
997,9817;0,174866
998,9459;0,175424
999,9102;0,176021
1000,8744;0,176673
1001,8386;0,1774
1002,8029;0,178221
1003,7671;0,179151
1004,7313;0,180201
1005,6956;0,181383
1006,6598;0,182708
1007,6240;0,184189
1008,5883;0,185834
1009,5525;0,187641
1010,5167;0,189594
1011,4810;0,19166
1012,4452;0,193801
1013,4094;0,195969
1014,3737;0,198118
1015,3379;0,200203
1016,3021;0,202184
1017,2664;0,204027
1018,2306;0,205709
1019,1948;0,20722
1020,1591;0,208567
1021,1233;0,209769
1022,0875;0,210854
1023,0518;0,211849
1024,0160;0,212767
1024,9802;0,213601
1025,9445;0,214328
1026,9087;0,214921
1027,8729;0,215355
1028,8372;0,215617
1029,8014;0,215696
1030,7656;0,215584
1031,7299;0,215262
1032,6941;0,214711
1033,6583;0,213921
1034,6226;0,212909
1035,5868;0,211722
1036,5510;0,210436
1037,5153;0,209141
1038,4795;0,207922
1039,4437;0,206846
1040,4080;0,205945
1041,3722;0,205216
1042,3364;0,204625
1043,3007;0,204118
1044,2649;0,203635
1045,2291;0,203124
1046,1934;0,202546
1047,1576;0,201869
1048,1218;0,201069
1049,0861;0,200116
1050,0503;0,198988
1051,0145;0,197667
1051,9788;0,196155
1052,9430;0,194473
1053,9072;0,192656
1054,8715;0,190735
1055,8357;0,188727
1056,7999;0,186626
1057,7642;0,184409
1058,7284;0,182049
1059,6926;0,179537
1060,6569;0,176897
1061,6211;0,174182
1062,5853;0,171469
1063,5496;0,168835
1064,5138;0,166339
1065,4780;0,164012
1066,4423;0,161861
1067,4065;0,159877
1068,3707;0,158041
1069,3350;0,156327
1070,2992;0,154701
1071,2634;0,153117
1072,2277;0,151525
1073,1919;0,149883
1074,1561;0,148161
1075,1204;0,146355
1076,0846;0,144482
1077,0488;0,14258
1078,0131;0,140691
1078,9773;0,138863
1079,9415;0,137135
1080,9058;0,135541
1081,8700;0,134103
1082,8342;0,132831
1083,7985;0,131723
1084,7627;0,130763
1085,7269;0,12993
1086,6912;0,129195
1087,6554;0,128531
1088,6196;0,127918
1089,5839;0,127347
1090,5481;0,126819
1091,5123;0,126342
1092,4766;0,125922
1093,4408;0,12556
1094,4050;0,125249
1095,3693;0,12498
1096,3335;0,124742
1097,2977;0,12453
1098,2620;0,124337
1099,2262;0,124157
1100,1904;0,123981
1101,1547;0,123799
1102,1189;0,123594
1103,0831;0,123355
1104,0474;0,123068
1105,0116;0,122726
1105,9758;0,122329
1106,9401;0,121878
1107,9043;0,121376
1108,8685;0,120814
1109,8328;0,120173
1110,7970;0,119428
1111,7612;0,118556
1112,7255;0,117553
1113,6897;0,116438
1114,6539;0,115249
1115,6182;0,114041
1116,5824;0,112862
1117,5466;0,11175
1118,5109;0,110719
1119,4751;0,109755
1120,4393;0,108817
1121,4036;0,107841
1122,3678;0,106754
1123,3320;0,105493
1124,2963;0,10402
1125,2605;0,102329
1126,2247;0,100445
1127,1890;0,0984104
1128,1532;0,0962752
1129,1174;0,0940868
1130,0817;0,0918875
1131,0459;0,0897147
1132,0101;0,087603
1132,9744;0,0855852
1133,9386;0,0836932
1134,9028;0,0819584
1135,8671;0,0804107
1136,8313;0,0790763
1137,7955;0,0779739
1138,7598;0,0771115
1139,7240;0,076485
1140,6882;0,076079
1141,6525;0,0758696
1142,6167;0,0758283
1143,5809;0,0759264
1144,5452;0,0761392
1145,5094;0,0764481
1146,4736;0,0768404
1147,4379;0,0773061
1148,4021;0,0778344
1149,3663;0,0784103
1150,3306;0,0790142
1151,2948;0,079623
1152,2590;0,0802113
1153,2233;0,0807502
1154,1875;0,0812047
1155,1517;0,0815307
1156,1160;0,0816766
1157,0802;0,0815887
1158,0444;0,0812196
1159,0087;0,0805352
1159,9729;0,0795169
1160,9371;0,0781609
1161,9014;0,0764749
1162,8656;0,0744785
1163,8298;0,0722067
1164,7941;0,069714
1165,7583;0,0670758
1166,7225;0,0643825
1167,6868;0,0617275
1168,6510;0,0591909
1169,6152;0,0568275
1170,5795;0,0546635
1171,5437;0,0527019
1172,5079;0,0509351
1173,4722;0,0493546
1174,4364;0,0479559
1175,4006;0,0467352
1176,3649;0,0456849
1177,3291;0,0447899
1178,2933;0,0440303
1179,2576;0,0433852
1180,2218;0,0428369
1181,1860;0,0423721
1182,1503;0,041981
1183,1145;0,0416575
1184,0787;0,0414001
1185,0430;0,0412137
1186,0072;0,0411086
1186,9714;0,0410961
1187,9357;0,0411834
1188,8999;0,0413696
1189,8641;0,0416475
1190,8284;0,0420076
1191,7926;0,0424431
1192,7568;0,0429512
1193,7211;0,0435309
1194,6853;0,0441794
1195,6495;0,0448891
1196,6138;0,0456474
1197,5780;0,0464376
1198,5422;0,0472415
1199,5065;0,0480801
1200,4707;0,0488571
1201,4349;0,0496068
1202,3992;0,0503277
1203,3634;0,0510248
1204,3276;0,0517059
1205,2919;0,0523783
1206,2561;0,0530471
1207,2203;0,053716
1208,1846;0,0543923
1209,1488;0,0550904
1210,1130;0,0558316
1211,0773;0,0566393
1212,0415;0,0575304
1213,0057;0,0585072
1213,9700;0,059555
1214,9342;0,0606454
1215,8984;0,0617445
1216,8627;0,0628223
1217,8269;0,0638584
1218,7911;0,0648439
1219,7554;0,0657785
1220,7196;0,0666667
1221,6838;0,0675121
1222,6481;0,0683154
1223,6123;0,0690744
1224,5765;0,0697846
1225,5408;0,0704423
1226,5050;0,0710444
1227,4692;0,0715897
1228,4335;0,0720782
1229,3977;0,0725118
1230,3619;0,0728947
1231,3262;0,0732326
1232,2904;0,0735312
1233,2546;0,0737932
1234,2189;0,0740178
1235,1831;0,0742015
1236,1473;0,0743416
1237,1116;0,0744391
1238,0758;0,0744987
1239,0400;0,0745259
1240,0043;0,074523
1240,9685;0,0744865
1241,9327;0,0744089
1242,8970;0,0742817
1243,8612;0,0740996
1244,8254;0,0738615
1245,7897;0,0735696
1246,7539;0,073228
1247,7181;0,072843
1248,6824;0,0724232
1249,6466;0,0719803
1250,6108;0,0715267
1251,5751;0,0710723
1252,5393;0,0706216
1253,5035;0,0701737
1254,4678;0,0697237
1255,4320;0,0692659
1256,3962;0,0687957
1257,3605;0,0683095
1258,3247;0,0678044
1259,2889;0,0672773
1260,2532;0,0667245
1261,2174;0,0661415
1262,1816;0,0655242
1263,1459;0,0648692
1264,1101;0,0641757
1265,0743;0,0634451
1266,0386;0,0626803
1267,0028;0,0618827
1267,9670;0,0610515
1268,9313;0,0601846
1269,8955;0,0592822
1270,8597;0,0583501
1271,8240;0,0573999
1272,7882;0,0564465
1273,7524;0,0555033
1274,7167;0,0545801
1275,6809;0,0536832
1276,6451;0,0528175
1277,6094;0,0519867
1278,5736;0,0511925
1279,5378;0,0504339
1280,5021;0,0497073
1281,4663;0,0490096
1282,4305;0,0483401
1283,3948;0,047701
1284,3590;0,0470964
1285,3232;0,0465307
1286,2875;0,0460099
1287,2517;0,0455433
1288,2159;0,0451432
1289,1802;0,0448215
1290,1444;0,044585
1291,1086;0,0444315
1292,0729;0,0443521
1293,0371;0,0443359
1294,0013;0,0443756
1294,9656;0,0444698
1295,9298;0,0446202
1296,8940;0,0448286
1297,8583;0,0450941
1298,8225;0,0454131
1299,7867;0,0457809
1300,7510;0,046193
1301,7152;0,0466444
1302,6794;0,0471309
1303,6437;0,04765
1304,6079;0,0482012
1305,5721;0,0487865
1306,5364;0,049407
1307,5006;0,0500598
1308,4648;0,0507355
1309,4291;0,0514193
1310,3933;0,0520943
1311,3575;0,0527447
1312,3218;0,0533572
1313,2860;0,0539199
1314,2502;0,0544201
1315,2145;0,0548416
1316,1787;0,0551648
1317,1429;0,0553718
1318,1072;0,0554557
1319,0714;0,0554281
1320,0356;0,0553192
1320,9999;0,0551676
1321,9641;0,055005
1322,9283;0,0548484
1323,8926;0,0547007
1324,8568;0,0545576
1325,8210;0,0544149
1326,7853;0,0542718
1327,7495;0,0541293
1328,7137;0,0539853
1329,6780;0,0538316
1330,6422;0,0536546
1331,6064;0,0534404
1332,5707;0,0531797
1333,5349;0,0528671
1334,4991;0,0524973
1335,4634;0,0520583
1336,4276;0,0515346
1337,3918;0,0509217
1338,3561;0,0502475
1339,3203;0,0495785
1340,2845;0,04899
1341,2488;0,0485229
1342,2130;0,0481695
1343,1772;0,0478942
1344,1415;0,0476616
1345,1057;0,0474542
1346,0699;0,0472772
1347,0342;0,047153
1347,9984;0,0471081
1348,9626;0,0471585
1349,9269;0,0473012
1350,8911;0,0475178
1351,8553;0,0477855
1352,8196;0,0480904
1353,7838;0,0484348
1354,7480;0,0488336
1355,7123;0,0493006
1356,6765;0,0498336
1357,6407;0,0504114
1358,6050;0,0510018
1359,5692;0,0515733
1360,5334;0,0521062
1361,4977;0,0525976
1362,4619;0,0530576
1363,4261;0,0534944
1364,3904;0,053906
1365,3546;0,0542836
1366,3188;0,054619
1367,2831;0,0549065
1368,2473;0,055141
1369,2115;0,0553141
1370,1758;0,0554103
1371,1400;0,0554037
1372,1042;0,0552642
1373,0685;0,0549755
1374,0327;0,0545573
1374,9969;0,0540638
1375,9612;0,0535452
1376,9254;0,0530077
1377,8896;0,0524114
1378,8539;0,0517065
1379,8181;0,0508764
1380,7823;0,0499597
1381,7466;0,0490293
1382,7108;0,048141
1383,6750;0,0472942
1384,6393;0,0464358
1385,6035;0,0455121
1386,5677;0,0445365
1387,5320;0,0436138
1388,4962;0,0428684
1389,4604;0,0423505
1390,4247;0,0420205
1391,3889;0,0417961
1392,3531;0,041597
1393,3174;0,041371
1394,2816;0,0411095
1395,2458;0,040846
1396,2101;0,040632
1397,1743;0,0405054
1398,1385;0,0404787
1399,1028;0,0405459
1400,0670;0,0406908
1401,0313;0,0408913
1401,9955;0,0411248
1402,9597;0,0413739
1403,9240;0,0416352
1404,8882;0,041921
1405,8524;0,0422505
1406,8167;0,0426338
1407,7809;0,0430666
1408,7451;0,0435394
1409,7094;0,0440498
1410,6736;0,0446041
1411,6378;0,0452098
1412,6021;0,0458643
1413,5663;0,0465511
1414,5305;0,0472437
1415,4948;0,0479071
1416,4590;0,0484997
1417,4232;0,0489868
1418,3875;0,0493639
1419,3517;0,0496555
1420,3159;0,0498776
1421,2802;0,0500181
1422,2444;0,0500514
1423,2086;0,049961
1424,1729;0,0497509
1425,1371;0,0494403
1426,1013;0,0490376
1427,0656;0,0485201
1428,0298;0,0478469
1428,9940;0,0470121
1429,9583;0,046093
1430,9225;0,0452245
1431,8867;0,0445035
1432,8510;0,0439171
1433,8152;0,0433494
1434,7794;0,0426531
1435,7437;0,0417684
1436,7079;0,0408201
1437,6721;0,0400397
1438,6364;0,0395581
1439,6006;0,0393451
1440,5648;0,0393094
1441,5291;0,0393798
1442,4933;0,0395215
1443,4575;0,0397241
1444,4218;0,0399845
1445,3860;0,040295
1446,3502;0,0406396
1447,3145;0,0409992
1448,2787;0,0413597
1449,2429;0,0417179
1450,2072;0,0420823
1451,1714;0,0424665
1452,1356;0,0428748
1453,0999;0,0432798
1454,0641;0,0435946
1455,0283;0,0436627
1455,9926;0,0433444
1456,9568;0,0427483
1457,9210;0,042256
1458,8853;0,042086
1459,8495;0,0421488
1460,8137;0,0422832
1461,7780;0,0423476
1462,7422;0,0421986
1463,7064;0,0417138
1464,6707;0,0408915
1465,6349;0,0399028
1466,5991;0,0389618
1467,5634;0,0381533
1468,5276;0,0374073
1469,4918;0,0365582
1470,4561;0,0354005
1471,4203;0,0337857
1472,3845;0,0318016
1473,3488;0,0298422
1474,3130;0,028294
1475,2772;0,0272112
1476,2415;0,0264272
1477,2057;0,0257884
1478,1699;0,0252222
1479,1342;0,02471
1480,0984;0,0242562
1481,0626;0,0238739
1482,0269;0,0235799
1482,9911;0,0233869
1483,9553;0,0232919
1484,9196;0,0232687
1485,8838;0,0232687
1486,8480;0,0232395
1487,8123;0,0231696
1488,7765;0,0231335
1489,7407;0,0232455
1490,7050;0,0235414
1491,6692;0,0239663
1492,6334;0,0244595
1493,5977;0,0249915
1494,5619;0,0255511
1495,5261;0,0261371
1496,4904;0,0267654
1497,4546;0,0274609
1498,4188;0,0282194
1499,3831;0,0289988
1500,3473;0,0297649
1501,3115;0,0305132
1502,2758;0,0312406
1503,2400;0,0319013
1504,2042;0,0323618
1505,1685;0,03238
1506,1327;0,0317414
1507,0969;0,030647
1508,0612;0,0296813
1509,0254;0,0290834
1509,9896;0,0286973
1510,9539;0,0283572
1511,9181;0,0279685
1512,8823;0,0274614
1513,8466;0,0267786
1514,8108;0,0259049
1515,7750;0,0248977
1516,7393;0,0238665
1517,7035;0,0228942
1518,6677;0,021975
1519,6320;0,0210359
1520,5962;0,0200326
1521,5604;0,0190268
1522,5247;0,018147
1523,4889;0,0174735
1524,4531;0,0169913
1525,4174;0,0166376
1526,3816;0,0163651
1527,3458;0,0161641
1528,3101;0,0160428
1529,2743;0,0159936
1530,2385;0,0159774
1531,2028;0,0159349
1532,1670;0,0158295
1533,1312;0,015696
1534,0955;0,0156291
1535,0597;0,0157017
1536,0239;0,0159092
1536,9882;0,01617
1537,9524;0,0163323
1538,9166;0,0162024
1539,8809;0,0157128
1540,8451;0,0151742
1541,8093;0,0150135
1542,7736;0,0152294
1543,7378;0,0155878
1544,7020;0,0159504
1545,6663;0,0162822
1546,6305;0,0165842
1547,5947;0,0168618
1548,5590;0,0171166
1549,5232;0,0173492
1550,4874;0,0175682
1551,4517;0,0177957
1552,4159;0,0180605
1553,3801;0,0183809
1554,3444;0,0187485
1555,3086;0,0191132
1556,2728;0,0193754
1557,2371;0,0194351
1558,2013;0,0193664
1559,1655;0,019434
1560,1298;0,0196911
1561,0940;0,0199936
1562,0582;0,0202975
1563,0225;0,0206374
1563,9867;0,0210341
1564,9509;0,0214703
1565,9152;0,0219051
1566,8794;0,0223071
1567,8436;0,0226898
1568,8079;0,0231146
1569,7721;0,0236321
1570,7363;0,024228
1571,7006;0,0248499
1572,6648;0,0254582
1573,6290;0,026039
1574,5933;0,0266018
1575,5575;0,0271858
1576,5217;0,0278415
1577,4860;0,028573
1578,4502;0,0293444
1579,4144;0,030144
1580,3787;0,0309915
1581,3429;0,0318994
1582,3071;0,0328529
1583,2714;0,0338181
1584,2356;0,0347674
1585,1998;0,0356952
1586,1641;0,0366106
1587,1283;0,0375139
1588,0925;0,0383832
1589,0568;0,0391792
1590,0210;0,0398615
1590,9852;0,0404
1591,9495;0,0407744
1592,9137;0,0409713
1593,8779;0,0409897
1594,8422;0,040851
1595,8064;0,0405974
1596,7706;0,0402755
1597,7349;0,0399181
1598,6991;0,0395387
1599,6633;0,03914
1600,6276;0,0387269
1601,5918;0,0383143
1602,5560;0,0379233
1603,5203;0,0375703
1604,4845;0,0372552
1605,4487;0,0369582
1606,4130;0,0366479
1607,3772;0,0363025
1608,3414;0,0359337
1609,3057;0,0355942
1610,2699;0,0353487
1611,2341;0,0352285
1612,1984;0,0352086
1613,1626;0,0352114
1614,1268;0,0351297
1615,0911;0,0348847
1616,0553;0,034518
1617,0195;0,0341998
1617,9838;0,0340675
1618,9480;0,0341111
1619,9122;0,0342344
1620,8765;0,0343376
1621,8407;0,0343532
1622,8049;0,0342713
1623,7692;0,0341451
1624,7334;0,0340436
1625,6976;0,033993
1626,6619;0,0339762
1627,6261;0,0339762
1628,5903;0,0340047
1629,5546;0,0340927
1630,5188;0,0342579
1631,4830;0,0344763
1632,4473;0,0346646
1633,4115;0,0346811
1634,3757;0,0343879
1635,3400;0,0338179
1636,3042;0,0332511
1637,2684;0,0329344
1638,2327;0,0328613
1639,1969;0,0329202
1640,1611;0,0330408
1641,1254;0,0331988
1642,0896;0,0333717
1643,0538;0,0334989
1644,0181;0,0334647
1644,9823;0,0331512
1645,9465;0,0325928
1646,9108;0,0320632
1647,8750;0,0318458
1648,8392;0,0319769
1649,8035;0,0322884
1650,7677;0,0325072
1651,7319;0,0322959
1652,6962;0,0314875
1653,6604;0,0304885
1654,6246;0,0298813
1655,5889;0,0297054
1656,5531;0,0297379
1657,5173;0,0298273
1658,4816;0,0298831
1659,4458;0,0298216
1660,4100;0,0295742
1661,3743;0,0291488
1662,3385;0,0286677
1663,3027;0,0282887
1664,2670;0,028079
1665,2312;0,0279893
1666,1954;0,0279013
1667,1597;0,0276756
1668,1239;0,0272135
1669,0881;0,0265527
1670,0524;0,025889
1671,0166;0,0254131
1671,9808;0,0251455
1672,9451;0,0249688
1673,9093;0,0247482
1674,8735;0,0244203
1675,8378;0,0240286
1676,8020;0,0236829
1677,7662;0,0234699
1678,7305;0,0234059
1679,6947;0,0234419
1680,6589;0,0234695
1681,6232;0,0233262
1682,5874;0,0228655
1683,5516;0,0221392
1684,5159;0,0214465
1685,4801;0,0210126
1686,4443;0,0208077
1687,4086;0,0207225
1688,3728;0,0206962
1689,3370;0,020717
1690,3013;0,0207927
1691,2655;0,0209266
1692,2297;0,0211024
1693,1940;0,0212821
1694,1582;0,0214163
1695,1224;0,0214667
1696,0867;0,0214312
1697,0509;0,0213523
1698,0151;0,0212957
1698,9794;0,0213106
1699,9436;0,0214012
1700,9078;0,0215378
1701,8721;0,0216956
1702,8363;0,0218801
1703,8005;0,022119
1704,7648;0,0224419
1705,7290;0,022863
1706,6932;0,0233722
1707,6575;0,0239401
1708,6217;0,0245407
1709,5859;0,025168
1710,5502;0,0258293
1711,5144;0,0265239
1712,4786;0,0272278
1713,4429;0,0278928
1714,4071;0,0284658
1715,3713;0,0289342
1716,3356;0,0293733
1717,2998;0,0299009
1718,2640;0,0305386
1719,2283;0,031209
1720,1925;0,0318564
1721,1567;0,0324809
1722,1210;0,033097
1723,0852;0,0337045
1724,0494;0,0342865
1725,0137;0,0348236
1725,9779;0,0353081
1726,9421;0,0357491
1727,9064;0,0361621
1728,8706;0,036551
1729,8348;0,0368855
1730,7991;0,0370861
1731,7633;0,0370413
1732,7275;0,0366941
1733,6918;0,0361515
1734,6560;0,0356281
1735,6202;0,0352442
1736,5845;0,0349616
1737,5487;0,0346702
1738,5129;0,0342636
1739,4772;0,033683
1740,4414;0,0329479
1741,4056;0,0321442
1742,3699;0,0313584
1743,3341;0,0306203
1744,2983;0,0299088
1745,2626;0,0291854
1746,2268;0,0284085
1747,1910;0,0275272
1748,1553;0,0264942
1749,1195;0,0253191
1750,0837;0,0241117
1751,0480;0,0230242
1752,0122;0,0221358
1752,9764;0,0214169
1753,9407;0,02078
1754,9049;0,0201429
1755,8691;0,0194701
1756,8334;0,01878
1757,7976;0,0181121
1758,7618;0,0174793
1759,7261;0,016852
1760,6903;0,0161948
1761,6545;0,0155189
1762,6188;0,014889
1763,5830;0,0143724
1764,5472;0,013987
1765,5115;0,0136977
1766,4757;0,0134455
1767,4399;0,0131772
1768,4042;0,0128571
1769,3684;0,0124652
1770,3326;0,0119989
1771,2969;0,0114907
1772,2611;0,0110198
1773,2253;0,0106738
1774,1896;0,0104861
1775,1538;0,0104237
1776,1180;0,0104235
1777,0823;0,0104235
1778,0465;0,0103812
1779,0107;0,0102868
1779,9750;0,010165
1780,9392;0,0100537
1781,9034;0,00997227
1782,8677;0,00991127
1783,8319;0,00985301
1784,7961;0,00979666
1785,7604;0,00976311
1786,7246;0,00977637
1787,6888;0,00983912
1788,6531;0,00991946
1789,6173;0,00995572
1790,5815;0,00988574
1791,5458;0,0096988
1792,5100;0,00946376
1793,4742;0,0092766
1794,4385;0,00918257
1795,4027;0,00916688
1796,3669;0,00918941
1797,3312;0,00920885
1798,2954;0,00919481
1799,2596;0,00913899
1800,2239;0,00905975
1801,1881;0,00898932
1802,1523;0,00895161
1803,1166;0,00895185
1804,0808;0,0089816
1805,0450;0,00902613
1806,0093;0,00906735
1806,9735;0,00908509
1807,9377;0,0090619
1808,9020;0,00899241
1809,8662;0,00889162
1810,8304;0,00879202
1811,7947;0,00872637
1812,7589;0,00870939
1813,7231;0,00873292
1814,6874;0,00877383
1815,6516;0,0088067
1816,6158;0,00881635
1817,5801;0,00880609
1818,5443;0,00879466
1819,5085;0,00880207
1820,4728;0,00883485
1821,4370;0,00888188
1822,4012;0,00892154
1823,3655;0,00893448
1824,3297;0,00891298
1825,2939;0,00885956
1826,2582;0,00877734
1827,2224;0,00866573
1828,1866;0,00852999
1829,1509;0,00839656
1830,1151;0,00831021
1831,0793;0,00830292
1832,0436;0,00836644
1833,0078;0,00845979
1833,9720;0,00853628
1834,9363;0,0085655
1835,9005;0,00854851
1836,8647;0,00852134
1837,8290;0,00853456
1838,7932;0,00861687
1839,7574;0,00875286
1840,7217;0,00888763
1841,6859;0,00894872
1842,6501;0,00888273
1843,6144;0,00869997
1844,5786;0,0084839
1845,5428;0,00832921
1846,5071;0,00827173
1847,4713;0,00828826
1848,4355;0,00833761
1849,3998;0,00838929
1850,3640;0,00843067
1851,3282;0,0084622
1852,2925;0,0084881
1853,2567;0,00850856
1854,2209;0,00851903
1855,1852;0,00851575
1856,1494;0,00850129
1857,1136;0,00848411
1858,0779;0,00847314
1859,0421;0,00847203
1860,0063;0,0084787
1860,9706;0,00848985
1861,9348;0,00850551
1862,8990;0,00852821
1863,8633;0,00855713
1864,8275;0,00858186
1865,7917;0,00858305
1866,7560;0,0085444
1867,7202;0,00847111
1868,6844;0,00839344
1869,6487;0,00834181
1870,6129;0,00832188
1871,5771;0,00831993
1872,5414;0,00832191
1873,5056;0,00832287
1874,4698;0,00832669
1875,4341;0,00834203
1876,3983;0,00837458
1877,3625;0,0084193
1878,3268;0,00845876
1879,2910;0,00847196
1880,2552;0,00844751
1881,2195;0,00839304
1882,1837;0,00833446
1883,1479;0,0083041
1884,1122;0,00832331
1885,0764;0,00838995
1886,0406;0,00847741
1887,0049;0,00854504
1887,9691;0,00855646
1888,9333;0,00849908
1889,8976;0,00839236
1890,8618;0,00827589
1891,8260;0,00818611
1892,7903;0,00814058
1893,7545;0,0081376
1894,7188;0,00816552
1895,6830;0,0082125
1896,6472;0,00827066
1897,6115;0,00833369
1898,5757;0,00839238
1899,5399;0,00843342
1900,5042;0,00844383
1901,4684;0,00841855
1902,4326;0,00836599
1903,3969;0,00830625
1904,3611;0,00826164
1905,3253;0,00824601
1906,2896;0,00825921
1907,2538;0,00828907
1908,2180;0,00831819
1909,1823;0,00833249
1910,1465;0,00832762
1911,1107;0,00831037
1912,0750;0,00829438
1913,0392;0,0082928
1914,0034;0,00831135
1914,9677;0,00834483
1915,9319;0,00837883
1916,8961;0,00839644
1917,8604;0,00838673
1918,8246;0,00835
1919,7888;0,00829728
1920,7531;0,00824561
1921,7173;0,00821229
1922,6815;0,00820911
1923,6458;0,0082363
1924,6100;0,00827872
1925,5742;0,00830976
1926,5385;0,00830381
1927,5027;0,00825063
1928,4669;0,00816397
1929,4312;0,00808003
1930,3954;0,00804227
1931,3596;0,00807664
1932,3239;0,00817242
1933,2881;0,00828266
1934,2523;0,008346
1935,2166;0,0083174
1936,1808;0,00819083
1937,1450;0,00800092
1938,1093;0,00780438
1939,0735;0,00765442
1940,0377;0,00758201
1941,0020;0,00758857
1941,9662;0,00764997
1942,9304;0,00773102
1943,8947;0,00780489
1944,8589;0,0078641
1945,8231;0,00791386
1946,7874;0,00795529
1947,7516;0,00797494
1948,7158;0,00795066
1949,6801;0,00787046
1950,6443;0,00774995
1951,6085;0,00763239
1952,5728;0,00756836
1953,5370;0,00758829
1954,5012;0,00768668
1955,4655;0,00782742
1956,4297;0,00796319
1957,3939;0,00805262
1958,3582;0,00806527
1959,3224;0,00797993
1960,2866;0,00778916
1961,2509;0,00751363
1962,2151;0,00721199
1963,1793;0,00696864
1964,1436;0,00685717
1965,1078;0,00689723
1966,0720;0,00703253
1967,0363;0,00715331
1968,0005;0,00716037
1968,9647;0,00702803
1969,9290;0,00681596
1970,8932;0,00662539
1971,8574;0,00653927
1972,8217;0,00658508
1973,7859;0,00673198
1974,7501;0,00691352
1975,7144;0,00705809
1976,6786;0,00711522
1977,6428;0,00707164
1978,6071;0,00695584
1979,5713;0,00683004
1980,5355;0,00677063
1981,4998;0,00684269
1982,4640;0,00707633
1983,4282;0,00745207
1984,3925;0,00790162
1985,3567;0,00832755
1986,3209;0,00863625
1987,2852;0,00876872
1988,2494;0,00871514
1989,2136;0,00851152
1990,1779;0,00822555
1991,1421;0,00793699
1992,1063;0,00771448
1993,0706;0,0075952
1994,0348;0,00757829
1994,9990;0,00763543
1995,9633;0,00772918
1996,9275;0,00782722
1997,8917;0,00790799
1998,8560;0,00795892
1999,8202;0,00797236
2000,7844;0,00794443
2001,7487;0,00787984
2002,7129;0,00779981
2003,6771;0,00774525
2004,6414;0,00776663
2005,6056;0,00789875
2006,5698;0,00813072
2007,5341;0,00839453
2008,4983;0,00858901
2009,4625;0,00863037
2010,4268;0,00849743
2011,3910;0,00824203
2012,3552;0,00796014
2013,3195;0,00774188
2014,2837;0,00762819
2015,2479;0,00759746
2016,2122;0,00759074
2017,1764;0,00756097
2018,1406;0,00751115
2019,1049;0,00749019
2020,0691;0,0075492
2021,0333;0,00769364
2021,9976;0,00786842
2022,9618;0,00798676
2023,9260;0,00798313
2024,8903;0,00785375
2025,8545;0,00765577
2026,8187;0,0074667
2027,7830;0,00733621
2028,7472;0,00726771
2029,7114;0,00724018
2030,6757;0,00724734
2031,6399;0,00731688
2032,6041;0,00749092
2033,5684;0,00778257
2034,5326;0,00814802
2035,4968;0,00850177
2036,4611;0,00876561
2037,4253;0,00891087
2038,3895;0,00896394
2039,3538;0,00897621
2040,3180;0,0089856
2041,2822;0,00899882
2042,2465;0,00900515
2043,2107;0,00900656
2044,1749;0,00903425
2045,1392;0,0091335
2046,1034;0,00932556
2047,0676;0,00957685
2048,0320;0,0098064
2048,9961;0,00993395
2049,9604;0,00993164
2050,9246;0,00983716
2051,8889;0,0097229
2052,8530;0,00964895
2053,8174;0,00963061
2054,7815;0,00963682
2055,7458;0,00961779
2056,7100;0,00954431
2057,6743;0,0094317
2058,6384;0,00933201
2059,6028;0,00930148
2060,5669;0,00936645
2061,5313;0,00950875
2062,4954;0,00967707
2063,4597;0,00981473
2064,4238;0,00988605
2065,3882;0,00988707
2066,3523;0,00983811
2067,3167;0,00976794
2068,2808;0,00970196
2069,2451;0,00965957
2070,2092;0,00965639
2071,1736;0,00970345
2072,1377;0,00980086
2073,1021;0,00993021
2074,0662;0,0100554
2075,0305;0,0101358
2075,9946;0,0101474
2076,9590;0,0100972
2077,9231;0,0100209
2078,8875;0,00996255
2079,8516;0,00994716
2080,8159;0,00996673
2081,7800;0,00998807
2082,7444;0,0099781
2083,7085;0,00992871
2084,6729;0,00986348
2085,6370;0,00982077
2086,6013;0,00982531
2087,5654;0,00986844
2088,5298;0,00991164
2089,4939;0,00991179
2090,4583;0,00985123
2091,4224;0,00975214
2092,3867;0,00966611
2093,3508;0,00964593
2094,3152;0,00971678
2095,2793;0,0098631
2096,2437;0,0100379
2097,2078;0,0101873
2098,1721;0,0102754
2099,1362;0,0102955
2100,1006;0,010266
2101,0647;0,010219
2102,0291;0,010182
2102,9932;0,0101691
2103,9575;0,0101764
2104,9216;0,0101865
2105,8860;0,0101809
2106,8501;0,010152
2107,8145;0,0101084
2108,7786;0,010071
2109,7429;0,0100598
2110,7070;0,0100831
2111,6714;0,0101351
2112,6355;0,0102016
2113,5999;0,0102697
2114,5640;0,0103324
2115,5283;0,0103869
2116,4924;0,0104298
2117,4568;0,0104552
2118,4209;0,0104577
2119,3853;0,0104366
2120,3494;0,0103985
2121,3137;0,0103544
2122,2778;0,0103146
2123,2422;0,0102862
2124,2063;0,0102726
2125,1707;0,0102752
2126,1348;0,0102919
2127,0991;0,0103132
2128,0632;0,0103206
2129,0276;0,0102918
2129,9917;0,0102114
2130,9561;0,0100827
2131,9202;0,00993079
2132,8845;0,00979446
2133,8486;0,0097098
2134,8130;0,00969486
2135,7771;0,00974371
2136,7415;0,00983172
2137,7056;0,00992571
2138,6699;0,009993
2139,6340;0,0100092
2140,5984;0,00996798
2141,5625;0,00989136
2142,5269;0,00983115
2143,4910;0,00985242
2144,4553;0,0100011
2145,4194;0,0102729
2146,3838;0,0106043
2147,3479;0,0108969
2148,3123;0,0110595
2149,2764;0,011045
2150,2407;0,0108619
2151,2048;0,0105633
2152,1692;0,0102287
2153,1333;0,00995052
2154,0977;0,00982348
2155,0618;0,00992495
2156,0261;0,0102779
2156,9902;0,0108086
2157,9546;0,0113428
2158,9187;0,0116811
2159,8831;0,0117216
2160,8472;0,0115197
2161,8115;0,011232
2162,7756;0,0110105
2163,7400;0,0109359
2164,7041;0,0110087
2165,6685;0,0111759
2166,6326;0,0113637
2167,5969;0,0115007
2168,5610;0,0115333
2169,5254;0,0114371
2170,4895;0,011227
2171,4539;0,0109571
2172,4180;0,010703
2173,3823;0,0105307
2174,3464;0,0104691
2175,3108;0,0105062
2176,2749;0,0106108
2177,2393;0,0107583
2178,2034;0,0109377
2179,1677;0,0111346
2180,1318;0,0113113
2181,0962;0,0114109
2182,0603;0,011388
2183,0247;0,0112444
2183,9888;0,0110352
2184,9531;0,0108369
2185,9172;0,0107029
2186,8816;0,0106416
2187,8457;0,0106282
2188,8101;0,0106339
2189,7742;0,0106455
2190,7385;0,0106619
2191,7026;0,0106775
2192,6670;0,0106739
2193,6311;0,0106296
2194,5955;0,0105392
2195,5596;0,010423
2196,5239;0,0103165
2197,4880;0,0102471
2198,4524;0,0102178
2199,4165;0,0102107
2200,3809;0,0102063
2201,3450;0,0102008
2202,3093;0,0102087
2203,2734;0,0102507
2204,2378;0,0103372
2205,2019;0,0104616
2206,1663;0,0106038
2207,1304;0,0107397
2208,0947;0,0108462
2209,0588;0,0109035
2210,0232;0,0108967
2210,9873;0,0108216
2211,9517;0,0106917
2212,9158;0,0105401
2213,8801;0,0104116
2214,8442;0,0103466
2215,8086;0,0103647
2216,7727;0,0104583
2217,7371;0,0105971
2218,7012;0,0107403
2219,6655;0,0108499
2220,6296;0,0109002
2221,5940;0,010883
2222,5581;0,0108094
2223,5225;0,0107052
2224,4866;0,0106031
2225,4509;0,0105303
2226,4150;0,0104991
2227,3794;0,0105049
2228,3435;0,0105339
2229,3079;0,010574
2230,2720;0,01062
2231,2363;0,010669
2232,2004;0,0107118
2233,1648;0,0107298
2234,1289;0,0107031
2235,0933;0,0106265
2236,0574;0,0105181
2237,0217;0,0104121
2237,9858;0,0103382
2238,9502;0,0103042
2239,9143;0,0102952
2240,8787;0,0102909
2241,8428;0,0102872
2242,8071;0,0103018
2243,7712;0,0103591
2244,7356;0,0104631
2245,6997;0,0105839
2246,6641;0,0106681
2247,6282;0,0106701
2248,5925;0,0105827
2249,5566;0,0104446
2250,5210;0,0103205
2251,4851;0,0102669
2252,4495;0,0103029
2253,4136;0,0104037
2254,3779;0,0105158
2255,3420;0,0105854
2256,3064;0,0105831
2257,2705;0,010514
2258,2349;0,0104107
2259,1990;0,0103151
2260,1633;0,0102585
2261,1274;0,01025
2262,0918;0,0102764
2263,0559;0,0103143
2264,0203;0,0103455
2264,9844;0,0103679
2265,9487;0,0103922
2266,9128;0,0104301
2267,8772;0,010479
2268,8413;0,0105186
2269,8057;0,01052
2270,7698;0,0104649
2271,7341;0,0103594
2272,6982;0,0102355
2273,6626;0,0101367
2274,6267;0,0100957
2275,5911;0,0101182
2276,5552;0,0101821
2277,5195;0,0102524
2278,4836;0,0103012
2279,4480;0,0103209
2280,4121;0,0103233
2281,3765;0,0103259
2282,3406;0,0103381
2283,3049;0,010355
2284,2690;0,010364
2285,2334;0,0103567
2286,1975;0,0103376
2287,1619;0,0103238
2288,1260;0,0103346
2289,0903;0,0103794
2290,0544;0,010452
2291,0188;0,010533
2291,9829;0,0106009
2292,9473;0,010643
2293,9114;0,0106607
2294,8757;0,0106671
2295,8398;0,0106785
2296,8042;0,0107056
2297,7683;0,0107486
2298,7327;0,0107989
2299,6968;0,0108457
2300,6611;0,0108842
2301,6252;0,0109187
2302,5896;0,010961
2303,5537;0,0110231
2304,5181;0,01111
2305,4822;0,0112168
2306,4465;0,0113305
2307,4106;0,0114351
2308,3750;0,0115172
2309,3391;0,0115691
2310,3035;0,0115885
2311,2676;0,0115778
2312,2319;0,0115451
2313,1960;0,0115048
2314,1604;0,0114757
2315,1245;0,0114764
2316,0889;0,0115171
2317,0530;0,0115944
2318,0173;0,0116893
2318,9814;0,0117717
2319,9458;0,0118099
2320,9099;0,0117836
2321,8743;0,0116927
2322,8384;0,0115573
2323,8027;0,0114081
2324,7668;0,0112744
2325,7312;0,0111748
2326,6953;0,0111122
2327,6597;0,0110737
2328,6238;0,0110362
2329,5881;0,0109794
2330,5522;0,0109012
2331,5166;0,0108221
2332,4807;0,0107705
2333,4451;0,0107581
2334,4092;0,0107637
2335,3735;0,0107401
2336,3376;0,0106407
2337,3020;0,0104533
2338,2661;0,0102159
2339,2305;0,009998
2340,1946;0,00985807
2341,1589;0,00981204
2342,1230;0,00983682
2343,0874;0,00990113
2344,0515;0,009991
2345,0159;0,0101085
2345,9800;0,0102593
2346,9443;0,010447
2347,9084;0,0106707
2348,8728;0,010918
2349,8369;0,0111595
2350,8013;0,011351
2351,7654;0,0114478
2352,7297;0,0114336
2353,6938;0,0113449
2354,6582;0,0112548
2355,6223;0,0112175
2356,5867;0,0112321
2357,5508;0,0112598
2358,5151;0,011261
2359,4792;0,0112151
2360,4436;0,0111197
2361,4077;0,0109851
2362,3721;0,0108338
2363,3362;0,0106979
2364,3005;0,0106067
2365,2646;0,0105683
2366,2290;0,010563
2367,1931;0,010556
2368,1575;0,0105214
2369,1216;0,0104598
2370,0859;0,0103977
2371,0500;0,0103711
2372,0144;0,0104034
2372,9785;0,0104919
2373,9429;0,0106084
2374,9070;0,0107141
2375,8713;0,0107778
2376,8354;0,0107885
2377,7998;0,0107565
2378,7639;0,0107044
2379,7283;0,0106548
2380,6924;0,0106212
2381,6567;0,0106065
2382,6208;0,0106065
2383,5852;0,0106158
2384,5493;0,0106315
2385,5137;0,0106524
2386,4778;0,0106777
2387,4421;0,0107043
2388,4063;0,0107273
2389,3706;0,0107415
2390,3347;0,0107443
2391,2991;0,0107369
2392,2632;0,0107239
2393,2275;0,0107116
2394,1917;0,010706
2395,1560;0,0107112
2396,1201;0,0107296
2397,0845;0,0107611
2398,0486;0,0108028
2399,0129;0,0108498
2399,9771;0,0108954
2400,9414;0,0109328
2401,9055;0,0109569
2402,8699;0,0109661
2403,8340;0,0109623
2404,7983;0,0109506
2405,7625;0,0109376
2406,7268;0,0109286
2407,6909;0,0109265
2408,6553;0,0109318
2409,6194;0,0109438
2410,5837;0,010963
2411,5479;0,0109913
2412,5122;0,0110314
2413,4763;0,0110834
2414,4407;0,0111428
2415,4048;0,0112009
2416,3691;0,011248
2417,3333;0,0112772
2418,2976;0,0112872
2419,2617;0,0112823
2420,2261;0,0112693
2421,1902;0,0112552
2422,1545;0,0112446
2423,1187;0,0112403
2424,0830;0,0112442
2425,0471;0,0112579
2426,0115;0,0112819
2426,9756;0,0113151
2427,9399;0,0113553
2428,9041;0,0113988
2429,8684;0,0114418
2430,8325;0,0114796
2431,7969;0,0115077
2432,7610;0,0115225
2433,7253;0,0115236
2434,6895;0,0115158
2435,6538;0,0115083
2436,6179;0,0115114
2437,5823;0,0115309
2438,5464;0,0115654
2439,5107;0,0116062
2440,4749;0,0116423
2441,4392;0,0116653
2442,4033;0,0116735
2443,3677;0,0116714
2444,3318;0,0116671
2445,2961;0,011669
2446,2603;0,0116827
2447,2246;0,011709
2448,1887;0,0117437
2449,1531;0,0117785
2450,1172;0,0118039
2451,0815;0,0118132
2452,0457;0,011805
2453,0100;0,0117843
2453,9741;0,0117597
2454,9385;0,0117406
2455,9026;0,0117343
2456,8669;0,0117448
2457,8311;0,0117721
2458,7954;0,0118123
2459,7595;0,0118572
2460,7239;0,0118969
2461,6880;0,0119233
2462,6523;0,0119347
2463,6165;0,0119366
2464,5808;0,0119384
2465,5449;0,0119469
2466,5093;0,0119625
2467,4734;0,0119798
2468,4377;0,011993
2469,4019;0,0120009
2470,3662;0,012007
2471,3303;0,0120158
2472,2947;0,0120272
2473,2588;0,0120367
2474,2231;0,0120388
2475,1873;0,0120334
2476,1516;0,0120268
2477,1157;0,0120277
2478,0801;0,012041
2479,0442;0,0120639
2480,0085;0,0120884
2480,9727;0,0121071
2481,9370;0,0121175
2482,9011;0,0121224
2483,8655;0,0121267
2484,8296;0,0121332
2485,7939;0,0121424
2486,7581;0,0121535
2487,7224;0,0121667
2488,6865;0,0121828
2489,6509;0,0122029
2490,6150;0,0122266
2491,5793;0,0122526
2492,5435;0,0122793
2493,5078;0,0123041
2494,4719;0,0123234
2495,4363;0,0123319
2496,4004;0,0123255
2497,3647;0,0123056
2498,3289;0,0122813
2499,2932;0,0122675
2500,2573;0,012278
2501,2217;0,0123173
2502,1858;0,0123771
2503,1501;0,0124399
2504,1143;0,0124878
2505,0786;0,0125112
2506,0427;0,0125123
2507,0071;0,0125016
2507,9712;0,0124916
2508,9355;0,0124897
2509,8997;0,0124968
2510,8640;0,0125087
2511,8281;0,0125208
2512,7925;0,0125308
2513,7566;0,0125392
2514,7209;0,0125481
2515,6851;0,0125581
2516,6494;0,0125673
2517,6135;0,0125721
2518,5779;0,0125691
2519,5420;0,0125588
2520,5063;0,0125459
2521,4705;0,0125377
2522,4348;0,0125395
2523,3989;0,0125516
2524,3633;0,0125682
2525,3274;0,0125816
2526,2917;0,0125873
2527,2559;0,0125867
2528,2202;0,0125862
2529,1843;0,0125918
2530,1487;0,0126043
2531,1128;0,0126185
2532,0771;0,0126271
2533,0413;0,0126261
2534,0056;0,0126177
2534,9697;0,0126088
2535,9341;0,0126055
2536,8982;0,0126094
2537,8625;0,012617
2538,8267;0,0126243
2539,7910;0,0126302
2540,7551;0,0126382
2541,7195;0,0126528
2542,6836;0,0126764
2543,6479;0,0127061
2544,6121;0,0127359
2545,5764;0,0127595
2546,5405;0,0127728
2547,5049;0,0127747
2548,4690;0,0127661
2549,4333;0,0127483
2550,3975;0,0127247
2551,3618;0,012701
2552,3259;0,0126848
2553,2903;0,0126828
2554,2544;0,0126975
2555,2188;0,0127258
2556,1829;0,0127604
2557,1472;0,0127936
2558,1113;0,0128206
2559,0757;0,0128398
2560,0398;0,0128515
2561,0042;0,012856
2561,9683;0,0128535
2562,9326;0,0128453
2563,8967;0,0128345
2564,8611;0,0128256
2565,8252;0,012822
2566,7896;0,0128243
2567,7537;0,0128302
2568,7180;0,0128367
2569,6821;0,012843
2570,6465;0,0128509
2571,6106;0,0128635
2572,5750;0,0128823
2573,5391;0,0129051
2574,5034;0,012927
2575,4675;0,0129435
2576,4319;0,0129527
2577,3960;0,0129574
2578,3604;0,0129626
2579,3245;0,0129727
2580,2888;0,0129888
2581,2529;0,0130081
2582,2173;0,0130253
2583,1814;0,0130356
2584,1458;0,0130371
2585,1099;0,0130312
2586,0742;0,013023
2587,0383;0,0130183
2588,0027;0,0130219
2588,9668;0,0130352
2589,9312;0,0130555
2590,8953;0,0130772
2591,8596;0,0130945
2592,8237;0,0131046
2593,7881;0,0131086
2594,7522;0,0131107
2595,7166;0,0131147
2596,6807;0,0131218
2597,6450;0,0131307
2598,6091;0,0131397
2599,5735;0,0131493
2600,5376;0,013162
2601,5020;0,0131808
2602,4661;0,0132055
2603,4304;0,013233
2604,3945;0,0132592
2605,3589;0,013282
2606,3230;0,0133025
2607,2874;0,0133239
2608,2515;0,0133477
2609,2158;0,0133725
2610,1799;0,0133943
2611,1443;0,0134101
2612,1084;0,0134195
2613,0728;0,0134255
2614,0369;0,0134321
2615,0012;0,0134422
2615,9653;0,0134568
2616,9297;0,0134753
2617,8938;0,013497
2618,8582;0,0135211
2619,8223;0,0135467
2620,7866;0,0135724
2621,7507;0,0135958
2622,7151;0,0136144
2623,6792;0,0136261
2624,6436;0,0136303
2625,6077;0,0136285
2626,5720;0,0136243
2627,5361;0,0136229
2628,5005;0,0136304
2629,4646;0,0136517
2630,4290;0,0136881
2631,3931;0,0137371
2632,3574;0,0137929
2633,3215;0,0138477
2634,2859;0,0138953
2635,2500;0,0139316
2636,2144;0,0139562
2637,1785;0,0139707
2638,1428;0,0139785
2639,1069;0,0139836
2640,0713;0,0139905
2641,0354;0,0140035
2641,9998;0,0140261
2642,9639;0,014059
2643,9282;0,014099
2644,8923;0,0141395
2645,8567;0,0141729
2646,8208;0,0141946
2647,7852;0,0142053
2648,7493;0,0142113
2649,7136;0,0142214
2650,6777;0,0142413
2651,6421;0,0142712
2652,6062;0,0143055
2653,5706;0,0143362
2654,5347;0,0143577
2655,4990;0,0143696
2656,4631;0,0143768
2657,4275;0,0143869
2658,3916;0,0144065
2659,3560;0,0144385
2660,3201;0,0144809
2661,2844;0,0145274
2662,2485;0,0145696
2663,2129;0,0145998
2664,1770;0,0146144
2665,1414;0,014615
2666,1055;0,0146084
2667,0698;0,0146036
2668,0339;0,0146079
2668,9983;0,0146244
2669,9624;0,0146508
2670,9268;0,014682
2671,8909;0,0147127
2672,8552;0,0147399
2673,8193;0,0147632
2674,7837;0,0147836
2675,7478;0,014803
2676,7122;0,014823
2677,6763;0,0148456
2678,6406;0,0148733
2679,6047;0,0149075
2680,5691;0,0149478
2681,5332;0,0149912
2682,4976;0,0150331
2683,4617;0,0150701
2684,4260;0,0151015
2685,3901;0,0151298
2686,3545;0,0151586
2687,3186;0,0151896
2688,2830;0,0152221
2689,2471;0,0152533
2690,2114;0,0152815
2691,1755;0,0153075
2692,1399;0,0153339
2693,1040;0,0153623
2694,0684;0,015391
2695,0325;0,0154158
2695,9968;0,0154329
2696,9609;0,0154429
2697,9253;0,0154516
2698,8894;0,0154671
2699,8538;0,0154952
2700,8179;0,0155355
2701,7822;0,015582
2702,7463;0,0156265
2703,7107;0,0156638
2704,6748;0,0156932
2705,6392;0,0157176
2706,6033;0,0157413
2707,5676;0,015767
2708,5317;0,0157954
2709,4961;0,015826
2710,4602;0,0158584
2711,4246;0,015892
2712,3887;0,0159263
2713,3530;0,0159601
2714,3171;0,0159917
2715,2815;0,0160201
2716,2456;0,0160448
2717,2100;0,0160668
2718,1741;0,0160871
2719,1384;0,0161068
2720,1025;0,0161262
2721,0669;0,0161451
2722,0310;0,0161638
2722,9954;0,0161832
2723,9595;0,0162054
2724,9238;0,0162328
2725,8879;0,0162667
2726,8523;0,0163065
2727,8164;0,0163493
2728,7808;0,0163912
2729,7449;0,0164289
2730,7092;0,0164608
2731,6733;0,0164871
2732,6377;0,0165086
2733,6018;0,0165251
2734,5662;0,0165361
2735,5303;0,0165415
2736,4946;0,0165428
2737,4587;0,0165444
2738,4231;0,0165514
2739,3872;0,0165685
2740,3516;0,0165975
2741,3157;0,0166372
2742,2800;0,0166828
2743,2441;0,0167273
2744,2085;0,0167622
2745,1726;0,0167805
2746,1370;0,0167794
2747,1011;0,0167635
2748,0654;0,0167441
2749,0295;0,0167357
2749,9939;0,0167495
2750,9580;0,0167881
2751,9224;0,0168443
2752,8865;0,0169051
2753,8508;0,0169588
2754,8149;0,0169996
2755,7793;0,0170291
2756,7434;0,0170524
2757,7078;0,0170744
2758,6719;0,0170967
2759,6362;0,0171189
2760,6003;0,0171402
2761,5647;0,0171612
2762,5288;0,017183
2763,4932;0,0172063
2764,4573;0,0172312
2765,4216;0,0172578
2766,3857;0,0172878
2767,3501;0,0173247
2768,3142;0,0173708
2769,2786;0,0174245
2770,2427;0,0174792
2771,2070;0,0175256
2772,1711;0,0175577
2773,1355;0,0175765
2774,0996;0,0175915
2775,0640;0,0176154
2776,0281;0,0176571
2776,9924;0,0177161
2777,9565;0,017783
2778,9209;0,0178446
2779,8850;0,0178917
2780,8494;0,017924
2781,8135;0,0179495
2782,7778;0,0179785
2783,7419;0,018017
2784,7063;0,0180637
2785,6704;0,0181118
2786,6348;0,0181543
2787,5989;0,0181896
2788,5632;0,0182226
2789,5273;0,0182619
2790,4917;0,0183149
2791,4558;0,0183837
2792,4202;0,0184638
2793,3843;0,0185472
2794,3486;0,0186258
2795,3127;0,0186956
2796,2771;0,0187576
2797,2412;0,0188169
2798,2056;0,01888
2799,1697;0,0189512
2800,1340;0,0190307
2801,0981;0,0191153
2802,0625;0,0192004
2803,0266;0,0192832
2803,9910;0,0193637
2804,9551;0,0194436
2805,9194;0,0195241
2806,8835;0,0196045
2807,8479;0,0196826
2808,8120;0,0197576
2809,7764;0,0198331
2810,7405;0,0199156
2811,7048;0,0200122
2812,6689;0,0201254
2813,6333;0,0202514
2814,5974;0,0203822
2815,5618;0,0205103
2816,5259;0,0206332
2817,4902;0,0207538
2818,4543;0,0208773
2819,4187;0,0210067
2820,3828;0,0211404
2821,3472;0,0212743
2822,3113;0,0214057
2823,2756;0,0215371
2824,2397;0,0216766
2825,2041;0,021833
2826,1682;0,0220113
2827,1326;0,0222095
2828,0967;0,0224193
2829,0610;0,0226319
2830,0251;0,022842
2830,9895;0,0230506
2831,9536;0,0232619
2832,9180;0,0234796
2833,8821;0,0237032
2834,8464;0,0239287
2835,8105;0,0241515
2836,7749;0,0243707
2837,7390;0,0245901
2838,7034;0,0248167
2839,6675;0,0250561
2840,6318;0,0253096
2841,5959;0,0255727
2842,5603;0,0258379
2843,5244;0,0260969
2844,4888;0,0263444
2845,4529;0,0265787
2846,4172;0,0268015
2847,3813;0,0270168
2848,3457;0,0272286
2849,3098;0,0274393
2850,2742;0,027648
2851,2383;0,0278508
2852,2026;0,0280426
2853,1667;0,0282188
2854,1311;0,0283774
2855,0952;0,0285192
2856,0596;0,0286475
2857,0237;0,0287676
2857,9880;0,0288865
2858,9521;0,0290126
2859,9165;0,0291541
2860,8806;0,0293163
2861,8450;0,029499
2862,8091;0,0296963
2863,7734;0,0298991
2864,7375;0,0300997
2865,7019;0,0302942
2866,6660;0,0304832
2867,6304;0,0306678
2868,5945;0,0308471
2869,5588;0,0310166
2870,5229;0,0311708
2871,4873;0,0313066
2872,4514;0,0314253
2873,4158;0,0315313
2874,3799;0,0316288
2875,3442;0,0317191
2876,3083;0,0318011
2877,2727;0,0318733
2878,2368;0,0319369
2879,2012;0,0319954
2880,1653;0,0320536
2881,1296;0,0321146
2882,0938;0,0321795
2883,0581;0,0322468
2884,0222;0,0323146
2884,9866;0,0323803
2885,9507;0,0324416
2886,9150;0,0324956
2887,8792;0,0325402
2888,8435;0,0325745
2889,8076;0,0326002
2890,7720;0,0326206
2891,7361;0,0326394
2892,7004;0,0326595
2893,6646;0,0326828
2894,6289;0,0327107
2895,5930;0,0327443
2896,5574;0,0327837
2897,5215;0,0328267
2898,4858;0,0328686
2899,4500;0,0329028
2900,4143;0,0329234
2901,3784;0,0329283
2902,3428;0,0329203
2903,3069;0,0329064
2904,2712;0,0328951
2905,2354;0,0328933
2906,1997;0,0329037
2907,1638;0,032924
2908,1282;0,0329478
2909,0923;0,0329679
2910,0566;0,0329789
2911,0208;0,0329801
2911,9851;0,0329756
2912,9492;0,032973
2913,9136;0,0329805
2914,8777;0,0330036
2915,8420;0,0330429
2916,8062;0,033094
2917,7705;0,0331479
2918,7346;0,0331935
2919,6990;0,0332205
2920,6631;0,0332224
2921,6274;0,0331984
2922,5916;0,033153
2923,5559;0,0330929
2924,5200;0,0330228
2925,4844;0,0329429
2926,4485;0,0328497
2927,4128;0,0327396
2928,3770;0,0326143
2929,3413;0,0324815
2930,3054;0,0323521
2931,2698;0,0322345
2932,2339;0,0321289
2933,1982;0,0320276
2934,1624;0,0319189
2935,1267;0,031794
2936,0908;0,0316513
2937,0552;0,0314956
2938,0193;0,0313339
2938,9836;0,0311699
2939,9478;0,0310004
2940,9121;0,0308172
2941,8762;0,0306114
2942,8406;0,0303784
2943,8047;0,0301214
2944,7690;0,0298501
2945,7332;0,0295773
2946,6975;0,0293132
2947,6616;0,0290622
2948,6260;0,0288225
2949,5901;0,0285891
2950,5544;0,0283578
2951,5186;0,0281282
2952,4829;0,0279041
2953,4470;0,027691
2954,4114;0,0274929
2955,3755;0,0273098
2956,3398;0,0271379
2957,3040;0,026971
2958,2683;0,0268039
2959,2324;0,0266345
2960,1968;0,0264643
2961,1609;0,0262977
2962,1252;0,0261397
2963,0894;0,0259933
2964,0537;0,0258584
2965,0178;0,0257313
2965,9822;0,0256067
2966,9463;0,0254797
2967,9106;0,0253473
2968,8748;0,0252081
2969,8391;0,0250621
2970,8032;0,0249097
2971,7676;0,0247523
2972,7317;0,0245922
2973,6960;0,0244328
2974,6602;0,0242774
2975,6245;0,0241279
2976,5886;0,0239847
2977,5530;0,0238484
2978,5171;0,0237209
2979,4814;0,0236059
2980,4456;0,0235075
2981,4099;0,0234269
2982,3740;0,0233606
2983,3384;0,0233016
2984,3025;0,0232417
2985,2668;0,0231755
2986,2310;0,0231016
2987,1953;0,0230221
2988,1594;0,0229413
2989,1238;0,0228644
2990,0879;0,0227969
2991,0522;0,022744
2992,0164;0,0227092
2992,9807;0,0226924
2993,9448;0,0226896
2994,9092;0,0226944
2995,8733;0,022702
2996,8376;0,0227112
2997,8018;0,0227242
2998,7661;0,0227425
2999,7302;0,0227645
3000,6946;0,0227843
3001,6587;0,0227958
3002,6230;0,0227975
3003,5872;0,0227952
3004,5515;0,0227997
3005,5156;0,0228197
3006,4800;0,0228558
3007,4441;0,022899
3008,4084;0,0229351
3009,3726;0,0229531
3010,3369;0,0229517
3011,3010;0,0229401
3012,2654;0,0229328
3013,2295;0,0229413
3014,1938;0,0229684
3015,1580;0,0230088
3016,1223;0,0230538
3017,0864;0,0230981
3018,0508;0,0231423
3019,0149;0,0231912
3019,9792;0,0232488
3020,9434;0,0233149
3021,9077;0,0233842
3022,8718;0,0234502
3023,8362;0,0235088
3024,8003;0,0235603
3025,7646;0,0236084
3026,7288;0,0236569
3027,6931;0,0237072
3028,6572;0,0237585
3029,6216;0,0238091
3030,5857;0,0238593
3031,5500;0,0239123
3032,5142;0,0239737
3033,4785;0,0240481
3034,4426;0,0241373
3035,4070;0,0242382
3036,3711;0,0243435
3037,3354;0,0244447
3038,2996;0,0245351
3039,2639;0,0246133
3040,2280;0,0246839
3041,1924;0,0247554
3042,1565;0,0248367
3043,1208;0,0249326
3044,0850;0,0250423
3045,0493;0,0251602
3046,0134;0,0252793
3046,9778;0,0253951
3047,9419;0,025507
3048,9063;0,0256174
3049,8704;0,0257289
3050,8347;0,0258415
3051,7988;0,0259521
3052,7632;0,0260569
3053,7273;0,0261544
3054,6917;0,0262483
3055,6558;0,0263465
3056,6201;0,0264569
3057,5842;0,0265823
3058,5486;0,0267175
3059,5127;0,0268521
3060,4771;0,0269765
3061,4412;0,0270875
3062,4055;0,0271904
3063,3696;0,0272951
3064,3340;0,0274099
3065,2981;0,0275367
3066,2625;0,0276702
3067,2266;0,0278027
3068,1909;0,0279292
3069,1550;0,02805
3070,1194;0,0281699
3071,0835;0,0282944
3072,0479;0,0284262
3073,0120;0,0285646
3073,9763;0,028706
3074,9404;0,0288461
3075,9048;0,0289817
3076,8689;0,0291115
3077,8333;0,029236
3078,7974;0,0293565
3079,7617;0,0294743
3080,7258;0,0295896
3081,6902;0,0297014
3082,6543;0,0298093
3083,6187;0,0299157
3084,5828;0,0300263
3085,5471;0,0301487
3086,5112;0,0302879
3087,4756;0,0304427
3088,4397;0,0306045
3089,4041;0,0307607
3090,3682;0,0309012
3091,3325;0,0310238
3092,2966;0,0311349
3093,2610;0,0312465
3094,2251;0,031369
3095,1895;0,0315063
3096,1536;0,0316548
3097,1179;0,0318061
3098,0820;0,0319526
3099,0464;0,0320908
3100,0105;0,0322228
3100,9749;0,0323544
3101,9390;0,0324912
3102,9033;0,0326359
3103,8674;0,0327867
3104,8318;0,0329389
3105,7959;0,0330873
3106,7603;0,03323
3107,7244;0,0333697
3108,6887;0,0335126
3109,6528;0,0336645
3110,6172;0,0338271
3111,5813;0,0339964
3112,5457;0,0341646
3113,5098;0,0343244
3114,4741;0,0344725
3115,4382;0,034611
3116,4026;0,0347448
3117,3667;0,0348789
3118,3311;0,035016
3119,2952;0,0351564
3120,2595;0,0352994
3121,2236;0,0354448
3122,1880;0,0355941
3123,1521;0,0357493
3124,1165;0,0359118
3125,0806;0,0360814
3126,0449;0,0362551
3127,0090;0,0364281
3127,9734;0,0365955
3128,9375;0,036755
3129,9019;0,0369092
3130,8660;0,0370646
3131,8303;0,0372282
3132,7944;0,0374032
3133,7588;0,0375865
3134,7229;0,0377707
3135,6873;0,0379487
3136,6514;0,0381187
3137,6157;0,0382835
3138,5798;0,0384475
3139,5442;0,0386125
3140,5083;0,0387758
3141,4727;0,0389335
3142,4368;0,0390852
3143,4011;0,0392357
3144,3652;0,0393929
3145,3296;0,0395623
3146,2937;0,0397424
3147,2581;0,039925
3148,2222;0,0401006
3149,1865;0,040264
3150,1506;0,0404178
3151,1150;0,0405701
3152,0791;0,0407301
3153,0435;0,0409022
3154,0076;0,0410853
3154,9719;0,041274
3155,9360;0,0414634
3156,9004;0,0416509
3157,8645;0,041837
3158,8289;0,0420226
3159,7930;0,0422077
3160,7573;0,0423909
3161,7214;0,0425705
3162,6858;0,0427469
3163,6499;0,0429221
3164,6143;0,043098
3165,5784;0,0432736
3166,5427;0,043445
3167,5068;0,0436075
3168,4712;0,0437601
3169,4353;0,0439158
3170,3997;0,0440711
3171,3638;0,044243
3172,3281;0,0444334
3173,2922;0,0446339
3174,2566;0,0448293
3175,2207;0,0450063
3176,1851;0,0451613
3177,1492;0,0453024
3178,1135;0,045444
3179,0776;0,0455976
3180,0420;0,045765
3181,0061;0,0459393
3181,9705;0,0461108
3182,9346;0,0462752
3183,8989;0,0464361
3184,8630;0,0466021
3185,8274;0,0467799
3186,7915;0,0469697
3187,7559;0,047165
3188,7200;0,0473575
3189,6843;0,0475415
3190,6484;0,0477159
3191,6128;0,0478827
3192,5769;0,0480432
3193,5413;0,0481975
3194,5054;0,0483463
3195,4697;0,0484928
3196,4338;0,0486437
3197,3982;0,0488059
3198,3623;0,0489821
3199,3267;0,0491686
3200,2908;0,0493576
3201,2551;0,0495416
3202,2192;0,0497169
3203,1836;0,0498845
3204,1477;0,0500471
3205,1121;0,0502056
3206,0762;0,0503581
3207,0405;0,0505015
3208,0046;0,050634
3208,9690;0,0507578
3209,9331;0,050879
3210,8975;0,0510053
3211,8616;0,0511429
3212,8259;0,0512943
3213,7900;0,0514564
3214,7544;0,0516224
3215,7185;0,0517848
3216,6829;0,051939
3217,6470;0,0520855
3218,6113;0,0522295
3219,5754;0,0523776
3220,5398;0,0525334
3221,5039;0,0526967
3222,4683;0,0528647
3223,4324;0,0530349
3224,3967;0,0532065
3225,3608;0,0533792
3226,3252;0,0535496
3227,2893;0,0537109
3228,2537;0,0538554
3229,2178;0,0539802
3230,1821;0,054091
3231,1462;0,0542009
3232,1106;0,0543242
3233,0747;0,0544686
3234,0391;0,0546315
3235,0032;0,0548012
3235,9675;0,0549636
3236,9316;0,0551091
3237,8960;0,0552369
3238,8601;0,0553535
3239,8245;0,0554686
3240,7886;0,0555898
3241,7529;0,0557192
3242,7170;0,0558537
3243,6814;0,0559886
3244,6455;0,0561214
3245,6099;0,0562537
3246,5740;0,0563895
3247,5383;0,056531
3248,5024;0,0566752
3249,4668;0,0568145
3250,4309;0,056941
3251,3953;0,0570526
3252,3594;0,0571557
3253,3237;0,0572621
3254,2878;0,0573824
3255,2522;0,0575196
3256,2163;0,0576675
3257,1807;0,0578159
3258,1448;0,057957
3259,1091;0,0580894
3260,0732;0,0582173
3261,0376;0,0583461
3262,0017;0,0584784
3262,9661;0,0586129
3263,9302;0,0587469
3264,8945;0,0588795
3265,8586;0,0590119
3266,8230;0,0591459
3267,7871;0,0592807
3268,7515;0,0594112
3269,7156;0,0595284
3270,6799;0,0596235
3271,6440;0,0596919
3272,6084;0,059736
3273,5725;0,059765
3274,5369;0,0597918
3275,5010;0,0598284
3276,4653;0,0598822
3277,4294;0,0599546
3278,3938;0,060042
3279,3579;0,0601379
3280,3223;0,0602351
3281,2864;0,0603276
3282,2507;0,0604117
3283,2148;0,0604863
3284,1792;0,0605531
3285,1433;0,0606157
3286,1077;0,0606773
3287,0718;0,0607392
3288,0361;0,0608005
3289,0002;0,060859
3289,9646;0,0609132
3290,9287;0,0609631
3291,8931;0,0610102
3292,8572;0,0610558
3293,8215;0,0611007
3294,7856;0,0611447
3295,7500;0,0611882
3296,7141;0,0612324
3297,6785;0,0612794
3298,6426;0,0613312
3299,6069;0,0613892
3300,5710;0,0614541
3301,5354;0,0615249
3302,4995;0,0615982
3303,4639;0,0616679
3304,4280;0,0617264
3305,3923;0,0617686
3306,3564;0,0617946
3307,3208;0,0618116
3308,2849;0,0618299
3309,2493;0,0618579
3310,2134;0,0618974
3311,1777;0,0619441
3312,1418;0,0619927
3313,1062;0,062042
3314,0703;0,0620968
3315,0347;0,0621654
3315,9988;0,0622542
3316,9631;0,0623631
3317,9272;0,0624851
3318,8916;0,0626097
3319,8557;0,062728
3320,8201;0,0628358
3321,7842;0,0629348
3322,7485;0,0630291
3323,7126;0,0631216
3324,6770;0,0632108
3325,6411;0,0632911
3326,6055;0,0633573
3327,5696;0,0634096
3328,5339;0,0634564
3329,4980;0,0635103
3330,4624;0,063581
3331,4265;0,063668
3332,3909;0,0637587
3333,3550;0,0638345
3334,3193;0,0638812
3335,2834;0,0638965
3336,2478;0,0638908
3337,2119;0,0638794
3338,1763;0,0638727
3339,1404;0,0638704
3340,1047;0,0638635
3341,0688;0,063842
3342,0332;0,0638015
3342,9973;0,0637462
3343,9617;0,0636856
3344,9258;0,0636283
3345,8901;0,0635779
3346,8542;0,0635318
3347,8186;0,0634844
3348,7827;0,0634305
3349,7471;0,0633677
3350,7112;0,0632963
3351,6755;0,0632183
3352,6396;0,0631359
3353,6040;0,0630523
3354,5681;0,0629717
3355,5325;0,0628984
3356,4966;0,062835
3357,4609;0,0627798
3358,4250;0,062727
3359,3894;0,0626693
3360,3535;0,0626022
3361,3179;0,0625268
3362,2820;0,06245
3363,2463;0,062379
3364,2104;0,0623171
3365,1748;0,0622604
3366,1389;0,0621998
3367,1033;0,062126
3368,0674;0,0620346
3369,0317;0,0619274
3369,9958;0,0618108
3370,9602;0,0616917
3371,9243;0,0615756
3372,8887;0,0614654
3373,8528;0,0613631
3374,8171;0,0612707
3375,7813;0,0611902
3376,7456;0,0611224
3377,7097;0,0610651
3378,6741;0,0610122
3379,6382;0,0609545
3380,6025;0,0608825
3381,5667;0,0607902
3382,5310;0,0606791
3383,4951;0,0605593
3384,4595;0,0604465
3385,4236;0,0603551
3386,3879;0,0602903
3387,3521;0,060245
3388,3164;0,0602016
3389,2805;0,0601406
3390,2449;0,0600491
3391,2090;0,0599268
3392,1733;0,0597853
3393,1375;0,0596426
3394,1018;0,0595142
3395,0659;0,0594073
3396,0303;0,0593197
3396,9944;0,0592416
3397,9587;0,0591597
3398,9229;0,059062
3399,8872;0,0589417
3400,8513;0,0588
3401,8157;0,0586458
3402,7798;0,0584919
3403,7441;0,0583496
3404,7083;0,0582239
3405,6726;0,0581124
3406,6367;0,0580082
3407,6011;0,0579037
3408,5652;0,0577929
3409,5295;0,0576724
3410,4937;0,0575404
3411,4580;0,057397
3412,4221;0,0572446
3413,3865;0,0570879
3414,3506;0,0569308
3415,3149;0,0567733
3416,2791;0,0566105
3417,2434;0,0564358
3418,2075;0,0562463
3419,1719;0,0560468
3420,1360;0,0558489
3421,1003;0,0556637
3422,0645;0,0554955
3423,0288;0,0553399
3423,9929;0,0551879
3424,9573;0,0550327
3425,9214;0,0548723
3426,8857;0,0547091
3427,8499;0,0545452
3428,8142;0,0543805
3429,7783;0,0542114
3430,7427;0,0540337
3431,7068;0,0538453
3432,6711;0,0536486
3433,6353;0,0534498
3434,5996;0,0532557
3435,5637;0,0530701
3436,5281;0,052891
3437,4922;0,0527125
3438,4565;0,0525293
3439,4207;0,0523417
3440,3850;0,0521551
3441,3491;0,0519745
3442,3135;0,0517961
3443,2776;0,0516044
3444,2419;0,0513801
3445,2061;0,051114
3446,1704;0,050819
3447,1345;0,0505275
3448,0989;0,0502732
3449,0630;0,0500706
3450,0273;0,0499085
3450,9915;0,0497604
3451,9558;0,0496026
3452,9199;0,0494262
3453,8843;0,0492375
3454,8484;0,0490482
3455,8127;0,0488637
3456,7769;0,048678
3457,7412;0,0484788
3458,7053;0,0482566
3459,6697;0,0480127
3460,6338;0,0477581
3461,5981;0,0475078
3462,5623;0,0472723
3463,5266;0,0470523
3464,4907;0,0468406
3465,4551;0,0466278
3466,4192;0,0464087
3467,3835;0,046185
3468,3477;0,0459627
3469,3120;0,0457463
3470,2761;0,045534
3471,2405;0,0453195
3472,2046;0,0450986
3473,1689;0,0448756
3474,1331;0,0446636
3475,0974;0,0444754
3476,0615;0,04431
3477,0259;0,0441485
3477,9900;0,0439609
3478,9543;0,0437245
3479,9185;0,0434404
3480,8828;0,0431373
3481,8469;0,0428563
3482,8113;0,0426249
3483,7754;0,0424403
3484,7397;0,0422742
3485,7039;0,0420931
3486,6682;0,0418798
3487,6323;0,0416428
3488,5967;0,0414088
3489,5608;0,0412027
3490,5251;0,041029
3491,4893;0,0408684
3492,4536;0,0406909
3493,4177;0,040476
3494,3821;0,0402298
3495,3462;0,0399843
3496,3105;0,0397774
3497,2747;0,0396242
3498,2390;0,0395008
3499,2031;0,0393538
3500,1675;0,0391297
3501,1316;0,0388107
3502,0959;0,0384343
3503,0601;0,038077
3504,0244;0,0378047
3504,9885;0,0376296
3505,9529;0,0375076
3506,9170;0,0373734
3507,8813;0,0371805
3508,8455;0,0369261
3509,8098;0,0366476
3510,7739;0,0363931
3511,7383;0,0361875
3512,7024;0,0360207
3513,6667;0,0358636
3514,6309;0,035692
3515,5952;0,0355014
3516,5593;0,0353048
3517,5237;0,0351187
3518,4878;0,0349483
3519,4521;0,034784
3520,4163;0,0346088
3521,3806;0,0344098
3522,3447;0,0341846
3523,3091;0,0339385
3524,2732;0,0336764
3525,2375;0,0333986
3526,2017;0,0331061
3527,1660;0,0328103
3528,1301;0,0325356
3529,0945;0,0323093
3530,0586;0,0321434
3531,0229;0,0320243
3531,9871;0,0319179
3532,9514;0,0317853
3533,9155;0,0316004
3534,8799;0,0313624
3535,8440;0,0310982
3536,8083;0,0308503
3537,7725;0,0306558
3538,7368;0,0305291
3539,7009;0,0304548
3540,6653;0,0303926
3541,6294;0,0302871
3542,5938;0,0300855
3543,5579;0,0297636
3544,5222;0,0293499
3545,4863;0,0289225
3546,4507;0,0285645
3547,4148;0,028312
3548,3792;0,0281397
3549,3433;0,0279892
3550,3076;0,0278086
3551,2717;0,0275817
3552,2361;0,0273355
3553,2002;0,0271176
3554,1646;0,0269589
3555,1287;0,0268514
3556,0930;0,0267574
3557,0571;0,0266376
3558,0215;0,0264777
3558,9856;0,0263001
3559,9500;0,0261499
3560,9141;0,0260609
3561,8784;0,0260223
3562,8425;0,0259678
3563,8069;0,025791
3564,7710;0,0253941
3565,7354;0,0247721
3566,6995;0,0240718
3567,6638;0,0235104
3568,6279;0,0232046
3569,5923;0,0231169
3570,5564;0,0231379
3571,5208;0,0231652
3572,4849;0,0231326
3573,4492;0,023016
3574,4133;0,0228294
3575,3777;0,0226064
3576,3418;0,022376
3577,3062;0,0221507
3578,2703;0,0219362
3579,2346;0,0217494
3580,1987;0,0216207
3581,1631;0,021574
3582,1272;0,0215977
3583,0916;0,0216302
3584,0557;0,021568
3585,0200;0,0213067
3585,9841;0,0208219
3586,9485;0,0202353
3587,9126;0,0197539
3588,8770;0,0194991
3589,8411;0,0194333
3590,8054;0,0194336
3591,7695;0,0193806
3592,7339;0,0192061
3593,6980;0,018916
3594,6624;0,0185828
3595,6265;0,0182895
3596,5908;0,0180663
3597,5549;0,0178814
3598,5193;0,017689
3599,4834;0,0174813
3600,4478;0,0173001
3601,4119;0,017199
3602,3762;0,0171923
3603,3403;0,0172378
3604,3047;0,0172592
3605,2688;0,0171855
3606,2332;0,0169892
3607,1973;0,0167072
3608,1616;0,016416
3609,1257;0,016171
3610,0901;0,0159706
3611,0542;0,0157821
3612,0186;0,0155904
3612,9827;0,0154164
3613,9470;0,0152906
3614,9111;0,015211
3615,8755;0,0151212
3616,8396;0,0149327
3617,8040;0,0145876
3618,7681;0,0141275
3619,7324;0,0136969
3620,6965;0,0134462
3621,6609;0,0134335
3622,6250;0,0136204
3623,5894;0,0139172
3624,5535;0,0142029
3625,5178;0,0143222
3626,4819;0,0141097
3627,4463;0,0135034
3628,4104;0,0126889
3629,3748;0,0120082
3630,3389;0,0116427
3631,3032;0,0115277
3632,2673;0,0115205
3633,2317;0,0115195
3634,1958;0,0114824
3635,1602;0,0114115
3636,1243;0,0113296
3637,0886;0,0112554
3638,0527;0,0111914
3639,0171;0,0111335
3639,9812;0,0110896
3640,9456;0,0110894
3641,9097;0,0111717
3642,8740;0,0113572
3643,8381;0,0116191
3644,8025;0,0118594
3645,7666;0,0118949
3646,7310;0,0114945
3647,6951;0,0105643
3648,6594;0,00941818
3649,6235;0,00862138
3650,5879;0,00840036
3651,5520;0,00856401
3652,5164;0,00884618
3653,4805;0,00906279
3654,4448;0,00911236
3655,4089;0,00897991
3656,3733;0,00874621
3657,3374;0,00853664
3658,3018;0,00842604
3659,2659;0,00840102
3660,2302;0,00840504
3661,1943;0,00840134
3662,1587;0,00840438
3663,1228;0,0084648
3664,0872;0,0086195
3665,0513;0,00884351
3666,0156;0,00903877
3666,9797;0,0090693
3667,9441;0,008851
3668,9082;0,00846317
3669,8726;0,00813604
3670,8367;0,00804411
3671,8010;0,00814424
3672,7651;0,00822728
3673,7295;0,00806475
3674,6936;0,00757236
3675,6580;0,00692651
3676,6221;0,0064365
3677,5864;0,00625477
3678,5505;0,00631828
3679,5149;0,00649926
3680,4790;0,00671118
3681,4434;0,00692814
3682,4075;0,00716553
3683,3718;0,00744413
3684,3359;0,00775057
3685,3003;0,00801041
3686,2644;0,00808918
3687,2288;0,00784835
3688,1929;0,00727558
3689,1572;0,00658704
3690,1213;0,00609048
3691,0857;0,00591808
3692,0498;0,00599297
3693,0142;0,00618194
3693,9783;0,00639464
3694,9426;0,00659592
3695,9067;0,00678349
3696,8711;0,00695805
3697,8352;0,0070992
3698,7996;0,00716111
3699,7637;0,00709801
3700,7280;0,00691096
3701,6921;0,00667708
3702,6565;0,00651655
3703,6206;0,00651715
3704,5850;0,00668991
3705,5491;0,00697829
3706,5134;0,00728227
3707,4775;0,00747378
3708,4419;0,00742241
3709,4060;0,00706793
3710,3704;0,00651908
3711,3345;0,00603214
3712,2988;0,0058058
3713,2629;0,0058488
3714,2273;0,0060605
3715,1914;0,00633923
3716,1558;0,00661252
3717,1199;0,00683066
3718,0842;0,00696426
3719,0483;0,00700916
3720,0127;0,00698444
3720,9768;0,00691577
3721,9412;0,00681733
3722,9053;0,00669319
3723,8696;0,0065584
3724,8337;0,00645462
3725,7981;0,00643673
3726,7622;0,00654081
3727,7266;0,00676546
3728,6907;0,00707594
3729,6550;0,00741364
3730,6191;0,00769782
3731,5835;0,00782562
3732,5476;0,00769165
3733,5120;0,00725429
3734,4761;0,00662556
3735,4404;0,0060572
3736,4045;0,00576765
3737,3689;0,00581731
3738,3330;0,00615304
3739,2974;0,006683
3740,2615;0,0072898
3741,2258;0,00781301
3742,1899;0,00806447
3743,1543;0,0079356
3744,1184;0,00754575
3745,0828;0,0071928
3746,0469;0,00707475
3747,0112;0,00714731
3747,9753;0,00721043
3748,9397;0,00704649
3749,9038;0,00658415
3750,8682;0,0060247
3751,8323;0,00568184
3752,7966;0,00566894
3753,7607;0,0058798
3754,7251;0,00615294
3755,6892;0,0063536
3756,6536;0,00639662
3757,6177;0,0062787
3758,5820;0,00609463
3759,5461;0,00597833
3760,5105;0,00600509
3761,4746;0,00615863
3762,4390;0,00637164
3763,4031;0,0065734
3764,3674;0,00671327
3765,3315;0,00676521
3766,2959;0,00672154
3767,2600;0,00658506
3768,2244;0,00637207
3769,1885;0,00612716
3770,1528;0,0059263
3771,1169;0,00584792
3772,0813;0,00592959
3773,0454;0,00614928
3774,0098;0,00643777
3774,9739;0,00670186
3775,9382;0,00684964
3776,9023;0,00682615
3777,8667;0,00665221
3778,8308;0,00642402
3779,7952;0,00624754
3780,7593;0,00616577
3781,7236;0,00615262
3782,6877;0,00615862
3783,6521;0,00615252
3784,6162;0,00613437
3785,5806;0,0061238
3786,5447;0,00614033
3787,5090;0,00619273
3788,4731;0,0062822
3789,4375;0,00640741
3790,4016;0,00656122
3791,3660;0,00672302
3792,3301;0,0068588
3793,2944;0,00693682
3794,2585;0,0069521
3795,2229;0,00693689
3796,1870;0,00693617
3797,1514;0,00696084
3798,1155;0,00696238
3799,0798;0,00686338
3800,0439;0,00663713
3801,0083;0,00636771
3801,9724;0,00619514
3802,9368;0,00618246
3803,9009;0,00626533
3804,8652;0,00631751
3805,8293;0,00624741
3806,7937;0,00607286
3807,7578;0,00592245
3808,7222;0,00593603
3809,6863;0,00616179
3810,6506;0,00654631
3811,6147;0,00697698
3812,5791;0,00732092
3813,5432;0,00747143
3814,5076;0,00741354
3815,4717;0,00724713
3816,4360;0,00709741
3817,4001;0,00699294
3818,3645;0,00685578
3819,3286;0,00660263
3820,2930;0,00625456
3821,2571;0,00594511
3822,2214;0,0057993
3823,1855;0,00583278
3824,1499;0,00597989
3825,1140;0,00616604
3826,0784;0,00634321
3827,0425;0,00649292
3828,0068;0,0066163
3828,9709;0,00672113
3829,9353;0,0068145
3830,8994;0,00690445
3831,8638;0,00700279
3832,8279;0,00711745
3833,7922;0,00723486
3834,7563;0,00730757
3835,7207;0,00726767
3836,6848;0,00707287
3837,6492;0,00675802
3838,6133;0,00643047
3839,5776;0,00619211
3840,5417;0,00607092
3841,5061;0,00603217
3842,4702;0,00603277
3843,4346;0,00606056
3844,3987;0,00614165
3845,3630;0,00632301
3846,3271;0,0066466
3847,2915;0,00712796
3848,2556;0,00773788
3849,2200;0,00837648
3850,1841;0,00884049
3851,1484;0,00883574
3852,1125;0,00816779
3853,0769;0,00708559
3854,0410;0,00618184
3855,0054;0,00577022
3855,9695;0,00577022
3856,9338;0,00601677
3857,8979;0,0063879
3858,8623;0,00678304
3859,8264;0,00709944
3860,7908;0,00724745
3861,7549;0,00720024
3862,7192;0,00703487
3863,6833;0,00689663
3864,6477;0,00689252
3865,6118;0,00702161
3866,5762;0,00719629
3867,5403;0,0073021
3868,5046;0,00725167
3869,4688;0,00702728
3870,4331;0,00669722
3871,3972;0,00638198
3872,3616;0,00618833
3873,3257;0,00616569
3874,2900;0,00630553
3875,2542;0,00655948
3876,2185;0,00685485
3877,1826;0,00710923
3878,1470;0,0072536
3879,1111;0,00726415
3880,0754;0,00717818
3881,0396;0,00706447
3882,0039;0,0069669
3882,9680;0,00688264
3883,9324;0,00679593
3884,8965;0,0067218
3885,8608;0,00670514
3886,8250;0,00677374
3887,7893;0,00689787
3888,7534;0,00699527
3889,7178;0,0069777
3890,6819;0,00682067
3891,6462;0,00660912
3892,6104;0,00648882
3893,5747;0,00655317
3894,5388;0,00679226
3895,5032;0,00712793
3896,4673;0,00746218
3897,4316;0,00770949
3898,3958;0,0078215
3899,3601;0,00779556
3900,3242;0,00765221
3901,2886;0,00740569
3902,2527;0,00707248
3903,2170;0,00670576
3904,1812;0,00639366
3905,1455;0,00620809
3906,1096;0,0061633
3907,0740;0,00622385
3908,0381;0,00633787
3909,0024;0,00646416
3909,9666;0,00658511
3910,9309;0,00670547
3911,8950;0,00683756
3912,8594;0,00698031
3913,8235;0,00710712
3914,7878;0,00717429
3915,7520;0,00714991
3916,7163;0,00704543
3917,6804;0,00691841
3918,6448;0,00683393
3919,6089;0,00681905
3920,5732;0,00685181
3921,5374;0,00688335
3922,5017;0,00687212
3923,4658;0,00681274
3924,4302;0,00674222
3925,3943;0,00671334
3926,3586;0,00675497
3927,3228;0,00685298
3928,2871;0,00695969
3929,2512;0,00701896
3930,2156;0,00699558
3931,1797;0,00689667
3932,1440;0,00676755
3933,1082;0,0066621
3934,0725;0,00661502
3935,0366;0,00663599
3936,0010;0,00671693
3936,9651;0,00683768
3937,9294;0,00696769
3938,8936;0,00707009
3939,8579;0,00711349
3940,8220;0,00708949
3941,7864;0,00702308
3942,7505;0,00696117
3943,7148;0,00694167
3944,6790;0,00696849
3945,6433;0,00701132
3946,6074;0,00702696
3947,5718;0,00698722
3948,5359;0,00689745
3949,5002;0,00679278
3950,4644;0,00671304
3951,4287;0,00667797
3952,3928;0,00668274
3953,3572;0,00671101
3954,3213;0,00674972
3955,2856;0,00679461
3956,2498;0,00684534
3957,2141;0,00689683
3958,1782;0,0069359
3959,1426;0,006947
3960,1067;0,006923
3961,0710;0,00687204
3962,0352;0,00681465
3962,9995;0,00677266
3963,9636;0,00675838
3964,9280;0,00677086
3965,8921;0,00680043
3966,8564;0,00683559
3967,8206;0,00686812
3968,7849;0,00689415
3969,7490;0,00691226
3970,7134;0,00692126
3971,6775;0,00691972
3972,6418;0,00690737
3973,6060;0,00688704
3974,5703;0,00686486
3975,5344;0,00684825
3976,4988;0,00684255
3977,4629;0,00684843
3978,4272;0,00686171
3979,3914;0,00687573
3980,3557;0,00688506
3981,3198;0,00688863
3982,2842;0,00689023
3983,2483;0,00689584
3984,2126;0,0069093
3985,1768;0,00692929
3986,1411;0,00694972
3987,1052;0,00696323
3988,0696;0,0069657
3989,0337;0,00695839
3989,9980;0,00694688
3990,9622;0,00693698
3991,9265;0,00693102
3992,8906;0,00692714
3993,8550;0,00692178
3994,8191;0,00691307
3995,7834;0,00690241
3996,7476;0,00689353
3997,7119;0,00689025
3998,6760;0,00689472
3999,6404;0,00690707
4000,6045;0,00677347

##### Extended Information
[Comments]
Sample name
Comment
Username
Division
Organization;UNIVERSIDAD INDUSTRIAL DE SANTANDER

[Detailed Information]
Creation date;25/02/2025 5:38 p.m.

Data array type;Linear data array
Horizontal axis;Wavenumber [cm-1]
Vertical axis;Abs
Start;399,193 cm-1
End;4000,6 cm-1
Data interval;0,964233 cm-1
Data points;3736    

[Measurement Information]
Model name;FT/IR-4X1typeA
Serial No.;A035162111

Accessory;ATR PRO 4X
Accessory S/N;A021162126
Incident angle;45 deg

Measurement date;25/02/2025 5:29 p.m.

Light source;Standard
Detector;TGS
Accumulation;40
Resolution;4 cm-1
Zero filling;On
Apodization;Cosine
Gain;Auto (8)
Aperture;Auto (7 mm)
Scan speed;Auto (2 mm/sec)
Filter;Auto (12800 Hz)

