TITLE;
DATA TYPE;INFRARED SPECTRUM
ORIGIN;JASCO
OWNER;
DATE;25/02/25
TIME;14:46:07
SPECTROMETER/DATA SYSTEM;
LOCALE;9226
RESOLUTION;
DELTAX;0,964233
XUNITS;1/CM
YUNITS;ABSORBANCE
FIRSTX;  399,1927
LASTX; 4000,6047
NPOINTS;    3736
FIRSTY;     0,14008
MAXY;     0,18890
MINY;     0,01153
XYDATA
399,1927;0,140076
400,1569;0,138017
401,1211;0,136936
402,0854;0,136653
403,0496;0,136798
404,0138;0,137057
404,9781;0,137272
405,9423;0,137459
406,9065;0,137733
407,8708;0,138162
408,8350;0,138661
409,7992;0,138993
410,7635;0,138921
411,7277;0,138396
412,6919;0,13764
413,6562;0,137041
414,6204;0,13695
415,5846;0,137558
416,5489;0,138833
417,5131;0,14046
418,4773;0,141848
419,4416;0,142506
420,4058;0,142528
421,3700;0,142382
422,3343;0,142377
423,2985;0,14251
424,2627;0,142633
425,2270;0,142642
426,1912;0,142585
427,1554;0,14263
428,1197;0,142924
429,0839;0,143459
430,0481;0,144057
431,0124;0,144489
431,9766;0,144633
432,9408;0,144571
433,9051;0,144537
434,8693;0,144743
435,8335;0,145232
436,7978;0,145856
437,7620;0,146405
438,7262;0,14675
439,6905;0,146893
440,6547;0,146897
441,6189;0,146785
442,5832;0,146497
443,5474;0,145949
444,5116;0,145147
445,4759;0,144228
446,4401;0,143401
447,4043;0,14282
448,3686;0,142509
449,3328;0,142378
450,2970;0,142282
451,2613;0,142113
452,2255;0,141852
453,1897;0,141558
454,1540;0,141324
455,1182;0,141223
456,0824;0,141286
457,0467;0,14148
458,0109;0,141715
458,9751;0,141876
459,9394;0,141879
460,9036;0,141703
461,8678;0,141387
462,8321;0,140998
463,7963;0,140612
464,7605;0,140291
465,7248;0,140069
466,6890;0,139942
467,6532;0,139888
468,6175;0,139891
469,5817;0,139953
470,5459;0,140087
471,5102;0,140285
472,4744;0,140505
473,4386;0,140684
474,4029;0,140787
475,3671;0,140823
476,3313;0,14084
477,2956;0,140882
478,2598;0,140969
479,2240;0,141084
480,1883;0,141193
481,1525;0,141274
482,1167;0,141334
483,0810;0,141412
484,0452;0,141556
485,0094;0,141796
485,9737;0,142126
486,9379;0,142521
487,9021;0,142948
488,8664;0,143379
489,8306;0,143778
490,7948;0,144102
491,7591;0,144312
492,7233;0,14439
493,6875;0,144359
494,6518;0,144271
495,6160;0,144184
496,5802;0,144136
497,5445;0,144149
498,5087;0,144243
499,4729;0,144448
500,4372;0,144794
501,4014;0,145276
502,3656;0,145827
503,3299;0,146327
504,2941;0,146657
505,2583;0,146768
506,2226;0,146703
507,1868;0,146586
508,1510;0,146566
509,1153;0,146754
510,0795;0,147178
511,0437;0,147784
512,0080;0,148469
512,9722;0,149131
513,9365;0,149699
514,9007;0,150141
515,8649;0,15046
516,8292;0,150682
517,7934;0,150841
518,7576;0,150966
519,7219;0,151071
520,6861;0,151155
521,6503;0,151207
522,6146;0,151209
523,5788;0,151152
524,5430;0,151037
525,5073;0,150887
526,4715;0,150733
527,4357;0,150595
528,4000;0,150465
529,3642;0,150311
530,3284;0,150103
531,2927;0,149831
532,2569;0,149518
533,2211;0,149207
534,1854;0,148942
535,1496;0,148741
536,1138;0,148597
537,0781;0,148493
538,0423;0,148422
539,0065;0,148395
539,9708;0,148427
540,9350;0,148524
541,8992;0,148677
542,8635;0,148861
543,8277;0,149052
544,7919;0,149235
545,7562;0,149415
546,7204;0,149613
547,6846;0,149855
548,6489;0,150164
549,6131;0,15055
550,5773;0,151007
551,5416;0,151516
552,5058;0,152056
553,4700;0,152609
554,4343;0,153157
555,3985;0,153673
556,3627;0,154107
557,3270;0,154383
558,2912;0,154413
559,2554;0,154128
560,2197;0,153507
561,1839;0,152599
562,1481;0,151512
563,1124;0,150385
564,0766;0,149347
565,0408;0,148482
566,0051;0,147813
566,9693;0,147311
567,9335;0,146921
568,8978;0,146585
569,8620;0,146268
570,8262;0,145955
571,7905;0,145647
572,7547;0,145348
573,7189;0,145059
574,6832;0,14478
575,6474;0,144513
576,6116;0,144267
577,5759;0,144054
578,5401;0,143882
579,5043;0,143754
580,4686;0,143656
581,4328;0,143572
582,3970;0,143485
583,3613;0,143391
584,3255;0,143306
585,2897;0,14326
586,2540;0,143284
587,2182;0,143394
588,1824;0,143574
589,1467;0,143781
590,1109;0,143962
591,0751;0,144072
592,0394;0,144092
593,0036;0,144029
593,9678;0,143905
594,9321;0,143732
595,8963;0,143502
596,8605;0,143203
597,8248;0,142832
598,7890;0,142416
599,7532;0,142009
600,7175;0,14167
601,6817;0,141428
602,6459;0,141266
603,6102;0,141128
604,5744;0,140946
605,5386;0,140675
606,5029;0,140308
607,4671;0,139873
608,4313;0,139411
609,3956;0,138948
610,3598;0,138488
611,3240;0,138015
612,2883;0,137519
613,2525;0,136997
614,2167;0,136452
615,1810;0,13588
616,1452;0,135259
617,1094;0,134556
618,0737;0,13375
619,0379;0,132849
620,0021;0,131891
620,9664;0,130923
621,9306;0,129986
622,8948;0,1291
623,8591;0,128271
624,8233;0,127492
625,7875;0,126758
626,7518;0,126064
627,7160;0,125403
628,6802;0,124775
629,6445;0,124181
630,6087;0,123621
631,5729;0,123093
632,5372;0,122589
633,5014;0,122098
634,4656;0,12161
635,4299;0,121119
636,3941;0,120629
637,3583;0,120148
638,3226;0,119685
639,2868;0,119253
640,2510;0,118858
641,2153;0,118502
642,1795;0,118175
643,1437;0,117858
644,1080;0,117524
645,0722;0,117155
646,0364;0,116746
647,0007;0,116312
647,9649;0,115881
648,9291;0,115488
649,8934;0,11516
650,8576;0,114917
651,8218;0,114765
652,7861;0,114701
653,7503;0,114722
654,7145;0,11482
655,6788;0,114984
656,6430;0,115197
657,6072;0,115427
658,5715;0,115635
659,5357;0,115778
660,4999;0,115831
661,4642;0,115805
662,4284;0,115747
663,3926;0,115706
664,3569;0,115702
665,3211;0,115702
666,2853;0,115589
667,2496;0,11514
668,2138;0,114165
669,1780;0,112833
670,1423;0,111576
671,1065;0,110582
672,0707;0,109735
673,0350;0,108862
673,9992;0,107852
674,9634;0,106691
675,9277;0,10545
676,8919;0,104228
677,8561;0,103097
678,8204;0,102066
679,7846;0,101119
680,7488;0,100246
681,7131;0,0994468
682,6773;0,0987213
683,6415;0,0980546
684,6058;0,0974286
685,5700;0,0968384
686,5342;0,0962995
687,4985;0,095835
688,4627;0,0954563
689,4269;0,0951509
690,3912;0,0948895
691,3554;0,0946431
692,3196;0,0943979
693,2839;0,0941577
694,2481;0,093935
695,2123;0,093737
696,1766;0,0935562
697,1408;0,093369
698,1050;0,0931453
699,0693;0,0928613
700,0335;0,0925112
700,9977;0,0921105
701,9620;0,0916901
702,9262;0,0912836
703,8904;0,0909125
704,8547;0,0905771
705,8189;0,0902558
706,7831;0,0899158
707,7474;0,0895305
708,7116;0,0890935
709,6758;0,0886192
710,6401;0,0881312
711,6043;0,0876457
712,5685;0,0871614
713,5328;0,0866628
714,4970;0,086134
715,4612;0,0855347
716,4255;0,0849555
717,3897;0,0843707
718,3539;0,0837894
719,3182;0,0832106
720,2824;0,0826277
721,2466;0,0820364
722,2109;0,0814376
723,1751;0,0808339
724,1393;0,0802246
725,1036;0,0796059
726,0678;0,0789761
727,0320;0,078341
727,9963;0,0777143
728,9605;0,0771132
729,9247;0,0765507
730,8890;0,0760316
731,8532;0,0755506
732,8174;0,0750957
733,7817;0,0746529
734,7459;0,0742124
735,7101;0,0737747
736,6744;0,0733514
737,6386;0,0729606
738,6028;0,0726152
739,5671;0,0723139
740,5313;0,0720404
741,4955;0,0717714
742,4598;0,0714893
743,4240;0,0711894
744,3882;0,0708766
745,3525;0,0705555
746,3167;0,0702235
747,2809;0,0698713
748,2452;0,0694924
749,2094;0,0690908
750,1736;0,068683
751,1379;0,0682901
752,1021;0,067927
753,0663;0,0675951
754,0306;0,0672834
754,9948;0,066975
755,9590;0,0666564
756,9233;0,0663222
757,8875;0,0659753
758,8517;0,0656238
759,8160;0,0652769
760,7802;0,0649427
761,7444;0,064627
762,7087;0,0643336
763,6729;0,0640619
764,6371;0,063806
765,6014;0,0635536
766,5656;0,0632899
767,5298;0,0630055
768,4941;0,0627035
769,4583;0,0624023
770,4225;0,0621275
771,3868;0,0618977
772,3510;0,0617119
773,3152;0,0615463
774,2795;0,0613655
775,2437;0,0611412
776,2079;0,060867
777,1722;0,0605603
778,1364;0,0602512
779,1006;0,0599654
780,0649;0,0597133
781,0291;0,05949
781,9933;0,0592828
782,9576;0,0590802
783,9218;0,0588761
784,8860;0,058668
785,8503;0,058456
786,8145;0,0582419
787,7787;0,0580309
788,7430;0,0578313
789,7072;0,0576493
790,6714;0,0574841
791,6357;0,0573257
792,5999;0,0571604
793,5641;0,0569796
794,5284;0,0567872
795,4926;0,0565989
796,4568;0,0564327
797,4211;0,0562991
798,3853;0,0561953
799,3495;0,0561085
800,3138;0,0560237
801,2780;0,0559304
802,2422;0,0558242
803,2065;0,0557043
804,1707;0,0555712
805,1349;0,0554277
806,0992;0,0552815
807,0634;0,0551447
808,0276;0,0550286
808,9919;0,0549364
809,9561;0,054859
810,9203;0,0547791
811,8846;0,0546818
812,8488;0,0545651
813,8130;0,0544413
814,7773;0,0543302
815,7415;0,0542478
816,7057;0,0541982
817,6700;0,0541742
818,6342;0,0541634
819,5984;0,0541542
820,5627;0,0541378
821,5269;0,0541071
822,4911;0,054056
823,4554;0,0539818
824,4196;0,0538885
825,3839;0,0537868
826,3481;0,05369
827,3123;0,0536063
828,2766;0,0535346
829,2408;0,0534659
830,2050;0,053389
831,1693;0,0532959
832,1335;0,0531841
833,0977;0,0530542
834,0620;0,052908
835,0262;0,0527479
835,9904;0,0525787
836,9547;0,0524078
837,9189;0,0522425
838,8831;0,052086
839,8474;0,0519349
840,8116;0,051781
841,7758;0,0516174
842,7401;0,0514437
843,7043;0,0512681
844,6685;0,0511034
845,6328;0,0509609
846,5970;0,0508445
847,5612;0,0507485
848,5255;0,0506607
849,4897;0,0505669
850,4539;0,0504574
851,4182;0,050331
852,3824;0,0501961
853,3466;0,0500679
854,3109;0,0499622
855,2751;0,0498884
856,2393;0,049846
857,2036;0,0498254
858,1678;0,0498146
859,1320;0,0498067
860,0963;0,0498043
861,0605;0,0498179
862,0247;0,0498593
862,9890;0,0499344
863,9532;0,0500403
864,9174;0,0501679
865,8817;0,0503074
866,8459;0,0504533
867,8101;0,0506053
868,7744;0,0507656
869,7386;0,0509353
870,7028;0,0511112
871,6671;0,0512855
872,6313;0,0514484
873,5955;0,0515913
874,5598;0,0517114
875,5240;0,051814
876,4882;0,0519129
877,4525;0,0520252
878,4167;0,0521651
879,3809;0,0523373
880,3452;0,0525375
881,3094;0,0527582
882,2736;0,0529985
883,2379;0,0532701
884,2021;0,053595
885,1663;0,0539957
886,1306;0,0544837
887,0948;0,0550525
888,0590;0,0556808
889,0233;0,0563405
889,9875;0,0570064
890,9517;0,0576598
891,9160;0,0582864
892,8802;0,058871
893,8444;0,0593936
894,8087;0,0598304
895,7729;0,0601576
896,7371;0,0603567
897,7014;0,0604178
898,6656;0,0603403
899,6298;0,0601319
900,5941;0,0598074
901,5583;0,059388
902,5225;0,058901
903,4868;0,0583784
904,4510;0,0578525
905,4152;0,0573508
906,3795;0,0568913
907,3437;0,0564813
908,3079;0,0561221
909,2722;0,0558148
910,2364;0,0555652
911,2007;0,055383
912,1649;0,0552755
913,1292;0,0552408
914,0934;0,0552652
915,0576;0,0553277
916,0219;0,0554091
916,9861;0,0554996
917,9503;0,055601
918,9146;0,0557221
919,8788;0,0558711
920,8430;0,0560504
921,8073;0,0562557
922,7715;0,0564778
923,7357;0,056707
924,7000;0,0569343
925,6642;0,0571528
926,6284;0,0573575
927,5927;0,0575457
928,5569;0,0577174
929,5211;0,0578762
930,4854;0,0580288
931,4496;0,0581843
932,4138;0,0583528
933,3781;0,0585426
934,3423;0,0587588
935,3065;0,0590024
936,2708;0,0592719
937,2350;0,0595664
938,1992;0,0598882
939,1635;0,0602434
940,1277;0,0606401
941,0919;0,0610863
942,0562;0,0615872
943,0204;0,0621465
943,9846;0,0627672
944,9489;0,0634523
945,9131;0,0642033
946,8773;0,0650183
947,8416;0,0658916
948,8058;0,0668154
949,7700;0,067784
950,7343;0,0687957
951,6985;0,0698532
952,6627;0,0709604
953,6270;0,0721191
954,5912;0,0733267
955,5554;0,0745767
956,5197;0,0758596
957,4839;0,0771666
958,4481;0,0784907
959,4124;0,0798285
960,3766;0,08118
961,3408;0,0825464
962,3051;0,0839272
963,2693;0,0853184
964,2335;0,0867123
965,1978;0,0881013
966,1620;0,0894824
967,1262;0,0908616
968,0905;0,0922557
969,0547;0,0936913
970,0189;0,0952008
970,9832;0,0968168
971,9474;0,0985661
972,9116;0,100466
973,8759;0,102523
974,8401;0,104736
975,8043;0,107107
976,7686;0,109639
977,7328;0,112335
978,6970;0,115183
979,6613;0,118139
980,6255;0,121122
981,5897;0,124023
982,5540;0,126732
983,5182;0,129165
984,4824;0,131285
985,4467;0,133103
986,4109;0,134662
987,3751;0,136013
988,3394;0,137199
989,3036;0,13825
990,2678;0,139182
991,2321;0,140009
992,1963;0,140744
993,1605;0,141407
994,1248;0,142018
995,0890;0,142601
996,0532;0,14318
997,0175;0,143771
997,9817;0,144385
998,9459;0,145024
999,9102;0,145683
1000,8744;0,146357
1001,8386;0,147049
1002,8029;0,14777
1003,7671;0,148542
1004,7313;0,149396
1005,6956;0,150366
1006,6598;0,151476
1007,6240;0,152744
1008,5883;0,154172
1009,5525;0,155751
1010,5167;0,157463
1011,4810;0,159282
1012,4452;0,161176
1013,4094;0,163107
1014,3737;0,165039
1015,3379;0,166938
1016,3021;0,168777
1017,2664;0,170541
1018,2306;0,172225
1019,1948;0,173828
1020,1591;0,175356
1021,1233;0,176821
1022,0875;0,178237
1023,0518;0,179622
1024,0160;0,180988
1024,9802;0,18234
1025,9445;0,183667
1026,9087;0,184944
1027,8729;0,186134
1028,8372;0,18719
1029,8014;0,188052
1030,7656;0,188649
1031,7299;0,188902
1032,6941;0,188739
1033,6583;0,188115
1034,6226;0,187034
1035,5868;0,185558
1036,5510;0,183806
1037,5153;0,181935
1038,4795;0,18011
1039,4437;0,17848
1040,4080;0,177156
1041,3722;0,176196
1042,3364;0,175602
1043,3007;0,175324
1044,2649;0,175275
1045,2291;0,175355
1046,1934;0,175472
1047,1576;0,175551
1048,1218;0,175537
1049,0861;0,17539
1050,0503;0,175074
1051,0145;0,174558
1051,9788;0,173822
1052,9430;0,172865
1053,9072;0,171699
1054,8715;0,170345
1055,8357;0,16881
1056,7999;0,167072
1057,7642;0,165084
1058,7284;0,162791
1059,6926;0,160157
1060,6569;0,157198
1061,6211;0,153988
1062,5853;0,150648
1063,5496;0,147316
1064,5138;0,144117
1065,4780;0,141138
1066,4423;0,138423
1067,4065;0,135981
1068,3707;0,133793
1069,3350;0,131821
1070,2992;0,130022
1071,2634;0,128344
1072,2277;0,126735
1073,1919;0,125145
1074,1561;0,123533
1075,1204;0,121871
1076,0846;0,120148
1077,0488;0,118372
1078,0131;0,116575
1078,9773;0,114804
1079,9415;0,113112
1080,9058;0,111548
1081,8700;0,110147
1082,8342;0,108922
1083,7985;0,10787
1084,7627;0,106976
1085,7269;0,106217
1086,6912;0,10557
1087,6554;0,105013
1088,6196;0,104531
1089,5839;0,104121
1090,5481;0,103792
1091,5123;0,103558
1092,4766;0,103432
1093,4408;0,103416
1094,4050;0,103503
1095,3693;0,103675
1096,3335;0,103918
1097,2977;0,104217
1098,2620;0,104559
1099,2262;0,104928
1100,1904;0,105299
1101,1547;0,105641
1102,1189;0,105922
1103,0831;0,106116
1104,0474;0,10621
1105,0116;0,106209
1105,9758;0,106127
1106,9401;0,105977
1107,9043;0,105762
1108,8685;0,105462
1109,8328;0,105035
1110,7970;0,104429
1111,7612;0,103605
1112,7255;0,102552
1113,6897;0,101302
1114,6539;0,0999278
1115,6182;0,0985212
1116,5824;0,0971726
1117,5466;0,0959465
1118,5109;0,0948671
1119,4751;0,0939154
1120,4393;0,0930354
1121,4036;0,0921497
1122,3678;0,0911781
1123,3320;0,0900549
1124,2963;0,0887428
1125,2605;0,0872377
1126,2247;0,0855653
1127,1890;0,0837705
1128,1532;0,0819037
1129,1174;0,0800087
1130,0817;0,0781157
1131,0459;0,076243
1132,0101;0,0744039
1132,9744;0,0726168
1133,9386;0,0709114
1134,9028;0,0693294
1135,8671;0,0679164
1136,8313;0,0667126
1137,7955;0,0657446
1138,7598;0,0650227
1139,7240;0,0645423
1140,6882;0,0642878
1141,6525;0,0642339
1142,6167;0,0643466
1143,5809;0,0645859
1144,5452;0,0649116
1145,5094;0,0652924
1146,4736;0,0657124
1147,4379;0,0661713
1148,4021;0,0666771
1149,3663;0,0672351
1150,3306;0,0678406
1151,2948;0,068477
1152,2590;0,0691207
1153,2233;0,0697467
1154,1875;0,070331
1155,1517;0,0708465
1156,1160;0,0712583
1157,0802;0,0715195
1158,0444;0,0715731
1159,0087;0,0713584
1159,9729;0,0708198
1160,9371;0,0699164
1161,9014;0,0686296
1162,8656;0,0669697
1163,8298;0,0649783
1164,7941;0,0627266
1165,7583;0,060308
1166,7225;0,0578253
1167,6868;0,0553767
1168,6510;0,0530427
1169,6152;0,050879
1170,5795;0,048916
1171,5437;0,0471639
1172,5079;0,0456208
1173,4722;0,0442785
1174,4364;0,0431246
1175,4006;0,0421431
1176,3649;0,0413128
1177,3291;0,0406097
1178,2933;0,0400106
1179,2576;0,039497
1180,2218;0,039057
1181,1860;0,0386842
1182,1503;0,0383747
1183,1145;0,0381251
1184,0787;0,0379327
1185,0430;0,0377978
1186,0072;0,0377244
1186,9714;0,0377186
1187,9357;0,0377862
1188,8999;0,0379296
1189,8641;0,0381462
1190,8284;0,0384308
1191,7926;0,0387767
1192,7568;0,0391788
1193,7211;0,039633
1194,6853;0,0401362
1195,6495;0,0406837
1196,6138;0,0412682
1197,5780;0,0418781
1198,5422;0,0424994
1199,5065;0,0430756
1200,4707;0,0436856
1201,4349;0,0442776
1202,3992;0,0448518
1203,3634;0,0454097
1204,3276;0,0459508
1205,2919;0,0464714
1206,2561;0,0469674
1207,2203;0,0474406
1208,1846;0,0479033
1209,1488;0,0483786
1210,1130;0,048895
1211,0773;0,0494775
1212,0415;0,0501392
1213,0057;0,0508778
1213,9700;0,0516779
1214,9342;0,0525176
1215,8984;0,053375
1216,8627;0,0542326
1217,8269;0,0550786
1218,7911;0,0559055
1219,7554;0,0567084
1220,7196;0,0574833
1221,6838;0,0582269
1222,6481;0,0589362
1223,6123;0,0596083
1224,5765;0,0602409
1225,5408;0,060833
1226,5050;0,0613853
1227,4692;0,0619012
1228,4335;0,0623855
1229,3977;0,0628428
1230,3619;0,063275
1231,3262;0,0636786
1232,2904;0,064045
1233,2546;0,0643623
1234,2189;0,0646201
1235,1831;0,0648136
1236,1473;0,0649465
1237,1116;0,0650302
1238,0758;0,0650791
1239,0400;0,0651046
1240,0043;0,0651102
1240,9685;0,0650908
1241,9327;0,0650363
1242,8970;0,0649365
1243,8612;0,0647853
1244,8254;0,0645815
1245,7897;0,0643267
1246,7539;0,0640234
1247,7181;0,0636742
1248,6824;0,0632837
1249,6466;0,0628601
1250,6108;0,0624151
1251,5751;0,0619619
1252,5393;0,0615113
1253,5035;0,0610686
1254,4678;0,0606327
1255,4320;0,0601969
1256,3962;0,0597519
1257,3605;0,0592889
1258,3247;0,0588024
1259,2889;0,0582908
1260,2532;0,0577559
1261,2174;0,0572
1262,1816;0,0566248
1263,1459;0,0560318
1264,1101;0,0554236
1265,0743;0,0548056
1266,0386;0,0541849
1267,0028;0,0535666
1267,9670;0,0529513
1268,9313;0,0523344
1269,8955;0,0517094
1270,8597;0,0510719
1271,8240;0,0504237
1272,7882;0,0497724
1273,7524;0,0491303
1274,7167;0,0485111
1275,6809;0,0479271
1276,6451;0,0473857
1277,6094;0,0468861
1278,5736;0,0464181
1279,5378;0,0459638
1280,5021;0,0455048
1281,4663;0,0450298
1282,4305;0,04454
1283,3948;0,0440484
1284,3590;0,0435742
1285,3232;0,0431358
1286,2875;0,0427458
1287,2517;0,042409
1288,2159;0,0421237
1289,1802;0,041884
1290,1444;0,0416833
1291,1086;0,0415178
1292,0729;0,0413887
1293,0371;0,0413028
1294,0013;0,0412704
1294,9656;0,0413008
1295,9298;0,0413989
1296,8940;0,0415633
1297,8583;0,0417883
1298,8225;0,0420671
1299,7867;0,0423939
1300,7510;0,0427645
1301,7152;0,0431758
1302,6794;0,0436251
1303,6437;0,04411
1304,6079;0,0446293
1305,5721;0,0451816
1306,5364;0,0457638
1307,5006;0,0463696
1308,4648;0,0469905
1309,4291;0,0476172
1310,3933;0,0482393
1311,3575;0,0488445
1312,3218;0,0494154
1313,2860;0,0499304
1314,2502;0,0503659
1315,2145;0,0507009
1316,1787;0,0509204
1317,1429;0,0510185
1318,1072;0,0510013
1319,0714;0,050888
1320,0356;0,0507079
1320,9999;0,0504924
1321,9641;0,0502674
1322,9283;0,0500502
1323,8926;0,0498516
1324,8568;0,0496793
1325,8210;0,0495383
1326,7853;0,0494293
1327,7495;0,0493459
1328,7137;0,0492754
1329,6780;0,0492013
1330,6422;0,0491087
1331,6064;0,0489879
1332,5707;0,0488351
1333,5349;0,0486504
1334,4991;0,0484314
1335,4634;0,0481684
1336,4276;0,0478428
1337,3918;0,0474347
1338,3561;0,0469381
1339,3203;0,0463784
1340,2845;0,0458102
1341,2488;0,0452902
1342,2130;0,0448489
1343,1772;0,0444876
1344,1415;0,0441933
1345,1057;0,0439551
1346,0699;0,0437719
1347,0342;0,0436515
1347,9984;0,0436061
1348,9626;0,0436446
1349,9269;0,0437672
1350,8911;0,0439628
1351,8553;0,0442128
1352,8196;0,0444989
1353,7838;0,044811
1354,7480;0,0451512
1355,7123;0,0455295
1356,6765;0,0459537
1357,6407;0,0464219
1358,6050;0,0469208
1359,5692;0,0474285
1360,5334;0,047917
1361,4977;0,0483572
1362,4619;0,0487319
1363,4261;0,0490494
1364,3904;0,0493365
1365,3546;0,0496168
1366,3188;0,0498965
1367,2831;0,0501655
1368,2473;0,0504051
1369,2115;0,0505937
1370,1758;0,0507095
1371,1400;0,0507296
1372,1042;0,0506305
1373,0685;0,0503962
1374,0327;0,050035
1374,9969;0,0495856
1375,9612;0,0490949
1376,9254;0,0485794
1377,8896;0,0480152
1378,8539;0,0473649
1379,8181;0,0466182
1380,7823;0,0458122
1381,7466;0,0450122
1382,7108;0,0442669
1383,6750;0,0435748
1384,6393;0,0428908
1385,6035;0,0421662
1386,5677;0,0414021
1387,5320;0,0406734
1388,4962;0,0400818
1389,4604;0,0396751
1390,4247;0,0394239
1391,3889;0,0392615
1392,3531;0,0391292
1393,3174;0,0389961
1394,2816;0,0388582
1395,2458;0,0387285
1396,2101;0,0386222
1397,1743;0,0385508
1398,1385;0,0385229
1399,1028;0,0385479
1400,0670;0,0386305
1401,0313;0,0387639
1401,9955;0,0389295
1402,9597;0,0391063
1403,9240;0,0392837
1404,8882;0,0394689
1405,8524;0,0396829
1406,8167;0,0399438
1407,7809;0,0402535
1408,7451;0,0406004
1409,7094;0,0409747
1410,6736;0,0413789
1411,6378;0,0418238
1412,6021;0,0423152
1413,5663;0,0428425
1414,5305;0,0433814
1415,4948;0,0439033
1416,4590;0,0443825
1417,4232;0,0447966
1418,3875;0,0451347
1419,3517;0,0454123
1420,3159;0,0456565
1421,2802;0,0458667
1422,2444;0,0460078
1423,2086;0,0460414
1424,1729;0,045955
1425,1371;0,0457638
1426,1013;0,0454869
1427,0656;0,0451217
1428,0298;0,0446465
1428,9940;0,044055
1429,9583;0,0433936
1430,9225;0,0427488
1431,8867;0,0421819
1432,8510;0,041678
1433,8152;0,0411544
1434,7794;0,0405162
1435,7437;0,0397376
1436,7079;0,0389315
1437,6721;0,0382962
1438,6364;0,037946
1439,6006;0,0378431
1440,5648;0,0378832
1441,5291;0,0379856
1442,4933;0,0381171
1443,4575;0,0382755
1444,4218;0,0384638
1445,3860;0,0386761
1446,3502;0,0388989
1447,3145;0,0391246
1448,2787;0,039361
1449,2429;0,0396257
1450,2072;0,0399262
1451,1714;0,0402468
1452,1356;0,0405525
1453,0999;0,0408028
1454,0641;0,0409548
1455,0283;0,0409522
1455,9926;0,0407228
1456,9568;0,0402753
1457,9210;0,0398259
1458,8853;0,0396073
1459,8495;0,0396112
1460,8137;0,0396807
1461,7780;0,0396623
1462,7422;0,0394443
1463,7064;0,0389681
1464,6707;0,0382699
1465,6349;0,0374953
1466,5991;0,0367975
1467,5634;0,0362132
1468,5276;0,0356639
1469,4918;0,0350263
1470,4561;0,0341807
1471,4203;0,0330482
1472,3845;0,0316679
1473,3488;0,0302578
1474,3130;0,0290831
1475,2772;0,0282391
1476,2415;0,0276515
1477,2057;0,0272126
1478,1699;0,0268534
1479,1342;0,0265426
1480,0984;0,0262698
1481,0626;0,0260371
1482,0269;0,025857
1482,9911;0,025746
1483,9553;0,0257124
1484,9196;0,0257476
1485,8838;0,025826
1486,8480;0,0259104
1487,8123;0,0259634
1488,7765;0,0259776
1489,7407;0,0260078
1490,7050;0,0261376
1491,6692;0,0264009
1492,6334;0,026771
1493,5977;0,027206
1494,5619;0,0276796
1495,5261;0,0281822
1496,4904;0,0287075
1497,4546;0,0292484
1498,4188;0,0298073
1499,3831;0,0303903
1500,3473;0,0309821
1501,3115;0,0315442
1502,2758;0,0320349
1503,2400;0,032426
1504,2042;0,0326973
1505,1685;0,0328021
1506,1327;0,0326266
1507,0969;0,0321139
1508,0612;0,0315012
1509,0254;0,031072
1509,9896;0,0308383
1510,9539;0,0306797
1511,9181;0,0305007
1512,8823;0,0302533
1513,8466;0,0299204
1514,8108;0,029505
1515,7750;0,0290291
1516,7393;0,028526
1517,7035;0,028018
1518,6677;0,0274983
1519,6320;0,0269435
1520,5962;0,0263538
1521,5604;0,0257841
1522,5247;0,0253141
1523,4889;0,0249811
1524,4531;0,0247618
1525,4174;0,0246143
1526,3816;0,0245205
1527,3458;0,0244881
1528,3101;0,0245213
1529,2743;0,0246002
1530,2385;0,024686
1531,2028;0,0247422
1532,1670;0,0247592
1533,1312;0,0247689
1534,0955;0,0248273
1535,0597;0,0249631
1536,0239;0,025152
1536,9882;0,0253422
1537,9524;0,0254848
1538,9166;0,0255333
1539,8809;0,0254352
1540,8451;0,0252106
1541,8093;0,0250322
1542,7736;0,0250322
1543,7378;0,0251706
1544,7020;0,0253617
1545,6663;0,025561
1546,6305;0,0257579
1547,5947;0,0259474
1548,5590;0,0261173
1549,5232;0,0262549
1550,4874;0,0263629
1551,4517;0,0264651
1552,4159;0,0265921
1553,3801;0,026753
1554,3444;0,0269206
1555,3086;0,0270358
1556,2728;0,0270118
1557,2371;0,0267397
1558,2013;0,0262079
1559,1655;0,0257282
1560,1298;0,0256719
1561,0940;0,0260074
1562,0582;0,026502
1563,0225;0,0269905
1563,9867;0,0274023
1564,9509;0,0277182
1565,9152;0,0279413
1566,8794;0,0280886
1567,8436;0,0281969
1568,8079;0,028326
1569,7721;0,0285343
1570,7363;0,028837
1571,7006;0,0291974
1572,6648;0,0295616
1573,6290;0,0298942
1574,5933;0,0301908
1575,5575;0,0304742
1576,5217;0,0307864
1577,4860;0,0311691
1578,4502;0,0316338
1579,4144;0,0321571
1580,3787;0,0327088
1581,3429;0,0332714
1582,3071;0,0338403
1583,2714;0,0344161
1584,2356;0,0350017
1585,1998;0,0356017
1586,1641;0,0362194
1587,1283;0,0368497
1588,0925;0,0374748
1589,0568;0,0380661
1590,0210;0,038592
1590,9852;0,0390248
1591,9495;0,0393431
1592,9137;0,039532
1593,8779;0,0395872
1594,8422;0,0395208
1595,8064;0,0393618
1596,7706;0,0391453
1597,7349;0,0388994
1598,6991;0,0386385
1599,6633;0,0383682
1600,6276;0,0380941
1601,5918;0,0378295
1602,5560;0,0375938
1603,5203;0,0374038
1604,4845;0,0372602
1605,4487;0,0371433
1606,4130;0,0370212
1607,3772;0,0368709
1608,3414;0,0367011
1609,3057;0,0365566
1610,2699;0,0364899
1611,2341;0,0365187
1612,1984;0,0366127
1613,1626;0,036712
1614,1268;0,036756
1615,0911;0,0367134
1616,0553;0,0366181
1617,0195;0,0365726
1617,9838;0,0366632
1618,9480;0,0368769
1619,9122;0,0371319
1620,8765;0,0373496
1621,8407;0,0374915
1622,8049;0,037566
1623,7692;0,037617
1624,7334;0,0376897
1625,6976;0,0377988
1626,6619;0,037932
1627,6261;0,0380792
1628,5903;0,0382489
1629,5546;0,0384543
1630,5188;0,0386903
1631,4830;0,0389255
1632,4473;0,0391116
1633,4115;0,0391913
1634,3757;0,0391094
1635,3400;0,0388671
1636,3042;0,0385958
1637,2684;0,0384731
1638,2327;0,0385435
1639,1969;0,0387323
1640,1611;0,0389566
1641,1254;0,039168
1642,0896;0,039341
1643,0538;0,0394501
1644,0181;0,0394551
1644,9823;0,0393096
1645,9465;0,0390201
1646,9108;0,0387117
1647,8750;0,0385436
1648,8392;0,0385406
1649,8035;0,0385849
1650,7677;0,0384974
1651,7319;0,0380745
1652,6962;0,0372068
1653,6604;0,0361963
1654,6246;0,0355917
1655,5889;0,0354939
1656,5531;0,0356367
1657,5173;0,0357833
1658,4816;0,0358142
1659,4458;0,0356789
1660,4100;0,0353606
1661,3743;0,0348867
1662,3385;0,0343546
1663,3027;0,0338972
1664,2670;0,0335879
1665,2312;0,0333987
1666,1954;0,0332366
1667,1597;0,0329932
1668,1239;0,032587
1669,0881;0,0320208
1670,0524;0,0314125
1671,0166;0,0309045
1671,9808;0,0305293
1672,9451;0,0302056
1673,9093;0,0298389
1674,8735;0,0294111
1675,8378;0,029004
1676,8020;0,028733
1677,7662;0,0286433
1678,7305;0,0286813
1679,6947;0,028741
1680,6589;0,0287041
1681,6232;0,0284473
1682,5874;0,0278695
1683,5516;0,0270212
1684,5159;0,0262025
1685,4801;0,0257059
1686,4443;0,0255342
1687,4086;0,0255213
1688,3728;0,0255308
1689,3370;0,0255108
1690,3013;0,0254684
1691,2655;0,0254308
1692,2297;0,0254161
1693,1940;0,0254225
1694,1582;0,0254299
1695,1224;0,0254047
1696,0867;0,0253092
1697,0509;0,0251196
1698,0151;0,0248544
1698,9794;0,024592
1699,9436;0,0244438
1700,9078;0,0244829
1701,8721;0,0246976
1702,8363;0,0250162
1703,8005;0,0253606
1704,7648;0,0256816
1705,7290;0,0259698
1706,6932;0,0262498
1707,6575;0,0265607
1708,6217;0,0269313
1709,5859;0,0273673
1710,5502;0,027857
1711,5144;0,0283799
1712,4786;0,0289103
1713,4429;0,0294175
1714,4071;0,0298642
1715,3713;0,0302109
1716,3356;0,030444
1717,2998;0,0306231
1718,2640;0,0308619
1719,2283;0,031224
1720,1925;0,0316846
1721,1567;0,0321824
1722,1210;0,0326636
1723,0852;0,0330947
1724,0494;0,0334629
1725,0137;0,0337772
1725,9779;0,0340627
1726,9421;0,0343472
1727,9064;0,0346431
1728,8706;0,0349357
1729,8348;0,0351799
1730,7991;0,0353005
1731,7633;0,035207
1732,7275;0,0348515
1733,6918;0,0343241
1734,6560;0,0338341
1735,6202;0,033517
1736,5845;0,033334
1737,5487;0,0331594
1738,5129;0,0328871
1739,4772;0,0324786
1740,4414;0,0319705
1741,4056;0,0314411
1742,3699;0,0309491
1743,3341;0,0304966
1744,2983;0,0300472
1745,2626;0,0295614
1746,2268;0,0290076
1747,1910;0,0283495
1748,1553;0,027544
1749,1195;0,0265845
1750,0837;0,0255595
1751,0480;0,0246251
1752,0122;0,0238884
1752,9764;0,0233429
1753,9407;0,0229074
1754,9049;0,0224943
1755,8691;0,0220545
1756,8334;0,0215852
1757,7976;0,0211065
1758,7618;0,0206268
1759,7261;0,0201296
1760,6903;0,0195991
1761,6545;0,0190567
1762,6188;0,0185639
1763,5830;0,0181806
1764,5472;0,0179216
1765,5115;0,0177542
1766,4757;0,0176271
1767,4399;0,0174954
1768,4042;0,0173275
1769,3684;0,0170986
1770,3326;0,016788
1771,2969;0,0163995
1772,2611;0,0159938
1773,2253;0,0156736
1774,1896;0,0155101
1775,1538;0,0154941
1776,1180;0,0155594
1777,0823;0,0156317
1778,0465;0,0156584
1779,0107;0,0156202
1779,9750;0,0155303
1780,9392;0,0154196
1781,9034;0,0153153
1782,8677;0,0152303
1783,8319;0,0151701
1784,7961;0,0151441
1785,7604;0,0151649
1786,7246;0,0152351
1787,6888;0,0153377
1788,6531;0,0154373
1789,6173;0,0154889
1790,5815;0,0154527
1791,5458;0,0153213
1792,5100;0,0151458
1793,4742;0,0150116
1794,4385;0,01497
1795,4027;0,0150079
1796,3669;0,0150773
1797,3312;0,0151323
1798,2954;0,0151461
1799,2596;0,0151152
1800,2239;0,0150567
1801,1881;0,0149974
1802,1523;0,0149578
1803,1166;0,0149434
1804,0808;0,0149478
1805,0450;0,0149618
1806,0093;0,0149787
1806,9735;0,0149944
1807,9377;0,015005
1808,9020;0,0150054
1809,8662;0,0149922
1810,8304;0,0149683
1811,7947;0,0149432
1812,7589;0,0149267
1813,7231;0,0149215
1814,6874;0,0149217
1815,6516;0,0149182
1816,6158;0,0149064
1817,5801;0,0148908
1818,5443;0,0148826
1819,5085;0,0148911
1820,4728;0,0149165
1821,4370;0,0149503
1822,4012;0,0149831
1823,3655;0,0150122
1824,3297;0,0150414
1825,2939;0,0150733
1826,2582;0,0150979
1827,2224;0,0150918
1828,1866;0,0150318
1829,1509;0,014918
1830,1151;0,0147876
1831,0793;0,0146959
1832,0436;0,0146753
1833,0078;0,0147149
1833,9720;0,0147767
1834,9363;0,0148251
1835,9005;0,0148467
1836,8647;0,0148553
1837,8290;0,0148788
1838,7932;0,014935
1839,7574;0,0150178
1840,7217;0,0151007
1841,6859;0,0151508
1842,6501;0,015142
1843,6144;0,0150696
1844,5786;0,0149606
1845,5428;0,01486
1846,5071;0,0147969
1847,4713;0,014769
1848,4355;0,0147577
1849,3998;0,0147465
1850,3640;0,01473
1851,3282;0,014711
1852,2925;0,0146956
1853,2567;0,0146883
1854,2209;0,0146926
1855,1852;0,0147123
1856,1494;0,0147508
1857,1136;0,014808
1858,0779;0,0148765
1859,0421;0,0149422
1860,0063;0,0149912
1860,9706;0,0150182
1861,9348;0,01503
1862,8990;0,0150408
1863,8633;0,0150618
1864,8275;0,015093
1865,7917;0,0151205
1866,7560;0,0151205
1867,7202;0,0150741
1868,6844;0,0149883
1869,6487;0,0149011
1870,6129;0,0148534
1871,5771;0,0148587
1872,5414;0,0149001
1873,5056;0,0149474
1874,4698;0,0149743
1875,4341;0,0149685
1876,3983;0,0149361
1877,3625;0,014896
1878,3268;0,0148683
1879,2910;0,0148643
1880,2552;0,0148829
1881,2195;0,0149167
1882,1837;0,0149587
1883,1479;0,0150059
1884,1122;0,0150562
1885,0764;0,0151044
1886,0406;0,0151397
1887,0049;0,0151493
1887,9691;0,0151252
1888,9333;0,0150717
1889,8976;0,0150046
1890,8618;0,0149421
1891,8260;0,014894
1892,7903;0,0148606
1893,7545;0,0148411
1894,7188;0,0148407
1895,6830;0,0148707
1896,6472;0,014937
1897,6115;0,0150297
1898,5757;0,0151222
1899,5399;0,0151835
1900,5042;0,0151958
1901,4684;0,0151659
1902,4326;0,0151234
1903,3969;0,015104
1904,3611;0,0151284
1905,3253;0,0151895
1906,2896;0,0152578
1907,2538;0,0152988
1908,2180;0,0152933
1909,1823;0,0152496
1910,1465;0,0151984
1911,1107;0,0151726
1912,0750;0,015186
1913,0392;0,0152258
1914,0034;0,0152608
1914,9677;0,015257
1915,9319;0,0151947
1916,8961;0,0150836
1917,8604;0,014966
1918,8246;0,0148994
1919,7888;0,0149237
1920,7531;0,0150388
1921,7173;0,0152023
1922,6815;0,0153461
1923,6458;0,0154053
1924,6100;0,0153514
1925,5742;0,0152083
1926,5385;0,0150392
1927,5027;0,0149142
1928,4669;0,0148787
1929,4312;0,0149353
1930,3954;0,0150446
1931,3596;0,0151467
1932,3239;0,0151941
1933,2881;0,015176
1934,2523;0,015119
1935,2166;0,0150669
1936,1808;0,0150523
1937,1450;0,0150788
1938,1093;0,0151224
1939,0735;0,0151489
1940,0377;0,0151342
1941,0020;0,015078
1941,9662;0,0150048
1942,9304;0,0149509
1943,8947;0,0149416
1944,8589;0,0149766
1945,8231;0,0150336
1946,7874;0,0150841
1947,7516;0,0151075
1948,7158;0,0150955
1949,6801;0,0150498
1950,6443;0,0149775
1951,6085;0,0148913
1952,5728;0,0148147
1953,5370;0,014783
1954,5012;0,0148316
1955,4655;0,0149713
1956,4297;0,0151646
1957,3939;0,0153268
1958,3582;0,0153634
1959,3224;0,0152282
1960,2866;0,014967
1961,2509;0,0147064
1962,2151;0,0145845
1963,1793;0,0146668
1964,1436;0,0149059
1965,1078;0,0151684
1966,0720;0,015312
1967,0363;0,0152683
1968,0005;0,0150773
1968,9647;0,0148455
1969,9290;0,0146654
1970,8932;0,0145656
1971,8574;0,01452
1972,8217;0,014494
1973,7859;0,0144852
1974,7501;0,014527
1975,7144;0,014658
1976,6786;0,014882
1977,6428;0,0151549
1978,6071;0,0154096
1979,5713;0,0155926
1980,5355;0,0156817
1981,4998;0,0156799
1982,4640;0,015603
1983,4282;0,0154768
1984,3925;0,0153402
1985,3567;0,0152412
1986,3209;0,0152196
1987,2852;0,0152877
1988,2494;0,0154245
1989,2136;0,0155885
1990,1779;0,0157425
1991,1421;0,0158687
1992,1063;0,0159666
1993,0706;0,0160363
1994,0348;0,0160666
1994,9990;0,0160411
1995,9633;0,0159531
1996,9275;0,0158151
1997,8917;0,0156543
1998,8560;0,0154971
1999,8202;0,0153601
2000,7844;0,0152544
2001,7487;0,0151985
2002,7129;0,0152232
2003,6771;0,0153556
2004,6414;0,0155935
2005,6056;0,0158905
2006,5698;0,0161724
2007,5341;0,0163778
2008,4983;0,01649
2009,4625;0,016534
2010,4268;0,0165452
2011,3910;0,0165436
2012,3552;0,0165342
2013,3195;0,0165246
2014,2837;0,0165344
2015,2479;0,0165832
2016,2122;0,0166661
2017,1764;0,0167444
2018,1406;0,0167674
2019,1049;0,0167098
2020,0691;0,0165907
2021,0333;0,0164577
2021,9976;0,0163521
2022,9618;0,0162834
2023,9260;0,0162303
2024,8903;0,0161636
2025,8545;0,0160684
2026,8187;0,0159514
2027,7830;0,0158312
2028,7472;0,0157271
2029,7114;0,0156573
2030,6757;0,0156421
2031,6399;0,0157041
2032,6041;0,0158562
2033,5684;0,0160884
2034,5326;0,0163651
2035,4968;0,0166379
2036,4611;0,0168653
2037,4253;0,0170232
2038,3895;0,017104
2039,3538;0,0171105
2040,3180;0,0170539
2041,2822;0,0169557
2042,2465;0,016848
2043,2107;0,0167643
2044,1749;0,016727
2045,1392;0,0167388
2046,1034;0,0167871
2047,0676;0,0168557
2048,0320;0,0169367
2048,9961;0,0170288
2049,9604;0,0171256
2050,9246;0,0172067
2051,8889;0,0172416
2052,8530;0,0172078
2053,8174;0,0171111
2054,7815;0,0169931
2055,7458;0,0169162
2056,7100;0,0169294
2057,6743;0,0170376
2058,6384;0,0171961
2059,6028;0,0173363
2060,5669;0,0174037
2061,5313;0,0173859
2062,4954;0,0173115
2063,4597;0,0172263
2064,4238;0,0171633
2065,3882;0,0171274
2066,3523;0,0171026
2067,3167;0,017071
2068,2808;0,017026
2069,2451;0,0169719
2070,2092;0,0169149
2071,1736;0,0168564
2072,1377;0,0167968
2073,1021;0,0167435
2074,0662;0,0167156
2075,0305;0,0167367
2075,9946;0,0168196
2076,9590;0,0169524
2077,9231;0,0170968
2078,8875;0,017202
2079,8516;0,0172259
2080,8159;0,0171541
2081,7800;0,017005
2082,7444;0,0168224
2083,7085;0,0166592
2084,6729;0,0165604
2085,6370;0,0165507
2086,6013;0,0166298
2087,5654;0,0167733
2088,5298;0,0169405
2089,4939;0,017087
2090,4583;0,0171803
2091,4224;0,0172123
2092,3867;0,0172016
2093,3508;0,0171829
2094,3152;0,017186
2095,2793;0,0172176
2096,2437;0,0172563
2097,2078;0,0172691
2098,1721;0,0172357
2099,1362;0,0171637
2100,1006;0,0170836
2101,0647;0,0170267
2102,0291;0,0170064
2102,9932;0,017013
2103,9575;0,0170281
2104,9216;0,0170428
2105,8860;0,0170653
2106,8501;0,0171106
2107,8145;0,0171822
2108,7786;0,0172614
2109,7429;0,0173152
2110,7070;0,0173171
2111,6714;0,0172655
2112,6355;0,017186
2113,5999;0,0171154
2114,5640;0,0170803
2115,5283;0,0170854
2116,4924;0,0171152
2117,4568;0,0171486
2118,4209;0,0171709
2119,3853;0,0171791
2120,3494;0,017177
2121,3137;0,0171686
2122,2778;0,0171551
2123,2422;0,017138
2124,2063;0,0171223
2125,1707;0,0171177
2126,1348;0,0171319
2127,0991;0,0171645
2128,0632;0,0172052
2129,0276;0,0172415
2129,9917;0,0172711
2130,9561;0,0173102
2131,9202;0,0173884
2132,8845;0,0175307
2133,8486;0,0177347
2134,8130;0,0179611
2135,7771;0,0181471
2136,7415;0,018239
2137,7056;0,01822
2138,6699;0,0181159
2139,6340;0,0179768
2140,5984;0,017851
2141,5625;0,0177701
2142,5269;0,0177511
2143,4910;0,0178046
2144,4553;0,0179368
2145,4194;0,0181391
2146,3838;0,0183746
2147,3479;0,018581
2148,3123;0,0186951
2149,2764;0,018689
2150,2407;0,0185923
2151,2048;0,018483
2152,1692;0,0184506
2153,1333;0,0185535
2154,0977;0,0187952
2155,0618;0,0191278
2156,0261;0,0194752
2156,9902;0,0197603
2157,9546;0,0199276
2158,9187;0,0199554
2159,8831;0,0198558
2160,8472;0,019664
2161,8115;0,0194252
2162,7756;0,0191857
2163,7400;0,018987
2164,7041;0,018858
2165,6685;0,0188062
2166,6326;0,018815
2167,5969;0,0188492
2168,5610;0,0188709
2169,5254;0,0188551
2170,4895;0,0187974
2171,4539;0,0187124
2172,4180;0,0186237
2173,3823;0,0185534
2174,3464;0,0185141
2175,3108;0,0185068
2176,2749;0,0185234
2177,2393;0,0185519
2178,2034;0,0185825
2179,1677;0,0186133
2180,1318;0,0186511
2181,0962;0,0187062
2182,0603;0,0187776
2183,0247;0,0188377
2183,9888;0,0188314
2184,9531;0,0186973
2185,9172;0,0184044
2186,8816;0,0179826
2187,8457;0,0175226
2188,8101;0,0171409
2189,7742;0,0169256
2190,7385;0,0168976
2191,7026;0,0170094
2192,6670;0,0171829
2193,6311;0,0173561
2194,5955;0,0175087
2195,5596;0,0176507
2196,5239;0,0177888
2197,4880;0,0179009
2198,4524;0,0179403
2199,4165;0,0178683
2200,3809;0,0176884
2201,3450;0,0174547
2202,3093;0,0172474
2203,2734;0,0171309
2204,2378;0,017124
2205,2019;0,0172003
2206,1663;0,0173143
2207,1304;0,0174319
2208,0947;0,0175429
2209,0588;0,0176506
2210,0232;0,0177515
2210,9873;0,0178242
2211,9517;0,017839
2212,9158;0,0177806
2213,8801;0,0176651
2214,8442;0,0175381
2215,8086;0,0174523
2216,7727;0,0174392
2217,7371;0,0174929
2218,7012;0,0175761
2219,6655;0,0176419
2220,6296;0,0176574
2221,5940;0,0176164
2222,5581;0,0175368
2223,5225;0,0174487
2224,4866;0,0173802
2225,4509;0,0173483
2226,4150;0,0173572
2227,3794;0,0174016
2228,3435;0,0174719
2229,3079;0,0175578
2230,2720;0,0176486
2231,2363;0,0177311
2232,2004;0,0177897
2233,1648;0,0178108
2234,1289;0,0177908
2235,0933;0,0177426
2236,0574;0,0176922
2237,0217;0,0176649
2237,9858;0,017669
2238,9502;0,0176871
2239,9143;0,0176847
2240,8787;0,0176309
2241,8428;0,0175185
2242,8071;0,0173692
2243,7712;0,0172209
2244,7356;0,0171074
2245,6997;0,0170431
2246,6641;0,0170216
2247,6282;0,0170249
2248,5925;0,0170345
2249,5566;0,0170373
2250,5210;0,017028
2251,4851;0,0170109
2252,4495;0,0170023
2253,4136;0,0170284
2254,3779;0,0171136
2255,3420;0,0172635
2256,3064;0,0174526
2257,2705;0,017629
2258,2349;0,017737
2259,1990;0,0177443
2260,1633;0,0176571
2261,1274;0,0175153
2262,0918;0,0173699
2263,0559;0,0172589
2264,0203;0,0171947
2264,9844;0,0171677
2265,9487;0,0171594
2266,9128;0,0171552
2267,8772;0,0171495
2268,8413;0,0171432
2269,8057;0,0171401
2270,7698;0,0171427
2271,7341;0,0171516
2272,6982;0,0171648
2273,6626;0,0171778
2274,6267;0,0171853
2275,5911;0,0171839
2276,5552;0,0171746
2277,5195;0,0171636
2278,4836;0,0171586
2279,4480;0,017165
2280,4121;0,0171836
2281,3765;0,0172121
2282,3406;0,0172487
2283,3049;0,0172945
2284,2690;0,0173516
2285,2334;0,0174194
2286,1975;0,0174906
2287,1619;0,0175523
2288,1260;0,0175908
2289,0903;0,017599
2290,0544;0,0175803
2291,0188;0,017549
2291,9829;0,0175253
2292,9473;0,017529
2293,9114;0,0175729
2294,8757;0,0176586
2295,8398;0,0177747
2296,8042;0,0178994
2297,7683;0,0180065
2298,7327;0,0180752
2299,6968;0,0180982
2300,6611;0,0180858
2301,6252;0,0180614
2302,5896;0,0180511
2303,5537;0,0180723
2304,5181;0,0181279
2305,4822;0,0182075
2306,4465;0,0182944
2307,4106;0,0183731
2308,3750;0,0184342
2309,3391;0,0184757
2310,3035;0,0185008
2311,2676;0,018515
2312,2319;0,0185236
2313,1960;0,0185298
2314,1604;0,0185329
2315,1245;0,0185287
2316,0889;0,0185123
2317,0530;0,0184819
2318,0173;0,0184423
2318,9814;0,0184032
2319,9458;0,0183761
2320,9099;0,0183677
2321,8743;0,0183772
2322,8384;0,0183964
2323,8027;0,0184127
2324,7668;0,0184104
2325,7312;0,0183737
2326,6953;0,0182911
2327,6597;0,018162
2328,6238;0,0180027
2329,5881;0,017847
2330,5522;0,0177369
2331,5166;0,0177036
2332,4807;0,01775
2333,4451;0,0178468
2334,4092;0,0179464
2335,3735;0,0180037
2336,3376;0,0179954
2337,3020;0,0179292
2338,2661;0,0178391
2339,2305;0,0177644
2340,1946;0,0177236
2341,1589;0,0177002
2342,1230;0,0176567
2343,0874;0,0175775
2344,0515;0,0175112
2345,0159;0,0175481
2345,9800;0,0177363
2346,9443;0,0180371
2347,9084;0,0183617
2348,8728;0,0186282
2349,8369;0,0187946
2350,8013;0,0188642
2351,7654;0,0188737
2352,7297;0,0188701
2353,6938;0,0188836
2354,6582;0,0189147
2355,6223;0,0189417
2356,5867;0,0189351
2357,5508;0,0188708
2358,5151;0,0187433
2359,4792;0,0185727
2360,4436;0,0183945
2361,4077;0,0182343
2362,3721;0,0180937
2363,3362;0,0179593
2364,3005;0,0178217
2365,2646;0,0176841
2366,2290;0,0175543
2367,1931;0,0174362
2368,1575;0,0173291
2369,1216;0,0172358
2370,0859;0,0171655
2371,0500;0,0171288
2372,0144;0,0171288
2372,9785;0,0171578
2373,9429;0,0172032
2374,9070;0,0172566
2375,8713;0,0173178
2376,8354;0,0173927
2377,7998;0,0174849
2378,7639;0,0175889
2379,7283;0,0176904
2380,6924;0,0177712
2381,6567;0,0178175
2382,6208;0,017825
2383,5852;0,0177991
2384,5493;0,0177517
2385,5137;0,0176966
2386,4778;0,0176463
2387,4421;0,0176104
2388,4063;0,0175953
2389,3706;0,0176033
2390,3347;0,0176308
2391,2991;0,0176684
2392,2632;0,0177035
2393,2275;0,0177256
2394,1917;0,0177319
2395,1560;0,0177286
2396,1201;0,0177278
2397,0845;0,0177398
2398,0486;0,0177664
2399,0129;0,0177991
2399,9771;0,0178241
2400,9414;0,017831
2401,9055;0,0178197
2402,8699;0,0178014
2403,8340;0,0177917
2404,7983;0,0178018
2405,7625;0,0178309
2406,7268;0,0178671
2407,6909;0,017895
2408,6553;0,0179053
2409,6194;0,0179001
2410,5837;0,017891
2411,5479;0,0178912
2412,5122;0,0179076
2413,4763;0,0179379
2414,4407;0,0179733
2415,4048;0,0180046
2416,3691;0,0180277
2417,3333;0,0180439
2418,2976;0,0180569
2419,2617;0,0180693
2420,2261;0,0180806
2421,1902;0,0180891
2422,1545;0,0180949
2423,1187;0,0181011
2424,0830;0,0181129
2425,0471;0,0181334
2426,0115;0,0181607
2426,9756;0,0181875
2427,9399;0,0182044
2428,9041;0,0182061
2429,8684;0,0181952
2430,8325;0,0181821
2431,7969;0,0181798
2432,7610;0,0181955
2433,7253;0,0182261
2434,6895;0,0182588
2435,6538;0,0182784
2436,6179;0,0182773
2437,5823;0,0182604
2438,5464;0,0182434
2439,5107;0,0182436
2440,4749;0,0182696
2441,4392;0,0183164
2442,4033;0,0183684
2443,3677;0,0184086
2444,3318;0,0184273
2445,2961;0,0184262
2446,2603;0,0184153
2447,2246;0,0184061
2448,1887;0,0184065
2449,1531;0,0184187
2450,1172;0,0184416
2451,0815;0,0184728
2452,0457;0,0185095
2453,0100;0,0185479
2453,9741;0,0185821
2454,9385;0,0186055
2455,9026;0,0186143
2456,8669;0,0186092
2457,8311;0,0185963
2458,7954;0,0185843
2459,7595;0,0185803
2460,7239;0,0185873
2461,6880;0,0186043
2462,6523;0,0186279
2463,6165;0,0186542
2464,5808;0,0186803
2465,5449;0,0187028
2466,5093;0,0187181
2467,4734;0,0187228
2468,4377;0,0187156
2469,4019;0,0186987
2470,3662;0,018678
2471,3303;0,0186611
2472,2947;0,0186547
2473,2588;0,0186621
2474,2231;0,0186823
2475,1873;0,0187111
2476,1516;0,0187422
2477,1157;0,018769
2478,0801;0,0187867
2479,0442;0,0187942
2480,0085;0,018795
2480,9727;0,0187959
2481,9370;0,0188041
2482,9011;0,0188224
2483,8655;0,0188469
2484,8296;0,0188682
2485,7939;0,0188757
2486,7581;0,0188646
2487,7224;0,018839
2488,6865;0,0188116
2489,6509;0,0187978
2490,6150;0,0188082
2491,5793;0,0188435
2492,5435;0,0188936
2493,5078;0,0189433
2494,4719;0,0189789
2495,4363;0,018995
2496,4004;0,0189955
2497,3647;0,0189899
2498,3289;0,0189868
2499,2932;0,0189894
2500,2573;0,0189949
2501,2217;0,0189981
2502,1858;0,0189961
2503,1501;0,0189903
2504,1143;0,0189847
2505,0786;0,0189826
2506,0427;0,0189841
2507,0071;0,0189872
2507,9712;0,0189897
2508,9355;0,0189919
2509,8997;0,0189966
2510,8640;0,0190071
2511,8281;0,0190259
2512,7925;0,0190538
2513,7566;0,0190894
2514,7209;0,0191289
2515,6851;0,0191655
2516,6494;0,0191905
2517,6135;0,0191968
2518,5779;0,0191824
2519,5420;0,0191531
2520,5063;0,0191196
2521,4705;0,0190926
2522,4348;0,019077
2523,3989;0,0190713
2524,3633;0,0190702
2525,3274;0,01907
2526,2917;0,0190711
2527,2559;0,0190765
2528,2202;0,0190881
2529,1843;0,019103
2530,1487;0,0191137
2531,1128;0,0191115
2532,0771;0,0190914
2533,0413;0,019056
2534,0056;0,0190156
2534,9697;0,018986
2535,9341;0,0189822
2536,8982;0,0190111
2537,8625;0,0190671
2538,8267;0,0191325
2539,7910;0,0191847
2540,7551;0,0192063
2541,7195;0,0191931
2542,6836;0,0191555
2543,6479;0,0191124
2544,6121;0,0190812
2545,5764;0,0190706
2546,5405;0,0190799
2547,5049;0,0191018
2548,4690;0,019128
2549,4333;0,0191519
2550,3975;0,0191687
2551,3618;0,0191742
2552,3259;0,0191657
2553,2903;0,0191432
2554,2544;0,0191114
2555,2188;0,0190795
2556,1829;0,0190583
2557,1472;0,0190558
2558,1113;0,0190734
2559,0757;0,0191059
2560,0398;0,0191435
2561,0042;0,0191777
2561,9683;0,0192047
2562,9326;0,0192261
2563,8967;0,0192456
2564,8611;0,0192634
2565,8252;0,0192744
2566,7896;0,0192695
2567,7537;0,019243
2568,7180;0,0191985
2569,6821;0,0191509
2570,6465;0,0191211
2571,6106;0,0191263
2572,5750;0,0191707
2573,5391;0,0192428
2574,5034;0,0193199
2575,4675;0,0193777
2576,4319;0,0194
2577,3960;0,0193845
2578,3604;0,0193419
2579,3245;0,0192906
2580,2888;0,0192478
2581,2529;0,0192233
2582,2173;0,0192168
2583,1814;0,0192216
2584,1458;0,0192305
2585,1099;0,0192409
2586,0742;0,0192563
2587,0383;0,0192818
2588,0027;0,0193195
2588,9668;0,0193654
2589,9312;0,0194103
2590,8953;0,0194456
2591,8596;0,0194665
2592,8237;0,0194743
2593,7881;0,0194737
2594,7522;0,0194691
2595,7166;0,019463
2596,6807;0,0194566
2597,6450;0,0194508
2598,6091;0,0194481
2599,5735;0,0194512
2600,5376;0,0194618
2601,5020;0,0194792
2602,4661;0,0195008
2603,4304;0,0195236
2604,3945;0,0195454
2605,3589;0,0195648
2606,3230;0,0195805
2607,2874;0,0195909
2608,2515;0,0195946
2609,2158;0,0195922
2610,1799;0,0195875
2611,1443;0,0195863
2612,1084;0,0195934
2613,0728;0,0196096
2614,0369;0,0196308
2615,0012;0,0196501
2615,9653;0,0196623
2616,9297;0,0196674
2617,8938;0,0196702
2618,8582;0,0196771
2619,8223;0,0196924
2620,7866;0,0197151
2621,7507;0,0197401
2622,7151;0,0197608
2623,6792;0,0197724
2624,6436;0,0197741
2625,6077;0,0197691
2626,5720;0,0197636
2627,5361;0,0197638
2628,5005;0,0197738
2629,4646;0,0197933
2630,4290;0,0198177
2631,3931;0,0198403
2632,3574;0,0198559
2633,3215;0,0198642
2634,2859;0,0198694
2635,2500;0,019877
2636,2144;0,0198899
2637,1785;0,0199066
2638,1428;0,0199231
2639,1069;0,0199362
2640,0713;0,0199467
2641,0354;0,0199582
2641,9998;0,0199748
2642,9639;0,0199973
2643,9282;0,0200227
2644,8923;0,0200463
2645,8567;0,0200649
2646,8208;0,0200781
2647,7852;0,0200889
2648,7493;0,0201008
2649,7136;0,0201167
2650,6777;0,020137
2651,6421;0,0201598
2652,6062;0,0201817
2653,5706;0,0201994
2654,5347;0,0202112
2655,4990;0,0202183
2656,4631;0,0202246
2657,4275;0,0202346
2658,3916;0,0202513
2659,3560;0,0202747
2660,3201;0,0203016
2661,2844;0,020328
2662,2485;0,0203513
2663,2129;0,0203705
2664,1770;0,0203863
2665,1414;0,0203997
2666,1055;0,0204113
2667,0698;0,0204218
2668,0339;0,0204329
2668,9983;0,0204467
2669,9624;0,0204644
2670,9268;0,020485
2671,8909;0,0205049
2672,8552;0,0205198
2673,8193;0,0205269
2674,7837;0,0205272
2675,7478;0,0205244
2676,7122;0,0205231
2677,6763;0,0205268
2678,6406;0,0205368
2679,6047;0,0205532
2680,5691;0,0205763
2681,5332;0,0206064
2682,4976;0,020643
2683,4617;0,0206834
2684,4260;0,0207222
2685,3901;0,0207542
2686,3545;0,020776
2687,3186;0,0207886
2688,2830;0,0207966
2689,2471;0,020805
2690,2114;0,0208173
2691,1755;0,0208345
2692,1399;0,0208559
2693,1040;0,0208814
2694,0684;0,0209113
2695,0325;0,0209453
2695,9968;0,0209811
2696,9609;0,0210138
2697,9253;0,0210388
2698,8894;0,0210539
2699,8538;0,0210609
2700,8179;0,0210644
2701,7822;0,0210695
2702,7463;0,021079
2703,7107;0,0210939
2704,6748;0,0211142
2705,6392;0,0211402
2706,6033;0,0211722
2707,5676;0,0212093
2708,5317;0,0212481
2709,4961;0,0212834
2710,4602;0,0213107
2711,4246;0,0213284
2712,3887;0,0213387
2713,3530;0,0213467
2714,3171;0,0213566
2715,2815;0,0213707
2716,2456;0,0213885
2717,2100;0,0214084
2718,1741;0,0214297
2719,1384;0,0214528
2720,1025;0,0214787
2721,0669;0,0215077
2722,0310;0,0215382
2722,9954;0,0215677
2723,9595;0,0215942
2724,9238;0,0216169
2725,8879;0,0216362
2726,8523;0,0216529
2727,8164;0,0216675
2728,7808;0,0216801
2729,7449;0,0216914
2730,7092;0,0217026
2731,6733;0,0217153
2732,6377;0,0217299
2733,6018;0,0217458
2734,5662;0,0217617
2735,5303;0,021777
2736,4946;0,021793
2737,4587;0,0218115
2738,4231;0,0218333
2739,3872;0,0218565
2740,3516;0,0218775
2741,3157;0,0218927
2742,2800;0,021901
2743,2441;0,0219047
2744,2085;0,0219076
2745,1726;0,0219129
2746,1370;0,0219216
2747,1011;0,0219328
2748,0654;0,0219458
2749,0295;0,0219609
2749,9939;0,0219801
2750,9580;0,0220046
2751,9224;0,0220337
2752,8865;0,0220643
2753,8508;0,0220922
2754,8149;0,0221146
2755,7793;0,0221317
2756,7434;0,0221464
2757,7078;0,0221628
2758,6719;0,0221832
2759,6362;0,0222075
2760,6003;0,0222328
2761,5647;0,0222555
2762,5288;0,0222735
2763,4932;0,0222872
2764,4573;0,0222994
2765,4216;0,0223139
2766,3857;0,022334
2767,3501;0,0223615
2768,3142;0,0223962
2769,2786;0,0224356
2770,2427;0,0224752
2771,2070;0,0225104
2772,1711;0,0225377
2773,1355;0,0225568
2774,0996;0,0225713
2775,0640;0,0225871
2776,0281;0,0226094
2776,9924;0,0226394
2777,9565;0,0226739
2778,9209;0,0227075
2779,8850;0,0227364
2780,8494;0,022761
2781,8135;0,0227859
2782,7778;0,0228164
2783,7419;0,0228548
2784,7063;0,0228985
2785,6704;0,0229415
2786,6348;0,0229781
2787,5989;0,0230069
2788,5632;0,0230316
2789,5273;0,023059
2790,4917;0,0230955
2791,4558;0,0231434
2792,4202;0,0231999
2793,3843;0,0232586
2794,3486;0,0233129
2795,3127;0,0233592
2796,2771;0,023398
2797,2412;0,0234336
2798,2056;0,0234717
2799,1697;0,0235172
2800,1340;0,0235728
2801,0981;0,0236378
2802,0625;0,0237098
2803,0266;0,0237846
2803,9910;0,0238574
2804,9551;0,0239238
2805,9194;0,023981
2806,8835;0,0240289
2807,8479;0,0240715
2808,8120;0,0241153
2809,7764;0,0241677
2810,7405;0,0242334
2811,7048;0,024313
2812,6689;0,0244024
2813,6333;0,0244959
2814,5974;0,0245885
2815,5618;0,0246782
2816,5259;0,0247655
2817,4902;0,0248522
2818,4543;0,0249391
2819,4187;0,0250256
2820,3828;0,0251104
2821,3472;0,025193
2822,3113;0,0252746
2823,2756;0,0253584
2824,2397;0,0254492
2825,2041;0,0255519
2826,1682;0,0256693
2827,1326;0,0258013
2828,0967;0,0259439
2829,0610;0,0260907
2830,0251;0,0262349
2830,9895;0,0263728
2831,9536;0,0265057
2832,9180;0,0266386
2833,8821;0,0267776
2834,8464;0,0269258
2835,8105;0,0270818
2836,7749;0,0272404
2837,7390;0,0273964
2838,7034;0,027548
2839,6675;0,0276982
2840,6318;0,0278525
2841,5959;0,0280152
2842,5603;0,0281866
2843,5244;0,0283633
2844,4888;0,0285413
2845,4529;0,0287187
2846,4172;0,0288965
2847,3813;0,0290762
2848,3457;0,029257
2849,3098;0,0294337
2850,2742;0,0295987
2851,2383;0,0297455
2852,2026;0,0298719
2853,1667;0,0299807
2854,1311;0,0300772
2855,0952;0,0301654
2856,0596;0,0302468
2857,0237;0,0303211
2857,9880;0,0303893
2858,9521;0,0304559
2859,9165;0,0305282
2860,8806;0,0306133
2861,8450;0,0307141
2862,8091;0,0308277
2863,7734;0,0309473
2864,7375;0,0310662
2865,7019;0,0311817
2866,6660;0,0312952
2867,6304;0,0314092
2868,5945;0,0315237
2869,5588;0,0316337
2870,5229;0,0317314
2871,4873;0,0318106
2872,4514;0,0318706
2873,4158;0,0319172
2874,3799;0,0319596
2875,3442;0,0320052
2876,3083;0,0320556
2877,2727;0,032107
2878,2368;0,0321527
2879,2012;0,0321884
2880,1653;0,0322155
2881,1296;0,0322404
2882,0938;0,0322718
2883,0581;0,0323161
2884,0222;0,0323744
2884,9866;0,0324419
2885,9507;0,0325108
2886,9150;0,0325741
2887,8792;0,0326284
2888,8435;0,0326754
2889,8076;0,032719
2890,7720;0,0327635
2891,7361;0,0328105
2892,7004;0,032859
2893,6646;0,0329066
2894,6289;0,0329516
2895,5930;0,0329941
2896,5574;0,0330352
2897,5215;0,0330754
2898,4858;0,0331123
2899,4500;0,0331411
2900,4143;0,033156
2901,3784;0,0331536
2902,3428;0,0331356
2903,3069;0,0331095
2904,2712;0,0330849
2905,2354;0,0330692
2906,1997;0,0330635
2907,1638;0,033062
2908,1282;0,0330561
2909,0923;0,0330398
2910,0566;0,0330135
2911,0208;0,0329832
2911,9851;0,0329574
2912,9492;0,0329419
2913,9136;0,0329385
2914,8777;0,0329463
2915,8420;0,0329631
2916,8062;0,0329869
2917,7705;0,0330142
2918,7346;0,0330388
2919,6990;0,0330526
2920,6631;0,0330489
2921,6274;0,0330255
2922,5916;0,0329847
2923,5559;0,032931
2924,5200;0,0328662
2925,4844;0,0327888
2926,4485;0,0326967
2927,4128;0,0325918
2928,3770;0,0324826
2929,3413;0,0323815
2930,3054;0,0322983
2931,2698;0,0322348
2932,2339;0,0321835
2933,1982;0,032132
2934,1624;0,0320701
2935,1267;0,0319936
2936,0908;0,0319046
2937,0552;0,0318072
2938,0193;0,0317031
2938,9836;0,0315903
2939,9478;0,031464
2940,9121;0,031321
2941,8762;0,0311619
2942,8406;0,0309916
2943,8047;0,0308171
2944,7690;0,030644
2945,7332;0,030475
2946,6975;0,0303102
2947,6616;0,0301489
2948,6260;0,0299918
2949,5901;0,0298417
2950,5544;0,0297024
2951,5186;0,0295762
2952,4829;0,0294625
2953,4470;0,0293577
2954,4114;0,0292566
2955,3755;0,0291543
2956,3398;0,0290486
2957,3040;0,0289398
2958,2683;0,0288311
2959,2324;0,0287268
2960,1968;0,0286311
2961,1609;0,0285456
2962,1252;0,0284687
2963,0894;0,0283951
2964,0537;0,028318
2965,0178;0,0282316
2965,9822;0,028133
2966,9463;0,0280222
2967,9106;0,0279006
2968,8748;0,0277689
2969,8391;0,0276279
2970,8032;0,0274797
2971,7676;0,0273303
2972,7317;0,0271887
2973,6960;0,0270642
2974,6602;0,0269614
2975,6245;0,026878
2976,5886;0,026806
2977,5530;0,0267358
2978,5171;0,026661
2979,4814;0,0265808
2980,4456;0,0264989
2981,4099;0,026421
2982,3740;0,0263522
2983,3384;0,0262961
2984,3025;0,0262544
2985,2668;0,026227
2986,2310;0,0262115
2987,1953;0,0262027
2988,1594;0,0261935
2989,1238;0,026177
2990,0879;0,0261492
2991,0522;0,0261108
2992,0164;0,0260668
2992,9807;0,0260244
2993,9448;0,0259904
2994,9092;0,0259696
2995,8733;0,0259639
2996,8376;0,025974
2997,8018;0,0259994
2998,7661;0,0260383
2999,7302;0,0260867
3000,6946;0,0261381
3001,6587;0,0261853
3002,6230;0,026223
3003,5872;0,0262508
3004,5515;0,0262733
3005,5156;0,0262977
3006,4800;0,026329
3007,4441;0,0263668
3008,4084;0,0264055
3009,3726;0,0264368
3010,3369;0,0264546
3011,3010;0,0264584
3012,2654;0,0264535
3013,2295;0,0264487
3014,1938;0,0264527
3015,1580;0,0264719
3016,1223;0,0265084
3017,0864;0,026561
3018,0508;0,026625
3019,0149;0,0266938
3019,9792;0,0267603
3020,9434;0,0268193
3021,9077;0,0268693
3022,8718;0,0269139
3023,8362;0,0269598
3024,8003;0,0270141
3025,7646;0,0270799
3026,7288;0,027155
3027,6931;0,0272317
3028,6572;0,0273011
3029,6216;0,0273567
3030,5857;0,0273975
3031,5500;0,0274284
3032,5142;0,0274579
3033,4785;0,0274944
3034,4426;0,0275437
3035,4070;0,0276075
3036,3711;0,0276841
3037,3354;0,027769
3038,2996;0,0278555
3039,2639;0,0279369
3040,2280;0,0280084
3041,1924;0,0280691
3042,1565;0,028123
3043,1208;0,0281779
3044,0850;0,028241
3045,0493;0,0283163
3046,0134;0,0284023
3046,9778;0,0284938
3047,9419;0,0285846
3048,9063;0,0286706
3049,8704;0,028751
3050,8347;0,0288277
3051,7988;0,028903
3052,7632;0,0289786
3053,7273;0,029055
3054,6917;0,0291318
3055,6558;0,029209
3056,6201;0,0292879
3057,5842;0,0293714
3058,5486;0,0294632
3059,5127;0,0295654
3060,4771;0,0296765
3061,4412;0,0297905
3062,4055;0,029898
3063,3696;0,0299907
3064,3340;0,0300653
3065,2981;0,0301256
3066,2625;0,030181
3067,2266;0,0302409
3068,1909;0,0303109
3069,1550;0,0303911
3070,1194;0,0304786
3071,0835;0,0305714
3072,0479;0,0306698
3073,0120;0,0307749
3073,9763;0,0308855
3074,9404;0,0309959
3075,9048;0,0310981
3076,8689;0,0311857
3077,8333;0,0312585
3078,7974;0,0313227
3079,7617;0,0313874
3080,7258;0,0314584
3081,6902;0,0315358
3082,6543;0,0316147
3083,6187;0,0316906
3084,5828;0,0317634
3085,5471;0,0318378
3086,5112;0,0319196
3087,4756;0,032012
3088,4397;0,0321125
3089,4041;0,0322155
3090,3682;0,0323158
3091,3325;0,0324121
3092,2966;0,0325078
3093,2610;0,0326073
3094,2251;0,032713
3095,1895;0,032823
3096,1536;0,0329311
3097,1179;0,0330307
3098,0820;0,0331172
3099,0464;0,0331911
3100,0105;0,0332577
3100,9749;0,0333259
3101,9390;0,0334048
3102,9033;0,0334998
3103,8674;0,0336107
3104,8318;0,0337312
3105,7959;0,033852
3106,7603;0,0339648
3107,7244;0,0340669
3108,6887;0,0341619
3109,6528;0,0342572
3110,6172;0,034359
3111,5813;0,0344675
3112,5457;0,0345781
3113,5098;0,034685
3114,4741;0,0347869
3115,4382;0,0348887
3116,4026;0,0349977
3117,3667;0,0351175
3118,3311;0,0352428
3119,2952;0,0353622
3120,2595;0,0354649
3121,2236;0,0355486
3122,1880;0,0356222
3123,1521;0,0357002
3124,1165;0,0357943
3125,0806;0,0359061
3126,0449;0,0360277
3127,0090;0,0361472
3127,9734;0,0362567
3128,9375;0,0363564
3129,9019;0,0364527
3130,8660;0,0365535
3131,8303;0,0366634
3132,7944;0,0367817
3133,7588;0,0369042
3134,7229;0,0370259
3135,6873;0,0371437
3136,6514;0,0372573
3137,6157;0,0373689
3138,5798;0,0374816
3139,5442;0,0375988
3140,5083;0,0377223
3141,4727;0,0378528
3142,4368;0,037989
3143,4011;0,0381287
3144,3652;0,0382691
3145,3296;0,0384068
3146,2937;0,0385389
3147,2581;0,0386624
3148,2222;0,0387764
3149,1865;0,0388822
3150,1506;0,0389848
3151,1150;0,0390915
3152,0791;0,0392095
3153,0435;0,0393429
3154,0076;0,03949
3154,9719;0,0396438
3155,9360;0,0397944
3156,9004;0,0399337
3157,8645;0,0400586
3158,8289;0,0401722
3159,7930;0,0402821
3160,7573;0,040396
3161,7214;0,0405192
3162,6858;0,0406523
3163,6499;0,0407925
3164,6143;0,0409357
3165,5784;0,0410783
3166,5427;0,0412185
3167,5068;0,0413558
3168,4712;0,0414913
3169,4353;0,0415994
3170,3997;0,0417386
3171,3638;0,041882
3172,3281;0,0420283
3173,2922;0,0421736
3174,2566;0,0423137
3175,2207;0,0424466
3176,1851;0,0425746
3177,1492;0,0427027
3178,1135;0,0428354
3179,0776;0,0429729
3180,0420;0,0431101
3181,0061;0,0432404
3181,9705;0,0433599
3182,9346;0,0434715
3183,8989;0,0435846
3184,8630;0,0437108
3185,8274;0,0438579
3186,7915;0,0440253
3187,7559;0,0442041
3188,7200;0,0443798
3189,6843;0,0445389
3190,6484;0,0446735
3191,6128;0,0447846
3192,5769;0,044881
3193,5413;0,0449755
3194,5054;0,0450792
3195,4697;0,0451977
3196,4338;0,0453294
3197,3982;0,0454679
3198,3623;0,0456066
3199,3267;0,0457415
3200,2908;0,0458725
3201,2551;0,0460012
3202,2192;0,0461291
3203,1836;0,046257
3204,1477;0,0463868
3205,1121;0,0465222
3206,0762;0,046668
3207,0405;0,0468266
3208,0046;0,0469943
3208,9690;0,0471605
3209,9331;0,0473114
3210,8975;0,047437
3211,8616;0,0475361
3212,8259;0,0476177
3213,7900;0,0476966
3214,7544;0,0477873
3215,7185;0,0478976
3216,6829;0,0480276
3217,6470;0,0481711
3218,6113;0,0483194
3219,5754;0,048465
3220,5398;0,0486037
3221,5039;0,0487349
3222,4683;0,0488608
3223,4324;0,0489843
3224,3967;0,0491077
3225,3608;0,0492314
3226,3252;0,0493541
3227,2893;0,0494737
3228,2537;0,0495891
3229,2178;0,0497011
3230,1821;0,0498129
3231,1462;0,049929
3232,1106;0,0500537
3233,0747;0,0501895
3234,0391;0,0503356
3235,0032;0,0504883
3235,9675;0,050642
3236,9316;0,0507913
3237,8960;0,0509326
3238,8601;0,0510653
3239,8245;0,0511903
3240,7886;0,0513093
3241,7529;0,0514242
3242,7170;0,0515377
3243,6814;0,0516539
3244,6455;0,0517782
3245,6099;0,0519155
3246,5740;0,052067
3247,5383;0,0522286
3248,5024;0,0523917
3249,4668;0,052547
3250,4309;0,0526889
3251,3953;0,0528175
3252,3594;0,0529386
3253,3237;0,0530608
3254,2878;0,0531918
3255,2522;0,0533365
3256,2163;0,0534953
3257,1807;0,053665
3258,1448;0,0538397
3259,1091;0,0540123
3260,0732;0,0541768
3261,0376;0,0543302
3262,0017;0,0544732
3262,9661;0,0546092
3263,9302;0,0547423
3264,8945;0,0548751
3265,8586;0,0550088
3266,8230;0,0551438
3267,7871;0,055281
3268,7515;0,0554202
3269,7156;0,0555577
3270,6799;0,0556848
3271,6440;0,0557899
3272,6084;0,0558649
3273,5725;0,0559112
3274,5369;0,0559418
3275,5010;0,0559754
3276,4653;0,0560265
3277,4294;0,0560982
3278,3938;0,0561817
3279,3579;0,0562631
3280,3223;0,0563324
3281,2864;0,056389
3282,2507;0,0564393
3283,2148;0,0564907
3284,1792;0,0565446
3285,1433;0,0565961
3286,1077;0,0566377
3287,0718;0,0566657
3288,0361;0,0566829
3289,0002;0,0566966
3289,9646;0,0567133
3290,9287;0,0567346
3291,8931;0,0567563
3292,8572;0,0567723
3293,8215;0,0567797
3294,7856;0,0567808
3295,7500;0,056782
3296,7141;0,0567895
3297,6785;0,0568063
3298,6426;0,0568312
3299,6069;0,0568602
3300,5710;0,0568893
3301,5354;0,0569152
3302,4995;0,0569344
3303,4639;0,0569425
3304,4280;0,0569354
3305,3923;0,0569118
3306,3564;0,0568763
3307,3208;0,0568399
3308,2849;0,0568164
3309,2493;0,0568164
3310,2134;0,0568425
3311,1777;0,0568884
3312,1418;0,0569429
3313,1062;0,0569955
3314,0703;0,0570413
3315,0347;0,0570812
3315,9988;0,0571207
3316,9631;0,0571665
3317,9272;0,0572244
3318,8916;0,0572975
3319,8557;0,0573858
3320,8201;0,057486
3321,7842;0,0575923
3322,7485;0,0576975
3323,7126;0,0577959
3324,6770;0,0578849
3325,6411;0,0579656
3326,6055;0,0580413
3327,5696;0,0581154
3328,5339;0,05819
3329,4980;0,0582656
3330,4624;0,0583413
3331,4265;0,0584149
3332,3909;0,0584819
3333,3550;0,0585354
3334,3193;0,0585667
3335,2834;0,0585695
3336,2478;0,0585433
3337,2119;0,0584948
3338,1763;0,0584351
3339,1404;0,0583742
3340,1047;0,0583159
3341,0688;0,0582568
3342,0332;0,0581897
3342,9973;0,0581083
3343,9617;0,0580114
3344,9258;0,0579031
3345,8901;0,0577901
3346,8542;0,0576784
3347,8186;0,0575705
3348,7827;0,0574645
3349,7471;0,0573552
3350,7112;0,0572365
3351,6755;0,0571042
3352,6396;0,0569585
3353,6040;0,0568052
3354,5681;0,0566542
3355,5325;0,0565156
3356,4966;0,0563962
3357,4609;0,056296
3358,4250;0,0562093
3359,3894;0,0561271
3360,3535;0,0560407
3361,3179;0,0559446
3362,2820;0,0558362
3363,2463;0,0557157
3364,2104;0,0555848
3365,1748;0,0554469
3366,1389;0,0553063
3367,1033;0,0551686
3368,0674;0,0550389
3369,0317;0,0549202
3369,9958;0,0548119
3370,9602;0,0547101
3371,9243;0,0546089
3372,8887;0,0545023
3373,8528;0,0543867
3374,8171;0,0542618
3375,7813;0,0541305
3376,7456;0,0539976
3377,7097;0,053867
3378,6741;0,0537406
3379,6382;0,0536179
3380,6025;0,0534974
3381,5667;0,0533775
3382,5310;0,0532585
3383,4951;0,0531427
3384,4595;0,0530338
3385,4236;0,0529357
3386,3879;0,0528498
3387,3521;0,0527738
3388,3164;0,0527013
3389,2805;0,0526234
3390,2449;0,052532
3391,2090;0,0524231
3392,1733;0,0522992
3393,1375;0,0521684
3394,1018;0,0520411
3395,0659;0,051925
3396,0303;0,0518227
3396,9944;0,0517307
3397,9587;0,0516417
3398,9229;0,0515475
3399,8872;0,0514421
3400,8513;0,0513236
3401,8157;0,0511946
3402,7798;0,0510597
3403,7441;0,0509235
3404,7083;0,0507883
3405,6726;0,0506538
3406,6367;0,0505182
3407,6011;0,0503799
3408,5652;0,0502381
3409,5295;0,050092
3410,4937;0,0499401
3411,4580;0,0497817
3412,4221;0,0496189
3413,3865;0,0494577
3414,3506;0,0493057
3415,3149;0,0491667
3416,2791;0,0490368
3417,2434;0,0489046
3418,2075;0,0487571
3419,1719;0,0485879
3420,1360;0,0484025
3421,1003;0,048215
3422,0645;0,0480389
3423,0288;0,0478778
3423,9929;0,0477243
3424,9573;0,0475656
3425,9214;0,0473928
3426,8857;0,0472067
3427,8499;0,0470161
3428,8142;0,0468316
3429,7783;0,0466583
3430,7427;0,0464932
3431,7068;0,0463286
3432,6711;0,0461586
3433,6353;0,0459842
3434,5996;0,0458122
3435,5637;0,0456507
3436,5281;0,0455021
3437,4922;0,0453607
3438,4565;0,045216
3439,4207;0,0450582
3440,3850;0,0448842
3441,3491;0,0446977
3442,3135;0,0445049
3443,2776;0,0443098
3444,2419;0,0441124
3445,2061;0,0439114
3446,1704;0,043709
3447,1345;0,0435125
3448,0989;0,0433302
3449,0630;0,0431654
3450,0273;0,0430135
3450,9915;0,0428652
3451,9558;0,0427124
3452,9199;0,0425523
3453,8843;0,0423875
3454,8484;0,0422226
3455,8127;0,0420603
3456,7769;0,0419005
3457,7412;0,0417423
3458,7053;0,0415853
3459,6697;0,0414294
3460,6338;0,0412728
3461,5981;0,0411105
3462,5623;0,0409362
3463,5266;0,0407464
3464,4907;0,0405438
3465,4551;0,0403378
3466,4192;0,0401402
3467,3835;0,0399595
3468,3477;0,0397965
3469,3120;0,0396451
3470,2761;0,0394958
3471,2405;0,0393414
3472,2046;0,0391809
3473,1689;0,0390198
3474,1331;0,0388664
3475,0974;0,0387262
3476,0615;0,0385969
3477,0259;0,0384685
3477,9900;0,0383273
3478,9543;0,0381637
3479,9185;0,037978
3480,8828;0,0377819
3481,8469;0,0375919
3482,8113;0,0374189
3483,7754;0,0372607
3484,7397;0,0371033
3485,7039;0,0369304
3486,6682;0,0367348
3487,6323;0,0365249
3488,5967;0,0363216
3489,5608;0,0361454
3490,5251;0,0360034
3491,4893;0,0358837
3492,4536;0,0357633
3493,4177;0,0356223
3494,3821;0,0354585
3495,3462;0,0352908
3496,3105;0,0351475
3497,2747;0,0350452
3498,2390;0,0349739
3499,2031;0,0348994
3500,1675;0,0347812
3501,1316;0,0345973
3502,0959;0,0343605
3503,0601;0,0341133
3504,0244;0,0339004
3504,9885;0,0337384
3505,9529;0,0336084
3506,9170;0,0334742
3507,8813;0,0333071
3508,8455;0,0331025
3509,8098;0,0328805
3510,7739;0,0326706
3511,7383;0,0324931
3512,7024;0,0323507
3513,6667;0,0322337
3514,6309;0,032131
3515,5952;0,0320357
3516,5593;0,0319448
3517,5237;0,0318556
3518,4878;0,0317639
3519,4521;0,0316655
3520,4163;0,0315589
3521,3806;0,0314447
3522,3447;0,0313227
3523,3091;0,0311883
3524,2732;0,0310312
3525,2375;0,0308409
3526,2017;0,0306143
3527,1660;0,0303628
3528,1301;0,0301114
3529,0945;0,0298896
3530,0586;0,0297166
3531,0229;0,0295914
3531,9871;0,0294938
3532,9514;0,0293949
3533,9155;0,0292692
3534,8799;0,029106
3535,8440;0,0289151
3536,8083;0,0287244
3537,7725;0,0285676
3538,7368;0,0284685
3539,7009;0,0284293
3540,6653;0,0284291
3541,6294;0,0284289
3542,5938;0,028382
3543,5579;0,0282514
3544,5222;0,0280309
3545,4863;0,0277561
3546,4507;0,0274864
3547,4148;0,0272665
3548,3792;0,0271006
3549,3433;0,0269573
3550,3076;0,0267965
3551,2717;0,0265968
3552,2361;0,0263711
3553,2002;0,0261585
3554,1646;0,0259965
3555,1287;0,0258947
3556,0930;0,0258322
3557,0571;0,0257771
3558,0215;0,0257104
3558,9856;0,0256408
3559,9500;0,0255985
3560,9141;0,0256106
3561,8784;0,0256728
3562,8425;0,0257377
3563,8069;0,0257217
3564,7710;0,0255335
3565,7354;0,0251305
3566,6995;0,0245844
3567,6638;0,0240645
3568,6279;0,0237111
3569,5923;0,023542
3570,5564;0,023485
3571,5208;0,0234534
3572,4849;0,0233919
3573,4492;0,0232872
3574,4133;0,0231572
3575,3777;0,0230279
3576,3418;0,0229127
3577,3062;0,0228079
3578,2703;0,0227079
3579,2346;0,0226224
3580,1987;0,0225767
3581,1631;0,0225921
3582,1272;0,0226609
3583,0916;0,0227354
3584,0557;0,022736
3585,0200;0,0225789
3585,9841;0,0222284
3586,9485;0,0217562
3587,9126;0,0213267
3588,8770;0,0210751
3589,8411;0,0210123
3590,8054;0,0210531
3591,7695;0,0210939
3592,7339;0,0210635
3593,6980;0,0209432
3594,6624;0,0207636
3595,6265;0,0205728
3596,5908;0,0203961
3597,5549;0,0202229
3598,5193;0,0200327
3599,4834;0,0198306
3600,4478;0,0196581
3601,4119;0,0195648
3602,3762;0,0195664
3603,3403;0,0196285
3604,3047;0,0196845
3605,2688;0,0196672
3606,2332;0,0195386
3607,1973;0,01931
3608,1616;0,0190384
3609,1257;0,0187917
3610,0901;0,0186105
3611,0542;0,0185001
3612,0186;0,0184493
3612,9827;0,0184446
3613,9470;0,0184655
3614,9111;0,0184723
3615,8755;0,018404
3616,8396;0,018198
3617,8040;0,0178331
3618,7681;0,0173769
3619,7324;0,0169825
3620,6965;0,0167976
3621,6609;0,0168656
3622,6250;0,0171199
3623,5894;0,0174425
3624,5535;0,0177068
3625,5178;0,0177887
3626,4819;0,0175782
3627,4463;0,0170444
3628,4104;0,0163405
3629,3748;0,0157613
3630,3389;0,0154872
3631,3032;0,0154629
3632,2673;0,0155293
3633,2317;0,0155636
3634,1958;0,0155219
3635,1602;0,0154247
3636,1243;0,0153208
3637,0886;0,0152484
3638,0527;0,0152153
3639,0171;0,0152093
3639,9812;0,0152222
3640,9456;0,0152642
3641,9097;0,0153578
3642,8740;0,0155151
3643,8381;0,0157178
3644,8025;0,0159051
3645,7666;0,015967
3646,7310;0,0157517
3647,6951;0,0151507
3648,6594;0,0142974
3649,6235;0,0135901
3650,5879;0,0133037
3651,5520;0,0133666
3652,5164;0,0135548
3653,4805;0,0136815
3654,4448;0,013649
3655,4089;0,0134575
3656,3733;0,0131961
3657,3374;0,0129851
3658,3018;0,0128895
3659,2659;0,0128895
3660,2302;0,0129281
3661,1943;0,0129716
3662,1587;0,0130324
3663,1228;0,0131466
3664,0872;0,0133313
3665,0513;0,0135565
3666,0156;0,0137515
3666,9797;0,0138352
3667,9441;0,0137637
3668,9082;0,0135804
3669,8726;0,0134087
3670,8367;0,0133463
3671,8010;0,0133687
3672,7651;0,0133558
3673,7295;0,0131836
3674,6936;0,0128202
3675,6580;0,0123855
3676,6221;0,0120743
3677,5864;0,0119758
3678,5505;0,0120323
3679,5149;0,0121468
3680,4790;0,0122685
3681,4434;0,0124031
3682,4075;0,0125804
3683,3718;0,0128141
3684,3359;0,0130764
3685,3003;0,0132976
3686,2644;0,013381
3687,2288;0,013236
3688,1929;0,0128457
3689,1572;0,0123399
3690,1213;0,0119415
3691,0857;0,0117846
3692,0498;0,0118427
3693,0142;0,0120175
3693,9783;0,0122252
3694,9426;0,0124207
3695,9067;0,0125854
3696,8711;0,0127094
3697,8352;0,0127792
3698,7996;0,012778
3699,7637;0,0126995
3700,7280;0,012568
3701,6921;0,0124467
3702,6565;0,0124109
3703,6206;0,0125029
3704,5850;0,0127092
3705,5491;0,0129745
3706,5134;0,0132238
3707,4775;0,0133723
3708,4419;0,0133335
3709,4060;0,013052
3710,3704;0,0125781
3711,3345;0,012098
3712,2988;0,0118131
3713,2629;0,0117878
3714,2273;0,0119539
3715,1914;0,0122054
3716,1558;0,0124599
3717,1199;0,0126719
3718,0842;0,012829
3719,0483;0,0129416
3720,0127;0,013027
3720,9768;0,0130916
3721,9412;0,013123
3722,9053;0,0131019
3723,8696;0,0130278
3724,8337;0,0129353
3725,7981;0,0128821
3726,7622;0,0129136
3727,7266;0,0130383
3728,6907;0,0132315
3729,6550;0,0134518
3730,6191;0,0136514
3731,5835;0,0137713
3732,5476;0,0137384
3733,5120;0,0134932
3734,4761;0,0130685
3735,4404;0,0126353
3736,4045;0,0124
3737,3689;0,0124463
3738,3330;0,0127121
3739,2974;0,0130679
3740,2615;0,013379
3741,2258;0,01353
3742,1899;0,0134473
3743,1543;0,0131556
3744,1184;0,0128229
3745,0828;0,012664
3746,0469;0,0127433
3747,0112;0,0129317
3747,9753;0,0130247
3748,9397;0,0128591
3749,9038;0,012416
3750,8682;0,011898
3751,8323;0,0115999
3752,7966;0,0116324
3753,7607;0,0118807
3754,7251;0,0121665
3755,6892;0,0123568
3756,6536;0,0123898
3757,6177;0,0122811
3758,5820;0,0121174
3759,5461;0,0120075
3760,5105;0,0120111
3761,4746;0,0121134
3762,4390;0,0122578
3763,4031;0,0123878
3764,3674;0,0124677
3765,3315;0,0124846
3766,2959;0,0124394
3767,2600;0,0123379
3768,2244;0,0121908
3769,1885;0,0120237
3770,1528;0,0118841
3771,1169;0,011825
3772,0813;0,0118738
3773,0454;0,0120139
3774,0098;0,0121931
3774,9739;0,0123462
3775,9382;0,0124178
3776,9023;0,012384
3777,8667;0,0122706
3778,8308;0,0121479
3779,7952;0,012086
3780,7593;0,012106
3781,7236;0,0121735
3782,6877;0,0122317
3783,6521;0,0122377
3784,6162;0,0121816
3785,5806;0,0120871
3786,5447;0,0119969
3787,5090;0,0119515
3788,4731;0,0119735
3789,4375;0,0120619
3790,4016;0,0121948
3791,3660;0,0123396
3792,3301;0,0124668
3793,2944;0,012565
3794,2585;0,0126479
3795,2229;0,0127442
3796,1870;0,0128692
3797,1514;0,0129981
3798,1155;0,0130662
3799,0798;0,0130042
3800,0439;0,0127977
3801,0083;0,0125264
3801,9724;0,012317
3802,9368;0,0122303
3803,9009;0,0122134
3804,8652;0,0121626
3805,8293;0,0120175
3806,7937;0,0118206
3807,7578;0,0116981
3808,7222;0,0117571
3809,6863;0,0119993
3810,6506;0,0123364
3811,6147;0,0126584
3812,5791;0,0128826
3813,5432;0,0129783
3814,5076;0,0129782
3815,4717;0,0129579
3816,4360;0,0129689
3817,4001;0,0129837
3818,3645;0,0129188
3819,3286;0,0127138
3820,2930;0,0124053
3821,2571;0,0121242
3822,2214;0,011992
3823,1855;0,0120255
3824,1499;0,0121547
3825,1140;0,0122978
3826,0784;0,0124077
3827,0425;0,0124777
3828,0068;0,012527
3828,9709;0,0125802
3829,9353;0,0126536
3830,8994;0,0127531
3831,8638;0,012876
3832,8279;0,0130101
3833,7922;0,0131272
3834,7563;0,0131814
3835,7207;0,0131235
3836,6848;0,012932
3837,6492;0,0126457
3838,6133;0,0123583
3839,5776;0,0121556
3840,5417;0,0120592
3841,5061;0,0120346
3842,4702;0,0120437
3843,4346;0,0120834
3844,3987;0,012186
3845,3630;0,0123909
3846,3271;0,0127112
3847,2915;0,0131196
3848,2556;0,0135511
3849,2200;0,0139081
3850,1841;0,0140557
3851,1484;0,0138349
3852,1125;0,0131735
3853,0769;0,0122993
3854,0410;0,0116757
3855,0054;0,0115331
3855,9695;0,0117451
3856,9338;0,0120996
3857,8979;0,0124553
3858,8623;0,0127408
3859,8264;0,0129219
3860,7908;0,012987
3861,7549;0,012952
3862,7192;0,0128695
3863,6833;0,0128125
3864,6477;0,0128291
3865,6118;0,0129122
3866,5762;0,0130101
3867,5403;0,0130593
3868,5046;0,0130116
3869,4688;0,0128563
3870,4331;0,0126301
3871,3972;0,0124055
3872,3616;0,0122552
3873,3257;0,0122189
3874,2900;0,0122931
3875,2542;0,0124424
3876,2185;0,0126168
3877,1826;0,0127694
3878,1470;0,0128707
3879,1111;0,0129191
3880,0754;0,0129354
3881,0396;0,0129381
3882,0039;0,0129193
3882,9680;0,0128525
3883,9324;0,0127287
3884,8965;0,0125857
3885,8608;0,0124912
3886,8250;0,0124871
3887,7893;0,0125506
3888,7534;0,0126097
3889,7178;0,0125944
3890,6819;0,012493
3891,6462;0,0123765
3892,6104;0,0123534
3893,5747;0,0124806
3894,5388;0,0127285
3895,5032;0,0130189
3896,4673;0,0132746
3897,4316;0,0134435
3898,3958;0,0135035
3899,3601;0,0134573
3900,3242;0,0133168
3901,2886;0,0130913
3902,2527;0,0127973
3903,2170;0,0124799
3904,1812;0,0122101
3905,1455;0,0120458
3906,1096;0,0119979
3907,0740;0,0120355
3908,0381;0,0121162
3909,0024;0,0122113
3909,9666;0,0123131
3910,9309;0,0124276
3911,8950;0,0125582
3912,8594;0,0126921
3913,8235;0,0127977
3914,7878;0,0128371
3915,7520;0,01279
3916,7163;0,012676
3917,6804;0,0125537
3918,6448;0,0124852
3919,6089;0,0124946
3920,5732;0,012557
3921,5374;0,012622
3922,5017;0,0126471
3923,4658;0,0126236
3924,4302;0,0125812
3925,3943;0,0125653
3926,3586;0,0126021
3927,3228;0,0126802
3928,2871;0,0127596
3929,2512;0,0127945
3930,2156;0,0127572
3931,1797;0,0126538
3932,1440;0,0125221
3933,1082;0,0124094
3934,0725;0,0123476
3935,0366;0,0123449
3936,0010;0,012393
3936,9651;0,0124747
3937,9294;0,0125674
3938,8936;0,0126462
3939,8579;0,0126898
3940,8220;0,0126911
3941,7864;0,0126648
3942,7505;0,0126411
3943,7148;0,0126459
3944,6790;0,0126811
3945,6433;0,012723
3946,6074;0,0127375
3947,5718;0,0127015
3948,5359;0,0126189
3949,5002;0,0125208
3950,4644;0,0124462
3951,4287;0,0124183
3952,3928;0,0124345
3953,3572;0,0124741
3954,3213;0,0125135
3955,2856;0,0125376
3956,2498;0,0125428
3957,2141;0,0125339
3958,1782;0,0125172
3959,1426;0,0124967
3960,1067;0,0124741
3961,0710;0,0124511
3962,0352;0,0124319
3962,9995;0,0124219
3963,9636;0,0124261
3964,9280;0,012446
3965,8921;0,0124784
3966,8564;0,0125164
3967,8206;0,012551
3968,7849;0,0125744
3969,7490;0,0125823
3970,7134;0,0125753
3971,6775;0,0125582
3972,6418;0,0125379
3973,6060;0,0125209
3974,5703;0,0125113
3975,5344;0,0125095
3976,4988;0,0125119
3977,4629;0,012513
3978,4272;0,0125075
3979,3914;0,0124934
3980,3557;0,0124733
3981,3198;0,0124545
3982,2842;0,0124459
3983,2483;0,0124535
3984,2126;0,0124769
3985,1768;0,0125085
3986,1411;0,0125369
3987,1052;0,0125524
3988,0696;0,012551
3989,0337;0,0125365
3989,9980;0,0125177
3990,9622;0,0125034
3991,9265;0,0124982
3992,8906;0,0125009
3993,8550;0,0125063
3994,8191;0,0125087
3995,7834;0,0125049
3996,7476;0,012495
3997,7119;0,0124824
3998,6760;0,0124715
3999,6404;0,0124668
4000,6045;0,0124701

##### Extended Information
[Comments]
Sample name
Comment
Username
Division
Organization;UNIVERSIDAD INDUSTRIAL DE SANTANDER

[Detailed Information]
Creation date;25/02/2025 2:46 p.m.

Data array type;Linear data array
Horizontal axis;Wavenumber [cm-1]
Vertical axis;Abs
Start;399,193 cm-1
End;4000,6 cm-1
Data interval;0,964233 cm-1
Data points;3736    

[Measurement Information]
Model name;FT/IR-4X1typeA
Serial No.;A035162111

Accessory;ATR PRO 4X
Accessory S/N;A021162126
Incident angle;45 deg

Measurement date;25/02/2025 2:45 p.m.

Light source;Standard
Detector;TGS
Accumulation;40
Resolution;4 cm-1
Zero filling;On
Apodization;Cosine
Gain;Auto (8)
Aperture;Auto (7 mm)
Scan speed;Auto (2 mm/sec)
Filter;Auto (12800 Hz)

