TITLE;
DATA TYPE;INFRARED SPECTRUM
ORIGIN;JASCO
OWNER;
DATE;25/02/25
TIME;16:24:04
SPECTROMETER/DATA SYSTEM;
LOCALE;9226
RESOLUTION;
DELTAX;0,964233
XUNITS;1/CM
YUNITS;ABSORBANCE
FIRSTX;  399,1927
LASTX; 4000,6047
NPOINTS;    3736
FIRSTY;     0,13692
MAXY;     0,17791
MINY;     0,01093
XYDATA
399,1927;0,136918
400,1569;0,136458
401,1211;0,135994
402,0854;0,135698
403,0496;0,135484
404,0138;0,135151
404,9781;0,134538
405,9423;0,133674
406,9065;0,132832
407,8708;0,132413
408,8350;0,132703
409,7992;0,133673
410,7635;0,134938
411,7277;0,135949
412,6919;0,136337
413,6562;0,136135
414,6204;0,13574
415,5846;0,135716
416,5489;0,136574
417,5131;0,138475
418,4773;0,140824
419,4416;0,142415
420,4058;0,142546
421,3700;0,141642
422,3343;0,140567
423,2985;0,139935
424,2627;0,139959
425,2270;0,140528
426,1912;0,141347
427,1554;0,142107
428,1197;0,14263
429,0839;0,142881
430,0481;0,142904
431,0124;0,142747
431,9766;0,142446
432,9408;0,142054
433,9051;0,141672
434,8693;0,141449
435,8335;0,14152
436,7978;0,14193
437,7620;0,142606
438,7262;0,14339
439,6905;0,144106
440,6547;0,144604
441,6189;0,144791
442,5832;0,144646
443,5474;0,144234
444,5116;0,143688
445,4759;0,143148
446,4401;0,142704
447,4043;0,142378
448,3686;0,142146
449,3328;0,14198
450,2970;0,141869
451,2613;0,141825
452,2255;0,141865
453,1897;0,141988
454,1540;0,142167
455,1182;0,142358
456,0824;0,14252
457,0467;0,142628
458,0109;0,142675
458,9751;0,142663
459,9394;0,142589
460,9036;0,142457
461,8678;0,142286
462,8321;0,142124
463,7963;0,142039
464,7605;0,142084
465,7248;0,142261
466,6890;0,142502
467,6532;0,142697
468,6175;0,142743
469,5817;0,142588
470,5459;0,142252
471,5102;0,141813
472,4744;0,141373
473,4386;0,141009
474,4029;0,140743
475,3671;0,140567
476,3313;0,140473
477,2956;0,140478
478,2598;0,140611
479,2240;0,140888
480,1883;0,141296
481,1525;0,141791
482,1167;0,142313
483,0810;0,1428
484,0452;0,143198
485,0094;0,143464
485,9737;0,143575
486,9379;0,143534
487,9021;0,143373
488,8664;0,143158
489,8306;0,142969
490,7948;0,142883
491,7591;0,142931
492,7233;0,143082
493,6875;0,143262
494,6518;0,143397
495,6160;0,143465
496,5802;0,143493
497,5445;0,143528
498,5087;0,143599
499,4729;0,143697
500,4372;0,143791
501,4014;0,143872
502,3656;0,143983
503,3299;0,144207
504,2941;0,144608
505,2583;0,145174
506,2226;0,145803
507,1868;0,146347
508,1510;0,14668
509,1153;0,146766
510,0795;0,14667
511,0437;0,146525
512,0080;0,146457
512,9722;0,146549
513,9365;0,146827
514,9007;0,14728
515,8649;0,147868
516,8292;0,14852
517,7934;0,14913
518,7576;0,149586
519,7219;0,149818
520,6861;0,149826
521,6503;0,149668
522,6146;0,14942
523,5788;0,149147
524,5430;0,14889
525,5073;0,148677
526,4715;0,148523
527,4357;0,148436
528,4000;0,148412
529,3642;0,148423
530,3284;0,148428
531,2927;0,148379
532,2569;0,148238
533,2211;0,147995
534,1854;0,147662
535,1496;0,147265
536,1138;0,146829
537,0781;0,146375
538,0423;0,145929
539,0065;0,145535
539,9708;0,145253
540,9350;0,145134
541,8992;0,145189
542,8635;0,145377
543,8277;0,145611
544,7919;0,145803
545,7562;0,145913
546,7204;0,14597
547,6846;0,146061
548,6489;0,146263
549,6131;0,146594
550,5773;0,146986
551,5416;0,147333
552,5058;0,14755
553,4700;0,147627
554,4343;0,147629
555,3985;0,147648
556,3627;0,147737
557,3270;0,147866
558,2912;0,147928
559,2554;0,147793
560,2197;0,147366
561,1839;0,146637
562,1481;0,145687
563,1124;0,144653
564,0766;0,143678
565,0408;0,142863
566,0051;0,142239
566,9693;0,141779
567,9335;0,141414
568,8978;0,141081
569,8620;0,14074
570,8262;0,140388
571,7905;0,140043
572,7547;0,139724
573,7189;0,139441
574,6832;0,139198
575,6474;0,138998
576,6116;0,138847
577,5759;0,138751
578,5401;0,138712
579,5043;0,138718
580,4686;0,138747
581,4328;0,138769
582,3970;0,138763
583,3613;0,138714
584,3255;0,138629
585,2897;0,138525
586,2540;0,138426
587,2182;0,138351
588,1824;0,13831
589,1467;0,138298
590,1109;0,138299
591,0751;0,138291
592,0394;0,138249
593,0036;0,138153
593,9678;0,137992
594,9321;0,137764
595,8963;0,137483
596,8605;0,13717
597,8248;0,136855
598,7890;0,136564
599,7532;0,136308
600,7175;0,136073
601,6817;0,135827
602,6459;0,135534
603,6102;0,13518
604,5744;0,134778
605,5386;0,134361
606,5029;0,133966
607,4671;0,133609
608,4313;0,133273
609,3956;0,132922
610,3598;0,132528
611,3240;0,1321
612,2883;0,131683
613,2525;0,131331
614,2167;0,131067
615,1810;0,130848
616,1452;0,130567
617,1094;0,130103
618,0737;0,129381
619,0379;0,128428
620,0021;0,127351
620,9664;0,126281
621,9306;0,125312
622,8948;0,124478
623,8591;0,123761
624,8233;0,123083
625,7875;0,122456
626,7518;0,121865
627,7160;0,121323
628,6802;0,12085
629,6445;0,120457
630,6087;0,12012
631,5729;0,119792
632,5372;0,119422
633,5014;0,118987
634,4656;0,118515
635,4299;0,118079
636,3941;0,117756
637,3583;0,117578
638,3226;0,117517
639,2868;0,117489
640,2510;0,117408
641,2153;0,117223
642,1795;0,116952
643,1437;0,11666
644,1080;0,116426
645,0722;0,116294
646,0364;0,116253
647,0007;0,116246
647,9649;0,116193
648,9291;0,116041
649,8934;0,115785
650,8576;0,115473
651,8218;0,115188
652,7861;0,115004
653,7503;0,114963
654,7145;0,115056
655,6788;0,115228
656,6430;0,115403
657,6072;0,115518
658,5715;0,115546
659,5357;0,115492
660,4999;0,115366
661,4642;0,115148
662,4284;0,114772
663,3926;0,114149
664,3569;0,113229
665,3211;0,11211
666,2853;0,111097
667,2496;0,110551
668,2138;0,110475
669,1780;0,110475
670,1423;0,110367
671,1065;0,110157
672,0707;0,109734
673,0350;0,108976
673,9992;0,107899
674,9634;0,10664
675,9277;0,105368
676,8919;0,104193
677,8561;0,103132
678,8204;0,102156
679,7846;0,101245
680,7488;0,10041
681,7131;0,0996783
682,6773;0,099053
683,6415;0,0985064
684,6058;0,0979975
685,5700;0,0974983
686,5342;0,0970036
687,4985;0,0965232
688,4627;0,0960708
689,4269;0,095643
690,3912;0,0952317
691,3554;0,0948322
692,3196;0,0944473
693,2839;0,094084
694,2481;0,0937469
695,2123;0,0934327
696,1766;0,0931291
697,1408;0,0928192
698,1050;0,0924914
699,0693;0,0921472
700,0335;0,0918019
700,9977;0,0914747
701,9620;0,0911735
702,9262;0,0908844
703,8904;0,0905646
704,8547;0,0901829
705,8189;0,0897283
706,7831;0,0892226
707,7474;0,0887112
708,7116;0,0882395
709,6758;0,0878289
710,6401;0,0874664
711,6043;0,0871151
712,5685;0,0867372
713,5328;0,0863162
714,4970;0,0858657
715,4612;0,0848401
716,4255;0,0845425
717,3897;0,0843206
718,3539;0,0841087
719,3182;0,0838064
720,2824;0,0833289
721,2466;0,0826565
722,2109;0,0818444
723,1751;0,0809885
724,1393;0,0801754
725,1036;0,0794517
726,0678;0,0788219
727,0320;0,0782643
727,9963;0,0777522
728,9605;0,0772672
729,9247;0,0768028
730,8890;0,0763581
731,8532;0,0759308
732,8174;0,0755141
733,7817;0,0751013
734,7459;0,0746909
735,7101;0,0742908
736,6744;0,0739142
737,6386;0,0735719
738,6028;0,0732639
739,5671;0,0729783
740,5313;0,0726972
741,4955;0,072407
742,4598;0,0721034
743,4240;0,0717905
744,3882;0,0714726
745,3525;0,0711478
746,3167;0,0708086
747,2809;0,0704476
748,2452;0,0700651
749,2094;0,06967
750,1736;0,0692749
751,1379;0,0688876
752,1021;0,0685064
753,0663;0,0681225
754,0306;0,0677281
754,9948;0,067325
755,9590;0,0669267
756,9233;0,0665542
757,8875;0,0662259
758,8517;0,0659485
759,8160;0,065713
760,7802;0,0654991
761,7444;0,0652847
762,7087;0,065056
763,6729;0,0648115
764,6371;0,0645577
765,6014;0,0643021
766,5656;0,0640461
767,5298;0,0637858
768,4941;0,0635182
769,4583;0,0632481
770,4225;0,0629882
771,3868;0,0627528
772,3510;0,0625478
773,3152;0,0623656
774,2795;0,0621894
775,2437;0,0620034
776,2079;0,0618027
777,1722;0,0615948
778,1364;0,0613914
779,1006;0,0611981
780,0649;0,0610075
781,0291;0,0608041
781,9933;0,0605744
782,9576;0,0603173
783,9218;0,0600464
784,8860;0,0597827
785,8503;0,0595436
786,8145;0,0593337
787,7787;0,0591454
788,7430;0,0589648
789,7072;0,0587812
790,6714;0,0585921
791,6357;0,0584034
792,5999;0,0582248
793,5641;0,0580648
794,5284;0,0579273
795,4926;0,0578112
796,4568;0,0577119
797,4211;0,0576224
798,3853;0,0575334
799,3495;0,0574343
800,3138;0,0573154
801,2780;0,0571713
802,2422;0,057005
803,2065;0,0568292
804,1707;0,0566629
805,1349;0,0565232
806,0992;0,056418
807,0634;0,0563411
808,0276;0,056276
808,9919;0,0562046
809,9561;0,0561152
810,9203;0,0560067
811,8846;0,0558852
812,8488;0,0557565
813,8130;0,0556214
814,7773;0,0554764
815,7415;0,0553187
816,7057;0,0551528
817,6700;0,05499
818,6342;0,0548435
819,5984;0,0547203
820,5627;0,0546169
821,5269;0,0545226
822,4911;0,0544268
823,4554;0,0543258
824,4196;0,0542247
825,3839;0,0541313
826,3481;0,0540494
827,3123;0,0539751
828,2766;0,0538992
829,2408;0,0538135
830,2050;0,0537153
831,1693;0,0536074
832,1335;0,0534922
833,0977;0,0533676
834,0620;0,0532266
835,0262;0,0530626
835,9904;0,0528771
836,9547;0,0526816
837,9189;0,0524937
838,8831;0,052327
839,8474;0,0521833
840,8116;0,0520509
841,7758;0,0519116
842,7401;0,0517516
843,7043;0,0515699
844,6685;0,0513806
845,6328;0,0512063
846,5970;0,0510692
847,5612;0,0509826
848,5255;0,0509461
849,4897;0,0509464
850,4539;0,0509618
851,4182;0,0509688
852,3824;0,0509504
853,3466;0,0509016
854,3109;0,0508314
855,2751;0,0507588
856,2393;0,0507047
857,2036;0,0506829
858,1678;0,0506963
859,1320;0,0507374
860,0963;0,050794
861,0605;0,0508552
862,0247;0,0509157
862,9890;0,0509764
863,9532;0,051043
864,9174;0,0511238
865,8817;0,051227
866,8459;0,0513575
867,8101;0,0515147
868,7744;0,051691
869,7386;0,0518744
870,7028;0,0520517
871,6671;0,0522128
872,6313;0,0523518
873,5955;0,0524661
874,5598;0,0525563
875,5240;0,0526267
876,4882;0,0526873
877,4525;0,0527537
878,4167;0,0528433
879,3809;0,0529684
880,3452;0,0531327
881,3094;0,0533323
882,2736;0,0535626
883,2379;0,0538266
884,2021;0,0541363
885,1663;0,0545085
886,1306;0,054955
887,0948;0,0554773
888,0590;0,0560665
889,0233;0,0567081
889,9875;0,0573863
890,9517;0,0580823
891,9160;0,0587691
892,8802;0,0594098
893,8444;0,0599618
894,8087;0,0603885
895,7729;0,0606708
896,7371;0,0608095
897,7014;0,0608183
898,6656;0,060712
899,6298;0,0604982
900,5941;0,0601785
901,5583;0,0597566
902,5225;0,059247
903,4868;0,0586777
904,4510;0,058085
905,4152;0,0575067
906,3795;0,056976
907,3437;0,0565187
908,3079;0,0561524
909,2722;0,0558847
910,2364;0,0557114
911,2007;0,0556157
912,1649;0,055572
913,1292;0,0555546
914,0934;0,0555464
915,0576;0,0555443
916,0219;0,0555584
916,9861;0,0556059
917,9503;0,0557012
918,9146;0,0558486
919,8788;0,0560386
920,8430;0,056251
921,8073;0,0564631
922,7715;0,0566599
923,7357;0,0568403
924,7000;0,0570154
925,6642;0,0572007
926,6284;0,0574052
927,5927;0,0576258
928,5569;0,0578501
929,5211;0,0580656
930,4854;0,0582684
931,4496;0,0584662
932,4138;0,0586726
933,3781;0,0588994
934,3423;0,0591503
935,3065;0,0594218
936,2708;0,0597084
937,2350;0,0600082
938,1992;0,0603257
939,1635;0,0606699
940,1277;0,0610517
941,0919;0,0614802
942,0562;0,0619616
943,0204;0,0624981
943,9846;0,0630882
944,9489;0,063727
945,9131;0,0644085
946,8773;0,0651283
947,8416;0,0658854
948,8058;0,066683
949,7700;0,0675268
950,7343;0,0684224
951,6985;0,0693737
952,6627;0,0703819
953,6270;0,0714455
954,5912;0,0725607
955,5554;0,0737221
956,5197;0,0749231
957,4839;0,0761579
958,4481;0,0774218
959,4124;0,0787116
960,3766;0,0800239
961,3408;0,0813535
962,3051;0,0826935
963,2693;0,0840372
964,2335;0,0853802
965,1978;0,0867228
966,1620;0,0880684
967,1262;0,0894223
968,0905;0,0907905
969,0547;0,092182
970,0189;0,0936124
970,9832;0,0951068
971,9474;0,0966974
972,9116;0,0984173
973,8759;0,100291
974,8401;0,102329
975,8043;0,104525
976,7686;0,106866
977,7328;0,109329
978,6970;0,111889
979,6613;0,114508
980,6255;0,117132
981,5897;0,119689
982,5540;0,122099
983,5182;0,124291
984,4824;0,126218
985,4467;0,127872
986,4109;0,129277
987,3751;0,130476
988,3394;0,131517
989,3036;0,132436
990,2678;0,133256
991,2321;0,133991
992,1963;0,134654
993,1605;0,135259
994,1248;0,135826
995,0890;0,136379
996,0532;0,136941
997,0175;0,137531
997,9817;0,138154
998,9459;0,138806
999,9102;0,139475
1000,8744;0,140151
1001,8386;0,140828
1002,8029;0,141518
1003,7671;0,142242
1004,7313;0,143033
1005,6956;0,143923
1006,6598;0,144946
1007,6240;0,146127
1008,5883;0,147489
1009,5525;0,149036
1010,5167;0,150754
1011,4810;0,152607
1012,4452;0,154539
1013,4094;0,156487
1014,3737;0,158398
1015,3379;0,16023
1016,3021;0,161959
1017,2664;0,163575
1018,2306;0,165076
1019,1948;0,166465
1020,1591;0,167753
1021,1233;0,168956
1022,0875;0,170091
1023,0518;0,171176
1024,0160;0,172223
1024,9802;0,173237
1025,9445;0,17422
1026,9087;0,175162
1027,8729;0,17604
1028,8372;0,176814
1029,8014;0,177425
1030,7656;0,177809
1031,7299;0,177905
1032,6941;0,17767
1033,6583;0,17709
1034,6226;0,176185
1035,5868;0,175012
1036,5510;0,173661
1037,5153;0,172245
1038,4795;0,170882
1039,4437;0,169678
1040,4080;0,1687
1041,3722;0,16797
1042,3364;0,167464
1043,3007;0,167128
1044,2649;0,166892
1045,2291;0,166687
1046,1934;0,166458
1047,1576;0,166166
1048,1218;0,165782
1049,0861;0,165288
1050,0503;0,164671
1051,0145;0,163917
1051,9788;0,16302
1052,9430;0,161975
1053,9072;0,160787
1054,8715;0,159464
1055,8357;0,158016
1056,7999;0,156438
1057,7642;0,154713
1058,7284;0,15281
1059,6926;0,1507
1060,6569;0,148378
1061,6211;0,14588
1062,5853;0,143282
1063,5496;0,140685
1064,5138;0,138191
1065,4780;0,135876
1066,4423;0,133778
1067,4065;0,131897
1068,3707;0,130202
1069,3350;0,128651
1070,2992;0,127203
1071,2634;0,125821
1072,2277;0,124477
1073,1919;0,123146
1074,1561;0,121802
1075,1204;0,120423
1076,0846;0,118989
1077,0488;0,117496
1078,0131;0,115962
1078,9773;0,114426
1079,9415;0,112946
1080,9058;0,111579
1081,8700;0,11037
1082,8342;0,109335
1083,7985;0,108462
1084,7627;0,107719
1085,7269;0,107068
1086,6912;0,106479
1087,6554;0,105939
1088,6196;0,105452
1089,5839;0,105029
1090,5481;0,104679
1091,5123;0,104401
1092,4766;0,104186
1093,4408;0,104018
1094,4050;0,103888
1095,3693;0,103795
1096,3335;0,103746
1097,2977;0,103747
1098,2620;0,103798
1099,2262;0,103892
1100,1904;0,104012
1101,1547;0,104137
1102,1189;0,104243
1103,0831;0,104304
1104,0474;0,104298
1105,0116;0,104205
1105,9758;0,104017
1106,9401;0,103741
1107,9043;0,103389
1108,8685;0,102972
1109,8328;0,102485
1110,7970;0,101905
1111,7612;0,101196
1112,7255;0,10033
1113,6897;0,0993083
1114,6539;0,0981673
1115,6182;0,0969746
1116,5824;0,0958066
1117,5466;0,0947247
1118,5109;0,093756
1119,4751;0,0928891
1120,4393;0,0920798
1121,4036;0,0912663
1122,3678;0,0903842
1123,3320;0,0893796
1124,2963;0,0882181
1125,2605;0,0868892
1126,2247;0,0854066
1127,1890;0,083803
1128,1532;0,0821222
1129,1174;0,0804082
1130,0817;0,0786975
1131,0459;0,0770162
1132,0101;0,0753835
1132,9744;0,0738179
1133,9386;0,072343
1134,9028;0,0709875
1135,8671;0,0697814
1136,8313;0,0687488
1137,7955;0,0679031
1138,7598;0,0672455
1139,7240;0,0667674
1140,6882;0,0664543
1141,6525;0,0662879
1142,6167;0,0662478
1143,5809;0,0663127
1144,5452;0,0664626
1145,5094;0,0666815
1146,4736;0,0669595
1147,4379;0,0672917
1148,4021;0,0676761
1149,3663;0,0681092
1150,3306;0,0685837
1151,2948;0,0690869
1152,2590;0,0696009
1153,2233;0,0701038
1154,1875;0,0705707
1155,1517;0,0709739
1156,1160;0,0712822
1157,0802;0,07146
1158,0444;0,0714666
1159,0087;0,0712567
1159,9729;0,0707846
1160,9371;0,0700127
1161,9014;0,0689211
1162,8656;0,0675157
1163,8298;0,0658313
1164,7941;0,0639275
1165,7583;0,0618798
1166,7225;0,0597686
1167,6868;0,0576696
1168,6510;0,0556464
1169,6152;0,0537464
1170,5795;0,051999
1171,5437;0,0504173
1172,5079;0,0490011
1173,4722;0,0477429
1174,4364;0,0466316
1175,4006;0,0456569
1176,3649;0,0448095
1177,3291;0,0440803
1178,2933;0,0434592
1179,2576;0,0429339
1180,2218;0,0424899
1181,1860;0,0421131
1182,1503;0,0417924
1183,1145;0,0415223
1184,0787;0,041303
1185,0430;0,0411393
1186,0072;0,0410369
1186,9714;0,0410001
1187,9357;0,0410304
1188,8999;0,0411275
1189,8641;0,0412909
1190,8284;0,0415203
1191,7926;0,0418156
1192,7568;0,0421754
1193,7211;0,0425957
1194,6853;0,0430687
1195,6495;0,0435829
1196,6138;0,0441238
1197,5780;0,0446759
1198,5422;0,0452255
1199,5065;0,045611
1200,4707;0,0461518
1201,4349;0,0466794
1202,3992;0,0471947
1203,3634;0,0476963
1204,3276;0,0481797
1205,2919;0,0486405
1206,2561;0,0490793
1207,2203;0,0495045
1208,1846;0,0499325
1209,1488;0,0503827
1210,1130;0,0508726
1211,0773;0,0514129
1212,0415;0,0520071
1213,0057;0,0526514
1213,9700;0,0533371
1214,9342;0,0540519
1215,8984;0,0547817
1216,8627;0,055512
1217,8269;0,0562305
1218,7911;0,0569318
1219,7554;0,0576159
1220,7196;0,0582848
1221,6838;0,0589377
1222,6481;0,0595676
1223,6123;0,0601632
1224,5765;0,060714
1225,5408;0,0612163
1226,5050;0,0616756
1227,4692;0,0621031
1228,4335;0,0625092
1229,3977;0,0628974
1230,3619;0,0632629
1231,3262;0,0635961
1232,2904;0,0638892
1233,2546;0,064141
1234,2189;0,0643574
1235,1831;0,064548
1236,1473;0,0647204
1237,1116;0,0648767
1238,0758;0,0650127
1239,0400;0,0651211
1240,0043;0,0651951
1240,9685;0,0652305
1241,9327;0,065226
1242,8970;0,0651814
1243,8612;0,0650961
1244,8254;0,0649683
1245,7897;0,0647964
1246,7539;0,0645814
1247,7181;0,0643271
1248,6824;0,0640405
1249,6466;0,0637295
1250,6108;0,0634023
1251,5751;0,0630663
1252,5393;0,062728
1253,5035;0,0623932
1254,4678;0,0620644
1255,4320;0,0617401
1256,3962;0,0614132
1257,3605;0,0610738
1258,3247;0,0607126
1259,2889;0,0603239
1260,2532;0,0599063
1261,2174;0,0594616
1262,1816;0,0589917
1263,1459;0,0584982
1264,1101;0,0579829
1265,0743;0,0574499
1266,0386;0,0569046
1267,0028;0,0563508
1267,9670;0,0557881
1268,9313;0,055211
1269,8955;0,0546125
1270,8597;0,053989
1271,8240;0,0533446
1272,7882;0,0526912
1273,7524;0,0520453
1274,7167;0,0514232
1275,6809;0,0508369
1276,6451;0,0502917
1277,6094;0,0497846
1278,5736;0,0493053
1279,5378;0,0488399
1280,5021;0,0483765
1281,4663;0,0479111
1282,4305;0,0474486
1283,3948;0,0469999
1284,3590;0,0465762
1285,3232;0,0461838
1286,2875;0,0458237
1287,2517;0,0454947
1288,2159;0,0451968
1289,1802;0,0449339
1290,1444;0,0447121
1291,1086;0,0445365
1292,0729;0,04441
1293,0371;0,0443328
1294,0013;0,0443048
1294,9656;0,0443266
1295,9298;0,0443998
1296,8940;0,0445255
1297,8583;0,0447034
1298,8225;0,0449306
1299,7867;0,0452025
1300,7510;0,045513
1301,7152;0,045858
1302,6794;0,046234
1303,6437;0,0466386
1304,6079;0,0470716
1305,5721;0,0475317
1306,5364;0,0480163
1307,5006;0,0485201
1308,4648;0,0490373
1309,4291;0,0495615
1310,3933;0,0500851
1311,3575;0,050597
1312,3218;0,0510813
1313,2860;0,0515183
1314,2502;0,0518879
1315,2145;0,0521721
1316,1787;0,0523559
1317,1429;0,0524282
1318,1072;0,0523859
1319,0714;0,0522396
1320,0356;0,0520159
1320,9999;0,0517514
1321,9641;0,0514806
1322,9283;0,0512269
1323,8926;0,0510012
1324,8568;0,0508057
1325,8210;0,0506388
1326,7853;0,0504976
1327,7495;0,0503777
1328,7137;0,0502723
1329,6780;0,0501717
1330,6422;0,0500658
1331,6064;0,0499484
1332,5707;0,0498192
1333,5349;0,0496843
1334,4991;0,0495486
1335,4634;0,0494071
1336,4276;0,0492379
1337,3918;0,0490002
1338,3561;0,048651
1339,3203;0,0481796
1340,2845;0,0476317
1341,2488;0,0470876
1342,2130;0,0466116
1343,1772;0,0462275
1344,1415;0,0459307
1345,1057;0,0457104
1346,0699;0,0455614
1347,0342;0,0454837
1347,9984;0,0454782
1348,9626;0,0455426
1349,9269;0,0456706
1350,8911;0,0458516
1351,8553;0,0460728
1352,8196;0,046322
1353,7838;0,0465915
1354,7480;0,0468816
1355,7123;0,0472003
1356,6765;0,0475579
1357,6407;0,0479603
1358,6050;0,0484056
1359,5692;0,0488823
1360,5334;0,0493636
1361,4977;0,0498055
1362,4619;0,0501703
1363,4261;0,0504611
1364,3904;0,0507181
1365,3546;0,0509769
1366,3188;0,0512427
1367,2831;0,0514989
1368,2473;0,0517258
1369,2115;0,0519112
1370,1758;0,0520507
1371,1400;0,0521382
1372,1042;0,0521558
1373,0685;0,0520742
1374,0327;0,0518704
1374,9969;0,0515539
1375,9612;0,0511649
1376,9254;0,0507356
1377,8896;0,0502603
1378,8539;0,0497122
1379,8181;0,049082
1380,7823;0,0484016
1381,7466;0,0477286
1382,7108;0,0471056
1383,6750;0,0465321
1384,6393;0,0459703
1385,6035;0,0453763
1386,5677;0,0447414
1387,5320;0,0441218
1388,4962;0,0436117
1389,4604;0,0432652
1390,4247;0,0430609
1391,3889;0,0429408
1392,3531;0,0428634
1393,3174;0,0428163
1394,2816;0,0427948
1395,2458;0,0427793
1396,2101;0,0427408
1397,1743;0,0426666
1398,1385;0,0425775
1399,1028;0,0425192
1400,0670;0,0425327
1401,0313;0,0426296
1401,9955;0,0427897
1402,9597;0,0429783
1403,9240;0,0431687
1404,8882;0,0433567
1405,8524;0,0435611
1406,8167;0,0438066
1407,7809;0,0441013
1408,7451;0,0444325
1409,7094;0,0447858
1410,6736;0,0451629
1411,6378;0,0455793
1412,6021;0,0460435
1413,5663;0,0465367
1414,5305;0,047016
1415,4948;0,0474357
1416,4590;0,047763
1417,4232;0,0479764
1418,3875;0,0480808
1419,3517;0,0481438
1420,3159;0,0482605
1421,2802;0,0484467
1422,2444;0,0486186
1423,2086;0,0486754
1424,1729;0,0485709
1425,1371;0,0483243
1426,1013;0,0479812
1427,0656;0,0475699
1428,0298;0,0470898
1428,9940;0,0465388
1429,9583;0,0459472
1430,9225;0,0453714
1431,8867;0,0448418
1432,8510;0,0443265
1433,8152;0,043753
1434,7794;0,0430627
1435,7437;0,0422691
1436,7079;0,0415017
1437,6721;0,0409596
1438,6364;0,0407476
1439,6006;0,0407958
1440,5648;0,0409587
1441,5291;0,041135
1442,4933;0,041302
1443,4575;0,0414843
1444,4218;0,0417064
1445,3860;0,0419645
1446,3502;0,0422324
1447,3145;0,04249
1448,2787;0,0427494
1449,2429;0,0430474
1450,2072;0,0434018
1451,1714;0,043776
1452,1356;0,0440938
1453,0999;0,0442902
1454,0641;0,0443533
1455,0283;0,0443066
1455,9926;0,0441158
1456,9568;0,0436896
1457,9210;0,0431792
1458,8853;0,0429439
1459,8495;0,0430487
1460,8137;0,0432611
1461,7780;0,0433425
1462,7422;0,0431651
1463,7064;0,042703
1464,6707;0,0420253
1465,6349;0,0412906
1466,5991;0,0406495
1467,5634;0,0401176
1468,5276;0,0395896
1469,4918;0,038944
1470,4561;0,038102
1471,4203;0,0370184
1472,3845;0,0356853
1473,3488;0,0342223
1474,3130;0,0328906
1475,2772;0,0318817
1476,2415;0,0311874
1477,2057;0,0306977
1478,1699;0,0303161
1479,1342;0,0299902
1480,0984;0,0297016
1481,0626;0,0294542
1482,0269;0,0292676
1482,9911;0,0291666
1483,9553;0,0291666
1484,9196;0,0292692
1485,8838;0,0294683
1486,8480;0,0297455
1487,8123;0,030036
1488,7765;0,0302294
1489,7407;0,0302875
1490,7050;0,0303271
1491,6692;0,0304795
1492,6334;0,0307656
1493,5977;0,0311472
1494,5619;0,0316099
1495,5261;0,0321724
1496,4904;0,0328354
1497,4546;0,0335517
1498,4188;0,0342826
1499,3831;0,0350304
1500,3473;0,0357656
1501,3115;0,0363963
1502,2758;0,0368337
1503,2400;0,0370734
1504,2042;0,0372418
1505,1685;0,0375428
1506,1327;0,0379897
1507,0969;0,0381928
1508,0612;0,0379611
1509,0254;0,0376551
1509,9896;0,0374983
1510,9539;0,0374169
1511,9181;0,0373022
1512,8823;0,0371184
1513,8466;0,0368782
1514,8108;0,0365937
1515,7750;0,0362524
1516,7393;0,0358317
1517,7035;0,0353254
1518,6677;0,0347511
1519,6320;0,0341435
1520,5962;0,0335515
1521,5604;0,0330392
1522,5247;0,0326613
1523,4889;0,032419
1524,4531;0,0322589
1525,4174;0,0321288
1526,3816;0,0320237
1527,3458;0,0319748
1528,3101;0,0319999
1529,2743;0,0320773
1530,2385;0,0321684
1531,2028;0,032254
1532,1670;0,0323414
1533,1312;0,0324479
1534,0955;0,0325826
1535,0597;0,0327273
1536,0239;0,0328368
1536,9882;0,0328964
1537,9524;0,03299
1538,9166;0,0332683
1539,8809;0,0337092
1540,8451;0,0339483
1541,8093;0,0337935
1542,7736;0,0335269
1543,7378;0,0333685
1544,7020;0,0333193
1545,6663;0,033341
1546,6305;0,0334209
1547,5947;0,0335448
1548,5590;0,0336777
1549,5232;0,0337795
1550,4874;0,033835
1551,4517;0,0338654
1552,4159;0,0339031
1553,3801;0,0339475
1554,3444;0,0339518
1555,3086;0,0338547
1556,2728;0,0336062
1557,2371;0,0331147
1558,2013;0,0322537
1559,1655;0,0313171
1560,1298;0,0310224
1561,0940;0,0315084
1562,0582;0,0323443
1563,0225;0,0331336
1563,9867;0,0336975
1564,9509;0,0340172
1565,9152;0,0341538
1566,8794;0,0341924
1567,8436;0,0342093
1568,8079;0,0342652
1569,7721;0,0344111
1570,7363;0,0346664
1571,7006;0,0349889
1572,6648;0,0353023
1573,6290;0,0355585
1574,5933;0,0357624
1575,5575;0,0359441
1576,5217;0,0361454
1577,4860;0,0364419
1578,4502;0,0368871
1579,4144;0,0374382
1580,3787;0,0380058
1581,3429;0,038535
1582,3071;0,039025
1583,2714;0,0395035
1584,2356;0,0399972
1585,1998;0,0405187
1586,1641;0,0410653
1587,1283;0,0416255
1588,0925;0,0421824
1589,0568;0,0427158
1590,0210;0,0432029
1590,9852;0,043619
1591,9495;0,0439378
1592,9137;0,0441331
1593,8779;0,0441883
1594,8422;0,0441095
1595,8064;0,0439322
1596,7706;0,0437098
1597,7349;0,0434906
1598,6991;0,0432994
1599,6633;0,0431353
1600,6276;0,0429831
1601,5918;0,0428314
1602,5560;0,0426862
1603,5203;0,0425692
1604,4845;0,0424977
1605,4487;0,0424655
1606,4130;0,0424414
1607,3772;0,0423914
1608,3414;0,04231
1609,3057;0,0422353
1610,2699;0,0422215
1611,2341;0,042285
1612,1984;0,0423855
1613,1626;0,0424609
1614,1268;0,0424737
1615,0911;0,0424306
1616,0553;0,0423865
1617,0195;0,042446
1617,9838;0,0426994
1618,9480;0,0431203
1619,9122;0,0435851
1620,8765;0,0439814
1621,8407;0,0442671
1622,8049;0,0444615
1623,7692;0,0446118
1624,7334;0,044762
1625,6976;0,0449315
1626,6619;0,0451187
1627,6261;0,0453279
1628,5903;0,0455767
1629,5546;0,0458694
1630,5188;0,0461701
1631,4830;0,0464174
1632,4473;0,0465721
1633,4115;0,0466417
1634,3757;0,0466417
1635,3400;0,0465453
1636,3042;0,0463806
1637,2684;0,0463206
1638,2327;0,0464813
1639,1969;0,0467989
1640,1611;0,0471461
1641,1254;0,0474314
1642,0896;0,0476142
1643,0538;0,0476926
1644,0181;0,0476881
1644,9823;0,0476152
1645,9465;0,0474629
1646,9108;0,0472551
1647,8750;0,0470732
1648,8392;0,0469185
1649,8035;0,0466679
1650,7677;0,046181
1651,7319;0,0453567
1652,6962;0,0441649
1653,6604;0,0429321
1654,6246;0,0423162
1655,5889;0,0424493
1656,5531;0,0428905
1657,5173;0,043221
1658,4816;0,0432517
1659,4458;0,0429615
1660,4100;0,0424103
1661,3743;0,0416973
1662,3385;0,0409634
1663,3027;0,0403633
1664,2670;0,0399692
1665,2312;0,0397281
1666,1954;0,0395233
1667,1597;0,0392456
1668,1239;0,0388209
1669,0881;0,0382328
1670,0524;0,0375577
1671,0166;0,0369201
1671,9808;0,0363613
1672,9451;0,0358104
1673,9093;0,035195
1674,8735;0,0345495
1675,8378;0,0340244
1676,8020;0,0337668
1677,7662;0,0337772
1678,7305;0,033903
1679,6947;0,0339506
1680,6589;0,0337786
1681,6232;0,0333119
1682,5874;0,032517
1683,5516;0,0314628
1684,5159;0,0304636
1685,4801;0,0298857
1686,4443;0,0297515
1687,4086;0,0298102
1688,3728;0,0298249
1689,3370;0,029692
1690,3013;0,0294202
1691,2655;0,0290723
1692,2297;0,0287208
1693,1940;0,0284273
1694,1582;0,0282321
1695,1224;0,0281305
1696,0867;0,0280481
1697,0509;0,0278566
1698,0151;0,0274665
1698,9794;0,0269442
1699,9436;0,0265189
1700,9078;0,0264123
1701,8721;0,0266596
1702,8363;0,0271113
1703,8005;0,0275675
1704,7648;0,0278907
1705,7290;0,0280528
1706,6932;0,028127
1707,6575;0,02823
1708,6217;0,0284434
1709,5859;0,0287751
1710,5502;0,0291851
1711,5144;0,0296287
1712,4786;0,0300786
1713,4429;0,0305209
1714,4071;0,0309295
1715,3713;0,0312268
1716,3356;0,0312963
1717,2998;0,0311465
1718,2640;0,0310175
1719,2283;0,0311368
1720,1925;0,0314984
1721,1567;0,031954
1722,1210;0,0323676
1723,0852;0,0326784
1724,0494;0,032899
1725,0137;0,0330899
1725,9779;0,033321
1726,9421;0,0336312
1727,9064;0,0340042
1728,8706;0,0343746
1729,8348;0,0346519
1730,7991;0,0347454
1731,7633;0,0345804
1732,7275;0,034139
1733,6918;0,0335509
1734,6560;0,0330818
1735,6202;0,0328979
1736,5845;0,032921
1737,5487;0,0329564
1738,5129;0,0328579
1739,4772;0,0325886
1740,4414;0,0322043
1741,4056;0,0317985
1742,3699;0,0314349
1743,3341;0,0311131
1744,2983;0,0307901
1745,2626;0,0304201
1746,2268;0,0299664
1747,1910;0,0293811
1748,1553;0,0285926
1749,1195;0,0275591
1750,0837;0,0263726
1751,0480;0,0252544
1752,0122;0,024386
1752,9764;0,023786
1753,9407;0,0233521
1754,9049;0,0229658
1755,8691;0,0225571
1756,8334;0,022114
1757,7976;0,0216558
1758,7618;0,0211955
1759,7261;0,0207242
1760,6903;0,020231
1761,6545;0,019736
1762,6188;0,0192949
1763,5830;0,0189596
1764,5472;0,0187372
1765,5115;0,0185901
1766,4757;0,0184697
1767,4399;0,018345
1768,4042;0,0182078
1769,3684;0,0180558
1770,3326;0,0178728
1771,2969;0,0176328
1772,2611;0,0173448
1773,2253;0,0170835
1774,1896;0,0169329
1775,1538;0,0169058
1776,1180;0,0169448
1777,0823;0,0169797
1778,0465;0,0169701
1779,0107;0,01691
1779,9750;0,0168131
1780,9392;0,0166949
1781,9034;0,0165654
1782,8677;0,0164326
1783,8319;0,0163136
1784,7961;0,0162364
1785,7604;0,0162252
1786,7246;0,0162796
1787,6888;0,0163709
1788,6531;0,0164597
1789,6173;0,0165163
1790,5815;0,0165231
1791,5458;0,0164717
1792,5100;0,0163847
1793,4742;0,0163246
1794,4385;0,0163374
1795,4027;0,0164021
1796,3669;0,0164575
1797,3312;0,0164562
1798,2954;0,0163875
1799,2596;0,0162706
1800,2239;0,0161368
1801,1881;0,0160153
1802,1523;0,0159269
1803,1166;0,0158802
1804,0808;0,0158747
1805,0450;0,0159057
1806,0093;0,0159662
1806,9735;0,0160428
1807,9377;0,016111
1808,9020;0,0161375
1809,8662;0,0160963
1810,8304;0,0159902
1811,7947;0,0158553
1812,7589;0,0157385
1813,7231;0,0156677
1814,6874;0,0156433
1815,6516;0,0156492
1816,6158;0,0156672
1817,5801;0,0156862
1818,5443;0,0157045
1819,5085;0,0157252
1820,4728;0,0157479
1821,4370;0,0157663
1822,4012;0,0157743
1823,3655;0,0157727
1824,3297;0,0157719
1825,2939;0,0157866
1826,2582;0,0158225
1827,2224;0,0158639
1828,1866;0,0158759
1829,1509;0,015826
1830,1151;0,0157177
1831,0793;0,0156016
1832,0436;0,0155365
1833,0078;0,015541
1833,9720;0,0155905
1834,9363;0,0156487
1835,9005;0,0156934
1836,8647;0,0157235
1837,8290;0,0157502
1838,7932;0,0157811
1839,7574;0,0158101
1840,7217;0,015826
1841,6859;0,0158265
1842,6501;0,0158172
1843,6144;0,0157997
1844,5786;0,0157718
1845,5428;0,0157395
1846,5071;0,0157084
1847,4713;0,0156681
1848,4355;0,0156037
1849,3998;0,0155171
1850,3640;0,0154311
1851,3282;0,0153729
1852,2925;0,0153552
1853,2567;0,0153698
1854,2209;0,0153967
1855,1852;0,0154197
1856,1494;0,0154328
1857,1136;0,0154387
1858,0779;0,015441
1859,0421;0,015442
1860,0063;0,0154459
1860,9706;0,0154645
1861,9348;0,0155145
1862,8990;0,0156078
1863,8633;0,0157427
1864,8275;0,0159018
1865,7917;0,0160521
1866,7560;0,0161448
1867,7202;0,0161272
1868,6844;0,0159841
1869,6487;0,0157711
1870,6129;0,0155768
1871,5771;0,0154522
1872,5414;0,0153916
1873,5056;0,0153652
1874,4698;0,0153496
1875,4341;0,0153367
1876,3983;0,0153269
1877,3625;0,0153195
1878,3268;0,0153097
1879,2910;0,0152921
1880,2552;0,0152673
1881,2195;0,0152455
1882,1837;0,0152438
1883,1479;0,015276
1884,1122;0,0153442
1885,0764;0,0154364
1886,0406;0,0155315
1887,0049;0,0156061
1887,9691;0,0156402
1888,9333;0,015624
1889,8976;0,0155647
1890,8618;0,0154854
1891,8260;0,0154131
1892,7903;0,0153665
1893,7545;0,0153519
1894,7188;0,0153659
1895,6830;0,0153993
1896,6472;0,0154414
1897,6115;0,0154836
1898,5757;0,0155195
1899,5399;0,0155425
1900,5042;0,0155455
1901,4684;0,0155239
1902,4326;0,0154814
1903,3969;0,0154343
1904,3611;0,0154084
1905,3253;0,0154267
1906,2896;0,0154961
1907,2538;0,0155981
1908,2180;0,0156921
1909,1823;0,0157352
1910,1465;0,0157086
1911,1107;0,0156301
1912,0750;0,0155399
1913,0392;0,0154734
1914,0034;0,0154446
1914,9677;0,0154455
1915,9319;0,0154567
1916,8961;0,0154616
1917,8604;0,0154601
1918,8246;0,0154702
1919,7888;0,0155099
1920,7531;0,0155756
1921,7173;0,0156384
1922,6815;0,0156596
1923,6458;0,015614
1924,6100;0,0155078
1925,5742;0,015375
1926,5385;0,0152572
1927,5027;0,0151832
1928,4669;0,0151617
1929,4312;0,015183
1930,3954;0,0152248
1931,3596;0,0152606
1932,3239;0,0152683
1933,2881;0,015238
1934,2523;0,015176
1935,2166;0,0151045
1936,1808;0,0150533
1937,1450;0,0150478
1938,1093;0,0150986
1939,0735;0,0151994
1940,0377;0,0153313
1941,0020;0,0154698
1941,9662;0,0155912
1942,9304;0,0156787
1943,8947;0,0157244
1944,8589;0,0157236
1945,8231;0,0156706
1946,7874;0,0155638
1947,7516;0,015416
1948,7158;0,0152558
1949,6801;0,0151153
1950,6443;0,01501
1951,6085;0,0149272
1952,5728;0,014836
1953,5370;0,0147149
1954,5012;0,0145755
1955,4655;0,0144617
1956,4297;0,0144198
1957,3939;0,0144597
1958,3582;0,0145359
1959,3224;0,01457
1960,2866;0,0145025
1961,2509;0,0143398
1962,2151;0,0141556
1963,1793;0,0140422
1964,1436;0,0140504
1965,1078;0,014158
1966,0720;0,0142887
1967,0363;0,0143664
1968,0005;0,0143676
1968,9647;0,014328
1969,9290;0,0143027
1970,8932;0,0143193
1971,8574;0,0143645
1972,8217;0,0144071
1973,7859;0,0144327
1974,7501;0,0144605
1975,7144;0,0145313
1976,6786;0,0146733
1977,6428;0,0148744
1978,6071;0,0150852
1979,5713;0,0152487
1980,5355;0,0153287
1981,4998;0,015321
1982,4640;0,0152463
1983,4282;0,015139
1984,3925;0,0150351
1985,3567;0,0149625
1986,3209;0,0149332
1987,2852;0,0149436
1988,2494;0,0149826
1989,2136;0,0150428
1990,1779;0,0151262
1991,1421;0,0152387
1992,1063;0,0153746
1993,0706;0,0155054
1994,0348;0,0155823
1994,9990;0,0155553
1995,9633;0,0153983
1996,9275;0,0151275
1997,8917;0,0148028
1998,8560;0,01451
1999,8202;0,0143272
2000,7844;0,0142947
2001,7487;0,0144052
2002,7129;0,0146189
2003,6771;0,0148888
2004,6414;0,0151767
2005,6056;0,0154521
2006,5698;0,0156804
2007,5341;0,0158185
2008,4983;0,0158274
2009,4625;0,015698
2010,4268;0,0154672
2011,3910;0,0152096
2012,3552;0,0150076
2013,3195;0,0149179
2014,2837;0,0149508
2015,2479;0,0150726
2016,2122;0,0152277
2017,1764;0,0153689
2018,1406;0,0154787
2019,1049;0,0155697
2020,0691;0,0156669
2021,0333;0,0157855
2021,9976;0,015915
2022,9618;0,0160184
2023,9260;0,0160453
2024,8903;0,0159551
2025,8545;0,0157403
2026,8187;0,0154334
2027,7830;0,015094
2028,7472;0,0147839
2029,7114;0,0145486
2030,6757;0,0144136
2031,6399;0,014392
2032,6041;0,0144886
2033,5684;0,0146909
2034,5326;0,0149562
2035,4968;0,015217
2036,4611;0,0154091
2037,4253;0,0155102
2038,3895;0,0155556
2039,3538;0,0156164
2040,3180;0,0157514
2041,2822;0,0159632
2042,2465;0,0161909
2043,2107;0,0163478
2044,1749;0,0163778
2045,1392;0,0162909
2046,1034;0,0161554
2047,0676;0,0160551
2048,0320;0,0160386
2048,9961;0,0160977
2049,9604;0,0161844
2050,9246;0,0162485
2051,8889;0,016263
2052,8530;0,0162291
2053,8174;0,0161667
2054,7815;0,0161024
2055,7458;0,0160605
2056,7100;0,016057
2057,6743;0,0160963
2058,6384;0,0161701
2059,6028;0,0162613
2060,5669;0,0163526
2061,5313;0,0164349
2062,4954;0,0165115
2063,4597;0,0165916
2064,4238;0,0166784
2065,3882;0,0167592
2066,3523;0,0168082
2067,3167;0,0168002
2068,2808;0,016727
2069,2451;0,0166035
2070,2092;0,0164615
2071,1736;0,0163348
2072,1377;0,0162462
2073,1021;0,0162042
2074,0662;0,0162094
2075,0305;0,0162618
2075,9946;0,0163621
2076,9590;0,0165043
2077,9231;0,0166676
2078,8875;0,0168163
2079,8516;0,0169111
2080,8159;0,0169276
2081,7800;0,016869
2082,7444;0,0167675
2083,7085;0,0166707
2084,6729;0,0166219
2085,6370;0,0166435
2086,6013;0,0167306
2087,5654;0,016854
2088,5298;0,0169716
2089,4939;0,0170413
2090,4583;0,017034
2091,4224;0,0169436
2092,3867;0,0167918
2093,3508;0,016625
2094,3152;0,0165012
2095,2793;0,0164667
2096,2437;0,0165336
2097,2078;0,01667
2098,1721;0,0168124
2099,1362;0,0168961
2100,1006;0,0168871
2101,0647;0,0167937
2102,0291;0,0166659
2102,9932;0,016564
2103,9575;0,0165294
2104,9216;0,0165658
2105,8860;0,0166434
2106,8501;0,0167199
2107,8145;0,0167655
2108,7786;0,0167758
2109,7429;0,0167667
2110,7070;0,016758
2111,6714;0,0167586
2112,6355;0,0167645
2113,5999;0,0167683
2114,5640;0,0167717
2115,5283;0,016788
2116,4924;0,0168332
2117,4568;0,0169112
2118,4209;0,0170065
2119,3853;0,0170906
2120,3494;0,0171383
2121,3137;0,0171444
2122,2778;0,0171264
2123,2422;0,0171113
2124,2063;0,0171152
2125,1707;0,0171302
2126,1348;0,0171297
2127,0991;0,0170881
2128,0632;0,017003
2129,0276;0,0169042
2129,9917;0,0168404
2130,9561;0,0168512
2131,9202;0,0169403
2132,8845;0,0170665
2133,8486;0,0171625
2134,8130;0,0171724
2135,7771;0,0170871
2136,7415;0,0169511
2137,7056;0,0168328
2138,6699;0,0167812
2139,6340;0,0167976
2140,5984;0,0168418
2141,5625;0,0168672
2142,5269;0,0168597
2143,4910;0,0168528
2144,4553;0,0169072
2145,4194;0,0170651
2146,3838;0,0173114
2147,3479;0,0175692
2148,3123;0,0177385
2149,2764;0,0177545
2150,2407;0,017629
2151,2048;0,0174483
2152,1692;0,0173274
2153,1333;0,0173478
2154,0977;0,0175125
2155,0618;0,0177421
2156,0261;0,0179129
2156,9902;0,017921
2157,9546;0,0177432
2158,9187;0,0174512
2159,8831;0,01716
2160,8472;0,01695
2161,8115;0,0168339
2162,7756;0,0167807
2163,7400;0,016756
2164,7041;0,016744
2165,6685;0,0167476
2166,6326;0,0167786
2167,5969;0,0168489
2168,5610;0,016967
2169,5254;0,017134
2170,4895;0,0173365
2171,4539;0,017539
2172,4180;0,0176859
2173,3823;0,0177202
2174,3464;0,0176122
2175,3108;0,0173816
2176,2749;0,0170944
2177,2393;0,0168336
2178,2034;0,0166624
2179,1677;0,0166022
2180,1318;0,0166359
2181,0962;0,0167275
2182,0603;0,0168434
2183,0247;0,0169617
2183,9888;0,0170696
2184,9531;0,017156
2185,9172;0,0172082
2186,8816;0,0172147
2187,8457;0,0171711
2188,8101;0,0170827
2189,7742;0,0169651
2190,7385;0,0168431
2191,7026;0,0167469
2192,6670;0,016706
2193,6311;0,0167374
2194,5955;0,0168347
2195,5596;0,0169654
2196,5239;0,0170809
2197,4880;0,017138
2198,4524;0,0171186
2199,4165;0,0170364
2200,3809;0,0169261
2201,3450;0,016825
2202,3093;0,0167575
2203,2734;0,0167329
2204,2378;0,0167533
2205,2019;0,0168204
2206,1663;0,0169359
2207,1304;0,017094
2208,0947;0,017275
2209,0588;0,0174464
2210,0232;0,0175726
2210,9873;0,0176276
2211,9517;0,0176035
2212,9158;0,017511
2213,8801;0,0173749
2214,8442;0,0172277
2215,8086;0,0171029
2216,7727;0,0170276
2217,7371;0,0170139
2218,7012;0,0170524
2219,6655;0,0171127
2220,6296;0,0171533
2221,5940;0,0171405
2222,5581;0,0170664
2223,5225;0,016955
2224,4866;0,0168532
2225,4509;0,0168082
2226,4150;0,0168445
2227,3794;0,0169509
2228,3435;0,0170872
2229,3079;0,0172026
2230,2720;0,0172584
2231,2363;0,0172421
2232,2004;0,0171691
2233,1648;0,0170723
2234,1289;0,0169879
2235,0933;0,0169431
2236,0574;0,0169502
2237,0217;0,0170051
2237,9858;0,0170905
2238,9502;0,017182
2239,9143;0,0172567
2240,8787;0,017302
2241,8428;0,0173205
2242,8071;0,0173276
2243,7712;0,0173415
2244,7356;0,0173725
2245,6997;0,0174163
2246,6641;0,0174574
2247,6282;0,017479
2248,5925;0,0174738
2249,5566;0,0174478
2250,5210;0,0174167
2251,4851;0,0173979
2252,4495;0,017404
2253,4136;0,0174396
2254,3779;0,0175016
2255,3420;0,0175794
2256,3064;0,0176565
2257,2705;0,0177134
2258,2349;0,0177353
2259,1990;0,0177198
2260,1633;0,0176796
2261,1274;0,0176369
2262,0918;0,0176107
2263,0559;0,0176058
2264,0203;0,0176119
2264,9844;0,0176132
2265,9487;0,0176018
2266,9128;0,0175838
2267,8772;0,0175726
2268,8413;0,017577
2269,8057;0,0175925
2270,7698;0,0176056
2271,7341;0,0176045
2272,6982;0,0175886
2273,6626;0,0175675
2274,6267;0,0175507
2275,5911;0,0175387
2276,5552;0,0175221
2277,5195;0,0174901
2278,4836;0,0174423
2279,4480;0,0173919
2280,4121;0,0173598
2281,3765;0,0173628
2282,3406;0,0174067
2283,3049;0,0174855
2284,2690;0,0175887
2285,2334;0,017708
2286,1975;0,0178396
2287,1619;0,0179818
2288,1260;0,0181298
2289,0903;0,0182716
2290,0544;0,0183901
2291,0188;0,0184692
2291,9829;0,0185032
2292,9473;0,0185028
2293,9114;0,0184946
2294,8757;0,0185104
2295,8398;0,0185714
2296,8042;0,018676
2297,7683;0,0187976
2298,7327;0,0188963
2299,6968;0,0189384
2300,6611;0,0189129
2301,6252;0,0188374
2302,5896;0,0187499
2303,5537;0,0186922
2304,5181;0,0186939
2305,4822;0,0187605
2306,4465;0,0188694
2307,4106;0,0189743
2308,3750;0,019018
2309,3391;0,0189529
2310,3035;0,018761
2311,2676;0,0184661
2312,2319;0,0181283
2313,1960;0,01782
2314,1604;0,0175962
2315,1245;0,0174741
2316,0889;0,0174341
2317,0530;0,0174366
2318,0173;0,017444
2318,9814;0,0174364
2319,9458;0,0174196
2320,9099;0,0174225
2321,8743;0,0174846
2322,8384;0,0176325
2323,8027;0,0178555
2324,7668;0,0181
2325,7312;0,0182904
2326,6953;0,0183653
2327,6597;0,018309
2328,6238;0,0181627
2329,5881;0,0180098
2330,5522;0,0179383
2331,5166;0,0179953
2332,4807;0,0181603
2333,4451;0,0183581
2334,4092;0,0185048
2335,3735;0,0185587
2336,3376;0,018544
2337,3020;0,0185361
2338,2661;0,0186126
2339,2305;0,0187971
2340,1946;0,0190247
2341,1589;0,0191522
2342,1230;0,0190266
2343,0874;0,0186226
2344,0515;0,0181716
2345,0159;0,0180576
2345,9800;0,0184775
2346,9443;0,0192644
2347,9084;0,0200476
2348,8728;0,0205059
2349,8369;0,0205102
2350,8013;0,0201426
2351,7654;0,0196256
2352,7297;0,0191924
2353,6938;0,0189656
2354,6582;0,0189404
2355,6223;0,0190692
2356,5867;0,0193095
2357,5508;0,0195924
2358,5151;0,0198055
2359,4792;0,0198476
2360,4436;0,0196953
2361,4077;0,0193994
2362,3721;0,0190211
2363,3362;0,0185899
2364,3005;0,0181174
2365,2646;0,017626
2366,2290;0,0171518
2367,1931;0,0167234
2368,1575;0,0163479
2369,1216;0,0160169
2370,0859;0,0157225
2371,0500;0,0154683
2372,0144;0,0152708
2372,9785;0,0151567
2373,9429;0,0151567
2374,9070;0,0152954
2375,8713;0,0155783
2376,8354;0,0159832
2377,7998;0,0164608
2378,7639;0,0169475
2379,7283;0,0173837
2380,6924;0,0177289
2381,6567;0,0179683
2382,6208;0,0181082
2383,5852;0,018168
2384,5493;0,0181707
2385,5137;0,0181369
2386,4778;0,018084
2387,4421;0,0180256
2388,4063;0,0179725
2389,3706;0,0179316
2390,3347;0,0179043
2391,2991;0,0178875
2392,2632;0,0178756
2393,2275;0,0178647
2394,1917;0,0178554
2395,1560;0,0178515
2396,1201;0,0178572
2397,0845;0,0178735
2398,0486;0,0178986
2399,0129;0,0179277
2399,9771;0,0179569
2400,9414;0,017985
2401,9055;0,0180115
2402,8699;0,0180355
2403,8340;0,0180555
2404,7983;0,0180701
2405,7625;0,0180814
2406,7268;0,0180938
2407,6909;0,0181124
2408,6553;0,0181389
2409,6194;0,0181691
2410,5837;0,0181968
2411,5479;0,0182168
2412,5122;0,0182284
2413,4763;0,0182337
2414,4407;0,0182344
2415,4048;0,0182289
2416,3691;0,0182139
2417,3333;0,0181891
2418,2976;0,018161
2419,2617;0,018141
2420,2261;0,0181393
2421,1902;0,0181575
2422,1545;0,0181885
2423,1187;0,0182213
2424,0830;0,0182478
2425,0471;0,0182676
2426,0115;0,0182863
2426,9756;0,0183089
2427,9399;0,0183364
2428,9041;0,0183647
2429,8684;0,0183887
2430,8325;0,0184052
2431,7969;0,018414
2432,7610;0,0184161
2433,7253;0,0184123
2434,6895;0,0184035
2435,6538;0,0183926
2436,6179;0,0183851
2437,5823;0,0183876
2438,5464;0,0184032
2439,5107;0,0184291
2440,4749;0,0184568
2441,4392;0,0184769
2442,4033;0,0184843
2443,3677;0,0184814
2444,3318;0,0184767
2445,2961;0,01848
2446,2603;0,0184967
2447,2246;0,0185243
2448,1887;0,0185539
2449,1531;0,0185744
2450,1172;0,0185789
2451,0815;0,0185691
2452,0457;0,0185541
2453,0100;0,0185462
2453,9741;0,0185534
2454,9385;0,0185748
2455,9026;0,0186014
2456,8669;0,0186221
2457,8311;0,0186322
2458,7954;0,018637
2459,7595;0,018649
2460,7239;0,0186799
2461,6880;0,0187313
2462,6523;0,0187924
2463,6165;0,0188455
2464,5808;0,018875
2465,5449;0,0188765
2466,5093;0,0188579
2467,4734;0,0188336
2468,4377;0,018816
2469,4019;0,0188096
2470,3662;0,018811
2471,3303;0,0188141
2472,2947;0,0188149
2473,2588;0,0188148
2474,2231;0,0188181
2475,1873;0,018828
2476,1516;0,0188433
2477,1157;0,0188587
2478,0801;0,0188678
2479,0442;0,0188683
2480,0085;0,0188641
2480,9727;0,0188643
2481,9370;0,0188777
2482,9011;0,0189068
2483,8655;0,0189444
2484,8296;0,0189769
2485,7939;0,0189905
2486,7581;0,0189798
2487,7224;0,018951
2488,6865;0,0189195
2489,6509;0,018902
2490,6150;0,0189087
2491,5793;0,0189385
2492,5435;0,0189806
2493,5078;0,0190204
2494,4719;0,0190465
2495,4363;0,0190562
2496,4004;0,0190548
2497,3647;0,0190518
2498,3289;0,019055
2499,2932;0,0190656
2500,2573;0,0190792
2501,2217;0,0190896
2502,1858;0,0190955
2503,1501;0,0191018
2504,1143;0,019117
2505,0786;0,0191452
2506,0427;0,019181
2507,0071;0,0192109
2507,9712;0,0192214
2508,9355;0,0192089
2509,8997;0,0191828
2510,8640;0,0191606
2511,8281;0,0191565
2512,7925;0,019173
2513,7566;0,0191994
2514,7209;0,0192198
2515,6851;0,0192216
2516,6494;0,0192025
2517,6135;0,0191685
2518,5779;0,0191299
2519,5420;0,0190957
2520,5063;0,0190723
2521,4705;0,0190646
2522,4348;0,0190762
2523,3989;0,0191084
2524,3633;0,0191581
2525,3274;0,0192169
2526,2917;0,0192726
2527,2559;0,0193139
2528,2202;0,0193329
2529,1843;0,019328
2530,1487;0,0193026
2531,1128;0,0192641
2532,0771;0,0192222
2533,0413;0,019188
2534,0056;0,0191718
2534,9697;0,01918
2535,9341;0,0192119
2536,8982;0,0192572
2537,8625;0,0192991
2538,8267;0,0193204
2539,7910;0,019312
2540,7551;0,0192781
2541,7195;0,0192362
2542,6836;0,0192087
2543,6479;0,0192121
2544,6121;0,0192486
2545,5764;0,0193056
2546,5405;0,0193622
2547,5049;0,0194002
2548,4690;0,0194108
2549,4333;0,0193963
2550,3975;0,0193648
2551,3618;0,0193251
2552,3259;0,0192835
2553,2903;0,0192453
2554,2544;0,0192171
2555,2188;0,0192074
2556,1829;0,0192232
2557,1472;0,0192651
2558,1113;0,0193249
2559,0757;0,0193875
2560,0398;0,0194374
2561,0042;0,0194646
2561,9683;0,0194675
2562,9326;0,0194512
2563,8967;0,0194236
2564,8611;0,0193909
2565,8252;0,0193583
2566,7896;0,0193307
2567,7537;0,019315
2568,7180;0,019318
2569,6821;0,0193425
2570,6465;0,0193836
2571,6106;0,0194293
2572,5750;0,0194653
2573,5391;0,0194826
2574,5034;0,0194824
2575,4675;0,0194739
2576,4319;0,0194687
2577,3960;0,0194726
2578,3604;0,0194834
2579,3245;0,0194938
2580,2888;0,0194978
2581,2529;0,0194951
2582,2173;0,0194905
2583,1814;0,0194904
2584,1458;0,0194975
2585,1099;0,0195097
2586,0742;0,019522
2587,0383;0,01953
2588,0027;0,0195321
2588,9668;0,0195294
2589,9312;0,0195252
2590,8953;0,0195239
2591,8596;0,0195301
2592,8237;0,0195474
2593,7881;0,0195764
2594,7522;0,0196125
2595,7166;0,0196473
2596,6807;0,0196716
2597,6450;0,0196808
2598,6091;0,0196774
2599,5735;0,0196704
2600,5376;0,0196697
2601,5020;0,0196816
2602,4661;0,0197055
2603,4304;0,0197356
2604,3945;0,019765
2605,3589;0,0197892
2606,3230;0,0198067
2607,2874;0,0198179
2608,2515;0,0198227
2609,2158;0,0198195
2610,1799;0,0198068
2611,1443;0,0197852
2612,1084;0,019759
2613,0728;0,019736
2614,0369;0,0197248
2615,0012;0,0197312
2615,9653;0,0197561
2616,9297;0,0197951
2617,8938;0,0198402
2618,8582;0,0198836
2619,8223;0,0199193
2620,7866;0,0199454
2621,7507;0,0199632
2622,7151;0,0199753
2623,6792;0,0199843
2624,6436;0,0199916
2625,6077;0,0199977
2626,5720;0,0200032
2627,5361;0,0200096
2628,5005;0,0200195
2629,4646;0,0200357
2630,4290;0,0200594
2631,3931;0,0200891
2632,3574;0,0201213
2633,3215;0,0201514
2634,2859;0,020176
2635,2500;0,0201941
2636,2144;0,0202068
2637,1785;0,0202165
2638,1428;0,0202258
2639,1069;0,020237
2640,0713;0,0202524
2641,0354;0,0202737
2641,9998;0,0203019
2642,9639;0,0203354
2643,9282;0,0203701
2644,8923;0,0203998
2645,8567;0,0204192
2646,8208;0,020427
2647,7852;0,0204266
2648,7493;0,0204248
2649,7136;0,0204288
2650,6777;0,0204426
2651,6421;0,0204659
2652,6062;0,0204944
2653,5706;0,020523
2654,5347;0,0205475
2655,4990;0,0205665
2656,4631;0,0205804
2657,4275;0,0205918
2658,3916;0,020604
2659,3560;0,0206204
2660,3201;0,0206426
2661,2844;0,0206697
2662,2485;0,0206981
2663,2129;0,020723
2664,1770;0,0207412
2665,1414;0,0207531
2666,1055;0,0207628
2667,0698;0,0207751
2668,0339;0,0207925
2668,9983;0,0208134
2669,9624;0,0208335
2670,9268;0,0208492
2671,8909;0,0208603
2672,8552;0,0208705
2673,8193;0,0208839
2674,7837;0,0209024
2675,7478;0,0209241
2676,7122;0,0209447
2677,6763;0,020961
2678,6406;0,0209724
2679,6047;0,0209817
2680,5691;0,0209926
2681,5332;0,0210082
2682,4976;0,0210292
2683,4617;0,0210544
2684,4260;0,021082
2685,3901;0,0211105
2686,3545;0,0211385
2687,3186;0,021165
2688,2830;0,0211889
2689,2471;0,0212096
2690,2114;0,0212278
2691,1755;0,0212454
2692,1399;0,0212652
2693,1040;0,0212894
2694,0684;0,0213179
2695,0325;0,0213479
2695,9968;0,0213749
2696,9609;0,0213951
2697,9253;0,0214076
2698,8894;0,0214149
2699,8538;0,0214216
2700,8179;0,0214328
2701,7822;0,0214516
2702,7463;0,0214783
2703,7107;0,0215115
2704,6748;0,0215484
2705,6392;0,0215858
2706,6033;0,0216204
2707,5676;0,0216495
2708,5317;0,0216718
2709,4961;0,0216883
2710,4602;0,0217018
2711,4246;0,0217168
2712,3887;0,0217368
2713,3530;0,0217635
2714,3171;0,0217956
2715,2815;0,0218289
2716,2456;0,0218584
2717,2100;0,0218795
2718,1741;0,0218908
2719,1384;0,0218956
2720,1025;0,0219003
2721,0669;0,0219122
2722,0310;0,0219353
2722,9954;0,0219679
2723,9595;0,0220033
2724,9238;0,0220341
2725,8879;0,0220573
2726,8523;0,0220757
2727,8164;0,0220962
2728,7808;0,0221248
2729,7449;0,0221622
2730,7092;0,0222029
2731,6733;0,0222385
2732,6377;0,022262
2733,6018;0,0222717
2734,5662;0,0222713
2735,5303;0,0222677
2736,4946;0,0222681
2737,4587;0,0222776
2738,4231;0,0222976
2739,3872;0,0223268
2740,3516;0,022361
2741,3157;0,0223954
2742,2800;0,0224258
2743,2441;0,0224498
2744,2085;0,0224669
2745,1726;0,022478
2746,1370;0,0224846
2747,1011;0,022488
2748,0654;0,0224907
2749,0295;0,0224956
2749,9939;0,0225066
2750,9580;0,0225262
2751,9224;0,0225549
2752,8865;0,0225905
2753,8508;0,0226291
2754,8149;0,0226673
2755,7793;0,0227025
2756,7434;0,0227337
2757,7078;0,0227603
2758,6719;0,022782
2759,6362;0,0227994
2760,6003;0,0228148
2761,5647;0,0228317
2762,5288;0,0228535
2763,4932;0,0228816
2764,4573;0,0229146
2765,4216;0,0229495
2766,3857;0,0229843
2767,3501;0,0230198
2768,3142;0,0230584
2769,2786;0,023102
2770,2427;0,0231494
2771,2070;0,0231955
2772,1711;0,0232345
2773,1355;0,0232633
2774,0996;0,0232841
2775,0640;0,0233038
2776,0281;0,0233302
2776,9924;0,0233678
2777,9565;0,0234161
2778,9209;0,0234694
2779,8850;0,0235207
2780,8494;0,0235649
2781,8135;0,023601
2782,7778;0,0236327
2783,7419;0,0236658
2784,7063;0,023705
2785,6704;0,0237515
2786,6348;0,0238019
2787,5989;0,0238502
2788,5632;0,0238916
2789,5273;0,0239253
2790,4917;0,0239561
2791,4558;0,0239911
2792,4202;0,0240366
2793,3843;0,0240937
2794,3486;0,0241588
2795,3127;0,0242256
2796,2771;0,0242891
2797,2412;0,0243476
2798,2056;0,0244027
2799,1697;0,0244567
2800,1340;0,024512
2801,0981;0,0245701
2802,0625;0,0246327
2803,0266;0,0247018
2803,9910;0,024778
2804,9551;0,0248593
2805,9194;0,0249405
2806,8835;0,0250157
2807,8479;0,0250821
2808,8120;0,0251416
2809,7764;0,0252
2810,7405;0,0252633
2811,7048;0,0253342
2812,6689;0,0254113
2813,6333;0,0254914
2814,5974;0,0255732
2815,5618;0,0256587
2816,5259;0,0257517
2817,4902;0,0258554
2818,4543;0,0259695
2819,4187;0,0260906
2820,3828;0,026214
2821,3472;0,0263362
2822,3113;0,0264564
2823,2756;0,0265754
2824,2397;0,0266954
2825,2041;0,0268193
2826,1682;0,0269505
2827,1326;0,0270922
2828,0967;0,0272463
2829,0610;0,0274124
2830,0251;0,0275881
2830,9895;0,0277706
2831,9536;0,0279584
2832,9180;0,0281524
2833,8821;0,0283546
2834,8464;0,028566
2835,8105;0,0287855
2836,7749;0,029012
2837,7390;0,0292478
2838,7034;0,0295009
2839,6675;0,0297843
2840,6318;0,0301118
2841,5959;0,0304922
2842,5603;0,030926
2843,5244;0,0314054
2844,4888;0,0319154
2845,4529;0,0324364
2846,4172;0,0329436
2847,3813;0,0334077
2848,3457;0,033797
2849,3098;0,0340835
2850,2742;0,0342515
2851,2383;0,0343032
2852,2026;0,0342597
2853,1667;0,0341537
2854,1311;0,0340198
2855,0952;0,0338843
2856,0596;0,033761
2857,0237;0,033653
2857,9880;0,0335586
2858,9521;0,0334775
2859,9165;0,0334137
2860,8806;0,0333744
2861,8450;0,0333657
2862,8091;0,0333892
2863,7734;0,0334404
2864,7375;0,0335111
2865,7019;0,0335933
2866,6660;0,0336822
2867,6304;0,0337763
2868,5945;0,033875
2869,5588;0,0339752
2870,5229;0,0340704
2871,4873;0,0341521
2872,4514;0,0342139
2873,4158;0,0342551
2874,3799;0,0342811
2875,3442;0,0343014
2876,3083;0,0343252
2877,2727;0,0343572
2878,2368;0,0343968
2879,2012;0,0344401
2880,1653;0,0344828
2881,1296;0,0345245
2882,0938;0,0345687
2883,0581;0,0346216
2884,0222;0,0346882
2884,9866;0,034769
2885,9507;0,0348592
2886,9150;0,0349519
2887,8792;0,0350414
2888,8435;0,0351274
2889,8076;0,0352148
2890,7720;0,0353102
2891,7361;0,0354178
2892,7004;0,0355357
2893,6646;0,0356569
2894,6289;0,0357727
2895,5930;0,035877
2896,5574;0,0359695
2897,5215;0,0360552
2898,4858;0,0361411
2899,4500;0,0362332
2900,4143;0,0363339
2901,3784;0,0364425
2902,3428;0,0365574
2903,3069;0,0366778
2904,2712;0,0368057
2905,2354;0,0369454
2906,1997;0,0371023
2907,1638;0,0372809
2908,1282;0,0374846
2909,0923;0,0377151
2910,0566;0,0379732
2911,0208;0,0382578
2911,9851;0,038564
2912,9492;0,0388804
2913,9136;0,0391894
2914,8777;0,0394696
2915,8420;0,0397014
2916,8062;0,0398721
2917,7705;0,0399784
2918,7346;0,0400237
2919,6990;0,0400141
2920,6631;0,0399541
2921,6274;0,0398465
2922,5916;0,0396946
2923,5559;0,039505
2924,5200;0,0392873
2925,4844;0,0390514
2926,4485;0,0388037
2927,4128;0,038546
2928,3770;0,0382769
2929,3413;0,0379957
2930,3054;0,0377052
2931,2698;0,0374114
2932,2339;0,0371217
2933,1982;0,0368413
2934,1624;0,0365721
2935,1267;0,0363122
2936,0908;0,0360575
2937,0552;0,0358042
2938,0193;0,0355501
2938,9836;0,0352959
2939,9478;0,0350442
2940,9121;0,0347977
2941,8762;0,0345573
2942,8406;0,0343219
2943,8047;0,03409
2944,7690;0,0338623
2945,7332;0,0336435
2946,6975;0,0334414
2947,6616;0,0332637
2948,6260;0,0331147
2949,5901;0,0329935
2950,5544;0,0328948
2951,5186;0,0328105
2952,4829;0,0327317
2953,4470;0,0326504
2954,4114;0,0325596
2955,3755;0,0324549
2956,3398;0,0323349
2957,3040;0,032201
2958,2683;0,0320564
2959,2324;0,0319041
2960,1968;0,0317458
2961,1609;0,0315826
2962,1252;0,0314155
2963,0894;0,0312469
2964,0537;0,0310789
2965,0178;0,0309125
2965,9822;0,0307464
2966,9463;0,0305775
2967,9106;0,030403
2968,8748;0,030222
2969,8391;0,0300362
2970,8032;0,0298498
2971,7676;0,0296679
2972,7317;0,029496
2973,6960;0,0293388
2974,6602;0,0291985
2975,6245;0,029074
2976,5886;0,0289604
2977,5530;0,0288502
2978,5171;0,0287368
2979,4814;0,0286175
2980,4456;0,0284952
2981,4099;0,028377
2982,3740;0,0282708
2983,3384;0,0281819
2984,3025;0,0281111
2985,2668;0,0280546
2986,2310;0,0280072
2987,1953;0,0279641
2988,1594;0,0279228
2989,1238;0,0278836
2990,0879;0,0278483
2991,0522;0,0278192
2992,0164;0,0277977
2992,9807;0,0277834
2993,9448;0,0277745
2994,9092;0,0277686
2995,8733;0,0277641
2996,8376;0,0277608
2997,8018;0,0277606
2998,7661;0,0277663
2999,7302;0,0277803
3000,6946;0,0278036
3001,6587;0,0278355
3002,6230;0,0278739
3003,5872;0,0279166
3004,5515;0,0279618
3005,5156;0,0280082
3006,4800;0,0280547
3007,4441;0,0280996
3008,4084;0,0281407
3009,3726;0,0281759
3010,3369;0,028204
3011,3010;0,0282253
3012,2654;0,0282412
3013,2295;0,0282542
3014,1938;0,0282667
3015,1580;0,0282808
3016,1223;0,0282983
3017,0864;0,0283206
3018,0508;0,0283495
3019,0149;0,0283865
3019,9792;0,0284332
3020,9434;0,0284899
3021,9077;0,0285553
3022,8718;0,0286267
3023,8362;0,0287008
3024,8003;0,0287757
3025,7646;0,0288519
3026,7288;0,0289323
3027,6931;0,0290192
3028,6572;0,0291116
3029,6216;0,0292031
3030,5857;0,0292842
3031,5500;0,0293464
3032,5142;0,0293874
3033,4785;0,0294139
3034,4426;0,0294383
3035,4070;0,0294737
3036,3711;0,0295273
3037,3354;0,0295979
3038,2996;0,0296767
3039,2639;0,0297525
3040,2280;0,0298174
3041,1924;0,0298714
3042,1565;0,0299236
3043,1208;0,0299876
3044,0850;0,0300746
3045,0493;0,0301864
3046,0134;0,030313
3046,9778;0,0304369
3047,9419;0,0305421
3048,9063;0,0306231
3049,8704;0,0306877
3050,8347;0,030752
3051,7988;0,0308304
3052,7632;0,0309271
3053,7273;0,0310349
3054,6917;0,0311405
3055,6558;0,0312333
3056,6201;0,0313115
3057,5842;0,0313827
3058,5486;0,0314582
3059,5127;0,0315469
3060,4771;0,0316505
3061,4412;0,0317633
3062,4055;0,0318753
3063,3696;0,0319758
3064,3340;0,0320578
3065,2981;0,0321206
3066,2625;0,0321701
3067,2266;0,032216
3068,1909;0,0322686
3069,1550;0,0323349
3070,1194;0,0324171
3071,0835;0,0325135
3072,0479;0,0326199
3073,0120;0,0327314
3073,9763;0,0328433
3074,9404;0,0329511
3075,9048;0,0330511
3076,8689;0,0331409
3077,8333;0,033219
3078,7974;0,0332855
3079,7617;0,0333412
3080,7258;0,0333883
3081,6902;0,033431
3082,6543;0,0334756
3083,6187;0,0335288
3084,5828;0,0335958
3085,5471;0,0336767
3086,5112;0,0337668
3087,4756;0,033859
3088,4397;0,0339475
3089,4041;0,0340316
3090,3682;0,0341156
3091,3325;0,034206
3092,2966;0,034307
3093,2610;0,0344181
3094,2251;0,0345335
3095,1895;0,0346455
3096,1536;0,0347475
3097,1179;0,0348367
3098,0820;0,0349149
3099,0464;0,0349862
3100,0105;0,0350559
3100,9749;0,0351277
3101,9390;0,0352033
3102,9033;0,0352822
3103,8674;0,0353629
3104,8318;0,0354442
3105,7959;0,0355263
3106,7603;0,035611
3107,7244;0,0357017
3108,6887;0,0358018
3109,6528;0,0359131
3110,6172;0,0360341
3111,5813;0,0361599
3112,5457;0,0362838
3113,5098;0,0363995
3114,4741;0,0365043
3115,4382;0,0365999
3116,4026;0,0366917
3117,3667;0,0367861
3118,3311;0,0368871
3119,2952;0,0369947
3120,2595;0,0371055
3121,2236;0,0372143
3122,1880;0,0373169
3123,1521;0,0374107
3124,1165;0,0374965
3125,0806;0,0375775
3126,0449;0,0376597
3127,0090;0,0377495
3127,9734;0,0378517
3128,9375;0,0379664
3129,9019;0,0380885
3130,8660;0,0382091
3131,8303;0,0383202
3132,7944;0,0384187
3133,7588;0,0385092
3134,7229;0,0386013
3135,6873;0,038705
3136,6514;0,0388249
3137,6157;0,0389577
3138,5798;0,0390941
3139,5442;0,0392228
3140,5083;0,0393369
3141,4727;0,039437
3142,4368;0,039531
3143,4011;0,0396307
3144,3652;0,0397464
3145,3296;0,0398828
3146,2937;0,0400371
3147,2581;0,0402005
3148,2222;0,0403612
3149,1865;0,0405084
3150,1506;0,0406358
3151,1150;0,0407432
3152,0791;0,0408371
3153,0435;0,0409287
3154,0076;0,04103
3154,9719;0,0411492
3155,9360;0,0412871
3156,9004;0,041437
3157,8645;0,0415873
3158,8289;0,0417278
3159,7930;0,0418541
3160,7573;0,0419698
3161,7214;0,0420844
3162,6858;0,0422084
3163,6499;0,0423483
3164,6143;0,0425035
3165,5784;0,042667
3166,5427;0,0428283
3167,5068;0,0429778
3168,4712;0,0431104
3169,4353;0,04313
3170,3997;0,0432396
3171,3638;0,0433512
3172,3281;0,0434718
3173,2922;0,0436037
3174,2566;0,0437447
3175,2207;0,0438907
3176,1851;0,0440382
3177,1492;0,0441854
3178,1135;0,0443313
3179,0776;0,0444742
3180,0420;0,0446103
3181,0061;0,0447357
3181,9705;0,0448489
3182,9346;0,0449536
3183,8989;0,045058
3184,8630;0,0451712
3185,8274;0,045298
3186,7915;0,0454359
3187,7559;0,0455772
3188,7200;0,045714
3189,6843;0,0458437
3190,6484;0,0459707
3191,6128;0,0461031
3192,5769;0,0462459
3193,5413;0,0463964
3194,5054;0,0465446
3195,4697;0,046679
3196,4338;0,0467932
3197,3982;0,0468904
3198,3623;0,0469812
3199,3267;0,0470778
3200,2908;0,0471876
3201,2551;0,0473111
3202,2192;0,0474438
3203,1836;0,0475798
3204,1477;0,0477153
3205,1121;0,0478493
3206,0762;0,0479826
3207,0405;0,0481158
3208,0046;0,0482491
3208,9690;0,0483809
3209,9331;0,0485088
3210,8975;0,0486305
3211,8616;0,0487439
3212,8259;0,0488488
3213,7900;0,0489464
3214,7544;0,0490396
3215,7185;0,0491319
3216,6829;0,0492272
3217,6470;0,0493294
3218,6113;0,0494419
3219,5754;0,0495659
3220,5398;0,0496994
3221,5039;0,0498367
3222,4683;0,0499709
3223,4324;0,050096
3224,3967;0,0502111
3225,3608;0,0503206
3226,3252;0,0504316
3227,2893;0,0505505
3228,2537;0,0506788
3229,2178;0,0508125
3230,1821;0,0509444
3231,1462;0,0510682
3232,1106;0,051181
3233,0747;0,0512842
3234,0391;0,0513817
3235,0032;0,0514783
3235,9675;0,0515776
3236,9316;0,0516828
3237,8960;0,0517965
3238,8601;0,051921
3239,8245;0,0520568
3240,7886;0,0522015
3241,7529;0,052349
3242,7170;0,0524909
3243,6814;0,0526196
3244,6455;0,0527322
3245,6099;0,0528313
3246,5740;0,0529252
3247,5383;0,0530233
3248,5024;0,0531327
3249,4668;0,0532564
3250,4309;0,0533935
3251,3953;0,0535401
3252,3594;0,0536908
3253,3237;0,0538398
3254,2878;0,0539819
3255,2522;0,0541137
3256,2163;0,0542354
3257,1807;0,0543511
3258,1448;0,0544684
3259,1091;0,0545949
3260,0732;0,0547353
3261,0376;0,0548881
3262,0017;0,0550464
3262,9661;0,0552008
3263,9302;0,0553443
3264,8945;0,0554749
3265,8586;0,0555959
3266,8230;0,0557123
3267,7871;0,0558271
3268,7515;0,0559388
3269,7156;0,0560424
3270,6799;0,0561321
3271,6440;0,0562044
3272,6084;0,0562601
3273,5725;0,0563035
3274,5369;0,0563415
3275,5010;0,0563811
3276,4653;0,056429
3277,4294;0,0564888
3278,3938;0,0565607
3279,3579;0,0566398
3280,3223;0,0567169
3281,2864;0,0567821
3282,2507;0,0568286
3283,2148;0,0568571
3284,1792;0,0568752
3285,1433;0,056894
3286,1077;0,0569214
3287,0718;0,0569572
3288,0361;0,0569932
3289,0002;0,057018
3289,9646;0,057024
3290,9287;0,0570124
3291,8931;0,0569931
3292,8572;0,0569785
3293,8215;0,056977
3294,7856;0,0569887
3295,7500;0,0570059
3296,7141;0,0570183
3297,6785;0,0570176
3298,6426;0,0570016
3299,6069;0,0569737
3300,5710;0,0569412
3301,5354;0,0569127
3302,4995;0,0568951
3303,4639;0,0568911
3304,4280;0,0568981
3305,3923;0,0569092
3306,3564;0,0569164
3307,3208;0,0569147
3308,2849;0,056905
3309,2493;0,0568931
3310,2134;0,0568867
3311,1777;0,0568903
3312,1418;0,0569039
3313,1062;0,0569233
3314,0703;0,0569427
3315,0347;0,0569581
3315,9988;0,0569684
3316,9631;0,0569764
3317,9272;0,0569885
3318,8916;0,0570122
3319,8557;0,0570535
3320,8201;0,0571125
3321,7842;0,0571816
3322,7485;0,0572476
3323,7126;0,0572975
3324,6770;0,0573256
3325,6411;0,0573376
3326,6055;0,0573482
3327,5696;0,0573729
3328,5339;0,0574202
3329,4980;0,0574866
3330,4624;0,0575584
3331,4265;0,0576193
3332,3909;0,0576576
3333,3550;0,057671
3334,3193;0,057666
3335,2834;0,0576531
3336,2478;0,05764
3337,2119;0,0576274
3338,1763;0,0576083
3339,1404;0,0575729
3340,1047;0,0575134
3341,0688;0,0574286
3342,0332;0,0573235
3342,9973;0,0572069
3343,9617;0,0570869
3344,9258;0,0569697
3345,8901;0,0568596
3346,8542;0,0567601
3347,8186;0,0566743
3348,7827;0,0566027
3349,7471;0,056541
3350,7112;0,0564802
3351,6755;0,0564095
3352,6396;0,0563214
3353,6040;0,0562157
3354,5681;0,0560988
3355,5325;0,0559808
3356,4966;0,0558698
3357,4609;0,0557689
3358,4250;0,0556759
3359,3894;0,0555861
3360,3535;0,0554951
3361,3179;0,0554014
3362,2820;0,0553058
3363,2463;0,0552107
3364,2104;0,0551173
3365,1748;0,0550248
3366,1389;0,0549295
3367,1033;0,0548261
3368,0674;0,0547104
3369,0317;0,0545808
3369,9958;0,0544398
3370,9602;0,054293
3371,9243;0,0541473
3372,8887;0,0540085
3373,8528;0,0538801
3374,8171;0,0537635
3375,7813;0,0536589
3376,7456;0,0535665
3377,7097;0,0534859
3378,6741;0,0534145
3379,6382;0,0533465
3380,6025;0,0532734
3381,5667;0,0531866
3382,5310;0,0530816
3383,4951;0,0529615
3384,4595;0,0528355
3385,4236;0,0527145
3386,3879;0,0526049
3387,3521;0,0525059
3388,3164;0,052411
3389,2805;0,0523142
3390,2449;0,0522142
3391,2090;0,0521146
3392,1733;0,0520198
3393,1375;0,0519297
3394,1018;0,0518384
3395,0659;0,051738
3396,0303;0,0516244
3396,9944;0,051501
3397,9587;0,0513762
3398,9229;0,0512577
3399,8872;0,0511456
3400,8513;0,0510331
3401,8157;0,0509109
3402,7798;0,0507745
3403,7441;0,0506279
3404,7083;0,0504818
3405,6726;0,0503474
3406,6367;0,0502304
3407,6011;0,0501276
3408,5652;0,0500282
3409,5295;0,0499187
3410,4937;0,0497887
3411,4580;0,049636
3412,4221;0,0494685
3413,3865;0,0493011
3414,3506;0,0491494
3415,3149;0,0490218
3416,2791;0,0489164
3417,2434;0,0488199
3418,2075;0,0487136
3419,1719;0,0485804
3420,1360;0,0484132
3421,1003;0,0482186
3422,0645;0,0480144
3423,0288;0,0478214
3423,9929;0,047654
3424,9573;0,0475147
3425,9214;0,0473948
3426,8857;0,0472789
3427,8499;0,0471522
3428,8142;0,0470067
3429,7783;0,0468429
3430,7427;0,0466676
3431,7068;0,0464891
3432,6711;0,0463133
3433,6353;0,0461431
3434,5996;0,0459797
3435,5637;0,0458232
3436,5281;0,0456728
3437,4922;0,045526
3438,4565;0,0453801
3439,4207;0,0452353
3440,3850;0,045095
3441,3491;0,0449633
3442,3135;0,0448394
3443,2776;0,0447134
3444,2419;0,0445686
3445,2061;0,0443904
3446,1704;0,0441761
3447,1345;0,0439396
3448,0989;0,0437044
3449,0630;0,0434898
3450,0273;0,0433011
3450,9915;0,0431311
3451,9558;0,0429705
3452,9199;0,0428156
3453,8843;0,0426701
3454,8484;0,0425385
3455,8127;0,0424198
3456,7769;0,0423046
3457,7412;0,0421798
3458,7053;0,0420355
3459,6697;0,041871
3460,6338;0,0416936
3461,5981;0,0415135
3462,5623;0,0413373
3463,5266;0,0411644
3464,4907;0,0409886
3465,4551;0,0408043
3466,4192;0,0406122
3467,3835;0,0404212
3468,3477;0,0402441
3469,3120;0,0400891
3470,2761;0,0399533
3471,2405;0,0398223
3472,2046;0,0396784
3473,1689;0,0395121
3474,1331;0,03933
3475,0974;0,0391515
3476,0615;0,0389965
3477,0259;0,0388719
3477,9900;0,0387671
3478,9543;0,0386604
3479,9185;0,0385332
3480,8828;0,038381
3481,8469;0,0382152
3482,8113;0,0380527
3483,7754;0,037901
3484,7397;0,0377524
3485,7039;0,0375912
3486,6682;0,0374074
3487,6323;0,0372072
3488,5967;0,0370114
3489,5608;0,0368433
3490,5251;0,0367124
3491,4893;0,0366083
3492,4536;0,0365064
3493,4177;0,0363833
3494,3821;0,0362324
3495,3462;0,0360702
3496,3105;0,035928
3497,2747;0,0358318
3498,2390;0,0357837
3499,2031;0,0357567
3500,1675;0,0357058
3501,1316;0,0355884
3502,0959;0,0353879
3503,0601;0,0351278
3504,0244;0,0348599
3504,9885;0,0346319
3505,9529;0,0344601
3506,9170;0,0343276
3507,8813;0,0342015
3508,8455;0,0340537
3509,8098;0,0338741
3510,7739;0,0336735
3511,7383;0,033472
3512,7024;0,0332849
3513,6667;0,0331169
3514,6309;0,0329671
3515,5952;0,0328367
3516,5593;0,0327302
3517,5237;0,0326522
3518,4878;0,0326004
3519,4521;0,0325636
3520,4163;0,032525
3521,3806;0,0324689
3522,3447;0,0323867
3523,3091;0,0322779
3524,2732;0,0321448
3525,2375;0,0319866
3526,2017;0,0317962
3527,1660;0,0315678
3528,1301;0,0313066
3529,0945;0,0310345
3530,0586;0,0307823
3531,0229;0,0305734
3531,9871;0,0304119
3532,9514;0,0302828
3533,9155;0,0301604
3534,8799;0,0300203
3535,8440;0,0298525
3536,8083;0,0296701
3537,7725;0,0295058
3538,7368;0,0293957
3539,7009;0,0293586
3540,6653;0,0293855
3541,6294;0,02944
3542,5938;0,0294675
3543,5579;0,0294122
3544,5222;0,0292454
3545,4863;0,0289892
3546,4507;0,0287089
3547,4148;0,0284673
3548,3792;0,0282823
3549,3433;0,0281256
3550,3076;0,0279527
3551,2717;0,0277374
3552,2361;0,0274899
3553,2002;0,0272505
3554,1646;0,0270603
3555,1287;0,0269327
3556,0930;0,0268502
3557,0571;0,0267863
3558,0215;0,0267304
3558,9856;0,026697
3559,9500;0,0267141
3560,9141;0,0267962
3561,8784;0,0269234
3562,8425;0,0270387
3563,8069;0,027059
3564,7710;0,0268916
3565,7354;0,0264754
3566,6995;0,0258602
3567,6638;0,0252345
3568,6279;0,0247941
3569,5923;0,0245917
3570,5564;0,0245455
3571,5208;0,0245425
3572,4849;0,0245098
3573,4492;0,0244292
3574,4133;0,024317
3575,3777;0,0241961
3576,3418;0,0240776
3577,3062;0,0239616
3578,2703;0,0238527
3579,2346;0,0237722
3580,1987;0,0237511
3581,1631;0,0238073
3582,1272;0,0239242
3583,0916;0,0240495
3584,0557;0,0241091
3585,0200;0,0240254
3585,9841;0,0237496
3586,9485;0,0233247
3587,9126;0,0229135
3588,8770;0,0226914
3589,8411;0,022703
3590,8054;0,0228575
3591,7695;0,0230233
3592,7339;0,0231036
3593,6980;0,0230652
3594,6624;0,022938
3595,6265;0,0227855
3596,5908;0,0226521
3597,5549;0,0225308
3598,5193;0,0223809
3599,4834;0,0221757
3600,4478;0,0219364
3601,4119;0,0217207
3602,3762;0,0215745
3603,3403;0,0214945
3604,3047;0,0214342
3605,2688;0,0213345
3606,2332;0,0211526
3607,1973;0,0208825
3608,1616;0,0205645
3609,1257;0,0202678
3610,0901;0,0200512
3611,0542;0,019937
3612,0186;0,0199148
3612,9827;0,0199562
3613,9470;0,0200214
3614,9111;0,02006
3615,8755;0,0200154
3616,8396;0,019842
3617,8040;0,0195356
3618,7681;0,0191692
3619,7324;0,0188903
3620,6965;0,0188373
3621,6609;0,0190313
3622,6250;0,0193638
3623,5894;0,0196745
3624,5535;0,0198283
3625,5178;0,0197447
3626,4819;0,0193942
3627,4463;0,0188005
3628,4104;0,0180949
3629,3748;0,0175256
3630,3389;0,0172689
3631,3032;0,0172689
3632,2673;0,0173395
3633,2317;0,017334
3634,1958;0,017212
3635,1602;0,0170166
3636,1243;0,0168167
3637,0886;0,0166553
3638,0527;0,0165349
3639,0171;0,0164405
3639,9812;0,0163707
3640,9456;0,0163458
3641,9097;0,0163884
3642,8740;0,0164971
3643,8381;0,0166405
3644,8025;0,0167699
3645,7666;0,0168258
3646,7310;0,0167063
3647,6951;0,0162496
3648,6594;0,0154119
3649,6235;0,0145257
3650,5879;0,0140248
3651,5520;0,0139716
3652,5164;0,0141316
3653,4805;0,0142593
3654,4448;0,0142303
3655,4089;0,0140518
3656,3733;0,0138261
3657,3374;0,0136741
3658,3018;0,0136465
3659,2659;0,0137008
3660,2302;0,0137622
3661,1943;0,0137954
3662,1587;0,0138243
3663,1228;0,013895
3664,0872;0,0140228
3665,0513;0,0141739
3666,0156;0,0142914
3666,9797;0,014335
3667,9441;0,0142979
3668,9082;0,0142055
3669,8726;0,0141099
3670,8367;0,0140537
3671,8010;0,014017
3672,7651;0,0139274
3673,7295;0,013724
3674,6936;0,01341
3675,6580;0,0130813
3676,6221;0,0128872
3677,5864;0,0128984
3678,5505;0,013047
3679,5149;0,0132229
3680,4790;0,0133751
3681,4434;0,0135227
3682,4075;0,0137029
3683,3718;0,0139171
3684,3359;0,0141188
3685,3003;0,0142455
3686,2644;0,014257
3687,2288;0,0141475
3688,1929;0,0139402
3689,1572;0,0136992
3690,1213;0,0135347
3691,0857;0,013526
3692,0498;0,0136527
3693,0142;0,013839
3693,9783;0,0140241
3694,9426;0,0141842
3695,9067;0,0143147
3696,8711;0,0144084
3697,8352;0,01445
3698,7996;0,014426
3699,7637;0,0143419
3700,7280;0,0142353
3701,6921;0,0141732
3702,6565;0,0142224
3703,6206;0,0144052
3704,5850;0,0146823
3705,5491;0,0149761
3706,5134;0,0152066
3707,4775;0,0153056
3708,4419;0,0152046
3709,4060;0,0148336
3710,3704;0,0141919
3711,3345;0,0134591
3712,2988;0,0129303
3713,2629;0,0127756
3714,2273;0,0129489
3715,1914;0,0133007
3716,1558;0,0136991
3717,1199;0,0140736
3718,0842;0,0144065
3719,0483;0,0147054
3720,0127;0,0149777
3720,9768;0,015216
3721,9412;0,0153999
3722,9053;0,0155091
3723,8696;0,0155428
3724,8337;0,0155314
3725,7981;0,0155249
3726,7622;0,0155611
3727,7266;0,015641
3728,6907;0,0157368
3729,6550;0,0158195
3730,6191;0,0158762
3731,5835;0,0158977
3732,5476;0,0158403
3733,5120;0,0156109
3734,4761;0,0151531
3735,4404;0,0145933
3736,4045;0,0141959
3737,3689;0,0141116
3738,3330;0,0142596
3739,2974;0,0144314
3740,2615;0,0144319
3741,2258;0,0141585
3742,1899;0,0136386
3743,1543;0,0130436
3744,1184;0,0126426
3745,0828;0,0126361
3746,0469;0,0129794
3747,0112;0,0134193
3747,9753;0,0136745
3748,9397;0,0135592
3749,9038;0,0130571
3750,8682;0,0124033
3751,8323;0,0119909
3752,7966;0,0120243
3753,7607;0,0123777
3754,7251;0,0127923
3755,6892;0,0130688
3756,6536;0,0131235
3757,6177;0,0129787
3758,5820;0,0127398
3759,5461;0,0125438
3760,5105;0,0124792
3761,4746;0,0125435
3762,4390;0,0126738
3763,4031;0,0128014
3764,3674;0,0128816
3765,3315;0,0128954
3766,2959;0,0128377
3767,2600;0,0127091
3768,2244;0,0125176
3769,1885;0,0122919
3770,1528;0,0120907
3771,1169;0,0119832
3772,0813;0,0120076
3773,0454;0,0121448
3774,0098;0,0123321
3774,9739;0,0124988
3775,9382;0,0125939
3776,9023;0,0125966
3777,8667;0,0125197
3778,8308;0,0124108
3779,7952;0,0123341
3780,7593;0,0123303
3781,7236;0,0123906
3782,6877;0,0124682
3783,6521;0,0125103
3784,6162;0,0124854
3785,5806;0,0123991
3786,5447;0,0122918
3787,5090;0,0122173
3788,4731;0,0122137
3789,4375;0,0122852
3790,4016;0,0124049
3791,3660;0,0125352
3792,3301;0,0126523
3793,2944;0,0127599
3794,2585;0,0128822
3795,2229;0,0130378
3796,1870;0,0132126
3797,1514;0,013354
3798,1155;0,0133946
3799,0798;0,0132906
3800,0439;0,0130589
3801,0083;0,0127893
3801,9724;0,0125951
3802,9368;0,0125143
3803,9009;0,0124722
3804,8652;0,0123559
3805,8293;0,012123
3806,7937;0,0118586
3807,7578;0,0117312
3808,7222;0,0118538
3809,6863;0,0121818
3810,6506;0,0125563
3811,6147;0,0128223
3812,5791;0,0129117
3813,5432;0,0128612
3814,5076;0,0127811
3815,4717;0,0127855
3816,4360;0,0129102
3817,4001;0,0130803
3818,3645;0,0131608
3819,3286;0,0130494
3820,2930;0,0127608
3821,2571;0,0124457
3822,2214;0,0122848
3823,1855;0,0123396
3824,1499;0,0125309
3825,1140;0,0127345
3826,0784;0,0128667
3827,0425;0,0129099
3828,0068;0,0128959
3828,9709;0,0128728
3829,9353;0,0128774
3830,8994;0,0129233
3831,8638;0,0130049
3832,8279;0,013105
3833,7922;0,0132025
3834,7563;0,0132763
3835,7207;0,0133077
3836,6848;0,0132819
3837,6492;0,0131962
3838,6133;0,0130701
3839,5776;0,0129349
3840,5417;0,0128042
3841,5061;0,0126685
3842,4702;0,0125284
3843,4346;0,0124254
3844,3987;0,0124316
3845,3630;0,0126018
3846,3271;0,0129255
3847,2915;0,0133212
3848,2556;0,0136686
3849,2200;0,0138501
3850,1841;0,0137686
3851,1484;0,0133431
3852,1125;0,012544
3853,0769;0,0115748
3854,0410;0,0109306
3855,0054;0,0109306
3855,9695;0,0114234
3856,9338;0,0120744
3857,8979;0,0126438
3858,8623;0,0130363
3859,8264;0,0132548
3860,7908;0,0133442
3861,7549;0,0133514
3862,7192;0,0133108
3863,6833;0,013253
3864,6477;0,0132075
3865,6118;0,0131854
3866,5762;0,0131732
3867,5403;0,0131465
3868,5046;0,0130846
3869,4688;0,0129754
3870,4331;0,0128222
3871,3972;0,0126526
3872,3616;0,0125127
3873,3257;0,0124424
3874,2900;0,0124531
3875,2542;0,0125266
3876,2185;0,0126306
3877,1826;0,0127368
3878,1470;0,0128314
3879,1111;0,0129106
3880,0754;0,0129691
3881,0396;0,01299
3882,0039;0,0129453
3882,9680;0,0128149
3883,9324;0,0126163
3884,8965;0,0124199
3885,8608;0,0123175
3886,8250;0,0123549
3887,7893;0,0124924
3888,7534;0,0126334
3889,7178;0,0126883
3890,6819;0,012632
3891,6462;0,0125286
3892,6104;0,0124921
3893,5747;0,0125925
3894,5388;0,0128016
3895,5032;0,0130331
3896,4673;0,013212
3897,4316;0,013307
3898,3958;0,0133229
3899,3601;0,0132766
3900,3242;0,0131786
3901,2886;0,0130271
3902,2527;0,0128184
3903,2170;0,0125712
3904,1812;0,0123384
3905,1455;0,0121793
3906,1096;0,0121167
3907,0740;0,0121282
3908,0381;0,0121752
3909,0024;0,0122337
3909,9666;0,0123041
3910,9309;0,0123985
3911,8950;0,0125213
3912,8594;0,0126567
3913,8235;0,0127702
3914,7878;0,0128236
3915,7520;0,0127967
3916,7163;0,0127075
3917,6804;0,0126146
3918,6448;0,0125844
3919,6089;0,0126437
3920,5732;0,0127598
3921,5374;0,0128656
3922,5017;0,0129029
3923,4658;0,0128588
3924,4302;0,0127764
3925,3943;0,0127271
3926,3586;0,0127587
3927,3228;0,0128618
3928,2871;0,0129779
3929,2512;0,0130346
3930,2156;0,0129819
3931,1797;0,0128211
3932,1440;0,0126096
3933,1082;0,0124277
3934,0725;0,0123299
3935,0366;0,0123236
3936,0010;0,0123837
3936,9651;0,0124775
3937,9294;0,0125774
3938,8936;0,0126633
3939,8579;0,0127195
3940,8220;0,012738
3941,7864;0,0127244
3942,7505;0,0127015
3943,7148;0,012698
3944,6790;0,012728
3945,6433;0,0127802
3946,6074;0,0128249
3947,5718;0,0128313
3948,5359;0,0127855
3949,5002;0,0126999
3950,4644;0,0126052
3951,4287;0,0125303
3952,3928;0,0124872
3953,3572;0,0124717
3954,3213;0,0124739
3955,2856;0,0124857
3956,2498;0,012503
3957,2141;0,0125221
3958,1782;0,0125378
3959,1426;0,0125437
3960,1067;0,0125355
3961,0710;0,0125147
3962,0352;0,012488
3962,9995;0,0124647
3963,9636;0,0124516
3964,9280;0,0124508
3965,8921;0,0124607
3966,8564;0,0124787
3967,8206;0,0125022
3968,7849;0,0125291
3969,7490;0,012556
3970,7134;0,0125775
3971,6775;0,0125873
3972,6418;0,0125801
3973,6060;0,0125552
3974,5703;0,0125177
3975,5344;0,0124776
3976,4988;0,0124457
3977,4629;0,0124285
3978,4272;0,0124256
3979,3914;0,0124302
3980,3557;0,0124328
3981,3198;0,0124261
3982,2842;0,0124091
3983,2483;0,0123874
3984,2126;0,0123701
3985,1768;0,0123653
3986,1411;0,0123757
3987,1052;0,0123986
3988,0696;0,012427
3989,0337;0,0124533
3989,9980;0,0124708
3990,9622;0,0124752
3991,9265;0,0124646
3992,8906;0,0124405
3993,8550;0,0124077
3994,8191;0,0123749
3995,7834;0,012352
3996,7476;0,0123461
3997,7119;0,0123581
3998,6760;0,0123821
3999,6404;0,0124089
4000,6045;0,0126188

##### Extended Information
[Comments]
Sample name
Comment
Username
Division
Organization;UNIVERSIDAD INDUSTRIAL DE SANTANDER

[Detailed Information]
Creation date;25/02/2025 4:24 p.m.

Data array type;Linear data array
Horizontal axis;Wavenumber [cm-1]
Vertical axis;Abs
Start;399,193 cm-1
End;4000,6 cm-1
Data interval;0,964233 cm-1
Data points;3736    

[Measurement Information]
Model name;FT/IR-4X1typeA
Serial No.;A035162111

Accessory;ATR PRO 4X
Accessory S/N;A021162126
Incident angle;45 deg

Measurement date;25/02/2025 4:23 p.m.

Light source;Standard
Detector;TGS
Accumulation;40
Resolution;4 cm-1
Zero filling;On
Apodization;Cosine
Gain;Auto (8)
Aperture;Auto (7 mm)
Scan speed;Auto (2 mm/sec)
Filter;Auto (12800 Hz)

