TITLE;
DATA TYPE;INFRARED SPECTRUM
ORIGIN;JASCO
OWNER;
DATE;25/02/25
TIME;16:16:56
SPECTROMETER/DATA SYSTEM;
LOCALE;9226
RESOLUTION;
DELTAX;0,964233
XUNITS;1/CM
YUNITS;ABSORBANCE
FIRSTX;  399,1927
LASTX; 4000,6047
NPOINTS;    3736
FIRSTY;     0,15769
MAXY;     0,22102
MINY;     0,01444
XYDATA
399,1927;0,157693
400,1569;0,156189
401,1211;0,155916
402,0854;0,156384
403,0496;0,15699
404,0138;0,157262
404,9781;0,156988
405,9423;0,156283
406,9065;0,155542
407,8708;0,155199
408,8350;0,155459
409,7992;0,156173
410,7635;0,156948
411,7277;0,157416
412,6919;0,157483
413,6562;0,157348
414,6204;0,157339
415,5846;0,157732
416,5489;0,15867
417,5131;0,160103
418,4773;0,161734
419,4416;0,163129
420,4058;0,16406
421,3700;0,164612
422,3343;0,164951
423,2985;0,165163
424,2627;0,165283
425,2270;0,165356
426,1912;0,165451
427,1554;0,165612
428,1197;0,165816
429,0839;0,165969
430,0481;0,165965
431,0124;0,165761
431,9766;0,165419
432,9408;0,165094
433,9051;0,16496
434,8693;0,16512
435,8335;0,165536
436,7978;0,166036
437,7620;0,166392
438,7262;0,166435
439,6905;0,166141
440,6547;0,165644
441,6189;0,165191
442,5832;0,165024
443,5474;0,165236
444,5116;0,165691
445,4759;0,166114
446,4401;0,166275
447,4043;0,166111
448,3686;0,165726
449,3328;0,165301
450,2970;0,164989
451,2613;0,164853
452,2255;0,164864
453,1897;0,164943
454,1540;0,165012
455,1182;0,165008
456,0824;0,164877
457,0467;0,164582
458,0109;0,164133
458,9751;0,163619
459,9394;0,163169
460,9036;0,162885
461,8678;0,162792
462,8321;0,162839
463,7963;0,162922
464,7605;0,162917
465,7248;0,162722
466,6890;0,162304
467,6532;0,16171
468,6175;0,161045
469,5817;0,160436
470,5459;0,159987
471,5102;0,159746
472,4744;0,15968
473,4386;0,159702
474,4029;0,159729
475,3671;0,159743
476,3313;0,15979
477,2956;0,159941
478,2598;0,160244
479,2240;0,160706
480,1883;0,161288
481,1525;0,161939
482,1167;0,162611
483,0810;0,163263
484,0452;0,163856
485,0094;0,164345
485,9737;0,164703
486,9379;0,16493
487,9021;0,165065
488,8664;0,165152
489,8306;0,165221
490,7948;0,165266
491,7591;0,165258
492,7233;0,165174
493,6875;0,165029
494,6518;0,164887
495,6160;0,164826
496,5802;0,164908
497,5445;0,165145
498,5087;0,165506
499,4729;0,165934
500,4372;0,166374
501,4014;0,166802
502,3656;0,167223
503,3299;0,16766
504,2941;0,168128
505,2583;0,168611
506,2226;0,169073
507,1868;0,169477
508,1510;0,16981
509,1153;0,170096
510,0795;0,170383
511,0437;0,170716
512,0080;0,171117
512,9722;0,171579
513,9365;0,17209
514,9007;0,172644
515,8649;0,173247
516,8292;0,173896
517,7934;0,174547
518,7576;0,175114
519,7219;0,175507
520,6861;0,175686
521,6503;0,175671
522,6146;0,175527
523,5788;0,175328
524,5430;0,17513
525,5073;0,174966
526,4715;0,174847
527,4357;0,174777
528,4000;0,174763
529,3642;0,174803
530,3284;0,174878
531,2927;0,174943
532,2569;0,174941
533,2211;0,174826
534,1854;0,174594
535,1496;0,174291
536,1138;0,173987
537,0781;0,17374
538,0423;0,173568
539,0065;0,173445
539,9708;0,173339
540,9350;0,173239
541,8992;0,173174
542,8635;0,173196
543,8277;0,173345
544,7919;0,173622
545,7562;0,173983
546,7204;0,174368
547,6846;0,174738
548,6489;0,175088
549,6131;0,175441
550,5773;0,175821
551,5416;0,176231
552,5058;0,176663
553,4700;0,177107
554,4343;0,177564
555,3985;0,178024
556,3627;0,178453
557,3270;0,178769
558,2912;0,17886
559,2554;0,178622
560,2197;0,178008
561,1839;0,177054
562,1481;0,175872
563,1124;0,174614
564,0766;0,173415
565,0408;0,172361
566,0051;0,171477
566,9693;0,170747
567,9335;0,170141
568,8978;0,169634
569,8620;0,169212
570,8262;0,168859
571,7905;0,168558
572,7547;0,168297
573,7189;0,16807
574,6832;0,167886
575,6474;0,167758
576,6116;0,167687
577,5759;0,167653
578,5401;0,16762
579,5043;0,167557
580,4686;0,167456
581,4328;0,167327
582,3970;0,167193
583,3613;0,167068
584,3255;0,166953
585,2897;0,166843
586,2540;0,16674
587,2182;0,166657
588,1824;0,166613
589,1467;0,166616
590,1109;0,166652
591,0751;0,166685
592,0394;0,166676
593,0036;0,166596
593,9678;0,166442
594,9321;0,166232
595,8963;0,165984
596,8605;0,16571
597,8248;0,165413
598,7890;0,165089
599,7532;0,16474
600,7175;0,164381
601,6817;0,164029
602,6459;0,163705
603,6102;0,163417
604,5744;0,163163
605,5386;0,162922
606,5029;0,162663
607,4671;0,162348
608,4313;0,161937
609,3956;0,16141
610,3598;0,16078
611,3240;0,160098
612,2883;0,159444
613,2525;0,158888
614,2167;0,158453
615,1810;0,158092
616,1452;0,157689
617,1094;0,157108
618,0737;0,156258
619,0379;0,155148
620,0021;0,153871
620,9664;0,152554
621,9306;0,151302
622,8948;0,150163
623,8591;0,149139
624,8233;0,148184
625,7875;0,147313
626,7518;0,146518
627,7160;0,145812
628,6802;0,145201
629,6445;0,144679
630,6087;0,144211
631,5729;0,143748
632,5372;0,143247
633,5014;0,142691
634,4656;0,142106
635,4299;0,141543
636,3941;0,141059
637,3583;0,140688
638,3226;0,140428
639,2868;0,140245
640,2510;0,140087
641,2153;0,139901
642,1795;0,139652
643,1437;0,139332
644,1080;0,138967
645,0722;0,138604
646,0364;0,13829
647,0007;0,138049
647,9649;0,137875
648,9291;0,137733
649,8934;0,137586
650,8576;0,137421
651,8218;0,137256
652,7861;0,137131
653,7503;0,137082
654,7145;0,137128
655,6788;0,137262
656,6430;0,137456
657,6072;0,137668
658,5715;0,137848
659,5357;0,137934
660,4999;0,137857
661,4642;0,137568
662,4284;0,137053
663,3926;0,136329
664,3569;0,13545
665,3211;0,134555
666,2853;0,133891
667,2496;0,133659
668,2138;0,133659
669,1780;0,133389
670,1423;0,132731
671,1065;0,131867
672,0707;0,130842
673,0350;0,129606
673,9992;0,128167
674,9634;0,126621
675,9277;0,12509
676,8919;0,12366
677,8561;0,122345
678,8204;0,121124
679,7846;0,119985
680,7488;0,118943
681,7131;0,118019
682,6773;0,117202
683,6415;0,116455
684,6058;0,115734
685,5700;0,115016
686,5342;0,114306
687,4985;0,113629
688,4627;0,113016
689,4269;0,112483
690,3912;0,112036
691,3554;0,11167
692,3196;0,111364
693,2839;0,111084
694,2481;0,11079
695,2123;0,110453
696,1766;0,110064
697,1408;0,109639
698,1050;0,109207
699,0693;0,108792
700,0335;0,108408
700,9977;0,108044
701,9620;0,107676
702,9262;0,10727
703,8904;0,106792
704,8547;0,106234
705,8189;0,105615
706,7831;0,104978
707,7474;0,104372
708,7116;0,103833
709,6758;0,103363
710,6401;0,102927
711,6043;0,102475
712,5685;0,101963
713,5328;0,101384
714,4970;0,100773
715,4612;0,0997823
716,4255;0,0993485
717,3897;0,0990151
718,3539;0,0987041
719,3182;0,0982923
720,2824;0,0976721
721,2466;0,0968133
722,2109;0,0957795
723,1751;0,0946893
724,1393;0,0936555
725,1036;0,0927455
726,0678;0,0919736
727,0320;0,0913169
727,9963;0,0907369
728,9605;0,0901979
729,9247;0,0896751
730,8890;0,0891552
731,8532;0,0886322
732,8174;0,0881051
733,7817;0,0875772
734,7459;0,0870554
735,7101;0,0865506
736,6744;0,0860756
737,6386;0,0856427
738,6028;0,085259
739,5671;0,0849223
740,5313;0,0846181
741,4955;0,0843202
742,4598;0,0839971
743,4240;0,0836223
744,3882;0,083185
745,3525;0,0826962
746,3167;0,0821859
747,2809;0,0816919
748,2452;0,081244
749,2094;0,0808517
750,1736;0,0805003
751,1379;0,0801593
752,1021;0,0797969
753,0663;0,079395
754,0306;0,0789552
754,9948;0,0784958
755,9590;0,0780424
756,9233;0,0776158
757,8875;0,0772261
758,8517;0,0768702
759,8160;0,0765364
760,7802;0,0762101
761,7444;0,0758809
762,7087;0,0755464
763,6729;0,0752123
764,6371;0,0748882
765,6014;0,0745804
766,5656;0,074288
767,5298;0,0740041
768,4941;0,0737216
769,4583;0,07344
770,4225;0,0731664
771,3868;0,0729103
772,3510;0,0726749
773,3152;0,0724523
774,2795;0,0722275
775,2437;0,0719885
776,2079;0,0717353
777,1722;0,0714801
778,1364;0,0712386
779,1006;0,0710171
780,0649;0,0708062
781,0291;0,0705851
781,9933;0,0703344
782,9576;0,0700479
783,9218;0,0697365
784,8860;0,0694221
785,8503;0,0691263
786,8145;0,0688611
787,7787;0,068626
788,7430;0,0684131
789,7072;0,0682137
790,6714;0,0680237
791,6357;0,0678451
792,5999;0,0676819
793,5641;0,0675361
794,5284;0,0674048
795,4926;0,0672819
796,4568;0,0671627
797,4211;0,0670469
798,3853;0,0669374
799,3495;0,0668348
800,3138;0,0667321
801,2780;0,0666152
802,2422;0,0664722
803,2065;0,0663039
804,1707;0,0661284
805,1349;0,0659731
806,0992;0,0658586
807,0634;0,0657852
808,0276;0,0657308
808,9919;0,065664
809,9561;0,0655607
810,9203;0,0654149
811,8846;0,0652373
812,8488;0,0650454
813,8130;0,064853
814,7773;0,0646665
815,7415;0,0644879
816,7057;0,0643182
817,6700;0,0641584
818,6342;0,064008
819,5984;0,0638638
820,5627;0,0637225
821,5269;0,0635844
822,4911;0,0634563
823,4554;0,0633476
824,4196;0,0632642
825,3839;0,0632034
826,3481;0,0631531
827,3123;0,0630981
828,2766;0,0630266
829,2408;0,0629341
830,2050;0,0628223
831,1693;0,0626942
832,1335;0,0625505
833,0977;0,0623896
834,0620;0,0622104
835,0262;0,0620153
835,9904;0,0618108
836,9547;0,0616049
837,9189;0,0614031
838,8831;0,0612069
839,8474;0,0610142
840,8116;0,0608225
841,7758;0,0606316
842,7401;0,0604455
843,7043;0,0602722
844,6685;0,0601218
845,6328;0,0600038
846,5970;0,059923
847,5612;0,0598765
848,5255;0,0598525
849,4897;0,0598327
850,4539;0,059799
851,4182;0,0597409
852,3824;0,0596591
853,3466;0,0595641
854,3109;0,0594697
855,2751;0,0593861
856,2393;0,0593172
857,2036;0,0592621
858,1678;0,059221
859,1320;0,0591977
860,0963;0,0591989
861,0605;0,0592302
862,0247;0,0592921
862,9890;0,0593805
863,9532;0,0594894
864,9174;0,0596152
865,8817;0,0597569
866,8459;0,059915
867,8101;0,0600878
868,7744;0,0602702
869,7386;0,0604549
870,7028;0,0606339
871,6671;0,060801
872,6313;0,0609518
873,5955;0,0610827
874,5598;0,0611912
875,5240;0,0612772
876,4882;0,0613446
877,4525;0,0614036
878,4167;0,0614703
879,3809;0,0615647
880,3452;0,0617076
881,3094;0,0619158
882,2736;0,0621983
883,2379;0,0625555
884,2021;0,0629806
885,1663;0,0634649
886,1306;0,0640041
887,0948;0,0646009
888,0590;0,0652628
889,0233;0,0659943
889,9875;0,0667875
890,9517;0,0676164
891,9160;0,0684379
892,8802;0,0692006
893,8444;0,0698569
894,8087;0,0703733
895,7729;0,0707346
896,7371;0,07094
897,7014;0,0709963
898,6656;0,0709096
899,6298;0,0706826
900,5941;0,0703164
901,5583;0,0698177
902,5225;0,0692056
903,4868;0,0685155
904,4510;0,067797
905,4152;0,0671049
906,3795;0,0664878
907,3437;0,0659762
908,3079;0,0655778
909,2722;0,0652797
910,2364;0,0650582
911,2007;0,0648906
912,1649;0,0647638
913,1292;0,0646752
914,0934;0,0646287
915,0576;0,0646272
916,0219;0,0646692
916,9861;0,0647491
917,9503;0,0648596
918,9146;0,064994
919,8788;0,0651467
920,8430;0,065312
921,8073;0,065485
922,7715;0,065664
923,7357;0,0658527
924,7000;0,0660586
925,6642;0,0662876
926,6284;0,0665377
927,5927;0,0667975
928,5569;0,0670509
929,5211;0,0672862
930,4854;0,0675036
931,4496;0,0677158
932,4138;0,0679411
933,3781;0,068195
934,3423;0,0684835
935,3065;0,0688038
936,2708;0,0691478
937,2350;0,0695091
938,1992;0,0698863
939,1635;0,070285
940,1277;0,0707176
941,0919;0,0712009
942,0562;0,0717522
943,0204;0,0723841
943,9846;0,0730996
944,9489;0,0738905
945,9131;0,0747407
946,8773;0,0756331
947,8416;0,0765572
948,8058;0,077514
949,7700;0,0785153
950,7343;0,0795778
951,6985;0,0807163
952,6627;0,0819378
953,6270;0,0832394
954,5912;0,0846104
955,5554;0,0860364
956,5197;0,0875045
957,4839;0,089006
958,4481;0,0905357
959,4124;0,0920888
960,3766;0,0936584
961,3408;0,0952349
962,3051;0,0968096
963,2693;0,0983796
964,2335;0,09995
965,1978;0,101533
966,1620;0,10314
967,1262;0,104782
968,0905;0,106463
969,0547;0,108187
970,0189;0,109967
970,9832;0,111826
971,9474;0,113796
972,9116;0,115914
973,8759;0,118211
974,8401;0,12071
975,8043;0,123421
976,7686;0,126345
977,7328;0,129466
978,6970;0,132752
979,6613;0,13614
980,6255;0,139542
981,5897;0,142849
982,5540;0,145947
983,5182;0,148744
984,4824;0,151185
985,4467;0,153261
986,4109;0,155005
987,3751;0,156475
988,3394;0,157735
989,3036;0,158843
990,2678;0,159836
991,2321;0,160736
992,1963;0,161554
993,1605;0,162303
994,1248;0,163005
995,0890;0,163695
996,0532;0,164417
997,0175;0,165204
997,9817;0,166072
998,9459;0,167009
999,9102;0,167982
1000,8744;0,168958
1001,8386;0,169924
1002,8029;0,170894
1003,7671;0,171902
1004,7313;0,172996
1005,6956;0,174213
1006,6598;0,175581
1007,6240;0,177118
1008,5883;0,178838
1009,5525;0,180753
1010,5167;0,18286
1011,4810;0,185136
1012,4452;0,187533
1013,4094;0,189988
1014,3737;0,192435
1015,3379;0,194821
1016,3021;0,197112
1017,2664;0,199291
1018,2306;0,201356
1019,1948;0,203308
1020,1591;0,205161
1021,1233;0,206935
1022,0875;0,208652
1023,0518;0,210333
1024,0160;0,211988
1024,9802;0,213613
1025,9445;0,215193
1026,9087;0,216703
1027,8729;0,2181
1028,8372;0,219323
1029,8014;0,220286
1030,7656;0,220884
1031,7299;0,221016
1032,6941;0,220606
1033,6583;0,219634
1034,6226;0,218146
1035,5868;0,216251
1036,5510;0,214107
1037,5153;0,211893
1038,4795;0,209782
1039,4437;0,207921
1040,4080;0,206409
1041,3722;0,205287
1042,3364;0,204541
1043,3007;0,20411
1044,2649;0,203902
1045,2291;0,203814
1046,1934;0,203745
1047,1576;0,203606
1048,1218;0,20333
1049,0861;0,202872
1050,0503;0,202205
1051,0145;0,201318
1051,9788;0,200206
1052,9430;0,198873
1053,9072;0,197322
1054,8715;0,19556
1055,8357;0,19359
1056,7999;0,191399
1057,7642;0,188958
1058,7284;0,186225
1059,6926;0,183168
1060,6569;0,179792
1061,6211;0,176159
1062,5853;0,172384
1063,5496;0,168612
1064,5138;0,164983
1065,4780;0,161601
1066,4423;0,15852
1067,4065;0,155745
1068,3707;0,153252
1069,3350;0,151003
1070,2992;0,148953
1071,2634;0,147057
1072,2277;0,145269
1073,1919;0,143544
1074,1561;0,141836
1075,1204;0,140105
1076,0846;0,13832
1077,0488;0,136471
1078,0131;0,134577
1078,9773;0,132689
1079,9415;0,130876
1080,9058;0,129213
1081,8700;0,127757
1082,8342;0,126526
1083,7985;0,125504
1084,7627;0,124647
1085,7269;0,123904
1086,6912;0,123232
1087,6554;0,122612
1088,6196;0,122047
1089,5839;0,121558
1090,5481;0,121169
1091,5123;0,120894
1092,4766;0,120734
1093,4408;0,120676
1094,4050;0,120701
1095,3693;0,120796
1096,3335;0,120956
1097,2977;0,121182
1098,2620;0,121472
1099,2262;0,121814
1100,1904;0,122184
1101,1547;0,122543
1102,1189;0,122851
1103,0831;0,123071
1104,0474;0,123178
1105,0116;0,123163
1105,9758;0,12303
1106,9401;0,122791
1107,9043;0,122451
1108,8685;0,121997
1109,8328;0,121393
1110,7970;0,120591
1111,7612;0,119549
1112,7255;0,11826
1113,6897;0,116762
1114,6539;0,11514
1115,6182;0,113499
1116,5824;0,111937
1117,5466;0,110519
1118,5109;0,109265
1119,4751;0,108147
1120,4393;0,107107
1121,4036;0,106063
1122,3678;0,104936
1123,3320;0,103655
1124,2963;0,102176
1125,2605;0,100486
1126,2247;0,0986062
1127,1890;0,0965844
1128,1532;0,0944812
1129,1174;0,0923552
1130,0817;0,0902511
1131,0459;0,0881969
1132,0101;0,0862106
1132,9744;0,0843103
1133,9386;0,082522
1134,9028;0,0808802
1135,8671;0,0794214
1136,8313;0,0781758
1137,7955;0,0771623
1138,7598;0,0763882
1139,7240;0,075851
1140,6882;0,0755398
1141,6525;0,0754337
1142,6167;0,0755014
1143,5809;0,0757035
1144,5452;0,0760008
1145,5094;0,0763628
1146,4736;0,0767747
1147,4379;0,0772364
1148,4021;0,0777566
1149,3663;0,0783437
1150,3306;0,0789977
1151,2948;0,0797064
1152,2590;0,0804453
1153,2233;0,08118
1154,1875;0,0818709
1155,1517;0,0824767
1156,1160;0,0829569
1157,0802;0,0832701
1158,0444;0,0833708
1159,0087;0,0832066
1159,9729;0,0827191
1160,9371;0,0818539
1161,9014;0,0805746
1162,8656;0,0788776
1163,8298;0,0768
1164,7941;0,0744169
1165,7583;0,0718293
1166,7225;0,0691485
1167,6868;0,0664805
1168,6510;0,0639159
1169,6152;0,061522
1170,5795;0,0593402
1171,5437;0,0573865
1172,5079;0,0556561
1173,4722;0,0541312
1174,4364;0,0527898
1175,4006;0,0516139
1176,3649;0,0505918
1177,3291;0,0497161
1178,2933;0,0489785
1179,2576;0,0483659
1180,2218;0,047859
1181,1860;0,0474361
1182,1503;0,0470791
1183,1145;0,0467786
1184,0787;0,0465353
1185,0430;0,0463571
1186,0072;0,046254
1186,9714;0,0462328
1187,9357;0,0462957
1188,8999;0,046441
1189,8641;0,0466655
1190,8284;0,0469664
1191,7926;0,047341
1192,7568;0,0477853
1193,7211;0,0482929
1194,6853;0,0488552
1195,6495;0,0494623
1196,6138;0,0501043
1197,5780;0,0507714
1198,5422;0,0514537
1199,5065;0,052012
1200,4707;0,0527094
1201,4349;0,0533936
1202,3992;0,0540567
1203,3634;0,0546922
1204,3276;0,0552938
1205,2919;0,0558565
1206,2561;0,0563793
1207,2203;0,0568694
1208,1846;0,0573447
1209,1488;0,0578319
1210,1130;0,0583609
1211,0773;0,0589565
1212,0415;0,059632
1213,0057;0,0603869
1213,9700;0,0612091
1214,9342;0,0620802
1215,8984;0,0629799
1216,8627;0,0638882
1217,8269;0,0647869
1218,7911;0,0656623
1219,7554;0,0665056
1220,7196;0,0673129
1221,6838;0,0680841
1222,6481;0,0688202
1223,6123;0,0695226
1224,5765;0,0701921
1225,5408;0,0708302
1226,5050;0,0714397
1227,4692;0,0720233
1228,4335;0,0725822
1229,3977;0,0731137
1230,3619;0,0736112
1231,3262;0,0740659
1232,2904;0,0744699
1233,2546;0,0748189
1234,2189;0,0751141
1235,1831;0,0753611
1236,1473;0,0755686
1237,1116;0,0757453
1238,0758;0,0758977
1239,0400;0,0760282
1240,0043;0,0761341
1240,9685;0,0762086
1241,9327;0,0762425
1242,8970;0,0762264
1243,8612;0,0761524
1244,8254;0,0760156
1245,7897;0,0758148
1246,7539;0,0755526
1247,7181;0,0752363
1248,6824;0,074877
1249,6466;0,0744888
1250,6108;0,0740865
1251,5751;0,0736829
1252,5393;0,0732864
1253,5035;0,0728991
1254,4678;0,0725166
1255,4320;0,0721297
1256,3962;0,0717269
1257,3605;0,0712987
1258,3247;0,0708396
1259,2889;0,0703494
1260,2532;0,0698317
1261,2174;0,0692907
1262,1816;0,0687287
1263,1459;0,0681455
1264,1101;0,0675398
1265,0743;0,0669121
1266,0386;0,0662642
1267,0028;0,0655985
1267,9670;0,0649155
1268,9313;0,0642135
1269,8955;0,063491
1270,8597;0,0627498
1271,8240;0,061998
1272,7882;0,0612498
1273,7524;0,0605231
1274,7167;0,059834
1275,6809;0,0591932
1276,6451;0,058602
1277,6094;0,0580514
1278,5736;0,0575241
1279,5378;0,0570001
1280,5021;0,0564646
1281,4663;0,0559128
1282,4305;0,0553516
1283,3948;0,0547951
1284,3590;0,0542584
1285,3232;0,0537536
1286,2875;0,0532894
1287,2517;0,0528725
1288,2159;0,0525096
1289,1802;0,0522065
1290,1444;0,0519665
1291,1086;0,0517878
1292,0729;0,0516657
1293,0371;0,0515951
1294,0013;0,0515744
1294,9656;0,051607
1295,9298;0,051699
1296,8940;0,0518569
1297,8583;0,0520844
1298,8225;0,0523812
1299,7867;0,0527436
1300,7510;0,0531654
1301,7152;0,0536408
1302,6794;0,0541635
1303,6437;0,0547267
1304,6079;0,0553245
1305,5721;0,0559497
1306,5364;0,056594
1307,5006;0,0572493
1308,4648;0,0579087
1309,4291;0,0585674
1310,3933;0,0592204
1311,3575;0,0598587
1312,3218;0,0604669
1313,2860;0,0610237
1314,2502;0,0615047
1315,2145;0,0618858
1316,1787;0,0621447
1317,1429;0,0622639
1318,1072;0,0622363
1319,0714;0,0620733
1320,0356;0,0618075
1320,9999;0,0614847
1321,9641;0,0611487
1322,9283;0,0608301
1323,8926;0,0605441
1324,8568;0,0602952
1325,8210;0,0600831
1326,7853;0,0599054
1327,7495;0,0597578
1328,7137;0,0596324
1329,6780;0,0595166
1330,6422;0,0593947
1331,6064;0,0592531
1332,5707;0,0590828
1333,5349;0,0588816
1334,4991;0,0586485
1335,4634;0,0583772
1336,4276;0,0580502
1337,3918;0,0576414
1338,3561;0,0571324
1339,3203;0,056538
1340,2845;0,0559161
1341,2488;0,0553392
1342,2130;0,0548528
1343,1772;0,0544633
1344,1415;0,0541559
1345,1057;0,0539156
1346,0699;0,0537377
1347,0342;0,0536265
1347,9984;0,0535902
1348,9626;0,0536351
1349,9269;0,0537606
1350,8911;0,0539572
1351,8553;0,0542087
1352,8196;0,0544985
1353,7838;0,0548174
1354,7480;0,0551676
1355,7123;0,0555589
1356,6765;0,0559988
1357,6407;0,0564841
1358,6050;0,0570011
1359,5692;0,0575299
1360,5334;0,0580449
1361,4977;0,0585167
1362,4619;0,058927
1363,4261;0,0592874
1364,3904;0,0596294
1365,3546;0,0599729
1366,3188;0,0603106
1367,2831;0,0606186
1368,2473;0,0608722
1369,2115;0,0610541
1370,1758;0,0611552
1371,1400;0,0611672
1372,1042;0,0610766
1373,0685;0,0608677
1374,0327;0,0605387
1374,9969;0,0601171
1375,9612;0,0596461
1376,9254;0,0591457
1377,8896;0,0585952
1378,8539;0,0579573
1379,8181;0,0572202
1380,7823;0,0564182
1381,7466;0,0556117
1382,7108;0,0548435
1383,6750;0,0541102
1384,6393;0,0533733
1385,6035;0,0525983
1386,5677;0,0518002
1387,5320;0,0510623
1388,4962;0,0504862
1389,4604;0,0501096
1390,4247;0,0498862
1391,3889;0,0497385
1392,3531;0,049613
1393,3174;0,0494949
1394,2816;0,0493914
1395,2458;0,0493081
1396,2101;0,0492425
1397,1743;0,0491946
1398,1385;0,0491775
1399,1028;0,0492143
1400,0670;0,0493213
1401,0313;0,0494929
1401,9955;0,0497044
1402,9597;0,0499276
1403,9240;0,050149
1404,8882;0,0503775
1405,8524;0,0506374
1406,8167;0,0509493
1407,7809;0,0513134
1408,7451;0,0517142
1409,7094;0,0521397
1410,6736;0,052595
1411,6378;0,0530935
1412,6021;0,0536361
1413,5663;0,0541973
1414,5305;0,0547337
1415,4948;0,0552077
1416,4590;0,0556017
1417,4232;0,0559141
1418,3875;0,0561598
1419,3517;0,056384
1420,3159;0,0566356
1421,2802;0,0569
1422,2444;0,0570965
1423,2086;0,0571432
1424,1729;0,0570113
1425,1371;0,0567276
1426,1013;0,0563354
1427,0656;0,0558531
1428,0298;0,0552691
1428,9940;0,0545781
1429,9583;0,0538216
1430,9225;0,0530775
1431,8867;0,0523937
1432,8510;0,0517407
1433,8152;0,0510327
1434,7794;0,0501942
1435,7437;0,0492371
1436,7079;0,048316
1437,6721;0,0476564
1438,6364;0,0473662
1439,6006;0,0473638
1440,5648;0,0474964
1441,5291;0,0476604
1442,4933;0,0478309
1443,4575;0,0480285
1444,4218;0,0482733
1445,3860;0,0485583
1446,3502;0,0488557
1447,3145;0,0491438
1448,2787;0,0494306
1449,2429;0,0497467
1450,2072;0,0501075
1451,1714;0,0504818
1452,1356;0,0508026
1453,0999;0,0510076
1454,0641;0,0510689
1455,0283;0,0509802
1455,9926;0,0507002
1456,9568;0,0501985
1457,9210;0,049688
1458,8853;0,0494943
1459,8495;0,0496287
1460,8137;0,0498507
1461,7780;0,0499279
1462,7422;0,0497256
1463,7064;0,0492033
1464,6707;0,048429
1465,6349;0,0475796
1466,5991;0,0468255
1467,5634;0,046189
1468,5276;0,0455566
1469,4918;0,0447841
1470,4561;0,0437607
1471,4203;0,0424244
1472,3845;0,0408061
1473,3488;0,0391125
1474,3130;0,0376522
1475,2772;0,0365869
1476,2415;0,0358598
1477,2057;0,0353373
1478,1699;0,0349189
1479,1342;0,0345547
1480,0984;0,0342286
1481,0626;0,033946
1482,0269;0,0337272
1482,9911;0,0335959
1483,9553;0,0335624
1484,9196;0,0336178
1485,8838;0,0337421
1486,8480;0,0339094
1487,8123;0,0340795
1488,7765;0,0342084
1489,7407;0,0343158
1490,7050;0,0344994
1491,6692;0,0348238
1492,6334;0,0352632
1493,5977;0,0357638
1494,5619;0,0363081
1495,5261;0,0369188
1496,4904;0,0376182
1497,4546;0,0383962
1498,4188;0,0392325
1499,3831;0,0401097
1500,3473;0,040975
1501,3115;0,0417334
1502,2758;0,0423004
1503,2400;0,0426569
1504,2042;0,0428749
1505,1685;0,0430729
1506,1327;0,0432406
1507,0969;0,0431617
1508,0612;0,0428482
1509,0254;0,0426172
1509,9896;0,0425654
1510,9539;0,0425654
1511,9181;0,0424953
1512,8823;0,042307
1513,8466;0,0420003
1514,8108;0,0415898
1515,7750;0,041091
1516,7393;0,0405227
1517,7035;0,0399059
1518,6677;0,0392561
1519,6320;0,0385868
1520,5962;0,0379305
1521,5604;0,0373544
1522,5247;0,0369273
1523,4889;0,0366614
1524,4531;0,0365067
1525,4174;0,036409
1526,3816;0,036357
1527,3458;0,0363729
1528,3101;0,0364658
1529,2743;0,0366074
1530,2385;0,0367541
1531,2028;0,0368814
1532,1670;0,0369999
1533,1312;0,0371452
1534,0955;0,0373495
1535,0597;0,0376039
1536,0239;0,0378548
1536,9882;0,0380575
1537,9524;0,0382326
1538,9166;0,0384394
1539,8809;0,0386267
1540,8451;0,0385937
1541,8093;0,0383598
1542,7736;0,0381943
1543,7378;0,0381945
1544,7020;0,038289
1545,6663;0,0384156
1546,6305;0,0385578
1547,5947;0,0387087
1548,5590;0,0388464
1549,5232;0,0389437
1550,4874;0,0389936
1551,4517;0,0390227
1552,4159;0,0390696
1553,3801;0,039143
1554,3444;0,0392036
1555,3086;0,0391833
1556,2728;0,0389989
1557,2371;0,0385168
1558,2013;0,0376262
1559,1655;0,0366871
1560,1298;0,0363959
1561,0940;0,0368437
1562,0582;0,0376221
1563,0225;0,0383762
1563,9867;0,038946
1564,9509;0,0393069
1565,9152;0,0395018
1566,8794;0,0395992
1567,8436;0,0396717
1568,8079;0,03979
1569,7721;0,0400118
1570,7363;0,0403505
1571,7006;0,0407561
1572,6648;0,0411513
1573,6290;0,0414877
1574,5933;0,041767
1575,5575;0,0420228
1576,5217;0,0423072
1577,4860;0,0426926
1578,4502;0,0432166
1579,4144;0,0438347
1580,3787;0,0444694
1581,3429;0,0450746
1582,3071;0,0456484
1583,2714;0,0462131
1584,2356;0,0467912
1585,1998;0,0473941
1586,1641;0,0480193
1587,1283;0,0486533
1588,0925;0,0492748
1589,0568;0,0498593
1590,0210;0,0503817
1590,9852;0,0508187
1591,9495;0,0511475
1592,9137;0,0513467
1593,8779;0,0514037
1594,8422;0,0513261
1595,8064;0,0511464
1596,7706;0,0509112
1597,7349;0,0506621
1598,6991;0,0504216
1599,6633;0,0501935
1600,6276;0,0499731
1601,5918;0,0497602
1602,5560;0,0495669
1603,5203;0,0494127
1604,4845;0,0493078
1605,4487;0,0492396
1606,4130;0,049176
1607,3772;0,0490885
1608,3414;0,0489807
1609,3057;0,0488988
1610,2699;0,048899
1611,2341;0,0489958
1612,1984;0,0491445
1613,1626;0,0492737
1614,1268;0,0493281
1615,0911;0,0492964
1616,0553;0,0492344
1617,0195;0,0492687
1617,9838;0,0495092
1618,9480;0,0499366
1619,9122;0,0504303
1620,8765;0,0508751
1621,8407;0,0512163
1622,8049;0,0514565
1623,7692;0,0516346
1624,7334;0,0517996
1625,6976;0,0519829
1626,6619;0,0521934
1627,6261;0,052439
1628,5903;0,0527352
1629,5546;0,0530843
1630,5188;0,0534522
1631,4830;0,0537788
1632,4473;0,0540111
1633,4115;0,0541215
1634,3757;0,054089
1635,3400;0,0539004
1636,3042;0,0536559
1637,2684;0,0535708
1638,2327;0,0537429
1639,1969;0,0540867
1640,1611;0,0544721
1641,1254;0,0548119
1642,0896;0,055064
1643,0538;0,05521
1644,0181;0,0552361
1644,9823;0,0551202
1645,9465;0,0548597
1646,9108;0,0545518
1647,8750;0,0543515
1648,8392;0,0542765
1649,8035;0,0541734
1650,7677;0,0538323
1651,7319;0,05304
1652,6962;0,0516867
1653,6604;0,0501796
1654,6246;0,0493183
1655,5889;0,0492669
1656,5531;0,0495737
1657,5173;0,0498174
1658,4816;0,0497974
1659,4458;0,0494655
1660,4100;0,04885
1661,3743;0,048037
1662,3385;0,0471845
1663,3027;0,0464753
1664,2670;0,0459957
1665,2312;0,045688
1666,1954;0,0454163
1667,1597;0,0450423
1668,1239;0,0444707
1669,0881;0,0437003
1670,0524;0,0428619
1671,0166;0,0421248
1671,9808;0,0415293
1672,9451;0,0409734
1673,9093;0,0403467
1674,8735;0,0396535
1675,8378;0,0390335
1676,8020;0,0386486
1677,7662;0,0385309
1678,7305;0,0385601
1679,6947;0,0385596
1680,6589;0,0383796
1681,6232;0,0379113
1682,5874;0,0370827
1683,5516;0,0359582
1684,5159;0,0348759
1685,4801;0,0342059
1686,4443;0,0339664
1687,4086;0,0339236
1688,3728;0,0338659
1689,3370;0,0337054
1690,3013;0,033452
1691,2655;0,0331572
1692,2297;0,0328723
1693,1940;0,0326329
1694,1582;0,0324552
1695,1224;0,0323261
1696,0867;0,0321889
1697,0509;0,0319543
1698,0151;0,0315619
1698,9794;0,031068
1699,9436;0,0306576
1700,9078;0,030517
1701,8721;0,0306867
1702,8363;0,0310548
1703,8005;0,0314597
1704,7648;0,0317841
1705,7290;0,0319972
1706,6932;0,0321525
1707,6575;0,0323439
1708,6217;0,0326393
1709,5859;0,0330463
1710,5502;0,0335285
1711,5144;0,03404
1712,4786;0,0345441
1713,4429;0,0350154
1714,4071;0,0354274
1715,3713;0,0357324
1716,3356;0,0358756
1717,2998;0,0358959
1718,2640;0,0359724
1719,2283;0,0362486
1720,1925;0,0367005
1721,1567;0,0372132
1722,1210;0,0376869
1723,0852;0,0380758
1724,0494;0,0383842
1725,0137;0,0386497
1725,9779;0,0389193
1726,9421;0,0392215
1727,9064;0,0395486
1728,8706;0,0398558
1729,8348;0,0400753
1730,7991;0,0401308
1731,7633;0,0399516
1732,7275;0,039516
1733,6918;0,038937
1734,6560;0,0384465
1735,6202;0,0381854
1736,5845;0,038082
1737,5487;0,0379641
1738,5129;0,0377002
1739,4772;0,0372565
1740,4414;0,036691
1741,4056;0,0361058
1742,3699;0,0355756
1743,3341;0,0351069
1744,2983;0,0346586
1745,2626;0,0341822
1746,2268;0,0336359
1747,1910;0,0329662
1748,1553;0,0321035
1749,1195;0,0310185
1750,0837;0,0298135
1751,0480;0,0287007
1752,0122;0,0278398
1752,9764;0,0272331
1753,9407;0,0267752
1754,9049;0,0263514
1755,8691;0,0258976
1756,8334;0,0254086
1757,7976;0,0249079
1758,7618;0,0244077
1759,7261;0,0238952
1760,6903;0,0233568
1761,6545;0,0228152
1762,6188;0,0223312
1763,5830;0,0219599
1764,5472;0,0217078
1765,5115;0,0215355
1766,4757;0,0213929
1767,4399;0,0212477
1768,4042;0,0210892
1769,3684;0,0209111
1770,3326;0,0206933
1771,2969;0,0204122
1772,2611;0,0200864
1773,2253;0,0197984
1774,1896;0,0196319
1775,1538;0,0195958
1776,1180;0,0196303
1777,0823;0,0196635
1778,0465;0,0196521
1779,0107;0,0195902
1779,9750;0,0194967
1780,9392;0,0193943
1781,9034;0,0192943
1782,8677;0,0191981
1783,8319;0,0191118
1784,7961;0,0190558
1785,7604;0,0190535
1786,7246;0,0191099
1787,6888;0,0192016
1788,6531;0,019289
1789,6173;0,0193336
1790,5815;0,0193089
1791,5458;0,0192102
1792,5100;0,0190763
1793,4742;0,0189807
1794,4385;0,0189687
1795,4027;0,019018
1796,3669;0,0190713
1797,3312;0,0190845
1798,2954;0,0190465
1799,2596;0,0189716
1800,2239;0,0188845
1801,1881;0,0188073
1802,1523;0,0187534
1803,1166;0,0187274
1804,0808;0,0187274
1805,0450;0,0187493
1806,0093;0,0187874
1806,9735;0,0188313
1807,9377;0,0188644
1808,9020;0,0188666
1809,8662;0,0188254
1810,8304;0,0187483
1811,7947;0,0186618
1812,7589;0,0185947
1813,7231;0,0185597
1814,6874;0,0185515
1815,6516;0,018557
1816,6158;0,0185659
1817,5801;0,0185759
1818,5443;0,0185918
1819,5085;0,0186188
1820,4728;0,0186558
1821,4370;0,0186957
1822,4012;0,018731
1823,3655;0,0187598
1824,3297;0,0187871
1825,2939;0,0188198
1826,2582;0,0188564
1827,2224;0,0188786
1828,1866;0,0188568
1829,1509;0,0187715
1830,1151;0,0186399
1831,0793;0,0185174
1832,0436;0,0184578
1833,0078;0,0184736
1833,9720;0,0185378
1834,9363;0,018614
1835,9005;0,0186794
1836,8647;0,0187309
1837,8290;0,0187772
1838,7932;0,0188223
1839,7574;0,0188547
1840,7217;0,0188542
1841,6859;0,0188073
1842,6501;0,0187181
1843,6144;0,0186101
1844,5786;0,0185223
1845,5428;0,0184894
1846,5071;0,0185129
1847,4713;0,0185586
1848,4355;0,0185855
1849,3998;0,0185745
1850,3640;0,0185339
1851,3282;0,0184865
1852,2925;0,0184517
1853,2567;0,0184372
1854,2209;0,0184408
1855,1852;0,0184588
1856,1494;0,018489
1857,1136;0,0185274
1858,0779;0,0185649
1859,0421;0,0185901
1860,0063;0,0185986
1860,9706;0,018601
1861,9348;0,0186193
1862,8990;0,0186741
1863,8633;0,0187716
1864,8275;0,0189002
1865,7917;0,0190333
1866,7560;0,0191317
1867,7202;0,0191532
1868,6844;0,0190807
1869,6487;0,0189456
1870,6129;0,0188044
1871,5771;0,0186929
1872,5414;0,0186133
1873,5056;0,0185542
1874,4698;0,0185097
1875,4341;0,0184821
1876,3983;0,0184748
1877,3625;0,0184853
1878,3268;0,0185057
1879,2910;0,0185269
1880,2552;0,0185443
1881,2195;0,0185597
1882,1837;0,0185791
1883,1479;0,018609
1884,1122;0,0186519
1885,0764;0,0187046
1886,0406;0,0187594
1887,0049;0,0188046
1887,9691;0,0188275
1888,9333;0,0188189
1889,8976;0,0187792
1890,8618;0,0187193
1891,8260;0,0186539
1892,7903;0,0185931
1893,7545;0,0185434
1894,7188;0,018512
1895,6830;0,0185098
1896,6472;0,0185474
1897,6115;0,0186261
1898,5757;0,0187315
1899,5399;0,0188352
1900,5042;0,0189065
1901,4684;0,0189269
1902,4326;0,018902
1903,3969;0,0188602
1904,3611;0,0188382
1905,3253;0,0188595
1906,2896;0,0189218
1907,2538;0,0189983
1908,2180;0,0190534
1909,1823;0,0190628
1910,1465;0,0190275
1911,1107;0,01897
1912,0750;0,0189158
1913,0392;0,0188797
1914,0034;0,0188644
1914,9677;0,0188696
1915,9319;0,0188966
1916,8961;0,0189462
1917,8604;0,0190136
1918,8246;0,0190856
1919,7888;0,019144
1920,7531;0,0191704
1921,7173;0,0191533
1922,6815;0,0190933
1923,6458;0,0190045
1924,6100;0,0189098
1925,5742;0,0188315
1926,5385;0,0187817
1927,5027;0,018761
1928,4669;0,0187625
1929,4312;0,0187784
1930,3954;0,0188033
1931,3596;0,0188362
1932,3239;0,0188761
1933,2881;0,0189165
1934,2523;0,0189436
1935,2166;0,0189421
1936,1808;0,0189061
1937,1450;0,0188467
1938,1093;0,018789
1939,0735;0,0187601
1940,0377;0,0187759
1941,0020;0,018834
1941,9662;0,0189169
1942,9304;0,0190055
1943,8947;0,0190892
1944,8589;0,0191611
1945,8231;0,0192064
1946,7874;0,0192008
1947,7516;0,0191247
1948,7158;0,0189814
1949,6801;0,0188043
1950,6443;0,0186432
1951,6085;0,0185383
1952,5728;0,0185024
1953,5370;0,0185224
1954,5012;0,0185771
1955,4655;0,0186523
1956,4297;0,0187394
1957,3939;0,0188224
1958,3582;0,0188703
1959,3224;0,0188519
1960,2866;0,0187645
1961,2509;0,0186527
1962,2151;0,0185917
1963,1793;0,0186391
1964,1436;0,01879
1965,1078;0,0189689
1966,0720;0,0190696
1967,0363;0,0190262
1968,0005;0,0188658
1968,9647;0,0186977
1969,9290;0,0186397
1970,8932;0,0187434
1971,8574;0,0189659
1972,8217;0,0191984
1973,7859;0,0193282
1974,7501;0,0192982
1975,7144;0,0191362
1976,6786;0,0189348
1977,6428;0,0187958
1978,6071;0,0187801
1979,5713;0,0188935
1980,5355;0,0191062
1981,4998;0,0193774
1982,4640;0,0196642
1983,4282;0,0199203
1984,3925;0,0200954
1985,3567;0,0201469
1986,3209;0,020058
1987,2852;0,019851
1988,2494;0,0195835
1989,2136;0,0193311
1990,1779;0,0191625
1991,1421;0,0191149
1992,1063;0,0191796
1993,0706;0,0193056
1994,0348;0,019422
1994,9990;0,0194678
1995,9633;0,0194162
1996,9275;0,0192841
1997,8917;0,0191241
1998,8560;0,0189981
1999,8202;0,0189431
2000,7844;0,0189508
2001,7487;0,0189798
2002,7129;0,0189951
2003,6771;0,0190079
2004,6414;0,0190813
2005,6056;0,0192896
2006,5698;0,019651
2007,5341;0,0200853
2008,4983;0,0204413
2009,4625;0,0205823
2010,4268;0,020466
2011,3910;0,0201627
2012,3552;0,0198075
2013,3195;0,0195282
2014,2837;0,0193945
2015,2479;0,0194068
2016,2122;0,0195196
2017,1764;0,0196733
2018,1406;0,0198168
2019,1049;0,0199151
2020,0691;0,0199531
2021,0333;0,0199409
2021,9976;0,0199161
2022,9618;0,0199316
2023,9260;0,0200273
2024,8903;0,0202025
2025,8545;0,0204082
2026,8187;0,0205705
2027,7830;0,0206277
2028,7472;0,0205577
2029,7114;0,0203835
2030,6757;0,0201593
2031,6399;0,0199517
2032,6041;0,0198214
2033,5684;0,0198044
2034,5326;0,0198934
2035,4968;0,0200329
2036,4611;0,0201429
2037,4253;0,0201653
2038,3895;0,0201055
2039,3538;0,0200371
2040,3180;0,0200596
2041,2822;0,02023
2042,2465;0,0205151
2043,2107;0,0208037
2044,1749;0,0209742
2045,1392;0,0209704
2046,1034;0,0208346
2047,0676;0,0206742
2048,0320;0,0205861
2048,9961;0,020594
2049,9604;0,0206477
2050,9246;0,0206742
2051,8889;0,0206333
2052,8530;0,020539
2053,8174;0,0204421
2054,7815;0,0203939
2055,7458;0,0204154
2056,7100;0,0204892
2057,6743;0,0205766
2058,6384;0,0206447
2059,6028;0,0206829
2060,5669;0,0207017
2061,5313;0,0207184
2062,4954;0,0207438
2063,4597;0,0207784
2064,4238;0,0208174
2065,3882;0,0208587
2066,3523;0,0209051
2067,3167;0,0209589
2068,2808;0,0210154
2069,2451;0,0210611
2070,2092;0,0210796
2071,1736;0,0210621
2072,1377;0,0210134
2073,1021;0,0209509
2074,0662;0,0208956
2075,0305;0,0208624
2075,9946;0,0208552
2076,9590;0,0208691
2077,9231;0,0208965
2078,8875;0,0209311
2079,8516;0,0209682
2080,8159;0,0210018
2081,7800;0,0210244
2082,7444;0,0210298
2083,7085;0,021018
2084,6729;0,0209982
2085,6370;0,0209852
2086,6013;0,0209909
2087,5654;0,0210164
2088,5298;0,021049
2089,4939;0,0210693
2090,4583;0,0210636
2091,4224;0,0210354
2092,3867;0,0210072
2093,3508;0,0210102
2094,3152;0,0210646
2095,2793;0,0211632
2096,2437;0,021268
2097,2078;0,021328
2098,1721;0,021307
2099,1362;0,0212062
2100,1006;0,0210655
2101,0647;0,0209401
2102,0291;0,0208756
2102,9932;0,0208833
2103,9575;0,0209392
2104,9216;0,021002
2105,8860;0,0210383
2106,8501;0,0210386
2107,8145;0,0210181
2108,7786;0,0210038
2109,7429;0,0210184
2110,7070;0,0210708
2111,6714;0,021155
2112,6355;0,0212548
2113,5999;0,02135
2114,5640;0,0214227
2115,5283;0,0214619
2116,4924;0,0214676
2117,4568;0,0214501
2118,4209;0,0214259
2119,3853;0,0214089
2120,3494;0,0214048
2121,3137;0,0214097
2122,2778;0,0214164
2123,2422;0,021421
2124,2063;0,0214267
2125,1707;0,02144
2126,1348;0,0214637
2127,0991;0,0214918
2128,0632;0,0215099
2129,0276;0,0215031
2129,9917;0,0214644
2130,9561;0,0214013
2131,9202;0,0213356
2132,8845;0,0212955
2133,8486;0,0213044
2134,8130;0,0213683
2135,7771;0,0214718
2136,7415;0,0215861
2137,7056;0,0216843
2138,6699;0,0217565
2139,6340;0,0218117
2140,5984;0,0218691
2141,5625;0,0219441
2142,5269;0,0220421
2143,4910;0,02216
2144,4553;0,0222934
2145,4194;0,0224364
2146,3838;0,022572
2147,3479;0,0226656
2148,3123;0,022674
2149,2764;0,0225746
2150,2407;0,0223978
2151,2048;0,0222352
2152,1692;0,0222082
2153,1333;0,022409
2154,0977;0,0228474
2155,0618;0,0234318
2156,0261;0,0239974
2156,9902;0,0243702
2157,9546;0,0244425
2158,9187;0,0242184
2159,8831;0,0237939
2160,8472;0,0232875
2161,8115;0,0227898
2162,7756;0,0223613
2163,7400;0,0220521
2164,7041;0,0219058
2165,6685;0,0219402
2166,6326;0,0221266
2167,5969;0,022391
2168,5610;0,022642
2169,5254;0,0228097
2170,4895;0,0228707
2171,4539;0,0228462
2172,4180;0,0227767
2173,3823;0,0226906
2174,3464;0,0225864
2175,3108;0,0224399
2176,2749;0,0222327
2177,2393;0,0219783
2178,2034;0,0217279
2179,1677;0,02155
2180,1318;0,0214961
2181,0962;0,0215752
2182,0603;0,0217484
2183,0247;0,021948
2183,9888;0,0221064
2184,9531;0,022177
2185,9172;0,022141
2186,8816;0,0220049
2187,8457;0,0217973
2188,8101;0,0215662
2189,7742;0,0213701
2190,7385;0,021259
2191,7026;0,0212537
2192,6670;0,0213366
2193,6311;0,0214621
2194,5955;0,0215827
2195,5596;0,0216723
2196,5239;0,0217332
2197,4880;0,0217817
2198,4524;0,0218284
2199,4165;0,0218668
2200,3809;0,0218789
2201,3450;0,0218509
2202,3093;0,0217848
2203,2734;0,0216995
2204,2378;0,021622
2205,2019;0,0215776
2206,1663;0,0215838
2207,1304;0,0216458
2208,0947;0,0217523
2209,0588;0,021872
2210,0232;0,021959
2210,9873;0,0219702
2211,9517;0,0218887
2212,9158;0,0217385
2213,8801;0,0215756
2214,8442;0,0214603
2215,8086;0,0214234
2216,7727;0,0214511
2217,7371;0,0214956
2218,7012;0,021505
2219,6655;0,0214511
2220,6296;0,0213404
2221,5940;0,0212054
2222,5581;0,0210871
2223,5225;0,0210186
2224,4866;0,0210183
2225,4509;0,0210885
2226,4150;0,021216
2227,3794;0,021374
2228,3435;0,0215274
2229,3079;0,0216413
2230,2720;0,0216905
2231,2363;0,0216662
2232,2004;0,0215769
2233,1648;0,0214439
2234,1289;0,0212962
2235,0933;0,0211661
2236,0574;0,0210845
2237,0217;0,021074
2237,9858;0,021139
2238,9502;0,0212603
2239,9143;0,0213984
2240,8787;0,0215071
2241,8428;0,0215536
2242,8071;0,0215317
2243,7712;0,0214624
2244,7356;0,0213802
2245,6997;0,0213152
2246,6641;0,0212809
2247,6282;0,0212744
2248,5925;0,0212865
2249,5566;0,0213127
2250,5210;0,0213573
2251,4851;0,0214284
2252,4495;0,021528
2253,4136;0,0216455
2254,3779;0,0217588
2255,3420;0,0218422
2256,3064;0,0218771
2257,2705;0,0218593
2258,2349;0,0217997
2259,1990;0,0217198
2260,1633;0,0216448
2261,1274;0,0215952
2262,0918;0,0215812
2263,0559;0,021599
2264,0203;0,0216334
2264,9844;0,021664
2265,9487;0,0216739
2266,9128;0,021656
2267,8772;0,0216151
2268,8413;0,0215644
2269,8057;0,0215194
2270,7698;0,0214928
2271,7341;0,0214908
2272,6982;0,0215115
2273,6626;0,0215451
2274,6267;0,0215764
2275,5911;0,0215897
2276,5552;0,021576
2277,5195;0,0215372
2278,4836;0,0214865
2279,4480;0,0214432
2280,4121;0,0214242
2281,3765;0,0214379
2282,3406;0,0214828
2283,3049;0,0215503
2284,2690;0,0216304
2285,2334;0,0217156
2286,1975;0,0218025
2287,1619;0,0218916
2288,1260;0,0219845
2289,0903;0,0220813
2290,0544;0,0221779
2291,0188;0,0222654
2291,9829;0,0223331
2292,9473;0,022374
2293,9114;0,0223902
2294,8757;0,0223942
2295,8398;0,0224022
2296,8042;0,0224248
2297,7683;0,0224582
2298,7327;0,0224842
2299,6968;0,022479
2300,6611;0,022428
2301,6252;0,0223371
2302,5896;0,0222326
2303,5537;0,0221519
2304,5181;0,022126
2305,4822;0,0221649
2306,4465;0,02225
2307,4106;0,0223389
2308,3750;0,0223807
2309,3391;0,0223374
2310,3035;0,0222004
2311,2676;0,0219955
2312,2319;0,021771
2313,1960;0,0215747
2314,1604;0,0214325
2315,1245;0,0213402
2316,0889;0,0212737
2317,0530;0,0212087
2318,0173;0,0211377
2318,9814;0,0210762
2319,9458;0,0210538
2320,9099;0,0210972
2321,8743;0,0212149
2322,8384;0,0213905
2323,8027;0,021586
2324,7668;0,0217522
2325,7312;0,0218453
2326,6953;0,0218443
2327,6597;0,0217609
2328,6238;0,0216374
2329,5881;0,0215301
2330,5522;0,0214886
2331,5166;0,0215355
2332,4807;0,0216576
2333,4451;0,0218145
2334,4092;0,021963
2335,3735;0,0220838
2336,3376;0,0221928
2337,3020;0,0223276
2338,2661;0,0225156
2339,2305;0,0227407
2340,1946;0,0229275
2341,1589;0,0229537
2342,1230;0,0227078
2343,0874;0,0222039
2344,0515;0,0216844
2345,0159;0,0215115
2345,9800;0,0218589
2346,9443;0,0225637
2347,9084;0,0232827
2348,8728;0,0237228
2349,8369;0,0237707
2350,8013;0,0235086
2351,7654;0,02315
2352,7297;0,0229166
2353,6938;0,0229166
2354,6582;0,0231193
2355,6223;0,0234332
2356,5867;0,0237678
2357,5508;0,0240244
2358,5151;0,0240948
2359,4792;0,0239162
2360,4436;0,023525
2361,4077;0,0230302
2362,3721;0,022532
2363,3362;0,0220714
2364,3005;0,0216421
2365,2646;0,0212292
2366,2290;0,0208286
2367,1931;0,0204431
2368,1575;0,020074
2369,1216;0,0197222
2370,0859;0,0193953
2371,0500;0,0191111
2372,0144;0,018897
2372,9785;0,0187851
2373,9429;0,0188043
2374,9070;0,0189712
2375,8713;0,0192807
2376,8354;0,0197026
2377,7998;0,0201874
2378,7639;0,0206778
2379,7283;0,0211221
2380,6924;0,0214832
2381,6567;0,0217422
2382,6208;0,0218978
2383,5852;0,021963
2384,5493;0,0219618
2385,5137;0,0219233
2386,4778;0,0218759
2387,4421;0,0218405
2388,4063;0,0218267
2389,3706;0,0218328
2390,3347;0,02185
2391,2991;0,0218685
2392,2632;0,0218836
2393,2275;0,0218962
2394,1917;0,0219106
2395,1560;0,0219296
2396,1201;0,0219519
2397,0845;0,0219724
2398,0486;0,0219877
2399,0129;0,0219976
2399,9771;0,0220068
2400,9414;0,0220223
2401,9055;0,0220469
2402,8699;0,0220771
2403,8340;0,0221042
2404,7983;0,0221201
2405,7625;0,022124
2406,7268;0,0221236
2407,6909;0,0221314
2408,6553;0,0221565
2409,6194;0,0221984
2410,5837;0,0222474
2411,5479;0,0222903
2412,5122;0,0223179
2413,4763;0,0223284
2414,4407;0,0223263
2415,4048;0,022318
2416,3691;0,0223081
2417,3333;0,0222995
2418,2976;0,0222951
2419,2617;0,0222989
2420,2261;0,0223139
2421,1902;0,0223389
2422,1545;0,0223688
2423,1187;0,0223966
2424,0830;0,0224181
2425,0471;0,0224345
2426,0115;0,0224503
2426,9756;0,0224692
2427,9399;0,0224908
2428,9041;0,022511
2429,8684;0,0225261
2430,8325;0,0225364
2431,7969;0,0225465
2432,7610;0,0225606
2433,7253;0,0225792
2434,6895;0,0225974
2435,6538;0,0226093
2436,6179;0,0226123
2437,5823;0,0226101
2438,5464;0,0226099
2439,5107;0,0226172
2440,4749;0,0226317
2441,4392;0,0226486
2442,4033;0,0226631
2443,3677;0,0226746
2444,3318;0,022687
2445,2961;0,0227054
2446,2603;0,0227307
2447,2246;0,0227586
2448,1887;0,0227828
2449,1531;0,0227997
2450,1172;0,0228114
2451,0815;0,0228242
2452,0457;0,022844
2453,0100;0,0228714
2453,9741;0,022902
2454,9385;0,0229289
2455,9026;0,0229475
2456,8669;0,0229578
2457,8311;0,0229634
2458,7954;0,0229698
2459,7595;0,0229811
2460,7239;0,0229996
2461,6880;0,0230246
2462,6523;0,0230536
2463,6165;0,0230819
2464,5808;0,023105
2465,5449;0,0231198
2466,5093;0,0231265
2467,4734;0,0231282
2468,4377;0,023129
2469,4019;0,0231308
2470,3662;0,0231324
2471,3303;0,0231309
2472,2947;0,023125
2473,2588;0,0231172
2474,2231;0,0231137
2475,1873;0,0231209
2476,1516;0,0231409
2477,1157;0,0231692
2478,0801;0,0231963
2479,0442;0,0232128
2480,0085;0,0232142
2480,9727;0,0232043
2481,9370;0,0231939
2482,9011;0,0231949
2483,8655;0,0232142
2484,8296;0,0232487
2485,7939;0,0232864
2486,7581;0,0233123
2487,7224;0,0233175
2488,6865;0,0233049
2489,6509;0,0232887
2490,6150;0,0232865
2491,5793;0,0233102
2492,5435;0,0233587
2493,5078;0,0234202
2494,4719;0,0234786
2495,4363;0,0235226
2496,4004;0,0235485
2497,3647;0,0235584
2498,3289;0,0235552
2499,2932;0,023541
2500,2573;0,0235188
2501,2217;0,0234963
2502,1858;0,0234858
2503,1501;0,0234991
2504,1143;0,0235385
2505,0786;0,0235935
2506,0427;0,0236442
2507,0071;0,0236716
2507,9712;0,0236684
2508,9355;0,023642
2509,8997;0,023609
2510,8640;0,0235848
2511,8281;0,0235761
2512,7925;0,0235803
2513,7566;0,0235902
2514,7209;0,0236011
2515,6851;0,0236126
2516,6494;0,0236267
2517,6135;0,0236444
2518,5779;0,0236632
2519,5420;0,0236794
2520,5063;0,0236901
2521,4705;0,0236961
2522,4348;0,0237011
2523,3989;0,02371
2524,3633;0,0237263
2525,3274;0,0237508
2526,2917;0,0237808
2527,2559;0,02381
2528,2202;0,0238287
2529,1843;0,0238273
2530,1487;0,0238002
2531,1128;0,02375
2532,0771;0,0236893
2533,0413;0,0236364
2534,0056;0,0236088
2534,9697;0,0236153
2535,9341;0,0236526
2536,8982;0,0237069
2537,8625;0,0237603
2538,8267;0,0237983
2539,7910;0,0238149
2540,7551;0,0238131
2541,7195;0,0238023
2542,6836;0,023793
2543,6479;0,0237917
2544,6121;0,0237995
2545,5764;0,0238122
2546,5405;0,0238243
2547,5049;0,0238321
2548,4690;0,0238356
2549,4333;0,0238372
2550,3975;0,0238391
2551,3618;0,0238415
2552,3259;0,0238433
2553,2903;0,0238443
2554,2544;0,0238467
2555,2188;0,0238544
2556,1829;0,0238697
2557,1472;0,0238901
2558,1113;0,0239095
2559,0757;0,0239209
2560,0398;0,023922
2561,0042;0,0239162
2561,9683;0,0239111
2562,9326;0,023913
2563,8967;0,0239236
2564,8611;0,02394
2565,8252;0,0239582
2566,7896;0,0239771
2567,7537;0,0239983
2568,7180;0,0240239
2569,6821;0,0240519
2570,6465;0,0240754
2571,6106;0,0240857
2572,5750;0,0240785
2573,5391;0,0240584
2574,5034;0,0240383
2575,4675;0,0240324
2576,4319;0,0240487
2577,3960;0,0240832
2578,3604;0,024122
2579,3245;0,0241476
2580,2888;0,0241485
2581,2529;0,0241237
2582,2173;0,0240826
2583,1814;0,0240402
2584,1458;0,0240104
2585,1099;0,0240019
2586,0742;0,0240164
2587,0383;0,0240499
2588,0027;0,0240937
2588,9668;0,0241375
2589,9312;0,0241718
2590,8953;0,0241907
2591,8596;0,0241941
2592,8237;0,0241873
2593,7881;0,0241789
2594,7522;0,0241768
2595,7166;0,0241854
2596,6807;0,0242052
2597,6450;0,0242334
2598,6091;0,0242662
2599,5735;0,0242999
2600,5376;0,0243314
2601,5020;0,0243583
2602,4661;0,0243791
2603,4304;0,0243938
2604,3945;0,024403
2605,3589;0,0244083
2606,3230;0,0244109
2607,2874;0,0244118
2608,2515;0,0244122
2609,2158;0,0244131
2610,1799;0,0244162
2611,1443;0,0244226
2612,1084;0,024433
2613,0728;0,0244477
2614,0369;0,0244675
2615,0012;0,0244931
2615,9653;0,024525
2616,9297;0,0245613
2617,8938;0,024598
2618,8582;0,0246293
2619,8223;0,0246509
2620,7866;0,024662
2621,7507;0,0246661
2622,7151;0,0246687
2623,6792;0,0246749
2624,6436;0,0246868
2625,6077;0,0247036
2626,5720;0,0247228
2627,5361;0,0247418
2628,5005;0,024759
2629,4646;0,0247741
2630,4290;0,0247882
2631,3931;0,0248034
2632,3574;0,0248226
2633,3215;0,0248478
2634,2859;0,024879
2635,2500;0,0249126
2636,2144;0,0249428
2637,1785;0,0249648
2638,1428;0,0249775
2639,1069;0,0249852
2640,0713;0,0249954
2641,0354;0,0250141
2641,9998;0,0250425
2642,9639;0,0250757
2643,9282;0,0251057
2644,8923;0,0251269
2645,8567;0,0251384
2646,8208;0,0251447
2647,7852;0,0251517
2648,7493;0,0251634
2649,7136;0,0251801
2650,6777;0,0251994
2651,6421;0,0252195
2652,6062;0,0252407
2653,5706;0,0252643
2654,5347;0,0252909
2655,4990;0,0253178
2656,4631;0,025341
2657,4275;0,0253572
2658,3916;0,0253673
2659,3560;0,0253761
2660,3201;0,0253895
2661,2844;0,0254102
2662,2485;0,025436
2663,2129;0,0254614
2664,1770;0,025482
2665,1414;0,0254975
2666,1055;0,0255122
2667,0698;0,0255306
2668,0339;0,0255543
2668,9983;0,0255797
2669,9624;0,0256011
2670,9268;0,0256144
2671,8909;0,0256199
2672,8552;0,0256225
2673,8193;0,0256277
2674,7837;0,0256394
2675,7478;0,0256578
2676,7122;0,025681
2677,6763;0,0257066
2678,6406;0,0257333
2679,6047;0,0257607
2680,5691;0,0257885
2681,5332;0,0258164
2682,4976;0,0258441
2683,4617;0,025872
2684,4260;0,0259008
2685,3901;0,0259314
2686,3545;0,025964
2687,3186;0,0259975
2688,2830;0,0260295
2689,2471;0,0260572
2690,2114;0,0260786
2691,1755;0,0260934
2692,1399;0,0261043
2693,1040;0,0261158
2694,0684;0,0261318
2695,0325;0,026154
2695,9968;0,0261797
2696,9609;0,0262038
2697,9253;0,0262216
2698,8894;0,0262319
2699,8538;0,0262388
2700,8179;0,0262494
2701,7822;0,026271
2702,7463;0,0263066
2703,7107;0,0263544
2704,6748;0,0264083
2705,6392;0,0264608
2706,6033;0,026506
2707,5676;0,0265416
2708,5317;0,0265689
2709,4961;0,0265917
2710,4602;0,0266141
2711,4246;0,026639
2712,3887;0,0266668
2713,3530;0,0266965
2714,3171;0,0267256
2715,2815;0,026752
2716,2456;0,0267741
2717,2100;0,0267917
2718,1741;0,0268064
2719,1384;0,0268216
2720,1025;0,0268413
2721,0669;0,0268688
2722,0310;0,0269039
2722,9954;0,0269421
2723,9595;0,0269768
2724,9238;0,0270023
2725,8879;0,0270173
2726,8523;0,0270256
2727,8164;0,0270336
2728,7808;0,0270471
2729,7449;0,0270684
2730,7092;0,0270966
2731,6733;0,0271288
2732,6377;0,0271622
2733,6018;0,0271944
2734,5662;0,0272232
2735,5303;0,0272466
2736,4946;0,0272634
2737,4587;0,0272746
2738,4231;0,0272834
2739,3872;0,0272943
2740,3516;0,0273114
2741,3157;0,0273361
2742,2800;0,027367
2743,2441;0,0274
2744,2085;0,0274293
2745,1726;0,027449
2746,1370;0,0274557
2747,1011;0,0274502
2748,0654;0,0274386
2749,0295;0,0274306
2749,9939;0,027436
2750,9580;0,02746
2751,9224;0,027501
2752,8865;0,027551
2753,8508;0,0276003
2754,8149;0,0276419
2755,7793;0,027674
2756,7434;0,0277003
2757,7078;0,0277266
2758,6719;0,027758
2759,6362;0,0277953
2760,6003;0,027836
2761,5647;0,0278747
2762,5288;0,0279072
2763,4932;0,0279317
2764,4573;0,027951
2765,4216;0,0279703
2766,3857;0,0279959
2767,3501;0,0280313
2768,3142;0,0280763
2769,2786;0,0281265
2770,2427;0,0281753
2771,2070;0,0282163
2772,1711;0,0282462
2773,1355;0,0282659
2774,0996;0,0282816
2775,0640;0,0283022
2776,0281;0,0283365
2776,9924;0,028389
2777,9565;0,0284572
2778,9209;0,028532
2779,8850;0,0286015
2780,8494;0,0286561
2781,8135;0,0286929
2782,7778;0,0287165
2783,7419;0,028736
2784,7063;0,0287606
2785,6704;0,0287959
2786,6348;0,028842
2787,5989;0,0288954
2788,5632;0,0289512
2789,5273;0,029006
2790,4917;0,0290595
2791,4558;0,0291136
2792,4202;0,0291709
2793,3843;0,0292325
2794,3486;0,0292971
2795,3127;0,0293617
2796,2771;0,0294232
2797,2412;0,0294805
2798,2056;0,0295355
2799,1697;0,0295919
2800,1340;0,0296536
2801,0981;0,029723
2802,0625;0,0297999
2803,0266;0,0298822
2803,9910;0,0299665
2804,9551;0,0300486
2805,9194;0,0301252
2806,8835;0,0301946
2807,8479;0,0302585
2808,8120;0,0303218
2809,7764;0,0303912
2810,7405;0,0304726
2811,7048;0,0305681
2812,6689;0,0306753
2813,6333;0,0307891
2814,5974;0,0309045
2815,5618;0,031019
2816,5259;0,0311328
2817,4902;0,0312472
2818,4543;0,0313636
2819,4187;0,0314817
2820,3828;0,031601
2821,3472;0,0317213
2822,3113;0,0318439
2823,2756;0,0319706
2824,2397;0,0321038
2825,2041;0,0322452
2826,1682;0,0323955
2827,1326;0,0325543
2828,0967;0,0327199
2829,0610;0,0328908
2830,0251;0,0330669
2830,9895;0,0332506
2831,9536;0,0334464
2832,9180;0,0336589
2833,8821;0,0338888
2834,8464;0,0341322
2835,8105;0,0343823
2836,7749;0,0346345
2837,7390;0,0348911
2838,7034;0,0351623
2839,6675;0,035463
2840,6318;0,035807
2841,5959;0,0362027
2842,5603;0,0366515
2843,5244;0,0371492
2844,4888;0,0376855
2845,4529;0,0382414
2846,4172;0,0387863
2847,3813;0,0392791
2848,3457;0,0396756
2849,3098;0,0399414
2850,2742;0,0400638
2851,2383;0,0400559
2852,2026;0,0399521
2853,1667;0,0397955
2854,1311;0,0396257
2855,0952;0,0394699
2856,0596;0,0393406
2857,0237;0,0392387
2857,9880;0,0391596
2858,9521;0,0390995
2859,9165;0,0390592
2860,8806;0,0390447
2861,8450;0,0390636
2862,8091;0,03912
2863,7734;0,0392107
2864,7375;0,0393255
2865,7019;0,0394516
2866,6660;0,0395781
2867,6304;0,0396991
2868,5945;0,0398127
2869,5588;0,0399178
2870,5229;0,0400123
2871,4873;0,0400931
2872,4514;0,0401587
2873,4158;0,0402112
2874,3799;0,0402552
2875,3442;0,0402962
2876,3083;0,0403377
2877,2727;0,0403808
2878,2368;0,0404252
2879,2012;0,0404706
2880,1653;0,0405182
2881,1296;0,0405696
2882,0938;0,0406272
2883,0581;0,0406933
2884,0222;0,0407694
2884,9866;0,0408557
2885,9507;0,0409505
2886,9150;0,0410504
2887,8792;0,0411512
2888,8435;0,0412504
2889,8076;0,0413485
2890,7720;0,0414483
2891,7361;0,0415532
2892,7004;0,041664
2893,6646;0,041778
2894,6289;0,0418898
2895,5930;0,0419941
2896,5574;0,0420885
2897,5215;0,0421744
2898,4858;0,0422565
2899,4500;0,0423396
2900,4143;0,0424267
2901,3784;0,0425181
2902,3428;0,0426135
2903,3069;0,0427138
2904,2712;0,0428228
2905,2354;0,0429466
2906,1997;0,0430913
2907,1638;0,0432611
2908,1282;0,0434585
2909,0923;0,0436855
2910,0566;0,0439448
2911,0208;0,0442381
2911,9851;0,0445618
2912,9492;0,044902
2913,9136;0,0452328
2914,8777;0,0455207
2915,8420;0,045734
2916,8062;0,0458517
2917,7705;0,0458691
2918,7346;0,0457955
2919,6990;0,0456486
2920,6631;0,0454476
2921,6274;0,0452092
2922,5916;0,0449471
2923,5559;0,0446718
2924,5200;0,0443903
2925,4844;0,0441056
2926,4485;0,0438171
2927,4128;0,0435231
2928,3770;0,0432247
2929,3413;0,0429282
2930,3054;0,0426435
2931,2698;0,0423792
2932,2339;0,0421389
2933,1982;0,041919
2934,1624;0,0417118
2935,1267;0,0415087
2936,0908;0,0413041
2937,0552;0,0410948
2938,0193;0,0408793
2938,9836;0,0406559
2939,9478;0,0404229
2940,9121;0,0401805
2941,8762;0,0399313
2942,8406;0,039681
2943,8047;0,0394368
2944,7690;0,0392054
2945,7332;0,038992
2946,6975;0,0387993
2947,6616;0,0386276
2948,6260;0,0384746
2949,5901;0,0383366
2950,5544;0,0382086
2951,5186;0,038086
2952,4829;0,0379648
2953,4470;0,0378428
2954,4114;0,0377191
2955,3755;0,0375937
2956,3398;0,0374671
2957,3040;0,0373387
2958,2683;0,0372068
2959,2324;0,0370682
2960,1968;0,0369202
2961,1609;0,0367621
2962,1252;0,0365969
2963,0894;0,0364301
2964,0537;0,0362675
2965,0178;0,036111
2965,9822;0,0359568
2966,9463;0,0357971
2967,9106;0,0356232
2968,8748;0,0354304
2969,8391;0,0352204
2970,8032;0,0350016
2971,7676;0,034786
2972,7317;0,0345856
2973,6960;0,0344082
2974,6602;0,0342551
2975,6245;0,0341208
2976,5886;0,033996
2977,5530;0,0338715
2978,5171;0,0337423
2979,4814;0,0336098
2980,4456;0,0334804
2981,4099;0,0333621
2982,3740;0,0332611
2983,3384;0,0331789
2984,3025;0,0331133
2985,2668;0,03306
2986,2310;0,033014
2987,1953;0,0329712
2988,1594;0,0329288
2989,1238;0,0328857
2990,0879;0,0328436
2991,0522;0,0328064
2992,0164;0,0327786
2992,9807;0,032763
2993,9448;0,0327585
2994,9092;0,032761
2995,8733;0,0327653
2996,8376;0,032769
2997,8018;0,0327735
2998,7661;0,0327827
2999,7302;0,0328004
3000,6946;0,0328276
3001,6587;0,0328631
3002,6230;0,0329051
3003,5872;0,0329535
3004,5515;0,0330099
3005,5156;0,0330756
3006,4800;0,0331485
3007,4441;0,0332219
3008,4084;0,0332866
3009,3726;0,0333343
3010,3369;0,033362
3011,3010;0,0333732
3012,2654;0,0333765
3013,2295;0,0333811
3014,1938;0,0333938
3015,1580;0,0334176
3016,1223;0,0334528
3017,0864;0,0334989
3018,0508;0,0335562
3019,0149;0,033625
3019,9792;0,0337035
3020,9434;0,0337872
3021,9077;0,0338701
3022,8718;0,0339475
3023,8362;0,0340193
3024,8003;0,0340911
3025,7646;0,0341712
3026,7288;0,0342658
3027,6931;0,0343742
3028,6572;0,0344874
3029,6216;0,0345915
3030,5857;0,0346746
3031,5500;0,0347327
3032,5142;0,0347719
3033,4785;0,0348055
3034,4426;0,0348473
3035,4070;0,0349057
3036,3711;0,0349815
3037,3354;0,035069
3038,2996;0,0351598
3039,2639;0,0352465
3040,2280;0,0353253
3041,1924;0,0353979
3042,1565;0,0354705
3043,1208;0,0355521
3044,0850;0,03565
3045,0493;0,0357657
3046,0134;0,0358933
3046,9778;0,036021
3047,9419;0,0361369
3048,9063;0,0362351
3049,8704;0,0363187
3050,8347;0,0363977
3051,7988;0,0364826
3052,7632;0,0365787
3053,7273;0,0366837
3054,6917;0,0367912
3055,6558;0,0368952
3056,6201;0,0369949
3057,5842;0,037095
3058,5486;0,0372024
3059,5127;0,0373221
3060,4771;0,0374535
3061,4412;0,0375899
3062,4055;0,0377211
3063,3696;0,0378362
3064,3340;0,0379276
3065,2981;0,0379943
3066,2625;0,0380429
3067,2266;0,0380864
3068,1909;0,0381402
3069,1550;0,0382167
3070,1194;0,0383211
3071,0835;0,03845
3072,0479;0,0385927
3073,0120;0,0387352
3073,9763;0,0388651
3074,9404;0,0389759
3075,9048;0,0390671
3076,8689;0,0391432
3077,8333;0,03921
3078,7974;0,039272
3079,7617;0,0393318
3080,7258;0,0393919
3081,6902;0,0394562
3082,6543;0,0395297
3083,6187;0,0396168
3084,5828;0,0397175
3085,5471;0,0398263
3086,5112;0,039934
3087,4756;0,0400332
3088,4397;0,0401226
3089,4041;0,0402075
3090,3682;0,0402971
3091,3325;0,0403977
3092,2966;0,0405097
3093,2610;0,0406276
3094,2251;0,0407444
3095,1895;0,0408561
3096,1536;0,0409635
3097,1179;0,0410699
3098,0820;0,0411775
3099,0464;0,0412854
3100,0105;0,0413904
3100,9749;0,0414899
3101,9390;0,0415838
3102,9033;0,0416747
3103,8674;0,0417658
3104,8318;0,0418598
3105,7959;0,0419578
3106,7603;0,0420609
3107,7244;0,0421705
3108,6887;0,0422874
3109,6528;0,0424115
3110,6172;0,0425403
3111,5813;0,0426696
3112,5457;0,042795
3113,5098;0,0429135
3114,4741;0,043024
3115,4382;0,0431272
3116,4026;0,0432251
3117,3667;0,0433209
3118,3311;0,043419
3119,2952;0,0435246
3120,2595;0,0436427
3121,2236;0,0437756
3122,1880;0,0439216
3123,1521;0,044075
3124,1165;0,0442278
3125,0806;0,0443734
3126,0449;0,044509
3127,0090;0,044636
3127,9734;0,0447579
3128,9375;0,0448783
3129,9019;0,0449982
3130,8660;0,0451173
3131,8303;0,0452352
3132,7944;0,045353
3133,7588;0,0454742
3134,7229;0,0456022
3135,6873;0,0457387
3136,6514;0,0458824
3137,6157;0,0460297
3138,5798;0,0461767
3139,5442;0,0463206
3140,5083;0,0464612
3141,4727;0,0466003
3142,4368;0,0467411
3143,4011;0,0468864
3144,3652;0,0470382
3145,3296;0,0471961
3146,2937;0,0473574
3147,2581;0,0475178
3148,2222;0,0476723
3149,1865;0,0478179
3150,1506;0,0479545
3151,1150;0,0480855
3152,0791;0,0482171
3153,0435;0,0483558
3154,0076;0,0485061
3154,9719;0,0486688
3155,9360;0,0488409
3156,9004;0,0490167
3157,8645;0,0491903
3158,8289;0,0493576
3159,7930;0,0495175
3160,7573;0,0496718
3161,7214;0,0498238
3162,6858;0,0499774
3163,6499;0,0501363
3164,6143;0,0503033
3165,5784;0,050479
3166,5427;0,0506604
3167,5068;0,0508419
3168,4712;0,0510166
3169,4353;0,0511074
3170,3997;0,0512636
3171,3638;0,0514191
3172,3281;0,0515819
3173,2922;0,0517556
3174,2566;0,0519376
3175,2207;0,0521198
3176,1851;0,052294
3177,1492;0,0524564
3178,1135;0,0526087
3179,0776;0,0527564
3180,0420;0,052904
3181,0061;0,0530529
3181,9705;0,0532023
3182,9346;0,0533519
3183,8989;0,0535038
3184,8630;0,0536615
3185,8274;0,0538278
3186,7915;0,0540015
3187,7559;0,054178
3188,7200;0,0543516
3189,6843;0,0545189
3190,6484;0,0546815
3191,6128;0,0548435
3192,5769;0,0550092
3193,5413;0,0551791
3194,5054;0,0553497
3195,4697;0,0555146
3196,4338;0,0556688
3197,3982;0,0558104
3198,3623;0,0559424
3199,3267;0,0560706
3200,2908;0,0562021
3201,2551;0,0563431
3202,2192;0,0564977
3203,1836;0,0566667
3204,1477;0,056847
3205,1121;0,0570315
3206,0762;0,0572116
3207,0405;0,0573803
3208,0046;0,0575353
3208,9690;0,0576803
3209,9331;0,0578232
3210,8975;0,057972
3211,8616;0,0581303
3212,8259;0,0582958
3213,7900;0,0584604
3214,7544;0,0586151
3215,7185;0,0587537
3216,6829;0,0588772
3217,6470;0,0589934
3218,6113;0,0591138
3219,5754;0,0592483
3220,5398;0,0593998
3221,5039;0,0595632
3222,4683;0,0597294
3223,4324;0,0598904
3224,3967;0,0600451
3225,3608;0,0601985
3226,3252;0,060358
3227,2893;0,0605261
3228,2537;0,060698
3229,2178;0,0608634
3230,1821;0,0610133
3231,1462;0,0611462
3232,1106;0,0612693
3233,0747;0,0613947
3234,0391;0,0615318
3235,0032;0,0616831
3235,9675;0,0618439
3236,9316;0,0620078
3237,8960;0,0621716
3238,8601;0,0623372
3239,8245;0,0625093
3240,7886;0,0626899
3241,7529;0,0628743
3242,7170;0,0630525
3243,6814;0,0632135
3244,6455;0,0633532
3245,6099;0,0634783
3246,5740;0,0636051
3247,5383;0,0637522
3248,5024;0,0639321
3249,4668;0,0641449
3250,4309;0,0643787
3251,3953;0,0646144
3252,3594;0,0648345
3253,3237;0,0650289
3254,2878;0,065199
3255,2522;0,0653547
3256,2163;0,0655093
3257,1807;0,0656737
3258,1448;0,0658532
3259,1091;0,0660465
3260,0732;0,0662475
3261,0376;0,0664477
3262,0017;0,0666389
3262,9661;0,0668161
3263,9302;0,0669797
3264,8945;0,0671346
3265,8586;0,0672878
3266,8230;0,0674443
3267,7871;0,0676041
3268,7515;0,0677621
3269,7156;0,0679112
3270,6799;0,0680451
3271,6440;0,0681612
3272,6084;0,0682597
3273,5725;0,0683422
3274,5369;0,0684108
3275,5010;0,0684687
3276,4653;0,0685214
3277,4294;0,0685769
3278,3938;0,0686424
3279,3579;0,068721
3280,3223;0,0688086
3281,2864;0,0688954
3282,2507;0,0689705
3283,2148;0,0690273
3284,1792;0,0690671
3285,1433;0,0690965
3286,1077;0,0691229
3287,0718;0,0691493
3288,0361;0,0691731
3289,0002;0,0691886
3289,9646;0,0691922
3290,9287;0,0691854
3291,8931;0,0691744
3292,8572;0,0691664
3293,8215;0,0691664
3294,7856;0,0691751
3295,7500;0,0691899
3296,7141;0,0692068
3297,6785;0,0692208
3298,6426;0,0692268
3299,6069;0,06922
3300,5710;0,0691982
3301,5354;0,069164
3302,4995;0,069125
3303,4639;0,0690906
3304,4280;0,0690675
3305,3923;0,0690556
3306,3564;0,0690498
3307,3208;0,069043
3308,2849;0,0690316
3309,2493;0,0690163
3310,2134;0,0690005
3311,1777;0,0689867
3312,1418;0,0689766
3313,1062;0,068972
3314,0703;0,0689777
3315,0347;0,0690004
3315,9988;0,0690458
3316,9631;0,0691141
3317,9272;0,069199
3318,8916;0,0692912
3319,8557;0,0693823
3320,8201;0,069468
3321,7842;0,0695479
3322,7485;0,0696219
3323,7126;0,0696882
3324,6770;0,0697444
3325,6411;0,0697897
3326,6055;0,0698278
3327,5696;0,0698661
3328,5339;0,069912
3329,4980;0,0699688
3330,4624;0,0700329
3331,4265;0,0700953
3332,3909;0,070145
3333,3550;0,0701731
3334,3193;0,0701758
3335,2834;0,0701541
3336,2478;0,070112
3337,2119;0,0700534
3338,1763;0,0699799
3339,1404;0,0698908
3340,1047;0,0697847
3341,0688;0,0696618
3342,0332;0,0695246
3342,9973;0,0693775
3343,9617;0,0692247
3344,9258;0,0690695
3345,8901;0,0689144
3346,8542;0,0687629
3347,8186;0,0686189
3348,7827;0,068485
3349,7471;0,0683599
3350,7112;0,0682368
3351,6755;0,0681059
3352,6396;0,0679595
3353,6040;0,0677961
3354,5681;0,0676222
3355,5325;0,0674482
3356,4966;0,0672829
3357,4609;0,0671296
3358,4250;0,0669862
3359,3894;0,0668494
3360,3535;0,0667181
3361,3179;0,0665939
3362,2820;0,0664786
3363,2463;0,06637
3364,2104;0,0662613
3365,1748;0,0661426
3366,1389;0,0660056
3367,1033;0,0658466
3368,0674;0,0656677
3369,0317;0,0654746
3369,9958;0,0652754
3370,9602;0,0650784
3371,9243;0,0648911
3372,8887;0,0647183
3373,8528;0,0645606
3374,8171;0,0644146
3375,7813;0,0642751
3376,7456;0,0641385
3377,7097;0,0640042
3378,6741;0,0638722
3379,6382;0,0637398
3380,6025;0,0635993
3381,5667;0,0634419
3382,5310;0,0632649
3383,4951;0,063078
3384,4595;0,0629008
3385,4236;0,0627524
3386,3879;0,0626397
3387,3521;0,0625516
3388,3164;0,0624661
3389,2805;0,0623636
3390,2449;0,062238
3391,2090;0,0620986
3392,1733;0,0619605
3393,1375;0,0618328
3394,1018;0,0617118
3395,0659;0,0615844
3396,0303;0,0614388
3396,9944;0,0612727
3397,9587;0,061095
3398,9229;0,0609192
3399,8872;0,0607545
3400,8513;0,0606016
3401,8157;0,0604538
3402,7798;0,0603031
3403,7441;0,0601452
3404,7083;0,0599827
3405,6726;0,0598228
3406,6367;0,0596725
3407,6011;0,0595338
3408,5652;0,0594004
3409,5295;0,0592597
3410,4937;0,0590986
3411,4580;0,058911
3412,4221;0,0587028
3413,3865;0,0584899
3414,3506;0,0582888
3415,3149;0,0581074
3416,2791;0,0579403
3417,2434;0,0577721
3418,2075;0,0575865
3419,1719;0,0573759
3420,1360;0,0571461
3421,1003;0,0569129
3422,0645;0,0566936
3423,0288;0,0564981
3423,9929;0,0563246
3424,9573;0,0561618
3425,9214;0,0559946
3426,8857;0,0558099
3427,8499;0,0556028
3428,8142;0,0553788
3429,7783;0,0551514
3430,7427;0,0549354
3431,7068;0,054739
3432,6711;0,0545594
3433,6353;0,0543852
3434,5996;0,0542038
3435,5637;0,0540077
3436,5281;0,0537982
3437,4922;0,053583
3438,4565;0,0533723
3439,4207;0,053175
3440,3850;0,0529964
3441,3491;0,0528357
3442,3135;0,0526846
3443,2776;0,0525275
3444,2419;0,0523454
3445,2061;0,0521256
3446,1704;0,0518694
3447,1345;0,0515948
3448,0989;0,0513279
3449,0630;0,0510872
3450,0273;0,0508747
3450,9915;0,050678
3451,9558;0,0504828
3452,9199;0,050283
3453,8843;0,0500842
3454,8484;0,0498972
3455,8127;0,0497277
3456,7769;0,0495703
3457,7412;0,0494104
3458,7053;0,0492332
3459,6697;0,0490326
3460,6338;0,0488144
3461,5981;0,0485922
3462,5623;0,0483784
3463,5266;0,0481769
3464,4907;0,0479816
3465,4551;0,0477832
3466,4192;0,047576
3467,3835;0,0473633
3468,3477;0,0471543
3469,3120;0,0469564
3470,2761;0,0467684
3471,2405;0,0465809
3472,2046;0,0463837
3473,1689;0,0461754
3474,1331;0,0459674
3475,0974;0,045778
3476,0615;0,045618
3477,0259;0,0454812
3477,9900;0,0453451
3478,9543;0,045184
3479,9185;0,044986
3480,8828;0,0447619
3481,8469;0,04454
3482,8113;0,0443459
3483,7754;0,0441846
3484,7397;0,0440366
3485,7039;0,0438714
3486,6682;0,0436678
3487,6323;0,043428
3488,5967;0,0431766
3489,5608;0,042945
3490,5251;0,042752
3491,4893;0,0425932
3492,4536;0,0424467
3493,4177;0,0422889
3494,3821;0,0421114
3495,3462;0,0419272
3496,3105;0,0417631
3497,2747;0,0416393
3498,2390;0,0415521
3499,2031;0,0414715
3500,1675;0,0413545
3501,1316;0,0411683
3502,0959;0,0409121
3503,0601;0,0406236
3504,0244;0,0403578
3504,9885;0,0401511
3505,9529;0,0400009
3506,9170;0,0398727
3507,8813;0,0397253
3508,8455;0,039535
3509,8098;0,0393072
3510,7739;0,0390698
3511,7383;0,0388515
3512,7024;0,038664
3513,6667;0,0385
3514,6309;0,038346
3515,5952;0,0381962
3516,5593;0,0380564
3517,5237;0,0379373
3518,4878;0,037843
3519,4521;0,037764
3520,4163;0,0376807
3521,3806;0,037573
3522,3447;0,0374307
3523,3091;0,0372562
3524,2732;0,0370588
3525,2375;0,036845
3526,2017;0,036614
3527,1660;0,0363647
3528,1301;0,036105
3529,0945;0,0358545
3530,0586;0,0356355
3531,0229;0,0354572
3531,9871;0,035309
3532,9514;0,0351665
3533,9155;0,0350049
3534,8799;0,0348123
3535,8440;0,0345977
3536,8083;0,0343889
3537,7725;0,0342201
3538,7368;0,0341149
3539,7009;0,0340744
3540,6653;0,0340758
3541,6294;0,0340781
3542,5938;0,0340316
3543,5579;0,0338945
3544,5222;0,0336555
3545,4863;0,033351
3546,4507;0,03305
3547,4148;0,0328094
3548,3792;0,0326384
3549,3433;0,0325013
3550,3076;0,0323489
3551,2717;0,0321507
3552,2361;0,031914
3553,2002;0,0316777
3554,1646;0,0314833
3555,1287;0,0313448
3556,0930;0,0312449
3557,0571;0,0311563
3558,0215;0,0310671
3558,9856;0,0309931
3559,9500;0,0309666
3560,9141;0,0310078
3561,8784;0,0310989
3562,8425;0,0311776
3563,8069;0,0311499
3564,7710;0,0309164
3565,7354;0,0304283
3566,6995;0,0297653
3567,6638;0,0291341
3568,6279;0,028718
3569,5923;0,0285451
3570,5564;0,0285192
3571,5208;0,0285236
3572,4849;0,0284864
3573,4492;0,0283916
3574,4133;0,0282609
3575,3777;0,0281238
3576,3418;0,0279952
3577,3062;0,027874
3578,2703;0,0277611
3579,2346;0,0276738
3580,1987;0,0276419
3581,1631;0,0276832
3582,1272;0,0277795
3583,0916;0,0278729
3584,0557;0,02788
3585,0200;0,0277186
3585,9841;0,0273544
3586,9485;0,0268628
3587,9126;0,0264283
3588,8770;0,0262137
3589,8411;0,0262357
3590,8054;0,0263858
3591,7695;0,0265291
3592,7339;0,0265732
3593,6980;0,0264949
3594,6624;0,0263358
3595,6265;0,0261648
3596,5908;0,0260228
3597,5549;0,0258949
3598,5193;0,0257369
3599,4834;0,0255261
3600,4478;0,0252908
3601,4119;0,0250919
3602,3762;0,0249719
3603,3403;0,0249198
3604,3047;0,0248803
3605,2688;0,0247877
3606,2332;0,024598
3607,1973;0,0243116
3608,1616;0,0239773
3609,1257;0,0236651
3610,0901;0,0234259
3611,0542;0,0232735
3612,0186;0,0231978
3612,9827;0,0231807
3613,9470;0,0231974
3614,9111;0,0232082
3615,8755;0,0231588
3616,8396;0,0229971
3617,8040;0,022709
3618,7681;0,0223578
3619,7324;0,0220834
3620,6965;0,0220187
3621,6609;0,0221901
3622,6250;0,022507
3623,5894;0,0228291
3624,5535;0,0230276
3625,5178;0,0230065
3626,4819;0,0227023
3627,4463;0,022111
3628,4104;0,0213672
3629,3748;0,0207414
3630,3389;0,0204234
3631,3032;0,0203663
3632,2673;0,0203965
3633,2317;0,0203748
3634,1958;0,0202555
3635,1602;0,0200687
3636,1243;0,019872
3637,0886;0,0197045
3638,0527;0,0195722
3639,0171;0,0194661
3639,9812;0,0193887
3640,9456;0,0193618
3641,9097;0,0194081
3642,8740;0,0195265
3643,8381;0,0196822
3644,8025;0,0198147
3645,7666;0,0198424
3646,7310;0,0196506
3647,6951;0,0191146
3648,6594;0,0182757
3649,6235;0,0174859
3650,5879;0,0170933
3651,5520;0,0170933
3652,5164;0,0172562
3653,4805;0,0173672
3654,4448;0,0173211
3655,4089;0,0171276
3656,3733;0,0168819
3657,3374;0,0166969
3658,3018;0,0166219
3659,2659;0,0166237
3660,2302;0,0166432
3661,1943;0,016658
3662,1587;0,0166968
3663,1228;0,0168023
3664,0872;0,0169799
3665,0513;0,0171817
3666,0156;0,0173315
3666,9797;0,017367
3667,9441;0,017274
3668,9082;0,0171061
3669,8726;0,0169669
3670,8367;0,0169271
3671,8010;0,0169513
3672,7651;0,0169275
3673,7295;0,0167537
3674,6936;0,0164133
3675,6580;0,0160204
3676,6221;0,0157615
3677,5864;0,0157279
3678,5505;0,0158563
3679,5149;0,0160357
3680,4790;0,0162089
3681,4434;0,0163849
3682,4075;0,0165938
3683,3718;0,0168381
3684,3359;0,017076
3685,3003;0,0172417
3686,2644;0,0172763
3687,2288;0,01715
3688,1929;0,0168846
3689,1572;0,0165807
3690,1213;0,0163871
3691,0857;0,0163859
3692,0498;0,0165385
3693,0142;0,0167548
3693,9783;0,0169682
3694,9426;0,017153
3695,9067;0,0173055
3696,8711;0,0174199
3697,8352;0,0174795
3698,7996;0,0174638
3699,7637;0,0173689
3700,7280;0,0172276
3701,6921;0,0171132
3702,6565;0,0171064
3703,6206;0,0172431
3704,5850;0,0174927
3705,5491;0,0177815
3706,5134;0,0180268
3707,4775;0,0181507
3708,4419;0,0180741
3709,4060;0,017726
3710,3704;0,0171175
3711,3345;0,0164306
3712,2988;0,0159377
3713,2629;0,0157866
3714,2273;0,015935
3715,1914;0,0162548
3716,1558;0,0166315
3717,1199;0,016999
3718,0842;0,0173326
3719,0483;0,0176293
3720,0127;0,017888
3720,9768;0,0180992
3721,9412;0,0182456
3722,9053;0,018314
3723,8696;0,0183131
3724,8337;0,0182823
3725,7981;0,0182776
3726,7622;0,0183378
3727,7266;0,0184625
3728,6907;0,0186202
3729,6550;0,0187717
3730,6191;0,0188832
3731,5835;0,0189163
3732,5476;0,0188059
3733,5120;0,0184717
3734,4761;0,0179133
3735,4404;0,0173108
3736,4045;0,0169283
3737,3689;0,0168836
3738,3330;0,0170812
3739,2974;0,0173237
3740,2615;0,017429
3741,2258;0,0172875
3742,1899;0,016895
3743,1543;0,0163825
3744,1184;0,0159969
3745,0828;0,0159458
3746,0469;0,0162096
3747,0112;0,0165641
3747,9753;0,0167476
3748,9397;0,0165824
3749,9038;0,01606
3750,8682;0,0154197
3751,8323;0,0150293
3752,7966;0,0150579
3753,7607;0,015377
3754,7251;0,0157527
3755,6892;0,0160075
3756,6536;0,0160633
3757,6177;0,0159379
3758,5820;0,0157288
3759,5461;0,0155643
3760,5105;0,0155261
3761,4746;0,0156108
3762,4390;0,0157583
3763,4031;0,0159009
3764,3674;0,0159905
3765,3315;0,0160026
3766,2959;0,0159301
3767,2600;0,0157783
3768,2244;0,0155672
3769,1885;0,0153393
3770,1528;0,0151597
3771,1169;0,0150921
3772,0813;0,0151611
3773,0454;0,0153364
3774,0098;0,0155501
3774,9739;0,0157296
3775,9382;0,0158227
3776,9023;0,015811
3777,8667;0,0157165
3778,8308;0,0155977
3779,7952;0,0155206
3780,7593;0,0155161
3781,7236;0,0155653
3782,6877;0,0156209
3783,6521;0,0156399
3784,6162;0,015605
3785,5806;0,0155306
3786,5447;0,0154539
3787,5090;0,0154152
3788,4731;0,0154377
3789,4375;0,0155184
3790,4016;0,0156328
3791,3660;0,0157508
3792,3301;0,0158547
3793,2944;0,0159506
3794,2585;0,0160631
3795,2229;0,016213
3796,1870;0,0163905
3797,1514;0,0165455
3798,1155;0,0166073
3799,0798;0,016525
3800,0439;0,0163101
3801,0083;0,0160535
3801,9724;0,0158702
3802,9368;0,0157972
3803,9009;0,01576
3804,8652;0,0156471
3805,8293;0,0154154
3806,7937;0,0151458
3807,7578;0,0150035
3808,7222;0,0151044
3809,6863;0,0154169
3810,6506;0,0158
3811,6147;0,0161081
3812,5791;0,0162619
3813,5432;0,0162695
3814,5076;0,016212
3815,4717;0,0161935
3816,4360;0,0162619
3817,4001;0,0163655
3818,3645;0,0163906
3819,3286;0,0162507
3820,2930;0,0159662
3821,2571;0,0156758
3822,2214;0,0155327
3823,1855;0,0155782
3824,1499;0,0157372
3825,1140;0,0159043
3826,0784;0,0160148
3827,0425;0,0160613
3828,0068;0,0160759
3828,9709;0,0160992
3829,9353;0,0161558
3830,8994;0,0162475
3831,8638;0,01636
3832,8279;0,0164725
3833,7922;0,0165628
3834,7563;0,0166091
3835,7207;0,0165922
3836,6848;0,0165018
3837,6492;0,0163489
3838,6133;0,0161705
3839,5776;0,0160079
3840,5417;0,0158757
3841,5061;0,0157613
3842,4702;0,0156591
3843,4346;0,0155986
3844,3987;0,0156374
3845,3630;0,0158216
3846,3271;0,0161473
3847,2915;0,0165531
3848,2556;0,016942
3849,2200;0,0172067
3850,1841;0,0172358
3851,1484;0,0169115
3852,1125;0,0161717
3853,0769;0,015216
3854,0410;0,0145365
3855,0054;0,0144432
3855,9695;0,0148097
3856,9338;0,0153492
3857,8979;0,0158533
3858,8623;0,0162283
3859,8264;0,0164555
3860,7908;0,0165529
3861,7549;0,0165528
3862,7192;0,0164975
3863,6833;0,0164378
3864,6477;0,016414
3865,6118;0,0164318
3866,5762;0,0164622
3867,5403;0,0164642
3868,5046;0,0164054
3869,4688;0,0162739
3870,4331;0,0160873
3871,3972;0,0158927
3872,3616;0,0157488
3873,3257;0,0156962
3874,2900;0,0157397
3875,2542;0,0158519
3876,2185;0,0159898
3877,1826;0,0161141
3878,1470;0,0162017
3879,1111;0,0162494
3880,0754;0,0162663
3881,0396;0,0162572
3882,0039;0,0162111
3882,9680;0,0161105
3883,9324;0,0159624
3884,8965;0,0158182
3885,8608;0,0157498
3886,8250;0,0157913
3887,7893;0,0159038
3888,7534;0,0160001
3889,7178;0,0160035
3890,6819;0,0159039
3891,6462;0,0157795
3892,6104;0,0157486
3893,5747;0,015873
3894,5388;0,0161137
3895,5032;0,0163768
3896,4673;0,0165788
3897,4316;0,0166782
3898,3958;0,016675
3899,3601;0,0165944
3900,3242;0,0164631
3901,2886;0,0162908
3902,2527;0,0160762
3903,2170;0,015835
3904,1812;0,0156159
3905,1455;0,0154742
3906,1096;0,0154312
3907,0740;0,0154654
3908,0381;0,0155385
3909,0024;0,0156232
3909,9666;0,0157134
3910,9309;0,0158156
3911,8950;0,0159329
3912,8594;0,016052
3913,8235;0,016144
3914,7878;0,0161767
3915,7520;0,0161352
3916,7163;0,0160404
3917,6804;0,015947
3918,6448;0,0159121
3919,6089;0,0159546
3920,5732;0,016044
3921,5374;0,0161255
3922,5017;0,0161558
3923,4658;0,0161297
3924,4302;0,0160835
3925,3943;0,0160686
3926,3586;0,0161122
3927,3228;0,016197
3928,2871;0,0162739
3929,2512;0,0162907
3930,2156;0,0162195
3931,1797;0,0160746
3932,1440;0,0159087
3933,1082;0,0157831
3934,0725;0,0157333
3935,0366;0,0157584
3936,0010;0,0158343
3936,9651;0,0159312
3937,9294;0,0160224
3938,8936;0,0160871
3939,8579;0,0161124
3940,8220;0,0160992
3941,7864;0,0160663
3942,7505;0,0160444
3943,7148;0,0160588
3944,6790;0,0161107
3945,6433;0,0161755
3946,6074;0,0162176
3947,5718;0,0162105
3948,5359;0,0161529
3949,5002;0,0160696
3950,4644;0,0159953
3951,4287;0,0159522
3952,3928;0,0159401
3953,3572;0,0159433
3954,3213;0,0159456
3955,2856;0,0159397
3956,2498;0,015928
3957,2141;0,0159166
3958,1782;0,0159093
3959,1426;0,0159054
3960,1067;0,0159018
3961,0710;0,0158972
3962,0352;0,0158938
3962,9995;0,0158955
3963,9636;0,0159048
3964,9280;0,015921
3965,8921;0,0159409
3966,8564;0,0159608
3967,8206;0,0159783
3968,7849;0,0159921
3969,7490;0,0160013
3970,7134;0,0160039
3971,6775;0,0159971
3972,6418;0,015979
3973,6060;0,0159513
3974,5703;0,0159199
3975,5344;0,0158931
3976,4988;0,0158781
3977,4629;0,0158764
3978,4272;0,0158832
3979,3914;0,015889
3980,3557;0,0158849
3981,3198;0,0158678
3982,2842;0,0158429
3983,2483;0,0158214
3984,2126;0,0158148
3985,1768;0,015829
3986,1411;0,0158609
3987,1052;0,015901
3988,0696;0,0159381
3989,0337;0,0159643
3989,9980;0,0159767
3990,9622;0,0159759
3991,9265;0,0159635
3992,8906;0,0159414
3993,8550;0,0159131
3994,8191;0,0158856
3995,7834;0,0158679
3996,7476;0,0158669
3997,7119;0,0158824
3998,6760;0,0159063
3999,6404;0,0159276
4000,6045;0,0160531

##### Extended Information
[Comments]
Sample name
Comment
Username
Division
Organization;UNIVERSIDAD INDUSTRIAL DE SANTANDER

[Detailed Information]
Creation date;25/02/2025 4:16 p.m.

Data array type;Linear data array
Horizontal axis;Wavenumber [cm-1]
Vertical axis;Abs
Start;399,193 cm-1
End;4000,6 cm-1
Data interval;0,964233 cm-1
Data points;3736    

[Measurement Information]
Model name;FT/IR-4X1typeA
Serial No.;A035162111

Accessory;ATR PRO 4X
Accessory S/N;A021162126
Incident angle;45 deg

Measurement date;25/02/2025 4:16 p.m.

Light source;Standard
Detector;TGS
Accumulation;40
Resolution;4 cm-1
Zero filling;On
Apodization;Cosine
Gain;Auto (8)
Aperture;Auto (7 mm)
Scan speed;Auto (2 mm/sec)
Filter;Auto (12800 Hz)

