TITLE;
DATA TYPE;INFRARED SPECTRUM
ORIGIN;JASCO
OWNER;
DATE;25/02/25
TIME;15:01:52
SPECTROMETER/DATA SYSTEM;
LOCALE;9226
RESOLUTION;
DELTAX;0,964233
XUNITS;1/CM
YUNITS;ABSORBANCE
FIRSTX;  399,1927
LASTX; 4000,6047
NPOINTS;    3736
FIRSTY;     0,11525
MAXY;     0,11525
MINY;     0,00560
XYDATA
399,1927;0,115253
400,1569;0,112523
401,1211;0,110689
402,0854;0,109616
403,0496;0,109005
404,0138;0,108565
404,9781;0,108095
405,9423;0,10754
406,9065;0,106994
407,8708;0,106614
408,8350;0,10648
409,7992;0,106501
410,7635;0,106462
411,7277;0,106184
412,6919;0,105691
413,6562;0,105222
414,6204;0,105095
415,5846;0,105534
416,5489;0,106543
417,5131;0,107782
418,4773;0,108592
419,4416;0,108472
420,4058;0,107622
421,3700;0,106664
422,3343;0,105995
423,2985;0,10565
424,2627;0,105486
425,2270;0,105357
426,1912;0,105204
427,1554;0,105052
428,1197;0,104942
429,0839;0,104882
430,0481;0,104845
431,0124;0,104831
431,9766;0,104903
432,9408;0,105175
433,9051;0,105724
434,8693;0,106511
435,8335;0,107365
436,7978;0,10806
437,7620;0,108451
438,7262;0,108538
439,6905;0,108443
440,6547;0,108316
441,6189;0,108249
442,5832;0,108235
443,5474;0,108181
444,5116;0,107989
445,4759;0,107634
446,4401;0,10718
447,4043;0,106731
448,3686;0,106361
449,3328;0,106067
450,2970;0,105773
451,2613;0,105387
452,2255;0,104892
453,1897;0,104401
454,1540;0,104147
455,1182;0,104402
456,0824;0,105328
457,0467;0,106806
458,0109;0,108358
458,9751;0,109344
459,9394;0,109374
460,9036;0,108512
461,8678;0,10716
462,8321;0,105819
463,7963;0,10492
464,7605;0,104706
465,7248;0,105168
466,6890;0,106062
467,6532;0,107048
468,6175;0,107841
469,5817;0,108297
470,5459;0,108404
471,5102;0,108226
472,4744;0,107843
473,4386;0,107322
474,4029;0,106724
475,3671;0,106119
476,3313;0,105597
477,2956;0,105248
478,2598;0,105121
479,2240;0,105189
480,1883;0,105344
481,1525;0,105444
482,1167;0,105377
483,0810;0,10513
484,0452;0,104795
485,0094;0,104515
485,9737;0,104401
486,9379;0,104466
487,9021;0,104639
488,8664;0,10481
489,8306;0,10488
490,7948;0,104799
491,7591;0,104572
492,7233;0,104252
493,6875;0,103914
494,6518;0,103632
495,6160;0,10346
496,5802;0,103418
497,5445;0,103496
498,5087;0,103649
499,4729;0,103807
500,4372;0,103894
501,4014;0,103857
502,3656;0,1037
503,3299;0,103484
504,2941;0,103294
505,2583;0,103187
506,2226;0,103172
507,1868;0,103208
508,1510;0,10324
509,1153;0,103235
510,0795;0,103204
511,0437;0,10319
512,0080;0,10324
512,9722;0,103375
513,9365;0,103579
514,9007;0,103808
515,8649;0,104004
516,8292;0,104117
517,7934;0,104123
518,7576;0,10404
519,7219;0,103918
520,6861;0,103809
521,6503;0,10374
522,6146;0,103698
523,5788;0,103638
524,5430;0,103509
525,5073;0,103287
526,4715;0,102996
527,4357;0,102697
528,4000;0,102437
529,3642;0,102211
530,3284;0,101973
531,2927;0,10167
532,2569;0,101288
533,2211;0,100875
534,1854;0,100514
535,1496;0,100281
536,1138;0,100193
537,0781;0,100206
538,0423;0,100241
539,0065;0,100234
539,9708;0,100164
540,9350;0,100058
541,8992;0,0999665
542,8635;0,0999344
543,8277;0,0999777
544,7919;0,100077
545,7562;0,100186
546,7204;0,100256
547,6846;0,100258
548,6489;0,100198
549,6131;0,100112
550,5773;0,100048
551,5416;0,10005
552,5058;0,100144
553,4700;0,100328
554,4343;0,100575
555,3985;0,100831
556,3627;0,101017
557,3270;0,101051
558,2912;0,100864
559,2554;0,100433
560,2197;0,0997914
561,1839;0,0990212
562,1481;0,0982279
563,1124;0,0975061
564,0766;0,0969134
565,0408;0,0964609
566,0051;0,0961202
566,9693;0,0958389
567,9335;0,0955598
568,8978;0,0952402
569,8620;0,0948659
570,8262;0,0944534
571,7905;0,0940398
572,7547;0,0936655
573,7189;0,0933594
574,6832;0,0931316
575,6474;0,0929752
576,6116;0,0928746
577,5759;0,0928153
578,5401;0,092786
579,5043;0,0927726
580,4686;0,0927502
581,4328;0,0926837
582,3970;0,092542
583,3613;0,0923198
584,3255;0,0920519
585,2897;0,0918069
586,2540;0,0916588
587,2182;0,091653
588,1824;0,0917839
589,1467;0,0919974
590,1109;0,0922132
591,0751;0,0923594
592,0394;0,0924008
593,0036;0,0923473
593,9678;0,0922364
594,9321;0,0921017
595,8963;0,0919529
596,8605;0,0917767
597,8248;0,0915572
598,7890;0,0912983
599,7532;0,0910335
600,7175;0,0908109
601,6817;0,0906624
602,6459;0,0905783
603,6102;0,0905084
604,5744;0,0903882
605,5386;0,0901751
606,5029;0,08987
607,4671;0,0895094
608,4313;0,0891372
609,3956;0,0887792
610,3598;0,0884402
611,3240;0,0881246
612,2883;0,0878557
613,2525;0,0876686
614,2167;0,087576
615,1810;0,0875294
616,1452;0,087414
617,1094;0,0870976
618,0737;0,0865144
619,0379;0,0857181
620,0021;0,084855
620,9664;0,0840802
621,9306;0,0834826
622,8948;0,0830622
623,8591;0,0827572
624,8233;0,0824724
625,7875;0,0822024
626,7518;0,0819352
627,7160;0,0816723
628,6802;0,0814025
629,6445;0,0811028
630,6087;0,080753
631,5729;0,0803569
632,5372;0,0799456
633,5014;0,079565
634,4656;0,0792547
635,4299;0,079033
636,3941;0,0788946
637,3583;0,0788171
638,3226;0,0787703
639,2868;0,078722
640,2510;0,0786431
641,2153;0,0785143
642,1795;0,078334
643,1437;0,0781211
644,1080;0,0779072
645,0722;0,0777211
646,0364;0,0775731
647,0007;0,0774496
647,9649;0,0773218
648,9291;0,0771642
649,8934;0,0769725
650,8576;0,0767672
651,8218;0,0765807
652,7861;0,0764382
653,7503;0,0763458
654,7145;0,0762882
655,6788;0,0762379
656,6430;0,0761698
657,6072;0,0760755
658,5715;0,0759652
659,5357;0,0758568
660,4999;0,0757526
661,4642;0,07562
662,4284;0,0753883
663,3926;0,0749722
664,3569;0,0743274
665,3211;0,0735281
666,2853;0,0728097
667,2496;0,0724522
668,2138;0,0724522
669,1780;0,0724908
670,1423;0,0724184
671,1065;0,0722579
672,0707;0,0719562
673,0350;0,0714554
673,9992;0,0707987
674,9634;0,0701096
675,9277;0,0695048
676,8919;0,0690179
677,8561;0,0685962
678,8204;0,0681613
679,7846;0,0676729
680,7488;0,0671423
681,7131;0,0666105
682,6773;0,0661104
683,6415;0,0656527
684,6058;0,0652343
685,5700;0,0648554
686,5342;0,0645256
687,4985;0,0642556
688,4627;0,0640475
689,4269;0,0638811
690,3912;0,063729
691,3554;0,0635705
692,3196;0,0634006
693,2839;0,0632276
694,2481;0,0630651
695,2123;0,0629225
696,1766;0,0627981
697,1408;0,0626786
698,1050;0,0625442
699,0693;0,0623756
700,0335;0,0621614
700,9977;0,0619013
701,9620;0,0616059
702,9262;0,0612947
703,8904;0,060983
704,8547;0,0606935
705,8189;0,0604393
706,7831;0,0602197
707,7474;0,060019
708,7116;0,0598111
709,6758;0,0595685
710,6401;0,0592721
711,6043;0,0589186
712,5685;0,0585246
713,5328;0,0581239
714,4970;0,0577584
715,4612;0,0570262
716,4255;0,0569033
717,3897;0,056871
718,3539;0,0568461
719,3182;0,0567206
720,2824;0,056414
721,2466;0,0559203
722,2109;0,0553126
723,1751;0,0546995
724,1393;0,0541686
725,1036;0,0537539
726,0678;0,0534365
727,0320;0,0531689
727,9963;0,0529038
728,9605;0,0526148
729,9247;0,0523015
730,8890;0,0519817
731,8532;0,0516794
732,8174;0,0514147
733,7817;0,051197
734,7459;0,0510221
735,7101;0,0508734
736,6744;0,050727
737,6386;0,0505608
738,6028;0,0503614
739,5671;0,0501273
740,5313;0,0498682
741,4955;0,0496003
742,4598;0,049343
743,4240;0,0491132
744,3882;0,04892
745,3525;0,0487571
746,3167;0,0486006
747,2809;0,0484156
748,2452;0,0481726
749,2094;0,0478661
750,1736;0,0475217
751,1379;0,0471859
752,1021;0,0469012
753,0663;0,0466827
754,0306;0,0465114
754,9948;0,046349
755,9590;0,0461636
756,9233;0,0459488
757,8875;0,0457236
758,8517;0,045515
759,8160;0,0453373
760,7802;0,0451837
761,7444;0,0450337
762,7087;0,0448693
763,6729;0,0446861
764,6371;0,0444919
765,6014;0,0442969
766,5656;0,0441048
767,5298;0,0439118
768,4941;0,0437137
769,4583;0,0435127
770,4225;0,0433178
771,3868;0,0431379
772,3510;0,0429735
773,3152;0,0428159
774,2795;0,0426529
775,2437;0,0424787
776,2079;0,0422988
777,1722;0,0421266
778,1364;0,0419736
779,1006;0,0418408
780,0649;0,0417175
781,0291;0,0415875
781,9933;0,0414395
782,9576;0,0412735
783,9218;0,0411
784,8860;0,0409321
785,8503;0,0407779
786,8145;0,040637
787,7787;0,0405028
788,7430;0,0403689
789,7072;0,0402338
790,6714;0,0401
791,6357;0,0399704
792,5999;0,0398441
793,5641;0,0397173
794,5284;0,0395872
795,4926;0,0394561
796,4568;0,0393323
797,4211;0,0392247
798,3853;0,0391379
799,3495;0,0390693
800,3138;0,0390116
801,2780;0,0389576
802,2422;0,0389027
803,2065;0,038845
804,1707;0,038782
805,1349;0,0387101
806,0992;0,0386265
807,0634;0,0385333
808,0276;0,0384373
808,9919;0,0383469
809,9561;0,0382657
810,9203;0,038189
811,8846;0,0381073
812,8488;0,0380129
813,8130;0,0379069
814,7773;0,0378012
815,7415;0,0377125
816,7057;0,0376531
817,6700;0,0376232
818,6342;0,0376085
819,5984;0,0375856
820,5627;0,0375315
821,5269;0,0374338
822,4911;0,0372971
823,4554;0,0371414
824,4196;0,0369937
825,3839;0,0368765
826,3481;0,0367984
827,3123;0,0367523
828,2766;0,0367225
829,2408;0,0366937
830,2050;0,0366586
831,1693;0,0366171
832,1335;0,0365709
833,0977;0,036517
834,0620;0,036446
835,0262;0,0363472
835,9904;0,0362161
836,9547;0,0360585
837,9189;0,0358893
838,8831;0,0357251
839,8474;0,0355769
840,8116;0,0354464
841,7758;0,0353272
842,7401;0,0352114
843,7043;0,0350948
844,6685;0,0349808
845,6328;0,0348782
846,5970;0,0347963
847,5612;0,0347383
848,5255;0,034698
849,4897;0,0346618
850,4539;0,0346148
851,4182;0,0345495
852,3824;0,0344704
853,3466;0,0343922
854,3109;0,0343323
855,2751;0,0343011
856,2393;0,0342964
857,2036;0,0343047
858,1678;0,0343088
859,1320;0,034297
860,0963;0,0342692
861,0605;0,0342363
862,0247;0,0342141
862,9890;0,0342158
863,9532;0,0342469
864,9174;0,0343048
865,8817;0,0343832
866,8459;0,034478
867,8101;0,0345896
868,7744;0,0347211
869,7386;0,0348715
870,7028;0,0350304
871,6671;0,0351769
872,6313;0,0352871
873,5955;0,035346
874,5598;0,0353573
875,5240;0,0353451
876,4882;0,0353442
877,4525;0,0353845
878,4167;0,0354781
879,3809;0,0356167
880,3452;0,0357796
881,3094;0,035948
882,2736;0,0361157
883,2379;0,0362921
884,2021;0,0364963
885,1663;0,0367473
886,1306;0,0370555
887,0948;0,0374199
888,0590;0,0378294
889,0233;0,0382674
889,9875;0,0387158
890,9517;0,0391585
891,9160;0,039582
892,8802;0,0399742
893,8444;0,0403229
894,8087;0,0406138
895,7729;0,0408315
896,7371;0,0409622
897,7014;0,0409971
898,6656;0,040934
899,6298;0,0407773
900,5941;0,0405358
901,5583;0,0402208
902,5225;0,0398469
903,4868;0,039433
904,4510;0,039003
905,4152;0,0385837
906,3795;0,0382009
907,3437;0,0378756
908,3079;0,0376212
909,2722;0,037443
910,2364;0,0373386
911,2007;0,0372976
912,1649;0,0373027
913,1292;0,0373325
914,0934;0,0373673
915,0576;0,0373959
916,0219;0,0374191
916,9861;0,0374494
917,9503;0,0375032
918,9146;0,0375927
919,8788;0,0377194
920,8430;0,0378743
921,8073;0,0380422
922,7715;0,0382094
923,7357;0,0383684
924,7000;0,0385185
925,6642;0,0386622
926,6284;0,038801
927,5927;0,0389329
928,5569;0,0390551
929,5211;0,0391683
930,4854;0,0392807
931,4496;0,0394061
932,4138;0,0395572
933,3781;0,0397382
934,3423;0,0399405
935,3065;0,040148
936,2708;0,0403479
937,2350;0,0405405
938,1992;0,0407425
939,1635;0,0409797
940,1277;0,0412748
941,0919;0,0416363
942,0562;0,0420561
943,0204;0,042516
943,9846;0,0429985
944,9489;0,0434961
945,9131;0,0440131
946,8773;0,0445605
947,8416;0,0451481
948,8058;0,045778
949,7700;0,0464429
950,7343;0,0471308
951,6985;0,0478325
952,6627;0,0485484
953,6270;0,0492896
954,5912;0,0500716
955,5554;0,0509055
956,5197;0,0517888
957,4839;0,0527044
958,4481;0,0536278
959,4124;0,0545383
960,3766;0,0554275
961,3408;0,0563008
962,3051;0,0571702
963,2693;0,058045
964,2335;0,0589258
965,1978;0,0598059
966,1620;0,0606783
967,1262;0,061543
968,0905;0,0624106
969,0547;0,0632994
970,0189;0,0642305
970,9832;0,0652215
971,9474;0,0662834
972,9116;0,0674201
973,8759;0,0686311
974,8401;0,0699141
975,8043;0,0712672
976,7686;0,0726898
977,7328;0,0741801
978,6970;0,0757294
979,6613;0,0773161
980,6255;0,0789021
981,5897;0,080436
982,5540;0,0818638
983,5182;0,0831433
984,4824;0,0842556
985,4467;0,085208
986,4109;0,0860263
987,3751;0,0867411
988,3394;0,0873756
989,3036;0,0879408
990,2678;0,0884391
991,2321;0,0888726
992,1963;0,0892489
993,1605;0,0895827
994,1248;0,0898907
995,0890;0,0901861
996,0532;0,0904762
997,0175;0,0907636
997,9817;0,0910506
998,9459;0,0913431
999,9102;0,0916502
1000,8744;0,0919825
1001,8386;0,0923489
1002,8029;0,0927555
1003,7671;0,0932082
1004,7313;0,0937147
1005,6956;0,094287
1006,6598;0,0949392
1007,6240;0,095684
1008,5883;0,0965278
1009,5525;0,0974668
1010,5167;0,0984848
1011,4810;0,0995535
1012,4452;0,100636
1013,4094;0,101693
1014,3737;0,102695
1015,3379;0,103624
1016,3021;0,104481
1017,2664;0,105279
1018,2306;0,106028
1019,1948;0,106733
1020,1591;0,107386
1021,1233;0,107976
1022,0875;0,108501
1023,0518;0,108967
1024,0160;0,109387
1024,9802;0,109777
1025,9445;0,110141
1026,9087;0,110477
1027,8729;0,11078
1028,8372;0,111043
1029,8014;0,111257
1030,7656;0,111405
1031,7299;0,111456
1032,6941;0,111373
1033,6583;0,111128
1034,6226;0,110713
1035,5868;0,110158
1036,5510;0,109514
1037,5153;0,10885
1038,4795;0,108228
1039,4437;0,107697
1040,4080;0,107285
1041,3722;0,106999
1042,3364;0,106828
1043,3007;0,106743
1044,2649;0,106704
1045,2291;0,10667
1046,1934;0,106605
1047,1576;0,106487
1048,1218;0,106302
1049,0861;0,10604
1050,0503;0,10569
1051,0145;0,105236
1051,9788;0,104669
1052,9430;0,10399
1053,9072;0,103214
1054,8715;0,102365
1055,8357;0,101461
1056,7999;0,100513
1057,7642;0,0995102
1058,7284;0,0984351
1059,6926;0,0972689
1060,6569;0,0960052
1061,6211;0,0946574
1062,5853;0,0932583
1063,5496;0,0918528
1064,5138;0,0904875
1065,4780;0,0892001
1066,4423;0,088013
1067,4065;0,086932
1068,3707;0,0859484
1069,3350;0,0850452
1070,2992;0,0842014
1071,2634;0,0833963
1072,2277;0,0826098
1073,1919;0,0818219
1074,1561;0,0810129
1075,1204;0,0801652
1076,0846;0,0792686
1077,0488;0,0783258
1078,0131;0,0773542
1078,9773;0,0763828
1079,9415;0,0754448
1080,9058;0,0745675
1081,8700;0,0737671
1082,8342;0,0730473
1083,7985;0,0724026
1084,7627;0,0718241
1085,7269;0,0713023
1086,6912;0,0708302
1087,6554;0,0704038
1088,6196;0,0700231
1089,5839;0,0696917
1090,5481;0,0694152
1091,5123;0,0691968
1092,4766;0,0690332
1093,4408;0,0689132
1094,4050;0,0688206
1095,3693;0,0687405
1096,3335;0,0686655
1097,2977;0,0685974
1098,2620;0,0685431
1099,2262;0,0685083
1100,1904;0,0684904
1101,1547;0,0684779
1102,1189;0,0684543
1103,0831;0,0684052
1104,0474;0,0683242
1105,0116;0,0682138
1105,9758;0,0680812
1106,9401;0,0679314
1107,9043;0,0677606
1108,8685;0,0675531
1109,8328;0,0672849
1110,7970;0,066932
1111,7612;0,0664808
1112,7255;0,0659366
1113,6897;0,0653247
1114,6539;0,0646832
1115,6182;0,0640505
1116,5824;0,0634535
1117,5466;0,0629012
1118,5109;0,0623868
1119,4751;0,0618936
1120,4393;0,0614003
1121,4036;0,0608836
1122,3678;0,0603179
1123,3320;0,0596767
1124,2963;0,0589371
1125,2605;0,0580877
1126,2247;0,057133
1127,1890;0,0560932
1128,1532;0,0549979
1129,1174;0,0538767
1130,0817;0,0527533
1131,0459;0,0516435
1132,0101;0,0505586
1132,9744;0,0495095
1133,9386;0,0485111
1134,9028;0,0475826
1135,8671;0,0467462
1136,8313;0,0460227
1137,7955;0,0454268
1138,7598;0,0449636
1139,7240;0,0446283
1140,6882;0,0444079
1141,6525;0,0442862
1142,6167;0,044247
1143,5809;0,0442764
1144,5452;0,0443625
1145,5094;0,0444947
1146,4736;0,044663
1147,4379;0,0448596
1148,4021;0,0450787
1149,3663;0,0453166
1150,3306;0,0455702
1151,2948;0,0458348
1152,2590;0,0461024
1153,2233;0,0463601
1154,1875;0,046589
1155,1517;0,0467645
1156,1160;0,0468574
1157,0802;0,0468375
1158,0444;0,0466782
1159,0087;0,0463596
1159,9729;0,0458701
1160,9371;0,0452051
1161,9014;0,0443657
1162,8656;0,0433598
1163,8298;0,0422045
1164,7941;0,0409297
1165,7583;0,0395782
1166,7225;0,0382009
1167,6868;0,0368479
1168,6510;0,0355597
1169,6152;0,0343614
1170,5795;0,0332633
1171,5437;0,0322668
1172,5079;0,0313707
1173,4722;0,0305755
1174,4364;0,0298825
1175,4006;0,0292895
1176,3649;0,0287871
1177,3291;0,0283587
1178,2933;0,0279848
1179,2576;0,0276502
1180,2218;0,0273489
1181,1860;0,0270844
1182,1503;0,0268649
1183,1145;0,0266973
1184,0787;0,026583
1185,0430;0,026517
1186,0072;0,026492
1186,9714;0,0265022
1187,9357;0,0265458
1188,8999;0,0266248
1189,8641;0,026742
1190,8284;0,0268979
1191,7926;0,0270897
1192,7568;0,0273128
1193,7211;0,0275639
1194,6853;0,0278435
1195,6495;0,0281553
1196,6138;0,0285018
1197,5780;0,0288801
1198,5422;0,0292797
1199,5065;0,0296163
1200,4707;0,0300186
1201,4349;0,0304025
1202,3992;0,0307687
1203,3634;0,0311245
1204,3276;0,031478
1205,2919;0,0318331
1206,2561;0,0321886
1207,2203;0,0325426
1208,1846;0,032897
1209,1488;0,0332604
1210,1130;0,0336458
1211,0773;0,0340645
1212,0415;0,0345206
1213,0057;0,0350085
1213,9700;0,0355158
1214,9342;0,0360289
1215,8984;0,0365383
1216,8627;0,0370397
1217,8269;0,0375322
1218,7911;0,0380155
1219,7554;0,0384873
1220,7196;0,0389425
1221,6838;0,0393755
1222,6481;0,0397822
1223,6123;0,0401599
1224,5765;0,0405073
1225,5408;0,0408242
1226,5050;0,0411116
1227,4692;0,0413729
1228,4335;0,0416139
1229,3977;0,0418412
1230,3619;0,042059
1231,3262;0,0422659
1232,2904;0,0424551
1233,2546;0,0426174
1234,2189;0,0427459
1235,1831;0,04284
1236,1473;0,0429055
1237,1116;0,0429515
1238,0758;0,0429854
1239,0400;0,043009
1240,0043;0,0430183
1240,9685;0,0430067
1241,9327;0,042969
1242,8970;0,0429043
1243,8612;0,0428153
1244,8254;0,0427051
1245,7897;0,0425745
1246,7539;0,0424214
1247,7181;0,0422436
1248,6824;0,0420415
1249,6466;0,0418205
1250,6108;0,0415884
1251,5751;0,0413531
1252,5393;0,0411193
1253,5035;0,0408889
1254,4678;0,040661
1255,4320;0,0404336
1256,3962;0,040203
1257,3605;0,0399647
1258,3247;0,0397132
1259,2889;0,0394446
1260,2532;0,0391577
1261,2174;0,0388546
1262,1816;0,0385382
1263,1459;0,0382104
1264,1101;0,0378713
1265,0743;0,0375202
1266,0386;0,0371567
1267,0028;0,03678
1267,9670;0,0363881
1268,9313;0,0359766
1269,8955;0,0355416
1270,8597;0,0350825
1271,8240;0,0346049
1272,7882;0,0341208
1273,7524;0,0336451
1274,7167;0,0331915
1275,6809;0,0327687
1276,6451;0,0323788
1277,6094;0,0320168
1278,5736;0,0316719
1279,5378;0,031331
1280,5021;0,0309842
1281,4663;0,0306302
1282,4305;0,0302773
1283,3948;0,0299405
1284,3590;0,0296341
1285,3232;0,0293653
1286,2875;0,0291322
1287,2517;0,0289264
1288,2159;0,0287385
1289,1802;0,0285637
1290,1444;0,0284032
1291,1086;0,0282626
1292,0729;0,0281492
1293,0371;0,02807
1294,0013;0,0280297
1294,9656;0,02803
1295,9298;0,0280682
1296,8940;0,0281377
1297,8583;0,0282305
1298,8225;0,0283403
1299,7867;0,0284661
1300,7510;0,0286122
1301,7152;0,0287867
1302,6794;0,0289955
1303,6437;0,029239
1304,6079;0,029511
1305,5721;0,0298013
1306,5364;0,0301001
1307,5006;0,0304026
1308,4648;0,0307094
1309,4291;0,0310238
1310,3933;0,0313461
1311,3575;0,0316698
1312,3218;0,0319822
1313,2860;0,0322689
1314,2502;0,0325186
1315,2145;0,0327248
1316,1787;0,0328818
1317,1429;0,0329823
1318,1072;0,033018
1319,0714;0,0329865
1320,0356;0,0328975
1320,9999;0,0327724
1321,9641;0,0326366
1322,9283;0,0325105
1323,8926;0,0324049
1324,8568;0,0323222
1325,8210;0,0322592
1326,7853;0,0322095
1327,7495;0,0321645
1328,7137;0,0321142
1329,6780;0,0320485
1330,6422;0,0319616
1331,6064;0,0318567
1332,5707;0,0317467
1333,5349;0,0316505
1334,4991;0,0315834
1335,4634;0,0315458
1336,4276;0,0315152
1337,3918;0,0314435
1338,3561;0,0312724
1339,3203;0,0309675
1340,2845;0,0305512
1341,2488;0,0300939
1342,2130;0,0296726
1343,1772;0,0293362
1344,1415;0,0291009
1345,1057;0,0289603
1346,0699;0,0288953
1347,0342;0,0288824
1347,9984;0,0289011
1348,9626;0,0289405
1349,9269;0,0290006
1350,8911;0,029088
1351,8553;0,0292087
1352,8196;0,029364
1353,7838;0,0295502
1354,7480;0,0297623
1355,7123;0,0299983
1356,6765;0,0302615
1357,6407;0,0305585
1358,6050;0,0308942
1359,5692;0,0312634
1360,5334;0,0316399
1361,4977;0,0319747
1362,4619;0,0322192
1363,4261;0,0323646
1364,3904;0,0324498
1365,3546;0,0325273
1366,3188;0,0326293
1367,2831;0,0327606
1368,2473;0,0329072
1369,2115;0,0330484
1370,1758;0,0331665
1371,1400;0,0332487
1372,1042;0,033282
1373,0685;0,0332491
1374,0327;0,0331336
1374,9969;0,0329352
1375,9612;0,0326727
1376,9254;0,032366
1377,8896;0,0320181
1378,8539;0,0316202
1379,8181;0,0311724
1380,7823;0,0306982
1381,7466;0,0302374
1382,7108;0,0298224
1383,6750;0,0294587
1384,6393;0,0291238
1385,6035;0,0287822
1386,5677;0,0284106
1387,5320;0,0280227
1388,4962;0,0276657
1389,4604;0,027381
1390,4247;0,0271769
1391,3889;0,0270408
1392,3531;0,0269633
1393,3174;0,0269435
1394,2816;0,0269748
1395,2458;0,0270284
1396,2101;0,0270594
1397,1743;0,0270343
1398,1385;0,0269553
1399,1028;0,0268596
1400,0670;0,0267945
1401,0313;0,0267913
1401,9955;0,026854
1402,9597;0,0269662
1403,9240;0,0271049
1404,8882;0,0272533
1405,8524;0,0274094
1406,8167;0,0275824
1407,7809;0,0277807
1408,7451;0,0280035
1409,7094;0,028245
1410,6736;0,0285024
1411,6378;0,0287797
1412,6021;0,0290836
1413,5663;0,0294153
1414,5305;0,0297672
1415,4948;0,0301247
1416,4590;0,030463
1417,4232;0,0307396
1418,3875;0,0309095
1419,3517;0,030977
1420,3159;0,0310041
1421,2802;0,0310385
1422,2444;0,0310674
1423,2086;0,0310448
1424,1729;0,0309361
1425,1371;0,0307374
1426,1013;0,0304664
1427,0656;0,0301421
1428,0298;0,0297744
1428,9940;0,0293742
1429,9583;0,0289673
1430,9225;0,0285891
1431,8867;0,0282558
1432,8510;0,0279456
1433,8152;0,0276089
1434,7794;0,0271976
1435,7437;0,0267009
1436,7079;0,026183
1437,6721;0,0257654
1438,6364;0,0255294
1439,6006;0,0254571
1440,5648;0,0254801
1441,5291;0,025545
1442,4933;0,0256355
1443,4575;0,0257589
1444,4218;0,0259233
1445,3860;0,0261231
1446,3502;0,0263403
1447,3145;0,0265566
1448,2787;0,0267664
1449,2429;0,026978
1450,2072;0,027199
1451,1714;0,027419
1452,1356;0,0276132
1453,0999;0,0277617
1454,0641;0,0278659
1455,0283;0,027936
1455,9926;0,0279359
1456,9568;0,0277774
1457,9210;0,0274952
1458,8853;0,0272771
1459,8495;0,0271998
1460,8137;0,0271834
1461,7780;0,0271241
1462,7422;0,0269584
1463,7064;0,0266642
1464,6707;0,0262614
1465,6349;0,0258151
1466,5991;0,0253962
1467,5634;0,025019
1468,5276;0,0246416
1469,4918;0,0242116
1470,4561;0,0236937
1471,4203;0,0230663
1472,3845;0,0223213
1473,3488;0,0215056
1474,3130;0,0207345
1475,2772;0,0201021
1476,2415;0,0196202
1477,2057;0,0192549
1478,1699;0,0189729
1479,1342;0,0187525
1480,0984;0,0185783
1481,0626;0,0184396
1482,0269;0,018335
1482,9911;0,0182747
1483,9553;0,0182747
1484,9196;0,0183494
1485,8838;0,0185058
1486,8480;0,0187317
1487,8123;0,0189708
1488,7765;0,0191261
1489,7407;0,0191485
1490,7050;0,0191093
1491,6692;0,019117
1492,6334;0,0192205
1493,5977;0,0194207
1494,5619;0,0197156
1495,5261;0,0201101
1496,4904;0,02059
1497,4546;0,0211038
1498,4188;0,0215982
1499,3831;0,0220548
1500,3473;0,0224636
1501,3115;0,0227972
1502,2758;0,0230321
1503,2400;0,0231879
1504,2042;0,0233543
1505,1685;0,0236627
1506,1327;0,0241183
1507,0969;0,0244201
1508,0612;0,0243198
1509,0254;0,0239913
1509,9896;0,0236535
1510,9539;0,0233545
1511,9181;0,0230751
1512,8823;0,0228004
1513,8466;0,0225227
1514,8108;0,0222278
1515,7750;0,0218936
1516,7393;0,021505
1517,7035;0,0210628
1518,6677;0,0205782
1519,6320;0,0200662
1520,5962;0,0195538
1521,5604;0,0190927
1522,5247;0,0187379
1523,4889;0,0185048
1524,4531;0,0183575
1525,4174;0,0182466
1526,3816;0,0181488
1527,3458;0,0180739
1528,3101;0,0180387
1529,2743;0,0180439
1530,2385;0,0180735
1531,2028;0,0181074
1532,1670;0,0181282
1533,1312;0,0181256
1534,0955;0,018102
1535,0597;0,0180623
1536,0239;0,0179968
1536,9882;0,0178969
1537,9524;0,0177937
1538,9166;0,017767
1539,8809;0,0178729
1540,8451;0,0180415
1541,8093;0,0181715
1542,7736;0,0182645
1543,7378;0,0183392
1544,7020;0,0183934
1545,6663;0,0184383
1546,6305;0,0184975
1547,5947;0,018583
1548,5590;0,0186821
1549,5232;0,0187671
1550,4874;0,0188156
1551,4517;0,0188259
1552,4159;0,0188125
1553,3801;0,0187855
1554,3444;0,0187382
1555,3086;0,0186574
1556,2728;0,0185395
1557,2371;0,0183702
1558,2013;0,0181021
1559,1655;0,0178108
1560,1298;0,0177494
1561,0940;0,0179837
1562,0582;0,0183589
1563,0225;0,0187243
1563,9867;0,0190107
1564,9509;0,0192103
1565,9152;0,0193446
1566,8794;0,0194434
1567,8436;0,0195333
1568,8079;0,0196341
1569,7721;0,0197619
1570,7363;0,0199218
1571,7006;0,020098
1572,6648;0,0202686
1573,6290;0,0204334
1574,5933;0,0206222
1575,5575;0,0208669
1576,5217;0,0211681
1577,4860;0,0215073
1578,4502;0,0218724
1579,4144;0,0222495
1580,3787;0,0226239
1581,3429;0,0229927
1582,3071;0,0233653
1583,2714;0,0237529
1584,2356;0,0241607
1585,1998;0,0245886
1586,1641;0,0250323
1587,1283;0,0254814
1588,0925;0,0259176
1589,0568;0,0263168
1590,0210;0,026657
1590,9852;0,026924
1591,9495;0,0271109
1592,9137;0,027214
1593,8779;0,0272324
1594,8422;0,0271724
1595,8064;0,0270523
1596,7706;0,0268987
1597,7349;0,0267363
1598,6991;0,0265797
1599,6633;0,0264319
1600,6276;0,0262894
1601,5918;0,0261505
1602,5560;0,0260202
1603,5203;0,0259088
1604,4845;0,025823
1605,4487;0,0257575
1606,4130;0,0256958
1607,3772;0,0256196
1608,3414;0,0255244
1609,3057;0,0254266
1610,2699;0,025352
1611,2341;0,0253105
1612,1984;0,0252863
1613,1626;0,0252536
1614,1268;0,025199
1615,0911;0,0251321
1616,0553;0,0250853
1617,0195;0,0251056
1617,9838;0,0252239
1618,9480;0,0254183
1619,9122;0,0256306
1620,8765;0,0258128
1621,8407;0,025948
1622,8049;0,0260425
1623,7692;0,0261105
1624,7334;0,0261657
1625,6976;0,0262176
1626,6619;0,0262731
1627,6261;0,0263421
1628,5903;0,0264364
1629,5546;0,0265554
1630,5188;0,0266775
1631,4830;0,026771
1632,4473;0,0268167
1633,4115;0,0268214
1634,3757;0,0268008
1635,3400;0,0267547
1636,3042;0,0266976
1637,2684;0,026693
1638,2327;0,0267788
1639,1969;0,0269223
1640,1611;0,0270691
1641,1254;0,0271819
1642,0896;0,0272451
1643,0538;0,0272582
1644,0181;0,0272263
1644,9823;0,0271464
1645,9465;0,0270029
1646,9108;0,0268092
1647,8750;0,0266214
1648,8392;0,0264622
1649,8035;0,026291
1650,7677;0,026058
1651,7319;0,0257339
1652,6962;0,0253007
1653,6604;0,0248424
1654,6246;0,0245876
1655,5889;0,0246062
1656,5531;0,0247456
1657,5173;0,024847
1658,4816;0,0248364
1659,4458;0,0247047
1660,4100;0,0244708
1661,3743;0,0241649
1662,3385;0,0238368
1663,3027;0,0235529
1664,2670;0,0233527
1665,2312;0,0232188
1666,1954;0,0230987
1667,1597;0,0229372
1668,1239;0,0226945
1669,0881;0,0223655
1670,0524;0,0219984
1671,0166;0,0216649
1671,9808;0,0213867
1672,9451;0,0211233
1673,9093;0,0208301
1674,8735;0,0205159
1675,8378;0,0202516
1676,8020;0,0201141
1677,7662;0,0201142
1678,7305;0,0201861
1679,6947;0,0202377
1680,6589;0,0201921
1681,6232;0,0199924
1682,5874;0,019595
1683,5516;0,0190222
1684,5159;0,018453
1685,4801;0,018102
1686,4443;0,0179892
1687,4086;0,0179814
1688,3728;0,0179534
1689,3370;0,0178546
1690,3013;0,0176983
1691,2655;0,0175272
1692,2297;0,0173839
1693,1940;0,0172939
1694,1582;0,0172583
1695,1224;0,0172474
1696,0867;0,0172029
1697,0509;0,0170646
1698,0151;0,0168238
1698,9794;0,0165576
1699,9436;0,0163929
1700,9078;0,0164139
1701,8721;0,0166046
1702,8363;0,0168797
1703,8005;0,0171511
1704,7648;0,017369
1705,7290;0,01753
1706,6932;0,0176656
1707,6575;0,0178182
1708,6217;0,0180153
1709,5859;0,0182604
1710,5502;0,0185426
1711,5144;0,0188503
1712,4786;0,0191761
1713,4429;0,0195115
1714,4071;0,0198347
1715,3713;0,0200934
1716,3356;0,0202193
1717,2998;0,0202172
1718,2640;0,0202167
1719,2283;0,0203413
1720,1925;0,0205935
1721,1567;0,0208996
1722,1210;0,0211864
1723,0852;0,0214147
1724,0494;0,0215831
1725,0137;0,0217203
1725,9779;0,0218676
1726,9421;0,022055
1727,9064;0,0222836
1728,8706;0,0225251
1729,8348;0,0227316
1730,7991;0,0228462
1731,7633;0,022808
1732,7275;0,0225751
1733,6918;0,0221893
1734,6560;0,0217949
1735,6202;0,0215129
1736,5845;0,0213395
1737,5487;0,0211998
1738,5129;0,0210359
1739,4772;0,0208421
1740,4414;0,0206503
1741,4056;0,0204902
1742,3699;0,0203569
1743,3341;0,0202143
1744,2983;0,0200262
1745,2626;0,019778
1746,2268;0,0194728
1747,1910;0,019105
1748,1553;0,0186414
1749,1195;0,0180449
1750,0837;0,0173413
1751,0480;0,0166406
1752,0122;0,0160554
1752,9764;0,015621
1753,9407;0,0153014
1754,9049;0,0150381
1755,8691;0,0147873
1756,8334;0,0145303
1757,7976;0,0142639
1758,7618;0,0139827
1759,7261;0,0136724
1760,6903;0,013323
1761,6545;0,0129518
1762,6188;0,012607
1763,5830;0,01234
1764,5472;0,0121715
1765,5115;0,0120843
1766,4757;0,0120407
1767,4399;0,0120013
1768,4042;0,0119333
1769,3684;0,0118117
1770,3326;0,0116219
1771,2969;0,0113731
1772,2611;0,0111147
1773,2253;0,0109209
1774,1896;0,0108384
1775,1538;0,0108531
1776,1180;0,0109114
1777,0823;0,0109605
1778,0465;0,0109705
1779,0107;0,0109368
1779,9750;0,0108727
1780,9392;0,0107964
1781,9034;0,0107198
1782,8677;0,0106468
1783,8319;0,0105814
1784,7961;0,0105352
1785,7604;0,0105243
1786,7246;0,0105561
1787,6888;0,0106212
1788,6531;0,0106974
1789,6173;0,0107576
1790,5815;0,0107757
1791,5458;0,0107353
1792,5100;0,010651
1793,4742;0,0105713
1794,4385;0,010536
1795,4027;0,0105428
1796,3669;0,0105641
1797,3312;0,0105778
1798,2954;0,0105789
1799,2596;0,0105712
1800,2239;0,0105536
1801,1881;0,0105182
1802,1523;0,0104598
1803,1166;0,0103857
1804,0808;0,0103144
1805,0450;0,0102685
1806,0093;0,0102646
1806,9735;0,0103054
1807,9377;0,0103759
1808,9020;0,0104457
1809,8662;0,010483
1810,8304;0,0104725
1811,7947;0,0104259
1812,7589;0,010371
1813,7231;0,010331
1814,6874;0,0103127
1815,6516;0,0103082
1816,6158;0,0103031
1817,5801;0,010287
1818,5443;0,0102614
1819,5085;0,0102388
1820,4728;0,0102342
1821,4370;0,0102561
1822,4012;0,0103033
1823,3655;0,0103659
1824,3297;0,0104299
1825,2939;0,0104826
1826,2582;0,0105145
1827,2224;0,0105155
1828,1866;0,0104745
1829,1509;0,0103887
1830,1151;0,0102779
1831,0793;0,0101838
1832,0436;0,0101429
1833,0078;0,0101607
1833,9720;0,0102132
1834,9363;0,0102677
1835,9005;0,0103006
1836,8647;0,0103079
1837,8290;0,0103056
1838,7932;0,0103175
1839,7574;0,0103599
1840,7217;0,0104358
1841,6859;0,0105361
1842,6501;0,010636
1843,6144;0,0106956
1844,5786;0,0106824
1845,5428;0,0106022
1846,5071;0,0104924
1847,4713;0,0103873
1848,4355;0,0103027
1849,3998;0,0102427
1850,3640;0,010206
1851,3282;0,0101868
1852,2925;0,0101751
1853,2567;0,0101625
1854,2209;0,0101506
1855,1852;0,0101523
1856,1494;0,0101838
1857,1136;0,0102514
1858,0779;0,0103408
1859,0421;0,0104206
1860,0063;0,0104596
1860,9706;0,0104478
1861,9348;0,0104049
1862,8990;0,0103707
1863,8633;0,0103844
1864,8275;0,0104678
1865,7917;0,0106139
1866,7560;0,0107818
1867,7202;0,0109029
1868,6844;0,0109183
1869,6487;0,0108272
1870,6129;0,0106842
1871,5771;0,0105485
1872,5414;0,0104497
1873,5056;0,0103909
1874,4698;0,0103648
1875,4341;0,010362
1876,3983;0,010374
1877,3625;0,0103933
1878,3268;0,0104128
1879,2910;0,0104256
1880,2552;0,0104259
1881,2195;0,0104131
1882,1837;0,0103947
1883,1479;0,0103866
1884,1122;0,0104061
1885,0764;0,0104621
1886,0406;0,0105464
1887,0049;0,0106333
1887,9691;0,0106883
1888,9333;0,0106871
1889,8976;0,0106349
1890,8618;0,0105667
1891,8260;0,0105247
1892,7903;0,0105332
1893,7545;0,0105876
1894,7188;0,0106621
1895,6830;0,0107251
1896,6472;0,0107574
1897,6115;0,010759
1898,5757;0,0107434
1899,5399;0,0107239
1900,5042;0,0107059
1901,4684;0,0106871
1902,4326;0,0106657
1903,3969;0,0106466
1904,3611;0,0106416
1905,3253;0,0106626
1906,2896;0,0107118
1907,2538;0,0107766
1908,2180;0,0108337
1909,1823;0,0108611
1910,1465;0,010854
1911,1107;0,0108288
1912,0750;0,0108119
1913,0392;0,0108221
1914,0034;0,0108605
1914,9677;0,0109127
1915,9319;0,0109584
1916,8961;0,0109849
1917,8604;0,0109985
1918,8246;0,0110219
1919,7888;0,0110757
1920,7531;0,0111591
1921,7173;0,0112463
1922,6815;0,0113
1923,6458;0,0112943
1924,6100;0,0112327
1925,5742;0,0111486
1926,5385;0,0110864
1927,5027;0,0110788
1928,4669;0,0111341
1929,4312;0,0112345
1930,3954;0,0113445
1931,3596;0,0114264
1932,3239;0,0114551
1933,2881;0,0114267
1934,2523;0,0113581
1935,2166;0,0112797
1936,1808;0,0112255
1937,1450;0,0112225
1938,1093;0,0112851
1939,0735;0,0114142
1940,0377;0,0116005
1941,0020;0,0118267
1941,9662;0,0120689
1942,9304;0,0122974
1943,8947;0,0124804
1944,8589;0,0125886
1945,8231;0,0126037
1946,7874;0,0125282
1947,7516;0,0123937
1948,7158;0,0122558
1949,6801;0,012172
1950,6443;0,0121724
1951,6085;0,0122459
1952,5728;0,0123547
1953,5370;0,012468
1954,5012;0,0125864
1955,4655;0,0127355
1956,4297;0,0129319
1957,3939;0,0131527
1958,3582;0,0133375
1959,3224;0,0134272
1960,2866;0,0134124
1961,2509;0,0133486
1962,2151;0,0133192
1963,1793;0,0133743
1964,1436;0,0134937
1965,1078;0,0136009
1966,0720;0,0136173
1967,0363;0,0135199
1968,0005;0,0133608
1968,9647;0,0132338
1969,9290;0,0132165
1970,8932;0,0133344
1971,8574;0,0135596
1972,8217;0,0138308
1973,7859;0,0140765
1974,7501;0,0142362
1975,7144;0,0142827
1976,6786;0,0142347
1977,6428;0,0141471
1978,6071;0,0140745
1979,5713;0,0140331
1980,5355;0,0139908
1981,4998;0,0138928
1982,4640;0,0137025
1983,4282;0,0134299
1984,3925;0,0131324
1985,3567;0,0128884
1986,3209;0,01276
1987,2852;0,0127705
1988,2494;0,0129077
1989,2136;0,0131442
1990,1779;0,0134512
1991,1421;0,0137953
1992,1063;0,0141264
1993,0706;0,0143788
1994,0348;0,0144937
1994,9990;0,014448
1995,9633;0,0142685
1996,9275;0,0140219
1997,8917;0,0137874
1998,8560;0,0136263
1999,8202;0,0135657
2000,7844;0,0136039
2001,7487;0,0137296
2002,7129;0,0139322
2003,6771;0,0141944
2004,6414;0,0144775
2005,6056;0,0147212
2006,5698;0,0148712
2007,5341;0,0149192
2008,4983;0,0149171
2009,4625;0,0149456
2010,4268;0,0150569
2011,3910;0,0152354
2012,3552;0,0154051
2013,3195;0,0154743
2014,2837;0,0153895
2015,2479;0,015168
2016,2122;0,0148929
2017,1764;0,0146726
2018,1406;0,0145869
2019,1049;0,0146505
2020,0691;0,0148115
2021,0333;0,0149792
2021,9976;0,0150643
2022,9618;0,0150148
2023,9260;0,0148334
2024,8903;0,0145709
2025,8545;0,0142971
2026,8187;0,0140687
2027,7830;0,0139143
2028,7472;0,0138427
2029,7114;0,0138622
2030,6757;0,0139857
2031,6399;0,0142162
2032,6041;0,0145227
2033,5684;0,0148344
2034,5326;0,0150654
2035,4968;0,0151561
2036,4611;0,0150999
2037,4253;0,0149356
2038,3895;0,014717
2039,3538;0,0144832
2040,3180;0,0142486
2041,2822;0,0140125
2042,2465;0,013777
2043,2107;0,0135576
2044,1749;0,0133811
2045,1392;0,0132727
2046,1034;0,0132418
2047,0676;0,0132729
2048,0320;0,0133278
2048,9961;0,01336
2049,9604;0,013334
2050,9246;0,0132393
2051,8889;0,0130911
2052,8530;0,0129239
2053,8174;0,0127791
2054,7815;0,0126907
2055,7458;0,0126735
2056,7100;0,0127181
2057,6743;0,0127967
2058,6384;0,0128771
2059,6028;0,0129363
2060,5669;0,012967
2061,5313;0,0129735
2062,4954;0,0129613
2063,4597;0,0129286
2064,4238;0,0128653
2065,3882;0,0127613
2066,3523;0,0126172
2067,3167;0,0124485
2068,2808;0,0122793
2069,2451;0,0121305
2070,2092;0,0120096
2071,1736;0,0119115
2072,1377;0,0118263
2073,1021;0,0117512
2074,0662;0,0116955
2075,0305;0,0116762
2075,9946;0,0117073
2076,9590;0,0117894
2077,9231;0,0119056
2078,8875;0,0120244
2079,8516;0,0121096
2080,8159;0,0121319
2081,7800;0,0120799
2082,7444;0,0119659
2083,7085;0,0118232
2084,6729;0,0116956
2085,6370;0,0116211
2086,6013;0,0116183
2087,5654;0,0116813
2088,5298;0,0117866
2089,4939;0,0119052
2090,4583;0,0120145
2091,4224;0,0121022
2092,3867;0,012163
2093,3508;0,0121928
2094,3152;0,0121857
2095,2793;0,0121374
2096,2437;0,0120504
2097,2078;0,0119376
2098,1721;0,0118214
2099,1362;0,0117277
2100,1006;0,0116796
2101,0647;0,0116886
2102,0291;0,0117529
2102,9932;0,0118543
2103,9575;0,0119646
2104,9216;0,0120564
2105,8860;0,0121136
2106,8501;0,0121363
2107,8145;0,0121364
2108,7786;0,0121258
2109,7429;0,0121084
2110,7070;0,0120808
2111,6714;0,0120409
2112,6355;0,0119973
2113,5999;0,0119671
2114,5640;0,0119646
2115,5283;0,0119872
2116,4924;0,012013
2117,4568;0,0120139
2118,4209;0,0119761
2119,3853;0,0119142
2120,3494;0,0118643
2121,3137;0,0118625
2122,2778;0,0119209
2123,2422;0,0120208
2124,2063;0,0121272
2125,1707;0,0122127
2126,1348;0,0122744
2127,0991;0,0123301
2128,0632;0,0124015
2129,0276;0,0124973
2129,9917;0,0126107
2130,9561;0,0127304
2131,9202;0,0128523
2132,8845;0,0129812
2133,8486;0,0131208
2134,8130;0,0132617
2135,7771;0,013383
2136,7415;0,0134675
2137,7056;0,0135187
2138,6699;0,0135643
2139,6340;0,0136429
2140,5984;0,0137856
2141,5625;0,0140061
2142,5269;0,0143005
2143,4910;0,0146531
2144,4553;0,0150378
2145,4194;0,0154159
2146,3838;0,0157375
2147,3479;0,0159536
2148,3123;0,0160372
2149,2764;0,016
2150,2407;0,0158942
2151,2048;0,0157984
2152,1692;0,0157953
2153,1333;0,0159511
2154,0977;0,0162992
2155,0618;0,0168281
2156,0261;0,0174711
2156,9902;0,018105
2157,9546;0,0185788
2158,9187;0,0187746
2159,8831;0,0186643
2160,8472;0,0183092
2161,8115;0,017807
2162,7756;0,0172452
2163,7400;0,0166914
2164,7041;0,0162055
2165,6685;0,0158431
2166,6326;0,0156424
2167,5969;0,015606
2168,5610;0,0156962
2169,5254;0,0158496
2170,4895;0,0159988
2171,4539;0,0160904
2172,4180;0,0160908
2173,3823;0,0159889
2174,3464;0,0157983
2175,3108;0,0155592
2176,2749;0,0153303
2177,2393;0,0151654
2178,2034;0,0150876
2179,1677;0,0150779
2180,1318;0,0150902
2181,0962;0,0150821
2182,0603;0,015039
2183,0247;0,014971
2183,9888;0,0148864
2184,9531;0,0147691
2185,9172;0,0145854
2186,8816;0,0143169
2187,8457;0,0139895
2188,8101;0,0136721
2189,7742;0,0134395
2190,7385;0,0133287
2191,7026;0,0133225
2192,6670;0,0133702
2193,6311;0,0134274
2194,5955;0,0134802
2195,5596;0,0135386
2196,5239;0,0136084
2197,4880;0,0136723
2198,4524;0,0136963
2199,4165;0,0136567
2200,3809;0,0135616
2201,3450;0,0134476
2202,3093;0,0133536
2203,2734;0,0132947
2204,2378;0,0132543
2205,2019;0,0132023
2206,1663;0,0131203
2207,1304;0,013018
2208,0947;0,0129289
2209,0588;0,0128914
2210,0232;0,0129268
2210,9873;0,0130258
2211,9517;0,0131483
2212,9158;0,0132384
2213,8801;0,0132484
2214,8442;0,0131637
2215,8086;0,0130128
2216,7727;0,012854
2217,7371;0,0127429
2218,7012;0,0126995
2219,6655;0,0126975
2220,6296;0,0126858
2221,5940;0,0126262
2222,5581;0,0125229
2223,5225;0,01242
2224,4866;0,012371
2225,4509;0,012402
2226,4150;0,012496
2227,3794;0,0126064
2228,3435;0,0126884
2229,3079;0,0127231
2230,2720;0,0127186
2231,2363;0,0126939
2232,2004;0,0126599
2233,1648;0,0126136
2234,1289;0,0125477
2235,0933;0,0124633
2236,0574;0,0123752
2237,0217;0,0123043
2237,9858;0,0122639
2238,9502;0,0122511
2239,9143;0,0122478
2240,8787;0,0122303
2241,8428;0,012181
2242,8071;0,0120958
2243,7712;0,0119859
2244,7356;0,011873
2245,6997;0,0117825
2246,6641;0,0117334
2247,6282;0,0117308
2248,5925;0,0117627
2249,5566;0,0118051
2250,5210;0,0118346
2251,4851;0,0118407
2252,4495;0,0118316
2253,4136;0,0118277
2254,3779;0,0118462
2255,3420;0,0118885
2256,3064;0,0119382
2257,2705;0,0119709
2258,2349;0,0119701
2259,1990;0,0119359
2260,1633;0,0118832
2261,1274;0,0118317
2262,0918;0,0117943
2263,0559;0,0117713
2264,0203;0,0117515
2264,9844;0,0117188
2265,9487;0,0116613
2266,9128;0,0115792
2267,8772;0,0114871
2268,8413;0,0114108
2269,8057;0,011376
2270,7698;0,011394
2271,7341;0,0114535
2272,6982;0,0115231
2273,6626;0,0115663
2274,6267;0,0115604
2275,5911;0,0115083
2276,5552;0,0114342
2277,5195;0,0113676
2278,4836;0,0113257
2279,4480;0,0113059
2280,4121;0,0112929
2281,3765;0,0112733
2282,3406;0,0112478
2283,3049;0,0112322
2284,2690;0,0112475
2285,2334;0,0113056
2286,1975;0,011402
2287,1619;0,0115168
2288,1260;0,011627
2289,0903;0,0117191
2290,0544;0,0117956
2291,0188;0,0118722
2291,9829;0,0119669
2292,9473;0,0120905
2293,9114;0,0122426
2294,8757;0,0124145
2295,8398;0,0125951
2296,8042;0,0127736
2297,7683;0,0129379
2298,7327;0,0130733
2299,6968;0,0131651
2300,6611;0,0132074
2301,6252;0,0132117
2302,5896;0,0132079
2303,5537;0,0132354
2304,5181;0,0133258
2305,4822;0,0134864
2306,4465;0,0136944
2307,4106;0,0139025
2308,3750;0,0140572
2309,3391;0,0141193
2310,3035;0,0140783
2311,2676;0,0139554
2312,2319;0,0137933
2313,1960;0,0136387
2314,1604;0,0135248
2315,1245;0,0134618
2316,0889;0,0134389
2317,0530;0,0134336
2318,0173;0,0134224
2318,9814;0,0133896
2319,9458;0,013331
2320,9099;0,0132551
2321,8743;0,013179
2322,8384;0,0131198
2323,8027;0,0130829
2324,7668;0,0130576
2325,7312;0,0130227
2326,6953;0,01296
2327,6597;0,0128636
2328,6238;0,0127412
2329,5881;0,0126079
2330,5522;0,0124791
2331,5166;0,0123656
2332,4807;0,0122696
2333,4451;0,0121845
2334,4092;0,0121003
2335,3735;0,0120139
2336,3376;0,0119376
2337,3020;0,0119
2338,2661;0,0119355
2339,2305;0,0120643
2340,1946;0,0122701
2341,1589;0,0124879
2342,1230;0,0126205
2343,0874;0,012608
2344,0515;0,0125214
2345,0159;0,012544
2345,9800;0,0127989
2346,9443;0,0132304
2347,9084;0,0136667
2348,8728;0,0139482
2349,8369;0,0140086
2350,8013;0,0138918
2351,7654;0,0137196
2352,7297;0,0136221
2353,6938;0,0136614
2354,6582;0,0138074
2355,6223;0,0139803
2356,5867;0,014099
2357,5508;0,014099
2358,5151;0,0139528
2359,4792;0,0136993
2360,4436;0,0134362
2361,4077;0,0132552
2362,3721;0,0131759
2363,3362;0,0131425
2364,3005;0,0130808
2365,2646;0,0129539
2366,2290;0,0127744
2367,1931;0,0125756
2368,1575;0,0123818
2369,1216;0,0122002
2370,0859;0,0120321
2371,0500;0,0118828
2372,0144;0,0117618
2372,9785;0,0116789
2373,9429;0,0116397
2374,9070;0,0116468
2375,8713;0,0117
2376,8354;0,0117951
2377,7998;0,0119195
2378,7639;0,0120489
2379,7283;0,01215
2380,6924;0,0121892
2381,6567;0,0121446
2382,6208;0,0120139
2383,5852;0,0118158
2384,5493;0,0115819
2385,5137;0,0113457
2386,4778;0,0111326
2387,4421;0,0109549
2388,4063;0,0108145
2389,3706;0,0107086
2390,3347;0,010635
2391,2991;0,0105926
2392,2632;0,0105791
2393,2275;0,0105887
2394,1917;0,0106114
2395,1560;0,0106371
2396,1201;0,0106587
2397,0845;0,0106747
2398,0486;0,0106882
2399,0129;0,0107026
2399,9771;0,0107187
2400,9414;0,010735
2401,9055;0,0107488
2402,8699;0,0107589
2403,8340;0,0107672
2404,7983;0,0107777
2405,7625;0,0107936
2406,7268;0,0108144
2407,6909;0,0108357
2408,6553;0,0108505
2409,6194;0,0108534
2410,5837;0,0108441
2411,5479;0,0108283
2412,5122;0,0108152
2413,4763;0,0108126
2414,4407;0,0108234
2415,4048;0,0108441
2416,3691;0,0108675
2417,3333;0,0108873
2418,2976;0,0109011
2419,2617;0,0109109
2420,2261;0,01092
2421,1902;0,0109294
2422,1545;0,0109367
2423,1187;0,0109388
2424,0830;0,0109345
2425,0471;0,010927
2426,0115;0,0109222
2426,9756;0,0109249
2427,9399;0,0109358
2428,9041;0,0109519
2429,8684;0,0109699
2430,8325;0,0109888
2431,7969;0,01101
2432,7610;0,0110336
2433,7253;0,0110542
2434,6895;0,0110611
2435,6538;0,0110439
2436,6179;0,0109998
2437,5823;0,0109391
2438,5464;0,0108818
2439,5107;0,0108481
2440,4749;0,0108485
2441,4392;0,010879
2442,4033;0,0109247
2443,3677;0,0109691
2444,3318;0,0110022
2445,2961;0,0110231
2446,2603;0,0110364
2447,2246;0,0110463
2448,1887;0,0110535
2449,1531;0,0110566
2450,1172;0,0110561
2451,0815;0,0110569
2452,0457;0,0110663
2453,0100;0,0110883
2453,9741;0,0111191
2454,9385;0,0111472
2455,9026;0,0111583
2456,8669;0,0111433
2457,8311;0,0111039
2458,7954;0,0110514
2459,7595;0,011002
2460,7239;0,0109693
2461,6880;0,0109606
2462,6523;0,0109764
2463,6165;0,0110125
2464,5808;0,0110615
2465,5449;0,0111134
2466,5093;0,0111564
2467,4734;0,0111796
2468,4377;0,0111778
2469,4019;0,0111547
2470,3662;0,0111226
2471,3303;0,0110965
2472,2947;0,0110865
2473,2588;0,0110935
2474,2231;0,0111097
2475,1873;0,0111243
2476,1516;0,0111307
2477,1157;0,0111288
2478,0801;0,0111242
2479,0442;0,0111237
2480,0085;0,0111312
2480,9727;0,0111475
2481,9370;0,0111702
2482,9011;0,0111959
2483,8655;0,011221
2484,8296;0,0112418
2485,7939;0,0112555
2486,7581;0,0112608
2487,7224;0,0112594
2488,6865;0,0112568
2489,6509;0,0112597
2490,6150;0,0112733
2491,5793;0,0112976
2492,5435;0,011326
2493,5078;0,0113476
2494,4719;0,0113524
2495,4363;0,0113367
2496,4004;0,0113058
2497,3647;0,011271
2498,3289;0,0112434
2499,2932;0,0112279
2500,2573;0,0112212
2501,2217;0,011216
2502,1858;0,0112076
2503,1501;0,0111975
2504,1143;0,0111927
2505,0786;0,0111994
2506,0427;0,0112187
2507,0071;0,0112447
2507,9712;0,0112689
2508,9355;0,0112857
2509,8997;0,0112943
2510,8640;0,0112971
2511,8281;0,0112963
2512,7925;0,011292
2513,7566;0,0112839
2514,7209;0,0112742
2515,6851;0,0112684
2516,6494;0,0112723
2517,6135;0,0112872
2518,5779;0,0113079
2519,5420;0,0113253
2520,5063;0,0113322
2521,4705;0,0113281
2522,4348;0,0113188
2523,3989;0,0113124
2524,3633;0,011313
2525,3274;0,0113187
2526,2917;0,0113238
2527,2559;0,0113233
2528,2202;0,0113172
2529,1843;0,01131
2530,1487;0,0113077
2531,1128;0,0113124
2532,0771;0,0113205
2533,0413;0,011325
2534,0056;0,0113206
2534,9697;0,0113088
2535,9341;0,0112984
2536,8982;0,0113014
2537,8625;0,0113247
2538,8267;0,0113644
2539,7910;0,0114056
2540,7551;0,0114298
2541,7195;0,0114248
2542,6836;0,011391
2543,6479;0,0113415
2544,6121;0,0112944
2545,5764;0,0112635
2546,5405;0,0112526
2547,5049;0,0112561
2548,4690;0,0112643
2549,4333;0,0112701
2550,3975;0,0112716
2551,3618;0,0112716
2552,3259;0,0112737
2553,2903;0,0112797
2554,2544;0,0112881
2555,2188;0,0112956
2556,1829;0,0112989
2557,1472;0,011297
2558,1113;0,0112919
2559,0757;0,0112874
2560,0398;0,0112875
2561,0042;0,0112945
2561,9683;0,0113078
2562,9326;0,0113236
2563,8967;0,0113367
2564,8611;0,0113407
2565,8252;0,0113303
2566,7896;0,0113026
2567,7537;0,0112589
2568,7180;0,011206
2569,6821;0,011156
2570,6465;0,0111232
2571,6106;0,0111194
2572,5750;0,0111485
2573,5391;0,0112038
2574,5034;0,011269
2575,4675;0,0113243
2576,4319;0,0113536
2577,3960;0,0113502
2578,3604;0,0113191
2579,3245;0,0112731
2580,2888;0,0112276
2581,2529;0,0111937
2582,2173;0,0111758
2583,1814;0,0111719
2584,1458;0,0111774
2585,1099;0,0111886
2586,0742;0,011204
2587,0383;0,0112229
2588,0027;0,0112437
2588,9668;0,0112628
2589,9312;0,0112764
2590,8953;0,011283
2591,8596;0,0112857
2592,8237;0,01129
2593,7881;0,0113006
2594,7522;0,0113174
2595,7166;0,0113344
2596,6807;0,0113431
2597,6450;0,0113372
2598,6091;0,0113171
2599,5735;0,0112897
2600,5376;0,011265
2601,5020;0,0112508
2602,4661;0,0112491
2603,4304;0,0112561
2604,3945;0,0112653
2605,3589;0,0112719
2606,3230;0,0112751
2607,2874;0,0112772
2608,2515;0,0112817
2609,2158;0,0112903
2610,1799;0,0113024
2611,1443;0,0113148
2612,1084;0,0113239
2613,0728;0,0113272
2614,0369;0,0113242
2615,0012;0,0113164
2615,9653;0,011307
2616,9297;0,011299
2617,8938;0,0112942
2618,8582;0,0112924
2619,8223;0,0112911
2620,7866;0,0112879
2621,7507;0,0112822
2622,7151;0,0112769
2623,6792;0,0112766
2624,6436;0,0112855
2625,6077;0,011304
2626,5720;0,0113277
2627,5361;0,0113494
2628,5005;0,0113628
2629,4646;0,0113656
2630,4290;0,0113604
2631,3931;0,0113525
2632,3574;0,0113471
2633,3215;0,0113465
2634,2859;0,0113504
2635,2500;0,0113565
2636,2144;0,0113622
2637,1785;0,0113657
2638,1428;0,0113659
2639,1069;0,0113628
2640,0713;0,0113578
2641,0354;0,0113541
2641,9998;0,011355
2642,9639;0,0113628
2643,9282;0,0113767
2644,8923;0,0113939
2645,8567;0,0114103
2646,8208;0,0114236
2647,7852;0,0114342
2648,7493;0,0114443
2649,7136;0,0114556
2650,6777;0,0114676
2651,6421;0,0114774
2652,6062;0,0114819
2653,5706;0,0114801
2654,5347;0,0114743
2655,4990;0,0114694
2656,4631;0,0114701
2657,4275;0,0114785
2658,3916;0,0114931
2659,3560;0,0115102
2660,3201;0,0115264
2661,2844;0,0115402
2662,2485;0,0115531
2663,2129;0,0115674
2664,1770;0,0115841
2665,1414;0,0116018
2666,1055;0,0116171
2667,0698;0,0116268
2668,0339;0,011631
2668,9983;0,0116337
2669,9624;0,0116403
2670,9268;0,0116547
2671,8909;0,0116761
2672,8552;0,0116996
2673,8193;0,0117192
2674,7837;0,0117311
2675,7478;0,0117357
2676,7122;0,0117359
2677,6763;0,0117346
2678,6406;0,011733
2679,6047;0,0117311
2680,5691;0,01173
2681,5332;0,0117327
2682,4976;0,0117432
2683,4617;0,0117632
2684,4260;0,0117902
2685,3901;0,0118183
2686,3545;0,0118418
2687,3186;0,0118579
2688,2830;0,0118686
2689,2471;0,0118778
2690,2114;0,0118886
2691,1755;0,0119016
2692,1399;0,0119152
2693,1040;0,0119275
2694,0684;0,0119384
2695,0325;0,0119485
2695,9968;0,0119587
2696,9609;0,0119693
2697,9253;0,0119799
2698,8894;0,0119904
2699,8538;0,0120009
2700,8179;0,0120111
2701,7822;0,0120204
2702,7463;0,012028
2703,7107;0,0120345
2704,6748;0,0120428
2705,6392;0,0120567
2706,6033;0,0120785
2707,5676;0,0121073
2708,5317;0,0121384
2709,4961;0,0121666
2710,4602;0,0121888
2711,4246;0,0122056
2712,3887;0,0122199
2713,3530;0,0122341
2714,3171;0,012248
2715,2815;0,0122594
2716,2456;0,0122664
2717,2100;0,0122699
2718,1741;0,0122739
2719,1384;0,012283
2720,1025;0,0122993
2721,0669;0,0123208
2722,0310;0,0123424
2722,9954;0,0123594
2723,9595;0,0123695
2724,9238;0,0123742
2725,8879;0,0123767
2726,8523;0,0123802
2727,8164;0,0123863
2728,7808;0,0123955
2729,7449;0,0124084
2730,7092;0,0124253
2731,6733;0,0124461
2732,6377;0,0124681
2733,6018;0,0124863
2734,5662;0,0124958
2735,5303;0,0124942
2736,4946;0,0124841
2737,4587;0,0124717
2738,4231;0,0124633
2739,3872;0,0124625
2740,3516;0,0124689
2741,3157;0,0124797
2742,2800;0,0124927
2743,2441;0,0125076
2744,2085;0,012525
2745,1726;0,0125441
2746,1370;0,0125621
2747,1011;0,012575
2748,0654;0,0125807
2749,0295;0,0125809
2749,9939;0,0125801
2750,9580;0,0125828
2751,9224;0,0125902
2752,8865;0,0125997
2753,8508;0,012608
2754,8149;0,0126139
2755,7793;0,0126204
2756,7434;0,012632
2757,7078;0,0126516
2758,6719;0,0126774
2759,6362;0,0127033
2760,6003;0,0127232
2761,5647;0,0127349
2762,5288;0,0127413
2763,4932;0,0127485
2764,4573;0,0127611
2765,4216;0,0127791
2766,3857;0,012799
2767,3501;0,0128163
2768,3142;0,0128295
2769,2786;0,0128403
2770,2427;0,0128523
2771,2070;0,0128675
2772,1711;0,0128851
2773,1355;0,0129027
2774,0996;0,0129183
2775,0640;0,0129317
2776,0281;0,0129443
2776,9924;0,0129579
2777,9565;0,0129734
2778,9209;0,0129911
2779,8850;0,0130108
2780,8494;0,0130325
2781,8135;0,0130561
2782,7778;0,0130807
2783,7419;0,0131052
2784,7063;0,0131292
2785,6704;0,0131532
2786,6348;0,0131785
2787,5989;0,0132059
2788,5632;0,0132349
2789,5273;0,0132637
2790,4917;0,013291
2791,4558;0,0133169
2792,4202;0,0133432
2793,3843;0,0133714
2794,3486;0,0134015
2795,3127;0,0134318
2796,2771;0,0134599
2797,2412;0,013485
2798,2056;0,0135085
2799,1697;0,0135328
2800,1340;0,0135597
2801,0981;0,0135891
2802,0625;0,0136199
2803,0266;0,0136515
2803,9910;0,0136848
2804,9551;0,013722
2805,9194;0,0137644
2806,8835;0,0138111
2807,8479;0,013859
2808,8120;0,0139046
2809,7764;0,0139462
2810,7405;0,0139848
2811,7048;0,0140237
2812,6689;0,014066
2813,6333;0,0141127
2814,5974;0,0141631
2815,5618;0,0142155
2816,5259;0,014269
2817,4902;0,014324
2818,4543;0,0143823
2819,4187;0,0144449
2820,3828;0,0145109
2821,3472;0,0145777
2822,3113;0,014642
2823,2756;0,0147016
2824,2397;0,0147571
2825,2041;0,0148116
2826,1682;0,0148699
2827,1326;0,0149365
2828,0967;0,0150137
2829,0610;0,0151015
2830,0251;0,015197
2830,9895;0,0152961
2831,9536;0,0153948
2832,9180;0,015491
2833,8821;0,0155851
2834,8464;0,0156793
2835,8105;0,0157758
2836,7749;0,0158751
2837,7390;0,0159748
2838,7034;0,016071
2839,6675;0,0161605
2840,6318;0,0162424
2841,5959;0,0163187
2842,5603;0,0163927
2843,5244;0,0164682
2844,4888;0,0165479
2845,4529;0,0166348
2846,4172;0,0167315
2847,3813;0,0168397
2848,3457;0,0169581
2849,3098;0,0170815
2850,2742;0,0172022
2851,2383;0,0173129
2852,2026;0,017411
2853,1667;0,0174995
2854,1311;0,0175844
2855,0952;0,0176701
2856,0596;0,0177566
2857,0237;0,0178397
2857,9880;0,0179145
2858,9521;0,0179801
2859,9165;0,0180407
2860,8806;0,0181038
2861,8450;0,0181758
2862,8091;0,0182584
2863,7734;0,0183486
2864,7375;0,0184405
2865,7019;0,0185288
2866,6660;0,0186107
2867,6304;0,0186858
2868,5945;0,018755
2869,5588;0,0188188
2870,5229;0,0188771
2871,4873;0,0189293
2872,4514;0,0189755
2873,4158;0,0190164
2874,3799;0,0190533
2875,3442;0,0190865
2876,3083;0,0191154
2877,2727;0,0191379
2878,2368;0,0191521
2879,2012;0,019158
2880,1653;0,0191587
2881,1296;0,0191604
2882,0938;0,0191704
2883,0581;0,0191934
2884,0222;0,0192295
2884,9866;0,0192732
2885,9507;0,0193167
2886,9150;0,0193526
2887,8792;0,019378
2888,8435;0,0193947
2889,8076;0,0194075
2890,7720;0,019421
2891,7361;0,0194374
2892,7004;0,0194553
2893,6646;0,0194709
2894,6289;0,0194806
2895,5930;0,0194832
2896,5574;0,0194809
2897,5215;0,0194785
2898,4858;0,0194808
2899,4500;0,0194899
2900,4143;0,0195042
2901,3784;0,0195195
2902,3428;0,0195314
2903,3069;0,0195383
2904,2712;0,0195415
2905,2354;0,0195442
2906,1997;0,0195485
2907,1638;0,0195543
2908,1282;0,0195592
2909,0923;0,0195611
2910,0566;0,019559
2911,0208;0,0195543
2911,9851;0,0195499
2912,9492;0,01955
2913,9136;0,0195593
2914,8777;0,0195822
2915,8420;0,0196216
2916,8062;0,019676
2917,7705;0,0197392
2918,7346;0,0198014
2919,6990;0,0198531
2920,6631;0,0198895
2921,6274;0,0199109
2922,5916;0,0199211
2923,5559;0,0199232
2924,5200;0,0199168
2925,4844;0,0198992
2926,4485;0,0198681
2927,4128;0,0198262
2928,3770;0,0197807
2929,3413;0,0197405
2930,3054;0,0197112
2931,2698;0,0196918
2932,2339;0,019675
2933,1982;0,0196514
2934,1624;0,0196144
2935,1267;0,0195634
2936,0908;0,0195027
2937,0552;0,0194383
2938,0193;0,0193738
2938,9836;0,0193084
2939,9478;0,0192382
2940,9121;0,0191587
2941,8762;0,0190677
2942,8406;0,018966
2943,8047;0,018856
2944,7690;0,0187402
2945,7332;0,0186206
2946,6975;0,0184995
2947,6616;0,0183808
2948,6260;0,0182703
2949,5901;0,0181738
2950,5544;0,0180944
2951,5186;0,0180307
2952,4829;0,0179769
2953,4470;0,0179256
2954,4114;0,0178704
2955,3755;0,0178078
2956,3398;0,017738
2957,3040;0,0176634
2958,2683;0,0175877
2959,2324;0,0175151
2960,1968;0,0174496
2961,1609;0,0173937
2962,1252;0,0173464
2963,0894;0,0173031
2964,0537;0,0172567
2965,0178;0,017201
2965,9822;0,0171337
2966,9463;0,0170569
2967,9106;0,0169752
2968,8748;0,0168915
2969,8391;0,0168057
2970,8032;0,0167161
2971,7676;0,0166227
2972,7317;0,0165301
2973,6960;0,0164463
2974,6602;0,0163778
2975,6245;0,016325
2976,5886;0,0162815
2977,5530;0,0162378
2978,5171;0,0161875
2979,4814;0,0161309
2980,4456;0,0160743
2981,4099;0,0160247
2982,3740;0,0159848
2983,3384;0,0159515
2984,3025;0,0159186
2985,2668;0,0158823
2986,2310;0,015844
2987,1953;0,0158096
2988,1594;0,0157856
2989,1238;0,0157745
2990,0879;0,0157723
2991,0522;0,0157712
2992,0164;0,0157636
2992,9807;0,015746
2993,9448;0,0157208
2994,9092;0,0156937
2995,8733;0,0156713
2996,8376;0,0156581
2997,8018;0,0156557
2998,7661;0,0156639
2999,7302;0,0156812
3000,6946;0,0157053
3001,6587;0,0157321
3002,6230;0,015757
3003,5872;0,015776
3004,5515;0,0157884
3005,5156;0,0157976
3006,4800;0,0158093
3007,4441;0,0158284
3008,4084;0,0158554
3009,3726;0,015886
3010,3369;0,0159127
3011,3010;0,0159297
3012,2654;0,0159352
3013,2295;0,0159325
3014,1938;0,0159279
3015,1580;0,0159277
3016,1223;0,0159363
3017,0864;0,0159558
3018,0508;0,0159853
3019,0149;0,016022
3019,9792;0,0160608
3020,9434;0,0160965
3021,9077;0,0161259
3022,8718;0,0161501
3023,8362;0,0161748
3024,8003;0,0162082
3025,7646;0,0162559
3026,7288;0,0163179
3027,6931;0,0163873
3028,6572;0,0164532
3029,6216;0,016506
3030,5857;0,0165417
3031,5500;0,016564
3032,5142;0,0165824
3033,4785;0,016607
3034,4426;0,0166444
3035,4070;0,0166947
3036,3711;0,0167524
3037,3354;0,01681
3038,2996;0,0168611
3039,2639;0,0169032
3040,2280;0,0169375
3041,1924;0,0169679
3042,1565;0,0169988
3043,1208;0,0170336
3044,0850;0,0170747
3045,0493;0,017123
3046,0134;0,0171781
3046,9778;0,0172378
3047,9419;0,0172987
3048,9063;0,0173567
3049,8704;0,0174102
3050,8347;0,0174608
3051,7988;0,0175131
3052,7632;0,0175711
3053,7273;0,0176353
3054,6917;0,0177011
3055,6558;0,0177611
3056,6201;0,0178099
3057,5842;0,0178482
3058,5486;0,017883
3059,5127;0,0179232
3060,4771;0,0179748
3061,4412;0,0180373
3062,4055;0,0181057
3063,3696;0,0181734
3064,3340;0,0182364
3065,2981;0,0182943
3066,2625;0,018349
3067,2266;0,0184013
3068,1909;0,018451
3069,1550;0,0184967
3070,1194;0,0185391
3071,0835;0,0185812
3072,0479;0,0186283
3073,0120;0,0186848
3073,9763;0,0187515
3074,9404;0,0188249
3075,9048;0,0188982
3076,8689;0,0189644
3077,8333;0,0190201
3078,7974;0,0190666
3079,7617;0,0191085
3080,7258;0,0191512
3081,6902;0,0191968
3082,6543;0,0192442
3083,6187;0,0192908
3084,5828;0,0193358
3085,5471;0,0193816
3086,5112;0,0194325
3087,4756;0,0194917
3088,4397;0,0195582
3089,4041;0,0196272
3090,3682;0,0196928
3091,3325;0,0197521
3092,2966;0,0198074
3093,2610;0,0198644
3094,2251;0,0199281
3095,1895;0,0199991
3096,1536;0,0200723
3097,1179;0,0201405
3098,0820;0,0201983
3099,0464;0,0202459
3100,0105;0,0202887
3100,9749;0,0203341
3101,9390;0,0203871
3102,9033;0,0204473
3103,8674;0,0205103
3104,8318;0,0205706
3105,7959;0,0206252
3106,7603;0,0206761
3107,7244;0,020729
3108,6887;0,0207905
3109,6528;0,0208647
3110,6172;0,0209508
3111,5813;0,0210434
3112,5457;0,0211348
3113,5098;0,021219
3114,4741;0,0212942
3115,4382;0,0213632
3116,4026;0,0214314
3117,3667;0,0215026
3118,3311;0,0215763
3119,2952;0,0216485
3120,2595;0,0217143
3121,2236;0,021772
3122,1880;0,0218245
3123,1521;0,0218777
3124,1165;0,0219364
3125,0806;0,0220013
3126,0449;0,0220693
3127,0090;0,0221353
3127,9734;0,0221964
3128,9375;0,0222532
3129,9019;0,0223093
3130,8660;0,0223692
3131,8303;0,0224363
3132,7944;0,0225116
3133,7588;0,0225933
3134,7229;0,0226776
3135,6873;0,0227595
3136,6514;0,0228354
3137,6157;0,0229045
3138,5798;0,02297
3139,5442;0,0230383
3140,5083;0,0231152
3141,4727;0,0232033
3142,4368;0,0232998
3143,4011;0,0233988
3144,3652;0,0234949
3145,3296;0,0235864
3146,2937;0,023675
3147,2581;0,0237633
3148,2222;0,0238513
3149,1865;0,0239354
3150,1506;0,0240107
3151,1150;0,0240751
3152,0791;0,0241319
3153,0435;0,0241892
3154,0076;0,0242554
3154,9719;0,0243348
3155,9360;0,0244257
3156,9004;0,0245217
3157,8645;0,0246164
3158,8289;0,0247062
3159,7930;0,0247912
3160,7573;0,0248734
3161,7214;0,0249541
3162,6858;0,0250328
3163,6499;0,0251088
3164,6143;0,0251834
3165,5784;0,0252607
3166,5427;0,0253457
3167,5068;0,0254415
3168,4712;0,0255468
3169,4353;0,0255852
3170,3997;0,025694
3171,3638;0,0257973
3172,3281;0,0258932
3173,2922;0,0259814
3174,2566;0,0260628
3175,2207;0,0261386
3176,1851;0,0262108
3177,1492;0,0262824
3178,1135;0,0263567
3179,0776;0,0264344
3180,0420;0,0265132
3181,0061;0,0265889
3181,9705;0,0266585
3182,9346;0,0267236
3183,8989;0,02679
3184,8630;0,026865
3185,8274;0,0269527
3186,7915;0,0270516
3187,7559;0,0271556
3188,7200;0,0272578
3189,6843;0,0273538
3190,6484;0,0274425
3191,6128;0,0275246
3192,5769;0,0276011
3193,5413;0,0276721
3194,5054;0,0277384
3195,4697;0,0278016
3196,4338;0,0278648
3197,3982;0,0279308
3198,3623;0,0280012
3199,3267;0,0280759
3200,2908;0,0281539
3201,2551;0,0282345
3202,2192;0,0283177
3203,1836;0,0284033
3204,1477;0,0284911
3205,1121;0,0285798
3206,0762;0,0286678
3207,0405;0,0287526
3208,0046;0,0288314
3208,9690;0,0289018
3209,9331;0,0289629
3210,8975;0,0290171
3211,8616;0,0290699
3212,8259;0,0291276
3213,7900;0,0291938
3214,7544;0,0292676
3215,7185;0,0293452
3216,6829;0,0294228
3217,6470;0,0294997
3218,6113;0,0295774
3219,5754;0,0296563
3220,5398;0,0297324
3221,5039;0,0297986
3222,4683;0,0298498
3223,4324;0,0298883
3224,3967;0,0299249
3225,3608;0,0299739
3226,3252;0,0300441
3227,2893;0,0301334
3228,2537;0,0302293
3229,2178;0,0303169
3230,1821;0,0303881
3231,1462;0,0304453
3232,1106;0,0304984
3233,0747;0,0305575
3234,0391;0,0306269
3235,0032;0,0307038
3235,9675;0,0307816
3236,9316;0,0308553
3237,8960;0,0309226
3238,8601;0,0309843
3239,8245;0,0310411
3240,7886;0,0310935
3241,7529;0,0311425
3242,7170;0,0311914
3243,6814;0,0312457
3244,6455;0,0313114
3245,6099;0,0313908
3246,5740;0,0314814
3247,5383;0,0315751
3248,5024;0,0316621
3249,4668;0,0317339
3250,4309;0,0317865
3251,3953;0,0318217
3252,3594;0,0318464
3253,3237;0,0318706
3254,2878;0,0319048
3255,2522;0,0319561
3256,2163;0,032026
3257,1807;0,0321101
3258,1448;0,0322
3259,1091;0,0322875
3260,0732;0,0323674
3261,0376;0,0324392
3262,0017;0,0325051
3262,9661;0,0325681
3263,9302;0,0326292
3264,8945;0,0326885
3265,8586;0,0327459
3266,8230;0,0328031
3267,7871;0,0328633
3268,7515;0,0329287
3269,7156;0,0329976
3270,6799;0,0330641
3271,6440;0,03312
3272,6084;0,0331598
3273,5725;0,033185
3274,5369;0,033204
3275,5010;0,0332287
3276,4653;0,0332677
3277,4294;0,0333215
3278,3938;0,0333818
3279,3579;0,0334362
3280,3223;0,0334744
3281,2864;0,0334928
3282,2507;0,0334953
3283,2148;0,03349
3284,1792;0,0334847
3285,1433;0,0334843
3286,1077;0,0334906
3287,0718;0,0335038
3288,0361;0,0335245
3289,0002;0,0335514
3289,9646;0,0335806
3290,9287;0,0336043
3291,8931;0,0336144
3292,8572;0,0336067
3293,8215;0,0335848
3294,7856;0,0335596
3295,7500;0,0335436
3296,7141;0,033545
3297,6785;0,0335643
3298,6426;0,0335948
3299,6069;0,0336279
3300,5710;0,0336576
3301,5354;0,033682
3302,4995;0,0337014
3303,4639;0,0337158
3304,4280;0,0337233
3305,3923;0,0337222
3306,3564;0,0337127
3307,3208;0,033698
3308,2849;0,0336832
3309,2493;0,033672
3310,2134;0,033666
3311,1777;0,0336651
3312,1418;0,0336698
3313,1062;0,0336822
3314,0703;0,0337047
3315,0347;0,0337378
3315,9988;0,0337787
3316,9631;0,0338218
3317,9272;0,0338621
3318,8916;0,0338975
3319,8557;0,0339302
3320,8201;0,0339649
3321,7842;0,0340057
3322,7485;0,0340541
3323,7126;0,0341074
3324,6770;0,03416
3325,6411;0,0342053
3326,6055;0,0342386
3327,5696;0,0342588
3328,5339;0,0342694
3329,4980;0,0342766
3330,4624;0,0342867
3331,4265;0,0343031
3332,3909;0,0343243
3333,3550;0,0343452
3334,3193;0,03436
3335,2834;0,0343652
3336,2478;0,034361
3337,2119;0,0343499
3338,1763;0,0343343
3339,1404;0,0343138
3340,1047;0,0342861
3341,0688;0,0342491
3342,0332;0,0342034
3342,9973;0,0341525
3343,9617;0,0341021
3344,9258;0,0340578
3345,8901;0,0340231
3346,8542;0,0339993
3347,8186;0,0339848
3348,7827;0,0339751
3349,7471;0,0339628
3350,7112;0,0339395
3351,6755;0,0338985
3352,6396;0,0338395
3353,6040;0,0337696
3354,5681;0,033702
3355,5325;0,0336499
3356,4966;0,0336195
3357,4609;0,0336069
3358,4250;0,0335996
3359,3894;0,0335826
3360,3535;0,0335462
3361,3179;0,0334898
3362,2820;0,0334216
3363,2463;0,0333531
3364,2104;0,0332934
3365,1748;0,0332448
3366,1389;0,033203
3367,1033;0,0331602
3368,0674;0,0331105
3369,0317;0,033053
3369,9958;0,0329915
3370,9602;0,0329318
3371,9243;0,0328772
3372,8887;0,032827
3373,8528;0,0327772
3374,8171;0,0327246
3375,7813;0,0326699
3376,7456;0,0326181
3377,7097;0,0325746
3378,6741;0,0325406
3379,6382;0,032511
3380,6025;0,0324772
3381,5667;0,0324327
3382,5310;0,0323781
3383,4951;0,0323201
3384,4595;0,0322672
3385,4236;0,0322231
3386,3879;0,0321847
3387,3521;0,0321452
3388,3164;0,0320998
3389,2805;0,0320498
3390,2449;0,0320005
3391,2090;0,0319574
3392,1733;0,0319209
3393,1375;0,031886
3394,1018;0,0318459
3395,0659;0,0317961
3396,0303;0,0317367
3396,9944;0,0316715
3397,9587;0,0316051
3398,9229;0,0315408
3399,8872;0,0314797
3400,8513;0,0314216
3401,8157;0,031365
3402,7798;0,0313075
3403,7441;0,0312457
3404,7083;0,0311768
3405,6726;0,0311003
3406,6367;0,0310198
3407,6011;0,0309415
3408,5652;0,030871
3409,5295;0,0308092
3410,4937;0,0307515
3411,4580;0,03069
3412,4221;0,0306191
3413,3865;0,0305401
3414,3506;0,0304608
3415,3149;0,0303903
3416,2791;0,0303333
3417,2434;0,030285
3418,2075;0,0302338
3419,1719;0,0301678
3420,1360;0,0300829
3421,1003;0,0299854
3422,0645;0,0298881
3423,0288;0,0298003
3423,9929;0,0297218
3424,9573;0,0296438
3425,9214;0,0295562
3426,8857;0,0294556
3427,8499;0,0293474
3428,8142;0,0292417
3429,7783;0,0291456
3430,7427;0,0290576
3431,7068;0,0289693
3432,6711;0,0288724
3433,6353;0,0287656
3434,5996;0,0286558
3435,5637;0,0285537
3436,5281;0,0284657
3437,4922;0,0283899
3438,4565;0,0283184
3439,4207;0,028243
3440,3850;0,0281615
3441,3491;0,0280773
3442,3135;0,0279952
3443,2776;0,0279155
3444,2419;0,0278321
3445,2061;0,027736
3446,1704;0,0276224
3447,1345;0,0274957
3448,0989;0,0273683
3449,0630;0,0272534
3450,0273;0,0271576
3450,9915;0,0270781
3451,9558;0,027007
3452,9199;0,0269352
3453,8843;0,0268566
3454,8484;0,0267698
3455,8127;0,0266768
3456,7769;0,0265824
3457,7412;0,0264917
3458,7053;0,0264083
3459,6697;0,0263324
3460,6338;0,0262599
3461,5981;0,0261836
3462,5623;0,0260965
3463,5266;0,0259947
3464,4907;0,0258788
3465,4551;0,0257538
3466,4192;0,0256263
3467,3835;0,0255036
3468,3477;0,0253916
3469,3120;0,0252946
3470,2761;0,0252139
3471,2405;0,0251472
3472,2046;0,0250881
3473,1689;0,0250282
3474,1331;0,0249603
3475,0974;0,0248813
3476,0615;0,0247934
3477,0259;0,0247022
3477,9900;0,0246134
3478,9543;0,0245301
3479,9185;0,024452
3480,8828;0,0243758
3481,8469;0,0242976
3482,8113;0,0242132
3483,7754;0,0241196
3484,7397;0,0240145
3485,7039;0,023898
3486,6682;0,0237743
3487,6323;0,0236523
3488,5967;0,0235425
3489,5608;0,0234519
3490,5251;0,0233801
3491,4893;0,0233185
3492,4536;0,0232552
3493,4177;0,0231816
3494,3821;0,023098
3495,3462;0,0230146
3496,3105;0,0229456
3497,2747;0,0229003
3498,2390;0,0228764
3499,2031;0,0228598
3500,1675;0,0228308
3501,1316;0,0227723
3502,0959;0,0226768
3503,0601;0,0225512
3504,0244;0,0224123
3504,9885;0,0222764
3505,9529;0,0221509
3506,9170;0,0220343
3507,8813;0,0219219
3508,8455;0,0218093
3509,8098;0,0216946
3510,7739;0,0215775
3511,7383;0,0214596
3512,7024;0,0213436
3513,6667;0,0212344
3514,6309;0,0211388
3515,5952;0,0210641
3516,5593;0,0210142
3517,5237;0,020987
3518,4878;0,0209751
3519,4521;0,020968
3520,4163;0,0209556
3521,3806;0,0209297
3522,3447;0,020885
3523,3091;0,0208187
3524,2732;0,0207307
3525,2375;0,0206221
3526,2017;0,0204946
3527,1660;0,0203505
3528,1301;0,0201954
3529,0945;0,0200391
3530,0586;0,0198945
3531,0229;0,0197714
3531,9871;0,0196722
3532,9514;0,0195899
3533,9155;0,0195107
3534,8799;0,0194195
3535,8440;0,0193068
3536,8083;0,0191774
3537,7725;0,0190509
3538,7368;0,0189538
3539,7009;0,0189064
3540,6653;0,0189139
3541,6294;0,0189631
3542,5938;0,0190235
3543,5579;0,0190527
3544,5222;0,0190109
3545,4863;0,0188839
3546,4507;0,0186933
3547,4148;0,0184818
3548,3792;0,018284
3549,3433;0,0181118
3550,3076;0,0179595
3551,2717;0,0178176
3552,2361;0,0176826
3553,2002;0,0175604
3554,1646;0,0174606
3555,1287;0,0173875
3556,0930;0,0173367
3557,0571;0,0173015
3558,0215;0,0172807
3558,9856;0,0172821
3559,9500;0,017318
3560,9141;0,0173943
3561,8784;0,0175008
3562,8425;0,0176082
3563,8069;0,0176687
3564,7710;0,0176197
3565,7354;0,0174047
3566,6995;0,0170294
3567,6638;0,0165979
3568,6279;0,0162435
3569,5923;0,0160241
3570,5564;0,0159087
3571,5208;0,0158364
3572,4849;0,0157639
3573,4492;0,0156796
3574,4133;0,0155932
3575,3777;0,0155177
3576,3418;0,015455
3577,3062;0,0153967
3578,2703;0,0153366
3579,2346;0,015283
3580,1987;0,0152577
3581,1631;0,0152802
3582,1272;0,0153506
3583,0916;0,0154428
3584,0557;0,0155108
3585,0200;0,0154983
3585,9841;0,0153588
3586,9485;0,015099
3587,9126;0,0148076
3588,8770;0,0145993
3589,8411;0,0145216
3590,8054;0,0145389
3591,7695;0,0145838
3592,7339;0,014601
3593,6980;0,0145628
3594,6624;0,0144688
3595,6265;0,0143366
3596,5908;0,0141844
3597,5549;0,0140187
3598,5193;0,0138415
3599,4834;0,0136662
3600,4478;0,0135221
3601,4119;0,0134376
3602,3762;0,013415
3603,3403;0,0134239
3604,3047;0,0134162
3605,2688;0,0133493
3606,2332;0,0132034
3607,1973;0,0129918
3608,1616;0,0127597
3609,1257;0,0125648
3610,0901;0,0124468
3611,0542;0,0124119
3612,0186;0,0124391
3612,9827;0,0124931
3613,9470;0,0125332
3614,9111;0,0125182
3615,8755;0,0124123
3616,8396;0,0121968
3617,8040;0,0118887
3618,7681;0,0115589
3619,7324;0,0113208
3620,6965;0,0112662
3621,6609;0,0114006
3622,6250;0,0116451
3623,5894;0,0118912
3624,5535;0,0120458
3625,5178;0,0120459
3626,4819;0,0118537
3627,4463;0,0114681
3628,4104;0,0109754
3629,3748;0,0105602
3630,3389;0,0103626
3631,3032;0,0103557
3632,2673;0,010413
3633,2317;0,0104266
3634,1958;0,0103575
3635,1602;0,0102276
3636,1243;0,0100865
3637,0886;0,00997521
3638,0527;0,00990862
3639,0171;0,00988205
3639,9812;0,0098888
3640,9456;0,00992981
3641,9097;0,0100083
3642,8740;0,0101172
3643,8381;0,0102329
3644,8025;0,0103159
3645,7666;0,0103098
3646,7310;0,0101281
3647,6951;0,00967244
3648,6594;0,00897528
3649,6235;0,00832272
3650,5879;0,0080017
3651,5520;0,00800915
3652,5164;0,00815426
3653,4805;0,00825921
3654,4448;0,00823891
3655,4089;0,00810451
3656,3733;0,00793593
3657,3374;0,00782288
3658,3018;0,00779919
3659,2659;0,00783065
3660,2302;0,00786372
3661,1943;0,00787784
3662,1587;0,00789732
3663,1228;0,00796104
3664,0872;0,00807918
3665,0513;0,00821687
3666,0156;0,00831299
3666,9797;0,00831479
3667,9441;0,00820763
3668,9082;0,00803493
3669,8726;0,00788702
3670,8367;0,00783165
3671,8010;0,00784802
3672,7651;0,00784799
3673,7295;0,007747
3674,6936;0,00752392
3675,6580;0,00725641
3676,6221;0,00708109
3677,5864;0,00706916
3678,5505;0,0071749
3679,5149;0,00731362
3680,4790;0,00744116
3681,4434;0,0075657
3682,4075;0,00771339
3683,3718;0,00788871
3684,3359;0,00805961
3685,3003;0,00817161
3686,2644;0,00817233
3687,2288;0,00803153
3688,1929;0,00776432
3689,1572;0,00745979
3690,1213;0,00725461
3691,0857;0,00722655
3692,0498;0,00734285
3693,0142;0,00752066
3693,9783;0,00769513
3694,9426;0,0078375
3695,9067;0,00794167
3696,8711;0,0080066
3697,8352;0,00802817
3698,7996;0,00800265
3699,7637;0,00793656
3700,7280;0,00785536
3701,6921;0,00780179
3702,6565;0,00781649
3703,6206;0,00791105
3704,5850;0,00805866
3705,5491;0,00820983
3706,5134;0,00831379
3707,4775;0,00832733
3708,4419;0,00821174
3709,4060;0,00793858
3710,3704;0,00753282
3711,3345;0,00712092
3712,2988;0,0068714
3713,2629;0,00685891
3714,2273;0,0070325
3715,1914;0,00729189
3716,1558;0,00755653
3717,1199;0,00778862
3718,0842;0,00798724
3719,0483;0,00817032
3720,0127;0,00835298
3720,9768;0,00853078
3721,9412;0,00867742
3722,9053;0,00875989
3723,8696;0,00876272
3724,8337;0,00870522
3725,7981;0,00863456
3726,7622;0,00859591
3727,7266;0,00860645
3728,6907;0,00865639
3729,6550;0,00872809
3730,6191;0,00880919
3731,5835;0,00888464
3732,5476;0,00891203
3733,5120;0,00881322
3734,4761;0,00853738
3735,4404;0,00816506
3736,4045;0,00788387
3737,3689;0,007818
3738,3330;0,00793855
3739,2974;0,00812162
3740,2615;0,00823527
3741,2258;0,00818786
3742,1899;0,0079513
3743,1543;0,00758378
3744,1184;0,00723557
3745,0828;0,00706774
3746,0469;0,00711094
3747,0112;0,00724155
3747,9753;0,00728819
3748,9397;0,00713091
3749,9038;0,00676803
3750,8682;0,0063624
3751,8323;0,00615256
3752,7966;0,00623339
3753,7607;0,00649819
3754,7251;0,00677563
3755,6892;0,00694323
3756,6536;0,0069571
3757,6177;0,00684774
3758,5820;0,00670164
3759,5461;0,00661547
3760,5105;0,00663685
3761,4746;0,00674424
3762,4390;0,0068783
3763,4031;0,00698301
3764,3674;0,00702641
3765,3315;0,00700131
3766,2959;0,00691622
3767,2600;0,00678563
3768,2244;0,00662789
3769,1885;0,00647203
3770,1528;0,00636155
3771,1169;0,00633906
3772,0813;0,00641815
3773,0454;0,0065698
3774,0098;0,00673642
3774,9739;0,00685893
3775,9382;0,00689943
3776,9023;0,00685452
3777,8667;0,00675884
3778,8308;0,00667226
3779,7952;0,00664567
3780,7593;0,00668777
3781,7236;0,00676451
3782,6877;0,00682713
3783,6521;0,00684046
3784,6162;0,00679653
3785,5806;0,00671429
3786,5447;0,00662863
3787,5090;0,00657461
3788,4731;0,00657338
3789,4375;0,00662528
3790,4016;0,00671196
3791,3660;0,00680661
3792,3301;0,00688848
3793,2944;0,00695459
3794,2585;0,00702026
3795,2229;0,00710375
3796,1870;0,00720211
3797,1514;0,0072771
3798,1155;0,00726707
3799,0798;0,00712359
3800,0439;0,00685795
3801,0083;0,00656321
3801,9724;0,00636153
3802,9368;0,00629954
3803,9009;0,00631191
3804,8652;0,00629125
3805,8293;0,00618304
3806,7937;0,00603619
3807,7578;0,00597341
3808,7222;0,00608672
3809,6863;0,00635638
3810,6506;0,00667568
3811,6147;0,00693095
3812,5791;0,00705763
3813,5432;0,00705777
3814,5076;0,00699055
3815,4717;0,00693424
3816,4360;0,00692621
3817,4001;0,00692923
3818,3645;0,006865
3819,3286;0,00668783
3820,2930;0,00644306
3821,2571;0,00625581
3822,2214;0,00623256
3823,1855;0,00637243
3824,1499;0,00658694
3825,1140;0,00677877
3826,0784;0,0068932
3827,0425;0,00692578
3828,0068;0,00690519
3828,9709;0,00686882
3829,9353;0,00684478
3830,8994;0,00684628
3831,8638;0,00687414
3832,8279;0,00691913
3833,7922;0,00696204
3834,7563;0,00697618
3835,7207;0,00693729
3836,6848;0,00684009
3837,6492;0,00671207
3838,6133;0,00660508
3839,5776;0,00655729
3840,5417;0,00656142
3841,5061;0,00657797
3842,4702;0,00657815
3843,4346;0,00657424
3844,3987;0,00661422
3845,3630;0,00674632
3846,3271;0,00698131
3847,2915;0,00728053
3848,2556;0,00757065
3849,2200;0,00776438
3850,1841;0,00776941
3851,1484;0,00749315
3852,1125;0,00689889
3853,0769;0,00615852
3854,0410;0,00565237
3855,0054;0,00560033
3855,9695;0,00588984
3856,9338;0,00629888
3857,8979;0,00667395
3858,8623;0,00695099
3859,8264;0,00712262
3860,7908;0,00720693
3861,7549;0,00722926
3862,7192;0,00721742
3863,6833;0,00720147
3864,6477;0,00720402
3865,6118;0,0072258
3866,5762;0,00724584
3867,5403;0,00723608
3868,5046;0,00717579
3869,4688;0,00706005
3870,4331;0,00690512
3871,3972;0,00674808
3872,3616;0,00663373
3873,3257;0,00659423
3874,2900;0,00663608
3875,2542;0,00674161
3876,2185;0,00688036
3877,1826;0,00702222
3878,1470;0,0071466
3879,1111;0,00724428
3880,0754;0,00731168
3881,0396;0,00734074
3882,0039;0,00731338
3882,9680;0,00721213
3883,9324;0,00704511
3884,8965;0,00686223
3885,8608;0,00673506
3886,8250;0,00670598
3887,7893;0,00675529
3888,7534;0,00681871
3889,7178;0,00683525
3890,6819;0,00679152
3891,6462;0,00673758
3892,6104;0,00675209
3893,5747;0,00687467
3894,5388;0,00707647
3895,5032;0,00729359
3896,4673;0,00747301
3897,4316;0,00759243
3898,3958;0,0076536
3899,3601;0,00766247
3900,3242;0,00761055
3901,2886;0,00747438
3902,2527;0,00724036
3903,2170;0,00693797
3904,1812;0,00664296
3905,1455;0,00643362
3906,1096;0,00634087
3907,0740;0,00634182
3908,0381;0,00639143
3909,0024;0,0064557
3909,9666;0,00652576
3910,9309;0,00661255
3911,8950;0,00672947
3912,8594;0,00687437
3913,8235;0,00702124
3914,7878;0,00712694
3915,7520;0,00715203
3916,7163;0,0070889
3917,6804;0,00697732
3918,6448;0,00688394
3919,6089;0,00685613
3920,5732;0,00689277
3921,5374;0,00695344
3922,5017;0,00698969
3923,4658;0,00697681
3924,4302;0,00693004
3925,3943;0,00689306
3926,3586;0,00690411
3927,3228;0,00696823
3928,2871;0,00705535
3929,2512;0,00711777
3930,2156;0,00711352
3931,1797;0,00702851
3932,1440;0,00688713
3933,1082;0,00673923
3934,0725;0,00663126
3935,0366;0,00658678
3936,0010;0,00660616
3936,9651;0,00667491
3937,9294;0,00676984
3938,8936;0,00686295
3939,8579;0,00692761
3940,8220;0,00694943
3941,7864;0,00693648
3942,7505;0,00691774
3943,7148;0,00692458
3944,6790;0,0069673
3945,6433;0,00702618
3946,6074;0,00706296
3947,5718;0,00704352
3948,5359;0,00695949
3949,5002;0,00683571
3950,4644;0,0067155
3951,4287;0,00663346
3952,3928;0,00659832
3953,3572;0,00659647
3954,3213;0,00660755
3955,2856;0,00661821
3956,2498;0,00662659
3957,2141;0,00663764
3958,1782;0,00665462
3959,1426;0,00667367
3960,1067;0,00668499
3961,0710;0,00667913
3962,0352;0,00665375
3962,9995;0,00661599
3963,9636;0,00657894
3964,9280;0,00655525
3965,8921;0,00655165
3966,8564;0,00656718
3967,8206;0,00659444
3968,7849;0,0066231
3969,7490;0,00664373
3970,7134;0,0066506
3971,6775;0,00664231
3972,6418;0,00662097
3973,6060;0,00659086
3974,5703;0,00655747
3975,5344;0,00652666
3976,4988;0,00650334
3977,4629;0,0064898
3978,4272;0,00648446
3979,3914;0,00648219
3980,3557;0,00647664
3981,3198;0,00646398
3982,2842;0,00644609
3983,2483;0,00643088
3984,2126;0,00642875
3985,1768;0,00644675
3986,1411;0,00648372
3987,1052;0,00652953
3988,0696;0,00656901
3989,0337;0,00658889
3989,9980;0,00658401
3990,9622;0,00655926
3991,9265;0,00652623
3992,8906;0,00649685
3993,8550;0,006478
3994,8191;0,00646977
3995,7834;0,00646737
3996,7476;0,00646467
3997,7119;0,00645743
3998,6760;0,00644487
3999,6404;0,00643002
4000,6045;0,00648964

##### Extended Information
[Comments]
Sample name
Comment
Username
Division
Organization;UNIVERSIDAD INDUSTRIAL DE SANTANDER

[Detailed Information]
Creation date;25/02/2025 3:01 p.m.

Data array type;Linear data array
Horizontal axis;Wavenumber [cm-1]
Vertical axis;Abs
Start;399,193 cm-1
End;4000,6 cm-1
Data interval;0,964233 cm-1
Data points;3736    

[Measurement Information]
Model name;FT/IR-4X1typeA
Serial No.;A035162111

Accessory;ATR PRO 4X
Accessory S/N;A021162126
Incident angle;45 deg

Measurement date;25/02/2025 3:00 p.m.

Light source;Standard
Detector;TGS
Accumulation;40
Resolution;4 cm-1
Zero filling;On
Apodization;Cosine
Gain;Auto (8)
Aperture;Auto (7 mm)
Scan speed;Auto (2 mm/sec)
Filter;Auto (12800 Hz)

