TITLE;
DATA TYPE;INFRARED SPECTRUM
ORIGIN;JASCO
OWNER;
DATE;25/02/25
TIME;14:56:31
SPECTROMETER/DATA SYSTEM;
LOCALE;9226
RESOLUTION;
DELTAX;0,964233
XUNITS;1/CM
YUNITS;ABSORBANCE
FIRSTX;  399,1927
LASTX; 4000,6047
NPOINTS;    3736
FIRSTY;     0,15191
MAXY;     0,17149
MINY;     0,00743
XYDATA
399,1927;0,151913
400,1569;0,148716
401,1211;0,146643
402,0854;0,145511
403,0496;0,144994
404,0138;0,14484
404,9781;0,144916
405,9423;0,145175
406,9065;0,145569
407,8708;0,145973
408,8350;0,146153
409,7992;0,145854
410,7635;0,144956
411,7277;0,143616
412,6919;0,142242
413,6562;0,141269
414,6204;0,14095
415,5846;0,141281
416,5489;0,14202
417,5131;0,142746
418,4773;0,14303
419,4416;0,142782
420,4058;0,142354
421,3700;0,142111
422,3343;0,142122
423,2985;0,142263
424,2627;0,142412
425,2270;0,142541
426,1912;0,142711
427,1554;0,142986
428,1197;0,143353
429,0839;0,143721
430,0481;0,143988
431,0124;0,144128
431,9766;0,144223
432,9408;0,1444
433,9051;0,14473
434,8693;0,145162
435,8335;0,145565
436,7978;0,145836
437,7620;0,145998
438,7262;0,146178
439,6905;0,146503
440,6547;0,146979
441,6189;0,14745
442,5832;0,147663
443,5474;0,147431
444,5116;0,146785
445,4759;0,145972
446,4401;0,145291
447,4043;0,144926
448,3686;0,144879
449,3328;0,145011
450,2970;0,145147
451,2613;0,145189
452,2255;0,145167
453,1897;0,145208
454,1540;0,145456
455,1182;0,145975
456,0824;0,146688
457,0467;0,147371
458,0109;0,147732
458,9751;0,147584
459,9394;0,146964
460,9036;0,146081
461,8678;0,145189
462,8321;0,1445
463,7963;0,144158
464,7605;0,144211
465,7248;0,144591
466,6890;0,14513
467,6532;0,145629
468,6175;0,145945
469,5817;0,146035
470,5459;0,14594
471,5102;0,145746
472,4744;0,145529
473,4386;0,145318
474,4029;0,14511
475,3671;0,144896
476,3313;0,14469
477,2956;0,144517
478,2598;0,144398
479,2240;0,144335
480,1883;0,144315
481,1525;0,144325
482,1167;0,144357
483,0810;0,144411
484,0452;0,144492
485,0094;0,144594
485,9737;0,144708
486,9379;0,144814
487,9021;0,144887
488,8664;0,144895
489,8306;0,144809
490,7948;0,144619
491,7591;0,144358
492,7233;0,144094
493,6875;0,143903
494,6518;0,14383
495,6160;0,143869
496,5802;0,143987
497,5445;0,144149
498,5087;0,144337
499,4729;0,144543
500,4372;0,14475
501,4014;0,144922
502,3656;0,145013
503,3299;0,145001
504,2941;0,14491
505,2583;0,144792
506,2226;0,144701
507,1868;0,144669
508,1510;0,144708
509,1153;0,144817
510,0795;0,145002
511,0437;0,145264
512,0080;0,145591
512,9722;0,145945
513,9365;0,14627
514,9007;0,146506
515,8649;0,146617
516,8292;0,146605
517,7934;0,146512
518,7576;0,146397
519,7219;0,14631
520,6861;0,146265
521,6503;0,146244
522,6146;0,146211
523,5788;0,146125
524,5430;0,145958
525,5073;0,14571
526,4715;0,145414
527,4357;0,145108
528,4000;0,14481
529,3642;0,144512
530,3284;0,144189
531,2927;0,143834
532,2569;0,143468
533,2211;0,143135
534,1854;0,14287
535,1496;0,142674
536,1138;0,142511
537,0781;0,142336
538,0423;0,142122
539,0065;0,141888
539,9708;0,141684
540,9350;0,14157
541,8992;0,14158
542,8635;0,141714
543,8277;0,141939
544,7919;0,142199
545,7562;0,142435
546,7204;0,142604
547,6846;0,142686
548,6489;0,142693
549,6131;0,142657
550,5773;0,142619
551,5416;0,142609
552,5058;0,142647
553,4700;0,14274
554,4343;0,142884
555,3985;0,143056
556,3627;0,143206
557,3270;0,143254
558,2912;0,143109
559,2554;0,142703
560,2197;0,142031
561,1839;0,141161
562,1481;0,140219
563,1124;0,139331
564,0766;0,138574
565,0408;0,137947
566,0051;0,137388
566,9693;0,136818
567,9335;0,1362
568,8978;0,135565
569,8620;0,135001
570,8262;0,134599
571,7905;0,134398
572,7547;0,13436
573,7189;0,134386
574,6832;0,134358
575,6474;0,134202
576,6116;0,133918
577,5759;0,133581
578,5401;0,13329
579,5043;0,133108
580,4686;0,133033
581,4328;0,133006
582,3970;0,132959
583,3613;0,13286
584,3255;0,132731
585,2897;0,132629
586,2540;0,132607
587,2182;0,132678
588,1824;0,132807
589,1467;0,132935
590,1109;0,133011
591,0751;0,133016
592,0394;0,132969
593,0036;0,132908
593,9678;0,132865
594,9321;0,132842
595,8963;0,132812
596,8605;0,132736
597,8248;0,132589
598,7890;0,132372
599,7532;0,132123
600,7175;0,131891
601,6817;0,131714
602,6459;0,131588
603,6102;0,131465
604,5744;0,131276
605,5386;0,130966
606,5029;0,130518
607,4671;0,12996
608,4313;0,129349
609,3956;0,128746
610,3598;0,128195
611,3240;0,127723
612,2883;0,127335
613,2525;0,127021
614,2167;0,12674
615,1810;0,126421
616,1452;0,125971
617,1094;0,12532
618,0737;0,124462
619,0379;0,123474
620,0021;0,122477
620,9664;0,121582
621,9306;0,12084
622,8948;0,120245
623,8591;0,119745
624,8233;0,119254
625,7875;0,118775
626,7518;0,118288
627,7160;0,117791
628,6802;0,117293
629,6445;0,116806
630,6087;0,116343
631,5729;0,11591
632,5372;0,115504
633,5014;0,115108
634,4656;0,114705
635,4299;0,114288
636,3941;0,113868
637,3583;0,113475
638,3226;0,113136
639,2868;0,112863
640,2510;0,11264
641,2153;0,112435
642,1795;0,112216
643,1437;0,111967
644,1080;0,111696
645,0722;0,111422
646,0364;0,111158
647,0007;0,110898
647,9649;0,110623
648,9291;0,110316
649,8934;0,109982
650,8576;0,109653
651,8218;0,109379
652,7861;0,1092
653,7503;0,109135
654,7145;0,109169
655,6788;0,109255
656,6430;0,109337
657,6072;0,109371
658,5715;0,109348
659,5357;0,109289
660,4999;0,109225
661,4642;0,109146
662,4284;0,108975
663,3926;0,108584
664,3569;0,107861
665,3211;0,106816
666,2853;0,10564
667,2496;0,104631
668,2138;0,103944
669,1780;0,103544
670,1423;0,10341
671,1065;0,10341
672,0707;0,103264
673,0350;0,102773
673,9992;0,101933
674,9634;0,100884
675,9277;0,099808
676,8919;0,0988222
677,8561;0,0979512
678,8204;0,0971655
679,7846;0,0964413
680,7488;0,0957755
681,7131;0,0951664
682,6773;0,094587
683,6415;0,0939974
684,6058;0,093379
685,5700;0,0927595
686,5342;0,0922032
687,4985;0,091773
688,4627;0,0914958
689,4269;0,0913374
690,3912;0,0912322
691,3554;0,0911166
692,3196;0,0909543
693,2839;0,0907422
694,2481;0,0905012
695,2123;0,0902603
696,1766;0,0900411
697,1408;0,0898468
698,1050;0,0896613
699,0693;0,0894563
700,0335;0,0892072
700,9977;0,0889059
701,9620;0,0885667
702,9262;0,0882188
703,8904;0,0878822
704,8547;0,0875736
705,8189;0,0872857
706,7831;0,0869932
707,7474;0,0866645
708,7116;0,0862765
709,6758;0,0858222
710,6401;0,0853095
711,6043;0,0847565
712,5685;0,0841865
713,5328;0,0836254
714,4970;0,0830993
715,4612;0,0820972
716,4255;0,0817981
717,3897;0,0815819
718,3539;0,0813746
719,3182;0,0810795
720,2824;0,0806231
721,2466;0,0799976
722,2109;0,0792644
723,1751;0,0785165
724,1393;0,0778311
725,1036;0,0772438
726,0678;0,076749
727,0320;0,0763166
727,9963;0,0759102
728,9605;0,0755017
729,9247;0,0750777
730,8890;0,0746412
731,8532;0,0742089
732,8174;0,0738031
733,7817;0,0734417
734,7459;0,07313
735,7101;0,0728593
736,6744;0,0726127
737,6386;0,072374
738,6028;0,0721324
739,5671;0,0718819
740,5313;0,0716192
741,4955;0,0713432
742,4598;0,071057
743,4240;0,0707688
744,3882;0,0704869
745,3525;0,070211
746,3167;0,0699278
747,2809;0,0696164
748,2452;0,0692615
749,2094;0,0688661
750,1736;0,0684524
751,1379;0,0680491
752,1021;0,0676749
753,0663;0,0673275
754,0306;0,0669891
754,9948;0,0666414
755,9590;0,0662806
756,9233;0,06592
757,8875;0,0655804
758,8517;0,0652741
759,8160;0,0649958
760,7802;0,0647257
761,7444;0,0644426
762,7087;0,0641369
763,6729;0,0638156
764,6371;0,0634951
765,6014;0,0631892
766,5656;0,0629007
767,5298;0,0626225
768,4941;0,0623475
769,4583;0,0620791
770,4225;0,0618323
771,3868;0,061625
772,3510;0,0614626
773,3152;0,0613293
774,2795;0,0611925
775,2437;0,0610184
776,2079;0,0607905
777,1722;0,060518
778,1364;0,0602287
779,1006;0,0599529
780,0649;0,0597076
781,0291;0,0594918
781,9933;0,0592929
782,9576;0,0590973
783,9218;0,0588977
784,8860;0,0586944
785,8503;0,0584907
786,8145;0,05829
787,7787;0,0580955
788,7430;0,0579109
789,7072;0,0577384
790,6714;0,0575758
791,6357;0,0574136
792,5999;0,0572381
793,5641;0,0570385
794,5284;0,0568149
795,4926;0,0565805
796,4568;0,056356
797,4211;0,0561596
798,3853;0,056
799,3495;0,0558756
800,3138;0,0557783
801,2780;0,0556978
802,2422;0,0556231
803,2065;0,0555408
804,1707;0,0554366
805,1349;0,0553005
806,0992;0,0551348
807,0634;0,0549562
808,0276;0,05479
808,9919;0,0546563
809,9561;0,0545586
810,9203;0,0544809
811,8846;0,0543978
812,8488;0,0542901
813,8130;0,0541561
814,7773;0,0540124
815,7415;0,0538824
816,7057;0,0537828
817,6700;0,053714
818,6342;0,0536617
819,5984;0,0536049
820,5627;0,0535275
821,5269;0,0534242
822,4911;0,053301
823,4554;0,0531695
824,4196;0,0530405
825,3839;0,0529188
826,3481;0,0528033
827,3123;0,0526905
828,2766;0,0525797
829,2408;0,0524747
830,2050;0,0523826
831,1693;0,0523069
832,1335;0,0522427
833,0977;0,0521753
834,0620;0,052086
835,0262;0,0519603
835,9904;0,0517952
836,9547;0,0516
837,9189;0,0513903
838,8831;0,0511802
839,8474;0,0509763
840,8116;0,0507781
841,7758;0,0505825
842,7401;0,0503904
843,7043;0,0502097
844,6685;0,0500536
845,6328;0,0499354
846,5970;0,0498607
847,5612;0,0498237
848,5255;0,0498069
849,4897;0,0497874
850,4539;0,0497449
851,4182;0,0496701
852,3824;0,0495674
853,3466;0,0494519
854,3109;0,0493412
855,2751;0,0492474
856,2393;0,0491732
857,2036;0,0491141
858,1678;0,0490641
859,1320;0,0490222
860,0963;0,0489947
861,0605;0,0489919
862,0247;0,0490221
862,9890;0,0490854
863,9532;0,0491727
864,9174;0,0492698
865,8817;0,0493662
866,8459;0,0494615
867,8101;0,0495669
868,7744;0,0496976
869,7386;0,0498622
870,7028;0,0500537
871,6671;0,0502494
872,6313;0,0504214
873,5955;0,0505511
874,5598;0,050639
875,5240;0,0507037
876,4882;0,05077
877,4525;0,0508555
878,4167;0,0509632
879,3809;0,0510869
880,3452;0,0512223
881,3094;0,0513778
882,2736;0,051574
883,2379;0,0518355
884,2021;0,0521784
885,1663;0,0526033
886,1306;0,0530969
887,0948;0,0536389
888,0590;0,0542105
889,0233;0,0547974
889,9875;0,0553889
890,9517;0,0559754
891,9160;0,0565464
892,8802;0,0570896
893,8444;0,0575898
894,8087;0,0580285
895,7729;0,0583837
896,7371;0,0586322
897,7014;0,0587535
898,6656;0,0587346
899,6298;0,0585729
900,5941;0,0582769
901,5583;0,0578654
902,5225;0,0573668
903,4868;0,0568175
904,4510;0,0562576
905,4152;0,0557252
906,3795;0,0552498
907,3437;0,0548482
908,3079;0,054526
909,2722;0,0542831
910,2364;0,0541182
911,2007;0,0540305
912,1649;0,0540163
913,1292;0,0540659
914,0934;0,0541629
915,0576;0,054289
916,0219;0,0544302
916,9861;0,054581
917,9503;0,0547431
918,9146;0,0549211
919,8788;0,0551179
920,8430;0,055333
921,8073;0,0555645
922,7715;0,0558108
923,7357;0,0560714
924,7000;0,0563451
925,6642;0,0566282
926,6284;0,0569142
927,5927;0,0571956
928,5569;0,0574661
929,5211;0,0577233
930,4854;0,0579696
931,4496;0,0582117
932,4138;0,0584602
933,3781;0,0587263
934,3423;0,0590194
935,3065;0,0593438
936,2708;0,0596979
937,2350;0,0600763
938,1992;0,060475
939,1635;0,0608953
940,1277;0,0613452
941,0919;0,0618359
942,0562;0,062376
943,0204;0,0629665
943,9846;0,0636002
944,9489;0,0642652
945,9131;0,0649511
946,8773;0,0656541
947,8416;0,0663778
948,8058;0,0671304
949,7700;0,0679207
950,7343;0,0687548
951,6985;0,0696356
952,6627;0,0705653
953,6270;0,0715474
954,5912;0,0725866
955,5554;0,073686
956,5197;0,0748435
957,4839;0,0760494
958,4481;0,0772888
959,4124;0,0785456
960,3766;0,0798074
961,3408;0,0810687
962,3051;0,0823293
963,2693;0,083592
964,2335;0,0848602
965,1978;0,0861373
966,1620;0,0874279
967,1262;0,0887389
968,0905;0,0900803
969,0547;0,0914651
970,0189;0,0929096
970,9832;0,0944319
971,9474;0,0960514
972,9116;0,0977853
973,8759;0,0996471
974,8401;0,101644
975,8043;0,103779
976,7686;0,106047
977,7328;0,10844
978,6970;0,110936
979,6613;0,113498
980,6255;0,11607
981,5897;0,118579
982,5540;0,120947
983,5182;0,123106
984,4824;0,125017
985,4467;0,126674
986,4109;0,128108
987,3751;0,129366
988,3394;0,130497
989,3036;0,131531
990,2678;0,132474
991,2321;0,133321
992,1963;0,134071
993,1605;0,134739
994,1248;0,13536
995,0890;0,135976
996,0532;0,136612
997,0175;0,137271
997,9817;0,137936
998,9459;0,138585
999,9102;0,139214
1000,8744;0,139845
1001,8386;0,140515
1002,8029;0,141259
1003,7671;0,142102
1004,7313;0,143052
1005,6956;0,144111
1006,6598;0,145282
1007,6240;0,146574
1008,5883;0,147996
1009,5525;0,149547
1010,5167;0,151214
1011,4810;0,152975
1012,4452;0,154796
1013,4094;0,156637
1014,3737;0,15845
1015,3379;0,160183
1016,3021;0,161786
1017,2664;0,163223
1018,2306;0,164479
1019,1948;0,165563
1020,1591;0,166498
1021,1233;0,16731
1022,0875;0,168023
1023,0518;0,168654
1024,0160;0,169217
1024,9802;0,169726
1025,9445;0,170188
1026,9087;0,170607
1027,8729;0,170971
1028,8372;0,17126
1029,8014;0,171444
1030,7656;0,171485
1031,7299;0,171346
1032,6941;0,170993
1033,6583;0,170409
1034,6226;0,169601
1035,5868;0,168611
1036,5510;0,167511
1037,5153;0,166392
1038,4795;0,165348
1039,4437;0,164456
1040,4080;0,16376
1041,3722;0,163268
1042,3364;0,162955
1043,3007;0,162772
1044,2649;0,162661
1045,2291;0,162564
1046,1934;0,162431
1047,1576;0,162222
1048,1218;0,161902
1049,0861;0,161443
1050,0503;0,16082
1051,0145;0,160019
1051,9788;0,159038
1052,9430;0,157896
1053,9072;0,156621
1054,8715;0,155247
1055,8357;0,153792
1056,7999;0,152249
1057,7642;0,15059
1058,7284;0,148782
1059,6926;0,146806
1060,6569;0,144679
1061,6211;0,142455
1062,5853;0,140211
1063,5496;0,138028
1064,5138;0,135968
1065,4780;0,134065
1066,4423;0,132328
1067,4065;0,13075
1068,3707;0,12931
1069,3350;0,127985
1070,2992;0,126744
1071,2634;0,125554
1072,2277;0,124382
1073,1919;0,123196
1074,1561;0,121969
1075,1204;0,120678
1076,0846;0,119307
1077,0488;0,117857
1078,0131;0,116347
1078,9773;0,114822
1079,9415;0,113337
1080,9058;0,111948
1081,8700;0,110695
1082,8342;0,109592
1083,7985;0,10863
1084,7627;0,107787
1085,7269;0,107036
1086,6912;0,106357
1087,6554;0,105736
1088,6196;0,105171
1089,5839;0,104671
1090,5481;0,104252
1091,5123;0,10393
1092,4766;0,103715
1093,4408;0,103598
1094,4050;0,103557
1095,3693;0,103564
1096,3335;0,103593
1097,2977;0,10363
1098,2620;0,103672
1099,2262;0,103722
1100,1904;0,103782
1101,1547;0,103845
1102,1189;0,103895
1103,0831;0,103915
1104,0474;0,103889
1105,0116;0,103809
1105,9758;0,103674
1106,9401;0,103484
1107,9043;0,103237
1108,8685;0,102919
1109,8328;0,102505
1110,7970;0,101969
1111,7612;0,101294
1112,7255;0,100481
1113,6897;0,0995559
1114,6539;0,0985656
1115,6182;0,097567
1116,5824;0,096614
1117,5466;0,0957436
1118,5109;0,0949658
1119,4751;0,0942592
1120,4393;0,093574
1121,4036;0,0928423
1122,3678;0,0919944
1123,3320;0,0909775
1124,2963;0,0897685
1125,2605;0,0883787
1126,2247;0,0868459
1127,1890;0,0852202
1128,1532;0,0835488
1129,1174;0,0818659
1130,0817;0,0801911
1131,0459;0,0785352
1132,0101;0,0769083
1132,9744;0,0753273
1133,9386;0,0738183
1134,9028;0,0724145
1135,8671;0,0711511
1136,8313;0,0700577
1137,7955;0,0691537
1138,7598;0,0684452
1139,7240;0,0679251
1140,6882;0,067576
1141,6525;0,0673733
1142,6167;0,0672896
1143,5809;0,067298
1144,5452;0,0673757
1145,5094;0,0675063
1146,4736;0,0676798
1147,4379;0,067892
1148,4021;0,0681413
1149,3663;0,0684257
1150,3306;0,0687397
1151,2948;0,0690719
1152,2590;0,0694045
1153,2233;0,0697134
1154,1875;0,0699689
1155,1517;0,0701379
1156,1160;0,0701854
1157,0802;0,0700773
1158,0444;0,0697813
1159,0087;0,0692683
1159,9729;0,068513
1160,9371;0,0674965
1161,9014;0,066211
1162,8656;0,0646652
1163,8298;0,0628888
1164,7941;0,0609334
1165,7583;0,0588676
1166,7225;0,0567682
1167,6868;0,0547087
1168,6510;0,0527496
1169,6152;0,0509318
1170,5795;0,049276
1171,5437;0,0477864
1172,5079;0,0464573
1173,4722;0,0452784
1174,4364;0,0442389
1175,4006;0,0433276
1176,3649;0,0425335
1177,3291;0,0418462
1178,2933;0,0412571
1179,2576;0,0407605
1180,2218;0,0403526
1181,1860;0,040029
1182,1503;0,0397816
1183,1145;0,0395992
1184,0787;0,0394695
1185,0430;0,0393843
1186,0072;0,0393425
1186,9714;0,0393498
1187,9357;0,0394161
1188,8999;0,0395507
1189,8641;0,0397598
1190,8284;0,0400457
1191,7926;0,0404071
1192,7568;0,0408397
1193,7211;0,041336
1194,6853;0,0418858
1195,6495;0,0424771
1196,6138;0,0430986
1197,5780;0,0437417
1198,5422;0,0444007
1199,5065;0,045022
1200,4707;0,0457079
1201,4349;0,0463985
1202,3992;0,0470886
1203,3634;0,0477742
1204,3276;0,0484529
1205,2919;0,0491246
1206,2561;0,0497907
1207,2203;0,0504546
1208,1846;0,051123
1209,1488;0,0518067
1210,1130;0,0525207
1211,0773;0,0532808
1212,0415;0,0540994
1213,0057;0,0549807
1213,9700;0,0559186
1214,9342;0,0568978
1215,8984;0,057897
1216,8627;0,0588925
1217,8269;0,0598626
1218,7911;0,0607916
1219,7554;0,0616714
1220,7196;0,0625006
1221,6838;0,0632821
1222,6481;0,064018
1223,6123;0,0647069
1224,5765;0,0653441
1225,5408;0,0659247
1226,5050;0,0664477
1227,4692;0,0669186
1228,4335;0,0673466
1229,3977;0,0677401
1230,3619;0,0681017
1231,3262;0,068427
1232,2904;0,0687069
1233,2546;0,0689328
1234,2189;0,0691017
1235,1831;0,0692178
1236,1473;0,0692915
1237,1116;0,0693342
1238,0758;0,0693534
1239,0400;0,0693496
1240,0043;0,0693164
1240,9685;0,0692448
1241,9327;0,0691278
1242,8970;0,068964
1243,8612;0,0687571
1244,8254;0,068512
1245,7897;0,0682313
1246,7539;0,0679134
1247,7181;0,0675556
1248,6824;0,0671584
1249,6466;0,0667278
1250,6108;0,0662752
1251,5751;0,0658135
1252,5393;0,0653532
1253,5035;0,0649006
1254,4678;0,0644567
1255,4320;0,0640184
1256,3962;0,0635788
1257,3605;0,0631285
1258,3247;0,0626576
1259,2889;0,0621577
1260,2532;0,0616241
1261,2174;0,0610558
1262,1816;0,0604547
1263,1459;0,0598246
1264,1101;0,0591706
1265,0743;0,058499
1266,0386;0,0578156
1267,0028;0,0571219
1267,9670;0,0564134
1268,9313;0,0556807
1269,8955;0,0549146
1270,8597;0,0541139
1271,8240;0,0532893
1272,7882;0,0524616
1273,7524;0,0516557
1274,7167;0,0508919
1275,6809;0,0501809
1276,6451;0,0495221
1277,6094;0,0489044
1278,5736;0,0483105
1279,5378;0,0477222
1280,5021;0,0471276
1281,4663;0,0465259
1282,4305;0,0459288
1283,3948;0,045356
1284,3590;0,0448269
1285,3232;0,0443532
1286,2875;0,0439354
1287,2517;0,0435641
1288,2159;0,0432258
1289,1802;0,0429104
1290,1444;0,0426147
1291,1086;0,0423441
1292,0729;0,042109
1293,0371;0,041921
1294,0013;0,0417891
1294,9656;0,0417182
1295,9298;0,0417081
1296,8940;0,0417547
1297,8583;0,0418512
1298,8225;0,0419905
1299,7867;0,0421661
1300,7510;0,042374
1301,7152;0,042614
1302,6794;0,0428893
1303,6437;0,0432042
1304,6079;0,0435619
1305,5721;0,0439613
1306,5364;0,0443965
1307,5006;0,0448589
1308,4648;0,0453393
1309,4291;0,0458292
1310,3933;0,046319
1311,3575;0,0467955
1312,3218;0,0472423
1313,2860;0,047643
1314,2502;0,0479851
1315,2145;0,0482602
1316,1787;0,0484602
1317,1429;0,0485745
1318,1072;0,0485938
1319,0714;0,0485189
1320,0356;0,0483686
1320,9999;0,0481772
1321,9641;0,0479826
1322,9283;0,047813
1323,8926;0,0476797
1324,8568;0,0475796
1325,8210;0,047501
1326,7853;0,0474308
1327,7495;0,0473585
1328,7137;0,0472768
1329,6780;0,0471799
1330,6422;0,0470634
1331,6064;0,0469269
1332,5707;0,0467754
1333,5349;0,0466191
1334,4991;0,0464656
1335,4634;0,0463111
1336,4276;0,0461328
1337,3918;0,0458899
1338,3561;0,0455409
1339,3203;0,045075
1340,2845;0,0445323
1341,2488;0,0439858
1342,2130;0,0435005
1343,1772;0,0431103
1344,1415;0,0428226
1345,1057;0,042632
1346,0699;0,0425303
1347,0342;0,0425095
1347,9984;0,0425624
1348,9626;0,0426826
1349,9269;0,0428649
1350,8911;0,0431036
1351,8553;0,0433918
1352,8196;0,0437231
1353,7838;0,0440943
1354,7480;0,044507
1355,7123;0,0449662
1356,6765;0,0454759
1357,6407;0,0460346
1358,6050;0,0466332
1359,5692;0,0472524
1360,5334;0,047859
1361,4977;0,0484081
1362,4619;0,0488648
1363,4261;0,0492333
1364,3904;0,0495545
1365,3546;0,0498714
1366,3188;0,0502021
1367,2831;0,0505375
1368,2473;0,0508527
1369,2115;0,0511185
1370,1758;0,0513095
1371,1400;0,0514022
1372,1042;0,0513708
1373,0685;0,0511912
1374,0327;0,0508583
1374,9969;0,0504025
1375,9612;0,0498749
1376,9254;0,0493059
1377,8896;0,0486839
1378,8539;0,0479777
1379,8181;0,0471789
1380,7823;0,046327
1381,7466;0,045493
1382,7108;0,0447327
1383,6750;0,0440504
1384,6393;0,0434001
1385,6035;0,0427217
1386,5677;0,0419938
1387,5320;0,0412695
1388,4962;0,0406458
1389,4604;0,0401866
1390,4247;0,0398847
1391,3889;0,0396927
1392,3531;0,0395641
1393,3174;0,0394703
1394,2816;0,0393944
1395,2458;0,039319
1396,2101;0,0392259
1397,1743;0,0391084
1398,1385;0,0389837
1399,1028;0,0388892
1400,0670;0,0388624
1401,0313;0,0389203
1401,9955;0,0390534
1402,9597;0,0392359
1403,9240;0,0394419
1404,8882;0,039659
1405,8524;0,0398924
1406,8167;0,0401555
1407,7809;0,0404554
1408,7451;0,0407881
1409,7094;0,0411479
1410,6736;0,0415383
1411,6378;0,041972
1412,6021;0,0424594
1413,5663;0,0429963
1414,5305;0,0435623
1415,4948;0,0441272
1416,4590;0,0446524
1417,4232;0,0450871
1418,3875;0,0453885
1419,3517;0,0455694
1420,3159;0,045695
1421,2802;0,0458067
1422,2444;0,0458835
1423,2086;0,0458772
1424,1729;0,0457586
1425,1371;0,045532
1426,1013;0,045216
1427,0656;0,0448165
1428,0298;0,044322
1428,9940;0,0437322
1429,9583;0,0430896
1430,9225;0,0424695
1431,8867;0,0419233
1432,8510;0,0414329
1433,8152;0,0409209
1434,7794;0,040299
1435,7437;0,0395393
1436,7079;0,0387406
1437,6721;0,0380908
1438,6364;0,0377103
1439,6006;0,0375727
1440,5648;0,0375807
1441,5291;0,0376579
1442,4933;0,0377768
1443,4575;0,0379409
1444,4218;0,0381563
1445,3860;0,0384142
1446,3502;0,0386927
1447,3145;0,0389721
1448,2787;0,0392504
1449,2429;0,039542
1450,2072;0,0398583
1451,1714;0,0401886
1452,1356;0,0405017
1453,0999;0,0407631
1454,0641;0,0409447
1455,0283;0,0410069
1455,9926;0,0408645
1456,9568;0,0404579
1457,9210;0,0399589
1458,8853;0,0396557
1459,8495;0,0396032
1460,8137;0,0396546
1461,7780;0,0396456
1462,7422;0,0394612
1463,7064;0,0390416
1464,6707;0,0384096
1465,6349;0,0376881
1466,5991;0,0370169
1467,5634;0,0364353
1468,5276;0,0358758
1469,4918;0,0352316
1470,4561;0,0344037
1471,4203;0,033322
1472,3845;0,0319961
1473,3488;0,0305848
1474,3130;0,0293273
1475,2772;0,0283501
1476,2415;0,027623
1477,2057;0,0270644
1478,1699;0,0266153
1479,1342;0,026245
1480,0984;0,0259371
1481,0626;0,0256835
1482,0269;0,0254869
1482,9911;0,0253606
1483,9553;0,0253193
1484,9196;0,0253692
1485,8838;0,0255041
1486,8480;0,025701
1487,8123;0,0259087
1488,7765;0,0260608
1489,7407;0,0261447
1490,7050;0,0262363
1491,6692;0,0264164
1492,6334;0,0267041
1493,5977;0,0270837
1494,5619;0,0275478
1495,5261;0,0281035
1496,4904;0,0287478
1497,4546;0,0294488
1498,4188;0,0301678
1499,3831;0,0308836
1500,3473;0,0315713
1501,3115;0,0321884
1502,2758;0,0326981
1503,2400;0,033101
1504,2042;0,0334511
1505,1685;0,033817
1506,1327;0,0341408
1507,0969;0,0341705
1508,0612;0,0338404
1509,0254;0,0334199
1509,9896;0,03308
1510,9539;0,0328
1511,9181;0,0325182
1512,8823;0,0321952
1513,8466;0,0318092
1514,8108;0,0313451
1515,7750;0,0307982
1516,7393;0,0301829
1517,7035;0,0295237
1518,6677;0,0288342
1519,6320;0,0281139
1520,5962;0,027378
1521,5604;0,0266885
1522,5247;0,0261283
1523,4889;0,0257332
1524,4531;0,025469
1525,4174;0,0252767
1526,3816;0,0251247
1527,3458;0,0250183
1528,3101;0,0249697
1529,2743;0,0249713
1530,2385;0,0249969
1531,2028;0,0250196
1532,1670;0,0250262
1533,1312;0,0250245
1534,0955;0,0250373
1535,0597;0,0250738
1536,0239;0,0251111
1536,9882;0,0251196
1537,9524;0,0251029
1538,9166;0,0251029
1539,8809;0,0251374
1540,8451;0,0251563
1541,8093;0,0251567
1542,7736;0,0252065
1543,7378;0,0253126
1544,7020;0,0254403
1545,6663;0,0255769
1546,6305;0,0257304
1547,5947;0,0259009
1548,5590;0,0260686
1549,5232;0,0262047
1550,4874;0,0262944
1551,4517;0,0263499
1552,4159;0,0263978
1553,3801;0,0264506
1554,3444;0,0264899
1555,3086;0,026478
1556,2728;0,0263723
1557,2371;0,026114
1558,2013;0,0256667
1559,1655;0,0252313
1560,1298;0,0251636
1561,0940;0,0254949
1562,0582;0,0260027
1563,0225;0,0265002
1563,9867;0,0269053
1564,9509;0,0272053
1565,9152;0,0274206
1566,8794;0,0275842
1567,8436;0,0277343
1568,8079;0,0279109
1569,7721;0,0281448
1570,7363;0,0284379
1571,7006;0,0287571
1572,6648;0,0290617
1573,6290;0,0293406
1574,5933;0,0296241
1575,5575;0,0299595
1576,5217;0,0303732
1577,4860;0,0308631
1578,4502;0,0314099
1579,4144;0,0319828
1580,3787;0,0325555
1581,3429;0,0331203
1582,3071;0,0336857
1583,2714;0,0342629
1584,2356;0,0348587
1585,1998;0,035475
1586,1641;0,0361098
1587,1283;0,0367532
1588,0925;0,037384
1589,0568;0,0379724
1590,0210;0,0384882
1590,9852;0,0389079
1591,9495;0,0392157
1592,9137;0,0394007
1593,8779;0,0394591
1594,8422;0,0394008
1595,8064;0,0392534
1596,7706;0,0390542
1597,7349;0,0388361
1598,6991;0,0386176
1599,6633;0,0384033
1600,6276;0,0381914
1601,5918;0,0379844
1602,5560;0,037793
1603,5203;0,0376318
1604,4845;0,0375067
1605,4487;0,0374052
1606,4130;0,0373003
1607,3772;0,0371699
1608,3414;0,0370194
1609,3057;0,0368894
1610,2699;0,0368279
1611,2341;0,0368483
1612,1984;0,0369159
1613,1626;0,0369729
1614,1268;0,0369741
1615,0911;0,0369137
1616,0553;0,0368449
1617,0195;0,0368689
1617,9838;0,037054
1618,9480;0,0373656
1619,9122;0,0377059
1620,8765;0,0379927
1621,8407;0,0381952
1622,8049;0,0383291
1623,7692;0,0384341
1624,7334;0,0385456
1625,6976;0,0386756
1626,6619;0,0388216
1627,6261;0,0389888
1628,5903;0,0391947
1629,5546;0,0394461
1630,5188;0,0397179
1631,4830;0,0399602
1632,4473;0,0401236
1633,4115;0,0401757
1634,3757;0,0400993
1635,3400;0,0399091
1636,3042;0,0397124
1637,2684;0,0396663
1638,2327;0,039815
1639,1969;0,0400797
1640,1611;0,0403655
1641,1254;0,0406135
1642,0896;0,0407941
1643,0538;0,0408875
1644,0181;0,0408698
1644,9823;0,0407124
1645,9465;0,0404205
1646,9108;0,0400982
1647,8750;0,0398899
1648,8392;0,039815
1649,8035;0,0397538
1650,7677;0,0395461
1651,7319;0,0390375
1652,6962;0,0381574
1653,6604;0,0371884
1654,6246;0,0366598
1655,5889;0,0366686
1656,5531;0,0369112
1657,5173;0,0371092
1658,4816;0,0371286
1659,4458;0,0369319
1660,4100;0,0365313
1661,3743;0,0359819
1662,3385;0,0353966
1663,3027;0,0349102
1664,2670;0,0345853
1665,2312;0,0343767
1666,1954;0,0341789
1667,1597;0,0338836
1668,1239;0,0334192
1669,0881;0,0327962
1670,0524;0,0321335
1671,0166;0,0315723
1671,9808;0,0311432
1672,9451;0,030763
1673,9093;0,0303434
1674,8735;0,0298808
1675,8378;0,0294702
1676,8020;0,0292233
1677,7662;0,0291623
1678,7305;0,0292024
1679,6947;0,0292169
1680,6589;0,0290914
1681,6232;0,028732
1682,5874;0,0280728
1683,5516;0,0271716
1684,5159;0,0263165
1685,4801;0,0258059
1686,4443;0,0256458
1687,4086;0,0256458
1688,3728;0,0256378
1689,3370;0,025552
1690,3013;0,0253964
1691,2655;0,0252132
1692,2297;0,0250448
1693,1940;0,0249168
1694,1582;0,0248324
1695,1224;0,0247671
1696,0867;0,0246688
1697,0509;0,0244829
1698,0151;0,0242042
1698,9794;0,0239177
1699,9436;0,0237648
1700,9078;0,0238411
1701,8721;0,02413
1702,8363;0,024536
1703,8005;0,024962
1704,7648;0,0253559
1705,7290;0,0257173
1706,6932;0,02608
1707,6575;0,0264846
1708,6217;0,0269548
1709,5859;0,0274902
1710,5502;0,0280753
1711,5144;0,0286893
1712,4786;0,0293106
1713,4429;0,0299167
1714,4071;0,0304825
1715,3713;0,0309748
1716,3356;0,0313627
1717,2998;0,0316737
1718,2640;0,0320181
1719,2283;0,0324824
1720,1925;0,0330502
1721,1567;0,0336497
1722,1210;0,0342169
1723,0852;0,0347194
1724,0494;0,0351555
1725,0137;0,0355486
1725,9779;0,0359344
1726,9421;0,0363395
1727,9064;0,0367616
1728,8706;0,0371615
1729,8348;0,0374676
1730,7991;0,0375861
1731,7633;0,03742
1732,7275;0,0369329
1733,6918;0,0362544
1734,6560;0,0356496
1735,6202;0,0352792
1736,5845;0,0350761
1737,5487;0,034868
1738,5129;0,0345204
1739,4772;0,033997
1740,4414;0,0333555
1741,4056;0,0326958
1742,3699;0,0320827
1743,3341;0,0315072
1744,2983;0,0309171
1745,2626;0,030265
1746,2268;0,0295211
1747,1910;0,0286512
1748,1553;0,0276047
1749,1195;0,0263631
1750,0837;0,0250225
1751,0480;0,0237781
1752,0122;0,0227788
1752,9764;0,0220317
1753,9407;0,0214423
1754,9049;0,0209033
1755,8691;0,0203519
1756,8334;0,0197819
1757,7976;0,0192164
1758,7618;0,0186677
1759,7261;0,01812
1760,6903;0,0175518
1761,6545;0,0169752
1762,6188;0,0164439
1763,5830;0,0160153
1764,5472;0,0157052
1765,5115;0,015483
1766,4757;0,015299
1767,4399;0,015111
1768,4042;0,0148929
1769,3684;0,0146287
1770,3326;0,0143082
1771,2969;0,0139392
1772,2611;0,0135736
1773,2253;0,0132972
1774,1896;0,0131663
1775,1538;0,0131626
1776,1180;0,0132174
1777,0823;0,0132611
1778,0465;0,0132525
1779,0107;0,0131826
1779,9750;0,0130667
1780,9392;0,0129297
1781,9034;0,0127933
1782,8677;0,0126715
1783,8319;0,012577
1784,7961;0,0125248
1785,7604;0,0125253
1786,7246;0,0125731
1787,6888;0,0126448
1788,6531;0,0127091
1789,6173;0,0127389
1790,5815;0,0127159
1791,5458;0,0126353
1792,5100;0,0125215
1793,4742;0,0124262
1794,4385;0,0123852
1795,4027;0,012388
1796,3669;0,0123989
1797,3312;0,0123917
1798,2954;0,0123627
1799,2596;0,0123231
1800,2239;0,012284
1801,1881;0,0122484
1802,1523;0,0122144
1803,1166;0,0121803
1804,0808;0,0121482
1805,0450;0,0121233
1806,0093;0,012111
1806,9735;0,0121123
1807,9377;0,0121219
1808,9020;0,0121283
1809,8662;0,0121208
1810,8304;0,0120977
1811,7947;0,0120688
1812,7589;0,0120464
1813,7231;0,0120345
1814,6874;0,0120268
1815,6516;0,0120137
1816,6158;0,0119904
1817,5801;0,0119619
1818,5443;0,0119415
1819,5085;0,0119416
1820,4728;0,0119643
1821,4370;0,0119995
1822,4012;0,012031
1823,3655;0,0120451
1824,3297;0,0120382
1825,2939;0,0120179
1826,2582;0,0119941
1827,2224;0,0119676
1828,1866;0,0119276
1829,1509;0,0118636
1830,1151;0,0117829
1831,0793;0,0117141
1832,0436;0,0116852
1833,0078;0,0116983
1833,9720;0,0117324
1834,9363;0,0117644
1835,9005;0,0117844
1836,8647;0,0117998
1837,8290;0,011826
1838,7932;0,0118713
1839,7574;0,0119289
1840,7217;0,0119822
1841,6859;0,0120154
1842,6501;0,0120182
1843,6144;0,0119864
1844,5786;0,0119301
1845,5428;0,0118751
1846,5071;0,0118417
1847,4713;0,0118272
1848,4355;0,0118149
1849,3998;0,0117929
1850,3640;0,0117612
1851,3282;0,011726
1852,2925;0,0116915
1853,2567;0,0116589
1854,2209;0,011632
1855,1852;0,0116216
1856,1494;0,0116427
1857,1136;0,0117027
1858,0779;0,011791
1859,0421;0,0118796
1860,0063;0,0119388
1860,9706;0,0119568
1861,9348;0,0119478
1862,8990;0,0119424
1863,8633;0,0119672
1864,8275;0,0120298
1865,7917;0,0121141
1866,7560;0,0121835
1867,7202;0,0121966
1868,6844;0,0121393
1869,6487;0,0120455
1870,6129;0,011968
1871,5771;0,0119323
1872,5414;0,0119272
1873,5056;0,0119285
1874,4698;0,0119211
1875,4341;0,0119053
1876,3983;0,0118901
1877,3625;0,0118824
1878,3268;0,0118803
1879,2910;0,0118761
1880,2552;0,0118649
1881,2195;0,011852
1882,1837;0,0118515
1883,1479;0,0118776
1884,1122;0,0119336
1885,0764;0,0120087
1886,0406;0,0120817
1887,0049;0,0121312
1887,9691;0,0121441
1888,9333;0,012122
1889,8976;0,012083
1890,8618;0,0120526
1891,8260;0,0120499
1892,7903;0,0120793
1893,7545;0,0121309
1894,7188;0,0121869
1895,6830;0,0122283
1896,6472;0,0122429
1897,6115;0,0122292
1898,5757;0,012195
1899,5399;0,0121515
1900,5042;0,0121097
1901,4684;0,0120784
1902,4326;0,0120655
1903,3969;0,0120774
1904,3611;0,0121158
1905,3253;0,0121735
1906,2896;0,0122325
1907,2538;0,0122686
1908,2180;0,0122634
1909,1823;0,0122189
1910,1465;0,012162
1911,1107;0,0121304
1912,0750;0,0121478
1913,0392;0,0122094
1914,0034;0,0122875
1914,9677;0,0123503
1915,9319;0,0123799
1916,8961;0,0123836
1917,8604;0,01239
1918,8246;0,0124292
1919,7888;0,0125101
1920,7531;0,0126113
1921,7173;0,012693
1922,6815;0,0127169
1923,6458;0,0126646
1924,6100;0,0125469
1925,5742;0,0123976
1926,5385;0,0122569
1927,5027;0,0121573
1928,4669;0,0121164
1929,4312;0,0121368
1930,3954;0,0122067
1931,3596;0,0123059
1932,3239;0,0124117
1933,2881;0,0125047
1934,2523;0,0125702
1935,2166;0,0126
1936,1808;0,0125968
1937,1450;0,0125801
1938,1093;0,0125865
1939,0735;0,0126607
1940,0377;0,0128356
1941,0020;0,0131081
1941,9662;0,0134232
1942,9304;0,0136912
1943,8947;0,0138347
1944,8589;0,013831
1945,8231;0,0137165
1946,7874;0,0135587
1947,7516;0,0134221
1948,7158;0,0133441
1949,6801;0,0133235
1950,6443;0,0133277
1951,6085;0,0133149
1952,5728;0,0132641
1953,5370;0,0131925
1954,5012;0,0131489
1955,4655;0,0131841
1956,4297;0,0133135
1957,3939;0,0135011
1958,3582;0,0136758
1959,3224;0,0137752
1960,2866;0,0137876
1961,2509;0,013759
1962,2151;0,0137588
1963,1793;0,0138291
1964,1436;0,0139569
1965,1078;0,0140862
1966,0720;0,0141569
1967,0363;0,0141432
1968,0005;0,014065
1968,9647;0,0139686
1969,9290;0,0138981
1970,8932;0,0138833
1971,8574;0,0139431
1972,8217;0,0140865
1973,7859;0,0143021
1974,7501;0,0145448
1975,7144;0,0147448
1976,6786;0,0148428
1977,6428;0,014828
1978,6071;0,0147409
1979,5713;0,0146332
1980,5355;0,0145256
1981,4998;0,0144017
1982,4640;0,0142403
1983,4282;0,0140531
1984,3925;0,0138956
1985,3567;0,01384
1986,3209;0,0139266
1987,2852;0,0141348
1988,2494;0,0143964
1989,2136;0,0146397
1990,1779;0,0148313
1991,1421;0,0149807
1992,1063;0,0151096
1993,0706;0,0152122
1994,0348;0,0152487
1994,9990;0,0151752
1995,9633;0,0149841
1996,9275;0,0147186
1997,8917;0,0144516
1998,8560;0,0142458
1999,8202;0,0141224
2000,7844;0,0140663
2001,7487;0,0140589
2002,7129;0,0141092
2003,6771;0,0142531
2004,6414;0,01452
2005,6056;0,0148933
2006,5698;0,0153003
2007,5341;0,0156452
2008,4983;0,0158621
2009,4625;0,0159442
2010,4268;0,0159304
2011,3910;0,0158669
2012,3552;0,0157801
2013,3195;0,0156742
2014,2837;0,0155473
2015,2479;0,0154077
2016,2122;0,0152799
2017,1764;0,0151981
2018,1406;0,0151941
2019,1049;0,0152858
2020,0691;0,0154682
2021,0333;0,0157088
2021,9976;0,0159511
2022,9618;0,0161276
2023,9260;0,0161823
2024,8903;0,0160898
2025,8545;0,0158625
2026,8187;0,0155434
2027,7830;0,0151945
2028,7472;0,0148888
2029,7114;0,0147044
2030,6757;0,0147069
2031,6399;0,0149184
2032,6041;0,0152877
2033,5684;0,0156939
2034,5326;0,0159955
2035,4968;0,0160999
2036,4611;0,0160051
2037,4253;0,015785
2038,3895;0,0155339
2039,3538;0,0153155
2040,3180;0,0151441
2041,2822;0,0150028
2042,2465;0,0148744
2043,2107;0,0147575
2044,1749;0,0146584
2045,1392;0,0145748
2046,1034;0,0144924
2047,0676;0,014402
2048,0320;0,0143206
2048,9961;0,0142887
2049,9604;0,0143414
2050,9246;0,0144747
2051,8889;0,0146356
2052,8530;0,0147448
2053,8174;0,014739
2054,7815;0,0146085
2055,7458;0,0144102
2056,7100;0,0142394
2057,6743;0,0141774
2058,6384;0,0142465
2059,6028;0,0144022
2060,5669;0,0145637
2061,5313;0,0146587
2062,4954;0,0146564
2063,4597;0,0145704
2064,4238;0,0144352
2065,3882;0,0142783
2066,3523;0,0141075
2067,3167;0,0139209
2068,2808;0,0137257
2069,2451;0,0135473
2070,2092;0,0134199
2071,1736;0,0133667
2072,1377;0,0133834
2073,1021;0,0134407
2074,0662;0,0135025
2075,0305;0,0135494
2075,9946;0,0135881
2076,9590;0,0136424
2077,9231;0,0137318
2078,8875;0,0138516
2079,8516;0,0139685
2080,8159;0,0140347
2081,7800;0,0140116
2082,7444;0,013892
2083,7085;0,0137081
2084,6729;0,0135224
2085,6370;0,0134019
2086,6013;0,0133891
2087,5654;0,0134821
2088,5298;0,0136343
2089,4939;0,0137766
2090,4583;0,013852
2091,4224;0,0138443
2092,3867;0,0137842
2093,3508;0,0137298
2094,3152;0,0137312
2095,2793;0,0137991
2096,2437;0,0138985
2097,2078;0,0139709
2098,1721;0,013971
2099,1362;0,0138936
2100,1006;0,0137748
2101,0647;0,0136666
2102,0291;0,0136136
2102,9932;0,0136303
2103,9575;0,0137022
2104,9216;0,0137986
2105,8860;0,0138887
2106,8501;0,0139519
2107,8145;0,0139791
2108,7786;0,0139707
2109,7429;0,0139342
2110,7070;0,0138842
2111,6714;0,0138396
2112,6355;0,0138171
2113,5999;0,0138215
2114,5640;0,0138415
2115,5283;0,0138558
2116,4924;0,0138484
2117,4568;0,0138236
2118,4209;0,0138081
2119,3853;0,0138358
2120,3494;0,0139231
2121,3137;0,0140529
2122,2778;0,0141805
2123,2422;0,0142606
2124,2063;0,0142765
2125,1707;0,0142515
2126,1348;0,0142321
2127,0991;0,0142548
2128,0632;0,0143221
2129,0276;0,0144057
2129,9917;0,0144748
2130,9561;0,0145284
2131,9202;0,014606
2132,8845;0,0147648
2133,8486;0,0150358
2134,8130;0,0153875
2135,7771;0,0157279
2136,7415;0,015948
2137,7056;0,0159817
2138,6699;0,0158416
2139,6340;0,0156134
2140,5984;0,0154163
2141,5625;0,015354
2142,5269;0,0154785
2143,4910;0,0157805
2144,4553;0,0162025
2145,4194;0,0166652
2146,3838;0,0170911
2147,3479;0,0174194
2148,3123;0,0176106
2149,2764;0,0176501
2150,2407;0,0175566
2151,2048;0,0173925
2152,1692;0,0172651
2153,1333;0,0173048
2154,0977;0,0176203
2155,0618;0,0182424
2156,0261;0,0190794
2156,9902;0,0199144
2157,9546;0,0204803
2158,9187;0,0206008
2159,8831;0,0203003
2160,8472;0,0197693
2161,8115;0,0192213
2162,7756;0,0187747
2163,7400;0,0184355
2164,7041;0,0181503
2165,6685;0,0178755
2166,6326;0,0176162
2167,5969;0,0174205
2168,5610;0,0173399
2169,5254;0,0173888
2170,4895;0,0175293
2171,4539;0,0176876
2172,4180;0,0177873
2173,3823;0,0177815
2174,3464;0,0176667
2175,3108;0,017476
2176,2749;0,0172599
2177,2393;0,017068
2178,2034;0,0169394
2179,1677;0,0168981
2180,1318;0,0169481
2181,0962;0,0170656
2182,0603;0,017194
2183,0247;0,0172537
2183,9888;0,0171698
2184,9531;0,0169066
2185,9172;0,0164931
2186,8816;0,0160208
2187,8457;0,0156119
2188,8101;0,0153685
2189,7742;0,0153264
2190,7385;0,0154403
2191,7026;0,0156108
2192,6670;0,0157392
2193,6311;0,0157761
2194,5955;0,0157349
2195,5596;0,0156655
2196,5239;0,0156092
2197,4880;0,0155714
2198,4524;0,0155276
2199,4165;0,0154544
2200,3809;0,0153545
2201,3450;0,0152559
2202,3093;0,0151864
2203,2734;0,0151487
2204,2378;0,015119
2205,2019;0,0150698
2206,1663;0,0149966
2207,1304;0,0149256
2208,0947;0,0148944
2209,0588;0,0149232
2210,0232;0,0149979
2210,9873;0,0150773
2211,9517;0,0151171
2212,9158;0,0150925
2213,8801;0,0150049
2214,8442;0,0148746
2215,8086;0,0147267
2216,7727;0,0145821
2217,7371;0,0144549
2218,7012;0,0143539
2219,6655;0,0142834
2220,6296;0,014244
2221,5940;0,0142334
2222,5581;0,0142482
2223,5225;0,014285
2224,4866;0,0143384
2225,4509;0,0143986
2226,4150;0,014452
2227,3794;0,0144843
2228,3435;0,0144885
2229,3079;0,0144672
2230,2720;0,0144313
2231,2363;0,0143931
2232,2004;0,0143609
2233,1648;0,0143378
2234,1289;0,014325
2235,0933;0,0143252
2236,0574;0,014342
2237,0217;0,0143753
2237,9858;0,0144159
2238,9502;0,0144459
2239,9143;0,0144437
2240,8787;0,0143941
2241,8428;0,0142954
2242,8071;0,0141618
2243,7712;0,0140179
2244,7356;0,0138908
2245,6997;0,0137998
2246,6641;0,0137516
2247,6282;0,013739
2248,5925;0,0137451
2249,5566;0,013752
2250,5210;0,0137493
2251,4851;0,0137395
2252,4495;0,0137363
2253,4136;0,0137564
2254,3779;0,0138077
2255,3420;0,013883
2256,3064;0,0139614
2257,2705;0,0140177
2258,2349;0,014034
2259,1990;0,0140058
2260,1633;0,0139414
2261,1274;0,0138557
2262,0918;0,0137644
2263,0559;0,0136795
2264,0203;0,0136087
2264,9844;0,0135548
2265,9487;0,0135163
2266,9128;0,0134879
2267,8772;0,0134635
2268,8413;0,01344
2269,8057;0,0134208
2270,7698;0,0134145
2271,7341;0,0134297
2272,6982;0,0134678
2273,6626;0,0135196
2274,6267;0,0135676
2275,5911;0,0135934
2276,5552;0,0135867
2277,5195;0,0135482
2278,4836;0,0134885
2279,4480;0,0134221
2280,4121;0,0133625
2281,3765;0,0133198
2282,3406;0,0133017
2283,3049;0,013314
2284,2690;0,0133593
2285,2334;0,0134341
2286,1975;0,0135283
2287,1619;0,013628
2288,1260;0,0137217
2289,0903;0,0138053
2290,0544;0,0138838
2291,0188;0,0139663
2291,9829;0,01406
2292,9473;0,0141662
2293,9114;0,0142814
2294,8757;0,0144015
2295,8398;0,0145245
2296,8042;0,0146487
2297,7683;0,0147679
2298,7327;0,0148685
2299,6968;0,0149334
2300,6611;0,0149515
2301,6252;0,0149276
2302,5896;0,0148866
2303,5537;0,0148658
2304,5181;0,0149008
2305,4822;0,0150089
2306,4465;0,0151793
2307,4106;0,0153744
2308,3750;0,0155432
2309,3391;0,0156408
2310,3035;0,0156462
2311,2676;0,015568
2312,2319;0,0154373
2313,1960;0,0152896
2314,1604;0,0151476
2315,1245;0,015015
2316,0889;0,0148827
2317,0530;0,0147431
2318,0173;0,0146003
2318,9814;0,0144728
2319,9458;0,0143847
2320,9099;0,014354
2321,8743;0,0143837
2322,8384;0,0144595
2323,8027;0,0145526
2324,7668;0,0146247
2325,7312;0,0146368
2326,6953;0,0145622
2327,6597;0,0143982
2328,6238;0,0141721
2329,5881;0,0139378
2330,5522;0,0137593
2331,5166;0,0136829
2332,4807;0,0137108
2333,4451;0,0137973
2334,4092;0,0138721
2335,3735;0,0138794
2336,3376;0,0138105
2337,3020;0,0137144
2338,2661;0,0136741
2339,2305;0,0137586
2340,1946;0,0139715
2341,1589;0,0142298
2342,1230;0,014396
2343,0874;0,0143803
2344,0515;0,0142622
2345,0159;0,0142642
2345,9800;0,0145346
2346,9443;0,0150041
2347,9084;0,0154648
2348,8728;0,0157271
2349,8369;0,0157178
2350,8013;0,0154987
2351,7654;0,0152247
2352,7297;0,0150545
2353,6938;0,0150545
2354,6582;0,0151761
2355,6223;0,0153274
2356,5867;0,0154427
2357,5508;0,0154879
2358,5151;0,0154458
2359,4792;0,0153252
2360,4436;0,0151674
2361,4077;0,015019
2362,3721;0,0148924
2363,3362;0,0147613
2364,3005;0,0145944
2365,2646;0,0143877
2366,2290;0,0141643
2367,1931;0,013949
2368,1575;0,0137486
2369,1216;0,0135546
2370,0859;0,01336
2371,0500;0,0131715
2372,0144;0,0130096
2372,9785;0,0128998
2373,9429;0,0128622
2374,9070;0,012906
2375,8713;0,0130272
2376,8354;0,0132108
2377,7998;0,0134321
2378,7639;0,01366
2379,7283;0,0138606
2380,6924;0,0140032
2381,6567;0,0140662
2382,6208;0,0140434
2383,5852;0,0139445
2384,5493;0,0137929
2385,5137;0,013618
2386,4778;0,0134479
2387,4421;0,0133031
2388,4063;0,0131939
2389,3706;0,0131206
2390,3347;0,0130765
2391,2991;0,0130517
2392,2632;0,0130371
2393,2275;0,0130274
2394,1917;0,0130226
2395,1560;0,013026
2396,1201;0,0130404
2397,0845;0,0130646
2398,0486;0,0130936
2399,0129;0,0131198
2399,9771;0,0131387
2400,9414;0,0131514
2401,9055;0,0131632
2402,8699;0,0131797
2403,8340;0,0132027
2404,7983;0,0132292
2405,7625;0,0132535
2406,7268;0,013271
2407,6909;0,0132805
2408,6553;0,0132845
2409,6194;0,0132873
2410,5837;0,0132933
2411,5479;0,013306
2412,5122;0,0133272
2413,4763;0,0133554
2414,4407;0,0133855
2415,4048;0,0134094
2416,3691;0,0134193
2417,3333;0,0134125
2418,2976;0,013393
2419,2617;0,0133712
2420,2261;0,0133583
2421,1902;0,0133609
2422,1545;0,0133785
2423,1187;0,0134045
2424,0830;0,0134311
2425,0471;0,0134532
2426,0115;0,0134698
2426,9756;0,0134827
2427,9399;0,0134943
2428,9041;0,0135059
2429,8684;0,013518
2430,8325;0,0135313
2431,7969;0,0135461
2432,7610;0,0135619
2433,7253;0,0135762
2434,6895;0,0135847
2435,6538;0,0135839
2436,6179;0,0135742
2437,5823;0,0135609
2438,5464;0,0135521
2439,5107;0,0135543
2440,4749;0,0135684
2441,4392;0,0135889
2442,4033;0,013608
2443,3677;0,0136209
2444,3318;0,0136296
2445,2961;0,0136411
2446,2603;0,013663
2447,2246;0,0136977
2448,1887;0,0137394
2449,1531;0,0137778
2450,1172;0,0138032
2451,0815;0,0138125
2452,0457;0,0138098
2453,0100;0,0138035
2453,9741;0,0138002
2454,9385;0,013801
2455,9026;0,0138019
2456,8669;0,0137975
2457,8311;0,0137854
2458,7954;0,0137688
2459,7595;0,0137542
2460,7239;0,0137484
2461,6880;0,0137549
2462,6523;0,0137738
2463,6165;0,0138024
2464,5808;0,0138378
2465,5449;0,0138763
2466,5093;0,0139125
2467,4734;0,0139393
2468,4377;0,01395
2469,4019;0,0139421
2470,3662;0,0139202
2471,3303;0,0138948
2472,2947;0,0138776
2473,2588;0,0138756
2474,2231;0,0138883
2475,1873;0,0139103
2476,1516;0,0139355
2477,1157;0,0139608
2478,0801;0,0139865
2479,0442;0,0140129
2480,0085;0,0140379
2480,9727;0,014057
2481,9370;0,0140665
2482,9011;0,0140658
2483,8655;0,0140585
2484,8296;0,0140499
2485,7939;0,0140446
2486,7581;0,0140446
2487,7224;0,0140515
2488,6865;0,0140669
2489,6509;0,0140922
2490,6150;0,0141256
2491,5793;0,0141605
2492,5435;0,0141862
2493,5078;0,0141929
2494,4719;0,0141784
2495,4363;0,0141501
2496,4004;0,0141212
2497,3647;0,0141038
2498,3289;0,0141012
2499,2932;0,0141074
2500,2573;0,0141123
2501,2217;0,0141095
2502,1858;0,0141017
2503,1501;0,0140976
2504,1143;0,0141056
2505,0786;0,0141275
2506,0427;0,0141576
2507,0071;0,0141887
2507,9712;0,0142182
2508,9355;0,0142506
2509,8997;0,014292
2510,8640;0,0143428
2511,8281;0,014393
2512,7925;0,014426
2513,7566;0,0144285
2514,7209;0,014399
2515,6851;0,0143506
2516,6494;0,0143038
2517,6135;0,0142752
2518,5779;0,0142699
2519,5420;0,0142808
2520,5063;0,0142951
2521,4705;0,0143027
2522,4348;0,0143015
2523,3989;0,0142971
2524,3633;0,0142977
2525,3274;0,0143086
2526,2917;0,014329
2527,2559;0,0143526
2528,2202;0,0143708
2529,1843;0,0143763
2530,1487;0,0143662
2531,1128;0,0143418
2532,0771;0,0143075
2533,0413;0,0142701
2534,0056;0,0142374
2534,9697;0,0142187
2535,9341;0,0142226
2536,8982;0,0142547
2537,8625;0,0143124
2538,8267;0,0143837
2539,7910;0,0144493
2540,7551;0,0144897
2541,7195;0,0144931
2542,6836;0,0144606
2543,6479;0,0144046
2544,6121;0,0143427
2545,5764;0,0142912
2546,5405;0,0142598
2547,5049;0,0142519
2548,4690;0,0142658
2549,4333;0,0142966
2550,3975;0,0143368
2551,3618;0,0143765
2552,3259;0,014405
2553,2903;0,0144143
2554,2544;0,0144031
2555,2188;0,0143782
2556,1829;0,0143527
2557,1472;0,0143388
2558,1113;0,0143423
2559,0757;0,0143588
2560,0398;0,0143769
2561,0042;0,014385
2561,9683;0,0143783
2562,9326;0,0143616
2563,8967;0,0143454
2564,8611;0,0143385
2565,8252;0,0143433
2566,7896;0,0143552
2567,7537;0,0143674
2568,7180;0,014377
2569,6821;0,0143863
2570,6465;0,0144006
2571,6106;0,014423
2572,5750;0,0144511
2573,5391;0,0144777
2574,5034;0,0144944
2575,4675;0,0144955
2576,4319;0,0144804
2577,3960;0,0144534
2578,3604;0,0144219
2579,3245;0,0143943
2580,2888;0,0143764
2581,2529;0,0143698
2582,2173;0,0143706
2583,1814;0,0143722
2584,1458;0,0143693
2585,1099;0,0143621
2586,0742;0,0143567
2587,0383;0,0143615
2588,0027;0,0143813
2588,9668;0,0144139
2589,9312;0,0144512
2590,8953;0,0144832
2591,8596;0,0145039
2592,8237;0,0145135
2593,7881;0,0145164
2594,7522;0,0145181
2595,7166;0,0145217
2596,6807;0,0145269
2597,6450;0,0145318
2598,6091;0,0145343
2599,5735;0,0145334
2600,5376;0,0145296
2601,5020;0,0145244
2602,4661;0,0145198
2603,4304;0,0145181
2604,3945;0,0145214
2605,3589;0,0145314
2606,3230;0,0145481
2607,2874;0,0145698
2608,2515;0,0145937
2609,2158;0,0146169
2610,1799;0,0146375
2611,1443;0,0146548
2612,1084;0,0146682
2613,0728;0,0146767
2614,0369;0,0146793
2615,0012;0,0146769
2615,9653;0,0146732
2616,9297;0,0146753
2617,8938;0,0146897
2618,8582;0,0147183
2619,8223;0,0147554
2620,7866;0,0147892
2621,7507;0,0148073
2622,7151;0,0148035
2623,6792;0,0147809
2624,6436;0,0147506
2625,6077;0,0147264
2626,5720;0,0147176
2627,5361;0,0147268
2628,5005;0,0147496
2629,4646;0,0147791
2630,4290;0,0148088
2631,3931;0,0148345
2632,3574;0,0148544
2633,3215;0,0148677
2634,2859;0,0148742
2635,2500;0,0148746
2636,2144;0,0148708
2637,1785;0,0148656
2638,1428;0,014862
2639,1069;0,0148625
2640,0713;0,0148685
2641,0354;0,0148806
2641,9998;0,0148992
2642,9639;0,014924
2643,9282;0,0149536
2644,8923;0,0149851
2645,8567;0,0150146
2646,8208;0,0150385
2647,7852;0,0150557
2648,7493;0,0150678
2649,7136;0,0150783
2650,6777;0,0150901
2651,6421;0,0151041
2652,6062;0,0151186
2653,5706;0,0151313
2654,5347;0,0151411
2655,4990;0,0151499
2656,4631;0,0151615
2657,4275;0,0151793
2658,3916;0,0152047
2659,3560;0,0152357
2660,3201;0,0152689
2661,2844;0,0153009
2662,2485;0,0153301
2663,2129;0,0153568
2664,1770;0,0153814
2665,1414;0,0154035
2666,1055;0,0154215
2667,0698;0,015434
2668,0339;0,0154418
2668,9983;0,0154479
2669,9624;0,0154561
2670,9268;0,0154686
2671,8909;0,0154848
2672,8552;0,0155019
2673,8193;0,015518
2674,7837;0,0155336
2675,7478;0,0155511
2676,7122;0,0155719
2677,6763;0,0155942
2678,6406;0,0156142
2679,6047;0,0156291
2680,5691;0,015641
2681,5332;0,0156564
2682,4976;0,015682
2683,4617;0,0157186
2684,4260;0,0157596
2685,3901;0,0157944
2686,3545;0,0158154
2687,3186;0,0158232
2688,2830;0,0158262
2689,2471;0,0158348
2690,2114;0,0158546
2691,1755;0,0158839
2692,1399;0,0159162
2693,1040;0,0159451
2694,0684;0,0159689
2695,0325;0,0159898
2695,9968;0,0160114
2696,9609;0,0160354
2697,9253;0,0160605
2698,8894;0,016084
2699,8538;0,0161039
2700,8179;0,0161202
2701,7822;0,0161345
2702,7463;0,0161498
2703,7107;0,0161692
2704,6748;0,0161952
2705,6392;0,0162289
2706,6033;0,016269
2707,5676;0,0163116
2708,5317;0,0163512
2709,4961;0,0163832
2710,4602;0,0164056
2711,4246;0,0164203
2712,3887;0,0164317
2713,3530;0,016444
2714,3171;0,016459
2715,2815;0,0164757
2716,2456;0,0164922
2717,2100;0,0165077
2718,1741;0,0165243
2719,1384;0,0165457
2720,1025;0,0165742
2721,0669;0,016609
2722,0310;0,0166454
2722,9954;0,0166774
2723,9595;0,0167013
2724,9238;0,0167172
2725,8879;0,0167281
2726,8523;0,0167375
2727,8164;0,016748
2728,7808;0,0167611
2729,7449;0,0167786
2730,7092;0,0168032
2731,6733;0,0168364
2732,6377;0,0168759
2733,6018;0,016915
2734,5662;0,0169452
2735,5303;0,0169612
2736,4946;0,0169648
2737,4587;0,0169641
2738,4231;0,0169686
2739,3872;0,0169839
2740,3516;0,0170084
2741,3157;0,017036
2742,2800;0,0170601
2743,2441;0,0170779
2744,2085;0,0170903
2745,1726;0,0171
2746,1370;0,0171089
2747,1011;0,0171175
2748,0654;0,0171266
2749,0295;0,0171381
2749,9939;0,0171544
2750,9580;0,0171768
2751,9224;0,0172032
2752,8865;0,0172292
2753,8508;0,0172508
2754,8149;0,0172669
2755,7793;0,0172811
2756,7434;0,0172993
2757,7078;0,0173265
2758,6719;0,0173635
2759,6362;0,0174067
2760,6003;0,0174502
2761,5647;0,0174888
2762,5288;0,0175201
2763,4932;0,0175449
2764,4573;0,0175662
2765,4216;0,0175874
2766,3857;0,0176116
2767,3501;0,0176409
2768,3142;0,0176758
2769,2786;0,017714
2770,2427;0,0177504
2771,2070;0,0177782
2772,1711;0,0177928
2773,1355;0,0177945
2774,0996;0,0177906
2775,0640;0,0177921
2776,0281;0,0178089
2776,9924;0,0178442
2777,9565;0,0178934
2778,9209;0,0179471
2779,8850;0,0179969
2780,8494;0,0180394
2781,8135;0,0180771
2782,7778;0,0181147
2783,7419;0,0181551
2784,7063;0,0181974
2785,6704;0,0182376
2786,6348;0,018272
2787,5989;0,0183
2788,5632;0,0183248
2789,5273;0,0183523
2790,4917;0,0183885
2791,4558;0,0184369
2792,4202;0,0184973
2793,3843;0,0185655
2794,3486;0,0186348
2795,3127;0,0186986
2796,2771;0,0187528
2797,2412;0,0187977
2798,2056;0,0188373
2799,1697;0,0188775
2800,1340;0,0189232
2801,0981;0,0189766
2802,0625;0,0190371
2803,0266;0,0191029
2803,9910;0,0191717
2804,9551;0,0192416
2805,9194;0,0193107
2806,8835;0,0193775
2807,8479;0,0194416
2808,8120;0,0195045
2809,7764;0,0195697
2810,7405;0,0196407
2811,7048;0,0197198
2812,6689;0,0198058
2813,6333;0,0198957
2814,5974;0,019986
2815,5618;0,0200747
2816,5259;0,0201627
2817,4902;0,0202522
2818,4543;0,0203459
2819,4187;0,0204452
2820,3828;0,0205502
2821,3472;0,0206599
2822,3113;0,0207733
2823,2756;0,0208894
2824,2397;0,021008
2825,2041;0,0211299
2826,1682;0,0212571
2827,1326;0,0213923
2828,0967;0,0215385
2829,0610;0,0216966
2830,0251;0,0218653
2830,9895;0,0220407
2831,9536;0,0222178
2832,9180;0,0223931
2833,8821;0,0225657
2834,8464;0,0227374
2835,8105;0,0229114
2836,7749;0,0230909
2837,7390;0,0232789
2838,7034;0,0234779
2839,6675;0,0236908
2840,6318;0,0239205
2841,5959;0,0241686
2842,5603;0,0244345
2843,5244;0,0247148
2844,4888;0,025005
2845,4529;0,0253001
2846,4172;0,0255948
2847,3813;0,025882
2848,3457;0,0261503
2849,3098;0,0263848
2850,2742;0,0265704
2851,2383;0,0266979
2852,2026;0,026769
2853,1667;0,0267972
2854,1311;0,0268035
2855,0952;0,0268082
2856,0596;0,0268244
2857,0237;0,0268558
2857,9880;0,0268998
2858,9521;0,0269526
2859,9165;0,0270134
2860,8806;0,0270845
2861,8450;0,0271694
2862,8091;0,0272694
2863,7734;0,027383
2864,7375;0,0275071
2865,7019;0,0276392
2866,6660;0,0277776
2867,6304;0,02792
2868,5945;0,0280618
2869,5588;0,0281949
2870,5229;0,0283106
2871,4873;0,0284025
2872,4514;0,0284706
2873,4158;0,028521
2874,3799;0,0285634
2875,3442;0,0286066
2876,3083;0,0286553
2877,2727;0,0287095
2878,2368;0,0287661
2879,2012;0,0288218
2880,1653;0,0288748
2881,1296;0,0289253
2882,0938;0,0289752
2883,0581;0,0290262
2884,0222;0,0290793
2884,9866;0,0291343
2885,9507;0,0291894
2886,9150;0,0292428
2887,8792;0,0292935
2888,8435;0,0293423
2889,8076;0,0293922
2890,7720;0,0294467
2891,7361;0,0295079
2892,7004;0,0295748
2893,6646;0,0296433
2894,6289;0,0297082
2895,5930;0,0297663
2896,5574;0,0298177
2897,5215;0,0298657
2898,4858;0,029914
2899,4500;0,029964
2900,4143;0,0300143
2901,3784;0,0300619
2902,3428;0,0301061
2903,3069;0,0301499
2904,2712;0,0301996
2905,2354;0,0302619
2906,1997;0,0303405
2907,1638;0,0304351
2908,1282;0,030543
2909,0923;0,0306623
2910,0566;0,0307934
2911,0208;0,0309385
2911,9851;0,0310982
2912,9492;0,0312686
2913,9136;0,0314407
2914,8777;0,0316029
2915,8420;0,0317442
2916,8062;0,0318572
2917,7705;0,0319377
2918,7346;0,0319841
2919,6990;0,031996
2920,6631;0,0319741
2921,6274;0,0319219
2922,5916;0,0318452
2923,5559;0,0317511
2924,5200;0,0316453
2925,4844;0,0315306
2926,4485;0,0314079
2927,4128;0,0312783
2928,3770;0,0311455
2929,3413;0,031015
2930,3054;0,030891
2931,2698;0,0307734
2932,2339;0,0306573
2933,1982;0,0305366
2934,1624;0,0304082
2935,1267;0,0302737
2936,0908;0,0301374
2937,0552;0,0300022
2938,0193;0,0298655
2938,9836;0,0297208
2939,9478;0,0295613
2940,9121;0,0293843
2941,8762;0,0291929
2942,8406;0,0289939
2943,8047;0,0287936
2944,7690;0,0285958
2945,7332;0,0284018
2946,6975;0,0282127
2947,6616;0,0280312
2948,6260;0,027861
2949,5901;0,0277058
2950,5544;0,027567
2951,5186;0,0274435
2952,4829;0,0273326
2953,4470;0,0272303
2954,4114;0,0271323
2955,3755;0,0270337
2956,3398;0,0269297
2957,3040;0,0268172
2958,2683;0,0266959
2959,2324;0,0265695
2960,1968;0,026444
2961,1609;0,0263254
2962,1252;0,0262161
2963,0894;0,026114
2964,0537;0,0260127
2965,0178;0,0259043
2965,9822;0,0257825
2966,9463;0,0256436
2967,9106;0,0254871
2968,8748;0,0253145
2969,8391;0,0251292
2970,8032;0,0249373
2971,7676;0,0247479
2972,7317;0,0245715
2973,6960;0,0244162
2974,6602;0,0242836
2975,6245;0,0241679
2976,5886;0,0240585
2977,5530;0,0239465
2978,5171;0,0238298
2979,4814;0,0237133
2980,4456;0,0236047
2981,4099;0,0235083
2982,3740;0,0234221
2983,3384;0,0233405
2984,3025;0,0232598
2985,2668;0,0231821
2986,2310;0,0231139
2987,1953;0,0230613
2988,1594;0,0230244
2989,1238;0,0229969
2990,0879;0,0229697
2991,0522;0,0229368
2992,0164;0,0228985
2992,9807;0,0228603
2993,9448;0,0228285
2994,9092;0,0228059
2995,8733;0,0227916
2996,8376;0,0227833
2997,8018;0,0227801
2998,7661;0,0227834
2999,7302;0,0227955
3000,6946;0,0228169
3001,6587;0,0228449
3002,6230;0,0228755
3003,5872;0,0229053
3004,5515;0,0229346
3005,5156;0,0229668
3006,4800;0,0230055
3007,4441;0,0230512
3008,4084;0,0230989
3009,3726;0,0231398
3010,3369;0,0231658
3011,3010;0,0231745
3012,2654;0,0231715
3013,2295;0,0231685
3014,1938;0,0231774
3015,1580;0,0232049
3016,1223;0,0232496
3017,0864;0,0233046
3018,0508;0,023362
3019,0149;0,0234175
3019,9792;0,0234714
3020,9434;0,0235272
3021,9077;0,0235882
3022,8718;0,0236552
3023,8362;0,0237265
3024,8003;0,0237992
3025,7646;0,023871
3026,7288;0,0239411
3027,6931;0,024009
3028,6572;0,0240743
3029,6216;0,0241352
3030,5857;0,0241898
3031,5500;0,0242373
3032,5142;0,0242796
3033,4785;0,0243216
3034,4426;0,0243696
3035,4070;0,024429
3036,3711;0,0245019
3037,3354;0,0245855
3038,2996;0,0246734
3039,2639;0,024758
3040,2280;0,0248348
3041,1924;0,0249039
3042,1565;0,0249709
3043,1208;0,0250432
3044,0850;0,0251268
3045,0493;0,0252224
3046,0134;0,0253252
3046,9778;0,0254275
3047,9419;0,0255228
3048,9063;0,0256092
3049,8704;0,0256901
3050,8347;0,0257725
3051,7988;0,0258618
3052,7632;0,025959
3053,7273;0,0260598
3054,6917;0,0261575
3055,6558;0,0262477
3056,6201;0,0263316
3057,5842;0,0264158
3058,5486;0,0265094
3059,5127;0,026618
3060,4771;0,0267406
3061,4412;0,0268695
3062,4055;0,026993
3063,3696;0,0271007
3064,3340;0,0271877
3065,2981;0,0272564
3066,2625;0,0273152
3067,2266;0,0273748
3068,1909;0,0274434
3069,1550;0,0275243
3070,1194;0,0276158
3071,0835;0,0277136
3072,0479;0,0278138
3073,0120;0,0279148
3073,9763;0,0280169
3074,9404;0,0281205
3075,9048;0,0282242
3076,8689;0,0283251
3077,8333;0,0284196
3078,7974;0,0285067
3079,7617;0,0285879
3080,7258;0,0286672
3081,6902;0,0287484
3082,6543;0,0288341
3083,6187;0,028925
3084,5828;0,0290207
3085,5471;0,0291202
3086,5112;0,0292219
3087,4756;0,0293236
3088,4397;0,0294236
3089,4041;0,0295211
3090,3682;0,029618
3091,3325;0,0297174
3092,2966;0,0298221
3093,2610;0,0299326
3094,2251;0,0300462
3095,1895;0,0301588
3096,1536;0,030267
3097,1179;0,03037
3098,0820;0,0304692
3099,0464;0,0305665
3100,0105;0,0306629
3100,9749;0,0307587
3101,9390;0,0308542
3102,9033;0,0309504
3103,8674;0,031049
3104,8318;0,031151
3105,7959;0,0312556
3106,7603;0,0313613
3107,7244;0,031467
3108,6887;0,0315738
3109,6528;0,0316844
3110,6172;0,0318013
3111,5813;0,0319243
3112,5457;0,0320504
3113,5098;0,0321753
3114,4741;0,0322968
3115,4382;0,0324158
3116,4026;0,0325349
3117,3667;0,0326551
3118,3311;0,0327743
3119,2952;0,0328884
3120,2595;0,0329949
3121,2236;0,0330963
3122,1880;0,0331991
3123,1521;0,0333103
3124,1165;0,033432
3125,0806;0,0335604
3126,0449;0,033688
3127,0090;0,0338083
3127,9734;0,0339202
3128,9375;0,0340273
3129,9019;0,0341356
3130,8660;0,0342499
3131,8303;0,034372
3132,7944;0,0345
3133,7588;0,0346298
3134,7229;0,0347564
3135,6873;0,034875
3136,6514;0,0349836
3137,6157;0,0350846
3138,5798;0,0351859
3139,5442;0,0352984
3140,5083;0,0354319
3141,4727;0,0355901
3142,4368;0,0357688
3143,4011;0,0359572
3144,3652;0,0361425
3145,3296;0,0363139
3146,2937;0,0364661
3147,2581;0,0365993
3148,2222;0,0367178
3149,1865;0,0368284
3150,1506;0,0369375
3151,1150;0,0370505
3152,0791;0,0371708
3153,0435;0,0372995
3154,0076;0,0374362
3154,9719;0,03758
3155,9360;0,0377295
3156,9004;0,0378823
3157,8645;0,0380348
3158,8289;0,0381832
3159,7930;0,0383247
3160,7573;0,0384595
3161,7214;0,038592
3162,6858;0,0387287
3163,6499;0,0388754
3164,6143;0,0390336
3165,5784;0,0391997
3166,5427;0,0393661
3167,5068;0,0395263
3168,4712;0,0396776
3169,4353;0,0397693
3170,3997;0,0399155
3171,3638;0,0400675
3172,3281;0,0402255
3173,2922;0,0403849
3174,2566;0,04054
3175,2207;0,0406873
3176,1851;0,0408281
3177,1492;0,0409664
3178,1135;0,041106
3179,0776;0,0412471
3180,0420;0,0413874
3181,0061;0,0415241
3181,9705;0,0416573
3182,9346;0,0417906
3183,8989;0,0419288
3184,8630;0,042075
3185,8274;0,0422281
3186,7915;0,0423843
3187,7559;0,0425389
3188,7200;0,0426893
3189,6843;0,0428357
3190,6484;0,0429798
3191,6128;0,0431234
3192,5769;0,0432671
3193,5413;0,04341
3194,5054;0,043551
3195,4697;0,0436887
3196,4338;0,0438226
3197,3982;0,0439528
3198,3623;0,0440812
3199,3267;0,0442104
3200,2908;0,0443438
3201,2551;0,0444834
3202,2192;0,0446289
3203,1836;0,0447771
3204,1477;0,0449243
3205,1121;0,0450678
3206,0762;0,0452083
3207,0405;0,0453477
3208,0046;0,0454876
3208,9690;0,045626
3209,9331;0,0457589
3210,8975;0,0458829
3211,8616;0,0459986
3212,8259;0,0461118
3213,7900;0,0462297
3214,7544;0,0463568
3215,7185;0,0464913
3216,6829;0,0466262
3217,6470;0,0467537
3218,6113;0,0468697
3219,5754;0,0469753
3220,5398;0,0470763
3221,5039;0,0471797
3222,4683;0,0472918
3223,4324;0,0474169
3224,3967;0,0475567
3225,3608;0,0477096
3226,3252;0,0478695
3227,2893;0,0480269
3228,2537;0,0481713
3229,2178;0,0482962
3230,1821;0,0484012
3231,1462;0,0484917
3232,1106;0,0485757
3233,0747;0,0486601
3234,0391;0,04875
3235,0032;0,0488499
3235,9675;0,048965
3236,9316;0,0491
3237,8960;0,0492558
3238,8601;0,0494257
3239,8245;0,0495955
3240,7886;0,0497482
3241,7529;0,0498708
3242,7170;0,0499608
3243,6814;0,0500281
3244,6455;0,050091
3245,6099;0,0501691
3246,5740;0,0502753
3247,5383;0,0504107
3248,5024;0,0505652
3249,4668;0,0507226
3250,4309;0,0508677
3251,3953;0,0509934
3252,3594;0,0511032
3253,3237;0,0512091
3254,2878;0,0513253
3255,2522;0,0514599
3256,2163;0,0516112
3257,1807;0,0517681
3258,1448;0,0519164
3259,1091;0,0520458
3260,0732;0,0521544
3261,0376;0,0522488
3262,0017;0,0523406
3262,9661;0,0524415
3263,9302;0,0525577
3264,8945;0,0526885
3265,8586;0,0528266
3266,8230;0,0529617
3267,7871;0,0530852
3268,7515;0,0531926
3269,7156;0,0532841
3270,6799;0,0533622
3271,6440;0,0534289
3272,6084;0,0534855
3273,5725;0,0535338
3274,5369;0,0535787
3275,5010;0,053628
3276,4653;0,0536881
3277,4294;0,0537599
3278,3938;0,0538367
3279,3579;0,0539077
3280,3223;0,0539647
3281,2864;0,0540072
3282,2507;0,054042
3283,2148;0,0540775
3284,1792;0,0541172
3285,1433;0,0541571
3286,1077;0,05419
3287,0718;0,054212
3288,0361;0,0542262
3289,0002;0,0542408
3289,9646;0,0542618
3290,9287;0,0542881
3291,8931;0,0543116
3292,8572;0,0543232
3293,8215;0,0543193
3294,7856;0,0543049
3295,7500;0,0542903
3296,7141;0,0542853
3297,6785;0,0542951
3298,6426;0,0543203
3299,6069;0,0543585
3300,5710;0,0544062
3301,5354;0,0544589
3302,4995;0,0545091
3303,4639;0,0545473
3304,4280;0,0545646
3305,3923;0,0545575
3306,3564;0,0545313
3307,3208;0,0544988
3308,2849;0,0544756
3309,2493;0,0544734
3310,2134;0,0544953
3311,1777;0,054536
3312,1418;0,0545851
3313,1062;0,0546327
3314,0703;0,0546734
3315,0347;0,054708
3315,9988;0,054742
3316,9631;0,0547821
3317,9272;0,0548334
3318,8916;0,0548975
3319,8557;0,0549724
3320,8201;0,0550538
3321,7842;0,0551364
3322,7485;0,0552145
3323,7126;0,0552829
3324,6770;0,0553377
3325,6411;0,0553789
3326,6055;0,0554109
3327,5696;0,0554419
3328,5339;0,0554807
3329,4980;0,0555321
3330,4624;0,0555935
3331,4265;0,055656
3332,3909;0,0557084
3333,3550;0,0557424
3334,3193;0,0557557
3335,2834;0,0557515
3336,2478;0,0557355
3337,2119;0,0557112
3338,1763;0,0556793
3339,1404;0,055638
3340,1047;0,0555864
3341,0688;0,055526
3342,0332;0,0554602
3342,9973;0,0553919
3343,9617;0,0553217
3344,9258;0,0552489
3345,8901;0,0551741
3346,8542;0,0551012
3347,8186;0,0550359
3348,7827;0,0549818
3349,7471;0,0549349
3350,7112;0,0548832
3351,6755;0,0548115
3352,6396;0,0547111
3353,6040;0,0545858
3354,5681;0,054452
3355,5325;0,0543305
3356,4966;0,0542351
3357,4609;0,0541665
3358,4250;0,0541127
3359,3894;0,0540582
3360,3535;0,053993
3361,3179;0,0539161
3362,2820;0,053834
3363,2463;0,0537538
3364,2104;0,0536781
3365,1748;0,053604
3366,1389;0,0535257
3367,1033;0,0534385
3368,0674;0,0533414
3369,0317;0,053237
3369,9958;0,0531302
3370,9602;0,0530258
3371,9243;0,0529268
3372,8887;0,0528338
3373,8528;0,0527446
3374,8171;0,0526562
3375,7813;0,0525661
3376,7456;0,0524736
3377,7097;0,05238
3378,6741;0,0522862
3379,6382;0,0521917
3380,6025;0,0520951
3381,5667;0,0519962
3382,5310;0,0518982
3383,4951;0,0518077
3384,4595;0,0517306
3385,4236;0,0516674
3386,3879;0,0516117
3387,3521;0,0515531
3388,3164;0,0514836
3389,2805;0,051402
3390,2449;0,0513144
3391,2090;0,0512287
3392,1733;0,0511487
3393,1375;0,0510713
3394,1018;0,0509896
3395,0659;0,0508981
3396,0303;0,0507974
3396,9944;0,0506927
3397,9587;0,0505901
3398,9229;0,0504917
3399,8872;0,0503944
3400,8513;0,0502925
3401,8157;0,0501818
3402,7798;0,0500617
3403,7441;0,0499349
3404,7083;0,0498061
3405,6726;0,0496803
3406,6367;0,0495617
3407,6011;0,0494526
3408,5652;0,0493519
3409,5295;0,0492538
3410,4937;0,0491496
3411,4580;0,0490322
3412,4221;0,0489008
3413,3865;0,0487625
3414,3506;0,0486277
3415,3149;0,048503
3416,2791;0,0483867
3417,2434;0,0482692
3418,2075;0,0481402
3419,1719;0,0479955
3420,1360;0,0478403
3421,1003;0,0476842
3422,0645;0,0475334
3423,0288;0,0473854
3423,9929;0,0472315
3424,9573;0,0470647
3425,9214;0,0468862
3426,8857;0,0467069
3427,8499;0,0465408
3428,8142;0,0463971
3429,7783;0,0462741
3430,7427;0,0461599
3431,7068;0,0460393
3432,6711;0,0459016
3433,6353;0,0457449
3434,5996;0,0455754
3435,5637;0,0454029
3436,5281;0,0452356
3437,4922;0,0450784
3438,4565;0,0449336
3439,4207;0,0448017
3440,3850;0,0446816
3441,3491;0,0445685
3442,3135;0,0444527
3443,2776;0,0443216
3444,2419;0,0441653
3445,2061;0,0439822
3446,1704;0,0437807
3447,1345;0,0435753
3448,0989;0,0433786
3449,0630;0,0431954
3450,0273;0,0430231
3450,9915;0,042858
3451,9558;0,0427
3452,9199;0,0425527
3453,8843;0,0424183
3454,8484;0,0422928
3455,8127;0,0421661
3456,7769;0,0420286
3457,7412;0,0418775
3458,7053;0,0417193
3459,6697;0,0415648
3460,6338;0,041421
3461,5981;0,0412858
3462,5623;0,041149
3463,5266;0,0409986
3464,4907;0,040828
3465,4551;0,0406391
3466,4192;0,0404404
3467,3835;0,0402422
3468,3477;0,0400523
3469,3120;0,0398729
3470,2761;0,0397016
3471,2405;0,0395348
3472,2046;0,0393712
3473,1689;0,0392145
3474,1331;0,0390717
3475,0974;0,0389479
3476,0615;0,0388404
3477,0259;0,0387364
3477,9900;0,0386166
3478,9543;0,0384649
3479,9185;0,038277
3480,8828;0,0380659
3481,8469;0,0378558
3482,8113;0,0376692
3483,7754;0,0375129
3484,7397;0,0373756
3485,7039;0,0372353
3486,6682;0,0370735
3487,6323;0,0368859
3488,5967;0,0366847
3489,5608;0,036491
3490,5251;0,0363214
3491,4893;0,0361791
3492,4536;0,0360541
3493,4177;0,0359317
3494,3821;0,0358038
3495,3462;0,0356745
3496,3105;0,0355569
3497,2747;0,0354609
3498,2390;0,0353821
3499,2031;0,0352993
3500,1675;0,0351843
3501,1316;0,0350173
3502,0959;0,034802
3503,0601;0,0345671
3504,0244;0,0343503
3504,9885;0,0341729
3505,9529;0,0340282
3506,9170;0,0338896
3507,8813;0,0337297
3508,8455;0,0335371
3509,8098;0,0333217
3510,7739;0,033107
3511,7383;0,0329149
3512,7024;0,0327542
3513,6667;0,0326207
3514,6309;0,0325052
3515,5952;0,0324006
3516,5593;0,0323037
3517,5237;0,0322126
3518,4878;0,0321237
3519,4521;0,0320321
3520,4163;0,031933
3521,3806;0,0318247
3522,3447;0,0317076
3523,3091;0,0315809
3524,2732;0,0314387
3525,2375;0,0312701
3526,2017;0,0310646
3527,1660;0,030821
3528,1301;0,0305542
3529,0945;0,0302922
3530,0586;0,0300642
3531,0229;0,0298849
3531,9871;0,0297484
3532,9514;0,0296324
3533,9155;0,0295095
3534,8799;0,0293588
3535,8440;0,0291762
3536,8083;0,0289785
3537,7725;0,0287964
3538,7368;0,0286595
3539,7009;0,0285821
3540,6653;0,0285562
3541,6294;0,0285539
3542,5938;0,0285337
3543,5579;0,0284525
3544,5222;0,0282851
3545,4863;0,028042
3546,4507;0,027766
3547,4148;0,0275043
3548,3792;0,0272775
3549,3433;0,0270753
3550,3076;0,0268732
3551,2717;0,026655
3552,2361;0,026427
3553,2002;0,0262158
3554,1646;0,0260486
3555,1287;0,0259332
3556,0930;0,0258534
3557,0571;0,0257838
3558,0215;0,0257093
3558,9856;0,025637
3559,9500;0,0255927
3560,9141;0,0255998
3561,8784;0,0256567
3562,8425;0,0257245
3563,8069;0,0257317
3564,7710;0,0255916
3565,7354;0,0252451
3566,6995;0,0247294
3567,6638;0,0241907
3568,6279;0,0237776
3569,5923;0,0235302
3570,5564;0,0233901
3571,5208;0,0232767
3572,4849;0,0231408
3573,4492;0,0229779
3574,4133;0,0228129
3575,3777;0,0226731
3576,3418;0,0225655
3577,3062;0,0224754
3578,2703;0,022386
3579,2346;0,0222992
3580,1987;0,0222373
3581,1631;0,0222243
3582,1272;0,0222603
3583,0916;0,0223102
3584,0557;0,0223102
3585,0200;0,0221886
3585,9841;0,0219053
3586,9485;0,0215054
3587,9126;0,0211251
3588,8770;0,020895
3589,8411;0,0208375
3590,8054;0,0208772
3591,7695;0,0209128
3592,7339;0,0208721
3593,6980;0,0207342
3594,6624;0,0205281
3595,6265;0,0203064
3596,5908;0,0201041
3597,5549;0,0199192
3598,5193;0,0197313
3599,4834;0,0195339
3600,4478;0,0193504
3601,4119;0,0192159
3602,3762;0,0191432
3603,3403;0,019107
3604,3047;0,0190569
3605,2688;0,018944
3606,2332;0,018744
3607,1973;0,0184694
3608,1616;0,0181668
3609,1257;0,0178922
3610,0901;0,0176811
3611,0542;0,0175407
3612,0186;0,0174614
3612,9827;0,0174265
3613,9470;0,01741
3614,9111;0,0173717
3615,8755;0,0172619
3616,8396;0,0170408
3617,8040;0,0167101
3618,7681;0,0163404
3619,7324;0,0160575
3620,6965;0,0159662
3621,6609;0,0160759
3622,6250;0,0163053
3623,5894;0,0165414
3624,5535;0,0166841
3625,5178;0,0166591
3626,4819;0,0164158
3627,4463;0,01595
3628,4104;0,0153621
3629,3748;0,0148519
3630,3389;0,0145567
3631,3032;0,0144395
3632,2673;0,0143732
3633,2317;0,014261
3634,1958;0,0140807
3635,1602;0,0138699
3636,1243;0,0136843
3637,0886;0,0135563
3638,0527;0,0134816
3639,0171;0,0134369
3639,9812;0,0134083
3640,9456;0,0134039
3641,9097;0,0134421
3642,8740;0,013529
3643,8381;0,0136431
3644,8025;0,0137331
3645,7666;0,013719
3646,7310;0,0134879
3647,6951;0,012936
3648,6594;0,012131
3649,6235;0,0114026
3650,5879;0,0110381
3651,5520;0,0110087
3652,5164;0,0111069
3653,4805;0,0111497
3654,4448;0,0110529
3655,4089;0,0108366
3656,3733;0,010598
3657,3374;0,010443
3658,3018;0,0104087
3659,2659;0,0104501
3660,2302;0,0104978
3661,1943;0,0105182
3662,1587;0,0105302
3663,1228;0,0105771
3664,0872;0,0106796
3665,0513;0,0108133
3666,0156;0,0109214
3666,9797;0,010947
3667,9441;0,0108664
3668,9082;0,0107138
3669,8726;0,0105739
3670,8367;0,0105127
3671,8010;0,0105093
3672,7651;0,0104742
3673,7295;0,0103202
3674,6936;0,0100278
3675,6580;0,00968533
3676,6221;0,00944112
3677,5864;0,00936934
3678,5505;0,00942305
3679,5149;0,00951838
3680,4790;0,0096135
3681,4434;0,00971851
3682,4075;0,00986084
3683,3718;0,0100458
3684,3359;0,0102408
3685,3003;0,0103876
3686,2644;0,0104246
3687,2288;0,0103079
3688,1929;0,0100416
3689,1572;0,00971508
3690,1213;0,00947574
3691,0857;0,00941323
3692,0498;0,00950174
3693,0142;0,0096604
3693,9783;0,00982294
3694,9426;0,00995799
3695,9067;0,0100579
3696,8711;0,0101222
3697,8352;0,0101476
3698,7996;0,01013
3699,7637;0,0100732
3700,7280;0,0100009
3701,6921;0,00995757
3702,6565;0,00999007
3703,6206;0,0101163
3704,5850;0,0103118
3705,5491;0,0105235
3706,5134;0,0106905
3707,4775;0,0107528
3708,4419;0,010651
3709,4060;0,0103416
3710,3704;0,00985368
3711,3345;0,00933927
3712,2988;0,00899442
3713,2629;0,0089065
3714,2273;0,0090269
3715,1914;0,00925606
3716,1558;0,00951406
3717,1199;0,00976159
3718,0842;0,00999242
3719,0483;0,0102154
3720,0127;0,0104355
3720,9768;0,0106406
3721,9412;0,0108026
3722,9053;0,0108927
3723,8696;0,0109028
3724,8337;0,0108585
3725,7981;0,0108094
3726,7622;0,010799
3727,7266;0,0108408
3728,6907;0,0109205
3729,6550;0,0110143
3730,6191;0,0111005
3731,5835;0,0111541
3732,5476;0,0111287
3733,5120;0,0109588
3734,4761;0,0106225
3735,4404;0,0102239
3736,4045;0,00994584
3737,3689;0,00989039
3738,3330;0,0100139
3739,2974;0,0101913
3740,2615;0,0102951
3741,2258;0,0102378
3742,1899;0,0099953
3743,1543;0,00963357
3744,1184;0,00931154
3745,0828;0,00918709
3746,0469;0,00927442
3747,0112;0,00943381
3747,9753;0,00948271
3748,9397;0,00929188
3749,9038;0,0088589
3750,8682;0,00836627
3751,8323;0,00808255
3752,7966;0,00811865
3753,7607;0,00836712
3754,7251;0,00864933
3755,6892;0,00883256
3756,6536;0,00886038
3757,6177;0,00875212
3758,5820;0,00859046
3759,5461;0,00847756
3760,5105;0,00847074
3761,4746;0,00855608
3762,4390;0,00867772
3763,4031;0,00878025
3764,3674;0,00883118
3765,3315;0,00882203
3766,2959;0,00875803
3767,2600;0,00864748
3768,2244;0,008501
3769,1885;0,00834254
3770,1528;0,00821708
3771,1169;0,00817502
3772,0813;0,00823944
3773,0454;0,00838751
3774,0098;0,0085624
3774,9739;0,0087007
3775,9382;0,00875662
3776,9023;0,00871859
3777,8667;0,00861729
3778,8308;0,00851564
3779,7952;0,00847225
3780,7593;0,00850238
3781,7236;0,0085739
3782,6877;0,00863571
3783,6521;0,00864823
3784,6162;0,00859948
3785,5806;0,00850646
3786,5447;0,00840498
3787,5090;0,00833332
3788,4731;0,00831685
3789,4375;0,0083599
3790,4016;0,00844688
3791,3660;0,00855197
3792,3301;0,00865394
3793,2944;0,00874883
3794,2585;0,00885172
3795,2229;0,00898153
3796,1870;0,00913511
3797,1514;0,00927034
3798,1155;0,00931609
3799,0798;0,00920981
3800,0439;0,0089499
3801,0083;0,00862697
3801,9724;0,00837499
3802,9368;0,00825815
3803,9009;0,00822298
3804,8652;0,00816523
3805,8293;0,00802908
3806,7937;0,00786281
3807,7578;0,00779037
3808,7222;0,00790459
3809,6863;0,0081848
3810,6506;0,00852256
3811,6147;0,00880178
3812,5791;0,00895451
3813,5432;0,0089801
3814,5076;0,00893843
3815,4717;0,00891136
3816,4360;0,00893699
3817,4001;0,0089718
3818,3645;0,00892623
3819,3286;0,00874368
3820,2930;0,00846526
3821,2571;0,00822288
3822,2214;0,00813731
3823,1855;0,0082212
3824,1499;0,00839485
3825,1140;0,00856564
3826,0784;0,00868066
3827,0425;0,00873468
3828,0068;0,00875282
3828,9709;0,00876672
3829,9353;0,00879786
3830,8994;0,00885324
3831,8638;0,00892824
3832,8279;0,00900843
3833,7922;0,0090691
3834,7563;0,00907822
3835,7207;0,00900815
3836,6848;0,00885581
3837,6492;0,00865909
3838,6133;0,00848562
3839,5776;0,00838636
3840,5417;0,00835849
3841,5061;0,00836082
3842,4702;0,00836113
3843,4346;0,0083686
3844,3987;0,00842885
3845,3630;0,00858893
3846,3271;0,00886025
3847,2915;0,00920599
3848,2556;0,00955347
3849,2200;0,00981032
3850,1841;0,00986827
3851,1484;0,00960671
3852,1125;0,00896463
3853,0769;0,0081281
3854,0410;0,00753108
3855,0054;0,00743059
3855,9695;0,00771315
3856,9338;0,0081415
3857,8979;0,00854696
3858,8623;0,00885173
3859,8264;0,00903627
3860,7908;0,00911137
3861,7549;0,0091052
3862,7192;0,00906008
3863,6833;0,00902425
3864,6477;0,00902941
3865,6118;0,00907204
3866,5762;0,00911983
3867,5403;0,00913339
3868,5046;0,00908421
3869,4688;0,00896511
3870,4331;0,00879656
3871,3972;0,00862445
3872,3616;0,00850236
3873,3257;0,00846654
3874,2900;0,00852152
3875,2542;0,00864315
3876,2185;0,00879283
3877,1826;0,00893395
3878,1470;0,0090443
3879,1111;0,00912015
3880,0754;0,00916832
3881,0396;0,00918853
3882,0039;0,00916146
3882,9680;0,00906113
3883,9324;0,0088884
3884,8965;0,00869388
3885,8608;0,00855668
3886,8250;0,00852608
3887,7893;0,0085824
3888,7534;0,00865475
3889,7178;0,00867414
3890,6819;0,00862438
3891,6462;0,00856155
3892,6104;0,00857474
3893,5747;0,00870923
3894,5388;0,00893334
3895,5032;0,00917448
3896,4673;0,00936872
3897,4316;0,00948356
3898,3958;0,00951566
3899,3601;0,00947559
3900,3242;0,00936969
3901,2886;0,00919353
3902,2527;0,00894815
3903,2170;0,00866653
3904,1812;0,00841482
3905,1455;0,00825393
3906,1096;0,00819957
3907,0740;0,00822247
3908,0381;0,0082796
3909,0024;0,0083431
3909,9666;0,00840999
3910,9309;0,00849358
3911,8950;0,00860523
3912,8594;0,0087381
3913,8235;0,00886309
3914,7878;0,00893967
3915,7520;0,00893801
3916,7163;0,0088631
3917,6804;0,00876168
3918,6448;0,00869577
3919,6089;0,0086996
3920,5732;0,00875917
3921,5374;0,00882758
3922,5017;0,00885736
3923,4658;0,00882999
3924,4302;0,00876843
3925,3943;0,00872165
3926,3586;0,00872893
3927,3228;0,00879341
3928,2871;0,0088827
3929,2512;0,00894804
3930,2156;0,00894804
3931,1797;0,0088701
3932,1440;0,00873926
3933,1082;0,00860388
3934,0725;0,00850736
3935,0366;0,00847019
3936,0010;0,008491
3936,9651;0,00855537
3937,9294;0,00864216
3938,8936;0,00872718
3939,8579;0,00878853
3940,8220;0,00881565
3941,7864;0,00881711
3942,7505;0,00881779
3943,7148;0,00884173
3944,6790;0,00889229
3945,6433;0,00894659
3946,6074;0,00896802
3947,5718;0,00892809
3948,5359;0,00882583
3949,5002;0,00869216
3950,4644;0,0085728
3951,4287;0,00850106
3952,3928;0,00848251
3953,3572;0,00850006
3954,3213;0,00852986
3955,2856;0,0085547
3956,2498;0,00856878
3957,2141;0,00857436
3958,1782;0,00857494
3959,1426;0,00857087
3960,1067;0,00856003
3961,0710;0,00854176
3962,0352;0,00851992
3962,9995;0,00850208
3963,9636;0,00849517
3964,9280;0,00850144
3965,8921;0,00851742
3966,8564;0,00853652
3967,8206;0,00855288
3968,7849;0,00856406
3969,7490;0,008571
3970,7134;0,00857567
3971,6775;0,00857862
3972,6418;0,00857837
3973,6060;0,00857297
3974,5703;0,0085621
3975,5344;0,00854753
3976,4988;0,0085316
3977,4629;0,00851508
3978,4272;0,00849656
3979,3914;0,0084741
3980,3557;0,00844779
3981,3198;0,00842141
3982,2842;0,00840173
3983,2483;0,00839553
3984,2126;0,00840618
3985,1768;0,00843152
3986,1411;0,00846429
3987,1052;0,00849478
3988,0696;0,00851455
3989,0337;0,00852002
3989,9980;0,00851372
3990,9622;0,00850267
3991,9265;0,00849426
3992,8906;0,00849217
3993,8550;0,00849472
3994,8191;0,00849663
3995,7834;0,00849272
3996,7476;0,00848093
3997,7119;0,00846304
3998,6760;0,00844309
3999,6404;0,00842535
4000,6045;0,00847676

##### Extended Information
[Comments]
Sample name
Comment
Username
Division
Organization;UNIVERSIDAD INDUSTRIAL DE SANTANDER

[Detailed Information]
Creation date;25/02/2025 2:56 p.m.

Data array type;Linear data array
Horizontal axis;Wavenumber [cm-1]
Vertical axis;Abs
Start;399,193 cm-1
End;4000,6 cm-1
Data interval;0,964233 cm-1
Data points;3736    

[Measurement Information]
Model name;FT/IR-4X1typeA
Serial No.;A035162111

Accessory;ATR PRO 4X
Accessory S/N;A021162126
Incident angle;45 deg

Measurement date;25/02/2025 2:56 p.m.

Light source;Standard
Detector;TGS
Accumulation;40
Resolution;4 cm-1
Zero filling;On
Apodization;Cosine
Gain;Auto (8)
Aperture;Auto (7 mm)
Scan speed;Auto (2 mm/sec)
Filter;Auto (12800 Hz)

