TITLE;
DATA TYPE;INFRARED SPECTRUM
ORIGIN;JASCO
OWNER;
DATE;25/02/25
TIME;16:55:06
SPECTROMETER/DATA SYSTEM;
LOCALE;9226
RESOLUTION;
DELTAX;0,964233
XUNITS;1/CM
YUNITS;ABSORBANCE
FIRSTX;  399,1927
LASTX; 4000,6047
NPOINTS;    3736
FIRSTY;     0,18804
MAXY;     0,24320
MINY;     0,01131
XYDATA
399,1927;0,188042
400,1569;0,185669
401,1211;0,182978
402,0854;0,180735
403,0496;0,179291
404,0138;0,178667
404,9781;0,178678
405,9423;0,17907
406,9065;0,179646
407,8708;0,180332
408,8350;0,181139
409,7992;0,182045
410,7635;0,182913
411,7277;0,183532
412,6919;0,18375
413,6562;0,183591
414,6204;0,183244
415,5846;0,183012
416,5489;0,183258
417,5131;0,184314
418,4773;0,186203
419,4416;0,188384
420,4058;0,190096
421,3700;0,191002
422,3343;0,191217
423,2985;0,190978
424,2627;0,190473
425,2270;0,189857
426,1912;0,189284
427,1554;0,188892
428,1197;0,188757
429,0839;0,188863
430,0481;0,189108
431,0124;0,189354
431,9766;0,189503
432,9408;0,189541
433,9051;0,18953
434,8693;0,189531
435,8335;0,189529
436,7978;0,189415
437,7620;0,189063
438,7262;0,188432
439,6905;0,187613
440,6547;0,186807
441,6189;0,186243
442,5832;0,186062
443,5474;0,186233
444,5116;0,186569
445,4759;0,186844
446,4401;0,186917
447,4043;0,186772
448,3686;0,186464
449,3328;0,186056
450,2970;0,185582
451,2613;0,185047
452,2255;0,184463
453,1897;0,18388
454,1540;0,183391
455,1182;0,183118
456,0824;0,183166
457,0467;0,183546
458,0109;0,184121
458,9751;0,184643
459,9394;0,1849
460,9036;0,184831
461,8678;0,184503
462,8321;0,18403
463,7963;0,183507
464,7605;0,182991
465,7248;0,182508
466,6890;0,182076
467,6532;0,181725
468,6175;0,181496
469,5817;0,181432
470,5459;0,181547
471,5102;0,181807
472,4744;0,182122
473,4386;0,182375
474,4029;0,182486
475,3671;0,182446
476,3313;0,182317
477,2956;0,182205
478,2598;0,182223
479,2240;0,182454
480,1883;0,18291
481,1525;0,183528
482,1167;0,184184
483,0810;0,184748
484,0452;0,18514
485,0094;0,185359
485,9737;0,185474
486,9379;0,185564
487,9021;0,185671
488,8664;0,185786
489,8306;0,185868
490,7948;0,185876
491,7591;0,185801
492,7233;0,185677
493,6875;0,185572
494,6518;0,185552
495,6160;0,185657
496,5802;0,185887
497,5445;0,186204
498,5087;0,186548
499,4729;0,186856
500,4372;0,187084
501,4014;0,187236
502,3656;0,187361
503,3299;0,187537
504,2941;0,187828
505,2583;0,188256
506,2226;0,188794
507,1868;0,189374
508,1510;0,189919
509,1153;0,190363
510,0795;0,190688
511,0437;0,190926
512,0080;0,191153
512,9722;0,191459
513,9365;0,191916
514,9007;0,192548
515,8649;0,193308
516,8292;0,194078
517,7934;0,194702
518,7576;0,195055
519,7219;0,195111
520,6861;0,194943
521,6503;0,194671
522,6146;0,194409
523,5788;0,194223
524,5430;0,194124
525,5073;0,194069
526,4715;0,193983
527,4357;0,193814
528,4000;0,193563
529,3642;0,193287
530,3284;0,193065
531,2927;0,19295
532,2569;0,192938
533,2211;0,192969
534,1854;0,192953
535,1496;0,192823
536,1138;0,192569
537,0781;0,192232
538,0423;0,19187
539,0065;0,191528
539,9708;0,191219
540,9350;0,190955
541,8992;0,190763
542,8635;0,190692
543,8277;0,190794
544,7919;0,191086
545,7562;0,191535
546,7204;0,192067
547,6846;0,192606
548,6489;0,193107
549,6131;0,193569
550,5773;0,194017
551,5416;0,194476
552,5058;0,194952
553,4700;0,195427
554,4343;0,195865
555,3985;0,196223
556,3627;0,19645
557,3270;0,196497
558,2912;0,196317
559,2554;0,195882
560,2197;0,195195
561,1839;0,194304
562,1481;0,193293
563,1124;0,19226
564,0766;0,191281
565,0408;0,190381
566,0051;0,189536
566,9693;0,188698
567,9335;0,187836
568,8978;0,186974
569,8620;0,186181
570,8262;0,185533
571,7905;0,185073
572,7547;0,184796
573,7189;0,184659
574,6832;0,184608
575,6474;0,1846
576,6116;0,184606
577,5759;0,184605
578,5401;0,184576
579,5043;0,184501
580,4686;0,184377
581,4328;0,184224
582,3970;0,18407
583,3613;0,183941
584,3255;0,183848
585,2897;0,183788
586,2540;0,183761
587,2182;0,183777
588,1824;0,183847
589,1467;0,18397
590,1109;0,184113
591,0751;0,184212
592,0394;0,184196
593,0036;0,184021
593,9678;0,183692
594,9321;0,183256
595,8963;0,182783
596,8605;0,182335
597,8248;0,181956
598,7890;0,181658
599,7532;0,181423
600,7175;0,181202
601,6817;0,180939
602,6459;0,18059
603,6102;0,180145
604,5744;0,179626
605,5386;0,179075
606,5029;0,178525
607,4671;0,177983
608,4313;0,177427
609,3956;0,176829
610,3598;0,176185
611,3240;0,175531
612,2883;0,17493
613,2525;0,174433
614,2167;0,174035
615,1810;0,173653
616,1452;0,173144
617,1094;0,172364
618,0737;0,171248
619,0379;0,169848
620,0021;0,1683
620,9664;0,166759
621,9306;0,165335
622,8948;0,164078
623,8591;0,16299
624,8233;0,162011
625,7875;0,161188
626,7518;0,160492
627,7160;0,159894
628,6802;0,159355
629,6445;0,15884
630,6087;0,158318
631,5729;0,15777
632,5372;0,157192
633,5014;0,156589
634,4656;0,155981
635,4299;0,155397
636,3941;0,15487
637,3583;0,154422
638,3226;0,154057
639,2868;0,153754
640,2510;0,15348
641,2153;0,153203
642,1795;0,152918
643,1437;0,152643
644,1080;0,152407
645,0722;0,152229
646,0364;0,152096
647,0007;0,151971
647,9649;0,151806
648,9291;0,15157
649,8934;0,151266
650,8576;0,150929
651,8218;0,150612
652,7861;0,150371
653,7503;0,150254
654,7145;0,150292
655,6788;0,150477
656,6430;0,150764
657,6072;0,151079
658,5715;0,151349
659,5357;0,15151
660,4999;0,151498
661,4642;0,151243
662,4284;0,150654
663,3926;0,149638
664,3569;0,148166
665,3211;0,14642
666,2853;0,144883
667,2496;0,144141
668,2138;0,144227
669,1780;0,144478
670,1423;0,144478
671,1065;0,144196
672,0707;0,143526
673,0350;0,142362
673,9992;0,140773
674,9634;0,138989
675,9277;0,13727
676,8919;0,135766
677,8561;0,134476
678,8204;0,133308
679,7846;0,13218
680,7488;0,131062
681,7131;0,129971
682,6773;0,128932
683,6415;0,127965
684,6058;0,127076
685,5700;0,126269
686,5342;0,125544
687,4985;0,124895
688,4627;0,124323
689,4269;0,123822
690,3912;0,123394
691,3554;0,123037
692,3196;0,12273
693,2839;0,122427
694,2481;0,122075
695,2123;0,121637
696,1766;0,121117
697,1408;0,120557
698,1050;0,120015
699,0693;0,119542
700,0335;0,119153
700,9977;0,118831
701,9620;0,118531
702,9262;0,118198
703,8904;0,117775
704,8547;0,117249
705,8189;0,116636
706,7831;0,115974
707,7474;0,115312
708,7116;0,114685
709,6758;0,114102
710,6401;0,113541
711,6043;0,112966
712,5685;0,112342
713,5328;0,111661
714,4970;0,110954
715,4612;0,109469
716,4255;0,109051
717,3897;0,108794
718,3539;0,108599
719,3182;0,108298
720,2824;0,107731
721,2466;0,106836
722,2109;0,105684
723,1751;0,10443
724,1393;0,103226
725,1036;0,102165
726,0678;0,101268
727,0320;0,100512
727,9963;0,0998535
728,9605;0,0992566
729,9247;0,0986917
730,8890;0,0981342
731,8532;0,0975634
732,8174;0,0969697
733,7817;0,0963627
734,7459;0,0957701
735,7101;0,0952262
736,6744;0,0947537
737,6386;0,0943519
738,6028;0,0939965
739,5671;0,0936516
740,5313;0,0932857
741,4955;0,0928822
742,4598;0,0924415
743,4240;0,0919741
744,3882;0,0914933
745,3525;0,0910105
746,3167;0,0905361
747,2809;0,0900789
748,2452;0,0896449
749,2094;0,0892319
750,1736;0,088826
751,1379;0,0884045
752,1021;0,0879462
753,0663;0,0874433
754,0306;0,086908
754,9948;0,0863685
755,9590;0,0858558
756,9233;0,0853896
757,8875;0,0849725
758,8517;0,0845939
759,8160;0,0842396
760,7802;0,0839
761,7444;0,0835711
762,7087;0,0832489
763,6729;0,0829257
764,6371;0,0825915
765,6014;0,0822413
766,5656;0,0818818
767,5298;0,0815313
768,4941;0,0812096
769,4583;0,080925
770,4225;0,0806677
771,3868;0,0804148
772,3510;0,0801443
773,3152;0,0798489
774,2795;0,0795398
775,2437;0,0792388
776,2079;0,0789639
777,1722;0,0787181
778,1364;0,0784882
779,1006;0,0782529
780,0649;0,0779948
781,0291;0,0777084
781,9933;0,0774004
782,9576;0,0770843
783,9218;0,0767721
784,8860;0,0764705
785,8503;0,0761799
786,8145;0,0758971
787,7787;0,0756185
788,7430;0,075343
789,7072;0,0750729
790,6714;0,0748151
791,6357;0,0745803
792,5999;0,0743799
793,5641;0,0742203
794,5284;0,0740973
795,4926;0,0739947
796,4568;0,0738899
797,4211;0,0737656
798,3853;0,0736178
799,3495;0,0734569
800,3138;0,0732979
801,2780;0,0731486
802,2422;0,0730046
803,2065;0,0728556
804,1707;0,0726979
805,1349;0,0725412
806,0992;0,0724043
807,0634;0,0723006
808,0276;0,0722257
808,9919;0,0721581
809,9561;0,0720715
810,9203;0,0719523
811,8846;0,0718061
812,8488;0,071652
813,8130;0,071507
814,7773;0,0713748
815,7415;0,0712457
816,7057;0,0711068
817,6700;0,0709538
818,6342;0,0707951
819,5984;0,0706456
820,5627;0,0705171
821,5269;0,0704104
822,4911;0,0703173
823,4554;0,0702274
824,4196;0,0701366
825,3839;0,0700487
826,3481;0,0699714
827,3123;0,0699073
828,2766;0,0698487
829,2408;0,069779
830,2050;0,0696808
831,1693;0,0695451
832,1335;0,0693756
833,0977;0,069185
834,0620;0,0689856
835,0262;0,0687818
835,9904;0,0685697
836,9547;0,0683432
837,9189;0,0681028
838,8831;0,0678575
839,8474;0,0676203
840,8116;0,0673986
841,7758;0,06719
842,7401;0,0669854
843,7043;0,0667789
844,6685;0,0665756
845,6328;0,0663912
846,5970;0,0662431
847,5612;0,0661404
848,5255;0,0660782
849,4897;0,0660417
850,4539;0,0660144
851,4182;0,0659851
852,3824;0,0659493
853,3466;0,0659051
854,3109;0,0658503
855,2751;0,0657826
856,2393;0,065703
857,2036;0,0656202
858,1678;0,0655507
859,1320;0,0655137
860,0963;0,065524
861,0605;0,0655858
862,0247;0,0656916
862,9890;0,0658258
863,9532;0,0659723
864,9174;0,0661207
865,8817;0,0662705
866,8459;0,0664301
867,8101;0,0666109
868,7744;0,0668201
869,7386;0,0670551
870,7028;0,0673012
871,6671;0,0675366
872,6313;0,0677393
873,5955;0,0678969
874,5598;0,0680115
875,5240;0,0681004
876,4882;0,06819
877,4525;0,0683073
878,4167;0,0684718
879,3809;0,0686916
880,3452;0,0689659
881,3094;0,0692913
882,2736;0,0696696
883,2379;0,0701112
884,2021;0,0706318
885,1663;0,0712452
886,1306;0,0719547
887,0948;0,072751
888,0590;0,0736149
889,0233;0,0745239
889,9875;0,075457
890,9517;0,076392
891,9160;0,0773005
892,8802;0,0781436
893,8444;0,0788751
894,8087;0,0794525
895,7729;0,0798484
896,7371;0,0800567
897,7014;0,0800871
898,6656;0,0799547
899,6298;0,0796703
900,5941;0,0792395
901,5583;0,0786696
902,5225;0,0779803
903,4868;0,0772076
904,4510;0,0764014
905,4152;0,0756155
906,3795;0,0748968
907,3437;0,0742783
908,3079;0,0737764
909,2722;0,0733928
910,2364;0,0731179
911,2007;0,0729362
912,1649;0,072831
913,1292;0,0727888
914,0934;0,0728008
915,0576;0,0728626
916,0219;0,0729722
916,9861;0,0731273
917,9503;0,0733242
918,9146;0,0735566
919,8788;0,0738153
920,8430;0,0740886
921,8073;0,0743645
922,7715;0,0746341
923,7357;0,0748957
924,7000;0,0751559
925,6642;0,0754259
926,6284;0,0757149
927,5927;0,0760244
928,5569;0,0763462
929,5211;0,0766669
930,4854;0,0769757
931,4496;0,0772708
932,4138;0,077562
933,3781;0,0778678
934,3423;0,0782086
935,3065;0,0786005
936,2708;0,0790504
937,2350;0,0795557
938,1992;0,0801083
939,1635;0,0807013
940,1277;0,0813347
941,0919;0,0820189
942,0562;0,0827713
943,0204;0,0836087
943,9846;0,0845392
944,9489;0,0855568
945,9131;0,086644
946,8773;0,0877785
947,8416;0,0889427
948,8058;0,0901298
949,7700;0,0913448
950,7343;0,092601
951,6985;0,0939147
952,6627;0,0953
953,6270;0,0967652
954,5912;0,0983127
955,5554;0,0999383
956,5197;0,101633
957,4839;0,103385
958,4481;0,105181
959,4124;0,107009
960,3766;0,108856
961,3408;0,110712
962,3051;0,112567
963,2693;0,114415
964,2335;0,116251
965,1978;0,118074
966,1620;0,119894
967,1262;0,121726
968,0905;0,123595
969,0547;0,125532
970,0189;0,127571
970,9832;0,129743
971,9474;0,132074
972,9116;0,134583
973,8759;0,137282
974,8401;0,140177
975,8043;0,143273
976,7686;0,146564
977,7328;0,150036
978,6970;0,153654
979,6613;0,157355
980,6255;0,16105
981,5897;0,164626
982,5540;0,16797
983,5182;0,170985
984,4824;0,173617
985,4467;0,175859
986,4109;0,177749
987,3751;0,179351
988,3394;0,180735
989,3036;0,181965
990,2678;0,18308
991,2321;0,184102
992,1963;0,185039
993,1605;0,185895
994,1248;0,186684
995,0890;0,187431
996,0532;0,188175
997,0175;0,188954
997,9817;0,189789
998,9459;0,190683
999,9102;0,191618
1000,8744;0,192572
1001,8386;0,19354
1002,8029;0,194538
1003,7671;0,195606
1004,7313;0,196791
1005,6956;0,198131
1006,6598;0,199652
1007,6240;0,201363
1008,5883;0,203264
1009,5525;0,205347
1010,5167;0,207592
1011,4810;0,209971
1012,4452;0,212439
1013,4094;0,214944
1014,3737;0,217432
1015,3379;0,219856
1016,3021;0,222179
1017,2664;0,224377
1018,2306;0,226439
1019,1948;0,228364
1020,1591;0,230162
1021,1233;0,231846
1022,0875;0,233434
1023,0518;0,23494
1024,0160;0,236375
1024,9802;0,237745
1025,9445;0,239045
1026,9087;0,240258
1027,8729;0,241348
1028,8372;0,242258
1029,8014;0,242907
1030,7656;0,243204
1031,7299;0,243059
1032,6941;0,242409
1033,6583;0,241238
1034,6226;0,23959
1035,5868;0,237569
1036,5510;0,235326
1037,5153;0,233035
1038,4795;0,230863
1039,4437;0,228948
1040,4080;0,227379
1041,3722;0,226188
1042,3364;0,225348
1043,3007;0,224791
1044,2649;0,224419
1045,2291;0,224127
1046,1934;0,223824
1047,1576;0,22344
1048,1218;0,222928
1049,0861;0,222259
1050,0503;0,221405
1051,0145;0,22034
1051,9788;0,219041
1052,9430;0,217501
1053,9072;0,215728
1054,8715;0,213746
1055,8357;0,211571
1056,7999;0,209199
1057,7642;0,206593
1058,7284;0,203705
1059,6926;0,200499
1060,6569;0,196987
1061,6211;0,193241
1062,5853;0,189384
1063,5496;0,185562
1064,5138;0,18191
1065,4780;0,178522
1066,4423;0,175445
1067,4065;0,172678
1068,3707;0,170188
1069,3350;0,167926
1070,2992;0,165836
1071,2634;0,163865
1072,2277;0,161966
1073,1919;0,160093
1074,1561;0,158203
1075,1204;0,156255
1076,0846;0,154229
1077,0488;0,152129
1078,0131;0,149996
1078,9773;0,147898
1079,9415;0,145914
1080,9058;0,144112
1081,8700;0,14253
1082,8342;0,141175
1083,7985;0,140028
1084,7627;0,139057
1085,7269;0,138228
1086,6912;0,137514
1087,6554;0,136892
1088,6196;0,136351
1089,5839;0,135891
1090,5481;0,13552
1091,5123;0,135249
1092,4766;0,135083
1093,4408;0,135014
1094,4050;0,135023
1095,3693;0,135087
1096,3335;0,135189
1097,2977;0,135325
1098,2620;0,135496
1099,2262;0,135705
1100,1904;0,135942
1101,1547;0,136181
1102,1189;0,136387
1103,0831;0,136517
1104,0474;0,13654
1105,0116;0,136434
1105,9758;0,136199
1106,9401;0,135847
1107,9043;0,135391
1108,8685;0,134834
1109,8328;0,134157
1110,7970;0,13332
1111,7612;0,132278
1112,7255;0,131007
1113,6897;0,129525
1114,6539;0,127905
1115,6182;0,126252
1116,5824;0,124676
1117,5466;0,123255
1118,5109;0,122009
1119,4751;0,120898
1120,4393;0,119842
1121,4036;0,118743
1122,3678;0,117513
1123,3320;0,116088
1124,2963;0,114433
1125,2605;0,112546
1126,2247;0,110455
1127,1890;0,10821
1128,1532;0,105873
1129,1174;0,103506
1130,0817;0,101158
1131,0459;0,0988617
1132,0101;0,0966369
1132,9744;0,0945025
1133,9386;0,0924858
1134,9028;0,0906256
1135,8671;0,0889661
1136,8313;0,0875467
1137,7955;0,0863913
1138,7598;0,0855053
1139,7240;0,084877
1140,6882;0,0844825
1141,6525;0,0842911
1142,6167;0,084269
1143,5809;0,0843832
1144,5452;0,0846053
1145,5094;0,0849157
1146,4736;0,0853044
1147,4379;0,0857687
1148,4021;0,0863079
1149,3663;0,0869173
1150,3306;0,0875845
1151,2948;0,0882888
1152,2590;0,0890028
1153,2233;0,0896949
1154,1875;0,0903302
1155,1517;0,0908702
1156,1160;0,0912717
1157,0802;0,0914849
1158,0444;0,0914531
1159,0087;0,0911145
1159,9729;0,0904085
1160,9371;0,0892859
1161,9014;0,0877207
1162,8656;0,0857209
1163,8298;0,0833326
1164,7941;0,0806366
1165,7583;0,0777378
1166,7225;0,0747523
1167,6868;0,0717936
1168,6510;0,0689609
1169,6152;0,0663297
1170,5795;0,0639467
1171,5437;0,0618286
1172,5079;0,059967
1173,4722;0,0583381
1174,4364;0,056913
1175,4006;0,0556672
1176,3649;0,0545836
1177,3291;0,0536515
1178,2933;0,0528612
1179,2576;0,0522004
1180,2218;0,0516533
1181,1860;0,0512029
1182,1503;0,0508357
1183,1145;0,0505448
1184,0787;0,0503301
1185,0430;0,0501949
1186,0072;0,0501417
1186,9714;0,0501697
1187,9357;0,0502754
1188,8999;0,0504565
1189,8641;0,0507148
1190,8284;0,0510569
1191,7926;0,0514908
1192,7568;0,0520201
1193,7211;0,0526401
1194,6853;0,0533374
1195,6495;0,054093
1196,6138;0,0548868
1197,5780;0,0557014
1198,5422;0,0565235
1199,5065;0,0572284
1200,4707;0,0580528
1201,4349;0,0588627
1202,3992;0,0596523
1203,3634;0,0604163
1204,3276;0,0611506
1205,2919;0,061854
1206,2561;0,0625305
1207,2203;0,063192
1208,1846;0,0638585
1209,1488;0,0645555
1210,1130;0,0653081
1211,0773;0,0661349
1212,0415;0,0670441
1213,0057;0,0680318
1213,9700;0,0690846
1214,9342;0,0701829
1215,8984;0,0713039
1216,8627;0,0724241
1217,8269;0,0735221
1218,7911;0,0745829
1219,7554;0,0755988
1220,7196;0,0765684
1221,6838;0,0774924
1222,6481;0,0783693
1223,6123;0,0791942
1224,5765;0,0799613
1225,5408;0,0806686
1226,5050;0,0813203
1227,4692;0,0819248
1228,4335;0,082489
1229,3977;0,0830132
1230,3619;0,0834896
1231,3262;0,0839074
1232,2904;0,084259
1233,2546;0,0845452
1234,2189;0,0847747
1235,1831;0,0849593
1236,1473;0,0851088
1237,1116;0,0852276
1238,0758;0,0853154
1239,0400;0,0853693
1240,0043;0,0853859
1240,9685;0,0853608
1241,9327;0,0852883
1242,8970;0,0851611
1243,8612;0,084972
1244,8254;0,0847173
1245,7897;0,0843986
1246,7539;0,0840226
1247,7181;0,0835999
1248,6824;0,0831421
1249,6466;0,0826603
1250,6108;0,0821647
1251,5751;0,0816648
1252,5393;0,0811691
1253,5035;0,080683
1254,4678;0,0802067
1255,4320;0,0797335
1256,3962;0,079251
1257,3605;0,078745
1258,3247;0,0782045
1259,2889;0,0776248
1260,2532;0,0770075
1261,2174;0,0763578
1262,1816;0,0756812
1263,1459;0,0749813
1264,1101;0,0742606
1265,0743;0,0735209
1266,0386;0,0727633
1267,0028;0,0719856
1267,9670;0,0711815
1268,9313;0,0703435
1269,8955;0,0694667
1270,8597;0,068555
1271,8240;0,0676221
1272,7882;0,0666888
1273,7524;0,0657776
1274,7167;0,0649071
1275,6809;0,0640889
1276,6451;0,0633251
1277,6094;0,0626078
1278,5736;0,0619206
1279,5378;0,0612444
1280,5021;0,0605653
1281,4663;0,0598826
1282,4305;0,059209
1283,3948;0,0585643
1284,3590;0,057966
1285,3232;0,0574219
1286,2875;0,05693
1287,2517;0,0564844
1288,2159;0,0560818
1289,1802;0,0557253
1290,1444;0,0554225
1291,1086;0,055181
1292,0729;0,0550054
1293,0371;0,0548981
1294,0013;0,0548607
1294,9656;0,0548956
1295,9298;0,0550057
1296,8940;0,0551921
1297,8583;0,0554539
1298,8225;0,0557874
1299,7867;0,0561879
1300,7510;0,0566495
1301,7152;0,0571671
1302,6794;0,0577341
1303,6437;0,0583429
1304,6079;0,0589873
1305,5721;0,059662
1306,5364;0,0603639
1307,5006;0,0610915
1308,4648;0,0618437
1309,4291;0,0626159
1310,3933;0,0633971
1311,3575;0,0641672
1312,3218;0,0648984
1313,2860;0,065561
1314,2502;0,066128
1315,2145;0,0665768
1316,1787;0,066887
1317,1429;0,0670398
1318,1072;0,0670259
1319,0714;0,066857
1320,0356;0,0665716
1320,9999;0,0662253
1321,9641;0,0658719
1322,9283;0,065547
1323,8926;0,0652657
1324,8568;0,0650285
1325,8210;0,064829
1326,7853;0,0646595
1327,7495;0,0645106
1328,7137;0,0643708
1329,6780;0,0642258
1330,6422;0,0640623
1331,6064;0,0638742
1332,5707;0,0636659
1333,5349;0,06345
1334,4991;0,0632369
1335,4634;0,0630203
1336,4276;0,0627671
1337,3918;0,0624171
1338,3561;0,0619086
1339,3203;0,061226
1340,2845;0,0604322
1341,2488;0,0596393
1342,2130;0,0589434
1343,1772;0,0583879
1344,1415;0,0579728
1345,1057;0,0576793
1346,0699;0,0574888
1347,0342;0,0573897
1347,9984;0,0573801
1348,9626;0,0574645
1349,9269;0,0576469
1350,8911;0,0579224
1351,8553;0,0582747
1352,8196;0,0586802
1353,7838;0,0591188
1354,7480;0,0595842
1355,7123;0,0600856
1356,6765;0,0606407
1357,6407;0,0612622
1358,6050;0,0619491
1359,5692;0,0626799
1360,5334;0,0634071
1361,4977;0,0640607
1362,4619;0,0645835
1363,4261;0,0649782
1364,3904;0,0653038
1365,3546;0,0656218
1366,3188;0,0659561
1367,2831;0,0662942
1368,2473;0,0666069
1369,2115;0,0668647
1370,1758;0,0670442
1371,1400;0,0671219
1372,1042;0,0670661
1373,0685;0,0668396
1374,0327;0,0664259
1374,9969;0,0658565
1375,9612;0,0651963
1376,9254;0,0644884
1377,8896;0,06372
1378,8539;0,0628488
1379,8181;0,0618593
1380,7823;0,0607979
1381,7466;0,0597543
1382,7108;0,0588021
1383,6750;0,0579514
1384,6393;0,0571485
1385,6035;0,0563173
1386,5677;0,055424
1387,5320;0,0545275
1388,4962;0,0537509
1389,4604;0,0531815
1390,4247;0,0528157
1391,3889;0,0525959
1392,3531;0,0524675
1393,3174;0,0523992
1394,2816;0,0523685
1395,2458;0,0523445
1396,2101;0,0522929
1397,1743;0,0522005
1398,1385;0,0520922
1399,1028;0,0520219
1400,0670;0,0520412
1401,0313;0,0521705
1401,9955;0,0523926
1402,9597;0,0526691
1403,9240;0,052964
1404,8882;0,0532629
1405,8524;0,053579
1406,8167;0,0539385
1407,7809;0,0543551
1408,7451;0,0548224
1409,7094;0,0553288
1410,6736;0,0558756
1411,6378;0,0564787
1412,6021;0,0571513
1413,5663;0,0578848
1414,5305;0,0586456
1415,4948;0,0593875
1416,4590;0,0600567
1417,4232;0,0605885
1418,3875;0,0609371
1419,3517;0,0611427
1420,3159;0,0613125
1421,2802;0,0614959
1422,2444;0,0616355
1423,2086;0,0616392
1424,1729;0,0614598
1425,1371;0,0611149
1426,1013;0,0606496
1427,0656;0,0600852
1428,0298;0,059406
1428,9940;0,0585993
1429,9583;0,0577089
1430,9225;0,0568317
1431,8867;0,0560412
1432,8510;0,0553212
1433,8152;0,0545752
1434,7794;0,0536926
1435,7437;0,0526411
1436,7079;0,0515552
1437,6721;0,0506915
1438,6364;0,0502145
1439,6006;0,0500812
1440,5648;0,0501475
1441,5291;0,0503029
1442,4933;0,0505118
1443,4575;0,0507845
1444,4218;0,0511304
1445,3860;0,0515307
1446,3502;0,0519439
1447,3145;0,0523346
1448,2787;0,0527023
1449,2429;0,0530797
1450,2072;0,0534946
1451,1714;0,0539318
1452,1356;0,0543374
1453,0999;0,0546549
1454,0641;0,0548519
1455,0283;0,0548948
1455,9926;0,0546799
1456,9568;0,0541083
1457,9210;0,053412
1458,8853;0,0530229
1459,8495;0,0530247
1460,8137;0,053183
1461,7780;0,0532391
1462,7422;0,0530182
1463,7064;0,052433
1464,6707;0,0515181
1465,6349;0,0504618
1466,5991;0,049486
1467,5634;0,0486611
1468,5276;0,0478929
1469,4918;0,0470305
1470,4561;0,0459393
1471,4203;0,0445207
1472,3845;0,0427671
1473,3488;0,0408737
1474,3130;0,0391814
1475,2772;0,0378947
1476,2415;0,0369782
1477,2057;0,0362993
1478,1699;0,0357513
1479,1342;0,0352778
1480,0984;0,0348576
1481,0626;0,0344935
1482,0269;0,0342076
1482,9911;0,0340309
1483,9553;0,0339862
1484,9196;0,0340778
1485,8838;0,0342928
1486,8480;0,034595
1487,8123;0,0349016
1488,7765;0,0350989
1489,7407;0,0351626
1490,7050;0,0352222
1491,6692;0,0354159
1492,6334;0,0357721
1493,5977;0,0362572
1494,5619;0,036852
1495,5261;0,0375622
1496,4904;0,0383782
1497,4546;0,0392496
1498,4188;0,0401318
1499,3831;0,0410157
1500,3473;0,0418738
1501,3115;0,0426327
1502,2758;0,0432232
1503,2400;0,0436427
1504,2042;0,043985
1505,1685;0,0443792
1506,1327;0,0447532
1507,0969;0,0447122
1508,0612;0,044156
1509,0254;0,0435166
1509,9896;0,0430439
1510,9539;0,0426764
1511,9181;0,0423016
1512,8823;0,0418599
1513,8466;0,0413308
1514,8108;0,0407054
1515,7750;0,0399818
1516,7393;0,0391767
1517,7035;0,0383207
1518,6677;0,0374353
1519,6320;0,0365277
1520,5962;0,0356226
1521,5604;0,0347972
1522,5247;0,0341497
1523,4889;0,033713
1524,4531;0,0334276
1525,4174;0,0332059
1526,3816;0,0330064
1527,3458;0,0328478
1528,3101;0,0327619
1529,2743;0,0327508
1530,2385;0,0327883
1531,2028;0,0328455
1532,1670;0,0329054
1533,1312;0,032967
1534,0955;0,0330428
1535,0597;0,0331343
1536,0239;0,0332121
1536,9882;0,0332517
1537,9524;0,0332933
1538,9166;0,0334345
1539,8809;0,0336829
1540,8451;0,0338511
1541,8093;0,0338553
1542,7736;0,0338553
1543,7378;0,0339354
1544,7020;0,0340621
1545,6663;0,034212
1546,6305;0,0343945
1547,5947;0,0346132
1548,5590;0,0348422
1549,5232;0,0350403
1550,4874;0,0351842
1551,4517;0,0352881
1552,4159;0,0353883
1553,3801;0,0355
1554,3444;0,0355954
1555,3086;0,0356229
1556,2728;0,0355286
1557,2371;0,0352224
1558,2013;0,034604
1559,1655;0,0339426
1560,1298;0,0338372
1561,0940;0,0343913
1562,0582;0,035249
1563,0225;0,0360883
1563,9867;0,036762
1564,9509;0,0372466
1565,9152;0,0375807
1566,8794;0,037826
1567,8436;0,038047
1568,8079;0,0383047
1569,7721;0,0386478
1570,7363;0,0390865
1571,7006;0,0395765
1572,6648;0,0400549
1573,6290;0,0404944
1574,5933;0,0409219
1575,5575;0,0413838
1576,5217;0,0419126
1577,4860;0,0425385
1578,4502;0,0432771
1579,4144;0,0440934
1580,3787;0,0449288
1581,3429;0,0457477
1582,3071;0,0465457
1583,2714;0,0473347
1584,2356;0,0481293
1585,1998;0,0489415
1586,1641;0,0497751
1587,1283;0,0506176
1588,0925;0,0514382
1589,0568;0,0521952
1590,0210;0,0528484
1590,9852;0,0533672
1591,9495;0,05373
1592,9137;0,0539204
1593,8779;0,0539322
1594,8422;0,0537815
1595,8064;0,0535116
1596,7706;0,0531795
1597,7349;0,0528334
1598,6991;0,0524967
1599,6633;0,0521692
1600,6276;0,0518403
1601,5918;0,0515051
1602,5560;0,0511747
1603,5203;0,0508721
1604,4845;0,0506137
1605,4487;0,0503915
1606,4130;0,0501745
1607,3772;0,0499309
1608,3414;0,0496613
1609,3057;0,0494139
1610,2699;0,0492524
1611,2341;0,0491977
1612,1984;0,0492041
1613,1626;0,0491902
1614,1268;0,0490856
1615,0911;0,048869
1616,0553;0,0486066
1617,0195;0,0484599
1617,9838;0,0485685
1618,9480;0,0489084
1619,9122;0,0493292
1620,8765;0,0496837
1621,8407;0,0498983
1622,8049;0,0499782
1623,7692;0,049987
1624,7334;0,0500018
1625,6976;0,0500613
1626,6619;0,0501591
1627,6261;0,050283
1628,5903;0,0504422
1629,5546;0,0506494
1630,5188;0,0508863
1631,4830;0,0511021
1632,4473;0,0512463
1633,4115;0,0512897
1634,3757;0,0512073
1635,3400;0,0509767
1636,3042;0,0506866
1637,2684;0,0505496
1638,2327;0,0506662
1639,1969;0,0509517
1640,1611;0,0512759
1641,1254;0,0515552
1642,0896;0,0517554
1643,0538;0,0518684
1644,0181;0,0518886
1644,9823;0,0517891
1645,9465;0,0515393
1646,9108;0,0512007
1647,8750;0,0509243
1648,8392;0,050759
1649,8035;0,0505907
1650,7677;0,0502543
1651,7319;0,0495901
1652,6962;0,0485025
1653,6604;0,0472928
1654,6246;0,0466332
1655,5889;0,0466931
1656,5531;0,0470813
1657,5173;0,0474114
1658,4816;0,0474935
1659,4458;0,0472779
1660,4100;0,0467849
1661,3743;0,0460879
1662,3385;0,0453365
1663,3027;0,0447173
1664,2670;0,0443269
1665,2312;0,0441132
1666,1954;0,0439381
1667,1597;0,0436552
1668,1239;0,0431565
1669,0881;0,0424296
1670,0524;0,0416083
1671,0166;0,0408829
1671,9808;0,0403153
1672,9451;0,0398106
1673,9093;0,0392542
1674,8735;0,0386429
1675,8378;0,0381122
1676,8020;0,0378248
1677,7662;0,0378145
1678,7305;0,0379579
1679,6947;0,0380701
1680,6589;0,0379893
1681,6232;0,0375891
1682,5874;0,0367773
1683,5516;0,0356166
1684,5159;0,034492
1685,4801;0,0338335
1686,4443;0,0336703
1687,4086;0,033738
1688,3728;0,0337908
1689,3370;0,0337206
1690,3013;0,0335344
1691,2655;0,0332944
1692,2297;0,0330708
1693,1940;0,0329169
1694,1582;0,0328557
1695,1224;0,0328623
1696,0867;0,0328501
1697,0509;0,0327012
1698,0151;0,0323593
1698,9794;0,0319225
1699,9436;0,031619
1700,9078;0,0316385
1701,8721;0,0319896
1702,8363;0,032528
1703,8005;0,0330811
1704,7648;0,0335411
1705,7290;0,0338941
1706,6932;0,0342054
1707,6575;0,0345686
1708,6217;0,0350444
1709,5859;0,0356348
1710,5502;0,0363036
1711,5144;0,0370078
1712,4786;0,037714
1713,4429;0,038396
1714,4071;0,0390191
1715,3713;0,0395161
1716,3356;0,0398048
1717,2998;0,0399192
1718,2640;0,0400749
1719,2283;0,0404596
1720,1925;0,0410625
1721,1567;0,0417559
1722,1210;0,0424195
1723,0852;0,0429891
1724,0494;0,043459
1725,0137;0,043868
1725,9779;0,0442743
1726,9421;0,0447194
1727,9064;0,0452012
1728,8706;0,0456688
1729,8348;0,0460363
1730,7991;0,0461981
1731,7633;0,0460446
1732,7275;0,0455241
1733,6918;0,0447693
1734,6560;0,0440903
1735,6202;0,0436965
1736,5845;0,0435236
1737,5487;0,0433664
1738,5129;0,0430587
1739,4772;0,0425484
1740,4414;0,0418945
1741,4056;0,0412095
1742,3699;0,040573
1743,3341;0,039985
1744,2983;0,0393939
1745,2626;0,0387482
1746,2268;0,0380113
1747,1910;0,037135
1748,1553;0,036042
1749,1195;0,0346854
1750,0837;0,0331643
1751,0480;0,0317201
1752,0122;0,0305548
1752,9764;0,0296942
1753,9407;0,0290301
1754,9049;0,0284318
1755,8691;0,0278196
1756,8334;0,0271797
1757,7976;0,0265338
1758,7618;0,0258922
1759,7261;0,0252349
1760,6903;0,024541
1761,6545;0,0238351
1762,6188;0,0231951
1763,5830;0,022698
1764,5472;0,0223619
1765,5115;0,0221413
1766,4757;0,021966
1767,4399;0,0217789
1768,4042;0,0215479
1769,3684;0,0212573
1770,3326;0,0208973
1771,2969;0,0204749
1772,2611;0,0200465
1773,2253;0,0197157
1774,1896;0,0195572
1775,1538;0,0195531
1776,1180;0,0196174
1777,0823;0,019662
1778,0465;0,019639
1779,0107;0,0195483
1779,9750;0,0194211
1780,9392;0,0192924
1781,9034;0,0191773
1782,8677;0,0190707
1783,8319;0,0189678
1784,7961;0,018883
1785,7604;0,0188442
1786,7246;0,0188687
1787,6888;0,0189456
1788,6531;0,0190416
1789,6173;0,0191165
1790,5815;0,0191319
1791,5458;0,0190632
1792,5100;0,0189331
1793,4742;0,0188179
1794,4385;0,0187794
1795,4027;0,0188079
1796,3669;0,0188495
1797,3312;0,0188592
1798,2954;0,0188237
1799,2596;0,0187534
1800,2239;0,0186639
1801,1881;0,0185674
1802,1523;0,0184736
1803,1166;0,0183926
1804,0808;0,0183352
1805,0450;0,0183108
1806,0093;0,0183235
1806,9735;0,0183661
1807,9377;0,0184166
1808,9020;0,0184428
1809,8662;0,018418
1810,8304;0,0183411
1811,7947;0,0182416
1812,7589;0,0181596
1813,7231;0,0181188
1814,6874;0,0181186
1815,6516;0,0181417
1816,6158;0,0181684
1817,5801;0,0181872
1818,5443;0,0182001
1819,5085;0,0182173
1820,4728;0,0182444
1821,4370;0,0182759
1822,4012;0,0182984
1823,3655;0,0183
1824,3297;0,018281
1825,2939;0,0182561
1826,2582;0,0182419
1827,2224;0,0182384
1828,1866;0,0182239
1829,1509;0,0181712
1830,1151;0,0180786
1831,0793;0,0179843
1832,0436;0,017936
1833,0078;0,0179492
1833,9720;0,0180017
1834,9363;0,0180601
1835,9005;0,0181034
1836,8647;0,0181322
1837,8290;0,0181613
1838,7932;0,018203
1839,7574;0,0182535
1840,7217;0,0182983
1841,6859;0,0183244
1842,6501;0,0183242
1843,6144;0,0182918
1844,5786;0,0182303
1845,5428;0,0181597
1846,5071;0,0180983
1847,4713;0,0180434
1848,4355;0,017982
1849,3998;0,0179125
1850,3640;0,017849
1851,3282;0,0178086
1852,2925;0,0177961
1853,2567;0,0178023
1854,2209;0,0178142
1855,1852;0,017827
1856,1494;0,0178462
1857,1136;0,0178792
1858,0779;0,0179248
1859,0421;0,0179712
1860,0063;0,0180061
1860,9706;0,0180277
1861,9348;0,0180486
1862,8990;0,0180874
1863,8633;0,018157
1864,8275;0,018259
1865,7917;0,01838
1866,7560;0,018487
1867,7202;0,0185296
1868,6844;0,0184714
1869,6487;0,0183302
1870,6129;0,0181668
1871,5771;0,0180324
1872,5414;0,0179424
1873,5056;0,0178894
1874,4698;0,0178615
1875,4341;0,0178486
1876,3983;0,0178416
1877,3625;0,0178343
1878,3268;0,017826
1879,2910;0,0178224
1880,2552;0,0178319
1881,2195;0,017861
1882,1837;0,0179107
1883,1479;0,0179766
1884,1122;0,0180518
1885,0764;0,0181284
1886,0406;0,018197
1887,0049;0,0182445
1887,9691;0,0182539
1888,9333;0,0182125
1889,8976;0,0181248
1890,8618;0,0180168
1891,8260;0,0179224
1892,7903;0,0178644
1893,7545;0,0178457
1894,7188;0,0178535
1895,6830;0,0178703
1896,6472;0,0178869
1897,6115;0,0179084
1898,5757;0,0179477
1899,5399;0,0180122
1900,5042;0,0180941
1901,4684;0,0181712
1902,4326;0,0182181
1903,3969;0,0182232
1904,3611;0,0181986
1905,3253;0,0181745
1906,2896;0,0181833
1907,2538;0,0182399
1908,2180;0,0183315
1909,1823;0,0184228
1910,1465;0,0184767
1911,1107;0,0184762
1912,0750;0,0184298
1913,0392;0,0183612
1914,0034;0,0182954
1914,9677;0,0182515
1915,9319;0,0182399
1916,8961;0,0182604
1917,8604;0,0183054
1918,8246;0,0183655
1919,7888;0,0184326
1920,7531;0,0184983
1921,7173;0,0185524
1922,6815;0,0185828
1923,6458;0,0185785
1924,6100;0,0185323
1925,5742;0,0184446
1926,5385;0,0183238
1927,5027;0,0181879
1928,4669;0,0180634
1929,4312;0,0179801
1930,3954;0,0179586
1931,3596;0,0179996
1932,3239;0,018081
1933,2881;0,0181692
1934,2523;0,0182377
1935,2166;0,0182815
1936,1808;0,0183192
1937,1450;0,0183799
1938,1093;0,0184833
1939,0735;0,0186241
1940,0377;0,0187668
1941,0020;0,0188562
1941,9662;0,0188437
1942,9304;0,0187218
1943,8947;0,0185354
1944,8589;0,018355
1945,8231;0,0182333
1946,7874;0,0181848
1947,7516;0,0181936
1948,7158;0,0182335
1949,6801;0,0182832
1950,6443;0,0183296
1951,6085;0,0183625
1952,5728;0,0183721
1953,5370;0,0183548
1954,5012;0,0183223
1955,4655;0,0182995
1956,4297;0,0183055
1957,3939;0,018331
1958,3582;0,0183348
1959,3224;0,0182737
1960,2866;0,0181489
1961,2509;0,0180293
1962,2151;0,018021
1963,1793;0,0181967
1964,1436;0,0185367
1965,1078;0,0189254
1966,0720;0,0192115
1967,0363;0,019299
1968,0005;0,019204
1968,9647;0,0190278
1969,9290;0,0188715
1970,8932;0,0187711
1971,8574;0,0187023
1972,8217;0,0186367
1973,7859;0,0185923
1974,7501;0,0186343
1975,7144;0,0188227
1976,6786;0,019147
1977,6428;0,0195099
1978,6071;0,0197832
1979,5713;0,0198878
1980,5355;0,01983
1981,4998;0,019675
1982,4640;0,0194949
1983,4282;0,0193301
1984,3925;0,0191807
1985,3567;0,0190249
1986,3209;0,018848
1987,2852;0,0186662
1988,2494;0,0185291
1989,2136;0,0184999
1990,1779;0,0186182
1991,1421;0,0188653
1992,1063;0,019156
1993,0706;0,0193724
1994,0348;0,0194232
1994,9990;0,0192866
1995,9633;0,0190146
1996,9275;0,0187035
1997,8917;0,0184505
1998,8560;0,0183139
1999,8202;0,0182942
2000,7844;0,0183447
2001,7487;0,0184068
2002,7129;0,0184474
2003,6771;0,0184802
2004,6414;0,0185603
2005,6056;0,0187523
2006,5698;0,0190863
2007,5341;0,0195234
2008,4983;0,0199604
2009,4625;0,020276
2010,4268;0,0203915
2011,3910;0,0203063
2012,3552;0,0200903
2013,3195;0,0198423
2014,2837;0,0196425
2015,2479;0,0195263
2016,2122;0,0194886
2017,1764;0,01951
2018,1406;0,0195784
2019,1049;0,0196875
2020,0691;0,0198198
2021,0333;0,0199385
2021,9976;0,0200002
2022,9618;0,0199832
2023,9260;0,0199062
2024,8903;0,0198213
2025,8545;0,0197809
2026,8187;0,0198034
2027,7830;0,0198618
2028,7472;0,0199035
2029,7114;0,0198864
2030,6757;0,0198075
2031,6399;0,0197064
2032,6041;0,0196443
2033,5684;0,01967
2034,5326;0,0197937
2035,4968;0,0199828
2036,4611;0,0201797
2037,4253;0,0203299
2038,3895;0,0204018
2039,3538;0,0203898
2040,3180;0,0203049
2041,2822;0,0201633
2042,2465;0,0199841
2043,2107;0,0197964
2044,1749;0,0196476
2045,1392;0,0195977
2046,1034;0,0196943
2047,0676;0,0199394
2048,0320;0,020274
2048,9961;0,020599
2049,9604;0,0208234
2050,9246;0,020902
2051,8889;0,0208414
2052,8530;0,0206808
2053,8174;0,0204691
2054,7815;0,0202497
2055,7458;0,0200568
2056,7100;0,0199165
2057,6743;0,0198468
2058,6384;0,0198553
2059,6028;0,0199368
2060,5669;0,020074
2061,5313;0,0202424
2062,4954;0,020416
2063,4597;0,0205709
2064,4238;0,0206873
2065,3882;0,0207507
2066,3523;0,0207554
2067,3167;0,0207061
2068,2808;0,0206162
2069,2451;0,0205025
2070,2092;0,0203801
2071,1736;0,0202614
2072,1377;0,0201594
2073,1021;0,0200911
2074,0662;0,0200757
2075,0305;0,020126
2075,9946;0,0202386
2076,9590;0,0203901
2077,9231;0,0205438
2078,8875;0,020663
2079,8516;0,020725
2080,8159;0,0207265
2081,7800;0,0206809
2082,7444;0,0206107
2083,7085;0,0205392
2084,6729;0,0204845
2085,6370;0,0204564
2086,6013;0,0204545
2087,5654;0,020468
2088,5298;0,0204789
2089,4939;0,0204691
2090,4583;0,0204291
2091,4224;0,0203651
2092,3867;0,0202994
2093,3508;0,0202627
2094,3152;0,020279
2095,2793;0,0203508
2096,2437;0,0204526
2097,2078;0,0205397
2098,1721;0,0205694
2099,1362;0,0205227
2100,1006;0,020415
2101,0647;0,0202844
2102,0291;0,0201786
2102,9932;0,0201291
2103,9575;0,020142
2104,9216;0,0202007
2105,8860;0,0202804
2106,8501;0,020362
2107,8145;0,0204392
2108,7786;0,0205148
2109,7429;0,0205925
2110,7070;0,020669
2111,6714;0,0207331
2112,6355;0,0207712
2113,5999;0,020775
2114,5640;0,0207478
2115,5283;0,020704
2116,4924;0,0206628
2117,4568;0,0206381
2118,4209;0,020632
2119,3853;0,0206361
2120,3494;0,0206402
2121,3137;0,020644
2122,2778;0,0206614
2123,2422;0,0207131
2124,2063;0,0208111
2125,1707;0,0209453
2126,1348;0,0210826
2127,0991;0,0211811
2128,0632;0,0212127
2129,0276;0,0211781
2129,9917;0,0211071
2130,9561;0,0210445
2131,9202;0,0210291
2132,8845;0,0210786
2133,8486;0,0211862
2134,8130;0,021328
2135,7771;0,0214769
2136,7415;0,0216135
2137,7056;0,0217294
2138,6699;0,0218222
2139,6340;0,0218873
2140,5984;0,0219144
2141,5625;0,0218924
2142,5269;0,0218223
2143,4910;0,0217306
2144,4553;0,0216704
2145,4194;0,0217033
2146,3838;0,0218688
2147,3479;0,0221582
2148,3123;0,022514
2149,2764;0,0228584
2150,2407;0,0231353
2151,2048;0,0233382
2152,1692;0,0235056
2153,1333;0,0236878
2154,0977;0,0239049
2155,0618;0,0241228
2156,0261;0,0242631
2156,9902;0,024249
2157,9546;0,0240663
2158,9187;0,0237954
2159,8831;0,0235708
2160,8472;0,0234893
2161,8115;0,0235487
2162,7756;0,023657
2163,7400;0,0236927
2164,7041;0,0235706
2165,6685;0,0232873
2166,6326;0,0229239
2167,5969;0,0226033
2168,5610;0,022426
2169,5254;0,0224211
2170,4895;0,0225402
2171,4539;0,0226921
2172,4180;0,0227959
2173,3823;0,0228195
2174,3464;0,0227825
2175,3108;0,0227237
2176,2749;0,0226595
2177,2393;0,0225681
2178,2034;0,0224102
2179,1677;0,0221695
2180,1318;0,0218804
2181,0962;0,0216196
2182,0603;0,0214637
2183,0247;0,0214408
2183,9888;0,0215119
2184,9531;0,0215947
2185,9172;0,0216132
2186,8816;0,0215378
2187,8457;0,0213943
2188,8101;0,0212415
2189,7742;0,0211369
2190,7385;0,0211099
2191,7026;0,0211569
2192,6670;0,021253
2193,6311;0,0213693
2194,5955;0,0214817
2195,5596;0,02157
2196,5239;0,0216134
2197,4880;0,0215921
2198,4524;0,0214994
2199,4165;0,0213546
2200,3809;0,0212061
2201,3450;0,0211159
2202,3093;0,0211311
2203,2734;0,0212594
2204,2378;0,0214639
2205,2019;0,0216817
2206,1663;0,0218535
2207,1304;0,0219482
2208,0947;0,0219687
2209,0588;0,0219387
2210,0232;0,0218838
2210,9873;0,0218187
2211,9517;0,0217455
2212,9158;0,0216613
2213,8801;0,0215656
2214,8442;0,0214631
2215,8086;0,021362
2216,7727;0,0212696
2217,7371;0,0211895
2218,7012;0,0211201
2219,6655;0,0210564
2220,6296;0,0209931
2221,5940;0,0209295
2222,5581;0,0208727
2223,5225;0,0208361
2224,4866;0,0208327
2225,4509;0,0208672
2226,4150;0,0209313
2227,3794;0,0210063
2228,3435;0,0210736
2229,3079;0,021123
2230,2720;0,0211547
2231,2363;0,0211732
2232,2004;0,0211792
2233,1648;0,021166
2234,1289;0,0211248
2235,0933;0,0210546
2236,0574;0,0209678
2237,0217;0,0208883
2237,9858;0,0208401
2238,9502;0,0208358
2239,9143;0,0208726
2240,8787;0,0209374
2241,8428;0,0210163
2242,8071;0,0211017
2243,7712;0,0211906
2244,7356;0,0212787
2245,6997;0,0213551
2246,6641;0,021404
2247,6282;0,0214143
2248,5925;0,0213881
2249,5566;0,021343
2250,5210;0,0213051
2251,4851;0,0212957
2252,4495;0,0213216
2253,4136;0,0213723
2254,3779;0,021427
2255,3420;0,0214656
2256,3064;0,0214775
2257,2705;0,0214652
2258,2349;0,0214413
2259,1990;0,0214218
2260,1633;0,0214179
2261,1274;0,0214302
2262,0918;0,0214478
2263,0559;0,0214532
2264,0203;0,0214323
2264,9844;0,0213837
2265,9487;0,0213221
2266,9128;0,0212708
2267,8772;0,0212489
2268,8413;0,0212585
2269,8057;0,0212831
2270,7698;0,0212968
2271,7341;0,0212793
2272,6982;0,0212265
2273,6626;0,0211513
2274,6267;0,0210731
2275,5911;0,0210057
2276,5552;0,020951
2277,5195;0,0209024
2278,4836;0,0208552
2279,4480;0,0208147
2280,4121;0,0207972
2281,3765;0,0208206
2282,3406;0,0208934
2283,3049;0,0210078
2284,2690;0,0211426
2285,2334;0,021274
2286,1975;0,0213885
2287,1619;0,0214894
2288,1260;0,0215936
2289,0903;0,0217189
2290,0544;0,021872
2291,0188;0,0220429
2291,9829;0,0222112
2292,9473;0,0223591
2293,9114;0,0224831
2294,8757;0,0225943
2295,8398;0,022708
2296,8042;0,0228283
2297,7683;0,0229399
2298,7327;0,0230127
2299,6968;0,0230189
2300,6611;0,0229516
2301,6252;0,0228348
2302,5896;0,0227168
2303,5537;0,0226527
2304,5181;0,0226808
2305,4822;0,0228053
2306,4465;0,0229887
2307,4106;0,0231606
2308,3750;0,023241
2309,3391;0,0231702
2310,3035;0,0229334
2311,2676;0,0225673
2312,2319;0,0221446
2313,1960;0,021742
2314,1604;0,0214102
2315,1245;0,0211624
2316,0889;0,0209835
2317,0530;0,0208521
2318,0173;0,020757
2318,9814;0,0207026
2319,9458;0,0207026
2320,9099;0,0207708
2321,8743;0,0209146
2322,8384;0,0211263
2323,8027;0,0213713
2324,7668;0,0215857
2325,7312;0,0216947
2326,6953;0,0216491
2327,6597;0,0214556
2328,6238;0,0211831
2329,5881;0,0209375
2330,5522;0,0208161
2331,5166;0,0208611
2332,4807;0,0210399
2333,4451;0,0212655
2334,4092;0,021446
2335,3735;0,0215346
2336,3376;0,0215526
2337,3020;0,0215753
2338,2661;0,0216871
2339,2305;0,021925
2340,1946;0,0222338
2341,1589;0,0224578
2342,1230;0,0223998
2343,0874;0,0219899
2344,0515;0,0214812
2345,0159;0,0213573
2345,9800;0,0218929
2346,9443;0,0228938
2347,9084;0,0238873
2348,8728;0,0244556
2349,8369;0,0244329
2350,8013;0,0239344
2351,7654;0,0232625
2352,7297;0,0227291
2353,6938;0,0224862
2354,6582;0,0225091
2355,6223;0,0227218
2356,5867;0,023069
2357,5508;0,0234659
2358,5151;0,0237636
2359,4792;0,0238187
2360,4436;0,0235915
2361,4077;0,0231509
2362,3721;0,0225895
2363,3362;0,0219606
2364,3005;0,0212876
2365,2646;0,0206002
2366,2290;0,0199435
2367,1931;0,0193581
2368,1575;0,0188631
2369,1216;0,0184588
2370,0859;0,0181388
2371,0500;0,0178987
2372,0144;0,0177413
2372,9785;0,0176802
2373,9429;0,01774
2374,9070;0,0179477
2375,8713;0,0183161
2376,8354;0,0188282
2377,7998;0,0194327
2378,7639;0,0200552
2379,7283;0,0206185
2380,6924;0,0210631
2381,6567;0,0213587
2382,6208;0,0215059
2383,5852;0,0215282
2384,5493;0,0214619
2385,5137;0,0213457
2386,4778;0,0212141
2387,4421;0,021093
2388,4063;0,0209986
2389,3706;0,0209371
2390,3347;0,0209063
2391,2991;0,0208983
2392,2632;0,0209028
2393,2275;0,0209106
2394,1917;0,0209162
2395,1560;0,0209177
2396,1201;0,0209165
2397,0845;0,0209159
2398,0486;0,0209211
2399,0129;0,0209353
2399,9771;0,020959
2400,9414;0,0209901
2401,9055;0,0210237
2402,8699;0,0210542
2403,8340;0,0210776
2404,7983;0,021093
2405,7625;0,0211022
2406,7268;0,0211073
2407,6909;0,0211105
2408,6553;0,0211142
2409,6194;0,0211207
2410,5837;0,0211338
2411,5479;0,0211569
2412,5122;0,0211907
2413,4763;0,0212312
2414,4407;0,0212707
2415,4048;0,0213015
2416,3691;0,0213194
2417,3333;0,0213267
2418,2976;0,0213299
2419,2617;0,021336
2420,2261;0,0213477
2421,1902;0,0213622
2422,1545;0,021374
2423,1187;0,0213793
2424,0830;0,0213789
2425,0471;0,0213783
2426,0115;0,0213842
2426,9756;0,0214012
2427,9399;0,02143
2428,9041;0,0214671
2429,8684;0,0215073
2430,8325;0,0215443
2431,7969;0,0215726
2432,7610;0,0215886
2433,7253;0,021592
2434,6895;0,0215877
2435,6538;0,0215843
2436,6179;0,0215904
2437,5823;0,0216095
2438,5464;0,0216377
2439,5107;0,0216654
2440,4749;0,0216839
2441,4392;0,0216909
2442,4033;0,0216923
2443,3677;0,021698
2444,3318;0,0217154
2445,2961;0,0217445
2446,2603;0,0217791
2447,2246;0,0218116
2448,1887;0,0218382
2449,1531;0,0218598
2450,1172;0,021879
2451,0815;0,0218963
2452,0457;0,0219085
2453,0100;0,0219118
2453,9741;0,0219059
2454,9385;0,0218952
2455,9026;0,0218877
2456,8669;0,0218899
2457,8311;0,0219046
2458,7954;0,0219306
2459,7595;0,0219662
2460,7239;0,0220104
2461,6880;0,0220629
2462,6523;0,0221212
2463,6165;0,0221783
2464,5808;0,0222242
2465,5449;0,0222493
2466,5093;0,0222489
2467,4734;0,0222259
2468,4377;0,0221895
2469,4019;0,0221512
2470,3662;0,0221216
2471,3303;0,0221074
2472,2947;0,022111
2473,2588;0,0221309
2474,2231;0,022163
2475,1873;0,0222016
2476,1516;0,0222406
2477,1157;0,022274
2478,0801;0,0222967
2479,0442;0,0223062
2480,0085;0,0223032
2480,9727;0,022293
2481,9370;0,0222848
2482,9011;0,0222879
2483,8655;0,0223076
2484,8296;0,0223417
2485,7939;0,02238
2486,7581;0,0224091
2487,7224;0,0224194
2488,6865;0,0224101
2489,6509;0,0223902
2490,6150;0,0223736
2491,5793;0,0223733
2492,5435;0,0223962
2493,5078;0,0224417
2494,4719;0,0225033
2495,4363;0,0225708
2496,4004;0,022632
2497,3647;0,0226745
2498,3289;0,0226879
2499,2932;0,0226688
2500,2573;0,0226243
2501,2217;0,0225722
2502,1858;0,0225356
2503,1501;0,0225323
2504,1143;0,0225657
2505,0786;0,0226215
2506,0427;0,0226747
2507,0071;0,0227036
2507,9712;0,0227014
2508,9355;0,022679
2509,8997;0,0226567
2510,8640;0,0226502
2511,8281;0,0226608
2512,7925;0,0226761
2513,7566;0,02268
2514,7209;0,0226648
2515,6851;0,0226365
2516,6494;0,0226095
2517,6135;0,0225964
2518,5779;0,0226009
2519,5420;0,0226177
2520,5063;0,0226395
2521,4705;0,0226632
2522,4348;0,0226911
2523,3989;0,0227258
2524,3633;0,022764
2525,3274;0,0227959
2526,2917;0,0228104
2527,2559;0,022803
2528,2202;0,0227802
2529,1843;0,0227557
2530,1487;0,0227423
2531,1128;0,022744
2532,0771;0,0227543
2533,0413;0,0227622
2534,0056;0,0227606
2534,9697;0,0227524
2535,9341;0,0227491
2536,8982;0,0227628
2537,8625;0,0227979
2538,8267;0,0228467
2539,7910;0,0228939
2540,7551;0,0229245
2541,7195;0,0229319
2542,6836;0,0229205
2543,6479;0,0229008
2544,6121;0,0228834
2545,5764;0,0228733
2546,5405;0,0228698
2547,5049;0,0228694
2548,4690;0,022869
2549,4333;0,0228667
2550,3975;0,0228615
2551,3618;0,0228528
2552,3259;0,0228426
2553,2903;0,0228361
2554,2544;0,0228418
2555,2188;0,0228666
2556,1829;0,02291
2557,1472;0,0229622
2558,1113;0,0230076
2559,0757;0,0230328
2560,0398;0,0230344
2561,0042;0,0230194
2561,9683;0,0230001
2562,9326;0,0229851
2563,8967;0,0229751
2564,8611;0,0229649
2565,8252;0,0229505
2566,7896;0,0229343
2567,7537;0,0229253
2568,7180;0,0229329
2569,6821;0,0229603
2570,6465;0,0230011
2571,6106;0,0230436
2572,5750;0,0230769
2573,5391;0,0230969
2574,5034;0,0231059
2575,4675;0,0231089
2576,4319;0,0231092
2577,3960;0,0231068
2578,3604;0,0231006
2579,3245;0,0230926
2580,2888;0,0230882
2581,2529;0,0230943
2582,2173;0,0231145
2583,1814;0,0231462
2584,1458;0,023182
2585,1099;0,023214
2586,0742;0,0232384
2587,0383;0,0232556
2588,0027;0,0232674
2588,9668;0,0232734
2589,9312;0,02327
2590,8953;0,0232541
2591,8596;0,023227
2592,8237;0,0231974
2593,7881;0,0231771
2594,7522;0,023175
2595,7166;0,023192
2596,6807;0,023221
2597,6450;0,0232521
2598,6091;0,0232789
2599,5735;0,0233014
2600,5376;0,0233237
2601,5020;0,023349
2602,4661;0,0233764
2603,4304;0,0234015
2604,3945;0,0234207
2605,3589;0,023434
2606,3230;0,0234453
2607,2874;0,0234587
2608,2515;0,0234749
2609,2158;0,0234902
2610,1799;0,0234991
2611,1443;0,023499
2612,1084;0,0234932
2613,0728;0,0234898
2614,0369;0,0234982
2615,0012;0,0235239
2615,9653;0,0235658
2616,9297;0,0236169
2617,8938;0,0236672
2618,8582;0,0237078
2619,8223;0,0237335
2620,7866;0,0237437
2621,7507;0,0237414
2622,7151;0,0237317
2623,6792;0,0237206
2624,6436;0,023714
2625,6077;0,0237171
2626,5720;0,023733
2627,5361;0,0237615
2628,5005;0,0237988
2629,4646;0,023838
2630,4290;0,0238729
2631,3931;0,0239004
2632,3574;0,023922
2633,3215;0,0239429
2634,2859;0,023968
2635,2500;0,0239991
2636,2144;0,0240335
2637,1785;0,0240667
2638,1428;0,0240949
2639,1069;0,0241181
2640,0713;0,0241392
2641,0354;0,0241612
2641,9998;0,0241846
2642,9639;0,0242079
2643,9282;0,0242291
2644,8923;0,0242486
2645,8567;0,0242692
2646,8208;0,0242939
2647,7852;0,0243231
2648,7493;0,0243529
2649,7136;0,024378
2650,6777;0,0243955
2651,6421;0,0244075
2652,6062;0,0244203
2653,5706;0,0244403
2654,5347;0,024469
2655,4990;0,0245019
2656,4631;0,0245316
2657,4275;0,0245526
2658,3916;0,0245659
2659,3560;0,0245783
2660,3201;0,0245982
2661,2844;0,0246298
2662,2485;0,0246707
2663,2129;0,0247135
2664,1770;0,0247509
2665,1414;0,0247797
2666,1055;0,0248021
2667,0698;0,0248228
2668,0339;0,0248453
2668,9983;0,0248692
2669,9624;0,0248919
2670,9268;0,024911
2671,8909;0,0249273
2672,8552;0,0249439
2673,8193;0,0249639
2674,7837;0,024988
2675,7478;0,0250146
2676,7122;0,025041
2677,6763;0,0250662
2678,6406;0,025091
2679,6047;0,0251169
2680,5691;0,0251448
2681,5332;0,0251742
2682,4976;0,0252044
2683,4617;0,0252354
2684,4260;0,0252681
2685,3901;0,0253036
2686,3545;0,0253416
2687,3186;0,0253807
2688,2830;0,0254185
2689,2471;0,0254541
2690,2114;0,0254876
2691,1755;0,0255204
2692,1399;0,0255537
2693,1040;0,0255879
2694,0684;0,0256223
2695,0325;0,0256551
2695,9968;0,0256844
2696,9609;0,0257082
2697,9253;0,0257255
2698,8894;0,0257371
2699,8538;0,0257465
2700,8179;0,0257592
2701,7822;0,0257815
2702,7463;0,0258175
2703,7107;0,0258668
2704,6748;0,0259242
2705,6392;0,025981
2706,6033;0,0260288
2707,5676;0,0260634
2708,5317;0,0260862
2709,4961;0,0261039
2710,4602;0,0261248
2711,4246;0,0261546
2712,3887;0,0261937
2713,3530;0,026237
2714,3171;0,0262769
2715,2815;0,0263067
2716,2456;0,0263233
2717,2100;0,0263285
2718,1741;0,0263282
2719,1384;0,02633
2720,1025;0,0263409
2721,0669;0,0263646
2722,0310;0,0264001
2722,9954;0,026442
2723,9595;0,0264827
2724,9238;0,0265167
2725,8879;0,0265432
2726,8523;0,0265665
2727,8164;0,026593
2728,7808;0,0266274
2729,7449;0,0266693
2730,7092;0,0267135
2731,6733;0,0267525
2732,6377;0,0267803
2733,6018;0,0267952
2734,5662;0,0268002
2735,5303;0,026801
2736,4946;0,0268042
2737,4587;0,0268151
2738,4231;0,0268363
2739,3872;0,0268674
2740,3516;0,0269053
2741,3157;0,0269453
2742,2800;0,0269825
2743,2441;0,0270125
2744,2085;0,0270329
2745,1726;0,0270432
2746,1370;0,0270457
2747,1011;0,0270449
2748,0654;0,0270465
2749,0295;0,0270556
2749,9939;0,0270749
2750,9580;0,0271039
2751,9224;0,0271395
2752,8865;0,0271779
2753,8508;0,0272166
2754,8149;0,0272549
2755,7793;0,0272935
2756,7434;0,0273328
2757,7078;0,0273724
2758,6719;0,0274114
2759,6362;0,0274493
2760,6003;0,0274867
2761,5647;0,0275241
2762,5288;0,0275614
2763,4932;0,0275965
2764,4573;0,0276272
2765,4216;0,0276529
2766,3857;0,0276765
2767,3501;0,0277036
2768,3142;0,0277401
2769,2786;0,027788
2770,2427;0,0278433
2771,2070;0,0278977
2772,1711;0,0279429
2773,1355;0,0279759
2774,0996;0,028001
2775,0640;0,0280283
2776,0281;0,0280681
2776,9924;0,0281256
2777,9565;0,0281979
2778,9209;0,0282754
2779,8850;0,0283461
2780,8494;0,0284012
2781,8135;0,028438
2782,7778;0,0284608
2783,7419;0,0284787
2784,7063;0,0285014
2785,6704;0,0285357
2786,6348;0,0285833
2787,5989;0,0286407
2788,5632;0,0287023
2789,5273;0,0287639
2790,4917;0,0288248
2791,4558;0,0288876
2792,4202;0,0289551
2793,3843;0,029028
2794,3486;0,029104
2795,3127;0,0291791
2796,2771;0,0292511
2797,2412;0,0293202
2798,2056;0,0293894
2799,1697;0,0294615
2800,1340;0,0295385
2801,0981;0,0296209
2802,0625;0,0297087
2803,0266;0,0298016
2803,9910;0,0298983
2804,9551;0,0299958
2805,9194;0,0300893
2806,8835;0,0301748
2807,8479;0,0302521
2808,8120;0,0303258
2809,7764;0,0304035
2810,7405;0,0304921
2811,7048;0,0305937
2812,6689;0,0307058
2813,6333;0,0308234
2814,5974;0,0309432
2815,5618;0,0310653
2816,5259;0,0311925
2817,4902;0,0313275
2818,4543;0,0314702
2819,4187;0,0316178
2820,3828;0,031766
2821,3472;0,0319115
2822,3113;0,0320534
2823,2756;0,0321931
2824,2397;0,0323341
2825,2041;0,0324808
2826,1682;0,0326381
2827,1326;0,0328101
2828,0967;0,0329992
2829,0610;0,033205
2830,0251;0,033425
2830,9895;0,0336557
2831,9536;0,0338951
2832,9180;0,0341423
2833,8821;0,0343969
2834,8464;0,0346574
2835,8105;0,0349207
2836,7749;0,035184
2837,7390;0,0354487
2838,7034;0,0357211
2839,6675;0,036012
2840,6318;0,0363321
2841,5959;0,0366883
2842,5603;0,0370812
2843,5244;0,0375062
2844,4888;0,0379541
2845,4529;0,0384119
2846,4172;0,0388618
2847,3813;0,0392806
2848,3457;0,039643
2849,3098;0,0399275
2850,2742;0,0401237
2851,2383;0,0402365
2852,2026;0,0402834
2853,1667;0,0402884
2854,1311;0,0402732
2855,0952;0,0402525
2856,0596;0,0402339
2857,0237;0,0402211
2857,9880;0,0402177
2858,9521;0,0402293
2859,9165;0,0402622
2860,8806;0,0403215
2861,8450;0,0404083
2862,8091;0,0405197
2863,7734;0,0406496
2864,7375;0,0407902
2865,7019;0,0409344
2866,6660;0,0410764
2867,6304;0,0412125
2868,5945;0,0413406
2869,5588;0,0414596
2870,5229;0,0415682
2871,4873;0,0416648
2872,4514;0,0417484
2873,4158;0,0418195
2874,3799;0,0418812
2875,3442;0,0419386
2876,3083;0,0419973
2877,2727;0,0420608
2878,2368;0,0421288
2879,2012;0,042198
2880,1653;0,0422639
2881,1296;0,0423237
2882,0938;0,042379
2883,0581;0,0424344
2884,0222;0,0424959
2884,9866;0,0425672
2885,9507;0,0426481
2886,9150;0,0427353
2887,8792;0,042825
2888,8435;0,0429155
2889,8076;0,0430086
2890,7720;0,0431078
2891,7361;0,0432149
2892,7004;0,0433276
2893,6646;0,0434387
2894,6289;0,0435389
2895,5930;0,0436212
2896,5574;0,0436846
2897,5215;0,0437347
2898,4858;0,0437809
2899,4500;0,0438324
2900,4143;0,0438938
2901,3784;0,0439644
2902,3428;0,0440398
2903,3069;0,0441161
2904,2712;0,0441923
2905,2354;0,044271
2906,1997;0,0443567
2907,1638;0,0444537
2908,1282;0,0445647
2909,0923;0,0446918
2910,0566;0,0448369
2911,0208;0,0450016
2911,9851;0,045185
2912,9492;0,0453815
2913,9136;0,0455791
2914,8777;0,045761
2915,8420;0,04591
2916,8062;0,0460127
2917,7705;0,0460624
2918,7346;0,0460596
2919,6990;0,0460096
2920,6631;0,0459199
2921,6274;0,0457981
2922,5916;0,045651
2923,5559;0,0454839
2924,5200;0,0453001
2925,4844;0,0451012
2926,4485;0,0448872
2927,4128;0,0446589
2928,3770;0,0444195
2929,3413;0,0441752
2930,3054;0,0439342
2931,2698;0,0437031
2932,2339;0,0434835
2933,1982;0,0432714
2934,1624;0,0430587
2935,1267;0,0428374
2936,0908;0,0426039
2937,0552;0,0423594
2938,0193;0,0421084
2938,9836;0,0418543
2939,9478;0,0415975
2940,9121;0,0413346
2941,8762;0,0410619
2942,8406;0,0407791
2943,8047;0,0404907
2944,7690;0,0402055
2945,7332;0,0399328
2946,6975;0,0396791
2947,6616;0,0394469
2948,6260;0,0392352
2949,5901;0,0390418
2950,5544;0,038864
2951,5186;0,0386994
2952,4829;0,0385442
2953,4470;0,0383931
2954,4114;0,0382402
2955,3755;0,0380804
2956,3398;0,0379116
2957,3040;0,0377348
2958,2683;0,037553
2959,2324;0,0373694
2960,1968;0,0371852
2961,1609;0,0370002
2962,1252;0,0368132
2963,0894;0,036624
2964,0537;0,0364343
2965,0178;0,0362474
2965,9822;0,036066
2966,9463;0,0358902
2967,9106;0,0357162
2968,8748;0,0355378
2969,8391;0,0353497
2970,8032;0,0351506
2971,7676;0,0349448
2972,7317;0,0347409
2973,6960;0,0345478
2974,6602;0,0343708
2975,6245;0,0342096
2976,5886;0,0340591
2977,5530;0,0339131
2978,5171;0,0337671
2979,4814;0,0336202
2980,4456;0,0334751
2981,4099;0,0333364
2982,3740;0,0332097
2983,3384;0,0330996
2984,3025;0,0330095
2985,2668;0,0329403
2986,2310;0,0328892
2987,1953;0,0328498
2988,1594;0,0328143
2989,1238;0,0327764
2990,0879;0,0327336
2991,0522;0,0326888
2992,0164;0,0326473
2992,9807;0,0326137
2993,9448;0,0325897
2994,9092;0,0325741
2995,8733;0,0325655
2996,8376;0,0325641
2997,8018;0,0325723
2998,7661;0,0325917
2999,7302;0,0326204
3000,6946;0,0326531
3001,6587;0,0326831
3002,6230;0,0327076
3003,5872;0,0327294
3004,5515;0,0327562
3005,5156;0,0327946
3006,4800;0,0328454
3007,4441;0,0329019
3008,4084;0,032953
3009,3726;0,0329891
3010,3369;0,0330075
3011,3010;0,033013
3012,2654;0,0330156
3013,2295;0,0330244
3014,1938;0,0330443
3015,1580;0,0330745
3016,1223;0,0331115
3017,0864;0,033152
3018,0508;0,0331954
3019,0149;0,033244
3019,9792;0,0333011
3020,9434;0,0333687
3021,9077;0,0334461
3022,8718;0,0335303
3023,8362;0,0336178
3024,8003;0,0337061
3025,7646;0,0337948
3026,7288;0,033884
3027,6931;0,0339727
3028,6572;0,0340585
3029,6216;0,0341379
3030,5857;0,0342088
3031,5500;0,0342724
3032,5142;0,034333
3033,4785;0,0343963
3034,4426;0,0344669
3035,4070;0,0345465
3036,3711;0,0346342
3037,3354;0,034726
3038,2996;0,0348166
3039,2639;0,0348997
3040,2280;0,034971
3041,1924;0,0350319
3042,1565;0,0350907
3043,1208;0,0351615
3044,0850;0,0352574
3045,0493;0,0353827
3046,0134;0,0355289
3046,9778;0,0356779
3047,9419;0,035811
3048,9063;0,0359202
3049,8704;0,0360116
3050,8347;0,0361014
3051,7988;0,0362047
3052,7632;0,0363263
3053,7273;0,036459
3054,6917;0,0365899
3055,6558;0,0367096
3056,6201;0,0368186
3057,5842;0,0369264
3058,5486;0,0370443
3059,5127;0,0371776
3060,4771;0,0373226
3061,4412;0,0374684
3062,4055;0,0376026
3063,3696;0,0377168
3064,3340;0,0378102
3065,2981;0,0378887
3066,2625;0,0379627
3067,2266;0,0380424
3068,1909;0,0381347
3069,1550;0,0382415
3070,1194;0,03836
3071,0835;0,0384856
3072,0479;0,0386146
3073,0120;0,0387456
3073,9763;0,0388797
3074,9404;0,0390176
3075,9048;0,0391574
3076,8689;0,0392935
3077,8333;0,0394186
3078,7974;0,0395264
3079,7617;0,0396159
3080,7258;0,0396916
3081,6902;0,039763
3082,6543;0,0398403
3083,6187;0,0399308
3084,5828;0,0400369
3085,5471;0,040155
3086,5112;0,0402786
3087,4756;0,0404009
3088,4397;0,0405189
3089,4041;0,0406341
3090,3682;0,0407517
3091,3325;0,0408773
3092,2966;0,0410136
3093,2610;0,0411594
3094,2251;0,0413104
3095,1895;0,0414612
3096,1536;0,0416067
3097,1179;0,041743
3098,0820;0,0418674
3099,0464;0,041979
3100,0105;0,0420798
3100,9749;0,0421757
3101,9390;0,0422753
3102,9033;0,0423862
3103,8674;0,0425119
3104,8318;0,0426501
3105,7959;0,0427938
3106,7603;0,0429362
3107,7244;0,0430737
3108,6887;0,0432078
3109,6528;0,0433436
3110,6172;0,0434865
3111,5813;0,043639
3112,5457;0,0437991
3113,5098;0,043961
3114,4741;0,0441179
3115,4382;0,0442639
3116,4026;0,0443969
3117,3667;0,0445191
3118,3311;0,0446365
3119,2952;0,0447568
3120,2595;0,0448867
3121,2236;0,04503
3122,1880;0,0451853
3123,1521;0,0453477
3124,1165;0,0455097
3125,0806;0,0456653
3126,0449;0,0458122
3127,0090;0,0459526
3127,9734;0,0460909
3128,9375;0,0462309
3129,9019;0,0463733
3130,8660;0,0465162
3131,8303;0,0466569
3132,7944;0,0467955
3133,7588;0,0469357
3134,7229;0,047083
3135,6873;0,0472408
3136,6514;0,0474078
3137,6157;0,0475776
3138,5798;0,0477429
3139,5442;0,0478988
3140,5083;0,0480462
3141,4727;0,0481909
3142,4368;0,0483408
3143,4011;0,0485015
3144,3652;0,0486753
3145,3296;0,0488605
3146,2937;0,0490536
3147,2581;0,0492498
3148,2222;0,0494438
3149,1865;0,0496291
3150,1506;0,0498001
3151,1150;0,0499541
3152,0791;0,0500943
3153,0435;0,0502292
3154,0076;0,0503696
3154,9719;0,0505235
3155,9360;0,0506924
3156,9004;0,0508719
3157,8645;0,0510555
3158,8289;0,0512395
3159,7930;0,0514244
3160,7573;0,051613
3161,7214;0,0518061
3162,6858;0,0520009
3163,6499;0,0521917
3164,6143;0,0523741
3165,5784;0,0525483
3166,5427;0,0527184
3167,5068;0,0528896
3168,4712;0,0530648
3169,4353;0,0531572
3170,3997;0,0533376
3171,3638;0,0535187
3172,3281;0,0537001
3173,2922;0,053882
3174,2566;0,0540633
3175,2207;0,0542418
3176,1851;0,054416
3177,1492;0,054587
3178,1135;0,0547589
3179,0776;0,0549359
3180,0420;0,0551192
3181,0061;0,0553048
3181,9705;0,0554857
3182,9346;0,0556566
3183,8989;0,0558175
3184,8630;0,0559753
3185,8274;0,0561391
3186,7915;0,0563152
3187,7559;0,0565034
3188,7200;0,0566982
3189,6843;0,0568928
3190,6484;0,0570832
3191,6128;0,0572693
3192,5769;0,057453
3193,5413;0,0576343
3194,5054;0,0578109
3195,4697;0,0579789
3196,4338;0,0581362
3197,3982;0,0582841
3198,3623;0,0584269
3199,3267;0,0585698
3200,2908;0,0587175
3201,2551;0,0588732
3202,2192;0,0590392
3203,1836;0,0592164
3204,1477;0,0594032
3205,1121;0,0595946
3206,0762;0,059784
3207,0405;0,0599651
3208,0046;0,0601355
3208,9690;0,0602965
3209,9331;0,0604523
3210,8975;0,0606064
3211,8616;0,0607602
3212,8259;0,0609124
3213,7900;0,0610613
3214,7544;0,0612059
3215,7185;0,0613472
3216,6829;0,0614886
3217,6470;0,061635
3218,6113;0,0617921
3219,5754;0,0619639
3220,5398;0,0621499
3221,5039;0,0623434
3222,4683;0,0625335
3223,4324;0,0627092
3224,3967;0,0628654
3225,3608;0,0630063
3226,3252;0,063143
3227,2893;0,0632879
3228,2537;0,063447
3229,2178;0,063617
3230,1821;0,0637886
3231,1462;0,0639531
3232,1106;0,0641077
3233,0747;0,0642568
3234,0391;0,0644068
3235,0032;0,0645605
3235,9675;0,0647158
3236,9316;0,0648683
3237,8960;0,0650176
3238,8601;0,0651704
3239,8245;0,065337
3240,7886;0,0655241
3241,7529;0,0657276
3242,7170;0,0659332
3243,6814;0,0661226
3244,6455;0,0662843
3245,6099;0,0664211
3246,5740;0,0665481
3247,5383;0,0666841
3248,5024;0,0668412
3249,4668;0,0670204
3250,4309;0,0672137
3251,3953;0,067411
3252,3594;0,0676053
3253,3237;0,0677945
3254,2878;0,0679801
3255,2522;0,068164
3256,2163;0,0683473
3257,1807;0,0685311
3258,1448;0,068717
3259,1091;0,0689071
3260,0732;0,0691016
3261,0376;0,0692985
3262,0017;0,0694935
3262,9661;0,0696835
3263,9302;0,0698673
3264,8945;0,0700466
3265,8586;0,070223
3266,8230;0,070396
3267,7871;0,0705623
3268,7515;0,0707171
3269,7156;0,0708565
3270,6799;0,0709779
3271,6440;0,0710806
3272,6084;0,0711648
3273,5725;0,0712329
3274,5369;0,0712909
3275,5010;0,0713489
3276,4653;0,0714188
3277,4294;0,0715087
3278,3938;0,0716188
3279,3579;0,0717399
3280,3223;0,0718569
3281,2864;0,0719556
3282,2507;0,0720286
3283,2148;0,0720779
3284,1792;0,0721128
3285,1433;0,0721448
3286,1077;0,0721821
3287,0718;0,0722268
3288,0361;0,0722749
3289,0002;0,0723197
3289,9646;0,072356
3290,9287;0,0723829
3291,8931;0,072404
3292,8572;0,0724242
3293,8215;0,0724461
3294,7856;0,0724678
3295,7500;0,0724839
3296,7141;0,0724899
3297,6785;0,0724862
3298,6426;0,072479
3299,6069;0,0724778
3300,5710;0,0724906
3301,5354;0,0725196
3302,4995;0,0725608
3303,4639;0,0726048
3304,4280;0,0726403
3305,3923;0,0726582
3306,3564;0,072654
3307,3208;0,0726297
3308,2849;0,0725929
3309,2493;0,0725546
3310,2134;0,0725254
3311,1777;0,0725126
3312,1418;0,0725195
3313,1062;0,0725461
3314,0703;0,072591
3315,0347;0,0726519
3315,9988;0,0727246
3316,9631;0,0728038
3317,9272;0,0728844
3318,8916;0,0729648
3319,8557;0,0730482
3320,8201;0,0731405
3321,7842;0,0732451
3322,7485;0,0733585
3323,7126;0,0734702
3324,6770;0,0735677
3325,6411;0,0736439
3326,6055;0,0737021
3327,5696;0,0737536
3328,5339;0,073811
3329,4980;0,0738807
3330,4624;0,07396
3331,4265;0,0740392
3332,3909;0,074107
3333,3550;0,0741551
3334,3193;0,0741798
3335,2834;0,0741816
3336,2478;0,0741631
3337,2119;0,0741281
3338,1763;0,07408
3339,1404;0,0740208
3340,1047;0,0739501
3341,0688;0,0738657
3342,0332;0,0737645
3342,9973;0,0736447
3343,9617;0,0735082
3344,9258;0,0733604
3345,8901;0,0732095
3346,8542;0,0730635
3347,8186;0,0729274
3348,7827;0,0728012
3349,7471;0,07268
3350,7112;0,0725559
3351,6755;0,0724223
3352,6396;0,072277
3353,6040;0,0721238
3354,5681;0,0719708
3355,5325;0,0718251
3356,4966;0,0716893
3357,4609;0,0715598
3358,4250;0,0714296
3359,3894;0,0712939
3360,3535;0,0711534
3361,3179;0,071014
3362,2820;0,0708823
3363,2463;0,0707599
3364,2104;0,0706412
3365,1748;0,0705158
3366,1389;0,0703734
3367,1033;0,0702096
3368,0674;0,0700275
3369,0317;0,0698359
3369,9958;0,0696443
3370,9602;0,0694599
3371,9243;0,0692862
3372,8887;0,0691236
3373,8528;0,0689715
3374,8171;0,0688287
3375,7813;0,0686943
3376,7456;0,068567
3377,7097;0,0684439
3378,6741;0,0683202
3379,6382;0,0681886
3380,6025;0,0680417
3381,5667;0,0678748
3382,5310;0,0676903
3383,4951;0,0674995
3384,4595;0,0673205
3385,4236;0,0671706
3386,3879;0,0670566
3387,3521;0,0669708
3388,3164;0,0668937
3389,2805;0,066804
3390,2449;0,0666899
3391,2090;0,066553
3392,1733;0,0664056
3393,1375;0,0662602
3394,1018;0,0661212
3395,0659;0,0659831
3396,0303;0,0658368
3396,9944;0,0656779
3397,9587;0,0655094
3398,9229;0,065339
3399,8872;0,0651714
3400,8513;0,065005
3401,8157;0,064834
3402,7798;0,0646541
3403,7441;0,0644674
3404,7083;0,0642809
3405,6726;0,0641028
3406,6367;0,0639365
3407,6011;0,0637787
3408,5652;0,063621
3409,5295;0,0634536
3410,4937;0,0632695
3411,4580;0,0630671
3412,4221;0,062852
3413,3865;0,0626357
3414,3506;0,0624313
3415,3149;0,0622464
3416,2791;0,0620787
3417,2434;0,0619142
3418,2075;0,0617333
3419,1719;0,0615206
3420,1360;0,0612749
3421,1003;0,0610114
3422,0645;0,0607538
3423,0288;0,0605206
3423,9929;0,0603154
3424,9573;0,0601262
3425,9214;0,0599336
3426,8857;0,0597214
3427,8499;0,0594845
3428,8142;0,0592299
3429,7783;0,0589718
3430,7427;0,0587239
3431,7068;0,0584925
3432,6711;0,0582756
3433,6353;0,0580659
3434,5996;0,0578551
3435,5637;0,0576377
3436,5281;0,0574128
3437,4922;0,0571841
3438,4565;0,0569595
3439,4207;0,0567494
3440,3850;0,0565627
3441,3491;0,0564006
3442,3135;0,0562522
3443,2776;0,056095
3444,2419;0,0559026
3445,2061;0,0556571
3446,1704;0,0553603
3447,1345;0,0550352
3448,0989;0,0547156
3449,0630;0,0544277
3450,0273;0,0541787
3450,9915;0,0539591
3451,9558;0,0537538
3452,9199;0,0535529
3453,8843;0,053355
3454,8484;0,0531626
3455,8127;0,0529749
3456,7769;0,0527837
3457,7412;0,0525766
3458,7053;0,0523442
3459,6697;0,0520871
3460,6338;0,0518174
3461,5981;0,0515525
3462,5623;0,0513052
3463,5266;0,0510765
3464,4907;0,0508561
3465,4551;0,0506306
3466,4192;0,0503934
3467,3835;0,0501499
3468,3477;0,0499124
3469,3120;0,0496902
3470,2761;0,0494802
3471,2405;0,0492672
3472,2046;0,0490347
3473,1689;0,048779
3474,1331;0,0485157
3475,0974;0,0482723
3476,0615;0,0480704
3477,0259;0,0479109
3477,9900;0,047772
3478,9543;0,0476231
3479,9185;0,0474431
3480,8828;0,0472324
3481,8469;0,0470096
3482,8113;0,0467945
3483,7754;0,0465913
3484,7397;0,046385
3485,7039;0,0461545
3486,6682;0,0458903
3487,6323;0,0456055
3488,5967;0,0453308
3489,5608;0,0450967
3490,5251;0,0449143
3491,4893;0,0447678
3492,4536;0,0446233
3493,4177;0,0444475
3494,3821;0,044228
3495,3462;0,0439842
3496,3105;0,0437589
3497,2747;0,043593
3498,2390;0,0434967
3499,2031;0,0434389
3500,1675;0,0433578
3501,1316;0,0431919
3502,0959;0,0429169
3503,0601;0,0425685
3504,0244;0,042224
3504,9885;0,0419504
3505,9529;0,0417632
3506,9170;0,0416247
3507,8813;0,0414745
3508,8455;0,0412671
3509,8098;0,0409977
3510,7739;0,0407007
3511,7383;0,0404221
3512,7024;0,0401876
3513,6667;0,0399939
3514,6309;0,0398219
3515,5952;0,039657
3516,5593;0,0394999
3517,5237;0,0393615
3518,4878;0,0392505
3519,4521;0,0391624
3520,4163;0,0390803
3521,3806;0,0389842
3522,3447;0,0388607
3523,3091;0,0387067
3524,2732;0,0385221
3525,2375;0,038301
3526,2017;0,0380295
3527,1660;0,0376981
3528,1301;0,0373188
3529,0945;0,0369319
3530,0586;0,036591
3531,0229;0,0363351
3531,9871;0,0361684
3532,9514;0,0360598
3533,9155;0,0359577
3534,8799;0,0358124
3535,8440;0,0356003
3536,8083;0,0353397
3537,7725;0,0350844
3538,7368;0,0348961
3539,7009;0,0348121
3540,6653;0,0348274
3541,6294;0,0348937
3542,5938;0,0349322
3543,5579;0,0348592
3544,5222;0,034629
3545,4863;0,03427
3546,4507;0,0338756
3547,4148;0,0335412
3548,3792;0,0333019
3549,3433;0,0331244
3550,3076;0,0329428
3551,2717;0,0327063
3552,2361;0,0324122
3553,2002;0,032107
3554,1646;0,0318513
3555,1287;0,0316752
3556,0930;0,0315634
3557,0571;0,031477
3558,0215;0,0313885
3558,9856;0,0313059
3559,9500;0,0312688
3560,9141;0,0313168
3561,8784;0,0314513
3562,8425;0,0316151
3563,8069;0,0316955
3564,7710;0,0315476
3565,7354;0,0310624
3566,6995;0,0302895
3567,6638;0,0294763
3568,6279;0,0288899
3569,5923;0,0286149
3570,5564;0,0285584
3571,5208;0,0285749
3572,4849;0,0285582
3573,4492;0,0284694
3574,4133;0,0283243
3575,3777;0,0281611
3576,3418;0,0280082
3577,3062;0,0278711
3578,2703;0,0277466
3579,2346;0,0276454
3580,1987;0,027598
3581,1631;0,0276342
3582,1272;0,0277527
3583,0916;0,0279048
3584,0557;0,0279993
3585,0200;0,0279233
3585,9841;0,027596
3586,9485;0,0270634
3587,9126;0,0265355
3588,8770;0,0262422
3589,8411;0,0262484
3590,8054;0,0264466
3591,7695;0,0266681
3592,7339;0,0267769
3593,6980;0,0267156
3594,6624;0,0265179
3595,6265;0,0262747
3596,5908;0,0260594
3597,5549;0,0258758
3598,5193;0,0256768
3599,4834;0,0254274
3600,4478;0,0251516
3601,4119;0,0249198
3602,3762;0,0247878
3603,3403;0,0247472
3604,3047;0,024728
3605,2688;0,0246364
3606,2332;0,0243981
3607,1973;0,023998
3608,1616;0,0234994
3609,1257;0,0230141
3610,0901;0,0226377
3611,0542;0,0224096
3612,0186;0,0223222
3612,9827;0,022345
3613,9470;0,0224332
3614,9111;0,0225259
3615,8755;0,0225478
3616,8396;0,0224274
3617,8040;0,0221364
3618,7681;0,0217398
3619,7324;0,0214043
3620,6965;0,0213046
3621,6609;0,0214945
3622,6250;0,0218825
3623,5894;0,0223077
3624,5535;0,0226154
3625,5178;0,0226813
3626,4819;0,0224059
3627,4463;0,0217438
3628,4104;0,0208228
3629,3748;0,0199828
3630,3389;0,0195059
3631,3032;0,0193743
3632,2673;0,0193823
3633,2317;0,0193469
3634,1958;0,0191986
3635,1602;0,0189676
3636,1243;0,0187249
3637,0886;0,0185217
3638,0527;0,0183633
3639,0171;0,0182292
3639,9812;0,0181101
3640,9456;0,0180259
3641,9097;0,0180096
3642,8740;0,0180759
3643,8381;0,0182019
3644,8025;0,0183286
3645,7666;0,0183602
3646,7310;0,0181415
3647,6951;0,0174841
3648,6594;0,0164067
3649,6235;0,0153607
3650,5879;0,014828
3651,5520;0,0148329
3652,5164;0,0150868
3653,4805;0,0153038
3654,4448;0,0153302
3655,4089;0,0151587
3656,3733;0,0149
3657,3374;0,0147018
3658,3018;0,0146386
3659,2659;0,0146737
3660,2302;0,0147228
3661,1943;0,0147408
3662,1587;0,0147522
3663,1228;0,0148156
3664,0872;0,0149583
3665,0513;0,0151437
3666,0156;0,0152892
3666,9797;0,0153127
3667,9441;0,0151769
3668,9082;0,0149281
3669,8726;0,014696
3670,8367;0,0145944
3671,8010;0,014607
3672,7651;0,0146037
3673,7295;0,0144455
3674,6936;0,0140865
3675,6580;0,0136479
3676,6221;0,0133628
3677,5864;0,0133627
3678,5505;0,0135784
3679,5149;0,013863
3680,4790;0,0141273
3681,4434;0,014367
3682,4075;0,0146161
3683,3718;0,0148874
3684,3359;0,0151468
3685,3003;0,0153287
3686,2644;0,0153678
3687,2288;0,0152244
3688,1929;0,0149144
3689,1572;0,0145528
3690,1213;0,0143275
3691,0857;0,0143507
3692,0498;0,0145792
3693,0142;0,0148967
3693,9783;0,0152135
3694,9426;0,0154928
3695,9067;0,015729
3696,8711;0,0159169
3697,8352;0,0160378
3698,7996;0,0160654
3699,7637;0,0159885
3700,7280;0,0158365
3701,6921;0,0156887
3702,6565;0,0156409
3703,6206;0,0157443
3704,5850;0,0159742
3705,5491;0,0162525
3706,5134;0,016488
3707,4775;0,0165927
3708,4419;0,0164722
3709,4060;0,0160336
3710,3704;0,0152763
3711,3345;0,0144144
3712,2988;0,0137886
3713,2629;0,0135959
3714,2273;0,0137941
3715,1914;0,0142255
3716,1558;0,0147439
3717,1199;0,015261
3718,0842;0,0157403
3719,0483;0,0161752
3720,0127;0,016567
3720,9768;0,0169103
3721,9412;0,0171874
3722,9053;0,0173755
3723,8696;0,0174648
3724,8337;0,0174758
3725,7981;0,0174566
3726,7622;0,0174539
3727,7266;0,0174838
3728,6907;0,0175324
3729,6550;0,0175794
3730,6191;0,0176131
3731,5835;0,0176165
3732,5476;0,0175283
3733,5120;0,0172295
3734,4761;0,016645
3735,4404;0,015912
3736,4045;0,0153371
3737,3689;0,0151186
3738,3330;0,0152049
3739,2974;0,0153922
3740,2615;0,0154655
3741,2258;0,0152775
3742,1899;0,0147906
3743,1543;0,0141202
3744,1184;0,0135412
3745,0828;0,0133321
3746,0469;0,0135287
3747,0112;0,0138983
3747,9753;0,0141266
3748,9397;0,0139755
3749,9038;0,0133965
3750,8682;0,0126456
3751,8323;0,0121686
3752,7966;0,0121987
3753,7607;0,0126018
3754,7251;0,0130951
3755,6892;0,0134535
3756,6536;0,0135692
3757,6177;0,0134519
3758,5820;0,0132148
3759,5461;0,0130175
3760,5105;0,0129677
3761,4746;0,0130664
3762,4390;0,0132409
3763,4031;0,0134081
3764,3674;0,0135126
3765,3315;0,013532
3766,2959;0,0134653
3767,2600;0,0133188
3768,2244;0,0131041
3769,1885;0,0128531
3770,1528;0,0126308
3771,1169;0,0125171
3772,0813;0,0125591
3773,0454;0,0127386
3774,0098;0,012984
3774,9739;0,0132084
3775,9382;0,0133417
3776,9023;0,0133508
3777,8667;0,0132517
3778,8308;0,0131098
3779,7952;0,0130084
3780,7593;0,0129937
3781,7236;0,0130504
3782,6877;0,0131241
3783,6521;0,0131617
3784,6162;0,0131384
3785,5806;0,0130662
3786,5447;0,0129851
3787,5090;0,012941
3788,4731;0,012964
3789,4375;0,0130557
3790,4016;0,0131917
3791,3660;0,0133358
3792,3301;0,0134596
3793,2944;0,0135563
3794,2585;0,0136411
3795,2229;0,0137329
3796,1870;0,0138282
3797,1514;0,0138859
3798,1155;0,0138412
3799,0798;0,0136467
3800,0439;0,0133251
3801,0083;0,0129929
3801,9724;0,0127961
3802,9368;0,0127815
3803,9009;0,012851
3804,8652;0,0128509
3805,8293;0,0126991
3806,7937;0,0124614
3807,7578;0,0123185
3808,7222;0,0124186
3809,6863;0,0127472
3810,6506;0,0131529
3811,6147;0,0134647
3812,5791;0,0135827
3813,5432;0,013512
3814,5076;0,0133543
3815,4717;0,0132506
3816,4360;0,0132793
3817,4001;0,0133876
3818,3645;0,0134319
3819,3286;0,0132924
3820,2930;0,0129821
3821,2571;0,0126683
3822,2214;0,0125444
3823,1855;0,0126651
3824,1499;0,012933
3825,1140;0,0132068
3826,0784;0,0133934
3827,0425;0,013473
3828,0068;0,0134798
3828,9709;0,0134651
3829,9353;0,0134664
3830,8994;0,0134962
3831,8638;0,013549
3832,8279;0,013611
3833,7922;0,0136657
3834,7563;0,0136942
3835,7207;0,0136783
3836,6848;0,0136088
3837,6492;0,0134978
3838,6133;0,0133824
3839,5776;0,0132973
3840,5417;0,0132406
3841,5061;0,0131783
3842,4702;0,0130911
3843,4346;0,0130128
3844,3987;0,0130226
3845,3630;0,0131935
3846,3271;0,0135368
3847,2915;0,0139861
3848,2556;0,0144233
3849,2200;0,0147125
3850,1841;0,0147126
3851,1484;0,0142781
3852,1125;0,0133401
3853,0769;0,0121606
3854,0410;0,0113602
3855,0054;0,0113143
3855,9695;0,0118433
3856,9338;0,0125727
3857,8979;0,013236
3858,8623;0,0137181
3859,8264;0,0140018
3860,7908;0,0141142
3861,7549;0,0140962
3862,7192;0,013998
3863,6833;0,0138841
3864,6477;0,0138144
3865,6118;0,0138098
3866,5762;0,0138453
3867,5403;0,0138741
3868,5046;0,0138507
3869,4688;0,0137458
3870,4331;0,0135608
3871,3972;0,0133393
3872,3616;0,013154
3873,3257;0,0130684
3874,2900;0,0131064
3875,2542;0,0132471
3876,2185;0,0134422
3877,1826;0,013638
3878,1470;0,0137931
3879,1111;0,013887
3880,0754;0,0139187
3881,0396;0,0138941
3882,0039;0,0138089
3882,9680;0,0136509
3883,9324;0,0134325
3884,8965;0,0132204
3885,8608;0,013113
3886,8250;0,0131674
3887,7893;0,0133456
3888,7534;0,0135353
3889,7178;0,013619
3890,6819;0,0135494
3891,6462;0,0133953
3892,6104;0,0133048
3893,5747;0,0133861
3894,5388;0,0136267
3895,5032;0,0139303
3896,4673;0,0141959
3897,4316;0,0143627
3898,3958;0,0144142
3899,3601;0,0143644
3900,3242;0,0142356
3901,2886;0,0140394
3902,2527;0,0137783
3903,2170;0,0134747
3904,1812;0,0131906
3905,1455;0,0129978
3906,1096;0,0129266
3907,0740;0,0129529
3908,0381;0,013029
3909,0024;0,0131203
3909,9666;0,0132195
3910,9309;0,0133387
3911,8950;0,013488
3912,8594;0,0136569
3913,8235;0,0138099
3914,7878;0,0138975
3915,7520;0,013883
3916,7163;0,0137737
3917,6804;0,0136332
3918,6448;0,013549
3919,6089;0,0135708
3920,5732;0,0136785
3921,5374;0,0138018
3922,5017;0,0138676
3923,4658;0,0138456
3924,4302;0,0137692
3925,3943;0,0137142
3926,3586;0,0137413
3927,3228;0,0138527
3928,2871;0,0139925
3929,2512;0,0140786
3930,2156;0,0140457
3931,1797;0,0138826
3932,1440;0,0136465
3933,1082;0,01343
3934,0725;0,0133051
3935,0366;0,0132928
3936,0010;0,0133724
3936,9651;0,0135069
3937,9294;0,013658
3938,8936;0,0137909
3939,8579;0,0138766
3940,8220;0,0138997
3941,7864;0,0138701
3942,7505;0,0138248
3943,7148;0,013809
3944,6790;0,0138457
3945,6433;0,0139197
3946,6074;0,0139861
3947,5718;0,013996
3948,5359;0,013925
3949,5002;0,0137891
3950,4644;0,0136357
3951,4287;0,0135126
3952,3928;0,0134433
3953,3572;0,0134249
3954,3213;0,0134413
3955,2856;0,0134765
3956,2498;0,0135203
3957,2141;0,0135651
3958,1782;0,0136016
3959,1426;0,0136187
3960,1067;0,0136079
3961,0710;0,0135702
3962,0352;0,0135189
3962,9995;0,0134739
3963,9636;0,0134511
3964,9280;0,013455
3965,8921;0,0134779
3966,8564;0,0135062
3967,8206;0,0135292
3968,7849;0,0135438
3969,7490;0,0135537
3970,7134;0,0135636
3971,6775;0,0135738
3972,6418;0,0135788
3973,6060;0,0135713
3974,5703;0,0135488
3975,5344;0,0135162
3976,4988;0,0134837
3977,4629;0,0134601
3978,4272;0,0134474
3979,3914;0,0134409
3980,3557;0,0134331
3981,3198;0,0134193
3982,2842;0,0134014
3983,2483;0,0133867
3984,2126;0,0133842
3985,1768;0,0133997
3986,1411;0,0134336
3987,1052;0,0134805
3988,0696;0,0135313
3989,0337;0,0135753
3989,9980;0,0136022
3990,9622;0,0136042
3991,9265;0,013578
3992,8906;0,0135273
3993,8550;0,0134632
3994,8191;0,0134022
3995,7834;0,0133607
3996,7476;0,0133484
3997,7119;0,0133636
3998,6760;0,0133944
3999,6404;0,0134256
4000,6045;0,0136063

##### Extended Information
[Comments]
Sample name
Comment
Username
Division
Organization;UNIVERSIDAD INDUSTRIAL DE SANTANDER

[Detailed Information]
Creation date;25/02/2025 4:55 p.m.

Data array type;Linear data array
Horizontal axis;Wavenumber [cm-1]
Vertical axis;Abs
Start;399,193 cm-1
End;4000,6 cm-1
Data interval;0,964233 cm-1
Data points;3736    

[Measurement Information]
Model name;FT/IR-4X1typeA
Serial No.;A035162111

Accessory;ATR PRO 4X
Accessory S/N;A021162126
Incident angle;45 deg

Measurement date;25/02/2025 4:51 p.m.

Light source;Standard
Detector;TGS
Accumulation;40
Resolution;4 cm-1
Zero filling;On
Apodization;Cosine
Gain;Auto (8)
Aperture;Auto (7 mm)
Scan speed;Auto (2 mm/sec)
Filter;Auto (12800 Hz)

