TITLE;
DATA TYPE;INFRARED SPECTRUM
ORIGIN;JASCO
OWNER;
DATE;25/02/25
TIME;17:08:41
SPECTROMETER/DATA SYSTEM;
LOCALE;9226
RESOLUTION;
DELTAX;0,964233
XUNITS;1/CM
YUNITS;ABSORBANCE
FIRSTX;  399,1927
LASTX; 4000,6047
NPOINTS;    3736
FIRSTY;     0,13427
MAXY;     0,19091
MINY;     0,01050
XYDATA
399,1927;0,134269
400,1569;0,135146
401,1211;0,134904
402,0854;0,133709
403,0496;0,13196
404,0138;0,130119
404,9781;0,128651
405,9423;0,127939
406,9065;0,128158
407,8708;0,129204
408,8350;0,130746
409,7992;0,132356
410,7635;0,133665
411,7277;0,134478
412,6919;0,134816
413,6562;0,134841
414,6204;0,134731
415,5846;0,134614
416,5489;0,134588
417,5131;0,134784
418,4773;0,135383
419,4416;0,136481
420,4058;0,137944
421,3700;0,1395
422,3343;0,140912
423,2985;0,141991
424,2627;0,142571
425,2270;0,142559
426,1912;0,142018
427,1554;0,141182
428,1197;0,140369
429,0839;0,139835
430,0481;0,139695
431,0124;0,139896
431,9766;0,140262
432,9408;0,140573
433,9051;0,140653
434,8693;0,140427
435,8335;0,139938
436,7978;0,139312
437,7620;0,138686
438,7262;0,138145
439,6905;0,137687
440,6547;0,137248
441,6189;0,136749
442,5832;0,136154
443,5474;0,135502
444,5116;0,134883
445,4759;0,134371
446,4401;0,133973
447,4043;0,13364
448,3686;0,133309
449,3328;0,13295
450,2970;0,132576
451,2613;0,132232
452,2255;0,131952
453,1897;0,131742
454,1540;0,131569
455,1182;0,13138
456,0824;0,131117
457,0467;0,130733
458,0109;0,130237
458,9751;0,129706
459,9394;0,129267
460,9036;0,129019
461,8678;0,128988
462,8321;0,129111
463,7963;0,129252
464,7605;0,129249
465,7248;0,128986
466,6890;0,12846
467,6532;0,127779
468,6175;0,127102
469,5817;0,126563
470,5459;0,126235
471,5102;0,126118
472,4744;0,12617
473,4386;0,126349
474,4029;0,126641
475,3671;0,127068
476,3313;0,127657
477,2956;0,128396
478,2598;0,129212
479,2240;0,129972
480,1883;0,130537
481,1525;0,130841
482,1167;0,130935
483,0810;0,130987
484,0452;0,131191
485,0094;0,13165
485,9737;0,132313
486,9379;0,133011
487,9021;0,133573
488,8664;0,133911
489,8306;0,134047
490,7948;0,134076
491,7591;0,134108
492,7233;0,134212
493,6875;0,134397
494,6518;0,134639
495,6160;0,134915
496,5802;0,135223
497,5445;0,13557
498,5087;0,135943
499,4729;0,136301
500,4372;0,136584
501,4014;0,13675
502,3656;0,136825
503,3299;0,136902
504,2941;0,137101
505,2583;0,1375
506,2226;0,138089
507,1868;0,138779
508,1510;0,139446
509,1153;0,139989
510,0795;0,140378
511,0437;0,140654
512,0080;0,140883
512,9722;0,141127
513,9365;0,141421
514,9007;0,14179
515,8649;0,142256
516,8292;0,142826
517,7934;0,143461
518,7576;0,144062
519,7219;0,144506
520,6861;0,144714
521,6503;0,144699
522,6146;0,144557
523,5788;0,144429
524,5430;0,144439
525,5073;0,14463
526,4715;0,144935
527,4357;0,145203
528,4000;0,145299
529,3642;0,145166
530,3284;0,14484
531,2927;0,144409
532,2569;0,143964
533,2211;0,143571
534,1854;0,143264
535,1496;0,143063
536,1138;0,142984
537,0781;0,143036
538,0423;0,143198
539,0065;0,143407
539,9708;0,143573
540,9350;0,143623
541,8992;0,143547
542,8635;0,14341
543,8277;0,143323
544,7919;0,143388
545,7562;0,143641
546,7204;0,144035
547,6846;0,144471
548,6489;0,144851
549,6131;0,145131
550,5773;0,145334
551,5416;0,145537
552,5058;0,14582
553,4700;0,146235
554,4343;0,146773
555,3985;0,147363
556,3627;0,147897
557,3270;0,148263
558,2912;0,148386
559,2554;0,148245
560,2197;0,14787
561,1839;0,147322
562,1481;0,146676
563,1124;0,145996
564,0766;0,145334
565,0408;0,144726
566,0051;0,144191
566,9693;0,14374
567,9335;0,143377
568,8978;0,143104
569,8620;0,142922
570,8262;0,142824
571,7905;0,142793
572,7547;0,142802
573,7189;0,142814
574,6832;0,142795
575,6474;0,142729
576,6116;0,142622
577,5759;0,142497
578,5401;0,142381
579,5043;0,142286
580,4686;0,142206
581,4328;0,142122
582,3970;0,14202
583,3613;0,141895
584,3255;0,141756
585,2897;0,141615
586,2540;0,141486
587,2182;0,141381
588,1824;0,141313
589,1467;0,14129
590,1109;0,141303
591,0751;0,141321
592,0394;0,141286
593,0036;0,141143
593,9678;0,140872
594,9321;0,140504
595,8963;0,140108
596,8605;0,139761
597,8248;0,139511
598,7890;0,13935
599,7532;0,139224
600,7175;0,139061
601,6817;0,138809
602,6459;0,138455
603,6102;0,138027
604,5744;0,13757
605,5386;0,137125
606,5029;0,136718
607,4671;0,136354
608,4313;0,13602
609,3956;0,135692
610,3598;0,135342
611,3240;0,134944
612,2883;0,134487
613,2525;0,133974
614,2167;0,133421
615,1810;0,132847
616,1452;0,132261
617,1094;0,131657
618,0737;0,131012
619,0379;0,130295
620,0021;0,129485
620,9664;0,128583
621,9306;0,127617
622,8948;0,126643
623,8591;0,125731
624,8233;0,124951
625,7875;0,12432
626,7518;0,123818
627,7160;0,123387
628,6802;0,122964
629,6445;0,122509
630,6087;0,122018
631,5729;0,121514
632,5372;0,121019
633,5014;0,120545
634,4656;0,120087
635,4299;0,119636
636,3941;0,119193
637,3583;0,118772
638,3226;0,118393
639,2868;0,118059
640,2510;0,117757
641,2153;0,117457
642,1795;0,11713
643,1437;0,116768
644,1080;0,116384
645,0722;0,116009
646,0364;0,11567
647,0007;0,115383
647,9649;0,115145
648,9291;0,114942
649,8934;0,114758
650,8576;0,114593
651,8218;0,114456
652,7861;0,114366
653,7503;0,114333
654,7145;0,114359
655,6788;0,114433
656,6430;0,114535
657,6072;0,114642
658,5715;0,114728
659,5357;0,114761
660,4999;0,114715
661,4642;0,114591
662,4284;0,114427
663,3926;0,114285
664,3569;0,114215
665,3211;0,114215
666,2853;0,114198
667,2496;0,113987
668,2138;0,113415
669,1780;0,112501
670,1423;0,111419
671,1065;0,110295
672,0707;0,109151
673,0350;0,107958
673,9992;0,106687
674,9634;0,105345
675,9277;0,103989
676,8919;0,102694
677,8561;0,101497
678,8204;0,100396
679,7846;0,0993758
680,7488;0,0984482
681,7131;0,0976413
682,6773;0,0969722
683,6415;0,0964228
684,6058;0,0959454
685,5700;0,0954876
686,5342;0,0950183
687,4985;0,0945393
688,4627;0,0940796
689,4269;0,0936799
690,3912;0,0933686
691,3554;0,0931454
692,3196;0,0929795
693,2839;0,0928243
694,2481;0,0926392
695,2123;0,0924072
696,1766;0,0921361
697,1408;0,0918461
698,1050;0,0915526
699,0693;0,0912585
700,0335;0,0909583
700,9977;0,0906492
701,9620;0,090336
702,9262;0,0900276
703,8904;0,0897301
704,8547;0,0894355
705,8189;0,0891282
706,7831;0,0887942
707,7474;0,0884311
708,7116;0,0880492
709,6758;0,0876653
710,6401;0,0872914
711,6043;0,0869276
712,5685;0,0865605
713,5328;0,0861696
714,4970;0,0857356
715,4612;0,0853561
716,4255;0,0847916
717,3897;0,0841756
718,3539;0,0835343
719,3182;0,0829017
720,2824;0,0823063
721,2466;0,0817577
722,2109;0,0812409
723,1751;0,0807273
724,1393;0,0801936
725,1036;0,0796362
726,0678;0,0790732
727,0320;0,0785332
727,9963;0,0780366
728,9605;0,0775816
729,9247;0,0771445
730,8890;0,076695
731,8532;0,0762159
732,8174;0,0757142
733,7817;0,0752177
734,7459;0,0747602
735,7101;0,0743647
736,6744;0,074034
737,6386;0,073751
738,6028;0,073487
739,5671;0,0732121
740,5313;0,0729052
741,4955;0,0725594
742,4598;0,0721831
743,4240;0,0717962
744,3882;0,0714209
745,3525;0,0710717
746,3167;0,0707473
747,2809;0,0704309
748,2452;0,0700993
749,2094;0,0697365
750,1736;0,0693441
751,1379;0,0689424
752,1021;0,0685594
753,0663;0,0682139
754,0306;0,0679034
754,9948;0,0676046
755,9590;0,0672851
756,9233;0,0669211
757,8875;0,066511
758,8517;0,0660773
759,8160;0,0656575
760,7802;0,0652887
761,7444;0,0649914
762,7087;0,0647612
763,6729;0,0645699
764,6371;0,0643778
765,6014;0,0641516
766,5656;0,0638807
767,5298;0,063582
768,4941;0,0632901
769,4583;0,0630369
770,4225;0,0628341
771,3868;0,0626674
772,3510;0,0625068
773,3152;0,0623259
774,2795;0,0621161
775,2437;0,0618886
776,2079;0,0616637
777,1722;0,0614578
778,1364;0,0612754
779,1006;0,0611099
780,0649;0,0609495
781,0291;0,0607819
781,9933;0,0605962
782,9576;0,0603833
783,9218;0,060139
784,8860;0,0598673
785,8503;0,0595835
786,8145;0,0593103
787,7787;0,0590691
788,7430;0,0588702
789,7072;0,0587091
790,6714;0,0585705
791,6357;0,0584379
792,5999;0,0583022
793,5641;0,0581646
794,5284;0,0580329
795,4926;0,0579142
796,4568;0,0578101
797,4211;0,0577161
798,3853;0,0576246
799,3495;0,0575301
800,3138;0,0574323
801,2780;0,0573361
802,2422;0,0572476
803,2065;0,0571695
804,1707;0,0570973
805,1349;0,0570202
806,0992;0,0569271
807,0634;0,0568136
808,0276;0,0566878
808,9919;0,0565674
809,9561;0,056471
810,9203;0,0564073
811,8846;0,056369
812,8488;0,056336
813,8130;0,056286
814,7773;0,0562063
815,7415;0,0560994
816,7057;0,0559797
817,6700;0,0558655
818,6342;0,0557693
819,5984;0,055694
820,5627;0,0556347
821,5269;0,0555833
822,4911;0,0555322
823,4554;0,0554757
824,4196;0,0554096
825,3839;0,0553303
826,3481;0,0552359
827,3123;0,0551282
828,2766;0,0550131
829,2408;0,0548998
830,2050;0,0547966
831,1693;0,054708
832,1335;0,054632
833,0977;0,0545615
834,0620;0,0544865
835,0262;0,0543955
835,9904;0,054278
836,9547;0,0541264
837,9189;0,0539393
838,8831;0,053725
839,8474;0,0535024
840,8116;0,0532957
841,7758;0,0531255
842,7401;0,0529989
843,7043;0,052906
844,6685;0,0528261
845,6328;0,0527392
846,5970;0,0526373
847,5612;0,0525275
848,5255;0,052425
849,4897;0,0523424
850,4539;0,0522816
851,4182;0,0522332
852,3824;0,0521838
853,3466;0,0521247
854,3109;0,0520565
855,2751;0,0519874
856,2393;0,0519275
857,2036;0,0518834
858,1678;0,0518571
859,1320;0,0518482
860,0963;0,0518565
861,0605;0,0518843
862,0247;0,0519341
862,9890;0,0520065
863,9532;0,0520993
864,9174;0,0522078
865,8817;0,0523278
866,8459;0,0524571
867,8101;0,0525955
868,7744;0,0527427
869,7386;0,0528966
870,7028;0,0530524
871,6671;0,0532045
872,6313;0,053348
873,5955;0,0534804
874,5598;0,053602
875,5240;0,0537153
876,4882;0,0538262
877,4525;0,0539441
878,4167;0,0540824
879,3809;0,054256
880,3452;0,054478
881,3094;0,0547568
882,2736;0,0550958
883,2379;0,055497
884,2021;0,055964
885,1663;0,0565033
886,1306;0,0571203
887,0948;0,0578139
888,0590;0,0585721
889,0233;0,0593721
889,9875;0,060184
890,9517;0,0609774
891,9160;0,0617244
892,8802;0,0624013
893,8444;0,062988
894,8087;0,0634665
895,7729;0,0638211
896,7371;0,064037
897,7014;0,0641012
898,6656;0,0640032
899,6298;0,0637395
900,5941;0,0633189
901,5583;0,0627672
902,5225;0,0621256
903,4868;0,061442
904,4510;0,0607598
905,4152;0,0601089
906,3795;0,059505
907,3437;0,0589571
908,3079;0,0584755
909,2722;0,0580741
910,2364;0,0577645
911,2007;0,0575463
912,1649;0,0574025
913,1292;0,0573062
914,0934;0,0572345
915,0576;0,0571824
916,0219;0,0571657
916,9861;0,0572095
917,9503;0,0573298
918,9146;0,0575185
919,8788;0,0577431
920,8430;0,0579615
921,8073;0,0581429
922,7715;0,0582823
923,7357;0,0584007
924,7000;0,0585306
925,6642;0,0586971
926,6284;0,0589047
927,5927;0,0591371
928,5569;0,0593685
929,5211;0,0595786
930,4854;0,0597619
931,4496;0,0599279
932,4138;0,0600925
933,3781;0,0602704
934,3423;0,0604695
935,3065;0,060694
936,2708;0,0609478
937,2350;0,0612385
938,1992;0,0615754
939,1635;0,0619662
940,1277;0,0624129
941,0919;0,0629127
942,0562;0,0634603
943,0204;0,0640528
943,9846;0,064691
944,9489;0,0653797
945,9131;0,0661245
946,8773;0,0669295
947,8416;0,0677959
948,8058;0,0687213
949,7700;0,0697012
950,7343;0,0707313
951,6985;0,0718099
952,6627;0,0729398
953,6270;0,0741269
954,5912;0,0753765
955,5554;0,076688
956,5197;0,0780531
957,4839;0,0794577
958,4481;0,0808873
959,4124;0,0823322
960,3766;0,0837876
961,3408;0,0852508
962,3051;0,0867164
963,2693;0,0881754
964,2335;0,08962
965,1978;0,0910508
966,1620;0,0924809
967,1262;0,0939346
968,0905;0,0954398
969,0547;0,0970212
970,0189;0,0986962
970,9832;0,100477
971,9474;0,102375
972,9116;0,104403
973,8759;0,106576
974,8401;0,108908
975,8043;0,111406
976,7686;0,114075
977,7328;0,116907
978,6970;0,119874
979,6613;0,122927
980,6255;0,125988
981,5897;0,12896
982,5540;0,131744
983,5182;0,134261
984,4824;0,13647
985,4467;0,138373
986,4109;0,140005
987,3751;0,141421
988,3394;0,142672
989,3036;0,143795
990,2678;0,144806
991,2321;0,145703
992,1963;0,146479
993,1605;0,147135
994,1248;0,147688
995,0890;0,148177
996,0532;0,148647
997,0175;0,149139
997,9817;0,149673
998,9459;0,150249
999,9102;0,150856
1000,8744;0,151488
1001,8386;0,152157
1002,8029;0,152893
1003,7671;0,153731
1004,7313;0,154699
1005,6956;0,155809
1006,6598;0,157061
1007,6240;0,15845
1008,5883;0,159972
1009,5525;0,161631
1010,5167;0,163425
1011,4810;0,165347
1012,4452;0,16737
1013,4094;0,169451
1014,3737;0,171533
1015,3379;0,173556
1016,3021;0,175471
1017,2664;0,177245
1018,2306;0,178871
1019,1948;0,180356
1020,1591;0,181722
1021,1233;0,18299
1022,0875;0,184183
1023,0518;0,185319
1024,0160;0,186407
1024,9802;0,187447
1025,9445;0,188421
1026,9087;0,189294
1027,8729;0,190023
1028,8372;0,190561
1029,8014;0,190867
1030,7656;0,190906
1031,7299;0,190649
1032,6941;0,190076
1033,6583;0,189179
1034,6226;0,187978
1035,5868;0,186528
1036,5510;0,18492
1037,5153;0,18327
1038,4795;0,181697
1039,4437;0,180292
1040,4080;0,17911
1041,3722;0,178157
1042,3364;0,177402
1043,3007;0,176789
1044,2649;0,176252
1045,2291;0,175733
1046,1934;0,175182
1047,1576;0,174567
1048,1218;0,173863
1049,0861;0,173045
1050,0503;0,172091
1051,0145;0,170975
1051,9788;0,169684
1052,9430;0,16822
1053,9072;0,1666
1054,8715;0,164854
1055,8357;0,163
1056,7999;0,16104
1057,7642;0,158949
1058,7284;0,156695
1059,6926;0,154258
1060,6569;0,151654
1061,6211;0,148939
1062,5853;0,146198
1063,5496;0,143522
1064,5138;0,140976
1065,4780;0,138598
1066,4423;0,136395
1067,4065;0,134359
1068,3707;0,132479
1069,3350;0,130742
1070,2992;0,129128
1071,2634;0,127606
1072,2277;0,126129
1073,1919;0,12465
1074,1561;0,123128
1075,1204;0,121549
1076,0846;0,11992
1077,0488;0,11827
1078,0131;0,116637
1078,9773;0,115064
1079,9415;0,113588
1080,9058;0,112245
1081,8700;0,111059
1082,8342;0,110045
1083,7985;0,109201
1084,7627;0,108506
1085,7269;0,107931
1086,6912;0,107442
1087,6554;0,107012
1088,6196;0,106626
1089,5839;0,106283
1090,5481;0,105992
1091,5123;0,105764
1092,4766;0,105606
1093,4408;0,105515
1094,4050;0,10548
1095,3693;0,105489
1096,3335;0,105533
1097,2977;0,105603
1098,2620;0,105698
1099,2262;0,10581
1100,1904;0,105928
1101,1547;0,106031
1102,1189;0,106095
1103,0831;0,106097
1104,0474;0,10602
1105,0116;0,105859
1105,9758;0,105619
1106,9401;0,105309
1107,9043;0,104934
1108,8685;0,104488
1109,8328;0,103953
1110,7970;0,103302
1111,7612;0,102511
1112,7255;0,101574
1113,6897;0,10051
1114,6539;0,0993633
1115,6182;0,0981938
1116,5824;0,0970631
1117,5466;0,0960184
1118,5109;0,09508
1119,4751;0,0942343
1120,4393;0,0934361
1121,4036;0,0926178
1122,3678;0,0917057
1123,3320;0,0906384
1124,2963;0,0893819
1125,2605;0,0879356
1126,2247;0,0863295
1127,1890;0,0846116
1128,1532;0,0828333
1129,1174;0,0810366
1130,0817;0,0792487
1131,0459;0,0774843
1132,0101;0,0757544
1132,9744;0,0740761
1133,9386;0,0724791
1134,9028;0,0710049
1135,8671;0,0696989
1136,8313;0,0685998
1137,7955;0,0677298
1138,7598;0,0670912
1139,7240;0,0666681
1140,6882;0,0664331
1141,6525;0,0663544
1142,6167;0,0664012
1143,5809;0,0665481
1144,5452;0,0667769
1145,5094;0,0670765
1146,4736;0,0674419
1147,4379;0,0678709
1148,4021;0,0683614
1149,3663;0,0689086
1150,3306;0,0695032
1151,2948;0,0701297
1152,2590;0,070766
1153,2233;0,0713822
1154,1875;0,0719415
1155,1517;0,0724027
1156,1160;0,0727239
1157,0802;0,0728651
1158,0444;0,0727895
1159,0087;0,0724622
1159,9729;0,0718503
1160,9371;0,070925
1161,9014;0,0696679
1162,8656;0,0680788
1163,8298;0,0661835
1164,7941;0,0640355
1165,7583;0,0617133
1166,7225;0,0593105
1167,6868;0,0569229
1168,6510;0,054634
1169,6152;0,0525032
1170,5795;0,0505609
1171,5437;0,0488121
1172,5079;0,0472464
1173,4722;0,0458497
1174,4364;0,0446128
1175,4006;0,0435323
1176,3649;0,0426061
1177,3291;0,041827
1178,2933;0,0411802
1179,2576;0,0406442
1180,2218;0,0401963
1181,1860;0,0398172
1182,1503;0,0394942
1183,1145;0,0392225
1184,0787;0,0390036
1185,0430;0,0388442
1186,0072;0,0387527
1186,9714;0,0387361
1187,9357;0,038798
1188,8999;0,0389386
1189,8641;0,0391568
1190,8284;0,0394531
1191,7926;0,0398301
1192,7568;0,0402895
1193,7211;0,0408269
1194,6853;0,0414288
1195,6495;0,0420734
1196,6138;0,0427357
1197,5780;0,0433951
1198,5422;0,044039
1199,5065;0,0446632
1200,4707;0,0452708
1201,4349;0,0458636
1202,3992;0,0464417
1203,3634;0,0470022
1204,3276;0,0475406
1205,2919;0,0480537
1206,2561;0,0485425
1207,2203;0,049015
1208,1846;0,0494871
1209,1488;0,0499812
1210,1130;0,0505214
1211,0773;0,0511278
1212,0415;0,0518107
1213,0057;0,0525676
1213,9700;0,0533849
1214,9342;0,0542418
1215,8984;0,0551158
1216,8627;0,0559871
1217,8269;0,0568408
1218,7911;0,0576675
1219,7554;0,0584619
1220,7196;0,0592213
1221,6838;0,0599444
1222,6481;0,0606299
1223,6123;0,0612771
1224,5765;0,0618864
1225,5408;0,0624597
1226,5050;0,0629993
1227,4692;0,0635072
1228,4335;0,0639833
1229,3977;0,0644259
1230,3619;0,0648319
1231,3262;0,0651975
1232,2904;0,0655189
1233,2546;0,0657937
1234,2189;0,066021
1235,1831;0,0662037
1236,1473;0,0663484
1237,1116;0,0664643
1238,0758;0,0665597
1239,0400;0,066638
1240,0043;0,0666962
1240,9685;0,0667263
1241,9327;0,066719
1242,8970;0,0666675
1243,8612;0,0665681
1244,8254;0,0664193
1245,7897;0,0662206
1246,7539;0,0659728
1247,7181;0,0656807
1248,6824;0,0653548
1249,6466;0,0650091
1250,6108;0,0646569
1251,5751;0,0643055
1252,5393;0,063955
1253,5035;0,0636014
1254,4678;0,0632406
1255,4320;0,0628721
1256,3962;0,0624975
1257,3605;0,062117
1258,3247;0,061727
1259,2889;0,0613198
1260,2532;0,0608869
1261,2174;0,0604223
1262,1816;0,0599242
1263,1459;0,059394
1264,1101;0,0588346
1265,0743;0,0582482
1266,0386;0,0576361
1267,0028;0,0569991
1267,9670;0,0563381
1268,9313;0,0556551
1269,8955;0,0549533
1270,8597;0,0542374
1271,8240;0,0535128
1272,7882;0,0527849
1273,7524;0,0520599
1274,7167;0,0513455
1275,6809;0,0506511
1276,6451;0,0499862
1277,6094;0,0493562
1278,5736;0,0487597
1279,5378;0,0481885
1280,5021;0,0476319
1281,4663;0,047083
1282,4305;0,0465424
1283,3948;0,0460178
1284,3590;0,0455199
1285,3232;0,0450588
1286,2875;0,0446435
1287,2517;0,0442821
1288,2159;0,0439822
1289,1802;0,0437484
1290,1444;0,0435798
1291,1086;0,0434697
1292,0729;0,0434096
1293,0371;0,0433948
1294,0013;0,0434272
1294,9656;0,0435143
1295,9298;0,0436638
1296,8940;0,0438789
1297,8583;0,0441568
1298,8225;0,0444907
1299,7867;0,0448736
1300,7510;0,0452992
1301,7152;0,0457621
1302,6794;0,0462574
1303,6437;0,0467814
1304,6079;0,0473327
1305,5721;0,0479115
1306,5364;0,0485168
1307,5006;0,0491429
1308,4648;0,0497782
1309,4291;0,0504082
1310,3933;0,0510194
1311,3575;0,0516025
1312,3218;0,052151
1313,2860;0,0526571
1314,2502;0,0531073
1315,2145;0,0534805
1316,1787;0,0537523
1317,1429;0,0539025
1318,1072;0,0539257
1319,0714;0,0538382
1320,0356;0,0536738
1320,9999;0,0534716
1321,9641;0,0532621
1322,9283;0,0530609
1323,8926;0,0528726
1324,8568;0,0526977
1325,8210;0,0525377
1326,7853;0,0523953
1327,7495;0,0522719
1328,7137;0,0521631
1329,6780;0,0520578
1330,6422;0,0519396
1331,6064;0,0517911
1332,5707;0,0515985
1333,5349;0,0513533
1334,4991;0,05105
1335,4634;0,0506825
1336,4276;0,0502443
1337,3918;0,0497373
1338,3561;0,0491847
1339,3203;0,0486339
1340,2845;0,0481379
1341,2488;0,0477266
1342,2130;0,0473964
1343,1772;0,0471247
1344,1415;0,0468906
1345,1057;0,0466874
1346,0699;0,0465242
1347,0342;0,0464196
1347,9984;0,0463911
1348,9626;0,0464456
1349,9269;0,046577
1350,8911;0,0467701
1351,8553;0,047009
1352,8196;0,0472843
1353,7838;0,0475957
1354,7480;0,0479482
1355,7123;0,048344
1356,6765;0,0487767
1357,6407;0,0492326
1358,6050;0,0496975
1359,5692;0,050162
1360,5334;0,050622
1361,4977;0,0510735
1362,4619;0,0515068
1363,4261;0,0519073
1364,3904;0,052263
1365,3546;0,0525696
1366,3188;0,0528281
1367,2831;0,0530396
1368,2473;0,0532025
1369,2115;0,0533112
1370,1758;0,0533566
1371,1400;0,0533256
1372,1042;0,0532028
1373,0685;0,0529788
1374,0327;0,0526605
1374,9969;0,0522725
1375,9612;0,0518383
1376,9254;0,0513578
1377,8896;0,0508059
1378,8539;0,0501554
1379,8181;0,0494054
1380,7823;0,0485944
1381,7466;0,0477813
1382,7108;0,0470062
1383,6750;0,0462642
1384,6393;0,0455138
1385,6035;0,0447185
1386,5677;0,0438965
1387,5320;0,0431342
1388,4962;0,0425273
1389,4604;0,0421075
1390,4247;0,0418351
1391,3889;0,0416424
1392,3531;0,0414718
1393,3174;0,0412945
1394,2816;0,0411134
1395,2458;0,0409552
1396,2101;0,0408497
1397,1743;0,0408123
1398,1385;0,0408436
1399,1028;0,0409369
1400,0670;0,0410838
1401,0313;0,0412739
1401,9955;0,0414958
1402,9597;0,0417402
1403,9240;0,0420038
1404,8882;0,0422893
1405,8524;0,0426018
1406,8167;0,0429433
1407,7809;0,0433122
1408,7451;0,0437076
1409,7094;0,0441318
1410,6736;0,0445879
1411,6378;0,0450736
1412,6021;0,0455783
1413,5663;0,0460882
1414,5305;0,0465933
1415,4948;0,0470886
1416,4590;0,0475687
1417,4232;0,0480211
1418,3875;0,0484243
1419,3517;0,048756
1420,3159;0,0490018
1421,2802;0,0491523
1422,2444;0,049196
1423,2086;0,0491232
1424,1729;0,0489366
1425,1371;0,0486524
1426,1013;0,0482846
1427,0656;0,047826
1428,0298;0,0472518
1428,9940;0,0465551
1429,9583;0,0457846
1430,9225;0,0450336
1431,8867;0,0443748
1432,8510;0,043806
1433,8152;0,0432534
1434,7794;0,0426222
1435,7437;0,0418786
1436,7079;0,0411175
1437,6721;0,0405075
1438,6364;0,040142
1439,6006;0,0399914
1440,5648;0,0399791
1441,5291;0,0400467
1442,4933;0,0401692
1443,4575;0,0403435
1444,4218;0,0405727
1445,3860;0,0408539
1446,3502;0,0411737
1447,3145;0,0415104
1448,2787;0,0418409
1449,2429;0,0421499
1450,2072;0,0424343
1451,1714;0,0426995
1452,1356;0,0429487
1453,0999;0,0431719
1454,0641;0,0433336
1455,0283;0,0433653
1455,9926;0,0431958
1456,9568;0,0428606
1457,9210;0,0425492
1458,8853;0,0424037
1459,8495;0,0423958
1460,8137;0,0424286
1461,7780;0,0424021
1462,7422;0,0422125
1463,7064;0,0417679
1464,6707;0,0410559
1465,6349;0,0401938
1466,5991;0,0393439
1467,5634;0,038578
1468,5276;0,0378465
1469,4918;0,037025
1470,4561;0,0359607
1471,4203;0,0345429
1472,3845;0,0328359
1473,3488;0,0311453
1474,3130;0,0297935
1475,2772;0,0288483
1476,2415;0,0281843
1477,2057;0,0276672
1478,1699;0,0272234
1479,1342;0,0268249
1480,0984;0,0264668
1481,0626;0,0261556
1482,0269;0,0259057
1482,9911;0,0257308
1483,9553;0,0256331
1484,9196;0,0255952
1485,8838;0,0255826
1486,8480;0,0255583
1487,8123;0,0255138
1488,7765;0,0255012
1489,7407;0,0256071
1490,7050;0,0258687
1491,6692;0,0262497
1492,6334;0,0266957
1493,5977;0,0271733
1494,5619;0,0276711
1495,5261;0,0281932
1496,4904;0,028754
1497,4546;0,0293652
1498,4188;0,0300143
1499,3831;0,0306658
1500,3473;0,0312886
1501,3115;0,0318679
1502,2758;0,0323936
1503,2400;0,0328404
1504,2042;0,0331432
1505,1685;0,0331759
1506,1327;0,0328022
1507,0969;0,0321004
1508,0612;0,0314276
1509,0254;0,030991
1509,9896;0,0307176
1510,9539;0,0304831
1511,9181;0,0302024
1512,8823;0,0298157
1513,8466;0,0292812
1514,8108;0,0285931
1515,7750;0,0278007
1516,7393;0,0269903
1517,7035;0,0262254
1518,6677;0,0255017
1519,6320;0,0247669
1520,5962;0,0239949
1521,5604;0,0232421
1522,5247;0,0226113
1523,4889;0,0221591
1524,4531;0,0218634
1525,4174;0,0216688
1526,3816;0,021538
1527,3458;0,0214646
1528,3101;0,0214507
1529,2743;0,021481
1530,2385;0,0215161
1531,2028;0,0215086
1532,1670;0,0214389
1533,1312;0,0213501
1534,0955;0,0213304
1535,0597;0,0214379
1536,0239;0,0216577
1536,9882;0,0219164
1537,9524;0,0221004
1538,9166;0,0220707
1539,8809;0,0217562
1540,8451;0,0213457
1541,8093;0,0211815
1542,7736;0,0213375
1543,7378;0,0216568
1544,7020;0,0220069
1545,6663;0,0223329
1546,6305;0,0226202
1547,5947;0,0228671
1548,5590;0,0230737
1549,5232;0,0232436
1550,4874;0,0233915
1551,4517;0,0235452
1552,4159;0,0237355
1553,3801;0,0239766
1554,3444;0,0242546
1555,3086;0,0245235
1556,2728;0,0247033
1557,2371;0,0247033
1558,2013;0,0245462
1559,1655;0,0244618
1560,1298;0,0246111
1561,0940;0,0249246
1562,0582;0,0253062
1563,0225;0,0257148
1563,9867;0,0261312
1564,9509;0,0265342
1565,9152;0,0269006
1566,8794;0,027221
1567,8436;0,0275189
1568,8079;0,0278472
1569,7721;0,028247
1570,7363;0,028711
1571,7006;0,0292026
1572,6648;0,0296958
1573,6290;0,0301895
1574,5933;0,0307019
1575,5575;0,0312577
1576,5217;0,0318636
1577,4860;0,0324952
1578,4502;0,0331296
1579,4144;0,0337744
1580,3787;0,0344525
1581,3429;0,0351752
1582,3071;0,0359317
1583,2714;0,036696
1584,2356;0,0374465
1585,1998;0,0381793
1586,1641;0,0389024
1587,1283;0,0396174
1588,0925;0,0403078
1589,0568;0,0409424
1590,0210;0,0414887
1590,9852;0,0419217
1591,9495;0,0422232
1592,9137;0,0423799
1593,8779;0,042387
1594,8422;0,0422573
1595,8064;0,0420221
1596,7706;0,0417202
1597,7349;0,0413826
1598,6991;0,0410266
1599,6633;0,0406599
1600,6276;0,0402895
1601,5918;0,0399254
1602,5560;0,0395799
1603,5203;0,039262
1604,4845;0,0389708
1605,4487;0,0386945
1606,4130;0,0384144
1607,3772;0,0381173
1608,3414;0,0378108
1609,3057;0,037529
1610,2699;0,0373141
1611,2341;0,0371867
1612,1984;0,0371302
1613,1626;0,0370953
1614,1268;0,0370165
1615,0911;0,0368458
1616,0553;0,0366057
1617,0195;0,0363988
1617,9838;0,0363139
1618,9480;0,0363483
1619,9122;0,03644
1620,8765;0,036523
1621,8407;0,036554
1622,8049;0,0365273
1623,7692;0,0364761
1624,7334;0,0364441
1625,6976;0,0364481
1626,6619;0,0364755
1627,6261;0,036511
1628,5903;0,0365563
1629,5546;0,0366275
1630,5188;0,0367357
1631,4830;0,0368689
1632,4473;0,0369823
1633,4115;0,0369982
1634,3757;0,0368363
1635,3400;0,0365057
1636,3042;0,0361625
1637,2684;0,0359636
1638,2327;0,0359172
1639,1969;0,0359523
1640,1611;0,0360155
1641,1254;0,0360858
1642,0896;0,0361528
1643,0538;0,03619
1644,0181;0,0361397
1644,9823;0,0359342
1645,9465;0,0355784
1646,9108;0,0352154
1647,8750;0,0350146
1648,8392;0,0350099
1649,8035;0,0351031
1650,7677;0,0351223
1651,7319;0,0348502
1652,6962;0,0341722
1653,6604;0,0333636
1654,6246;0,0328548
1655,5889;0,0326927
1656,5531;0,0326966
1657,5173;0,0327275
1658,4816;0,0327057
1659,4458;0,0325724
1660,4100;0,0322871
1661,3743;0,0318646
1662,3385;0,0314025
1663,3027;0,031025
1664,2670;0,0307859
1665,2312;0,0306452
1666,1954;0,0305082
1667,1597;0,0302663
1668,1239;0,029844
1669,0881;0,0292675
1670,0524;0,0286835
1671,0166;0,0282402
1671,9808;0,027957
1672,9451;0,027743
1673,9093;0,0274943
1674,8735;0,027167
1675,8378;0,0268039
1676,8020;0,0264952
1677,7662;0,0263021
1678,7305;0,0262221
1679,6947;0,0262025
1680,6589;0,026156
1681,6232;0,0259646
1682,5874;0,0255248
1683,5516;0,0248776
1684,5159;0,0242613
1685,4801;0,0238725
1686,4443;0,0236956
1687,4086;0,0236289
1688,3728;0,0236048
1689,3370;0,0236048
1690,3013;0,0236356
1691,2655;0,023705
1692,2297;0,0238055
1693,1940;0,0239106
1694,1582;0,0239823
1695,1224;0,0239867
1696,0867;0,0239154
1697,0509;0,0237962
1698,0151;0,0236855
1698,9794;0,0236386
1699,9436;0,0236815
1700,9078;0,0238051
1701,8721;0,0239861
1702,8363;0,0242103
1703,8005;0,0244766
1704,7648;0,0247902
1705,7290;0,0251529
1706,6932;0,0255584
1707,6575;0,0259946
1708,6217;0,0264522
1709,5859;0,0269287
1710,5502;0,0274231
1711,5144;0,0279264
1712,4786;0,0284181
1713,4429;0,0288716
1714,4071;0,0292692
1715,3713;0,0296256
1716,3356;0,0299994
1717,2998;0,0304493
1718,2640;0,0309648
1719,2283;0,0314906
1720,1925;0,0319973
1721,1567;0,0324893
1722,1210;0,032975
1723,0852;0,0334489
1724,0494;0,0338923
1725,0137;0,0342859
1725,9779;0,0346227
1726,9421;0,0349117
1727,9064;0,0351692
1728,8706;0,0354048
1729,8348;0,0356077
1730,7991;0,0357381
1731,7633;0,0357335
1732,7275;0,035552
1733,6918;0,0352367
1734,6560;0,0349024
1735,6202;0,0346249
1736,5845;0,0343889
1737,5487;0,0341288
1738,5129;0,0337767
1739,4772;0,0332947
1740,4414;0,0326956
1741,4056;0,0320368
1742,3699;0,0313782
1743,3341;0,0307441
1744,2983;0,0301249
1745,2626;0,0294978
1746,2268;0,0288332
1747,1910;0,0280874
1748,1553;0,0272135
1749,1195;0,0262094
1750,0837;0,0251641
1751,0480;0,0242135
1752,0122;0,0234361
1752,9764;0,0228112
1753,9407;0,022263
1754,9049;0,0217203
1755,8691;0,021153
1756,8334;0,0205769
1757,7976;0,0200242
1758,7618;0,0195032
1759,7261;0,0189866
1760,6903;0,0184425
1761,6545;0,0178784
1762,6188;0,0173477
1763,5830;0,0169079
1764,5472;0,0165771
1765,5115;0,0163303
1766,4757;0,0161237
1767,4399;0,0159182
1768,4042;0,0156865
1769,3684;0,0154089
1770,3326;0,0150734
1771,2969;0,0146933
1772,2611;0,0143262
1773,2253;0,0140494
1774,1896;0,0139011
1775,1538;0,0138583
1776,1180;0,0138646
1777,0823;0,0138638
1778,0465;0,0138207
1779,0107;0,013732
1779,9750;0,0136247
1780,9392;0,0135355
1781,9034;0,0134826
1782,8677;0,0134588
1783,8319;0,0134475
1784,7961;0,0134431
1785,7604;0,0134544
1786,7246;0,013491
1787,6888;0,0135472
1788,6531;0,0135949
1789,6173;0,0135909
1790,5815;0,0134995
1791,5458;0,0133296
1792,5100;0,0131492
1793,4742;0,0130363
1794,4385;0,0130161
1795,4027;0,0130598
1796,3669;0,0131214
1797,3312;0,0131615
1798,2954;0,0131569
1799,2596;0,0131064
1800,2239;0,0130317
1801,1881;0,0129648
1802,1523;0,0129284
1803,1166;0,012927
1804,0808;0,0129515
1805,0450;0,0129873
1806,0093;0,0130183
1806,9735;0,0130287
1807,9377;0,0130063
1808,9020;0,0129504
1809,8662;0,0128768
1810,8304;0,0128138
1811,7947;0,0127869
1812,7589;0,0128026
1813,7231;0,0128464
1814,6874;0,0128931
1815,6516;0,0129201
1816,6158;0,0129197
1817,5801;0,0129033
1818,5443;0,0128945
1819,5085;0,0129117
1820,4728;0,012955
1821,4370;0,0130063
1822,4012;0,0130411
1823,3655;0,0130436
1824,3297;0,013016
1825,2939;0,0129733
1826,2582;0,0129272
1827,2224;0,0128759
1828,1866;0,0128095
1829,1509;0,0127289
1830,1151;0,0126561
1831,0793;0,0126214
1832,0436;0,0126381
1833,0078;0,0126928
1833,9720;0,0127574
1834,9363;0,0128059
1835,9005;0,0128294
1836,8647;0,0128423
1837,8290;0,0128722
1838,7932;0,0129375
1839,7574;0,0130302
1840,7217;0,013117
1841,6859;0,0131525
1842,6501;0,0131029
1843,6144;0,0129749
1844,5786;0,0128229
1845,5428;0,01271
1846,5071;0,0126615
1847,4713;0,0126634
1848,4355;0,0126898
1849,3998;0,0127233
1850,3640;0,0127573
1851,3282;0,0127905
1852,2925;0,01282
1853,2567;0,0128393
1854,2209;0,012843
1855,1852;0,0128337
1856,1494;0,0128234
1857,1136;0,0128271
1858,0779;0,0128528
1859,0421;0,0128954
1860,0063;0,0129409
1860,9706;0,012978
1861,9348;0,013007
1862,8990;0,0130387
1863,8633;0,0130842
1864,8275;0,0131418
1865,7917;0,0131906
1866,7560;0,0131969
1867,7202;0,0131353
1868,6844;0,0130144
1869,6487;0,0128799
1870,6129;0,012783
1871,5771;0,0127513
1872,5414;0,0127842
1873,5056;0,0128626
1874,4698;0,0129586
1875,4341;0,0130443
1876,3983;0,0130989
1877,3625;0,0131136
1878,3268;0,0130904
1879,2910;0,013037
1880,2552;0,0129638
1881,2195;0,0128847
1882,1837;0,0128192
1883,1479;0,0127896
1884,1122;0,0128111
1885,0764;0,0128827
1886,0406;0,0129827
1887,0049;0,0130759
1887,9691;0,0131291
1888,9333;0,01313
1889,8976;0,0130954
1890,8618;0,0130584
1891,8260;0,0130434
1892,7903;0,0130506
1893,7545;0,01306
1894,7188;0,0130485
1895,6830;0,0130086
1896,6472;0,012955
1897,6115;0,0129146
1898,5757;0,0129073
1899,5399;0,0129344
1900,5042;0,0129802
1901,4684;0,0130237
1902,4326;0,0130513
1903,3969;0,0130623
1904,3611;0,0130662
1905,3253;0,0130735
1906,2896;0,0130888
1907,2538;0,0131081
1908,2180;0,0131224
1909,1823;0,0131234
1910,1465;0,0131102
1911,1107;0,013091
1912,0750;0,0130804
1913,0392;0,0130919
1914,0034;0,0131307
1914,9677;0,013189
1915,9319;0,0132489
1916,8961;0,0132904
1917,8604;0,0133034
1918,8246;0,0132931
1919,7888;0,0132726
1920,7531;0,0132498
1921,7173;0,013221
1922,6815;0,0131758
1923,6458;0,0131095
1924,6100;0,0130326
1925,5742;0,0129669
1926,5385;0,0129329
1927,5027;0,0129388
1928,4669;0,0129784
1929,4312;0,0130379
1930,3954;0,0131053
1931,3596;0,0131761
1932,3239;0,0132507
1933,2881;0,013325
1934,2523;0,0133828
1935,2166;0,0133969
1936,1808;0,0133411
1937,1450;0,0132063
1938,1093;0,0130118
1939,0735;0,0128054
1940,0377;0,0126526
1941,0020;0,0126152
1941,9662;0,0127208
1942,9304;0,0129398
1943,8947;0,013194
1944,8589;0,0133998
1945,8231;0,0135102
1946,7874;0,0135264
1947,7516;0,0134814
1948,7158;0,0134141
1949,6801;0,0133494
1950,6443;0,0132901
1951,6085;0,0132237
1952,5728;0,0131374
1953,5370;0,0130333
1954,5012;0,0129338
1955,4655;0,0128764
1956,4297;0,0128958
1957,3939;0,0130027
1958,3582;0,0131698
1959,3224;0,0133364
1960,2866;0,0134359
1961,2509;0,013435
1962,2151;0,0133564
1963,1793;0,013267
1964,1436;0,0132353
1965,1078;0,0132881
1966,0720;0,0133921
1967,0363;0,0134743
1968,0005;0,0134731
1968,9647;0,0133791
1969,9290;0,0132372
1970,8932;0,0131113
1971,8574;0,013046
1972,8217;0,0130491
1973,7859;0,0130981
1974,7501;0,0131606
1975,7144;0,0132132
1976,6786;0,0132487
1977,6428;0,0132717
1978,6071;0,0132891
1979,5713;0,0133048
1980,5355;0,0133227
1981,4998;0,0133531
1982,4640;0,0134161
1983,4282;0,0135362
1984,3925;0,01373
1985,3567;0,0139897
1986,3209;0,0142766
1987,2852;0,0145289
1988,2494;0,0146848
1989,2136;0,0147074
1990,1779;0,0146013
1991,1421;0,0144113
1992,1063;0,0142015
1993,0706;0,0140259
1994,0348;0,0139079
1994,9990;0,0138405
1995,9633;0,0138002
1996,9275;0,0137638
1997,8917;0,0137174
1998,8560;0,01366
1999,8202;0,0136013
2000,7844;0,0135583
2001,7487;0,0135516
2002,7129;0,0136071
2003,6771;0,0137561
2004,6414;0,0140268
2005,6056;0,014422
2006,5698;0,0148914
2007,5341;0,0153249
2008,4983;0,0155875
2009,4625;0,0155884
2010,4268;0,0153391
2011,3910;0,0149586
2012,3552;0,0146172
2013,3195;0,0144497
2014,2837;0,0144859
2015,2479;0,0146388
2016,2122;0,0147607
2017,1764;0,0147371
2018,1406;0,0145584
2019,1049;0,0143177
2020,0691;0,0141455
2021,0333;0,0141347
2021,9976;0,0143025
2022,9618;0,0145969
2023,9260;0,0149287
2024,8903;0,0152056
2025,8545;0,0153556
2026,8187;0,0153411
2027,7830;0,0151662
2028,7472;0,0148795
2029,7114;0,0145678
2030,6757;0,0143348
2031,6399;0,0142682
2032,6041;0,0144055
2033,5684;0,0147145
2034,5326;0,0151044
2035,4968;0,0154664
2036,4611;0,0157238
2037,4253;0,0158613
2038,3895;0,015917
2039,3538;0,0159456
2040,3180;0,0159774
2041,2822;0,016001
2042,2465;0,0159848
2043,2107;0,0159199
2044,1749;0,0158478
2045,1392;0,0158447
2046,1034;0,0159665
2047,0676;0,0161947
2048,0320;0,0164301
2048,9961;0,0165514
2049,9604;0,0164947
2050,9246;0,0162894
2051,8889;0,0160299
2052,8530;0,0158164
2053,8174;0,0157048
2054,7815;0,0156915
2055,7458;0,0157328
2056,7100;0,0157811
2057,6743;0,0158121
2058,6384;0,0158268
2059,6028;0,0158363
2060,5669;0,0158452
2061,5313;0,0158487
2062,4954;0,0158397
2063,4597;0,0158167
2064,4238;0,015785
2065,3882;0,0157508
2066,3523;0,0157175
2067,3167;0,0156862
2068,2808;0,0156604
2069,2451;0,0156491
2070,2092;0,015665
2071,1736;0,0157185
2072,1377;0,0158115
2073,1021;0,0159317
2074,0662;0,0160522
2075,0305;0,0161372
2075,9946;0,0161545
2076,9590;0,0160908
2077,9231;0,015961
2078,8875;0,0158047
2079,8516;0,0156684
2080,8159;0,0155839
2081,7800;0,0155566
2082,7444;0,0155698
2083,7085;0,0156018
2084,6729;0,0156411
2085,6370;0,015688
2086,6013;0,0157438
2087,5654;0,0157974
2088,5298;0,0158226
2089,4939;0,0157923
2090,4583;0,0156988
2091,4224;0,015567
2092,3867;0,0154498
2093,3508;0,0154059
2094,3152;0,0154716
2095,2793;0,0156415
2096,2437;0,0158686
2097,2078;0,0160847
2098,1721;0,0162308
2099,1362;0,01628
2100,1006;0,0162426
2101,0647;0,0161562
2102,0291;0,0160636
2102,9932;0,0159959
2103,9575;0,0159653
2104,9216;0,0159683
2105,8860;0,015997
2106,8501;0,0160464
2107,8145;0,0161122
2108,7786;0,0161843
2109,7429;0,0162417
2110,7070;0,0162581
2111,6714;0,0162163
2112,6355;0,0161201
2113,5999;0,0159959
2114,5640;0,0158801
2115,5283;0,0158024
2116,4924;0,0157761
2117,4568;0,0157985
2118,4209;0,0158586
2119,3853;0,0159413
2120,3494;0,0160266
2121,3137;0,0160889
2122,2778;0,0161037
2123,2422;0,0160634
2124,2063;0,0159908
2125,1707;0,015934
2126,1348;0,0159393
2127,0991;0,0160178
2128,0632;0,0161285
2129,0276;0,0161982
2129,9917;0,0161668
2130,9561;0,0160298
2131,9202;0,0158469
2132,8845;0,0157076
2133,8486;0,0156754
2134,8130;0,015749
2135,7771;0,0158699
2136,7415;0,0159696
2137,7056;0,0160158
2138,6699;0,0160222
2139,6340;0,0160242
2140,5984;0,0160512
2141,5625;0,016118
2142,5269;0,0162356
2143,4910;0,0164182
2144,4553;0,0166696
2145,4194;0,016959
2146,3838;0,0172133
2147,3479;0,017346
2148,3123;0,0173066
2149,2764;0,0171159
2150,2407;0,0168575
2151,2048;0,0166321
2152,1692;0,0165108
2153,1333;0,0165185
2154,0977;0,0166518
2155,0618;0,016907
2156,0261;0,0172843
2156,9902;0,0177615
2157,9546;0,0182624
2158,9187;0,0186698
2159,8831;0,0188911
2160,8472;0,0189173
2161,8115;0,0188133
2162,7756;0,0186574
2163,7400;0,0184909
2164,7041;0,0183077
2165,6685;0,0180799
2166,6326;0,0177931
2167,5969;0,0174672
2168,5610;0,0171529
2169,5254;0,0169097
2170,4895;0,0167803
2171,4539;0,0167742
2172,4180;0,0168647
2173,3823;0,0170003
2174,3464;0,0171261
2175,3108;0,0172075
2176,2749;0,017241
2177,2393;0,0172449
2178,2034;0,0172373
2179,1677;0,0172179
2180,1318;0,0171686
2181,0962;0,0170742
2182,0603;0,0169452
2183,0247;0,0168235
2183,9888;0,0167607
2184,9531;0,0167862
2185,9172;0,0168902
2186,8816;0,0170342
2187,8457;0,0171782
2188,8101;0,0173014
2189,7742;0,0174015
2190,7385;0,0174751
2191,7026;0,017502
2192,6670;0,0174485
2193,6311;0,0172911
2194,5955;0,017043
2195,5596;0,0167597
2196,5239;0,0165176
2197,4880;0,0163773
2198,4524;0,0163552
2199,4165;0,0164205
2200,3809;0,0165175
2201,3450;0,0165947
2202,3093;0,0166265
2203,2734;0,0166147
2204,2378;0,0165782
2205,2019;0,0165384
2206,1663;0,0165094
2207,1304;0,0164963
2208,0947;0,0164974
2209,0588;0,0165079
2210,0232;0,0165228
2210,9873;0,0165386
2211,9517;0,0165518
2212,9158;0,0165574
2213,8801;0,0165489
2214,8442;0,0165204
2215,8086;0,0164732
2216,7727;0,0164198
2217,7371;0,0163817
2218,7012;0,0163783
2219,6655;0,0164125
2220,6296;0,0164642
2221,5940;0,0164965
2222,5581;0,0164759
2223,5225;0,0163921
2224,4866;0,0162665
2225,4509;0,0161413
2226,4150;0,016058
2227,3794;0,0160376
2228,3435;0,0160739
2229,3079;0,0161424
2230,2720;0,0162162
2231,2363;0,0162768
2232,2004;0,0163168
2233,1648;0,0163354
2234,1289;0,0163344
2235,0933;0,0163171
2236,0574;0,0162889
2237,0217;0,0162558
2237,9858;0,0162203
2238,9502;0,0161783
2239,9143;0,0161224
2240,8787;0,0160508
2241,8428;0,0159746
2242,8071;0,0159177
2243,7712;0,0159044
2244,7356;0,0159431
2245,6997;0,0160168
2246,6641;0,0160899
2247,6282;0,0161281
2248,5925;0,0161195
2249,5566;0,0160819
2250,5210;0,0160507
2251,4851;0,0160546
2252,4495;0,016095
2253,4136;0,0161442
2254,3779;0,0161627
2255,3420;0,0161255
2256,3064;0,0160375
2257,2705;0,0159295
2258,2349;0,0158376
2259,1990;0,0157826
2260,1633;0,0157631
2261,1274;0,0157652
2262,0918;0,0157776
2263,0559;0,0158006
2264,0203;0,0158411
2264,9844;0,0158999
2265,9487;0,0159626
2266,9128;0,0160039
2267,8772;0,0160026
2268,8413;0,0159551
2269,8057;0,0158785
2270,7698;0,0158004
2271,7341;0,0157437
2272,6982;0,0157152
2273,6626;0,0157058
2274,6267;0,0156986
2275,5911;0,0156794
2276,5552;0,0156448
2277,5195;0,0156027
2278,4836;0,0155686
2279,4480;0,0155577
2280,4121;0,0155777
2281,3765;0,0156242
2282,3406;0,0156818
2283,3049;0,0157306
2284,2690;0,0157551
2285,2334;0,0157508
2286,1975;0,0157254
2287,1619;0,0156934
2288,1260;0,0156695
2289,0903;0,0156629
2290,0544;0,0156766
2291,0188;0,0157089
2291,9829;0,0157556
2292,9473;0,0158094
2293,9114;0,0158599
2294,8757;0,015895
2295,8398;0,0159055
2296,8042;0,0158905
2297,7683;0,0158594
2298,7327;0,0158287
2299,6968;0,0158143
2300,6611;0,0158252
2301,6252;0,0158604
2302,5896;0,0159127
2303,5537;0,015974
2304,5181;0,0160385
2305,4822;0,016103
2306,4465;0,0161649
2307,4106;0,0162201
2308,3750;0,0162644
2309,3391;0,0162955
2310,3035;0,0163148
2311,2676;0,0163257
2312,2319;0,0163314
2313,1960;0,0163335
2314,1604;0,0163335
2315,1245;0,0163362
2316,0889;0,0163502
2317,0530;0,0163845
2318,0173;0,0164406
2318,9814;0,0165072
2319,9458;0,0165597
2320,9099;0,016571
2321,8743;0,0165266
2322,8384;0,0164345
2323,8027;0,0163199
2324,7668;0,0162107
2325,7312;0,0161252
2326,6953;0,0160696
2327,6597;0,016041
2328,6238;0,0160317
2329,5881;0,0160335
2330,5522;0,0160398
2331,5166;0,0160474
2332,4807;0,0160547
2333,4451;0,0160585
2334,4092;0,0160496
2335,3735;0,0160125
2336,3376;0,0159318
2337,3020;0,0158031
2338,2661;0,0156414
2339,2305;0,0154774
2340,1946;0,0153419
2341,1589;0,0152512
2342,1230;0,0152057
2343,0874;0,0151993
2344,0515;0,0152292
2345,0159;0,0152949
2345,9800;0,0153919
2346,9443;0,0155114
2347,9084;0,0156449
2348,8728;0,0157858
2349,8369;0,0159291
2350,8013;0,0160694
2351,7654;0,0161968
2352,7297;0,0162951
2353,6938;0,0163441
2354,6582;0,0163332
2355,6223;0,0162777
2356,5867;0,0162189
2357,5508;0,0162014
2358,5151;0,0162386
2359,4792;0,0162928
2360,4436;0,0162926
2361,4077;0,0161859
2362,3721;0,0159829
2363,3362;0,0157529
2364,3005;0,0155783
2365,2646;0,0154994
2366,2290;0,0154931
2367,1931;0,0154987
2368,1575;0,0154657
2369,1216;0,0153865
2370,0859;0,0152953
2371,0500;0,0152394
2372,0144;0,0152485
2372,9785;0,0153195
2373,9429;0,0154233
2374,9070;0,0155235
2375,8713;0,0155944
2376,8354;0,0156285
2377,7998;0,0156338
2378,7639;0,0156256
2379,7283;0,0156185
2380,6924;0,015622
2381,6567;0,0156409
2382,6208;0,0156758
2383,5852;0,0157244
2384,5493;0,0157822
2385,5137;0,0158428
2386,4778;0,0158996
2387,4421;0,0159469
2388,4063;0,0159815
2389,3706;0,0160034
2390,3347;0,016015
2391,2991;0,0160211
2392,2632;0,0160279
2393,2275;0,0160417
2394,1917;0,0160663
2395,1560;0,0161005
2396,1201;0,0161372
2397,0845;0,0161665
2398,0486;0,0161812
2399,0129;0,0161819
2399,9771;0,0161778
2400,9414;0,0161813
2401,9055;0,016201
2402,8699;0,0162357
2403,8340;0,0162746
2404,7983;0,0163032
2405,7625;0,0163117
2406,7268;0,0163001
2407,6909;0,0162786
2408,6553;0,0162622
2409,6194;0,0162634
2410,5837;0,0162874
2411,5479;0,0163308
2412,5122;0,0163839
2413,4763;0,0164363
2414,4407;0,0164805
2415,4048;0,0165152
2416,3691;0,0165434
2417,3333;0,0165696
2418,2976;0,0165959
2419,2617;0,0166198
2420,2261;0,0166366
2421,1902;0,0166429
2422,1545;0,0166403
2423,1187;0,0166361
2424,0830;0,0166403
2425,0471;0,0166608
2426,0115;0,0166992
2426,9756;0,0167504
2427,9399;0,0168061
2428,9041;0,0168581
2429,8684;0,016901
2430,8325;0,0169322
2431,7969;0,0169506
2432,7610;0,0169557
2433,7253;0,0169483
2434,6895;0,0169322
2435,6538;0,0169148
2436,6179;0,0169053
2437,5823;0,0169121
2438,5464;0,016939
2439,5107;0,016983
2440,4749;0,0170356
2441,4392;0,017085
2442,4033;0,0171208
2443,3677;0,0171379
2444,3318;0,017138
2445,2961;0,017129
2446,2603;0,0171201
2447,2246;0,0171182
2448,1887;0,0171245
2449,1531;0,017135
2450,1172;0,0171445
2451,0815;0,0171496
2452,0457;0,0171507
2453,0100;0,0171513
2453,9741;0,0171557
2454,9385;0,0171676
2455,9026;0,0171893
2456,8669;0,0172213
2457,8311;0,0172612
2458,7954;0,0173036
2459,7595;0,0173407
2460,7239;0,0173652
2461,6880;0,017375
2462,6523;0,0173742
2463,6165;0,0173715
2464,5808;0,0173745
2465,5449;0,0173865
2466,5093;0,0174048
2467,4734;0,017425
2468,4377;0,0174446
2469,4019;0,0174643
2470,3662;0,0174853
2471,3303;0,0175068
2472,2947;0,0175244
2473,2588;0,0175338
2474,2231;0,0175339
2475,1873;0,0175292
2476,1516;0,0175267
2477,1157;0,0175319
2478,0801;0,0175455
2479,0442;0,0175641
2480,0085;0,0175836
2480,9727;0,0176023
2481,9370;0,0176209
2482,9011;0,0176404
2483,8655;0,0176597
2484,8296;0,0176753
2485,7939;0,0176839
2486,7581;0,017685
2487,7224;0,0176826
2488,6865;0,0176834
2489,6509;0,0176945
2490,6150;0,0177198
2491,5793;0,0177581
2492,5435;0,0178035
2493,5078;0,0178461
2494,4719;0,0178758
2495,4363;0,0178855
2496,4004;0,0178752
2497,3647;0,0178534
2498,3289;0,0178351
2499,2932;0,0178359
2500,2573;0,0178647
2501,2217;0,017919
2502,1858;0,0179848
2503,1501;0,0180426
2504,1143;0,0180759
2505,0786;0,0180787
2506,0427;0,0180576
2507,0071;0,0180277
2507,9712;0,0180052
2508,9355;0,0179998
2509,8997;0,0180121
2510,8640;0,0180353
2511,8281;0,0180598
2512,7925;0,0180787
2513,7566;0,0180899
2514,7209;0,0180947
2515,6851;0,0180956
2516,6494;0,0180946
2517,6135;0,0180932
2518,5779;0,0180943
2519,5420;0,0181019
2520,5063;0,0181199
2521,4705;0,0181483
2522,4348;0,0181825
2523,3989;0,0182139
2524,3633;0,0182342
2525,3274;0,0182397
2526,2917;0,0182326
2527,2559;0,0182202
2528,2202;0,018211
2529,1843;0,0182113
2530,1487;0,0182233
2531,1128;0,0182455
2532,0771;0,0182735
2533,0413;0,0183023
2534,0056;0,0183272
2534,9697;0,0183444
2535,9341;0,0183518
2536,8982;0,0183488
2537,8625;0,0183361
2538,8267;0,018316
2539,7910;0,0182934
2540,7551;0,0182758
2541,7195;0,0182711
2542,6836;0,0182851
2543,6479;0,0183166
2544,6121;0,018357
2545,5764;0,0183926
2546,5405;0,0184116
2547,5049;0,0184097
2548,4690;0,0183923
2549,4333;0,0183714
2550,3975;0,0183588
2551,3618;0,0183602
2552,3259;0,0183743
2553,2903;0,0183953
2554,2544;0,0184169
2555,2188;0,0184364
2556,1829;0,0184539
2557,1472;0,0184703
2558,1113;0,0184843
2559,0757;0,0184924
2560,0398;0,0184903
2561,0042;0,018477
2561,9683;0,0184571
2562,9326;0,0184405
2563,8967;0,018438
2564,8611;0,0184549
2565,8252;0,0184864
2566,7896;0,0185188
2567,7537;0,0185359
2568,7180;0,0185288
2569,6821;0,0185018
2570,6465;0,0184717
2571,6106;0,0184588
2572,5750;0,0184761
2573,5391;0,0185219
2574,5034;0,0185808
2575,4675;0,0186322
2576,4319;0,0186605
2577,3960;0,0186621
2578,3604;0,0186454
2579,3245;0,0186249
2580,2888;0,0186147
2581,2529;0,0186224
2582,2173;0,0186485
2583,1814;0,018687
2584,1458;0,0187284
2585,1099;0,0187629
2586,0742;0,0187831
2587,0383;0,0187858
2588,0027;0,0187737
2588,9668;0,0187543
2589,9312;0,0187377
2590,8953;0,018733
2591,8596;0,0187448
2592,8237;0,0187719
2593,7881;0,0188076
2594,7522;0,0188425
2595,7166;0,0188682
2596,6807;0,0188807
2597,6450;0,0188815
2598,6091;0,0188773
2599,5735;0,0188764
2600,5376;0,0188848
2601,5020;0,018904
2602,4661;0,0189305
2603,4304;0,0189584
2604,3945;0,0189832
2605,3589;0,0190047
2606,3230;0,0190265
2607,2874;0,0190539
2608,2515;0,0190894
2609,2158;0,0191306
2610,1799;0,01917
2611,1443;0,0191987
2612,1084;0,0192105
2613,0728;0,0192055
2614,0369;0,0191907
2615,0012;0,0191779
2615,9653;0,0191786
2616,9297;0,0191993
2617,8938;0,0192389
2618,8582;0,0192883
2619,8223;0,0193349
2620,7866;0,0193675
2621,7507;0,0193812
2622,7151;0,0193798
2623,6792;0,0193731
2624,6436;0,0193726
2625,6077;0,0193857
2626,5720;0,0194128
2627,5361;0,0194481
2628,5005;0,0194833
2629,4646;0,0195123
2630,4290;0,0195332
2631,3931;0,0195484
2632,3574;0,0195619
2633,3215;0,0195771
2634,2859;0,0195962
2635,2500;0,0196201
2636,2144;0,0196487
2637,1785;0,0196808
2638,1428;0,019713
2639,1069;0,0197405
2640,0713;0,0197594
2641,0354;0,0197694
2641,9998;0,0197753
2642,9639;0,0197852
2643,9282;0,0198059
2644,8923;0,0198389
2645,8567;0,0198801
2646,8208;0,0199218
2647,7852;0,0199577
2648,7493;0,0199853
2649,7136;0,0200061
2650,6777;0,0200232
2651,6421;0,0200387
2652,6062;0,0200527
2653,5706;0,0200639
2654,5347;0,0200712
2655,4990;0,0200747
2656,4631;0,0200761
2657,4275;0,0200786
2658,3916;0,0200859
2659,3560;0,0201013
2660,3201;0,0201259
2661,2844;0,0201572
2662,2485;0,02019
2663,2129;0,0202177
2664,1770;0,0202358
2665,1414;0,0202442
2666,1055;0,020247
2667,0698;0,0202502
2668,0339;0,020258
2668,9983;0,0202718
2669,9624;0,0202897
2670,9268;0,0203096
2671,8909;0,0203303
2672,8552;0,0203524
2673,8193;0,0203765
2674,7837;0,0204022
2675,7478;0,0204278
2676,7122;0,020452
2677,6763;0,0204749
2678,6406;0,0204985
2679,6047;0,0205261
2680,5691;0,0205593
2681,5332;0,0205973
2682,4976;0,0206365
2683,4617;0,0206727
2684,4260;0,0207029
2685,3901;0,020727
2686,3545;0,0207472
2687,3186;0,0207664
2688,2830;0,0207866
2689,2471;0,0208087
2690,2114;0,0208323
2691,1755;0,0208569
2692,1399;0,0208818
2693,1040;0,0209059
2694,0684;0,0209278
2695,0325;0,0209464
2695,9968;0,0209618
2696,9609;0,0209765
2697,9253;0,020994
2698,8894;0,0210177
2699,8538;0,0210484
2700,8179;0,0210842
2701,7822;0,0211219
2702,7463;0,0211593
2703,7107;0,0211962
2704,6748;0,021234
2705,6392;0,0212733
2706,6033;0,0213119
2707,5676;0,0213456
2708,5317;0,02137
2709,4961;0,0213847
2710,4602;0,0213939
2711,4246;0,0214057
2712,3887;0,0214273
2713,3530;0,0214618
2714,3171;0,0215059
2715,2815;0,0215515
2716,2456;0,0215896
2717,2100;0,0216144
2718,1741;0,0216259
2719,1384;0,0216294
2720,1025;0,0216323
2721,0669;0,0216412
2722,0310;0,0216589
2722,9954;0,0216841
2723,9595;0,0217135
2724,9238;0,0217438
2725,8879;0,0217734
2726,8523;0,0218026
2727,8164;0,0218321
2728,7808;0,0218615
2729,7449;0,0218891
2730,7092;0,0219125
2731,6733;0,0219302
2732,6377;0,021943
2733,6018;0,0219535
2734,5662;0,021965
2735,5303;0,0219802
2736,4946;0,0219997
2737,4587;0,0220222
2738,4231;0,0220453
2739,3872;0,0220667
2740,3516;0,0220854
2741,3157;0,0221022
2742,2800;0,0221192
2743,2441;0,0221382
2744,2085;0,0221594
2745,1726;0,0221806
2746,1370;0,0221984
2747,1011;0,022211
2748,0654;0,0222198
2749,0295;0,0222298
2749,9939;0,0222464
2750,9580;0,0222717
2751,9224;0,0223029
2752,8865;0,0223339
2753,8508;0,0223599
2754,8149;0,022381
2755,7793;0,0224019
2756,7434;0,022428
2757,7078;0,0224612
2758,6719;0,0224977
2759,6362;0,0225308
2760,6003;0,0225554
2761,5647;0,0225712
2762,5288;0,0225828
2763,4932;0,0225961
2764,4573;0,0226154
2765,4216;0,0226422
2766,3857;0,022676
2767,3501;0,0227153
2768,3142;0,0227582
2769,2786;0,0228014
2770,2427;0,0228412
2771,2070;0,022875
2772,1711;0,0229035
2773,1355;0,0229311
2774,0996;0,0229636
2775,0640;0,0230046
2776,0281;0,0230526
2776,9924;0,0231027
2777,9565;0,023149
2778,9209;0,0231894
2779,8850;0,0232259
2780,8494;0,0232634
2781,8135;0,0233054
2782,7778;0,0233514
2783,7419;0,023397
2784,7063;0,0234366
2785,6704;0,0234671
2786,6348;0,0234901
2787,5989;0,0235119
2788,5632;0,0235402
2789,5273;0,0235812
2790,4917;0,0236366
2791,4558;0,0237028
2792,4202;0,0237735
2793,3843;0,0238416
2794,3486;0,0239035
2795,3127;0,0239595
2796,2771;0,0240141
2797,2412;0,0240729
2798,2056;0,0241393
2799,1697;0,0242133
2800,1340;0,0242914
2801,0981;0,024369
2802,0625;0,0244436
2803,0266;0,0245163
2803,9910;0,0245902
2804,9551;0,0246681
2805,9194;0,0247503
2806,8835;0,0248343
2807,8479;0,0249171
2808,8120;0,0249977
2809,7764;0,0250785
2810,7405;0,0251635
2811,7048;0,0252554
2812,6689;0,0253535
2813,6333;0,0254542
2814,5974;0,0255535
2815,5618;0,0256508
2816,5259;0,0257491
2817,4902;0,0258537
2818,4543;0,0259684
2819,4187;0,0260928
2820,3828;0,0262224
2821,3472;0,0263511
2822,3113;0,0264752
2823,2756;0,0265959
2824,2397;0,0267194
2825,2041;0,0268541
2826,1682;0,0270065
2827,1326;0,0271789
2828,0967;0,027368
2829,0610;0,0275671
2830,0251;0,0277687
2830,9895;0,0279674
2831,9536;0,0281613
2832,9180;0,0283531
2833,8821;0,0285484
2834,8464;0,0287544
2835,8105;0,0289769
2836,7749;0,0292183
2837,7390;0,0294772
2838,7034;0,0297492
2839,6675;0,0300304
2840,6318;0,0303205
2841,5959;0,0306236
2842,5603;0,0309462
2843,5244;0,0312927
2844,4888;0,031661
2845,4529;0,0320411
2846,4172;0,0324164
2847,3813;0,0327681
2848,3457;0,0330804
2849,3098;0,0333425
2850,2742;0,0335501
2851,2383;0,0337039
2852,2026;0,0338089
2853,1667;0,0338725
2854,1311;0,0339041
2855,0952;0,0339135
2856,0596;0,0339097
2857,0237;0,0339002
2857,9880;0,0338917
2858,9521;0,0338909
2859,9165;0,0339044
2860,8806;0,0339384
2861,8450;0,0339971
2862,8091;0,0340811
2863,7734;0,034187
2864,7375;0,0343085
2865,7019;0,0344381
2866,6660;0,0345683
2867,6304;0,0346928
2868,5945;0,0348074
2869,5588;0,03491
2870,5229;0,0350013
2871,4873;0,0350838
2872,4514;0,0351609
2873,4158;0,0352347
2874,3799;0,0353043
2875,3442;0,0353662
2876,3083;0,0354161
2877,2727;0,035452
2878,2368;0,0354767
2879,2012;0,0354976
2880,1653;0,0355245
2881,1296;0,0355664
2882,0938;0,0356283
2883,0581;0,0357101
2884,0222;0,0358068
2884,9866;0,0359107
2885,9507;0,036013
2886,9150;0,0361064
2887,8792;0,0361865
2888,8435;0,0362521
2889,8076;0,0363062
2890,7720;0,0363542
2891,7361;0,0364029
2892,7004;0,0364581
2893,6646;0,0365234
2894,6289;0,0365992
2895,5930;0,0366825
2896,5574;0,0367678
2897,5215;0,0368482
2898,4858;0,0369173
2899,4500;0,0369716
2900,4143;0,0370114
2901,3784;0,0370416
2902,3428;0,0370692
2903,3069;0,0371013
2904,2712;0,0371418
2905,2354;0,037192
2906,1997;0,037251
2907,1638;0,0373185
2908,1282;0,0373959
2909,0923;0,0374856
2910,0566;0,0375897
2911,0208;0,0377081
2911,9851;0,0378379
2912,9492;0,0379744
2913,9136;0,0381124
2914,8777;0,0382469
2915,8420;0,0383725
2916,8062;0,0384829
2917,7705;0,0385709
2918,7346;0,0386292
2919,6990;0,0386521
2920,6631;0,0386368
2921,6274;0,0385835
2922,5916;0,0384938
2923,5559;0,0383699
2924,5200;0,0382135
2925,4844;0,0380269
2926,4485;0,0378146
2927,4128;0,0375844
2928,3770;0,0373466
2929,3413;0,0371113
2930,3054;0,0368846
2931,2698;0,0366672
2932,2339;0,0364541
2933,1982;0,036238
2934,1624;0,0360131
2935,1267;0,0357778
2936,0908;0,0355346
2937,0552;0,0352883
2938,0193;0,0350427
2938,9836;0,0347988
2939,9478;0,0345553
2940,9121;0,0343097
2941,8762;0,0340613
2942,8406;0,0338122
2943,8047;0,0335667
2944,7690;0,03333
2945,7332;0,033105
2946,6975;0,0328916
2947,6616;0,0326867
2948,6260;0,0324863
2949,5901;0,0322883
2950,5544;0,0320934
2951,5186;0,0319045
2952,4829;0,0317242
2953,4470;0,0315522
2954,4114;0,0313854
2955,3755;0,0312195
2956,3398;0,0310512
2957,3040;0,0308807
2958,2683;0,0307106
2959,2324;0,0305444
2960,1968;0,0303841
2961,1609;0,0302294
2962,1252;0,030078
2963,0894;0,0299273
2964,0537;0,0297745
2965,0178;0,0296177
2965,9822;0,0294556
2966,9463;0,0292877
2967,9106;0,0291154
2968,8748;0,0289413
2969,8391;0,0287684
2970,8032;0,0285995
2971,7676;0,0284358
2972,7317;0,0282772
2973,6960;0,0281237
2974,6602;0,0279761
2975,6245;0,0278366
2976,5886;0,0277075
2977,5530;0,0275903
2978,5171;0,0274846
2979,4814;0,0273887
2980,4456;0,0273001
2981,4099;0,0272164
2982,3740;0,0271358
2983,3384;0,0270572
2984,3025;0,0269802
2985,2668;0,0269046
2986,2310;0,0268318
2987,1953;0,0267641
2988,1594;0,0267047
2989,1238;0,0266564
2990,0879;0,0266203
2991,0522;0,0265954
2992,0164;0,026579
2992,9807;0,0265687
2993,9448;0,0265638
2994,9092;0,0265656
2995,8733;0,0265761
2996,8376;0,0265959
2997,8018;0,0266231
2998,7661;0,0266527
2999,7302;0,0266794
3000,6946;0,0267
3001,6587;0,0267147
3002,6230;0,0267271
3003,5872;0,0267425
3004,5515;0,026765
3005,5156;0,0267961
3006,4800;0,026833
3007,4441;0,0268695
3008,4084;0,0268979
3009,3726;0,026912
3010,3369;0,0269105
3011,3010;0,0268986
3012,2654;0,0268867
3013,2295;0,0268862
3014,1938;0,0269042
3015,1580;0,0269412
3016,1223;0,0269921
3017,0864;0,0270502
3018,0508;0,0271106
3019,0149;0,0271713
3019,9792;0,0272318
3020,9434;0,0272911
3021,9077;0,027347
3022,8718;0,027398
3023,8362;0,027445
3024,8003;0,0274923
3025,7646;0,0275451
3026,7288;0,0276059
3027,6931;0,0276731
3028,6572;0,0277409
3029,6216;0,0278033
3030,5857;0,027857
3031,5500;0,0279039
3032,5142;0,0279492
3033,4785;0,0279993
3034,4426;0,0280582
3035,4070;0,0281263
3036,3711;0,0282012
3037,3354;0,0282803
3038,2996;0,0283618
3039,2639;0,028446
3040,2280;0,0285339
3041,1924;0,0286262
3042,1565;0,0287221
3043,1208;0,0288193
3044,0850;0,0289154
3045,0493;0,0290087
3046,0134;0,0290991
3046,9778;0,0291879
3047,9419;0,0292775
3048,9063;0,0293697
3049,8704;0,0294656
3050,8347;0,0295643
3051,7988;0,0296631
3052,7632;0,0297581
3053,7273;0,0298465
3054,6917;0,0299292
3055,6558;0,0300116
3056,6201;0,0301018
3057,5842;0,0302063
3058,5486;0,0303261
3059,5127;0,0304552
3060,4771;0,0305839
3061,4412;0,0307033
3062,4055;0,0308092
3063,3696;0,0309028
3064,3340;0,030988
3065,2981;0,0310692
3066,2625;0,0311502
3067,2266;0,0312359
3068,1909;0,0313321
3069,1550;0,0314434
3070,1194;0,0315699
3071,0835;0,0317048
3072,0479;0,031837
3073,0120;0,0319571
3073,9763;0,0320631
3074,9404;0,0321615
3075,9048;0,0322625
3076,8689;0,0323724
3077,8333;0,0324891
3078,7974;0,0326038
3079,7617;0,0327076
3080,7258;0,0327978
3081,6902;0,0328802
3082,6543;0,0329645
3083,6187;0,0330587
3084,5828;0,0331649
3085,5471;0,0332799
3086,5112;0,0333982
3087,4756;0,0335151
3088,4397;0,0336287
3089,4041;0,0337389
3090,3682;0,033847
3091,3325;0,0339543
3092,2966;0,034062
3093,2610;0,0341708
3094,2251;0,0342804
3095,1895;0,0343899
3096,1536;0,0344984
3097,1179;0,0346061
3098,0820;0,0347148
3099,0464;0,0348271
3100,0105;0,0349453
3100,9749;0,0350701
3101,9390;0,0352002
3102,9033;0,0353329
3103,8674;0,0354648
3104,8318;0,0355924
3105,7959;0,0357134
3106,7603;0,0358281
3107,7244;0,0359397
3108,6887;0,0360546
3109,6528;0,0361798
3110,6172;0,0363194
3111,5813;0,0364722
3112,5457;0,0366314
3113,5098;0,0367883
3114,4741;0,0369359
3115,4382;0,0370716
3116,4026;0,0371973
3117,3667;0,0373165
3118,3311;0,0374318
3119,2952;0,0375445
3120,2595;0,0376553
3121,2236;0,0377667
3122,1880;0,0378834
3123,1521;0,0380108
3124,1165;0,0381518
3125,0806;0,0383048
3126,0449;0,0384632
3127,0090;0,0386184
3127,9734;0,0387628
3128,9375;0,0388936
3129,9019;0,0390138
3130,8660;0,0391308
3131,8303;0,0392532
3132,7944;0,0393875
3133,7588;0,0395364
3134,7229;0,0396982
3135,6873;0,0398687
3136,6514;0,0400428
3137,6157;0,0402149
3138,5798;0,0403799
3139,5442;0,0405334
3140,5083;0,0406737
3141,4727;0,040803
3142,4368;0,0409282
3143,4011;0,0410579
3144,3652;0,0411989
3145,3296;0,0413515
3146,2937;0,0415093
3147,2581;0,0416619
3148,2222;0,0418008
3149,1865;0,0419246
3150,1506;0,0420405
3151,1150;0,0421606
3152,0791;0,0422959
3153,0435;0,042451
3154,0076;0,0426223
3154,9719;0,0428004
3155,9360;0,0429756
3156,9004;0,0431418
3157,8645;0,043299
3158,8289;0,0434521
3159,7930;0,043607
3160,7573;0,043768
3161,7214;0,043936
3162,6858;0,0441092
3163,6499;0,0442842
3164,6143;0,044457
3165,5784;0,0446243
3166,5427;0,0447835
3167,5068;0,0449342
3168,4712;0,0450787
3169,4353;0,045222
3170,3997;0,0453703
3171,3638;0,045527
3172,3281;0,0456911
3173,2922;0,0458573
3174,2566;0,046019
3175,2207;0,0461718
3176,1851;0,0463161
3177,1492;0,0464566
3178,1135;0,0465991
3179,0776;0,0467477
3180,0420;0,0469029
3181,0061;0,0470632
3181,9705;0,0472261
3182,9346;0,0473894
3183,8989;0,0475514
3184,8630;0,0477102
3185,8274;0,0478633
3186,7915;0,0480093
3187,7559;0,0481484
3188,7200;0,0482839
3189,6843;0,0484208
3190,6484;0,0485645
3191,6128;0,048717
3192,5769;0,0488756
3193,5413;0,0490344
3194,5054;0,0491871
3195,4697;0,049332
3196,4338;0,049474
3197,3982;0,0496216
3198,3623;0,0497815
3199,3267;0,0499527
3200,2908;0,0501261
3201,2551;0,0502894
3202,2192;0,0504342
3203,1836;0,0505621
3204,1477;0,0506832
3205,1121;0,0508105
3206,0762;0,0509524
3207,0405;0,0511079
3208,0046;0,0512685
3208,9690;0,0514234
3209,9331;0,0515658
3210,8975;0,0516959
3211,8616;0,0518198
3212,8259;0,0519452
3213,7900;0,0520766
3214,7544;0,0522133
3215,7185;0,0523505
3216,6829;0,052483
3217,6470;0,0526096
3218,6113;0,052734
3219,5754;0,0528637
3220,5398;0,0530048
3221,5039;0,0531586
3222,4683;0,0533206
3223,4324;0,0534835
3224,3967;0,0536416
3225,3608;0,0537932
3226,3252;0,0539401
3227,2893;0,0540846
3228,2537;0,0542269
3229,2178;0,0543646
3230,1821;0,0544947
3231,1462;0,0546163
3232,1106;0,0547322
3233,0747;0,0548484
3234,0391;0,0549723
3235,0032;0,0551103
3235,9675;0,055265
3236,9316;0,0554335
3237,8960;0,0556075
3238,8601;0,055776
3239,8245;0,055929
3240,7886;0,0560626
3241,7529;0,0561802
3242,7170;0,0562922
3243,6814;0,0564108
3244,6455;0,056545
3245,6099;0,0566956
3246,5740;0,0568556
3247,5383;0,0570133
3248,5024;0,0571579
3249,4668;0,0572852
3250,4309;0,0573983
3251,3953;0,0575069
3252,3594;0,057622
3253,3237;0,0577506
3254,2878;0,0578933
3255,2522;0,0580444
3256,2163;0,0581965
3257,1807;0,0583446
3258,1448;0,0584884
3259,1091;0,0586309
3260,0732;0,0587752
3261,0376;0,0589224
3262,0017;0,059071
3262,9661;0,0592186
3263,9302;0,0593634
3264,8945;0,0595052
3265,8586;0,0596456
3266,8230;0,0597865
3267,7871;0,0599294
3268,7515;0,0600741
3269,7156;0,0602176
3270,6799;0,0603536
3271,6440;0,0604735
3272,6084;0,0605696
3273,5725;0,0606387
3274,5369;0,0606849
3275,5010;0,060719
3276,4653;0,0607547
3277,4294;0,0608035
3278,3938;0,0608706
3279,3579;0,0609541
3280,3223;0,0610468
3281,2864;0,0611389
3282,2507;0,0612217
3283,2148;0,0612902
3284,1792;0,0613446
3285,1433;0,0613898
3286,1077;0,0614332
3287,0718;0,0614807
3288,0361;0,0615342
3289,0002;0,0615907
3289,9646;0,0616448
3290,9287;0,0616913
3291,8931;0,0617284
3292,8572;0,0617577
3293,8215;0,0617822
3294,7856;0,0618041
3295,7500;0,0618243
3296,7141;0,0618435
3297,6785;0,0618642
3298,6426;0,0618906
3299,6069;0,0619266
3300,5710;0,0619731
3301,5354;0,0620263
3302,4995;0,0620784
3303,4639;0,0621205
3304,4280;0,0621468
3305,3923;0,0621571
3306,3564;0,062157
3307,3208;0,0621552
3308,2849;0,0621589
3309,2493;0,0621709
3310,2134;0,0621887
3311,1777;0,0622078
3312,1418;0,0622255
3313,1062;0,0622452
3314,0703;0,0622749
3315,0347;0,0623238
3315,9988;0,0623964
3316,9631;0,0624895
3317,9272;0,0625933
3318,8916;0,0626965
3319,8557;0,0627926
3320,8201;0,0628826
3321,7842;0,0629725
3322,7485;0,0630677
3323,7126;0,0631668
3324,6770;0,0632602
3325,6411;0,0633344
3326,6055;0,0633801
3327,5696;0,0633992
3328,5339;0,0634055
3329,4980;0,0634186
3330,4624;0,0634536
3331,4265;0,0635134
3332,3909;0,0635868
3333,3550;0,063655
3334,3193;0,0637013
3335,2834;0,0637184
3336,2478;0,0637102
3337,2119;0,0636861
3338,1763;0,0636544
3339,1404;0,0636175
3340,1047;0,0635729
3341,0688;0,063518
3342,0332;0,063453
3342,9973;0,0633816
3343,9617;0,0633077
3344,9258;0,0632321
3345,8901;0,0631519
3346,8542;0,0630639
3347,8186;0,062967
3348,7827;0,0628648
3349,7471;0,0627626
3350,7112;0,062664
3351,6755;0,0625682
3352,6396;0,0624704
3353,6040;0,0623663
3354,5681;0,0622554
3355,5325;0,0621427
3356,4966;0,0620355
3357,4609;0,0619385
3358,4250;0,0618506
3359,3894;0,061766
3360,3535;0,061678
3361,3179;0,0615841
3362,2820;0,061487
3363,2463;0,0613919
3364,2104;0,0613019
3365,1748;0,0612149
3366,1389;0,0611238
3367,1033;0,0610202
3368,0674;0,0608994
3369,0317;0,0607621
3369,9958;0,0606138
3370,9602;0,0604618
3371,9243;0,0603131
3372,8887;0,0601726
3373,8528;0,0600434
3374,8171;0,0599264
3375,7813;0,0598211
3376,7456;0,0597254
3377,7097;0,0596358
3378,6741;0,0595474
3379,6382;0,0594538
3380,6025;0,0593479
3381,5667;0,0592244
3382,5310;0,0590832
3383,4951;0,0589326
3384,4595;0,0587879
3385,4236;0,0586653
3386,3879;0,0585731
3387,3521;0,0585054
3388,3164;0,0584438
3389,2805;0,0583661
3390,2449;0,0582576
3391,2090;0,0581189
3392,1733;0,0579647
3393,1375;0,0578151
3394,1018;0,0576843
3395,0659;0,0575744
3396,0303;0,0574776
3396,9944;0,0573823
3397,9587;0,0572792
3398,9229;0,0571634
3399,8872;0,0570335
3400,8513;0,0568901
3401,8157;0,0567358
3402,7798;0,0565759
3403,7441;0,0564183
3404,7083;0,0562703
3405,6726;0,0561348
3406,6367;0,0560085
3407,6011;0,0558831
3408,5652;0,0557487
3409,5295;0,0555986
3410,4937;0,055432
3411,4580;0,0552536
3412,4221;0,055072
3413,3865;0,0548965
3414,3506;0,0547327
3415,3149;0,0545808
3416,2791;0,0544342
3417,2434;0,0542828
3418,2075;0,0541169
3419,1719;0,0539324
3420,1360;0,0537323
3421,1003;0,0535252
3422,0645;0,0533204
3423,0288;0,0531231
3423,9929;0,0529342
3424,9573;0,052752
3425,9214;0,0525748
3426,8857;0,0524024
3427,8499;0,0522347
3428,8142;0,0520702
3429,7783;0,0519046
3430,7427;0,0517325
3431,7068;0,05155
3432,6711;0,0513579
3433,6353;0,0511624
3434,5996;0,0509725
3435,5637;0,0507946
3436,5281;0,0506283
3437,4922;0,050465
3438,4565;0,0502926
3439,4207;0,0501022
3440,3850;0,0498945
3441,3491;0,0496791
3442,3135;0,0494675
3443,2776;0,0492644
3444,2419;0,0490642
3445,2061;0,0488556
3446,1704;0,0486308
3447,1345;0,0483935
3448,0989;0,0481583
3449,0630;0,0479409
3450,0273;0,0477482
3450,9915;0,0475752
3451,9558;0,0474089
3452,9199;0,0472367
3453,8843;0,0470516
3454,8484;0,0468539
3455,8127;0,0466483
3456,7769;0,0464393
3457,7412;0,0462285
3458,7053;0,046016
3459,6697;0,0458019
3460,6338;0,0455882
3461,5981;0,0453784
3462,5623;0,0451752
3463,5266;0,0449785
3464,4907;0,0447843
3465,4551;0,0445866
3466,4192;0,04438
3467,3835;0,0441636
3468,3477;0,0439413
3469,3120;0,0437207
3470,2761;0,0435082
3471,2405;0,043306
3472,2046;0,043112
3473,1689;0,0429227
3474,1331;0,042737
3475,0974;0,0425562
3476,0615;0,0423808
3477,0259;0,042206
3477,9900;0,0420214
3478,9543;0,0418159
3479,9185;0,0415861
3480,8828;0,0413417
3481,8469;0,0411029
3482,8113;0,0408885
3483,7754;0,0407046
3484,7397;0,0405419
3485,7039;0,0403824
3486,6682;0,0402099
3487,6323;0,0400186
3488,5967;0,0398138
3489,5608;0,0396061
3490,5251;0,0394037
3491,4893;0,039207
3492,4536;0,0390105
3493,4177;0,0388087
3494,3821;0,0386028
3495,3462;0,0384026
3496,3105;0,0382212
3497,2747;0,0380648
3498,2390;0,0379244
3499,2031;0,0377763
3500,1675;0,037593
3501,1316;0,0373599
3502,0959;0,0370898
3503,0601;0,0368206
3504,0244;0,0365924
3504,9885;0,0364212
3505,9529;0,0362897
3506,9170;0,0361603
3507,8813;0,035998
3508,8455;0,0357893
3509,8098;0,0355481
3510,7739;0,0353047
3511,7383;0,0350837
3512,7024;0,0348912
3513,6667;0,0347174
3514,6309;0,034549
3515,5952;0,0343804
3516,5593;0,0342159
3517,5237;0,0340639
3518,4878;0,0339274
3519,4521;0,0337994
3520,4163;0,0336653
3521,3806;0,0335107
3522,3447;0,033328
3523,3091;0,0331187
3524,2732;0,0328897
3525,2375;0,0326478
3526,2017;0,032398
3527,1660;0,0321472
3528,1301;0,0319073
3529,0945;0,031694
3530,0586;0,0315185
3531,0229;0,0313796
3531,9871;0,0312627
3532,9514;0,0311453
3533,9155;0,0310063
3534,8799;0,0308356
3535,8440;0,0306393
3536,8083;0,0304382
3537,7725;0,0302567
3538,7368;0,0301109
3539,7009;0,0299997
3540,6653;0,0299041
3541,6294;0,0297911
3542,5938;0,0296248
3543,5579;0,029384
3544,5222;0,0290817
3545,4863;0,0287673
3546,4507;0,0284992
3547,4148;0,0283069
3548,3792;0,0281758
3549,3433;0,0280629
3550,3076;0,0279254
3551,2717;0,0277451
3552,2361;0,0275387
3553,2002;0,0273446
3554,1646;0,0271925
3555,1287;0,0270817
3556,0930;0,0269836
3557,0571;0,0268639
3558,0215;0,0267076
3558,9856;0,0265327
3559,9500;0,0263817
3560,9141;0,0262927
3561,8784;0,0262674
3562,8425;0,0262588
3563,8069;0,0261806
3564,7710;0,0259423
3565,7354;0,0255141
3566,6995;0,0249842
3567,6638;0,0245169
3568,6279;0,0242226
3569,5923;0,0240952
3570,5564;0,0240604
3571,5208;0,0240398
3572,4849;0,0239805
3573,4492;0,0238644
3574,4133;0,0237037
3575,3777;0,0235248
3576,3418;0,0233467
3577,3062;0,0231727
3578,2703;0,0230009
3579,2346;0,0228423
3580,1987;0,0227244
3581,1631;0,0226744
3582,1272;0,0226925
3583,0916;0,0227355
3584,0557;0,0227201
3585,0200;0,022552
3585,9841;0,0221894
3586,9485;0,021709
3587,9126;0,0212783
3588,8770;0,021022
3589,8411;0,0209382
3590,8054;0,0209386
3591,7695;0,0209213
3592,7339;0,020817
3593,6980;0,0206145
3594,6624;0,0203614
3595,6265;0,0201258
3596,5908;0,0199413
3597,5549;0,0197898
3598,5193;0,0196339
3599,4834;0,0194604
3600,4478;0,0192987
3601,4119;0,0191961
3602,3762;0,0191747
3603,3403;0,0192093
3604,3047;0,0192392
3605,2688;0,019198
3606,2332;0,0190484
3607,1973;0,0188067
3608,1616;0,0185357
3609,1257;0,0182989
3610,0901;0,0181194
3611,0542;0,0179838
3612,0186;0,0178739
3612,9827;0,0177863
3613,9470;0,0177244
3614,9111;0,0176756
3615,8755;0,0175977
3616,8396;0,017432
3617,8040;0,017144
3618,7681;0,0167723
3619,7324;0,0164312
3620,6965;0,0162395
3621,6609;0,0162439
3622,6250;0,0164143
3623,5894;0,0166779
3624,5535;0,0169375
3625,5178;0,0170676
3626,4819;0,01693
3627,4463;0,0164584
3628,4104;0,0157856
3629,3748;0,0151968
3630,3389;0,0148698
3631,3032;0,0147689
3632,2673;0,0147707
3633,2317;0,014776
3634,1958;0,014739
3635,1602;0,0146595
3636,1243;0,0145624
3637,0886;0,014472
3638,0527;0,0143972
3639,0171;0,0143374
3639,9812;0,0142985
3640,9456;0,014303
3641,9097;0,0143817
3642,8740;0,0145503
3643,8381;0,014787
3644,8025;0,0150137
3645,7666;0,0150836
3646,7310;0,0148041
3647,6951;0,0140761
3648,6594;0,0131272
3649,6235;0,0124304
3650,5879;0,012219
3651,5520;0,0123615
3652,5164;0,0126288
3653,4805;0,0128472
3654,4448;0,0129156
3655,4089;0,0128124
3656,3733;0,0126055
3657,3374;0,0124105
3658,3018;0,0123033
3659,2659;0,0122789
3660,2302;0,0122868
3661,1943;0,0122883
3662,1587;0,0122892
3663,1228;0,0123304
3664,0872;0,0124468
3665,0513;0,0126264
3666,0156;0,012799
3666,9797;0,0128621
3667,9441;0,0127467
3668,9082;0,0124996
3669,8726;0,0122819
3670,8367;0,012223
3671,8010;0,0122954
3672,7651;0,0123455
3673,7295;0,0122026
3674,6936;0,0118053
3675,6580;0,0112933
3676,6221;0,0109097
3677,5864;0,0107728
3678,5505;0,0108276
3679,5149;0,0109682
3680,4790;0,0111277
3681,4434;0,0112939
3682,4075;0,0114881
3683,3718;0,0117305
3684,3359;0,0120069
3685,3003;0,0122503
3686,2644;0,012345
3687,2288;0,012171
3688,1929;0,0117066
3689,1572;0,0111198
3690,1213;0,0106727
3691,0857;0,0104984
3692,0498;0,0105514
3693,0142;0,0107251
3693,9783;0,0109395
3694,9426;0,011156
3695,9067;0,0113601
3696,8711;0,0115392
3697,8352;0,0116665
3698,7996;0,0117015
3699,7637;0,0116131
3700,7280;0,0114169
3701,6921;0,0111944
3702,6565;0,0110581
3703,6206;0,0110833
3704,5850;0,0112724
3705,5491;0,0115686
3706,5134;0,011881
3707,4775;0,0120979
3708,4419;0,0121037
3709,4060;0,011833
3710,3704;0,0113577
3711,3345;0,0108923
3712,2988;0,0106326
3713,2629;0,0106184
3714,2273;0,0107768
3715,1914;0,0110172
3716,1558;0,0112699
3717,1199;0,0114873
3718,0842;0,0116411
3719,0483;0,0117228
3720,0127;0,011741
3720,9768;0,0117093
3721,9412;0,0116351
3722,9053;0,0115228
3723,8696;0,0113911
3724,8337;0,0112846
3725,7981;0,0112593
3726,7622;0,01135
3727,7266;0,0115527
3728,6907;0,0118291
3729,6550;0,0121201
3730,6191;0,0123509
3731,5835;0,0124331
3732,5476;0,0122821
3733,5120;0,0118732
3734,4761;0,011316
3735,4404;0,0108375
3736,4045;0,0106248
3737,3689;0,010714
3738,3330;0,0110353
3739,2974;0,0114898
3740,2615;0,0119707
3741,2258;0,0123539
3742,1899;0,0125098
3743,1543;0,0123822
3744,1184;0,0120883
3745,0828;0,0118625
3746,0469;0,0118371
3747,0112;0,011949
3747,9753;0,0120224
3748,9397;0,0118818
3749,9038;0,0114804
3750,8682;0,0109988
3751,8323;0,0107096
3752,7966;0,0107098
3753,7607;0,0108993
3754,7251;0,011128
3755,6892;0,0112762
3756,6536;0,011278
3757,6177;0,011145
3758,5820;0,0109719
3759,5461;0,0108785
3760,5105;0,0109235
3761,4746;0,0110802
3762,4390;0,0112788
3763,4031;0,011452
3764,3674;0,0115575
3765,3315;0,0115815
3766,2959;0,0115298
3767,2600;0,0114157
3768,2244;0,0112563
3769,1885;0,0110816
3770,1528;0,0109416
3771,1169;0,0108906
3772,0813;0,010957
3773,0454;0,0111264
3774,0098;0,0113482
3774,9739;0,0115522
3775,9382;0,0116674
3776,9023;0,0116502
3777,8667;0,0115143
3778,8308;0,0113337
3779,7952;0,011194
3780,7593;0,0111335
3781,7236;0,0111327
3782,6877;0,0111486
3783,6521;0,0111491
3784,6162;0,0111295
3785,5806;0,0111065
3786,5447;0,0111033
3787,5090;0,0111358
3788,4731;0,0112084
3789,4375;0,011316
3790,4016;0,0114456
3791,3660;0,0115757
3792,3301;0,0116811
3793,2944;0,0117449
3794,2585;0,0117729
3795,2229;0,0117946
3796,1870;0,0118406
3797,1514;0,0119089
3798,1155;0,0119515
3799,0798;0,0119024
3800,0439;0,0117387
3801,0083;0,0115258
3801,9724;0,0113751
3802,9368;0,0113391
3803,9009;0,0113701
3804,8652;0,0113729
3805,8293;0,0112835
3806,7937;0,0111267
3807,7578;0,01101
3808,7222;0,0110387
3809,6863;0,0112359
3810,6506;0,0115438
3811,6147;0,0118667
3812,5791;0,0121058
3813,5432;0,0121938
3814,5076;0,0121381
3815,4717;0,0120264
3816,4360;0,0119508
3817,4001;0,0119179
3818,3645;0,0118508
3819,3286;0,0116733
3820,2930;0,0113973
3821,2571;0,0111318
3822,2214;0,0109874
3823,1855;0,0109874
3824,1499;0,0110833
3825,1140;0,0112146
3826,0784;0,0113431
3827,0425;0,011457
3828,0068;0,0115615
3828,9709;0,0116663
3829,9353;0,0117766
3830,8994;0,0118938
3831,8638;0,0120187
3832,8279;0,0121472
3833,7922;0,0122611
3834,7563;0,0123212
3835,7207;0,0122783
3836,6848;0,0121068
3837,6492;0,0118404
3838,6133;0,0115654
3839,5776;0,0113599
3840,5417;0,0112436
3841,5061;0,0111894
3842,4702;0,011169
3843,4346;0,0111823
3844,3987;0,0112582
3845,3630;0,0114339
3846,3271;0,011732
3847,2915;0,0121465
3848,2556;0,012636
3849,2200;0,0131094
3850,1841;0,0134046
3851,1484;0,0133012
3852,1125;0,012672
3853,0769;0,0117529
3854,0410;0,0110459
3855,0054;0,0107962
3855,9695;0,0109034
3856,9338;0,0111982
3857,8979;0,0115619
3858,8623;0,0119093
3859,8264;0,0121636
3860,7908;0,0122637
3861,7549;0,0121984
3862,7192;0,0120375
3863,6833;0,0119025
3864,6477;0,0118829
3865,6118;0,0119796
3866,5762;0,012122
3867,5403;0,0122158
3868,5046;0,012186
3869,4688;0,0120106
3870,4331;0,011738
3871,3972;0,0114661
3872,3616;0,0112901
3873,3257;0,0112594
3874,2900;0,0113696
3875,2542;0,0115767
3876,2185;0,0118152
3877,1826;0,012015
3878,1470;0,0121223
3879,1111;0,0121238
3880,0754;0,0120548
3881,0396;0,0119721
3882,0039;0,0119081
3882,9680;0,0118566
3883,9324;0,0118025
3884,8965;0,0117575
3885,8608;0,0117571
3886,8250;0,0118211
3887,7893;0,011922
3888,7534;0,0119926
3889,7178;0,0119664
3890,6819;0,0118323
3891,6462;0,011666
3892,6104;0,0115846
3893,5747;0,0116548
3894,5388;0,0118569
3895,5032;0,0121199
3896,4673;0,0123656
3897,4316;0,0125338
3898,3958;0,0125976
3899,3601;0,0125623
3900,3242;0,0124432
3901,2886;0,012244
3902,2527;0,011971
3903,2170;0,0116663
3904,1812;0,0114072
3905,1455;0,0112592
3906,1096;0,0112359
3907,0740;0,0113047
3908,0381;0,0114173
3909,0024;0,0115355
3909,9666;0,011643
3910,9309;0,0117435
3911,8950;0,0118474
3912,8594;0,011955
3913,8235;0,012047
3914,7878;0,0120915
3915,7520;0,0120667
3916,7163;0,0119846
3917,6804;0,0118914
3918,6448;0,0118364
3919,6089;0,0118364
3920,5732;0,0118693
3921,5374;0,0118941
3922,5017;0,0118793
3923,4658;0,0118254
3924,4302;0,0117673
3925,3943;0,0117496
3926,3586;0,0117937
3927,3228;0,0118833
3928,2871;0,0119754
3929,2512;0,012022
3930,2156;0,0119954
3931,1797;0,0119047
3932,1440;0,0117916
3933,1082;0,0117047
3934,0725;0,0116732
3935,0366;0,0117016
3936,0010;0,0117771
3936,9651;0,0118771
3937,9294;0,0119735
3938,8936;0,0120375
3939,8579;0,0120501
3940,8220;0,0120137
3941,7864;0,0119568
3942,7505;0,0119196
3943,7148;0,0119274
3944,6790;0,0119729
3945,6433;0,0120215
3946,6074;0,0120335
3947,5718;0,0119887
3948,5359;0,0119004
3949,5002;0,0118072
3950,4644;0,0117471
3951,4287;0,0117344
3952,3928;0,0117577
3953,3572;0,011795
3954,3213;0,01183
3955,2856;0,0118582
3956,2498;0,0118822
3957,2141;0,0119032
3958,1782;0,0119165
3959,1426;0,0119146
3960,1067;0,0118953
3961,0710;0,0118661
3962,0352;0,0118409
3962,9995;0,0118317
3963,9636;0,0118418
3964,9280;0,0118655
3965,8921;0,0118941
3966,8564;0,0119206
3967,8206;0,011942
3968,7849;0,0119579
3969,7490;0,0119676
3970,7134;0,0119688
3971,6775;0,0119598
3972,6418;0,0119415
3973,6060;0,0119191
3974,5703;0,0119003
3975,5344;0,0118917
3976,4988;0,0118955
3977,4629;0,011909
3978,4272;0,0119255
3979,3914;0,0119385
3980,3557;0,0119439
3981,3198;0,0119423
3982,2842;0,0119376
3983,2483;0,0119354
3984,2126;0,0119394
3985,1768;0,0119499
3986,1411;0,0119638
3987,1052;0,0119763
3988,0696;0,0119834
3989,0337;0,0119833
3989,9980;0,011977
3990,9622;0,0119676
3991,9265;0,0119584
3992,8906;0,0119516
3993,8550;0,0119474
3994,8191;0,011944
3995,7834;0,0119388
3996,7476;0,0119299
3997,7119;0,0119183
3998,6760;0,0119083
3999,6404;0,0119059
4000,6045;0,011825

##### Extended Information
[Comments]
Sample name
Comment
Username
Division
Organization;UNIVERSIDAD INDUSTRIAL DE SANTANDER

[Detailed Information]
Creation date;25/02/2025 5:08 p.m.

Data array type;Linear data array
Horizontal axis;Wavenumber [cm-1]
Vertical axis;Abs
Start;399,193 cm-1
End;4000,6 cm-1
Data interval;0,964233 cm-1
Data points;3736    

[Measurement Information]
Model name;FT/IR-4X1typeA
Serial No.;A035162111

Accessory;ATR PRO 4X
Accessory S/N;A021162126
Incident angle;45 deg

Measurement date;25/02/2025 5:08 p.m.

Light source;Standard
Detector;TGS
Accumulation;40
Resolution;4 cm-1
Zero filling;On
Apodization;Cosine
Gain;Auto (8)
Aperture;Auto (7 mm)
Scan speed;Auto (2 mm/sec)
Filter;Auto (12800 Hz)

