TITLE;
DATA TYPE;INFRARED SPECTRUM
ORIGIN;JASCO
OWNER;
DATE;25/02/25
TIME;16:40:10
SPECTROMETER/DATA SYSTEM;
LOCALE;9226
RESOLUTION;
DELTAX;0,964233
XUNITS;1/CM
YUNITS;ABSORBANCE
FIRSTX;  399,1927
LASTX; 4000,6047
NPOINTS;    3736
FIRSTY;     0,15733
MAXY;     0,22251
MINY;     0,01269
XYDATA
399,1927;0,157326
400,1569;0,157237
401,1211;0,156429
402,0854;0,155441
403,0496;0,154551
404,0138;0,153806
404,9781;0,153163
405,9423;0,152611
406,9065;0,152235
407,8708;0,152166
408,8350;0,15249
409,7992;0,153175
410,7635;0,15406
411,7277;0,154927
412,6919;0,155606
413,6562;0,156051
414,6204;0,15635
415,5846;0,156697
416,5489;0,157349
417,5131;0,158529
418,4773;0,16016
419,4416;0,161686
420,4058;0,162472
421,3700;0,162383
422,3343;0,161738
423,2985;0,160983
424,2627;0,160491
425,2270;0,160466
426,1912;0,16087
427,1554;0,161454
428,1197;0,161897
429,0839;0,162004
430,0481;0,161802
431,0124;0,161519
431,9766;0,161451
432,9408;0,161792
433,9051;0,162524
434,8693;0,163437
435,8335;0,164247
436,7978;0,164755
437,7620;0,164913
438,7262;0,164792
439,6905;0,164487
440,6547;0,164066
441,6189;0,163582
442,5832;0,163113
443,5474;0,162761
444,5116;0,162599
445,4759;0,1626
446,4401;0,162643
447,4043;0,162581
448,3686;0,162327
449,3328;0,161887
450,2970;0,161345
451,2613;0,160808
452,2255;0,160341
453,1897;0,159957
454,1540;0,159651
455,1182;0,15946
456,0824;0,159468
457,0467;0,15975
458,0109;0,16026
458,9751;0,160785
459,9394;0,161061
460,9036;0,160948
461,8678;0,160489
462,8321;0,159848
463,7963;0,159208
464,7605;0,158685
465,7248;0,158293
466,6890;0,157979
467,6532;0,1577
468,6175;0,157496
469,5817;0,157464
470,5459;0,157674
471,5102;0,158064
472,4744;0,158422
473,4386;0,158514
474,4029;0,158273
475,3671;0,157848
476,3313;0,157491
477,2956;0,157405
478,2598;0,157651
479,2240;0,158157
480,1883;0,158786
481,1525;0,159427
482,1167;0,160032
483,0810;0,160592
484,0452;0,161081
485,0094;0,161442
485,9737;0,161634
486,9379;0,161685
487,9021;0,161703
488,8664;0,16182
489,8306;0,162119
490,7948;0,162581
491,7591;0,163085
492,7233;0,16348
493,6875;0,163676
494,6518;0,163697
495,6160;0,163654
496,5802;0,163672
497,5445;0,163817
498,5087;0,164076
499,4729;0,164379
500,4372;0,164655
501,4014;0,164886
502,3656;0,165127
503,3299;0,16547
504,2941;0,165973
505,2583;0,166602
506,2226;0,167248
507,1868;0,167782
508,1510;0,168138
509,1153;0,168349
510,0795;0,168538
511,0437;0,168834
512,0080;0,169305
512,9722;0,169935
513,9365;0,170654
514,9007;0,171386
515,8649;0,172077
516,8292;0,1727
517,7934;0,173229
518,7576;0,173622
519,7219;0,173842
520,6861;0,173886
521,6503;0,173797
522,6146;0,173651
523,5788;0,173531
524,5430;0,173504
525,5073;0,173594
526,4715;0,173773
527,4357;0,173967
528,4000;0,174097
529,3642;0,174099
530,3284;0,173945
531,2927;0,173642
532,2569;0,173229
533,2211;0,172764
534,1854;0,17231
535,1496;0,171911
536,1138;0,171582
537,0781;0,171314
538,0423;0,171094
539,0065;0,17092
539,9708;0,170804
540,9350;0,170765
541,8992;0,170814
542,8635;0,170946
543,8277;0,171148
544,7919;0,171407
545,7562;0,171723
546,7204;0,172101
547,6846;0,17254
548,6489;0,173014
549,6131;0,173477
550,5773;0,173884
551,5416;0,174225
552,5058;0,174539
553,4700;0,174894
554,4343;0,175347
555,3985;0,175895
556,3627;0,176454
557,3270;0,176881
558,2912;0,177026
559,2554;0,17679
560,2197;0,176161
561,1839;0,175219
562,1481;0,174107
563,1124;0,172979
564,0766;0,171951
565,0408;0,17107
566,0051;0,170316
566,9693;0,169638
567,9335;0,169001
568,8978;0,168414
569,8620;0,167925
570,8262;0,16758
571,7905;0,167383
572,7547;0,16728
573,7189;0,167186
574,6832;0,167031
575,6474;0,166796
576,6116;0,166529
577,5759;0,166315
578,5401;0,166222
579,5043;0,166264
580,4686;0,166397
581,4328;0,166535
582,3970;0,166602
583,3613;0,166562
584,3255;0,166437
585,2897;0,166286
586,2540;0,166173
587,2182;0,166134
588,1824;0,166167
589,1467;0,166241
590,1109;0,16631
591,0751;0,166336
592,0394;0,166295
593,0036;0,166177
593,9678;0,165977
594,9321;0,165696
595,8963;0,165339
596,8605;0,164922
597,8248;0,164468
598,7890;0,164007
599,7532;0,163563
600,7175;0,163151
601,6817;0,162776
602,6459;0,162439
603,6102;0,162134
604,5744;0,161852
605,5386;0,161577
606,5029;0,161288
607,4671;0,16096
608,4313;0,160578
609,3956;0,16014
610,3598;0,159671
611,3240;0,159214
612,2883;0,158822
613,2525;0,158529
614,2167;0,15832
615,1810;0,158119
616,1452;0,1578
617,1094;0,157236
618,0737;0,15636
619,0379;0,155202
620,0021;0,153861
620,9664;0,152457
621,9306;0,151074
622,8948;0,149758
623,8591;0,148528
624,8233;0,147383
625,7875;0,146361
626,7518;0,145467
627,7160;0,144688
628,6802;0,143997
629,6445;0,143364
630,6087;0,142763
631,5729;0,142187
632,5372;0,141635
633,5014;0,141115
634,4656;0,140634
635,4299;0,140196
636,3941;0,139806
637,3583;0,139459
638,3226;0,139143
639,2868;0,138832
640,2510;0,138499
641,2153;0,138129
642,1795;0,137731
643,1437;0,137338
644,1080;0,136994
645,0722;0,136734
646,0364;0,136561
647,0007;0,136444
647,9649;0,136338
648,9291;0,136201
649,8934;0,136014
650,8576;0,135792
651,8218;0,135566
652,7861;0,135377
653,7503;0,135255
654,7145;0,135227
655,6788;0,1353
656,6430;0,135464
657,6072;0,135679
658,5715;0,135877
659,5357;0,135972
660,4999;0,135882
661,4642;0,13557
662,4284;0,135054
663,3926;0,134388
664,3569;0,13365
665,3211;0,132967
666,2853;0,132527
667,2496;0,132434
668,2138;0,132434
669,1780;0,132051
670,1423;0,131229
671,1065;0,130208
672,0707;0,129083
673,0350;0,127828
673,9992;0,126437
674,9634;0,124964
675,9277;0,123492
676,8919;0,122084
677,8561;0,12076
678,8204;0,119512
679,7846;0,118336
680,7488;0,117246
681,7131;0,116263
682,6773;0,115393
683,6415;0,11462
684,6058;0,113918
685,5700;0,113264
686,5342;0,112646
687,4985;0,112062
688,4627;0,111524
689,4269;0,111044
690,3912;0,11063
691,3554;0,110277
692,3196;0,109958
693,2839;0,109629
694,2481;0,109256
695,2123;0,108824
696,1766;0,108349
697,1408;0,107865
698,1050;0,107405
699,0693;0,10699
700,0335;0,10662
700,9977;0,106282
701,9620;0,105951
702,9262;0,1056
703,8904;0,105196
704,8547;0,104723
705,8189;0,104186
706,7831;0,103614
707,7474;0,103049
708,7116;0,102527
709,6758;0,102062
710,6401;0,101636
711,6043;0,101208
712,5685;0,100742
713,5328;0,100225
714,4970;0,0996765
715,4612;0,0988431
716,4255;0,0984127
717,3897;0,098055
718,3539;0,0977162
719,3182;0,0973084
720,2824;0,0967536
721,2466;0,0960265
722,2109;0,0951659
723,1751;0,0942456
724,1393;0,0933354
725,1036;0,0924776
726,0678;0,0916879
727,0320;0,0909683
727,9963;0,0903188
728,9605;0,0897398
729,9247;0,0892267
730,8890;0,0887643
731,8532;0,0883271
732,8174;0,087888
733,7817;0,0874287
734,7459;0,0869479
735,7101;0,0864591
736,6744;0,0859815
737,6386;0,0855281
738,6028;0,0851
739,5671;0,0846892
740,5313;0,084287
741,4955;0,0838917
742,4598;0,0835072
743,4240;0,083135
744,3882;0,0827657
745,3525;0,082381
746,3167;0,081965
747,2809;0,0815177
748,2452;0,0810592
749,2094;0,0806187
750,1736;0,0802148
751,1379;0,0798411
752,1021;0,0794684
753,0663;0,079062
754,0306;0,0786043
754,9948;0,0781067
755,9590;0,0776043
756,9233;0,0771368
757,8875;0,0767284
758,8517;0,0763777
759,8160;0,076062
760,7802;0,0757522
761,7444;0,0754276
762,7087;0,0750849
763,6729;0,0747362
764,6371;0,0743986
765,6014;0,0740835
766,5656;0,0737903
767,5298;0,0735095
768,4941;0,0732305
769,4583;0,0729504
770,4225;0,0726757
771,3868;0,0724164
772,3510;0,0721775
773,3152;0,0719539
774,2795;0,0717332
775,2437;0,0715047
776,2079;0,0712673
777,1722;0,0710302
778,1364;0,0708054
779,1006;0,0705987
780,0649;0,0704039
781,0291;0,0702061
781,9933;0,0699904
782,9576;0,0697495
783,9218;0,0694868
784,8860;0,0692131
785,8503;0,068941
786,8145;0,0686811
787,7787;0,0684403
788,7430;0,0682222
789,7072;0,0680272
790,6714;0,0678533
791,6357;0,0676973
792,5999;0,0675565
793,5641;0,0674296
794,5284;0,0673149
795,4926;0,0672078
796,4568;0,0670987
797,4211;0,0669754
798,3853;0,0668286
799,3495;0,066658
800,3138;0,0664742
801,2780;0,0662952
802,2422;0,0661391
803,2065;0,0660181
804,1707;0,0659354
805,1349;0,0658858
806,0992;0,0658575
807,0634;0,065834
808,0276;0,0657969
808,9919;0,0657296
809,9561;0,0656226
810,9203;0,0654766
811,8846;0,0653014
812,8488;0,0651107
813,8130;0,0649153
814,7773;0,0647196
815,7415;0,0645233
816,7057;0,0643257
817,6700;0,0641299
818,6342;0,0639423
819,5984;0,0637688
820,5627;0,0636117
821,5269;0,0634687
822,4911;0,0633377
823,4554;0,0632199
824,4196;0,0631218
825,3839;0,0630499
826,3481;0,063005
827,3123;0,0629772
828,2766;0,062949
829,2408;0,0629025
830,2050;0,0628277
831,1693;0,0627249
832,1335;0,0626009
833,0977;0,0624611
834,0620;0,0623045
835,0262;0,0621259
835,9904;0,0619229
836,9547;0,0617029
837,9189;0,0614825
838,8831;0,0612796
839,8474;0,0611027
840,8116;0,0609457
841,7758;0,0607926
842,7401;0,060629
843,7043;0,0604532
844,6685;0,060278
845,6328;0,0601242
846,5970;0,0600079
847,5612;0,0599323
848,5255;0,0598881
849,4897;0,05986
850,4539;0,0598361
851,4182;0,0598123
852,3824;0,0597911
853,3466;0,0597767
854,3109;0,0597704
855,2751;0,0597693
856,2393;0,0597688
857,2036;0,059767
858,1678;0,0597681
859,1320;0,0597819
860,0963;0,0598205
861,0605;0,0598917
862,0247;0,0599956
862,9890;0,0601238
863,9532;0,0602644
864,9174;0,0604085
865,8817;0,0605537
866,8459;0,0607034
867,8101;0,0608619
868,7744;0,0610297
869,7386;0,0612023
870,7028;0,0613724
871,6671;0,0615332
872,6313;0,0616791
873,5955;0,061805
874,5598;0,061906
875,5240;0,0619811
876,4882;0,0620381
877,4525;0,0620961
878,4167;0,0621813
879,3809;0,0623166
880,3452;0,0625129
881,3094;0,0627673
882,2736;0,0630707
883,2379;0,0634197
884,2021;0,0638237
885,1663;0,0643005
886,1306;0,0648653
887,0948;0,0655188
888,0590;0,066244
889,0233;0,0670145
889,9875;0,0678049
890,9517;0,0685968
891,9160;0,0693759
892,8802;0,0701217
893,8444;0,0708004
894,8087;0,0713674
895,7729;0,0717791
896,7371;0,0720063
897,7014;0,0720421
898,6656;0,0718981
899,6298;0,071594
900,5941;0,0711489
901,5583;0,0705795
902,5225;0,0699076
903,4868;0,0691675
904,4510;0,0684083
905,4152;0,0676863
906,3795;0,0670499
907,3437;0,0665267
908,3079;0,0661189
909,2722;0,065809
910,2364;0,0655731
911,2007;0,0653923
912,1649;0,0652586
913,1292;0,0651724
914,0934;0,065136
915,0576;0,0651496
916,0219;0,0652095
916,9861;0,0653107
917,9503;0,0654483
918,9146;0,0656167
919,8788;0,0658077
920,8430;0,06601
921,8073;0,0662124
922,7715;0,0664089
923,7357;0,066602
924,7000;0,0668009
925,6642;0,0670154
926,6284;0,0672487
927,5927;0,0674959
928,5569;0,0677474
929,5211;0,067996
930,4854;0,0682415
931,4496;0,0684908
932,4138;0,0687523
933,3781;0,0690315
934,3423;0,0693283
935,3065;0,0696402
936,2708;0,0699665
937,2350;0,0703114
938,1992;0,0706839
939,1635;0,0710947
940,1277;0,0715544
941,0919;0,072071
942,0562;0,0726504
943,0204;0,0732958
943,9846;0,0740059
944,9489;0,0747739
945,9131;0,0755878
946,8773;0,076434
947,8416;0,0773023
948,8058;0,078191
949,7700;0,0791079
950,7343;0,0800687
951,6985;0,0810914
952,6627;0,0821919
953,6270;0,0833806
954,5912;0,0846604
955,5554;0,0860251
956,5197;0,0874597
957,4839;0,088942
958,4481;0,0904479
959,4124;0,0919593
960,3766;0,0934692
961,3408;0,0949831
962,3051;0,0965123
963,2693;0,098065
964,2335;0,099641
965,1978;0,101233
966,1620;0,102834
967,1262;0,104447
968,0905;0,10609
969,0547;0,10779
970,0189;0,109576
970,9832;0,111474
971,9474;0,113505
972,9116;0,115688
973,8759;0,118043
974,8401;0,120591
975,8043;0,123344
976,7686;0,126308
977,7328;0,12947
978,6970;0,132797
979,6613;0,136236
980,6255;0,139707
981,5897;0,143113
982,5540;0,146339
983,5182;0,14928
984,4824;0,151855
985,4467;0,154031
986,4109;0,155824
987,3751;0,157293
988,3394;0,158519
989,3036;0,159575
990,2678;0,160514
991,2321;0,161364
992,1963;0,162132
993,1605;0,162829
994,1248;0,163477
995,0890;0,164117
996,0532;0,164796
997,0175;0,165554
997,9817;0,166402
998,9459;0,167324
999,9102;0,168285
1000,8744;0,169249
1001,8386;0,170198
1002,8029;0,171139
1003,7671;0,172103
1004,7313;0,173127
1005,6956;0,174254
1006,6598;0,175521
1007,6240;0,176962
1008,5883;0,178605
1009,5525;0,180462
1010,5167;0,182525
1011,4810;0,184761
1012,4452;0,187119
1013,4094;0,189542
1014,3737;0,191983
1015,3379;0,194404
1016,3021;0,196779
1017,2664;0,199083
1018,2306;0,201295
1019,1948;0,203398
1020,1591;0,205391
1021,1233;0,207292
1022,0875;0,209132
1023,0518;0,210943
1024,0160;0,212744
1024,9802;0,21453
1025,9445;0,216274
1026,9087;0,217927
1027,8729;0,21943
1028,8372;0,220714
1029,8014;0,221704
1030,7656;0,222325
1031,7299;0,22251
1032,6941;0,222206
1033,6583;0,221391
1034,6226;0,220082
1035,5868;0,21835
1036,5510;0,216323
1037,5153;0,214176
1038,4795;0,212101
1039,4437;0,210273
1040,4080;0,208803
1041,3722;0,207725
1042,3364;0,206994
1043,3007;0,206518
1044,2649;0,20619
1045,2291;0,205922
1046,1934;0,205653
1047,1576;0,20534
1048,1218;0,204948
1049,0861;0,204434
1050,0503;0,203754
1051,0145;0,202866
1051,9788;0,201746
1052,9430;0,200393
1053,9072;0,198829
1054,8715;0,19708
1055,8357;0,195164
1056,7999;0,193067
1057,7642;0,190746
1058,7284;0,18814
1059,6926;0,185199
1060,6569;0,18192
1061,6211;0,178363
1062,5853;0,174647
1063,5496;0,170925
1064,5138;0,167341
1065,4780;0,163998
1066,4423;0,160941
1067,4065;0,158165
1068,3707;0,155636
1069,3350;0,153312
1070,2992;0,151158
1071,2634;0,14915
1072,2277;0,147257
1073,1919;0,145445
1074,1561;0,143665
1075,1204;0,141871
1076,0846;0,14003
1077,0488;0,138137
1078,0131;0,13622
1078,9773;0,134335
1079,9415;0,132551
1080,9058;0,130934
1081,8700;0,129527
1082,8342;0,12834
1083,7985;0,127353
1084,7627;0,126526
1085,7269;0,125815
1086,6912;0,125187
1087,6554;0,124626
1088,6196;0,124135
1089,5839;0,123726
1090,5481;0,123408
1091,5123;0,123185
1092,4766;0,123052
1093,4408;0,122997
1094,4050;0,123009
1095,3693;0,123077
1096,3335;0,123197
1097,2977;0,123367
1098,2620;0,12359
1099,2262;0,123865
1100,1904;0,124182
1101,1547;0,12452
1102,1189;0,124845
1103,0831;0,125116
1104,0474;0,125292
1105,0116;0,125341
1105,9758;0,125247
1106,9401;0,125007
1107,9043;0,124626
1108,8685;0,124103
1109,8328;0,123426
1110,7970;0,12257
1111,7612;0,121512
1112,7255;0,120243
1113,6897;0,118788
1114,6539;0,117211
1115,6182;0,115603
1116,5824;0,114058
1117,5466;0,112642
1118,5109;0,111378
1119,4751;0,110237
1120,4393;0,109154
1121,4036;0,108047
1122,3678;0,106839
1123,3320;0,105472
1124,2963;0,103917
1125,2605;0,102166
1126,2247;0,10024
1127,1890;0,0981734
1128,1532;0,0960149
1129,1174;0,0938164
1130,0817;0,091627
1131,0459;0,0894884
1132,0101;0,0874343
1132,9744;0,0854926
1133,9386;0,0836891
1134,9028;0,082049
1135,8671;0,0805955
1136,8313;0,0793483
1137,7955;0,0783206
1138,7598;0,0775179
1139,7240;0,076937
1140,6882;0,0765653
1141,6525;0,0763809
1142,6167;0,0763539
1143,5809;0,0764513
1144,5452;0,0766436
1145,5094;0,0769095
1146,4736;0,0772386
1147,4379;0,0776291
1148,4021;0,0780824
1149,3663;0,078598
1150,3306;0,0791696
1151,2948;0,0797847
1152,2590;0,0804249
1153,2233;0,0810667
1154,1875;0,0816823
1155,1517;0,0822381
1156,1160;0,0826948
1157,0802;0,083006
1158,0444;0,0831185
1159,0087;0,0829738
1159,9729;0,0825124
1160,9371;0,0816814
1161,9014;0,0804445
1162,8656;0,0787932
1163,8298;0,0767534
1164,7941;0,074387
1165,7583;0,0717862
1166,7225;0,0690616
1167,6868;0,0663283
1168,6510;0,0636895
1169,6152;0,0612237
1170,5795;0,0589776
1171,5437;0,0569662
1172,5079;0,0551813
1173,4722;0,0536023
1174,4364;0,0522074
1175,4006;0,0509796
1176,3649;0,0499078
1177,3291;0,0489833
1178,2933;0,0481966
1179,2576;0,0475355
1180,2218;0,0469853
1181,1860;0,0465303
1182,1503;0,0461564
1183,1145;0,0458523
1184,0787;0,045612
1185,0430;0,0454346
1186,0072;0,0453246
1186,9714;0,0452886
1187,9357;0,0453329
1188,8999;0,0454605
1189,8641;0,0456709
1190,8284;0,0459606
1191,7926;0,0463248
1192,7568;0,0467578
1193,7211;0,0472527
1194,6853;0,0478009
1195,6495;0,0483915
1196,6138;0,049012
1197,5780;0,0496499
1198,5422;0,0502933
1199,5065;0,050812
1200,4707;0,0514536
1201,4349;0,0520772
1202,3992;0,0526763
1203,3634;0,0532445
1204,3276;0,0537763
1205,2919;0,0542699
1206,2561;0,0547295
1207,2203;0,0551677
1208,1846;0,0556043
1209,1488;0,0560631
1210,1130;0,0565664
1211,0773;0,0571297
1212,0415;0,0577602
1213,0057;0,0584568
1213,9700;0,0592123
1214,9342;0,0600147
1215,8984;0,060848
1216,8627;0,0616923
1217,8269;0,0625268
1218,7911;0,0633362
1219,7554;0,0641131
1220,7196;0,0648584
1221,6838;0,0655761
1222,6481;0,0662671
1223,6123;0,0669268
1224,5765;0,0675473
1225,5408;0,0681236
1226,5050;0,0686581
1227,4692;0,0691599
1228,4335;0,0696388
1229,3977;0,0700984
1230,3619;0,0705331
1231,3262;0,0709318
1232,2904;0,0712846
1233,2546;0,0715891
1234,2189;0,0718511
1235,1831;0,0720806
1236,1473;0,0722869
1237,1116;0,0724735
1238,0758;0,0726383
1239,0400;0,0727752
1240,0043;0,0728767
1240,9685;0,0729363
1241,9327;0,0729496
1242,8970;0,0729142
1243,8612;0,0728299
1244,8254;0,0726981
1245,7897;0,0725209
1246,7539;0,0723006
1247,7181;0,07204
1248,6824;0,0717425
1249,6466;0,0714139
1250,6108;0,0710615
1251,5751;0,0706947
1252,5393;0,0703228
1253,5035;0,0699537
1254,4678;0,0695915
1255,4320;0,069235
1256,3962;0,0688771
1257,3605;0,0685064
1258,3247;0,0681105
1259,2889;0,0676802
1260,2532;0,0672119
1261,2174;0,066708
1262,1816;0,0661736
1263,1459;0,0656145
1264,1101;0,065035
1265,0743;0,0644378
1266,0386;0,0638248
1267,0028;0,0631956
1267,9670;0,0625475
1268,9313;0,061876
1269,8955;0,0611772
1270,8597;0,0604517
1271,8240;0,0597069
1272,7882;0,0589569
1273,7524;0,05822
1274,7167;0,0575139
1275,6809;0,0568527
1276,6451;0,0562429
1277,6094;0,0556816
1278,5736;0,0551562
1279,5378;0,0546485
1280,5021;0,0541415
1281,4663;0,0536267
1282,4305;0,0531066
1283,3948;0,0525929
1284,3590;0,0520995
1285,3232;0,051638
1286,2875;0,0512151
1287,2517;0,0508347
1288,2159;0,0505003
1289,1802;0,050216
1290,1444;0,0499857
1291,1086;0,0498116
1292,0729;0,0496939
1293,0371;0,0496322
1294,0013;0,0496273
1294,9656;0,049682
1295,9298;0,0497994
1296,8940;0,0499813
1297,8583;0,0502269
1298,8225;0,0505321
1299,7867;0,050891
1300,7510;0,051297
1301,7152;0,0517461
1302,6794;0,0522364
1303,6437;0,0527678
1304,6079;0,053341
1305,5721;0,0539541
1306,5364;0,0545999
1307,5006;0,0552676
1308,4648;0,0559446
1309,4291;0,0566195
1310,3933;0,0572816
1311,3575;0,0579185
1312,3218;0,0585147
1313,2860;0,0590518
1314,2502;0,0595107
1315,2145;0,0598723
1316,1787;0,0601172
1317,1429;0,0602266
1318,1072;0,0601889
1319,0714;0,0600101
1320,0356;0,0597193
1320,9999;0,059363
1321,9641;0,0589897
1322,9283;0,0586366
1323,8926;0,0583254
1324,8568;0,0580652
1325,8210;0,0578567
1326,7853;0,057695
1327,7495;0,0575694
1328,7137;0,0574642
1329,6780;0,0573597
1330,6422;0,0572375
1331,6064;0,0570873
1332,5707;0,0569104
1333,5349;0,0567186
1334,4991;0,0565242
1335,4634;0,0563274
1336,4276;0,0561056
1337,3918;0,0558125
1338,3561;0,055398
1339,3203;0,0548468
1340,2845;0,0542063
1341,2488;0,0535635
1342,2130;0,0529922
1343,1772;0,0525242
1344,1415;0,0521592
1345,1057;0,0518867
1346,0699;0,0516995
1347,0342;0,0515964
1347,9984;0,0515786
1348,9626;0,051646
1349,9269;0,0517939
1350,8911;0,0520113
1351,8553;0,0522825
1352,8196;0,0525908
1353,7838;0,052924
1354,7480;0,0532789
1355,7123;0,053662
1356,6765;0,0540847
1357,6407;0,0545552
1358,6050;0,0550742
1359,5692;0,0556309
1360,5334;0,0561955
1361,4977;0,0567185
1362,4619;0,0571541
1363,4261;0,0574973
1364,3904;0,0577857
1365,3546;0,0580596
1366,3188;0,0583328
1367,2831;0,0585936
1368,2473;0,0588204
1369,2115;0,0589942
1370,1758;0,0591021
1371,1400;0,0591324
1372,1042;0,0590673
1373,0685;0,058884
1374,0327;0,0585717
1374,9969;0,0581516
1375,9612;0,0576665
1376,9254;0,0571419
1377,8896;0,0565628
1378,8539;0,0558949
1379,8181;0,0551273
1380,7823;0,054297
1381,7466;0,0534717
1382,7108;0,0527044
1383,6750;0,0519997
1384,6393;0,0513184
1385,6035;0,0506115
1386,5677;0,0498677
1387,5320;0,0491445
1388,4962;0,0485378
1389,4604;0,0481045
1390,4247;0,0478271
1391,3889;0,0476524
1392,3531;0,047539
1393,3174;0,0474707
1394,2816;0,047438
1395,2458;0,0474195
1396,2101;0,0473867
1397,1743;0,0473281
1398,1385;0,0472652
1399,1028;0,0472409
1400,0670;0,0472919
1401,0313;0,0474253
1401,9955;0,0476177
1402,9597;0,0478338
1403,9240;0,0480483
1404,8882;0,0482606
1405,8524;0,0484947
1406,8167;0,0487799
1407,7809;0,0491273
1408,7451;0,0495249
1409,7094;0,0499549
1410,6736;0,0504101
1411,6378;0,0508968
1412,6021;0,0514211
1413,5663;0,0519748
1414,5305;0,0525341
1415,4948;0,0530702
1416,4590;0,0535535
1417,4232;0,053945
1418,3875;0,0542115
1419,3517;0,0543789
1420,3159;0,054526
1421,2802;0,0546891
1422,2444;0,0548196
1423,2086;0,0548393
1424,1729;0,0547043
1425,1371;0,0544222
1426,1013;0,0540252
1427,0656;0,0535317
1428,0298;0,0529371
1428,9940;0,0522417
1429,9583;0,0514879
1430,9225;0,0507525
1431,8867;0,0500858
1432,8510;0,0494658
1433,8152;0,0488144
1434,7794;0,0480536
1435,7437;0,047175
1436,7079;0,046299
1437,6721;0,0456297
1438,6364;0,0452849
1439,6006;0,0452132
1440,5648;0,0452871
1441,5291;0,0454151
1442,4933;0,0455733
1443,4575;0,0457771
1444,4218;0,0460403
1445,3860;0,0463506
1446,3502;0,0466753
1447,3145;0,0469862
1448,2787;0,0472834
1449,2429;0,0475921
1450,2072;0,0479302
1451,1714;0,0482776
1452,1356;0,0485833
1453,0999;0,0488016
1454,0641;0,0489197
1455,0283;0,0489372
1455,9926;0,0487919
1456,9568;0,0483855
1457,9210;0,0478621
1458,8853;0,0475619
1459,8495;0,0475668
1460,8137;0,0476904
1461,7780;0,0477224
1462,7422;0,0475253
1463,7064;0,0470351
1464,6707;0,0462812
1465,6349;0,0454109
1466,5991;0,0445982
1467,5634;0,043897
1468,5276;0,043229
1469,4918;0,0424748
1470,4561;0,0415347
1471,4203;0,0403392
1472,3845;0,0388821
1473,3488;0,0373119
1474,3130;0,0359024
1475,2772;0,0348295
1476,2415;0,034073
1477,2057;0,0335269
1478,1699;0,0331025
1479,1342;0,0327502
1480,0984;0,0324472
1481,0626;0,0321896
1482,0269;0,0319895
1482,9911;0,031869
1483,9553;0,0318459
1484,9196;0,0319246
1485,8838;0,0320975
1486,8480;0,0323396
1487,8123;0,0325882
1488,7765;0,0327534
1489,7407;0,032817
1490,7050;0,0328877
1491,6692;0,0330772
1492,6334;0,0334025
1493,5977;0,0338312
1494,5619;0,0343484
1495,5261;0,034964
1496,4904;0,0356703
1497,4546;0,0364177
1498,4188;0,0371611
1499,3831;0,0378934
1500,3473;0,0385943
1501,3115;0,0392014
1502,2758;0,0396548
1503,2400;0,0399576
1504,2042;0,0402077
1505,1685;0,0405479
1506,1327;0,0409425
1507,0969;0,0410283
1508,0612;0,0406566
1509,0254;0,0401769
1509,9896;0,0398184
1510,9539;0,0395404
1511,9181;0,0392533
1512,8823;0,0389155
1513,8466;0,0385209
1514,8108;0,0380695
1515,7750;0,0375564
1516,7393;0,0369804
1517,7035;0,0363489
1518,6677;0,0356701
1519,6320;0,0349524
1520,5962;0,0342272
1521,5604;0,0335697
1522,5247;0,0330658
1523,4889;0,0327403
1524,4531;0,0325397
1525,4174;0,0323906
1526,3816;0,0322615
1527,3458;0,0321688
1528,3101;0,0321351
1529,2743;0,0321547
1530,2385;0,0321999
1531,2028;0,0322476
1532,1670;0,0322927
1533,1312;0,0323481
1534,0955;0,0324336
1535,0597;0,0325488
1536,0239;0,0326597
1536,9882;0,0327395
1537,9524;0,0328238
1538,9166;0,0329972
1539,8809;0,0332477
1540,8451;0,0333795
1541,8093;0,0333278
1542,7736;0,033279
1543,7378;0,0333297
1544,7020;0,0334435
1545,6663;0,0335857
1546,6305;0,0337534
1547,5947;0,0339442
1548,5590;0,0341348
1549,5232;0,0342927
1550,4874;0,0344013
1551,4517;0,0344757
1552,4159;0,0345464
1553,3801;0,0346236
1554,3444;0,0346804
1555,3086;0,0346725
1556,2728;0,0345566
1557,2371;0,0342554
1558,2013;0,0336731
1559,1655;0,0330431
1560,1298;0,0329124
1561,0940;0,0333842
1562,0582;0,0341367
1563,0225;0,0348733
1563,9867;0,0354566
1564,9509;0,0358632
1565,9152;0,0361273
1566,8794;0,0363042
1567,8436;0,0364517
1568,8079;0,0366261
1569,7721;0,0368762
1570,7363;0,0372184
1571,7006;0,0376179
1572,6648;0,0380182
1573,6290;0,0383911
1574,5933;0,0387513
1575,5575;0,0391256
1576,5217;0,0395308
1577,4860;0,0399974
1578,4502;0,0405548
1579,4144;0,0411821
1580,3787;0,0418286
1581,3429;0,0424613
1582,3071;0,0430771
1583,2714;0,043689
1584,2356;0,0443114
1585,1998;0,0449531
1586,1641;0,0456137
1587,1283;0,0462807
1588,0925;0,0469299
1589,0568;0,047531
1590,0210;0,0480548
1590,9852;0,0484774
1591,9495;0,048778
1592,9137;0,0489373
1593,8779;0,0489448
1594,8422;0,0488113
1595,8064;0,0485743
1596,7706;0,048286
1597,7349;0,0479908
1598,6991;0,0477107
1599,6633;0,0474448
1600,6276;0,0471814
1601,5918;0,0469136
1602,5560;0,0466498
1603,5203;0,0464112
1604,4845;0,0462151
1605,4487;0,0460574
1606,4130;0,0459114
1607,3772;0,0457456
1608,3414;0,0455526
1609,3057;0,0453651
1610,2699;0,0452342
1611,2341;0,045182
1612,1984;0,0451794
1613,1626;0,0451693
1614,1268;0,0451046
1615,0911;0,0449731
1616,0553;0,0448196
1617,0195;0,0447548
1617,9838;0,0448801
1618,9480;0,0451797
1619,9122;0,0455415
1620,8765;0,0458537
1621,8407;0,0460599
1622,8049;0,0461607
1623,7692;0,0461976
1624,7334;0,0462251
1625,6976;0,0462765
1626,6619;0,0463555
1627,6261;0,0464605
1628,5903;0,0466022
1629,5546;0,0467874
1630,5188;0,0469949
1631,4830;0,0471802
1632,4473;0,0473053
1633,4115;0,0473563
1634,3757;0,0473203
1635,3400;0,047169
1636,3042;0,0469513
1637,2684;0,0468337
1638,2327;0,0469119
1639,1969;0,0471278
1640,1611;0,0473772
1641,1254;0,0475896
1642,0896;0,0477355
1643,0538;0,0478096
1644,0181;0,047812
1644,9823;0,047726
1645,9465;0,0475232
1646,9108;0,0472415
1647,8750;0,0469942
1648,8392;0,0468193
1649,8035;0,0466253
1650,7677;0,0462827
1651,7319;0,045671
1652,6962;0,0447175
1653,6604;0,0436649
1654,6246;0,043067
1655,5889;0,043067
1656,5531;0,0433373
1657,5173;0,0435525
1658,4816;0,0435567
1659,4458;0,0433166
1660,4100;0,0428579
1661,3743;0,0422441
1662,3385;0,0415917
1663,3027;0,0410448
1664,2670;0,0406794
1665,2312;0,0404564
1666,1954;0,0402704
1667,1597;0,0400121
1668,1239;0,0396033
1669,0881;0,0390343
1670,0524;0,0383992
1671,0166;0,0378326
1671,9808;0,0373735
1672,9451;0,0369451
1673,9093;0,0364604
1674,8735;0,0359269
1675,8378;0,0354648
1676,8020;0,035213
1677,7662;0,0351981
1678,7305;0,0353133
1679,6947;0,0354019
1680,6589;0,0353303
1681,6232;0,0349983
1682,5874;0,0343331
1683,5516;0,0333819
1684,5159;0,0324533
1685,4801;0,0319013
1686,4443;0,0317532
1687,4086;0,0317903
1688,3728;0,0318082
1689,3370;0,0317189
1690,3013;0,0315312
1691,2655;0,0312999
1692,2297;0,0310841
1693,1940;0,0309276
1694,1582;0,0308497
1695,1224;0,0308308
1696,0867;0,030801
1697,0509;0,0306616
1698,0151;0,0303599
1698,9794;0,0299704
1699,9436;0,0296828
1700,9078;0,0296639
1701,8721;0,0299274
1702,8363;0,0303499
1703,8005;0,0307758
1704,7648;0,0311021
1705,7290;0,0313119
1706,6932;0,0314673
1707,6575;0,0316632
1708,6217;0,0319649
1709,5859;0,032378
1710,5502;0,0328685
1711,5144;0,0333955
1712,4786;0,0339292
1713,4429;0,0344485
1714,4071;0,0349241
1715,3713;0,0352903
1716,3356;0,03546
1717,2998;0,0354482
1718,2640;0,0354462
1719,2283;0,0356324
1720,1925;0,036008
1721,1567;0,0364648
1722,1210;0,036899
1723,0852;0,0372586
1724,0494;0,037545
1725,0137;0,0377977
1725,9779;0,0380687
1726,9421;0,0383907
1727,9064;0,0387572
1728,8706;0,0391222
1729,8348;0,0394144
1730,7991;0,0395497
1731,7633;0,0394405
1732,7275;0,0390386
1733,6918;0,0384372
1734,6560;0,0378801
1735,6202;0,037546
1736,5845;0,0373986
1737,5487;0,0372843
1738,5129;0,0370749
1739,4772;0,0367267
1740,4414;0,0362756
1741,4056;0,0357949
1742,3699;0,0353379
1743,3341;0,0349071
1744,2983;0,0344723
1745,2626;0,0340017
1746,2268;0,0334683
1747,1910;0,032828
1748,1553;0,0320088
1749,1195;0,0309659
1750,0837;0,0297813
1751,0480;0,0286596
1752,0122;0,0277714
1752,9764;0,0271382
1753,9407;0,0266684
1754,9049;0,0262511
1755,8691;0,0258177
1756,8334;0,0253548
1757,7976;0,0248799
1758,7618;0,0244029
1759,7261;0,0239093
1760,6903;0,023382
1761,6545;0,0228399
1762,6188;0,0223457
1763,5830;0,0219646
1764,5472;0,0217165
1765,5115;0,0215705
1766,4757;0,0214749
1767,4399;0,0213861
1768,4042;0,021277
1769,3684;0,0211281
1770,3326;0,0209178
1771,2969;0,0206343
1772,2611;0,0203131
1773,2253;0,0200451
1774,1896;0,0199101
1775,1538;0,0199103
1776,1180;0,0199819
1777,0823;0,0200498
1778,0465;0,0200662
1779,0107;0,0200196
1779,9750;0,0199263
1780,9392;0,0198138
1781,9034;0,0197022
1782,8677;0,0195998
1783,8319;0,0195129
1784,7961;0,0194575
1785,7604;0,0194536
1786,7246;0,0195078
1787,6888;0,0196019
1788,6531;0,0197003
1789,6173;0,0197633
1790,5815;0,0197563
1791,5458;0,0196648
1792,5100;0,019524
1793,4742;0,0194156
1794,4385;0,0193978
1795,4027;0,0194577
1796,3669;0,019539
1797,3312;0,0195916
1798,2954;0,0195911
1799,2596;0,019535
1800,2239;0,0194343
1801,1881;0,0193101
1802,1523;0,0191909
1803,1166;0,0191038
1804,0808;0,0190659
1805,0450;0,0190819
1806,0093;0,0191437
1806,9735;0,0192295
1807,9377;0,0193059
1808,9020;0,0193367
1809,8662;0,0193001
1810,8304;0,0192054
1811,7947;0,0190915
1812,7589;0,019001
1813,7231;0,0189555
1814,6874;0,0189505
1815,6516;0,0189674
1816,6158;0,0189883
1817,5801;0,019005
1818,5443;0,0190213
1819,5085;0,0190454
1820,4728;0,0190808
1821,4370;0,0191222
1822,4012;0,0191608
1823,3655;0,0191919
1824,3297;0,0192186
1825,2939;0,019249
1826,2582;0,0192837
1827,2224;0,0193064
1828,1866;0,0192878
1829,1509;0,0192069
1830,1151;0,0190792
1831,0793;0,0189586
1832,0436;0,0188975
1833,0078;0,0189069
1833,9720;0,0189591
1834,9363;0,0190188
1835,9005;0,0190676
1836,8647;0,0191117
1837,8290;0,0191697
1838,7932;0,0192517
1839,7574;0,0193466
1840,7217;0,0194283
1841,6859;0,0194711
1842,6501;0,0194597
1843,6144;0,0193941
1844,5786;0,0192986
1845,5428;0,0192141
1846,5071;0,0191646
1847,4713;0,0191383
1848,4355;0,0191074
1849,3998;0,0190568
1850,3640;0,018993
1851,3282;0,0189346
1852,2925;0,0188967
1853,2567;0,0188825
1854,2209;0,0188871
1855,1852;0,0189047
1856,1494;0,0189322
1857,1136;0,018967
1858,0779;0,0190021
1859,0421;0,0190281
1860,0063;0,0190411
1860,9706;0,0190514
1861,9348;0,0190812
1862,8990;0,0191531
1863,8633;0,0192766
1864,8275;0,0194412
1865,7917;0,0196145
1866,7560;0,0197415
1867,7202;0,019759
1868,6844;0,0196384
1869,6487;0,0194231
1870,6129;0,0192014
1871,5771;0,0190393
1872,5414;0,0189552
1873,5056;0,018937
1874,4698;0,0189638
1875,4341;0,0190127
1876,3983;0,0190596
1877,3625;0,0190832
1878,3268;0,0190742
1879,2910;0,0190393
1880,2552;0,018998
1881,2195;0,0189738
1882,1837;0,0189825
1883,1479;0,0190263
1884,1122;0,0190939
1885,0764;0,019169
1886,0406;0,0192378
1887,0049;0,0192924
1887,9691;0,0193282
1888,9333;0,0193418
1889,8976;0,019331
1890,8618;0,0192967
1891,8260;0,0192419
1892,7903;0,0191696
1893,7545;0,0190849
1894,7188;0,0189997
1895,6830;0,0189329
1896,6472;0,018905
1897,6115;0,0189261
1898,5757;0,0189876
1899,5399;0,0190627
1900,5042;0,0191187
1901,4684;0,0191326
1902,4326;0,0191061
1903,3969;0,019067
1904,3611;0,0190566
1905,3253;0,0191072
1906,2896;0,0192233
1907,2538;0,0193768
1908,2180;0,019517
1909,1823;0,0195939
1910,1465;0,0195848
1911,1107;0,0195038
1912,0750;0,0193886
1913,0392;0,019277
1914,0034;0,0191941
1914,9677;0,0191518
1915,9319;0,0191531
1916,8961;0,0191938
1917,8604;0,0192647
1918,8246;0,0193532
1919,7888;0,019445
1920,7531;0,0195242
1921,7173;0,0195746
1922,6815;0,0195834
1923,6458;0,0195466
1924,6100;0,019472
1925,5742;0,0193773
1926,5385;0,0192843
1927,5027;0,0192125
1928,4669;0,0191756
1929,4312;0,0191764
1930,3954;0,0192036
1931,3596;0,0192343
1932,3239;0,0192435
1933,2881;0,0192182
1934,2523;0,0191649
1935,2166;0,0191074
1936,1808;0,0190732
1937,1450;0,0190792
1938,1093;0,0191237
1939,0735;0,0191894
1940,0377;0,0192541
1941,0020;0,019302
1941,9662;0,0193335
1942,9304;0,0193671
1943,8947;0,0194272
1944,8589;0,0195217
1945,8231;0,0196267
1946,7874;0,0196928
1947,7516;0,019669
1948,7158;0,0195325
1949,6801;0,0193081
1950,6443;0,019063
1951,6085;0,0188752
1952,5728;0,0187943
1953,5370;0,0188196
1954,5012;0,0189083
1955,4655;0,0190051
1956,4297;0,0190723
1957,3939;0,0191003
1958,3582;0,0190989
1959,3224;0,0190805
1960,2866;0,0190524
1961,2509;0,0190212
1962,2151;0,0189998
1963,1793;0,0190063
1964,1436;0,0190539
1965,1078;0,0191389
1966,0720;0,0192387
1967,0363;0,0193217
1968,0005;0,0193651
1968,9647;0,019367
1969,9290;0,0193443
1970,8932;0,019321
1971,8574;0,0193162
1972,8217;0,0193362
1973,7859;0,0193714
1974,7501;0,0194005
1975,7144;0,0194041
1976,6786;0,0193793
1977,6428;0,0193429
1978,6071;0,0193165
1979,5713;0,019308
1980,5355;0,0193062
1981,4998;0,019296
1982,4640;0,0192774
1983,4282;0,0192706
1984,3925;0,0193017
1985,3567;0,019378
1986,3209;0,0194756
1987,2852;0,0195526
1988,2494;0,0195813
1989,2136;0,0195736
1990,1779;0,0195781
1991,1421;0,0196453
1992,1063;0,0197859
1993,0706;0,0199553
1994,0348;0,0200792
1994,9990;0,0200964
1995,9633;0,0199878
1996,9275;0,0197777
1997,8917;0,019519
1998,8560;0,0192729
1999,8202;0,0190935
2000,7844;0,0190164
2001,7487;0,0190533
2002,7129;0,0191904
2003,6771;0,0193937
2004,6414;0,0196216
2005,6056;0,0198415
2006,5698;0,0200394
2007,5341;0,0202115
2008,4983;0,0203438
2009,4625;0,0204002
2010,4268;0,0203385
2011,3910;0,0201465
2012,3552;0,0198727
2013,3195;0,0196232
2014,2837;0,0195201
2015,2479;0,0196364
2016,2122;0,0199478
2017,1764;0,0203381
2018,1406;0,0206661
2019,1049;0,0208475
2020,0691;0,0208932
2021,0333;0,0208761
2021,9976;0,0208614
2022,9618;0,0208527
2023,9260;0,0207937
2024,8903;0,0206255
2025,8545;0,0203558
2026,8187;0,0200807
2027,7830;0,0199359
2028,7472;0,0200054
2029,7114;0,0202559
2030,6757;0,0205479
2031,6399;0,0207208
2032,6041;0,0206943
2033,5684;0,0205165
2034,5326;0,0203236
2035,4968;0,0202496
2036,4611;0,0203512
2037,4253;0,0205976
2038,3895;0,020908
2039,3538;0,0211977
2040,3180;0,0214041
2041,2822;0,0214924
2042,2465;0,0214572
2043,2107;0,0213251
2044,1749;0,0211545
2045,1392;0,0210218
2046,1034;0,0209902
2047,0676;0,0210772
2048,0320;0,0212428
2048,9961;0,0214132
2049,9604;0,0215253
2050,9246;0,0215576
2051,8889;0,0215285
2052,8530;0,0214736
2053,8174;0,0214205
2054,7815;0,0213769
2055,7458;0,0213337
2056,7100;0,0212786
2057,6743;0,0212097
2058,6384;0,0211419
2059,6028;0,0211012
2060,5669;0,0211129
2061,5313;0,0211886
2062,4954;0,0213173
2063,4597;0,0214668
2064,4238;0,0215936
2065,3882;0,0216614
2066,3523;0,0216563
2067,3167;0,0215921
2068,2808;0,0214999
2069,2451;0,0214109
2070,2092;0,0213416
2071,1736;0,02129
2072,1377;0,0212426
2073,1021;0,0211897
2074,0662;0,0211354
2075,0305;0,0210977
2075,9946;0,0210975
2076,9590;0,0211439
2077,9231;0,0212256
2078,8875;0,0213136
2079,8516;0,021375
2080,8159;0,0213883
2081,7800;0,0213534
2082,7444;0,0212905
2083,7085;0,0212299
2084,6729;0,0211987
2085,6370;0,0212119
2086,6013;0,0212688
2087,5654;0,0213564
2088,5298;0,0214535
2089,4939;0,0215354
2090,4583;0,0215793
2091,4224;0,0215707
2092,3867;0,0215113
2093,3508;0,021423
2094,3152;0,0213434
2095,2793;0,0213108
2096,2437;0,0213443
2097,2078;0,0214319
2098,1721;0,0215362
2099,1362;0,021616
2100,1006;0,0216485
2101,0647;0,0216365
2102,0291;0,0216041
2102,9932;0,0215764
2103,9575;0,0215638
2104,9216;0,0215593
2105,8860;0,0215482
2106,8501;0,0215209
2107,8145;0,0214807
2108,7786;0,021441
2109,7429;0,0214169
2110,7070;0,021418
2111,6714;0,0214459
2112,6355;0,0214976
2113,5999;0,0215684
2114,5640;0,0216518
2115,5283;0,0217389
2116,4924;0,0218175
2117,4568;0,0218748
2118,4209;0,0219022
2119,3853;0,0218994
2120,3494;0,0218753
2121,3137;0,0218445
2122,2778;0,0218221
2123,2422;0,0218183
2124,2063;0,0218364
2125,1707;0,0218726
2126,1348;0,0219198
2127,0991;0,0219705
2128,0632;0,0220205
2129,0276;0,0220711
2129,9917;0,0221274
2130,9561;0,0221951
2131,9202;0,0222733
2132,8845;0,0223498
2133,8486;0,0224019
2134,8130;0,0224073
2135,7771;0,02236
2136,7415;0,0222817
2137,7056;0,0222155
2138,6699;0,0222038
2139,6340;0,0222631
2140,5984;0,0223738
2141,5625;0,0224949
2142,5269;0,022596
2143,4910;0,0226826
2144,4553;0,0227933
2145,4194;0,0229653
2146,3838;0,0231929
2147,3479;0,0234139
2148,3123;0,0235431
2149,2764;0,0235358
2150,2407;0,0234361
2151,2048;0,0233703
2152,1692;0,0234831
2153,1333;0,0238506
2154,0977;0,024422
2155,0618;0,02502
2156,0261;0,0254046
2156,9902;0,0253804
2157,9546;0,0249093
2158,9187;0,0241538
2159,8831;0,0233954
2160,8472;0,0228733
2161,8115;0,0226781
2162,7756;0,0227548
2163,7400;0,0229678
2164,7041;0,0231707
2165,6685;0,0232603
2166,6326;0,0232084
2167,5969;0,0230622
2168,5610;0,02291
2169,5254;0,0228297
2170,4895;0,0228478
2171,4539;0,0229299
2172,4180;0,0230072
2173,3823;0,0230223
2174,3464;0,0229665
2175,3108;0,0228825
2176,2749;0,0228292
2177,2393;0,0228338
2178,2034;0,0228674
2179,1677;0,0228619
2180,1318;0,0227569
2181,0962;0,0225447
2182,0603;0,0222834
2183,0247;0,0220659
2183,9888;0,021966
2184,9531;0,0219995
2185,9172;0,0221252
2186,8816;0,0222768
2187,8457;0,0224
2188,8101;0,0224708
2189,7742;0,0224897
2190,7385;0,0224652
2191,7026;0,0224043
2192,6670;0,0223164
2193,6311;0,0222219
2194,5955;0,0221519
2195,5596;0,0221325
2196,5239;0,0221652
2197,4880;0,0222198
2198,4524;0,0222503
2199,4165;0,022226
2200,3809;0,0221559
2201,3450;0,0220877
2202,3093;0,0220807
2203,2734;0,0221699
2204,2378;0,0223464
2205,2019;0,0225624
2206,1663;0,0227574
2207,1304;0,0228843
2208,0947;0,0229227
2209,0588;0,0228773
2210,0232;0,0227677
2210,9873;0,0226198
2211,9517;0,022462
2212,9158;0,0223213
2213,8801;0,0222187
2214,8442;0,0221634
2215,8086;0,0221509
2216,7727;0,0221672
2217,7371;0,0221953
2218,7012;0,0222194
2219,6655;0,0222245
2220,6296;0,0221951
2221,5940;0,0221193
2222,5581;0,0219987
2223,5225;0,0218572
2224,4866;0,0217383
2225,4509;0,0216866
2226,4150;0,0217231
2227,3794;0,0218291
2228,3435;0,021954
2229,3079;0,0220417
2230,2720;0,0220617
2231,2363;0,0220226
2232,2004;0,0219617
2233,1648;0,0219182
2234,1289;0,0219104
2235,0933;0,0219312
2236,0574;0,0219604
2237,0217;0,0219811
2237,9858;0,0219879
2238,9502;0,0219824
2239,9143;0,0219664
2240,8787;0,0219411
2241,8428;0,0219124
2242,8071;0,0218962
2243,7712;0,0219124
2244,7356;0,0219707
2245,6997;0,0220579
2246,6641;0,0221407
2247,6282;0,0221829
2248,5925;0,022168
2249,5566;0,02211
2250,5210;0,0220443
2251,4851;0,0220068
2252,4495;0,022016
2253,4136;0,0220687
2254,3779;0,0221482
2255,3420;0,0222368
2256,3064;0,0223215
2257,2705;0,0223913
2258,2349;0,0224347
2259,1990;0,0224411
2260,1633;0,0224068
2261,1274;0,0223398
2262,0918;0,0222572
2263,0559;0,0221763
2264,0203;0,0221073
2264,9844;0,0220509
2265,9487;0,0220038
2266,9128;0,0219639
2267,8772;0,021933
2268,8413;0,0219131
2269,8057;0,0219031
2270,7698;0,0218988
2271,7341;0,0218959
2272,6982;0,021893
2273,6626;0,0218908
2274,6267;0,0218895
2275,5911;0,0218871
2276,5552;0,0218814
2277,5195;0,0218735
2278,4836;0,0218694
2279,4480;0,0218766
2280,4121;0,0218988
2281,3765;0,0219324
2282,3406;0,021969
2283,3049;0,0220016
2284,2690;0,0220299
2285,2334;0,0220616
2286,1975;0,0221069
2287,1619;0,0221723
2288,1260;0,0222569
2289,0903;0,0223527
2290,0544;0,0224495
2291,0188;0,0225402
2291,9829;0,0226237
2292,9473;0,0227051
2293,9114;0,0227917
2294,8757;0,0228881
2295,8398;0,0229917
2296,8042;0,0230911
2297,7683;0,0231696
2298,7327;0,023212
2299,6968;0,023213
2300,6611;0,023181
2301,6252;0,023137
2302,5896;0,0231075
2303,5537;0,0231155
2304,5181;0,0231724
2305,4822;0,0232732
2306,4465;0,0233954
2307,4106;0,0235027
2308,3750;0,0235542
2309,3391;0,0235174
2310,3035;0,0233818
2311,2676;0,0231656
2312,2319;0,0229114
2313,1960;0,0226709
2314,1604;0,0224854
2315,1245;0,0223731
2316,0889;0,0223281
2317,0530;0,0223292
2318,0173;0,022351
2318,9814;0,0223722
2319,9458;0,0223822
2320,9099;0,0223852
2321,8743;0,0223995
2322,8384;0,0224448
2323,8027;0,022522
2324,7668;0,022603
2325,7312;0,0226409
2326,6953;0,0225955
2327,6597;0,0224577
2328,6238;0,0222582
2329,5881;0,0220568
2330,5522;0,0219163
2331,5166;0,021871
2332,4807;0,0219097
2333,4451;0,0219832
2334,4092;0,0220353
2335,3735;0,0220362
2336,3376;0,022001
2337,3020;0,0219817
2338,2661;0,0220357
2339,2305;0,0221829
2340,1946;0,0223766
2341,1589;0,0225063
2342,1230;0,0224504
2343,0874;0,0221869
2344,0515;0,0218951
2345,0159;0,0218737
2345,9800;0,0222763
2346,9443;0,0229739
2347,9084;0,023678
2348,8728;0,0241336
2349,8369;0,0242281
2350,8013;0,0240058
2351,7654;0,0236192
2352,7297;0,0232387
2353,6938;0,0229705
2354,6582;0,022841
2355,6223;0,022841
2356,5867;0,0229444
2357,5508;0,0230848
2358,5151;0,0231571
2359,4792;0,0230741
2360,4436;0,0228289
2361,4077;0,0224925
2362,3721;0,0221554
2363,3362;0,0218735
2364,3005;0,0216562
2365,2646;0,0214802
2366,2290;0,0213087
2367,1931;0,0211093
2368,1575;0,0208694
2369,1216;0,0206053
2370,0859;0,0203559
2371,0500;0,0201644
2372,0144;0,0200605
2372,9785;0,0200558
2373,9429;0,0201504
2374,9070;0,0203403
2375,8713;0,0206178
2376,8354;0,0209658
2377,7998;0,0213536
2378,7639;0,0217398
2379,7283;0,022083
2380,6924;0,0223529
2381,6567;0,0225373
2382,6208;0,0226402
2383,5852;0,0226752
2384,5493;0,0226589
2385,5137;0,0226068
2386,4778;0,0225339
2387,4421;0,0224555
2388,4063;0,0223877
2389,3706;0,0223433
2390,3347;0,0223272
2391,2991;0,0223347
2392,2632;0,0223536
2393,2275;0,0223711
2394,1917;0,0223804
2395,1560;0,0223826
2396,1201;0,0223841
2397,0845;0,0223917
2398,0486;0,022409
2399,0129;0,0224342
2399,9771;0,0224622
2400,9414;0,0224881
2401,9055;0,0225082
2402,8699;0,0225208
2403,8340;0,0225261
2404,7983;0,0225269
2405,7625;0,0225278
2406,7268;0,0225341
2407,6909;0,0225497
2408,6553;0,0225746
2409,6194;0,0226042
2410,5837;0,0226314
2411,5479;0,0226505
2412,5122;0,0226598
2413,4763;0,0226626
2414,4407;0,0226649
2415,4048;0,0226715
2416,3691;0,0226844
2417,3333;0,0227022
2418,2976;0,0227225
2419,2617;0,0227426
2420,2261;0,0227607
2421,1902;0,022774
2422,1545;0,0227803
2423,1187;0,0227784
2424,0830;0,0227712
2425,0471;0,0227651
2426,0115;0,0227679
2426,9756;0,0227839
2427,9399;0,0228111
2428,9041;0,0228415
2429,8684;0,0228655
2430,8325;0,0228778
2431,7969;0,0228801
2432,7610;0,0228797
2433,7253;0,0228849
2434,6895;0,0229003
2435,6538;0,0229246
2436,6179;0,0229524
2437,5823;0,0229775
2438,5464;0,0229963
2439,5107;0,0230093
2440,4749;0,0230199
2441,4392;0,0230321
2442,4033;0,0230476
2443,3677;0,0230655
2444,3318;0,0230821
2445,2961;0,0230943
2446,2603;0,0231015
2447,2246;0,0231067
2448,1887;0,0231142
2449,1531;0,0231264
2450,1172;0,0231405
2451,0815;0,02315
2452,0457;0,0231492
2453,0100;0,0231382
2453,9741;0,0231251
2454,9385;0,0231224
2455,9026;0,0231393
2456,8669;0,0231755
2457,8311;0,0232206
2458,7954;0,0232601
2459,7595;0,0232842
2460,7239;0,0232938
2461,6880;0,023299
2462,6523;0,0233131
2463,6165;0,0233433
2464,5808;0,0233863
2465,5449;0,0234294
2466,5093;0,0234565
2467,4734;0,023457
2468,4377;0,023431
2469,4019;0,0233899
2470,3662;0,0233518
2471,3303;0,0233333
2472,2947;0,0233422
2473,2588;0,0233754
2474,2231;0,0234213
2475,1873;0,0234675
2476,1516;0,0235066
2477,1157;0,0235377
2478,0801;0,0235632
2479,0442;0,0235834
2480,0085;0,0235944
2480,9727;0,0235911
2481,9370;0,0235725
2482,9011;0,0235447
2483,8655;0,0235195
2484,8296;0,0235083
2485,7939;0,023516
2486,7581;0,0235402
2487,7224;0,0235737
2488,6865;0,0236105
2489,6509;0,0236487
2490,6150;0,0236897
2491,5793;0,0237348
2492,5435;0,0237821
2493,5078;0,0238259
2494,4719;0,023859
2495,4363;0,0238765
2496,4004;0,0238775
2497,3647;0,0238651
2498,3289;0,0238443
2499,2932;0,0238209
2500,2573;0,0238007
2501,2217;0,0237898
2502,1858;0,0237938
2503,1501;0,0238157
2504,1143;0,0238529
2505,0786;0,023896
2506,0427;0,0239311
2507,0071;0,0239463
2507,9712;0,0239386
2508,9355;0,0239168
2509,8997;0,0238966
2510,8640;0,0238909
2511,8281;0,0239013
2512,7925;0,0239169
2513,7566;0,0239218
2514,7209;0,0239069
2515,6851;0,023877
2516,6494;0,0238473
2517,6135;0,0238336
2518,5779;0,0238416
2519,5420;0,0238641
2520,5063;0,0238879
2521,4705;0,023904
2522,4348;0,0239141
2523,3989;0,0239278
2524,3633;0,0239538
2525,3274;0,0239921
2526,2917;0,0240327
2527,2559;0,0240625
2528,2202;0,0240734
2529,1843;0,0240663
2530,1487;0,0240491
2531,1128;0,0240301
2532,0771;0,0240133
2533,0413;0,0239988
2534,0056;0,0239861
2534,9697;0,0239768
2535,9341;0,0239743
2536,8982;0,0239804
2537,8625;0,0239924
2538,8267;0,0240047
2539,7910;0,0240121
2540,7551;0,0240145
2541,7195;0,0240161
2542,6836;0,024022
2543,6479;0,0240331
2544,6121;0,0240451
2545,5764;0,0240518
2546,5405;0,0240499
2547,5049;0,0240424
2548,4690;0,0240354
2549,4333;0,0240332
2550,3975;0,0240343
2551,3618;0,0240331
2552,3259;0,0240247
2553,2903;0,0240112
2554,2544;0,024002
2555,2188;0,0240086
2556,1829;0,0240371
2557,1472;0,0240832
2558,1113;0,0241336
2559,0757;0,0241724
2560,0398;0,0241887
2561,0042;0,0241807
2561,9683;0,0241552
2562,9326;0,0241226
2563,8967;0,0240924
2564,8611;0,0240707
2565,8252;0,0240598
2566,7896;0,0240598
2567,7537;0,0240695
2568,7180;0,024087
2569,6821;0,0241087
2570,6465;0,0241305
2571,6106;0,0241485
2572,5750;0,0241611
2573,5391;0,0241697
2574,5034;0,0241776
2575,4675;0,0241867
2576,4319;0,0241961
2577,3960;0,0242017
2578,3604;0,0241999
2579,3245;0,0241911
2580,2888;0,0241808
2581,2529;0,0241781
2582,2173;0,0241897
2583,1814;0,0242163
2584,1458;0,0242509
2585,1099;0,0242828
2586,0742;0,0243025
2587,0383;0,0243066
2588,0027;0,0242978
2588,9668;0,0242831
2589,9312;0,0242704
2590,8953;0,0242656
2591,8596;0,0242718
2592,8237;0,0242887
2593,7881;0,0243128
2594,7522;0,0243384
2595,7166;0,024359
2596,6807;0,02437
2597,6450;0,0243705
2598,6091;0,0243646
2599,5735;0,0243599
2600,5376;0,0243637
2601,5020;0,0243809
2602,4661;0,0244116
2603,4304;0,0244523
2604,3945;0,024497
2605,3589;0,0245397
2606,3230;0,0245753
2607,2874;0,0245996
2608,2515;0,0246097
2609,2158;0,0246043
2610,1799;0,0245852
2611,1443;0,0245582
2612,1084;0,0245323
2613,0728;0,0245179
2614,0369;0,0245226
2615,0012;0,0245484
2615,9653;0,0245903
2616,9297;0,0246386
2617,8938;0,024683
2618,8582;0,0247168
2619,8223;0,024739
2620,7866;0,0247533
2621,7507;0,0247656
2622,7151;0,0247803
2623,6792;0,0247982
2624,6436;0,024817
2625,6077;0,0248331
2626,5720;0,0248446
2627,5361;0,0248529
2628,5005;0,0248621
2629,4646;0,0248765
2630,4290;0,024898
2631,3931;0,0249247
2632,3574;0,0249518
2633,3215;0,0249749
2634,2859;0,0249922
2635,2500;0,0250056
2636,2144;0,0250186
2637,1785;0,0250344
2638,1428;0,0250542
2639,1069;0,0250779
2640,0713;0,0251048
2641,0354;0,0251346
2641,9998;0,025166
2642,9639;0,0251962
2643,9282;0,0252213
2644,8923;0,0252378
2645,8567;0,0252451
2646,8208;0,0252467
2647,7852;0,0252487
2648,7493;0,0252567
2649,7136;0,0252733
2650,6777;0,0252974
2651,6421;0,0253259
2652,6062;0,0253557
2653,5706;0,0253849
2654,5347;0,0254125
2655,4990;0,0254374
2656,4631;0,0254582
2657,4275;0,0254744
2658,3916;0,0254876
2659,3560;0,0255016
2660,3201;0,0255204
2661,2844;0,0255455
2662,2485;0,0255744
2663,2129;0,0256018
2664,1770;0,0256227
2665,1414;0,0256364
2666,1055;0,0256464
2667,0698;0,0256592
2668,0339;0,0256792
2668,9983;0,0257066
2669,9624;0,025737
2670,9268;0,0257651
2671,8909;0,0257876
2672,8552;0,0258045
2673,8193;0,025818
2674,7837;0,0258301
2675,7478;0,0258412
2676,7122;0,025851
2677,6763;0,0258601
2678,6406;0,025871
2679,6047;0,0258872
2680,5691;0,0259116
2681,5332;0,0259449
2682,4976;0,0259852
2683,4617;0,0260291
2684,4260;0,0260732
2685,3901;0,0261146
2686,3545;0,0261511
2687,3186;0,0261814
2688,2830;0,0262054
2689,2471;0,026224
2690,2114;0,0262395
2691,1755;0,0262547
2692,1399;0,0262721
2693,1040;0,0262934
2694,0684;0,0263191
2695,0325;0,0263488
2695,9968;0,0263811
2696,9609;0,0264137
2697,9253;0,0264443
2698,8894;0,0264712
2699,8538;0,0264943
2700,8179;0,0265154
2701,7822;0,0265376
2702,7463;0,0265634
2703,7107;0,0265935
2704,6748;0,0266252
2705,6392;0,0266544
2706,6033;0,0266771
2707,5676;0,0266926
2708,5317;0,0267043
2709,4961;0,0267184
2710,4602;0,0267412
2711,4246;0,0267751
2712,3887;0,026818
2713,3530;0,0268635
2714,3171;0,0269041
2715,2815;0,0269343
2716,2456;0,0269521
2717,2100;0,0269588
2718,1741;0,0269584
2719,1384;0,0269559
2720,1025;0,0269567
2721,0669;0,0269652
2722,0310;0,0269843
2722,9954;0,0270137
2723,9595;0,0270507
2724,9238;0,0270911
2725,8879;0,0271309
2726,8523;0,0271675
2727,8164;0,0271999
2728,7808;0,0272281
2729,7449;0,0272521
2730,7092;0,0272726
2731,6733;0,0272908
2732,6377;0,0273088
2733,6018;0,0273283
2734,5662;0,0273499
2735,5303;0,0273726
2736,4946;0,0273944
2737,4587;0,0274138
2738,4231;0,0274309
2739,3872;0,0274475
2740,3516;0,0274661
2741,3157;0,0274887
2742,2800;0,0275152
2743,2441;0,0275436
2744,2085;0,0275696
2745,1726;0,0275889
2746,1370;0,0275987
2747,1011;0,0275992
2748,0654;0,0275945
2749,0295;0,027591
2749,9939;0,0275947
2750,9580;0,0276091
2751,9224;0,0276346
2752,8865;0,0276688
2753,8508;0,0277083
2754,8149;0,0277498
2755,7793;0,0277907
2756,7434;0,0278286
2757,7078;0,0278621
2758,6719;0,0278913
2759,6362;0,0279182
2760,6003;0,0279459
2761,5647;0,027977
2762,5288;0,0280117
2763,4932;0,0280472
2764,4573;0,0280792
2765,4216;0,0281051
2766,3857;0,0281255
2767,3501;0,0281451
2768,3142;0,0281699
2769,2786;0,0282041
2770,2427;0,0282468
2771,2070;0,0282927
2772,1711;0,0283349
2773,1355;0,0283688
2774,0996;0,0283951
2775,0640;0,0284195
2776,0281;0,0284497
2776,9924;0,0284909
2777,9565;0,0285427
2778,9209;0,0286002
2779,8850;0,0286563
2780,8494;0,0287056
2781,8135;0,0287459
2782,7778;0,0287785
2783,7419;0,028807
2784,7063;0,0288354
2785,6704;0,0288675
2786,6348;0,0289059
2787,5989;0,0289511
2788,5632;0,0290017
2789,5273;0,0290554
2790,4917;0,0291105
2791,4558;0,0291672
2792,4202;0,0292268
2793,3843;0,0292898
2794,3486;0,0293542
2795,3127;0,029416
2796,2771;0,0294718
2797,2412;0,0295216
2798,2056;0,02957
2799,1697;0,0296236
2800,1340;0,0296876
2801,0981;0,0297628
2802,0625;0,0298458
2803,0266;0,0299317
2803,9910;0,0300162
2804,9551;0,0300971
2805,9194;0,0301733
2806,8835;0,0302441
2807,8479;0,0303099
2808,8120;0,0303726
2809,7764;0,0304362
2810,7405;0,0305053
2811,7048;0,0305838
2812,6689;0,0306731
2813,6333;0,0307725
2814,5974;0,0308803
2815,5618;0,0309943
2816,5259;0,0311119
2817,4902;0,0312303
2818,4543;0,0313471
2819,4187;0,0314618
2820,3828;0,0315764
2821,3472;0,0316946
2822,3113;0,0318189
2823,2756;0,0319498
2824,2397;0,0320853
2825,2041;0,0322233
2826,1682;0,0323639
2827,1326;0,0325097
2828,0967;0,0326641
2829,0610;0,0328295
2830,0251;0,0330068
2830,9895;0,0331957
2831,9536;0,0333957
2832,9180;0,0336051
2833,8821;0,0338201
2834,8464;0,0340346
2835,8105;0,0342438
2836,7749;0,0344487
2837,7390;0,0346589
2838,7034;0,0348904
2839,6675;0,0351591
2840,6318;0,0354741
2841,5959;0,0358348
2842,5603;0,0362337
2843,5244;0,0366609
2844,4888;0,037107
2845,4529;0,0375613
2846,4172;0,0380073
2847,3813;0,0384201
2848,3457;0,0387699
2849,3098;0,0390304
2850,2742;0,0391883
2851,2383;0,0392481
2852,2026;0,03923
2853,1667;0,0391625
2854,1311;0,0390732
2855,0952;0,038982
2856,0596;0,0388993
2857,0237;0,0388278
2857,9880;0,0387674
2858,9521;0,03872
2859,9165;0,0386909
2860,8806;0,0386887
2861,8450;0,0387201
2862,8091;0,0387861
2863,7734;0,0388794
2864,7375;0,0389869
2865,7019;0,0390949
2866,6660;0,039195
2867,6304;0,0392861
2868,5945;0,0393721
2869,5588;0,0394569
2870,5229;0,0395403
2871,4873;0,0396179
2872,4514;0,039684
2873,4158;0,0397361
2874,3799;0,0397762
2875,3442;0,0398103
2876,3083;0,0398441
2877,2727;0,0398805
2878,2368;0,0399189
2879,2012;0,0399574
2880,1653;0,0399958
2881,1296;0,0400368
2882,0938;0,0400856
2883,0581;0,0401473
2884,0222;0,0402237
2884,9866;0,0403121
2885,9507;0,0404057
2886,9150;0,040497
2887,8792;0,0405817
2888,8435;0,0406606
2889,8076;0,0407395
2890,7720;0,0408249
2891,7361;0,0409204
2892,7004;0,0410235
2893,6646;0,0411271
2894,6289;0,0412227
2895,5930;0,0413054
2896,5574;0,041376
2897,5215;0,0414397
2898,4858;0,0415028
2899,4500;0,0415683
2900,4143;0,0416348
2901,3784;0,0416983
2902,3428;0,0417558
2903,3069;0,0418089
2904,2712;0,0418646
2905,2354;0,041933
2906,1997;0,0420236
2907,1638;0,0421415
2908,1282;0,0422868
2909,0923;0,0424564
2910,0566;0,0426469
2911,0208;0,0428554
2911,9851;0,0430783
2912,9492;0,0433078
2913,9136;0,04353
2914,8777;0,0437262
2915,8420;0,0438768
2916,8062;0,0439674
2917,7705;0,0439927
2918,7346;0,0439565
2919,6990;0,0438689
2920,6631;0,0437415
2921,6274;0,0435847
2922,5916;0,0434057
2923,5559;0,0432091
2924,5200;0,0429972
2925,4844;0,0427707
2926,4485;0,0425296
2927,4128;0,0422749
2928,3770;0,0420094
2929,3413;0,0417387
2930,3054;0,0414701
2931,2698;0,0412098
2932,2339;0,040961
2933,1982;0,0407229
2934,1624;0,0404918
2935,1267;0,0402634
2936,0908;0,040035
2937,0552;0,0398053
2938,0193;0,039574
2938,9836;0,0393403
2939,9478;0,0391023
2940,9121;0,0388584
2941,8762;0,0386087
2942,8406;0,0383563
2943,8047;0,0381073
2944,7690;0,037869
2945,7332;0,0376477
2946,6975;0,0374468
2947,6616;0,0372668
2948,6260;0,0371061
2949,5901;0,0369619
2950,5544;0,0368305
2951,5186;0,0367074
2952,4829;0,0365873
2953,4470;0,0364651
2954,4114;0,0363379
2955,3755;0,0362056
2956,3398;0,0360704
2957,3040;0,035935
2958,2683;0,0358001
2959,2324;0,0356636
2960,1968;0,0355218
2961,1609;0,0353727
2962,1252;0,0352174
2963,0894;0,0350607
2964,0537;0,0349082
2965,0178;0,0347637
2965,9822;0,0346256
2966,9463;0,0344879
2967,9106;0,0343418
2968,8748;0,0341805
2969,8391;0,0340028
2970,8032;0,0338149
2971,7676;0,0336287
2972,7317;0,0334577
2973,6960;0,0333109
2974,6602;0,0331891
2975,6245;0,033085
2976,5886;0,0329864
2977,5530;0,0328827
2978,5171;0,0327692
2979,4814;0,0326485
2980,4456;0,0325282
2981,4099;0,0324169
2982,3740;0,0323211
2983,3384;0,0322436
2984,3025;0,0321844
2985,2668;0,0321414
2986,2310;0,0321108
2987,1953;0,032088
2988,1594;0,0320677
2989,1238;0,0320455
2990,0879;0,0320192
2991,0522;0,0319894
2992,0164;0,0319593
2992,9807;0,0319335
2993,9448;0,0319165
2994,9092;0,0319117
2995,8733;0,0319205
2996,8376;0,0319424
2997,8018;0,031975
2998,7661;0,0320141
2999,7302;0,0320551
3000,6946;0,0320935
3001,6587;0,0321269
3002,6230;0,0321559
3003,5872;0,0321833
3004,5515;0,0322134
3005,5156;0,0322497
3006,4800;0,0322932
3007,4441;0,0323417
3008,4084;0,0323906
3009,3726;0,0324352
3010,3369;0,0324717
3011,3010;0,0324988
3012,2654;0,0325175
3013,2295;0,0325302
3014,1938;0,0325402
3015,1580;0,0325508
3016,1223;0,0325653
3017,0864;0,032587
3018,0508;0,0326186
3019,0149;0,0326614
3019,9792;0,0327154
3020,9434;0,0327787
3021,9077;0,0328481
3022,8718;0,0329201
3023,8362;0,0329921
3024,8003;0,0330635
3025,7646;0,0331364
3026,7288;0,0332139
3027,6931;0,0332983
3028,6572;0,0333883
3029,6216;0,0334783
3030,5857;0,0335605
3031,5500;0,0336288
3032,5142;0,0336821
3033,4785;0,033726
3034,4426;0,0337697
3035,4070;0,0338217
3036,3711;0,0338862
3037,3354;0,0339615
3038,2996;0,0340416
3039,2639;0,0341197
3040,2280;0,0341916
3041,1924;0,0342578
3042,1565;0,0343242
3043,1208;0,0343992
3044,0850;0,03449
3045,0493;0,0345979
3046,0134;0,0347171
3046,9778;0,0348359
3047,9419;0,0349428
3048,9063;0,035032
3049,8704;0,035107
3050,8347;0,0351784
3051,7988;0,0352575
3052,7632;0,0353493
3053,7273;0,0354502
3054,6917;0,0355505
3055,6558;0,035641
3056,6201;0,0357195
3057,5842;0,0357919
3058,5486;0,0358688
3059,5127;0,0359596
3060,4771;0,0360668
3061,4412;0,0361852
3062,4055;0,0363046
3063,3696;0,0364141
3064,3340;0,0365059
3065,2981;0,0365779
3066,2625;0,0366334
3067,2266;0,0366799
3068,1909;0,0367274
3069,1550;0,0367863
3070,1194;0,0368651
3071,0835;0,0369674
3072,0479;0,0370907
3073,0120;0,0372257
3073,9763;0,03736
3074,9404;0,037482
3075,9048;0,0375854
3076,8689;0,0376712
3077,8333;0,0377453
3078,7974;0,0378146
3079,7617;0,0378834
3080,7258;0,037952
3081,6902;0,0380193
3082,6543;0,038085
3083,6187;0,0381516
3084,5828;0,0382228
3085,5471;0,0383007
3086,5112;0,0383849
3087,4756;0,0384726
3088,4397;0,0385616
3089,4041;0,0386526
3090,3682;0,0387489
3091,3325;0,0388542
3092,2966;0,0389699
3093,2610;0,0390936
3094,2251;0,0392203
3095,1895;0,0393439
3096,1536;0,0394598
3097,1179;0,0395651
3098,0820;0,0396597
3099,0464;0,0397456
3100,0105;0,0398277
3100,9749;0,0399119
3101,9390;0,0400028
3102,9033;0,0401007
3103,8674;0,040202
3104,8318;0,0403011
3105,7959;0,0403951
3106,7603;0,0404865
3107,7244;0,0405826
3108,6887;0,0406906
3109,6528;0,0408131
3110,6172;0,0409456
3111,5813;0,0410791
3112,5457;0,0412054
3113,5098;0,0413207
3114,4741;0,0414271
3115,4382;0,0415296
3116,4026;0,0416324
3117,3667;0,0417363
3118,3311;0,0418392
3119,2952;0,0419392
3120,2595;0,0420368
3121,2236;0,0421363
3122,1880;0,0422432
3123,1521;0,0423612
3124,1165;0,0424892
3125,0806;0,0426217
3126,0449;0,0427516
3127,0090;0,0428741
3127,9734;0,0429885
3128,9375;0,0430976
3129,9019;0,043205
3130,8660;0,0433122
3131,8303;0,0434186
3132,7944;0,0435232
3133,7588;0,0436276
3134,7229;0,0437361
3135,6873;0,0438539
3136,6514;0,0439832
3137,6157;0,0441207
3138,5798;0,0442582
3139,5442;0,0443868
3140,5083;0,0445024
3141,4727;0,0446085
3142,4368;0,0447156
3143,4011;0,0448362
3144,3652;0,0449784
3145,3296;0,0451413
3146,2937;0,0453154
3147,2581;0,0454866
3148,2222;0,0456423
3149,1865;0,0457769
3150,1506;0,0458928
3151,1150;0,0459986
3152,0791;0,0461043
3153,0435;0,0462184
3154,0076;0,0463455
3154,9719;0,0464871
3155,9360;0,0466418
3156,9004;0,0468055
3157,8645;0,0469714
3158,8289;0,0471307
3159,7930;0,0472762
3160,7573;0,0474045
3161,7214;0,0475196
3162,6858;0,0476309
3163,6499;0,0477495
3164,6143;0,0478832
3165,5784;0,048033
3166,5427;0,048193
3167,5068;0,0483547
3168,4712;0,0485111
3169,4353;0,0485675
3170,3997;0,0487107
3171,3638;0,0488522
3172,3281;0,0489934
3173,2922;0,0491334
3174,2566;0,0492705
3175,2207;0,0494049
3176,1851;0,0495399
3177,1492;0,0496807
3178,1135;0,0498309
3179,0776;0,0499897
3180,0420;0,0501513
3181,0061;0,0503081
3181,9705;0,0504544
3182,9346;0,0505895
3183,8989;0,0507184
3184,8630;0,0508487
3185,8274;0,0509865
3186,7915;0,0511336
3187,7559;0,0512871
3188,7200;0,0514422
3189,6843;0,0515954
3190,6484;0,0517466
3191,6128;0,0518973
3192,5769;0,052048
3193,5413;0,0521952
3194,5054;0,0523324
3195,4697;0,0524527
3196,4338;0,0525549
3197,3982;0,0526453
3198,3623;0,0527371
3199,3267;0,0528442
3200,2908;0,0529748
3201,2551;0,0531285
3202,2192;0,0532969
3203,1836;0,0534685
3204,1477;0,0536331
3205,1121;0,0537851
3206,0762;0,053923
3207,0405;0,0540482
3208,0046;0,054164
3208,9690;0,0542751
3209,9331;0,0543874
3210,8975;0,0545067
3211,8616;0,0546369
3212,8259;0,0547774
3213,7900;0,0549235
3214,7544;0,0550678
3215,7185;0,0552045
3216,6829;0,0553321
3217,6470;0,055454
3218,6113;0,0555762
3219,5754;0,0557043
3220,5398;0,0558407
3221,5039;0,0559836
3222,4683;0,0561289
3223,4324;0,0562722
3224,3967;0,0564112
3225,3608;0,056547
3226,3252;0,056683
3227,2893;0,0568236
3228,2537;0,0569711
3229,2178;0,057124
3230,1821;0,0572769
3231,1462;0,0574229
3232,1106;0,0575564
3233,0747;0,0576759
3234,0391;0,0577841
3235,0032;0,0578866
3235,9675;0,0579894
3236,9316;0,0580981
3237,8960;0,0582176
3238,8601;0,0583511
3239,8245;0,0584994
3240,7886;0,0586587
3241,7529;0,0588204
3242,7170;0,0589739
3243,6814;0,0591117
3244,6455;0,0592342
3245,6099;0,0593503
3246,5740;0,0594726
3247,5383;0,0596101
3248,5024;0,0597635
3249,4668;0,0599262
3250,4309;0,0600902
3251,3953;0,0602515
3252,3594;0,0604119
3253,3237;0,060576
3254,2878;0,0607455
3255,2522;0,0609166
3256,2163;0,0610818
3257,1807;0,0612359
3258,1448;0,0613805
3259,1091;0,0615231
3260,0732;0,061672
3261,0376;0,0618299
3262,0017;0,0619921
3262,9661;0,0621503
3263,9302;0,0622997
3264,8945;0,0624434
3265,8586;0,0625904
3266,8230;0,0627481
3267,7871;0,0629157
3268,7515;0,0630818
3269,7156;0,0632298
3270,6799;0,063347
3271,6440;0,063431
3272,6084;0,0634905
3273,5725;0,0635405
3274,5369;0,0635947
3275,5010;0,0636611
3276,4653;0,0637405
3277,4294;0,0638284
3278,3938;0,063918
3279,3579;0,0640013
3280,3223;0,0640713
3281,2864;0,0641237
3282,2507;0,0641593
3283,2148;0,0641854
3284,1792;0,0642134
3285,1433;0,0642543
3286,1077;0,0643124
3287,0718;0,0643828
3288,0361;0,0644526
3289,0002;0,064507
3289,9646;0,0645357
3290,9287;0,0645381
3291,8931;0,0645222
3292,8572;0,0645008
3293,8215;0,0644858
3294,7856;0,064484
3295,7500;0,0644965
3296,7141;0,0645195
3297,6785;0,0645467
3298,6426;0,0645702
3299,6069;0,0645833
3300,5710;0,0645826
3301,5354;0,06457
3302,4995;0,0645532
3303,4639;0,0645414
3304,4280;0,064541
3305,3923;0,0645512
3306,3564;0,0645645
3307,3208;0,0645712
3308,2849;0,0645646
3309,2493;0,0645453
3310,2134;0,0645199
3311,1777;0,0644983
3312,1418;0,0644886
3313,1062;0,0644958
3314,0703;0,0645204
3315,0347;0,0645596
3315,9988;0,0646083
3316,9631;0,0646615
3317,9272;0,0647162
3318,8916;0,0647738
3319,8557;0,0648386
3320,8201;0,0649148
3321,7842;0,0650018
3322,7485;0,0650931
3323,7126;0,0651784
3324,6770;0,0652493
3325,6411;0,0653041
3326,6055;0,0653483
3327,5696;0,065391
3328,5339;0,0654394
3329,4980;0,0654955
3330,4624;0,0655553
3331,4265;0,0656121
3332,3909;0,0656589
3333,3550;0,0656902
3334,3193;0,0657025
3335,2834;0,0656945
3336,2478;0,0656677
3337,2119;0,0656266
3338,1763;0,0655773
3339,1404;0,0655242
3340,1047;0,065467
3341,0688;0,0653999
3342,0332;0,0653143
3342,9973;0,0652041
3343,9617;0,0650705
3344,9258;0,0649235
3345,8901;0,0647791
3346,8542;0,0646516
3347,8186;0,0645479
3348,7827;0,0644638
3349,7471;0,0643856
3350,7112;0,0642967
3351,6755;0,0641847
3352,6396;0,0640463
3353,6040;0,0638888
3354,5681;0,0637255
3355,5325;0,0635706
3356,4966;0,0634325
3357,4609;0,0633107
3358,4250;0,0631972
3359,3894;0,0630814
3360,3535;0,062956
3361,3179;0,062821
3362,2820;0,0626832
3363,2463;0,0625513
3364,2104;0,0624306
3365,1748;0,0623185
3366,1389;0,0622052
3367,1033;0,062078
3368,0674;0,0619273
3369,0317;0,0617508
3369,9958;0,0615542
3370,9602;0,0613489
3371,9243;0,0611488
3372,8887;0,0609664
3373,8528;0,0608099
3374,8171;0,0606811
3375,7813;0,0605751
3376,7456;0,0604813
3377,7097;0,0603871
3378,6741;0,0602809
3379,6382;0,0601557
3380,6025;0,0600093
3381,5667;0,0598449
3382,5310;0,0596696
3383,4951;0,0594935
3384,4595;0,059328
3385,4236;0,0591821
3386,3879;0,0590589
3387,3521;0,0589539
3388,3164;0,058857
3389,2805;0,0587579
3390,2449;0,0586509
3391,2090;0,058537
3392,1733;0,0584209
3393,1375;0,0583049
3394,1018;0,0581851
3395,0659;0,0580533
3396,0303;0,0579027
3396,9944;0,0577345
3397,9587;0,0575584
3398,9229;0,0573868
3399,8872;0,0572272
3400,8513;0,0570775
3401,8157;0,0569286
3402,7798;0,0567711
3403,7441;0,0566021
3404,7083;0,056427
3405,6726;0,056255
3406,6367;0,0560931
3407,6011;0,0559423
3408,5652;0,0557964
3409,5295;0,055646
3410,4937;0,0554828
3411,4580;0,0553039
3412,4221;0,0551138
3413,3865;0,0549228
3414,3506;0,0547422
3415,3149;0,0545784
3416,2791;0,0544295
3417,2434;0,0542841
3418,2075;0,0541265
3419,1719;0,0539437
3420,1360;0,0537327
3421,1003;0,0535019
3422,0645;0,0532673
3423,0288;0,0530432
3423,9929;0,0528355
3424,9573;0,0526403
3425,9214;0,0524484
3426,8857;0,0522513
3427,8499;0,0520464
3428,8142;0,0518384
3429,7783;0,051636
3430,7427;0,0514462
3431,7068;0,0512699
3432,6711;0,0511007
3433,6353;0,0509288
3434,5996;0,0507455
3435,5637;0,0505475
3436,5281;0,0503374
3437,4922;0,0501215
3438,4565;0,0499086
3439,4207;0,0497083
3440,3850;0,0495286
3441,3491;0,0493722
3442,3135;0,0492313
3443,2776;0,0490871
3444,2419;0,0489151
3445,2061;0,0486965
3446,1704;0,0484307
3447,1345;0,0481392
3448,0989;0,0478554
3449,0630;0,0476064
3450,0273;0,0473984
3450,9915;0,0472186
3451,9558;0,0470473
3452,9199;0,046872
3453,8843;0,0466937
3454,8484;0,0465229
3455,8127;0,0463682
3456,7769;0,046227
3457,7412;0,0460841
3458,7053;0,0459194
3459,6697;0,0457198
3460,6338;0,0454876
3461,5981;0,0452398
3462,5623;0,0449986
3463,5266;0,0447786
3464,4907;0,0445798
3465,4551;0,0443904
3466,4192;0,0441974
3467,3835;0,0439961
3468,3477;0,0437923
3469,3120;0,0435962
3470,2761;0,043412
3471,2405;0,0432345
3472,2046;0,0430529
3473,1689;0,0428621
3474,1331;0,042669
3475,0974;0,0424892
3476,0615;0,0423346
3477,0259;0,0422017
3477,9900;0,0420706
3478,9543;0,0419163
3479,9185;0,0417249
3480,8828;0,0415043
3481,8469;0,0412803
3482,8113;0,0410794
3483,7754;0,0409097
3484,7397;0,0407562
3485,7039;0,0405924
3486,6682;0,0403986
3487,6323;0,0401759
3488,5967;0,039946
3489,5608;0,0397376
3490,5251;0,0395671
3491,4893;0,0394291
3492,4536;0,0393002
3493,4177;0,0391544
3494,3821;0,0389815
3495,3462;0,0387958
3496,3105;0,0386303
3497,2747;0,0385149
3498,2390;0,0384532
3499,2031;0,0384155
3500,1675;0,0383494
3501,1316;0,0382056
3502,0959;0,0379683
3503,0601;0,0376707
3504,0244;0,0373784
3504,9885;0,0371466
3505,9529;0,0369871
3506,9170;0,0368692
3507,8813;0,036745
3508,8455;0,0365791
3509,8098;0,0363675
3510,7739;0,0361363
3511,7383;0,0359194
3512,7024;0,0357339
3513,6667;0,0355738
3514,6309;0,0354211
3515,5952;0,0352637
3516,5593;0,0351047
3517,5237;0,0349598
3518,4878;0,0348449
3519,4521;0,0347649
3520,4163;0,03471
3521,3806;0,0346609
3522,3447;0,0345966
3523,3091;0,0345012
3524,2732;0,034364
3525,2375;0,0341774
3526,2017;0,0339365
3527,1660;0,0336452
3528,1301;0,0333247
3529,0945;0,0330129
3530,0586;0,0327505
3531,0229;0,0325599
3531,9871;0,0324351
3532,9514;0,032346
3533,9155;0,032253
3534,8799;0,032124
3535,8440;0,0319489
3536,8083;0,031746
3537,7725;0,0315544
3538,7368;0,0314142
3539,7009;0,0313472
3540,6653;0,031347
3541,6294;0,03138
3542,5938;0,0313923
3543,5579;0,0313244
3544,5222;0,0311397
3545,4863;0,0308543
3546,4507;0,0305354
3547,4148;0,0302576
3548,3792;0,0300534
3549,3433;0,0299026
3550,3076;0,0297576
3551,2717;0,0295789
3552,2361;0,0293603
3553,2002;0,0291328
3554,1646;0,0289388
3555,1287;0,0287989
3556,0930;0,0287007
3557,0571;0,0286154
3558,0215;0,0285267
3558,9856;0,0284468
3559,9500;0,0284107
3560,9141;0,0284477
3561,8784;0,028551
3562,8425;0,028666
3563,8069;0,0286984
3564,7710;0,0285365
3565,7354;0,0281054
3566,6995;0,0274586
3567,6638;0,026801
3568,6279;0,026341
3569,5923;0,0261312
3570,5564;0,0260831
3571,5208;0,0260754
3572,4849;0,0260304
3573,4492;0,0259305
3574,4133;0,0258006
3575,3777;0,0256742
3576,3418;0,0255669
3577,3062;0,0254716
3578,2703;0,0253785
3579,2346;0,0252967
3580,1987;0,0252562
3581,1631;0,0252849
3582,1272;0,0253792
3583,0916;0,025491
3584,0557;0,0255357
3585,0200;0,0254137
3585,9841;0,0250609
3586,9485;0,0245313
3587,9126;0,0240235
3588,8770;0,0237444
3589,8411;0,0237445
3590,8054;0,0239184
3591,7695;0,0241112
3592,7339;0,0242025
3593,6980;0,0241444
3594,6624;0,0239683
3595,6265;0,0237536
3596,5908;0,0235642
3597,5549;0,0234064
3598,5193;0,0232447
3599,4834;0,0230538
3600,4478;0,0228536
3601,4119;0,0226962
3602,3762;0,0226177
3603,3403;0,0226036
3604,3047;0,0225972
3605,2688;0,0225318
3606,2332;0,0223629
3607,1973;0,0220905
3608,1616;0,0217644
3609,1257;0,0214596
3610,0901;0,0212332
3611,0542;0,0211031
3612,0186;0,0210591
3612,9827;0,0210797
3613,9470;0,0211336
3614,9111;0,021173
3615,8755;0,0211335
3616,8396;0,0209514
3617,8040;0,0206036
3618,7681;0,0201567
3619,7324;0,019775
3620,6965;0,0196286
3621,6609;0,0197681
3622,6250;0,0201015
3623,5894;0,0204699
3624,5535;0,0207222
3625,5178;0,0207425
3626,4819;0,0204485
3627,4463;0,019821
3628,4104;0,019002
3629,3748;0,0183087
3630,3389;0,0179807
3631,3032;0,0179787
3632,2673;0,018103
3633,2317;0,0181853
3634,1958;0,0181635
3635,1602;0,0180627
3636,1243;0,0179413
3637,0886;0,0178393
3638,0527;0,0177617
3639,0171;0,0176979
3639,9812;0,0176514
3640,9456;0,0176485
3641,9097;0,0177178
3642,8740;0,0178611
3643,8381;0,0180411
3644,8025;0,0181882
3645,7666;0,0182031
3646,7310;0,0179431
3647,6951;0,0172577
3648,6594;0,016215
3649,6235;0,0152726
3650,5879;0,014864
3651,5520;0,0149705
3652,5164;0,0152939
3653,4805;0,0155577
3654,4448;0,015621
3655,4089;0,0154867
3656,3733;0,0152688
3657,3374;0,0151115
3658,3018;0,0150844
3659,2659;0,0151487
3660,2302;0,0152232
3661,1943;0,0152658
3662,1587;0,0153004
3663,1228;0,0153803
3664,0872;0,0155267
3665,0513;0,0157001
3666,0156;0,0158221
3666,9797;0,0158222
3667,9441;0,0156806
3668,9082;0,0154573
3669,8726;0,0152771
3670,8367;0,01523
3671,8010;0,0152765
3672,7651;0,015279
3673,7295;0,015104
3674,6936;0,0147175
3675,6580;0,0142514
3676,6221;0,0139413
3677,5864;0,0139154
3678,5505;0,0141041
3679,5149;0,0143654
3680,4790;0,0146143
3681,4434;0,0148462
3682,4075;0,0150896
3683,3718;0,0153504
3684,3359;0,0155887
3685,3003;0,0157351
3686,2644;0,0157211
3687,2288;0,0155034
3688,1929;0,0150991
3689,1572;0,0146352
3690,1213;0,0143187
3691,0857;0,0142754
3692,0498;0,0144645
3693,0142;0,0147642
3693,9783;0,015075
3694,9426;0,0153488
3695,9067;0,0155697
3696,8711;0,0157272
3697,8352;0,0158025
3698,7996;0,0157748
3699,7637;0,0156418
3700,7280;0,0154448
3701,6921;0,015274
3702,6565;0,01523
3703,6206;0,0153599
3704,5850;0,015628
3705,5491;0,0159434
3706,5134;0,016205
3707,4775;0,016322
3708,4419;0,016212
3709,4060;0,015814
3710,3704;0,0151639
3711,3345;0,0144759
3712,2988;0,0140393
3713,2629;0,0139893
3714,2273;0,0142524
3715,1914;0,0146689
3716,1558;0,0151033
3717,1199;0,0154809
3718,0842;0,015781
3719,0483;0,0160167
3720,0127;0,016211
3720,9768;0,0163756
3721,9412;0,0165007
3722,9053;0,0165641
3723,8696;0,0165562
3724,8337;0,0165038
3725,7981;0,0164647
3726,7622;0,0164902
3727,7266;0,016592
3728,6907;0,0167428
3729,6550;0,0169028
3730,6191;0,0170375
3731,5835;0,0171083
3732,5476;0,0170453
3733,5120;0,0167504
3734,4761;0,0161995
3735,4404;0,0155718
3736,4045;0,0151643
3737,3689;0,0151297
3738,3330;0,0153789
3739,2974;0,0156958
3740,2615;0,0158697
3741,2258;0,0157629
3742,1899;0,0153487
3743,1543;0,0147532
3744,1184;0,0142559
3745,0828;0,0141274
3746,0469;0,0143894
3747,0112;0,0148022
3747,9753;0,0150537
3748,9397;0,0149138
3749,9038;0,0143486
3750,8682;0,0136292
3751,8323;0,0132022
3752,7966;0,0132871
3753,7607;0,0137382
3754,7251;0,0142702
3755,6892;0,0146581
3756,6536;0,0147933
3757,6177;0,014684
3758,5820;0,0144445
3759,5461;0,0142384
3760,5105;0,0141785
3761,4746;0,0142703
3762,4390;0,0144432
3763,4031;0,0146139
3764,3674;0,0147234
3765,3315;0,0147441
3766,2959;0,0146713
3767,2600;0,0145127
3768,2244;0,0142882
3769,1885;0,0140406
3770,1528;0,0138406
3771,1169;0,0137632
3772,0813;0,0138432
3773,0454;0,0140505
3774,0098;0,0143071
3774,9739;0,0145245
3775,9382;0,0146346
3776,9023;0,0146093
3777,8667;0,014473
3778,8308;0,0143016
3779,7952;0,0141856
3780,7593;0,014172
3781,7236;0,0142412
3782,6877;0,0143332
3783,6521;0,014389
3784,6162;0,0143803
3785,5806;0,014318
3786,5447;0,0142433
3787,5090;0,014204
3788,4731;0,0142301
3789,4375;0,0143211
3790,4016;0,0144494
3791,3660;0,0145779
3792,3301;0,0146809
3793,2944;0,0147595
3794,2585;0,0148394
3795,2229;0,0149484
3796,1870;0,0150842
3797,1514;0,0151972
3798,1155;0,0152067
3799,0798;0,0150466
3800,0439;0,0147247
3801,0083;0,0143546
3801,9724;0,0140947
3802,9368;0,014013
3803,9009;0,0140308
3804,8652;0,0140078
3805,8293;0,013868
3806,7937;0,013673
3807,7578;0,013588
3808,7222;0,0137408
3809,6863;0,0141055
3810,6506;0,014532
3811,6147;0,0148569
3812,5791;0,0149867
3813,5432;0,0149281
3814,5076;0,0147806
3815,4717;0,0146807
3816,4360;0,0147024
3817,4001;0,014791
3818,3645;0,0148067
3819,3286;0,0146387
3820,2930;0,0143108
3821,2571;0,0139956
3822,2214;0,0138809
3823,1855;0,014011
3824,1499;0,0142825
3825,1140;0,0145536
3826,0784;0,0147335
3827,0425;0,0148055
3828,0068;0,0148066
3828,9709;0,0147902
3829,9353;0,0147943
3830,8994;0,0148305
3831,8638;0,0148914
3832,8279;0,014962
3833,7922;0,0150254
3834,7563;0,0150635
3835,7207;0,0150575
3836,6848;0,0149939
3837,6492;0,0148776
3838,6133;0,0147394
3839,5776;0,0146155
3840,5417;0,0145157
3841,5061;0,0144222
3842,4702;0,0143275
3843,4346;0,014266
3844,3987;0,0143057
3845,3630;0,0145037
3846,3271;0,01486
3847,2915;0,0153076
3848,2556;0,0157366
3849,2200;0,0160224
3850,1841;0,0160332
3851,1484;0,0156261
3852,1125;0,0147253
3853,0769;0,0135745
3854,0410;0,0127727
3855,0054;0,0126944
3855,9695;0,0131815
3856,9338;0,0138814
3857,8979;0,0145363
3858,8623;0,0150261
3859,8264;0,0153211
3860,7908;0,0154354
3861,7549;0,0154037
3862,7192;0,015281
3863,6833;0,0151424
3864,6477;0,0150546
3865,6118;0,0150375
3866,5762;0,0150617
3867,5403;0,0150775
3868,5046;0,0150416
3869,4688;0,0149308
3870,4331;0,0147535
3871,3972;0,0145549
3872,3616;0,0144021
3873,3257;0,0143497
3874,2900;0,0144144
3875,2542;0,0145722
3876,2185;0,0147743
3877,1826;0,0149679
3878,1470;0,0151133
3879,1111;0,0151924
3880,0754;0,0152078
3881,0396;0,0151684
3882,0039;0,0150722
3882,9680;0,0149096
3883,9324;0,0146953
3884,8965;0,0144953
3885,8608;0,0144028
3886,8250;0,0144667
3887,7893;0,014643
3888,7534;0,0148191
3889,7178;0,0148829
3890,6819;0,0147961
3891,6462;0,0146353
3892,6104;0,0145487
3893,5747;0,0146367
3894,5388;0,0148787
3895,5032;0,0151743
3896,4673;0,0154224
3897,4316;0,0155647
3898,3958;0,0155912
3899,3601;0,0155244
3900,3242;0,0153927
3901,2886;0,0152066
3902,2527;0,0149627
3903,2170;0,0146774
3904,1812;0,0144092
3905,1455;0,0142287
3906,1096;0,0141672
3907,0740;0,0142031
3908,0381;0,014292
3909,0024;0,0144013
3909,9666;0,0145232
3910,9309;0,0146646
3911,8950;0,014827
3912,8594;0,0149904
3913,8235;0,0151143
3914,7878;0,0151544
3915,7520;0,0150907
3916,7163;0,0149531
3917,6804;0,0148188
3918,6448;0,0147688
3919,6089;0,0148313
3920,5732;0,0149647
3921,5374;0,0150893
3922,5017;0,0151364
3923,4658;0,0150881
3924,4302;0,0149903
3925,3943;0,014923
3926,3586;0,0149442
3927,3228;0,0150523
3928,2871;0,0151915
3929,2512;0,015284
3930,2156;0,0152677
3931,1797;0,0151294
3932,1440;0,0149174
3933,1082;0,0147146
3934,0725;0,0145892
3935,0366;0,0145652
3936,0010;0,0146282
3936,9651;0,0147444
3937,9294;0,0148758
3938,8936;0,0149868
3939,8579;0,0150508
3940,8220;0,0150591
3941,7864;0,0150285
3942,7505;0,0149967
3943,7148;0,0150001
3944,6790;0,0150483
3945,6433;0,0151162
3946,6074;0,0151593
3947,5718;0,0151397
3948,5359;0,0150493
3949,5002;0,0149167
3950,4644;0,0147899
3951,4287;0,0147067
3952,3928;0,0146765
3953,3572;0,014686
3954,3213;0,0147154
3955,2856;0,0147507
3956,2498;0,0147858
3957,2141;0,0148174
3958,1782;0,0148396
3959,1426;0,0148443
3960,1067;0,0148269
3961,0710;0,0147921
3962,0352;0,014754
3962,9995;0,0147287
3963,9636;0,0147251
3964,9280;0,0147412
3965,8921;0,0147669
3966,8564;0,0147917
3967,8206;0,0148107
3968,7849;0,0148245
3969,7490;0,0148356
3970,7134;0,0148435
3971,6775;0,0148438
3972,6418;0,0148317
3973,6060;0,0148067
3974,5703;0,0147753
3975,5344;0,0147476
3976,4988;0,0147315
3977,4629;0,0147276
3978,4272;0,0147293
3979,3914;0,0147268
3980,3557;0,0147136
3981,3198;0,0146902
3982,2842;0,0146641
3983,2483;0,014646
3984,2126;0,0146439
3985,1768;0,0146595
3986,1411;0,0146882
3987,1052;0,0147219
3988,0696;0,0147529
3989,0337;0,0147772
3989,9980;0,0147938
3990,9622;0,0148034
3991,9265;0,0148051
3992,8906;0,0147964
3993,8550;0,0147752
3994,8191;0,0147437
3995,7834;0,0147093
3996,7476;0,0146819
3997,7119;0,0146689
3998,6760;0,0146713
3999,6404;0,0146839
4000,6045;0,0148347

##### Extended Information
[Comments]
Sample name
Comment
Username
Division
Organization;UNIVERSIDAD INDUSTRIAL DE SANTANDER

[Detailed Information]
Creation date;25/02/2025 4:40 p.m.

Data array type;Linear data array
Horizontal axis;Wavenumber [cm-1]
Vertical axis;Abs
Start;399,193 cm-1
End;4000,6 cm-1
Data interval;0,964233 cm-1
Data points;3736    

[Measurement Information]
Model name;FT/IR-4X1typeA
Serial No.;A035162111

Accessory;ATR PRO 4X
Accessory S/N;A021162126
Incident angle;45 deg

Measurement date;25/02/2025 4:39 p.m.

Light source;Standard
Detector;TGS
Accumulation;40
Resolution;4 cm-1
Zero filling;On
Apodization;Cosine
Gain;Auto (8)
Aperture;Auto (7 mm)
Scan speed;Auto (2 mm/sec)
Filter;Auto (12800 Hz)

