TITLE;
DATA TYPE;INFRARED SPECTRUM
ORIGIN;JASCO
OWNER;
DATE;25/02/25
TIME;16:46:43
SPECTROMETER/DATA SYSTEM;
LOCALE;9226
RESOLUTION;
DELTAX;0,964233
XUNITS;1/CM
YUNITS;ABSORBANCE
FIRSTX;  399,1927
LASTX; 4000,6047
NPOINTS;    3736
FIRSTY;     0,14885
MAXY;     0,18335
MINY;     0,00663
XYDATA
399,1927;0,148845
400,1569;0,147699
401,1211;0,146317
402,0854;0,145291
403,0496;0,144759
404,0138;0,144541
404,9781;0,144345
405,9423;0,143951
406,9065;0,143354
407,8708;0,142745
408,8350;0,142373
409,7992;0,142381
410,7635;0,142723
411,7277;0,143218
412,6919;0,143692
413,6562;0,144106
414,6204;0,144593
415,5846;0,14542
416,5489;0,146903
417,5131;0,149198
418,4773;0,15196
419,4416;0,154281
420,4058;0,155435
421,3700;0,155474
422,3343;0,154871
423,2985;0,154025
424,2627;0,15313
425,2270;0,152254
426,1912;0,151423
427,1554;0,150666
428,1197;0,150037
429,0839;0,149591
430,0481;0,149372
431,0124;0,149386
431,9766;0,149576
432,9408;0,149808
433,9051;0,149899
434,8693;0,149671
435,8335;0,149048
436,7978;0,148114
437,7620;0,147096
438,7262;0,146264
439,6905;0,145819
440,6547;0,145817
441,6189;0,146145
442,5832;0,146549
443,5474;0,146737
444,5116;0,146521
445,4759;0,145913
446,4401;0,145077
447,4043;0,144216
448,3686;0,143472
449,3328;0,142886
450,2970;0,142409
451,2613;0,141947
452,2255;0,141427
453,1897;0,140835
454,1540;0,140234
455,1182;0,13973
456,0824;0,139434
457,0467;0,139398
458,0109;0,139575
458,9751;0,139831
459,9394;0,140035
460,9036;0,140133
461,8678;0,140141
462,8321;0,140084
463,7963;0,139958
464,7605;0,139722
465,7248;0,139339
466,6890;0,138824
467,6532;0,138261
468,6175;0,137778
469,5817;0,13748
470,5459;0,137406
471,5102;0,137491
472,4744;0,137603
473,4386;0,137622
474,4029;0,137524
475,3671;0,13738
476,3313;0,137301
477,2956;0,137364
478,2598;0,137589
479,2240;0,137945
480,1883;0,138375
481,1525;0,138831
482,1167;0,13929
483,0810;0,139743
484,0452;0,14017
485,0094;0,140537
485,9737;0,140799
486,9379;0,140935
487,9021;0,140964
488,8664;0,140952
489,8306;0,140991
490,7948;0,141168
491,7591;0,141527
492,7233;0,142035
493,6875;0,142594
494,6518;0,143092
495,6160;0,143452
496,5802;0,143663
497,5445;0,143765
498,5087;0,143824
499,4729;0,143902
500,4372;0,144051
501,4014;0,144317
502,3656;0,144738
503,3299;0,145326
504,2941;0,146049
505,2583;0,14682
506,2226;0,147519
507,1868;0,14803
508,1510;0,148297
509,1153;0,148354
510,0795;0,14832
511,0437;0,14834
512,0080;0,148529
512,9722;0,148934
513,9365;0,149531
514,9007;0,150239
515,8649;0,150945
516,8292;0,151534
517,7934;0,151925
518,7576;0,152111
519,7219;0,152151
520,6861;0,152127
521,6503;0,152094
522,6146;0,152056
523,5788;0,151985
524,5430;0,151851
525,5073;0,151664
526,4715;0,151485
527,4357;0,151389
528,4000;0,151418
529,3642;0,151546
530,3284;0,151698
531,2927;0,15178
532,2569;0,151726
533,2211;0,151524
534,1854;0,151221
535,1496;0,150897
536,1138;0,150622
537,0781;0,15043
538,0423;0,150306
539,0065;0,150214
539,9708;0,15013
540,9350;0,15006
541,8992;0,150039
542,8635;0,150105
543,8277;0,150267
544,7919;0,150494
545,7562;0,150733
546,7204;0,150942
547,6846;0,151121
548,6489;0,151303
549,6131;0,151527
550,5773;0,151805
551,5416;0,152113
552,5058;0,152413
553,4700;0,152683
554,4343;0,152929
555,3985;0,153175
556,3627;0,15343
557,3270;0,153667
558,2912;0,153824
559,2554;0,153825
560,2197;0,153616
561,1839;0,15319
562,1481;0,152596
563,1124;0,15192
564,0766;0,15126
565,0408;0,150686
566,0051;0,150232
566,9693;0,149889
567,9335;0,149629
568,8978;0,149422
569,8620;0,149256
570,8262;0,149128
571,7905;0,149037
572,7547;0,14897
573,7189;0,14891
574,6832;0,148846
575,6474;0,148781
576,6116;0,148726
577,5759;0,148688
578,5401;0,148657
579,5043;0,148607
580,4686;0,148518
581,4328;0,148385
582,3970;0,148221
583,3613;0,148047
584,3255;0,147877
585,2897;0,14772
586,2540;0,147591
587,2182;0,147514
588,1824;0,147514
589,1467;0,147593
590,1109;0,147709
591,0751;0,147782
592,0394;0,147734
593,0036;0,147531
593,9678;0,147209
594,9321;0,14685
595,8963;0,146534
596,8605;0,146297
597,8248;0,146122
598,7890;0,14596
599,7532;0,145754
600,7175;0,145476
601,6817;0,145128
602,6459;0,144733
603,6102;0,144317
604,5744;0,143903
605,5386;0,143497
606,5029;0,143093
607,4671;0,142674
608,4313;0,142212
609,3956;0,141691
610,3598;0,141124
611,3240;0,140562
612,2883;0,14008
613,2525;0,13974
614,2167;0,139547
615,1810;0,139415
616,1452;0,139184
617,1094;0,138684
618,0737;0,137829
619,0379;0,136665
620,0021;0,135349
620,9664;0,134059
621,9306;0,132923
622,8948;0,131987
623,8591;0,131226
624,8233;0,130545
625,7875;0,129964
626,7518;0,129449
627,7160;0,128986
628,6802;0,128566
629,6445;0,128186
630,6087;0,127838
631,5729;0,127514
632,5372;0,127201
633,5014;0,126886
634,4656;0,126559
635,4299;0,126225
636,3941;0,125903
637,3583;0,125617
638,3226;0,125385
639,2868;0,125207
640,2510;0,125066
641,2153;0,124943
642,1795;0,124828
643,1437;0,124732
644,1080;0,124675
645,0722;0,124665
646,0364;0,124689
647,0007;0,12471
647,9649;0,124683
648,9291;0,124579
649,8934;0,124396
650,8576;0,124163
651,8218;0,123928
652,7861;0,123745
653,7503;0,123656
654,7145;0,123684
655,6788;0,12381
656,6430;0,123984
657,6072;0,124139
658,5715;0,12422
659,5357;0,124184
660,4999;0,123992
661,4642;0,123592
662,4284;0,122911
663,3926;0,121871
664,3569;0,120477
665,3211;0,118971
666,2853;0,117918
667,2496;0,117918
668,2138;0,118796
669,1780;0,119524
670,1423;0,119593
671,1065;0,119207
672,0707;0,11849
673,0350;0,117436
673,9992;0,116129
674,9634;0,114751
675,9277;0,11348
676,8919;0,112387
677,8561;0,11144
678,8204;0,110561
679,7846;0,109694
680,7488;0,108815
681,7131;0,107923
682,6773;0,107029
683,6415;0,106159
684,6058;0,105348
685,5700;0,104632
686,5342;0,104018
687,4985;0,103481
688,4627;0,102982
689,4269;0,102478
690,3912;0,10196
691,3554;0,101452
692,3196;0,100983
693,2839;0,100564
694,2481;0,100177
695,2123;0,0997932
696,1766;0,0993887
697,1408;0,0989611
698,1050;0,0985269
699,0693;0,0981097
700,0335;0,097725
700,9977;0,0973709
701,9620;0,0970269
702,9262;0,0966608
703,8904;0,0962272
704,8547;0,0957139
705,8189;0,0951322
706,7831;0,0945187
707,7474;0,0939231
708,7116;0,0933889
709,6758;0,0929339
710,6401;0,0925392
711,6043;0,0921555
712,5685;0,0917267
713,5328;0,0912234
714,4970;0,0906645
715,4612;0,08928
716,4255;0,0889695
717,3897;0,088813
718,3539;0,0887099
719,3182;0,0884829
720,2824;0,0879699
721,2466;0,0871252
722,2109;0,0860495
723,1751;0,0849257
724,1393;0,0839173
725,1036;0,0831023
726,0678;0,0824686
727,0320;0,0819508
727,9963;0,0814787
728,9605;0,081009
729,9247;0,0805299
730,8890;0,080047
731,8532;0,0795695
732,8174;0,0791052
733,7817;0,0786635
734,7459;0,0782565
735,7101;0,077895
736,6744;0,0775807
737,6386;0,0773029
738,6028;0,07704
739,5671;0,0767686
740,5313;0,0764715
741,4955;0,0761438
742,4598;0,0757912
743,4240;0,0754241
744,3882;0,0750496
745,3525;0,0746679
746,3167;0,0742732
747,2809;0,0738604
748,2452;0,073431
749,2094;0,0729949
750,1736;0,0725655
751,1379;0,0721534
752,1021;0,0717614
753,0663;0,071385
754,0306;0,0710166
754,9948;0,0706497
755,9590;0,07028
756,9233;0,0699059
757,8875;0,0695289
758,8517;0,069155
759,8160;0,0687955
760,7802;0,068463
761,7444;0,0681656
762,7087;0,0679003
763,6729;0,0676531
764,6371;0,0674046
765,6014;0,0671401
766,5656;0,0668556
767,5298;0,0665584
768,4941;0,0662634
769,4583;0,0659866
770,4225;0,0657416
771,3868;0,065536
772,3510;0,0653697
773,3152;0,0652321
774,2795;0,0651038
775,2437;0,0649625
776,2079;0,0647918
777,1722;0,0645875
778,1364;0,064357
779,1006;0,064111
780,0649;0,063855
781,0291;0,0635854
781,9933;0,0632954
782,9576;0,0629842
783,9218;0,0626625
784,8860;0,0623498
785,8503;0,0620652
786,8145;0,0618172
787,7787;0,0616
788,7430;0,061398
789,7072;0,0611949
790,6714;0,0609824
791,6357;0,0607647
792,5999;0,0605557
793,5641;0,0603733
794,5284;0,0602296
795,4926;0,0601253
796,4568;0,0600474
797,4211;0,059974
798,3853;0,0598834
799,3495;0,0597618
800,3138;0,0596068
801,2780;0,059425
802,2422;0,0592278
803,2065;0,0590286
804,1707;0,0588435
805,1349;0,0586911
806,0992;0,0585885
807,0634;0,0585422
808,0276;0,058541
808,9919;0,0585553
809,9561;0,0585476
810,9203;0,0584892
811,8846;0,0583725
812,8488;0,0582125
813,8130;0,0580359
814,7773;0,0578653
815,7415;0,0577097
816,7057;0,0575644
817,6700;0,0574202
818,6342;0,0572733
819,5984;0,05713
820,5627;0,0570027
821,5269;0,0569023
822,4911;0,0568314
823,4554;0,0567833
824,4196;0,0567453
825,3839;0,0567047
826,3481;0,0566534
827,3123;0,0565886
828,2766;0,0565112
829,2408;0,0564221
830,2050;0,0563208
831,1693;0,056205
832,1335;0,0560726
833,0977;0,0559232
834,0620;0,0557589
835,0262;0,0555835
835,9904;0,0554014
836,9547;0,0552156
837,9189;0,055027
838,8831;0,0548349
839,8474;0,0546379
840,8116;0,0544358
841,7758;0,0542308
842,7401;0,0540285
843,7043;0,0538364
844,6685;0,0536624
845,6328;0,0535119
846,5970;0,0533869
847,5612;0,0532871
848,5255;0,0532115
849,4897;0,053159
850,4539;0,0531266
851,4182;0,0531074
852,3824;0,0530892
853,3466;0,0530568
854,3109;0,0529981
855,2751;0,0529099
856,2393;0,0528004
857,2036;0,0526863
858,1678;0,0525863
859,1320;0,0525139
860,0963;0,0524747
861,0605;0,0524671
862,0247;0,0524861
862,9890;0,0525273
863,9532;0,0525877
864,9174;0,0526652
865,8817;0,0527562
866,8459;0,052855
867,8101;0,0529557
868,7744;0,0530543
869,7386;0,0531515
870,7028;0,0532509
871,6671;0,0533561
872,6313;0,053466
873,5955;0,0535725
874,5598;0,0536637
875,5240;0,0537302
876,4882;0,0537733
877,4525;0,0538081
878,4167;0,0538603
879,3809;0,0539575
880,3452;0,0541185
881,3094;0,054348
882,2736;0,0546388
883,2379;0,0549798
884,2021;0,0553663
885,1663;0,0558033
886,1306;0,0563031
887,0948;0,056876
888,0590;0,0575224
889,0233;0,0582296
889,9875;0,0589742
890,9517;0,0597268
891,9160;0,0604556
892,8802;0,0611263
893,8444;0,0617039
894,8087;0,0621557
895,7729;0,0624591
896,7371;0,0626067
897,7014;0,0626072
898,6656;0,062477
899,6298;0,0622304
900,5941;0,0618733
901,5583;0,0614063
902,5225;0,0608356
903,4868;0,0601832
904,4510;0,059491
905,4152;0,0588136
906,3795;0,0582044
907,3437;0,0577019
908,3079;0,0573217
909,2722;0,0570565
910,2364;0,0568828
911,2007;0,0567713
912,1649;0,0566968
913,1292;0,0566445
914,0934;0,0566125
915,0576;0,0566092
916,0219;0,0566467
916,9861;0,0567325
917,9503;0,056865
918,9146;0,0570325
919,8788;0,0572183
920,8430;0,0574072
921,8073;0,0575913
922,7715;0,057771
923,7357;0,0579514
924,7000;0,0581365
925,6642;0,0583254
926,6284;0,0585123
927,5927;0,0586911
928,5569;0,0588601
929,5211;0,059024
930,4854;0,0591909
931,4496;0,0593681
932,4138;0,0595581
933,3781;0,0597601
934,3423;0,059975
935,3065;0,0602085
936,2708;0,0604716
937,2350;0,0607754
938,1992;0,061126
939,1635;0,061523
940,1277;0,0619635
941,0919;0,0624475
942,0562;0,0629809
943,0204;0,0635729
943,9846;0,0642297
944,9489;0,0649501
945,9131;0,0657255
946,8773;0,0665454
947,8416;0,0674024
948,8058;0,0682951
949,7700;0,0692258
950,7343;0,0701983
951,6985;0,0712151
952,6627;0,0722788
953,6270;0,0733924
954,5912;0,0745587
955,5554;0,0757768
956,5197;0,0770398
957,4839;0,0783345
958,4481;0,0796472
959,4124;0,0809687
960,3766;0,0822976
961,3408;0,0836373
962,3051;0,0849897
963,2693;0,0863507
964,2335;0,0877111
965,1978;0,0890629
966,1620;0,090407
967,1262;0,0917562
968,0905;0,0931313
969,0547;0,0945544
970,0189;0,0960429
970,9832;0,0976106
971,9474;0,099273
972,9116;0,101051
973,8759;0,102971
974,8401;0,105055
975,8043;0,107317
976,7686;0,109751
977,7328;0,112336
978,6970;0,115036
979,6613;0,117804
980,6255;0,120577
981,5897;0,123284
982,5540;0,125842
983,5182;0,12818
984,4824;0,13025
985,4467;0,13204
986,4109;0,133574
987,3751;0,134899
988,3394;0,136064
989,3036;0,137107
990,2678;0,138044
991,2321;0,138877
992,1963;0,139603
993,1605;0,140223
994,1248;0,140757
995,0890;0,141235
996,0532;0,141698
997,0175;0,14218
997,9817;0,142706
998,9459;0,143285
999,9102;0,143912
1000,8744;0,144583
1001,8386;0,145298
1002,8029;0,146068
1003,7671;0,146905
1004,7313;0,147826
1005,6956;0,148842
1006,6598;0,149969
1007,6240;0,151223
1008,5883;0,152623
1009,5525;0,154179
1010,5167;0,155881
1011,4810;0,157691
1012,4452;0,159556
1013,4094;0,161422
1014,3737;0,163255
1015,3379;0,165046
1016,3021;0,166796
1017,2664;0,168506
1018,2306;0,170155
1019,1948;0,171715
1020,1591;0,173158
1021,1233;0,17448
1022,0875;0,175701
1023,0518;0,176855
1024,0160;0,177973
1024,9802;0,179064
1025,9445;0,180112
1026,9087;0,181086
1027,8729;0,181945
1028,8372;0,182644
1029,8014;0,183132
1030,7656;0,183354
1031,7299;0,183255
1032,6941;0,182791
1033,6583;0,181951
1034,6226;0,180764
1035,5868;0,179299
1036,5510;0,177662
1037,5153;0,175972
1038,4795;0,174348
1039,4437;0,172888
1040,4080;0,171662
1041,3722;0,170695
1042,3364;0,169971
1043,3007;0,169439
1044,2649;0,169027
1045,2291;0,168657
1046,1934;0,168262
1047,1576;0,167794
1048,1218;0,167223
1049,0861;0,166531
1050,0503;0,165705
1051,0145;0,164732
1051,9788;0,163605
1052,9430;0,162323
1053,9072;0,160894
1054,8715;0,159332
1055,8357;0,157646
1056,7999;0,155829
1057,7642;0,153856
1058,7284;0,151694
1059,6926;0,149317
1060,6569;0,146734
1061,6211;0,143999
1062,5853;0,141205
1063,5496;0,138462
1064,5138;0,135871
1065,4780;0,133493
1066,4423;0,131347
1067,4065;0,12941
1068,3707;0,127639
1069,3350;0,125991
1070,2992;0,124435
1071,2634;0,122951
1072,2277;0,121523
1073,1919;0,12013
1074,1561;0,118738
1075,1204;0,11731
1076,0846;0,115819
1077,0488;0,114258
1078,0131;0,112654
1078,9773;0,111059
1079,9415;0,109537
1080,9058;0,108148
1081,8700;0,106927
1082,8342;0,105882
1083,7985;0,104997
1084,7627;0,104238
1085,7269;0,103571
1086,6912;0,10297
1087,6554;0,102427
1088,6196;0,101948
1089,5839;0,101548
1090,5481;0,101239
1091,5123;0,101022
1092,4766;0,100884
1093,4408;0,100801
1094,4050;0,100754
1095,3693;0,100737
1096,3335;0,100757
1097,2977;0,100827
1098,2620;0,100958
1099,2262;0,101145
1100,1904;0,101367
1101,1547;0,10159
1102,1189;0,101779
1103,0831;0,101906
1104,0474;0,101954
1105,0116;0,101922
1105,9758;0,101817
1106,9401;0,101651
1107,9043;0,101428
1108,8685;0,101141
1109,8328;0,100766
1110,7970;0,100267
1111,7612;0,0996142
1112,7255;0,0987953
1113,6897;0,0978317
1114,6539;0,0967777
1115,6182;0,0957067
1116,5824;0,0946901
1117,5466;0,093776
1118,5109;0,0929758
1119,4751;0,0922636
1120,4393;0,091585
1121,4036;0,0908722
1122,3678;0,0900589
1123,3320;0,0890926
1124,2963;0,0879425
1125,2605;0,0866038
1126,2247;0,0850972
1127,1890;0,0834634
1128,1532;0,0817529
1129,1174;0,0800139
1130,0817;0,0782828
1131,0459;0,0765819
1132,0101;0,0749249
1132,9744;0,073327
1133,9386;0,0718124
1134,9028;0,0704154
1135,8671;0,0691724
1136,8313;0,0681126
1137,7955;0,0672502
1138,7598;0,066585
1139,7240;0,0661067
1140,6882;0,0658
1141,6525;0,0656467
1142,6167;0,0656249
1143,5809;0,0657092
1144,5452;0,0658749
1145,5094;0,0661038
1146,4736;0,0663882
1147,4379;0,0667296
1148,4021;0,0671321
1149,3663;0,0675943
1150,3306;0,0681045
1151,2948;0,0686416
1152,2590;0,0691799
1153,2233;0,069693
1154,1875;0,0701549
1155,1517;0,0705386
1156,1160;0,0708119
1157,0802;0,0709352
1158,0444;0,0708622
1159,0087;0,0705431
1159,9729;0,0699311
1160,9371;0,0689913
1161,9014;0,0677096
1162,8656;0,0660998
1163,8298;0,064206
1164,7941;0,0620977
1165,7583;0,0598603
1166,7225;0,0575831
1167,6868;0,0553484
1168,6510;0,0532227
1169,6152;0,0512527
1170,5795;0,049464
1171,5437;0,0478644
1172,5079;0,0464486
1173,4722;0,0452044
1174,4364;0,0441169
1175,4006;0,0431718
1176,3649;0,0423555
1177,3291;0,041655
1178,2933;0,0410582
1179,2576;0,0405544
1180,2218;0,0401351
1181,1860;0,0397938
1182,1503;0,0395245
1183,1145;0,0393209
1184,0787;0,0391759
1185,0430;0,0390834
1186,0072;0,0390403
1186,9714;0,0390492
1187,9357;0,0391179
1188,8999;0,0392572
1189,8641;0,0394763
1190,8284;0,039779
1191,7926;0,0401611
1192,7568;0,0406121
1193,7211;0,0411183
1194,6853;0,0416669
1195,6495;0,0422487
1196,6138;0,042858
1197,5780;0,0434911
1198,5422;0,0441439
1199,5065;0,0446502
1200,4707;0,0453409
1201,4349;0,0460289
1202,3992;0,0467046
1203,3634;0,0473602
1204,3276;0,0479912
1205,2919;0,048598
1206,2561;0,0491872
1207,2203;0,0497717
1208,1846;0,0503692
1209,1488;0,0509983
1210,1130;0,0516744
1211,0773;0,0524059
1212,0415;0,0531931
1213,0057;0,0540295
1213,9700;0,054904
1214,9342;0,0558044
1215,8984;0,0567189
1216,8627;0,0576355
1217,8269;0,0585423
1218,7911;0,0594296
1219,7554;0,06029
1220,7196;0,0611176
1221,6838;0,0619073
1222,6481;0,0626532
1223,6123;0,0633494
1224,5765;0,0639918
1225,5408;0,0645811
1226,5050;0,0651231
1227,4692;0,065626
1228,4335;0,0660965
1229,3977;0,0665354
1230,3619;0,066938
1231,3262;0,0672973
1232,2904;0,0676086
1233,2546;0,0678725
1234,2189;0,0680943
1235,1831;0,0682812
1236,1473;0,0684388
1237,1116;0,06857
1238,0758;0,0686751
1239,0400;0,0687528
1240,0043;0,0688012
1240,9685;0,0688169
1241,9327;0,0687945
1242,8970;0,0687275
1243,8612;0,0686092
1244,8254;0,0684356
1245,7897;0,0682068
1246,7539;0,0679286
1247,7181;0,0676111
1248,6824;0,0672675
1249,6466;0,0669106
1250,6108;0,0665498
1251,5751;0,0661892
1252,5393;0,0658284
1253,5035;0,0654637
1254,4678;0,065091
1255,4320;0,0647068
1256,3962;0,0643077
1257,3605;0,0638909
1258,3247;0,0634533
1259,2889;0,062993
1260,2532;0,0625096
1261,2174;0,0620031
1262,1816;0,0614731
1263,1459;0,0609181
1264,1101;0,0603371
1265,0743;0,0597306
1266,0386;0,0591018
1267,0028;0,0584542
1267,9670;0,0577894
1268,9313;0,0571057
1269,8955;0,0564002
1270,8597;0,055672
1271,8240;0,0549258
1272,7882;0,054172
1273,7524;0,0534253
1274,7167;0,0527008
1275,6809;0,052011
1276,6451;0,0513632
1277,6094;0,050757
1278,5736;0,0501833
1279,5378;0,0496277
1280,5021;0,0490767
1281,4663;0,0485252
1282,4305;0,0479801
1283,3948;0,0474564
1284,3590;0,0469688
1285,3232;0,0465242
1286,2875;0,0461192
1287,2517;0,045745
1288,2159;0,0453964
1289,1802;0,0450771
1290,1444;0,0447993
1291,1086;0,0445767
1292,0729;0,0444182
1293,0371;0,0443243
1294,0013;0,0442902
1294,9656;0,0443102
1295,9298;0,0443815
1296,8940;0,0445048
1297,8583;0,0446825
1298,8225;0,0449159
1299,7867;0,0452035
1300,7510;0,0455411
1301,7152;0,0459247
1302,6794;0,0463491
1303,6437;0,0468088
1304,6079;0,0472995
1305,5721;0,0478174
1306,5364;0,0483601
1307,5006;0,0489265
1308,4648;0,0495156
1309,4291;0,0501241
1310,3933;0,0507435
1311,3575;0,0513576
1312,3218;0,0519446
1313,2860;0,0524805
1314,2502;0,0529431
1315,2145;0,0533119
1316,1787;0,0535664
1317,1429;0,0536873
1318,1072;0,0536643
1319,0714;0,053508
1320,0356;0,0532543
1320,9999;0,0529544
1321,9641;0,0526555
1322,9283;0,0523867
1323,8926;0,0521579
1324,8568;0,0519668
1325,8210;0,0518072
1326,7853;0,0516732
1327,7495;0,0515573
1328,7137;0,0514485
1329,6780;0,0513326
1330,6422;0,0511974
1331,6064;0,0510404
1332,5707;0,0508706
1333,5349;0,0507062
1334,4991;0,0505608
1335,4634;0,0504297
1336,4276;0,0502799
1337,3918;0,0500505
1338,3561;0,0496773
1339,3203;0,0491404
1340,2845;0,048498
1341,2488;0,0478564
1342,2130;0,0473041
1343,1772;0,0468755
1344,1415;0,0465631
1345,1057;0,0463457
1346,0699;0,0462065
1347,0342;0,0461386
1347,9984;0,0461428
1348,9626;0,0462222
1349,9269;0,0463762
1350,8911;0,0465966
1351,8553;0,0468678
1352,8196;0,0471727
1353,7838;0,0475001
1354,7480;0,0478509
1355,7123;0,0482381
1356,6765;0,0486784
1357,6407;0,0491824
1358,6050;0,0497472
1359,5692;0,0503539
1360,5334;0,0509597
1361,4977;0,0515009
1362,4619;0,051927
1363,4261;0,0522462
1364,3904;0,052519
1365,3546;0,0528014
1366,3188;0,0531075
1367,2831;0,0534164
1368,2473;0,0536965
1369,2115;0,0539234
1370,1758;0,054085
1371,1400;0,0541726
1372,1042;0,0541679
1373,0685;0,0540405
1374,0327;0,0537675
1374,9969;0,0533632
1375,9612;0,0528767
1376,9254;0,0523463
1377,8896;0,0517656
1378,8539;0,0511022
1379,8181;0,0503452
1380,7823;0,0495336
1381,7466;0,0487397
1382,7108;0,0480191
1383,6750;0,0473727
1384,6393;0,04675
1385,6035;0,046085
1386,5677;0,0453514
1387,5320;0,0446093
1388,4962;0,0439779
1389,4604;0,0435394
1390,4247;0,043285
1391,3889;0,0431532
1392,3531;0,0430897
1393,3174;0,0430656
1394,2816;0,04306
1395,2458;0,0430417
1396,2101;0,0429791
1397,1743;0,0428676
1398,1385;0,0427437
1399,1028;0,0426687
1400,0670;0,0426941
1401,0313;0,0428324
1401,9955;0,0430545
1402,9597;0,0433114
1403,9240;0,0435628
1404,8882;0,0437989
1405,8524;0,0440459
1406,8167;0,0443437
1407,7809;0,0447118
1408,7451;0,045137
1409,7094;0,045593
1410,6736;0,0460665
1411,6378;0,0465652
1412,6021;0,0471033
1413,5663;0,047678
1414,5305;0,0482615
1415,4948;0,0488128
1416,4590;0,049286
1417,4232;0,0496285
1418,3875;0,0498101
1419,3517;0,0498893
1420,3159;0,0499867
1421,2802;0,0501483
1422,2444;0,0503009
1423,2086;0,0503364
1424,1729;0,0501991
1425,1371;0,0499046
1426,1013;0,0495
1427,0656;0,049013
1428,0298;0,0484375
1428,9940;0,0477677
1429,9583;0,0470424
1430,9225;0,0463402
1431,8867;0,0457117
1432,8510;0,0451263
1433,8152;0,0444907
1434,7794;0,0437115
1435,7437;0,0427753
1436,7079;0,0418232
1437,6721;0,0411059
1438,6364;0,0407762
1439,6006;0,0407744
1440,5648;0,0409385
1441,5291;0,0411475
1442,4933;0,0413668
1443,4575;0,0416172
1444,4218;0,0419214
1445,3860;0,0422699
1446,3502;0,0426234
1447,3145;0,0429451
1448,2787;0,0432358
1449,2429;0,0435359
1450,2072;0,0438804
1451,1714;0,0442529
1452,1356;0,0445907
1453,0999;0,0448322
1454,0641;0,0449563
1455,0283;0,0449566
1455,9926;0,0447439
1456,9568;0,0441876
1457,9210;0,0434914
1458,8853;0,0431177
1459,8495;0,0431707
1460,8137;0,0433951
1461,7780;0,0435117
1462,7422;0,0433505
1463,7064;0,0428477
1464,6707;0,0420579
1465,6349;0,0411683
1466,5991;0,0403815
1467,5634;0,0397456
1468,5276;0,0391541
1469,4918;0,0384627
1470,4561;0,0375604
1471,4203;0,0363694
1472,3845;0,0348689
1473,3488;0,0332096
1474,3130;0,0317104
1475,2772;0,0305955
1476,2415;0,0298516
1477,2057;0,0293487
1478,1699;0,0289717
1479,1342;0,0286552
1480,0984;0,0283727
1481,0626;0,0281259
1482,0269;0,0279388
1482,9911;0,0278449
1483,9553;0,0278676
1484,9196;0,0280095
1485,8838;0,0282547
1486,8480;0,0285627
1487,8123;0,0288424
1488,7765;0,0289758
1489,7407;0,0289592
1490,7050;0,0289627
1491,6692;0,0291443
1492,6334;0,0295162
1493,5977;0,0300168
1494,5619;0,0306057
1495,5261;0,0312769
1496,4904;0,0320139
1497,4546;0,0327723
1498,4188;0,0335398
1499,3831;0,034345
1500,3473;0,0351656
1501,3115;0,0359022
1502,2758;0,036457
1503,2400;0,0368202
1504,2042;0,0371128
1505,1685;0,0375204
1506,1327;0,038008
1507,0969;0,0381354
1508,0612;0,0377438
1509,0254;0,0372819
1509,9896;0,0370137
1510,9539;0,036858
1511,9181;0,0366848
1512,8823;0,0364342
1513,8466;0,0360962
1514,8108;0,0356693
1515,7750;0,0351466
1516,7393;0,0345286
1517,7035;0,0338318
1518,6677;0,0330764
1519,6320;0,0322803
1520,5962;0,0314816
1521,5604;0,030763
1522,5247;0,0302187
1523,4889;0,029874
1524,4531;0,0296655
1525,4174;0,0295119
1526,3816;0,0293861
1527,3458;0,0293175
1528,3101;0,0293345
1529,2743;0,0294217
1530,2385;0,0295313
1531,2028;0,0296205
1532,1670;0,0296734
1533,1312;0,0297088
1534,0955;0,029771
1535,0597;0,0298814
1536,0239;0,0300056
1536,9882;0,0301046
1537,9524;0,0302132
1538,9166;0,030421
1539,8809;0,0306825
1540,8451;0,0307346
1541,8093;0,0305441
1542,7736;0,030406
1543,7378;0,0304444
1544,7020;0,0305883
1545,6663;0,0307766
1546,6305;0,0309996
1547,5947;0,0312511
1548,5590;0,0314964
1549,5232;0,0316855
1550,4874;0,0317908
1551,4517;0,0318321
1552,4159;0,0318589
1553,3801;0,0318985
1554,3444;0,0319254
1555,3086;0,031882
1556,2728;0,0316984
1557,2371;0,0312391
1558,2013;0,0303399
1559,1655;0,0293356
1560,1298;0,0290311
1561,0940;0,0295861
1562,0582;0,0305436
1563,0225;0,0314815
1563,9867;0,0322043
1564,9509;0,0326796
1565,9152;0,0329552
1566,8794;0,0331028
1567,8436;0,0331906
1568,8079;0,0332851
1569,7721;0,0334597
1570,7363;0,0337594
1571,7006;0,0341569
1572,6648;0,0345781
1573,6290;0,0349706
1574,5933;0,0353305
1575,5575;0,0356738
1576,5217;0,0360272
1577,4860;0,0364623
1578,4502;0,0370419
1579,4144;0,0377339
1580,3787;0,0384512
1581,3429;0,0391337
1582,3071;0,039772
1583,2714;0,0403889
1584,2356;0,0410136
1585,1998;0,0416644
1586,1641;0,0423415
1587,1283;0,0430268
1588,0925;0,0436911
1589,0568;0,0443025
1590,0210;0,0448343
1590,9852;0,0452649
1591,9495;0,0455741
1592,9137;0,0457406
1593,8779;0,0457511
1594,8422;0,0456158
1595,8064;0,045375
1596,7706;0,0450869
1597,7349;0,0448018
1598,6991;0,0445438
1599,6633;0,0443093
1600,6276;0,0440803
1601,5918;0,0438443
1602,5560;0,0436087
1603,5203;0,0433992
1604,4845;0,0432383
1605,4487;0,0431226
1606,4130;0,0430195
1607,3772;0,042889
1608,3414;0,0427205
1609,3057;0,0425549
1610,2699;0,0424577
1611,2341;0,0424581
1612,1984;0,0425194
1613,1626;0,0425684
1614,1268;0,0425416
1615,0911;0,042415
1616,0553;0,0422347
1617,0195;0,0421425
1617,9838;0,042286
1618,9480;0,0426641
1619,9122;0,043138
1620,8765;0,0435614
1621,8407;0,043857
1622,8049;0,0440212
1623,7692;0,0441035
1624,7334;0,0441711
1625,6976;0,0442644
1626,6619;0,0443844
1627,6261;0,0445267
1628,5903;0,0447054
1629,5546;0,0449337
1630,5188;0,0451894
1631,4830;0,0454183
1632,4473;0,0455741
1633,4115;0,0456425
1634,3757;0,0456101
1635,3400;0,0454384
1636,3042;0,0451854
1637,2684;0,0450671
1638,2327;0,0452099
1639,1969;0,0455363
1640,1611;0,0459068
1641,1254;0,0462276
1642,0896;0,0464606
1643,0538;0,0466016
1644,0181;0,0466539
1644,9823;0,0465935
1645,9465;0,0463738
1646,9108;0,0460352
1647,8750;0,0457311
1648,8392;0,0455234
1649,8035;0,045301
1650,7677;0,0448986
1651,7319;0,0441596
1652,6962;0,0429779
1653,6604;0,0416555
1654,6246;0,0409284
1655,5889;0,0410026
1656,5531;0,041446
1657,5173;0,0418203
1658,4816;0,0419135
1659,4458;0,0416807
1660,4100;0,0411582
1661,3743;0,0404322
1662,3385;0,0396546
1663,3027;0,0390104
1664,2670;0,0385962
1665,2312;0,0383599
1666,1954;0,0381657
1667,1597;0,0378734
1668,1239;0,0373801
1669,0881;0,036667
1670,0524;0,0358508
1671,0166;0,0351103
1671,9808;0,0345077
1672,9451;0,0339523
1673,9093;0,0333349
1674,8735;0,0326635
1675,8378;0,032089
1676,8020;0,031786
1677,7662;0,0317861
1678,7305;0,0319499
1679,6947;0,032075
1680,6589;0,031991
1681,6232;0,0315711
1682,5874;0,0307188
1683,5516;0,0294842
1684,5159;0,0282651
1685,4801;0,0275368
1686,4443;0,0273486
1687,4086;0,0274139
1688,3728;0,0274568
1689,3370;0,027353
1690,3013;0,0271078
1691,2655;0,02679
1692,2297;0,0264775
1693,1940;0,026231
1694,1582;0,0260809
1695,1224;0,0260085
1696,0867;0,0259269
1697,0509;0,0257054
1698,0151;0,0252642
1698,9794;0,0246891
1699,9436;0,0242299
1700,9078;0,0241215
1701,8721;0,0244006
1702,8363;0,0249116
1703,8005;0,0254435
1704,7648;0,0258475
1705,7290;0,0260871
1706,6932;0,0262349
1707,6575;0,0264161
1708,6217;0,0267232
1709,5859;0,0271712
1710,5502;0,0277205
1711,5144;0,0283208
1712,4786;0,028935
1713,4429;0,0295352
1714,4071;0,0300763
1715,3713;0,0304595
1716,3356;0,0305601
1717,2998;0,0304117
1718,2640;0,0303006
1719,2283;0,0304822
1720,1925;0,0309508
1721,1567;0,0315452
1722,1210;0,0321128
1723,0852;0,0325754
1724,0494;0,0329301
1725,0137;0,0332291
1725,9779;0,0335446
1726,9421;0,0339263
1727,9064;0,0343724
1728,8706;0,0348275
1729,8348;0,0352015
1730,7991;0,0353873
1731,7633;0,0352736
1732,7275;0,0348005
1733,6918;0,034089
1734,6560;0,0334526
1735,6202;0,0331187
1736,5845;0,0330339
1737,5487;0,0329932
1738,5129;0,0328266
1739,4772;0,0324773
1740,4414;0,0319947
1741,4056;0,0314802
1742,3699;0,0310103
1743,3341;0,0305925
1744,2983;0,0301842
1745,2626;0,0297373
1746,2268;0,0292106
1747,1910;0,028545
1748,1553;0,0276495
1749,1195;0,0264648
1750,0837;0,0250867
1751,0480;0,0237663
1752,0122;0,0227193
1752,9764;0,0219815
1753,9407;0,0214501
1754,9049;0,0209976
1755,8691;0,0205451
1756,8334;0,0200732
1757,7976;0,0195917
1758,7618;0,0190976
1759,7261;0,0185631
1760,6903;0,0179668
1761,6545;0,0173396
1762,6188;0,0167686
1763,5830;0,0163403
1764,5472;0,016078
1765,5115;0,0159379
1766,4757;0,0158497
1767,4399;0,015755
1768,4042;0,0156185
1769,3684;0,0154167
1770,3326;0,0151254
1771,2969;0,0147359
1772,2611;0,0143021
1773,2253;0,013948
1774,1896;0,0137777
1775,1538;0,0137885
1776,1180;0,013891
1777,0823;0,0139845
1778,0465;0,0140074
1779,0107;0,0139496
1779,9750;0,0138371
1780,9392;0,0137063
1781,9034;0,0135786
1782,8677;0,0134567
1783,8319;0,013343
1784,7961;0,0132582
1785,7604;0,0132345
1786,7246;0,0132887
1787,6888;0,0134041
1788,6531;0,0135376
1789,6173;0,0136372
1790,5815;0,0136533
1791,5458;0,013558
1792,5100;0,0133883
1793,4742;0,0132492
1794,4385;0,0132224
1795,4027;0,0132944
1796,3669;0,0133923
1797,3312;0,0134494
1798,2954;0,0134358
1799,2596;0,0133541
1800,2239;0,0132252
1801,1881;0,0130798
1802,1523;0,0129497
1803,1166;0,0128591
1804,0808;0,0128204
1805,0450;0,0128355
1806,0093;0,0128971
1806,9735;0,0129862
1807,9377;0,0130709
1808,9020;0,0131118
1809,8662;0,013081
1810,8304;0,0129835
1811,7947;0,0128592
1812,7589;0,0127567
1813,7231;0,0127024
1814,6874;0,0126933
1815,6516;0,0127088
1816,6158;0,0127279
1817,5801;0,0127402
1818,5443;0,0127493
1819,5085;0,0127656
1820,4728;0,0127947
1821,4370;0,0128331
1822,4012;0,0128736
1823,3655;0,0129127
1824,3297;0,0129542
1825,2939;0,0130041
1826,2582;0,0130576
1827,2224;0,013088
1828,1866;0,0130536
1829,1509;0,0129273
1830,1151;0,0127345
1831,0793;0,0125545
1832,0436;0,0124639
1833,0078;0,0124792
1833,9720;0,0125599
1834,9363;0,0126502
1835,9005;0,0127145
1836,8647;0,0127505
1837,8290;0,0127805
1838,7932;0,0128256
1839,7574;0,0128858
1840,7217;0,0129432
1841,6859;0,0129786
1842,6501;0,0129786
1843,6144;0,0129356
1844,5786;0,0128568
1845,5428;0,0127707
1846,5071;0,0127014
1847,4713;0,0126453
1848,4355;0,0125865
1849,3998;0,012523
1850,3640;0,0124709
1851,3282;0,0124483
1852,2925;0,0124573
1853,2567;0,0124822
1854,2209;0,0125044
1855,1852;0,0125179
1856,1494;0,0125315
1857,1136;0,0125577
1858,0779;0,0125984
1859,0421;0,0126422
1860,0063;0,0126761
1860,9706;0,0126999
1861,9348;0,0127294
1862,8990;0,0127845
1863,8633;0,0128744
1864,8275;0,012992
1865,7917;0,0131134
1866,7560;0,0131995
1867,7202;0,0132044
1868,6844;0,013108
1869,6487;0,0129454
1870,6129;0,0127809
1871,5771;0,0126526
1872,5414;0,0125568
1873,5056;0,0124738
1874,4698;0,0123932
1875,4341;0,0123204
1876,3983;0,0122694
1877,3625;0,0122517
1878,3268;0,0122695
1879,2910;0,0123146
1880,2552;0,0123727
1881,2195;0,0124315
1882,1837;0,0124864
1883,1479;0,0125428
1884,1122;0,0126115
1885,0764;0,0126998
1886,0406;0,0128032
1887,0049;0,0129022
1887,9691;0,0129656
1888,9333;0,0129657
1889,8976;0,012897
1890,8618;0,012782
1891,8260;0,0126563
1892,7903;0,0125475
1893,7545;0,0124679
1894,7188;0,0124201
1895,6830;0,012404
1896,6472;0,0124202
1897,6115;0,0124664
1898,5757;0,0125314
1899,5399;0,0125941
1900,5042;0,0126313
1901,4684;0,0126304
1902,4326;0,012601
1903,3969;0,0125751
1904,3611;0,0125922
1905,3253;0,0126765
1906,2896;0,0128197
1907,2538;0,0129799
1908,2180;0,0131002
1909,1823;0,0131399
1910,1465;0,0131011
1911,1107;0,0130261
1912,0750;0,0129649
1913,0392;0,0129412
1914,0034;0,0129448
1914,9677;0,0129472
1915,9319;0,0129281
1916,8961;0,0128951
1917,8604;0,0128855
1918,8246;0,0129409
1919,7888;0,0130703
1920,7531;0,0132335
1921,7173;0,0133597
1922,6815;0,013387
1923,6458;0,013299
1924,6100;0,0131369
1925,5742;0,0129738
1926,5385;0,0128702
1927,5027;0,0128449
1928,4669;0,0128762
1929,4312;0,0129219
1930,3954;0,0129454
1931,3596;0,012934
1932,3239;0,0128993
1933,2881;0,0128644
1934,2523;0,0128476
1935,2166;0,0128567
1936,1808;0,0128925
1937,1450;0,0129553
1938,1093;0,013047
1939,0735;0,0131646
1940,0377;0,0132932
1941,0020;0,0134042
1941,9662;0,0134683
1942,9304;0,0134792
1943,8947;0,0134629
1944,8589;0,0134572
1945,8231;0,0134793
1946,7874;0,0135109
1947,7516;0,0135124
1948,7158;0,0134493
1949,6801;0,0133152
1950,6443;0,0131356
1951,6085;0,0129552
1952,5728;0,0128185
1953,5370;0,01276
1954,5012;0,0128012
1955,4655;0,0129471
1956,4297;0,0131749
1957,3939;0,0134236
1958,3582;0,0136022
1959,3224;0,0136279
1960,2866;0,0134798
1961,2509;0,0132314
1962,2151;0,013026
1963,1793;0,0130028
1964,1436;0,0132197
1965,1078;0,0136178
1966,0720;0,0140439
1967,0363;0,0143271
1968,0005;0,0143698
1968,9647;0,014196
1969,9290;0,0139262
1970,8932;0,0137067
1971,8574;0,0136456
1972,8217;0,0137778
1973,7859;0,0140591
1974,7501;0,0143828
1975,7144;0,0146226
1976,6786;0,0146891
1977,6428;0,0145728
1978,6071;0,0143404
1979,5713;0,0140892
1980,5355;0,0138945
1981,4998;0,0137875
1982,4640;0,0137646
1983,4282;0,0138077
1984,3925;0,0138949
1985,3567;0,0139991
1986,3209;0,0140844
1987,2852;0,0141111
1988,2494;0,0140545
1989,2136;0,0139241
1990,1779;0,0137703
1991,1421;0,0136659
1992,1063;0,0136678
1993,0706;0,0137829
1994,0348;0,0139646
1994,9990;0,0141401
1995,9633;0,0142477
1996,9275;0,0142606
1997,8917;0,0141914
1998,8560;0,0140787
1999,8202;0,013966
2000,7844;0,0138851
2001,7487;0,0138507
2002,7129;0,0138709
2003,6771;0,0139604
2004,6414;0,0141452
2005,6056;0,0144493
2006,5698;0,0148669
2007,5341;0,0153399
2008,4983;0,0157626
2009,4625;0,0160201
2010,4268;0,0160386
2011,3910;0,0158198
2012,3552;0,0154424
2013,3195;0,0150338
2014,2837;0,0147277
2015,2479;0,0146191
2016,2122;0,0147332
2017,1764;0,0150183
2018,1406;0,0153714
2019,1049;0,0156831
2020,0691;0,0158791
2021,0333;0,0159382
2021,9976;0,0158855
2022,9618;0,0157689
2023,9260;0,0156372
2024,8903;0,0155253
2025,8545;0,0154529
2026,8187;0,0154285
2027,7830;0,0154497
2028,7472;0,0154987
2029,7114;0,0155402
2030,6757;0,0155321
2031,6399;0,0154485
2032,6041;0,0153021
2033,5684;0,0151452
2034,5326;0,0150459
2035,4968;0,0150533
2036,4611;0,0151762
2037,4253;0,0153872
2038,3895;0,01564
2039,3538;0,015883
2040,3180;0,0160639
2041,2822;0,0161344
2042,2465;0,0160631
2043,2107;0,0158556
2044,1749;0,0155664
2045,1392;0,0152893
2046,1034;0,0151241
2047,0676;0,0151311
2048,0320;0,0152997
2048,9961;0,015554
2049,9604;0,015794
2050,9246;0,0159422
2051,8889;0,0159652
2052,8530;0,0158706
2053,8174;0,015693
2054,7815;0,0154787
2055,7458;0,0152743
2056,7100;0,0151185
2057,6743;0,015036
2058,6384;0,0150362
2059,6028;0,0151142
2060,5669;0,0152534
2061,5313;0,0154257
2062,4954;0,0155927
2063,4597;0,0157093
2064,4238;0,0157356
2065,3882;0,0156549
2066,3523;0,0154874
2067,3167;0,0152879
2068,2808;0,0151247
2069,2451;0,0150479
2070,2092;0,0150648
2071,1736;0,015136
2072,1377;0,0151968
2073,1021;0,0151947
2074,0662;0,0151203
2075,0305;0,0150137
2075,9946;0,0149401
2076,9590;0,0149506
2077,9231;0,0150509
2078,8875;0,0151966
2079,8516;0,0153175
2080,8159;0,0153559
2081,7800;0,0152969
2082,7444;0,015174
2083,7085;0,0150491
2084,6729;0,0149786
2085,6370;0,0149862
2086,6013;0,0150555
2087,5654;0,0151425
2088,5298;0,0152012
2089,4939;0,0152048
2090,4583;0,0151548
2091,4224;0,0150763
2092,3867;0,0150044
2093,3508;0,014971
2094,3152;0,0149943
2095,2793;0,0150717
2096,2437;0,0151776
2097,2078;0,0152701
2098,1721;0,0153062
2099,1362;0,0152618
2100,1006;0,0151468
2101,0647;0,015001
2102,0291;0,0148837
2102,9932;0,0148433
2103,9575;0,0148967
2104,9216;0,0150236
2105,8860;0,0151798
2106,8501;0,0153186
2107,8145;0,0154097
2108,7786;0,0154445
2109,7429;0,0154308
2110,7070;0,0153834
2111,6714;0,0153192
2112,6355;0,015257
2113,5999;0,0152186
2114,5640;0,0152259
2115,5283;0,015292
2116,4924;0,0154129
2117,4568;0,0155635
2118,4209;0,0157045
2119,3853;0,0157965
2120,3494;0,0158169
2121,3137;0,0157699
2122,2778;0,0156857
2123,2422;0,0156069
2124,2063;0,0155716
2125,1707;0,0155984
2126,1348;0,0156819
2127,0991;0,0158
2128,0632;0,0159261
2129,0276;0,0160416
2129,9917;0,0161409
2130,9561;0,016228
2131,9202;0,0163078
2132,8845;0,0163789
2133,8486;0,0164338
2134,8130;0,0164665
2135,7771;0,0164837
2136,7415;0,0165075
2137,7056;0,0165649
2138,6699;0,0166689
2139,6340;0,0168025
2140,5984;0,0169214
2141,5625;0,0169778
2142,5269;0,016956
2143,4910;0,0168956
2144,4553;0,0168843
2145,4194;0,0170129
2146,3838;0,0173176
2147,3479;0,0177433
2148,3123;0,0181592
2149,2764;0,0184218
2150,2407;0,0184531
2151,2048;0,0182854
2152,1692;0,018048
2153,1333;0,0179033
2154,0977;0,0179685
2155,0618;0,0182652
2156,0261;0,0187144
2156,9902;0,0191755
2157,9546;0,0195109
2158,9187;0,0196444
2159,8831;0,0195749
2160,8472;0,019339
2161,8115;0,0189677
2162,7756;0,0184798
2163,7400;0,0179055
2164,7041;0,0173088
2165,6685;0,0167847
2166,6326;0,0164296
2167,5969;0,0163032
2168,5610;0,0164039
2169,5254;0,016671
2170,4895;0,0170082
2171,4539;0,0173156
2172,4180;0,0175189
2173,3823;0,0175855
2174,3464;0,017525
2175,3108;0,0173754
2176,2749;0,0171819
2177,2393;0,0169829
2178,2034;0,0168065
2179,1677;0,0166756
2180,1318;0,016609
2181,0962;0,0166131
2182,0603;0,0166698
2183,0247;0,0167332
2183,9888;0,016744
2184,9531;0,0166587
2185,9172;0,0164725
2186,8816;0,0162241
2187,8457;0,0159791
2188,8101;0,0158033
2189,7742;0,0157387
2190,7385;0,0157919
2191,7026;0,0159374
2192,6670;0,0161284
2193,6311;0,0163123
2194,5955;0,0164438
2195,5596;0,0164962
2196,5239;0,0164665
2197,4880;0,016374
2198,4524;0,016252
2199,4165;0,0161346
2200,3809;0,0160471
2201,3450;0,0160017
2202,3093;0,0160009
2203,2734;0,0160437
2204,2378;0,0161288
2205,2019;0,0162516
2206,1663;0,0163963
2207,1304;0,0165317
2208,0947;0,0166154
2209,0588;0,0166095
2210,0232;0,0165008
2210,9873;0,0163122
2211,9517;0,0160974
2212,9158;0,0159165
2213,8801;0,0158079
2214,8442;0,0157714
2215,8086;0,0157757
2216,7727;0,0157835
2217,7371;0,0157765
2218,7012;0,0157632
2219,6655;0,0157632
2220,6296;0,0157845
2221,5940;0,0158103
2222,5581;0,0158092
2223,5225;0,015758
2224,4866;0,0156613
2225,4509;0,0155497
2226,4150;0,0154599
2227,3794;0,0154091
2228,3435;0,0153886
2229,3079;0,0153734
2230,2720;0,0153428
2231,2363;0,0152942
2232,2004;0,0152415
2233,1648;0,0152016
2234,1289;0,0151823
2235,0933;0,0151807
2236,0574;0,01519
2237,0217;0,0152081
2237,9858;0,015238
2238,9502;0,0152828
2239,9143;0,015339
2240,8787;0,0153967
2241,8428;0,0154435
2242,8071;0,0154714
2243,7712;0,0154791
2244,7356;0,0154712
2245,6997;0,0154564
2246,6641;0,0154458
2247,6282;0,0154508
2248,5925;0,0154796
2249,5566;0,0155323
2250,5210;0,015598
2251,4851;0,0156592
2252,4495;0,0157007
2253,4136;0,0157179
2254,3779;0,0157184
2255,3420;0,0157147
2256,3064;0,0157137
2257,2705;0,0157128
2258,2349;0,0157047
2259,1990;0,015687
2260,1633;0,0156672
2261,1274;0,015659
2262,0918;0,0156724
2263,0559;0,015704
2264,0203;0,0157378
2264,9844;0,0157542
2265,9487;0,0157418
2266,9128;0,015704
2267,8772;0,0156549
2268,8413;0,0156099
2269,8057;0,0155765
2270,7698;0,0155525
2271,7341;0,0155305
2272,6982;0,015505
2273,6626;0,0154756
2274,6267;0,0154455
2275,5911;0,0154169
2276,5552;0,0153874
2277,5195;0,0153515
2278,4836;0,015305
2279,4480;0,0152498
2280,4121;0,0151954
2281,3765;0,0151557
2282,3406;0,0151439
2283,3049;0,0151681
2284,2690;0,0152311
2285,2334;0,0153315
2286,1975;0,0154657
2287,1619;0,0156287
2288,1260;0,0158132
2289,0903;0,0160088
2290,0544;0,0162027
2291,0188;0,0163828
2291,9829;0,0165416
2292,9473;0,0166794
2293,9114;0,0168033
2294,8757;0,0169225
2295,8398;0,0170401
2296,8042;0,0171481
2297,7683;0,0172277
2298,7327;0,0172578
2299,6968;0,0172267
2300,6611;0,0171426
2301,6252;0,0170346
2302,5896;0,0169442
2303,5537;0,0169113
2304,5181;0,0169585
2305,4822;0,0170808
2306,4465;0,0172416
2307,4106;0,0173796
2308,3750;0,0174251
2309,3391;0,0173238
2310,3035;0,0170586
2311,2676;0,0166615
2312,2319;0,016205
2313,1960;0,0157745
2314,1604;0,0154341
2315,1245;0,0152037
2316,0889;0,0150602
2317,0530;0,0149591
2318,0173;0,0148624
2318,9814;0,0147596
2319,9458;0,0146779
2320,9099;0,0146745
2321,8743;0,0148113
2322,8384;0,0151149
2323,8027;0,0155419
2324,7668;0,0159785
2325,7312;0,0162825
2326,6953;0,016346
2327,6597;0,0161481
2328,6238;0,0157734
2329,5881;0,0153856
2330,5522;0,0151585
2331,5166;0,0151893
2332,4807;0,0154475
2333,4451;0,0157971
2334,4092;0,0160803
2335,3735;0,0162079
2336,3376;0,0162057
2337,3020;0,0161934
2338,2661;0,016307
2339,2305;0,0166034
2340,1946;0,0169965
2341,1589;0,0172631
2342,1230;0,0171429
2343,0874;0,0165614
2344,0515;0,0158547
2345,0159;0,0156248
2345,9800;0,0161983
2346,9443;0,0173312
2347,9084;0,0184559
2348,8728;0,0190826
2349,8369;0,0190289
2350,8013;0,0184524
2351,7654;0,0177365
2352,7297;0,017269
2353,6938;0,0172244
2354,6582;0,0175323
2355,6223;0,0180435
2356,5867;0,0186481
2357,5508;0,0192312
2358,5151;0,0196224
2359,4792;0,019664
2360,4436;0,019323
2361,4077;0,0186993
2362,3721;0,0179298
2363,3362;0,0171083
2364,3005;0,0162826
2365,2646;0,0154822
2366,2290;0,0147267
2367,1931;0,0140177
2368,1575;0,0133437
2369,1216;0,0127018
2370,0859;0,0121115
2371,0500;0,0116113
2372,0144;0,0112431
2372,9785;0,011044
2373,9429;0,0110439
2374,9070;0,0112628
2375,8713;0,0116997
2376,8354;0,0123205
2377,7998;0,013055
2378,7639;0,0138095
2379,7283;0,0144895
2380,6924;0,0150246
2381,6567;0,0153819
2382,6208;0,0155666
2383,5852;0,0156107
2384,5493;0,0155578
2385,5137;0,0154503
2386,4778;0,0153214
2387,4421;0,0151943
2388,4063;0,0150837
2389,3706;0,0149977
2390,3347;0,0149382
2391,2991;0,0149005
2392,2632;0,0148758
2393,2275;0,014856
2394,1917;0,0148396
2395,1560;0,014833
2396,1201;0,0148468
2397,0845;0,0148874
2398,0486;0,014952
2399,0129;0,0150247
2399,9771;0,0150851
2400,9414;0,015119
2401,9055;0,0151235
2402,8699;0,0151077
2403,8340;0,0150851
2404,7983;0,0150674
2405,7625;0,015061
2406,7268;0,0150672
2407,6909;0,0150865
2408,6553;0,0151188
2409,6194;0,0151613
2410,5837;0,0152067
2411,5479;0,0152438
2412,5122;0,0152625
2413,4763;0,0152585
2414,4407;0,0152373
2415,4048;0,0152119
2416,3691;0,015197
2417,3333;0,0152032
2418,2976;0,0152325
2419,2617;0,0152784
2420,2261;0,0153288
2421,1902;0,0153693
2422,1545;0,0153899
2423,1187;0,0153881
2424,0830;0,0153706
2425,0471;0,0153507
2426,0115;0,0153426
2426,9756;0,0153546
2427,9399;0,0153853
2428,9041;0,0154251
2429,8684;0,0154613
2430,8325;0,0154855
2431,7969;0,0154967
2432,7610;0,0154996
2433,7253;0,0155006
2434,6895;0,0155027
2435,6538;0,0155057
2436,6179;0,0155079
2437,5823;0,0155099
2438,5464;0,0155145
2439,5107;0,0155247
2440,4749;0,0155405
2441,4392;0,0155581
2442,4033;0,0155729
2443,3677;0,0155837
2444,3318;0,0155944
2445,2961;0,0156116
2446,2603;0,01564
2447,2246;0,0156782
2448,1887;0,015718
2449,1531;0,0157486
2450,1172;0,0157622
2451,0815;0,0157579
2452,0457;0,0157428
2453,0100;0,0157281
2453,9741;0,0157243
2454,9385;0,015736
2455,9026;0,0157603
2456,8669;0,0157889
2457,8311;0,0158141
2458,7954;0,0158342
2459,7595;0,015855
2460,7239;0,0158861
2461,6880;0,0159332
2462,6523;0,0159926
2463,6165;0,0160515
2464,5808;0,016094
2465,5449;0,0161102
2466,5093;0,0161006
2467,4734;0,016075
2468,4377;0,0160464
2469,4019;0,0160246
2470,3662;0,0160139
2471,3303;0,0160152
2472,2947;0,0160282
2473,2588;0,016053
2474,2231;0,0160888
2475,1873;0,0161322
2476,1516;0,0161763
2477,1157;0,0162124
2478,0801;0,0162317
2479,0442;0,0162292
2480,0085;0,0162053
2480,9727;0,0161674
2481,9370;0,0161284
2482,9011;0,0161029
2483,8655;0,0161016
2484,8296;0,0161267
2485,7939;0,0161706
2486,7581;0,0162199
2487,7224;0,0162613
2488,6865;0,0162875
2489,6509;0,0162991
2490,6150;0,0163024
2491,5793;0,0163055
2492,5435;0,016315
2493,5078;0,0163345
2494,4719;0,0163649
2495,4363;0,0164039
2496,4004;0,0164462
2497,3647;0,0164833
2498,3289;0,0165063
2499,2932;0,0165089
2500,2573;0,016492
2501,2217;0,0164642
2502,1858;0,0164388
2503,1501;0,0164279
2504,1143;0,0164366
2505,0786;0,0164608
2506,0427;0,01649
2507,0071;0,0165134
2507,9712;0,0165259
2508,9355;0,0165296
2509,8997;0,0165308
2510,8640;0,0165346
2511,8281;0,0165416
2512,7925;0,0165482
2513,7566;0,0165503
2514,7209;0,016547
2515,6851;0,0165417
2516,6494;0,0165392
2517,6135;0,0165421
2518,5779;0,0165488
2519,5420;0,0165553
2520,5063;0,0165599
2521,4705;0,0165651
2522,4348;0,016577
2523,3989;0,0166008
2524,3633;0,0166361
2525,3274;0,0166761
2526,2917;0,0167109
2527,2559;0,0167329
2528,2202;0,0167402
2529,1843;0,016736
2530,1487;0,0167251
2531,1128;0,0167106
2532,0771;0,0166935
2533,0413;0,0166747
2534,0056;0,0166587
2534,9697;0,0166523
2535,9341;0,0166619
2536,8982;0,0166881
2537,8625;0,0167244
2538,8267;0,0167592
2539,7910;0,0167817
2540,7551;0,016787
2541,7195;0,0167769
2542,6836;0,0167571
2543,6479;0,0167331
2544,6121;0,0167083
2545,5764;0,0166856
2546,5405;0,0166697
2547,5049;0,016667
2548,4690;0,0166833
2549,4333;0,0167185
2550,3975;0,0167644
2551,3618;0,0168069
2552,3259;0,0168325
2553,2903;0,016835
2554,2544;0,0168187
2555,2188;0,0167957
2556,1829;0,0167795
2557,1472;0,0167788
2558,1113;0,0167947
2559,0757;0,0168221
2560,0398;0,0168534
2561,0042;0,0168812
2561,9683;0,0168998
2562,9326;0,0169047
2563,8967;0,0168936
2564,8611;0,0168674
2565,8252;0,016832
2566,7896;0,0167977
2567,7537;0,0167763
2568,7180;0,0167765
2569,6821;0,0167997
2570,6465;0,0168392
2571,6106;0,0168836
2572,5750;0,0169207
2573,5391;0,016943
2574,5034;0,016948
2575,4675;0,0169381
2576,4319;0,0169179
2577,3960;0,0168933
2578,3604;0,016871
2579,3245;0,0168589
2580,2888;0,0168644
2581,2529;0,0168911
2582,2173;0,0169355
2583,1814;0,0169865
2584,1458;0,0170291
2585,1099;0,0170511
2586,0742;0,0170484
2587,0383;0,0170269
2588,0027;0,0169992
2588,9668;0,0169784
2589,9312;0,0169734
2590,8953;0,0169861
2591,8596;0,0170123
2592,8237;0,0170433
2593,7881;0,0170696
2594,7522;0,0170828
2595,7166;0,0170797
2596,6807;0,0170635
2597,6450;0,0170441
2598,6091;0,017034
2599,5735;0,017043
2600,5376;0,0170734
2601,5020;0,0171187
2602,4661;0,0171676
2603,4304;0,0172091
2604,3945;0,0172369
2605,3589;0,0172513
2606,3230;0,0172562
2607,2874;0,0172559
2608,2515;0,0172528
2609,2158;0,0172467
2610,1799;0,017237
2611,1443;0,017225
2612,1084;0,0172155
2613,0728;0,0172159
2614,0369;0,0172327
2615,0012;0,0172685
2615,9653;0,0173186
2616,9297;0,0173727
2617,8938;0,0174186
2618,8582;0,0174484
2619,8223;0,017461
2620,7866;0,0174623
2621,7507;0,0174609
2622,7151;0,0174641
2623,6792;0,017475
2624,6436;0,0174932
2625,6077;0,0175163
2626,5720;0,0175412
2627,5361;0,0175646
2628,5005;0,0175829
2629,4646;0,0175933
2630,4290;0,0175955
2631,3931;0,0175931
2632,3574;0,0175928
2633,3215;0,0176015
2634,2859;0,0176226
2635,2500;0,0176545
2636,2144;0,0176916
2637,1785;0,0177282
2638,1428;0,017761
2639,1069;0,0177907
2640,0713;0,0178204
2641,0354;0,0178524
2641,9998;0,0178862
2642,9639;0,0179182
2643,9282;0,017943
2644,8923;0,0179565
2645,8567;0,0179584
2646,8208;0,0179529
2647,7852;0,0179469
2648,7493;0,0179474
2649,7136;0,0179581
2650,6777;0,0179782
2651,6421;0,0180034
2652,6062;0,0180287
2653,5706;0,0180514
2654,5347;0,0180717
2655,4990;0,0180926
2656,4631;0,0181169
2657,4275;0,0181459
2658,3916;0,0181788
2659,3560;0,0182135
2660,3201;0,0182472
2661,2844;0,0182775
2662,2485;0,0183015
2663,2129;0,0183173
2664,1770;0,0183256
2665,1414;0,0183306
2666,1055;0,0183397
2667,0698;0,0183605
2668,0339;0,0183956
2668,9983;0,0184408
2669,9624;0,0184854
2670,9268;0,0185181
2671,8909;0,0185326
2672,8552;0,0185311
2673,8193;0,0185226
2674,7837;0,0185179
2675,7478;0,018524
2676,7122;0,018542
2677,6763;0,0185682
2678,6406;0,0185975
2679,6047;0,0186267
2680,5691;0,0186549
2681,5332;0,0186829
2682,4976;0,0187116
2683,4617;0,0187415
2684,4260;0,0187722
2685,3901;0,0188037
2686,3545;0,0188359
2687,3186;0,0188689
2688,2830;0,0189023
2689,2471;0,0189351
2690,2114;0,0189652
2691,1755;0,0189907
2692,1399;0,0190103
2693,1040;0,0190248
2694,0684;0,0190368
2695,0325;0,0190503
2695,9968;0,0190677
2696,9609;0,0190888
2697,9253;0,01911
2698,8894;0,0191263
2699,8538;0,0191355
2700,8179;0,0191397
2701,7822;0,0191459
2702,7463;0,0191618
2703,7107;0,0191921
2704,6748;0,0192354
2705,6392;0,0192846
2706,6033;0,0193313
2707,5676;0,01937
2708,5317;0,0193999
2709,4961;0,0194247
2710,4602;0,019449
2711,4246;0,0194755
2712,3887;0,0195038
2713,3530;0,019532
2714,3171;0,0195576
2715,2815;0,0195795
2716,2456;0,0195975
2717,2100;0,0196121
2718,1741;0,0196247
2719,1384;0,0196373
2720,1025;0,0196525
2721,0669;0,0196726
2722,0310;0,0196983
2722,9954;0,0197272
2723,9595;0,019756
2724,9238;0,0197819
2725,8879;0,0198046
2726,8523;0,0198269
2727,8164;0,019852
2728,7808;0,019881
2729,7449;0,0199125
2730,7092;0,019943
2731,6733;0,0199699
2732,6377;0,0199926
2733,6018;0,0200127
2734,5662;0,0200313
2735,5303;0,0200489
2736,4946;0,0200645
2737,4587;0,0200776
2738,4231;0,020089
2739,3872;0,0201014
2740,3516;0,0201174
2741,3157;0,0201379
2742,2800;0,0201618
2743,2441;0,0201858
2744,2085;0,0202064
2745,1726;0,0202214
2746,1370;0,0202309
2747,1011;0,0202378
2748,0654;0,0202462
2749,0295;0,0202599
2749,9939;0,0202801
2750,9580;0,0203049
2751,9224;0,0203303
2752,8865;0,0203532
2753,8508;0,0203735
2754,8149;0,020395
2755,7793;0,0204225
2756,7434;0,0204585
2757,7078;0,0205014
2758,6719;0,0205456
2759,6362;0,0205847
2760,6003;0,0206145
2761,5647;0,020634
2762,5288;0,0206454
2763,4932;0,0206526
2764,4573;0,0206603
2765,4216;0,020674
2766,3857;0,0206988
2767,3501;0,0207382
2768,3142;0,0207916
2769,2786;0,0208531
2770,2427;0,0209124
2771,2070;0,020959
2772,1711;0,0209865
2773,1355;0,0209965
2774,0996;0,0209979
2775,0640;0,0210037
2776,0281;0,0210254
2776,9924;0,0210684
2777,9565;0,0211298
2778,9209;0,0211997
2779,8850;0,0212659
2780,8494;0,0213184
2781,8135;0,0213534
2782,7778;0,0213739
2783,7419;0,0213879
2784,7063;0,0214051
2785,6704;0,0214323
2786,6348;0,0214719
2787,5989;0,0215212
2788,5632;0,0215746
2789,5273;0,0216268
2790,4917;0,0216758
2791,4558;0,0217231
2792,4202;0,0217725
2793,3843;0,0218269
2794,3486;0,0218859
2795,3127;0,021947
2796,2771;0,0220075
2797,2412;0,0220669
2798,2056;0,0221278
2799,1697;0,0221932
2800,1340;0,0222642
2801,0981;0,0223383
2802,0625;0,0224115
2803,0266;0,0224808
2803,9910;0,0225463
2804,9551;0,0226108
2805,9194;0,0226779
2806,8835;0,0227498
2807,8479;0,0228269
2808,8120;0,0229083
2809,7764;0,0229928
2810,7405;0,0230785
2811,7048;0,023163
2812,6689;0,0232442
2813,6333;0,0233219
2814,5974;0,0233991
2815,5618;0,0234815
2816,5259;0,0235747
2817,4902;0,0236808
2818,4543;0,0237973
2819,4187;0,0239189
2820,3828;0,0240412
2821,3472;0,0241627
2822,3113;0,0242842
2823,2756;0,024407
2824,2397;0,0245309
2825,2041;0,0246549
2826,1682;0,0247796
2827,1326;0,0249089
2828,0967;0,0250492
2829,0610;0,0252063
2830,0251;0,0253824
2830,9895;0,0255751
2831,9536;0,0257785
2832,9180;0,0259853
2833,8821;0,0261894
2834,8464;0,0263873
2835,8105;0,026579
2836,7749;0,0267688
2837,7390;0,026966
2838,7034;0,0271829
2839,6675;0,0274308
2840,6318;0,0277153
2841,5959;0,0280332
2842,5603;0,0283746
2843,5244;0,0287267
2844,4888;0,0290787
2845,4529;0,0294239
2846,4172;0,0297574
2847,3813;0,0300718
2848,3457;0,0303548
2849,3098;0,0305913
2850,2742;0,0307686
2851,2383;0,0308827
2852,2026;0,0309406
2853,1667;0,0309585
2854,1311;0,0309547
2855,0952;0,0309437
2856,0596;0,0309325
2857,0237;0,0309215
2857,9880;0,0309087
2858,9521;0,0308949
2859,9165;0,0308861
2860,8806;0,0308929
2861,8450;0,0309257
2862,8091;0,0309905
2863,7734;0,0310857
2864,7375;0,0312025
2865,7019;0,0313292
2866,6660;0,0314553
2867,6304;0,0315744
2868,5945;0,0316838
2869,5588;0,0317824
2870,5229;0,0318685
2871,4873;0,0319397
2872,4514;0,0319953
2873,4158;0,0320383
2874,3799;0,0320752
2875,3442;0,032113
2876,3083;0,0321561
2877,2727;0,032204
2878,2368;0,0322525
2879,2012;0,0322971
2880,1653;0,0323366
2881,1296;0,0323738
2882,0938;0,032414
2883,0581;0,032462
2884,0222;0,032519
2884,9866;0,0325825
2885,9507;0,0326481
2886,9150;0,0327121
2887,8792;0,0327741
2888,8435;0,0328371
2889,8076;0,0329056
2890,7720;0,0329828
2891,7361;0,0330682
2892,7004;0,0331576
2893,6646;0,0332451
2894,6289;0,0333264
2895,5930;0,0334006
2896,5574;0,0334702
2897,5215;0,0335381
2898,4858;0,0336056
2899,4500;0,0336712
2900,4143;0,0337326
2901,3784;0,0337889
2902,3428;0,0338433
2903,3069;0,033902
2904,2712;0,0339723
2905,2354;0,0340588
2906,1997;0,0341616
2907,1638;0,0342765
2908,1282;0,0343974
2909,0923;0,0345199
2910,0566;0,0346437
2911,0208;0,034773
2911,9851;0,0349128
2912,9492;0,035066
2913,9136;0,035229
2914,8777;0,0353919
2915,8420;0,0355409
2916,8062;0,0356631
2917,7705;0,03575
2918,7346;0,0357992
2919,6990;0,0358128
2920,6631;0,0357955
2921,6274;0,0357523
2922,5916;0,0356872
2923,5559;0,0356022
2924,5200;0,035497
2925,4844;0,0353689
2926,4485;0,0352148
2927,4128;0,0350338
2928,3770;0,0348299
2929,3413;0,034612
2930,3054;0,0343908
2931,2698;0,034175
2932,2339;0,0339688
2933,1982;0,0337718
2934,1624;0,0335809
2935,1267;0,0333923
2936,0908;0,0332021
2937,0552;0,0330057
2938,0193;0,0327991
2938,9836;0,0325799
2939,9478;0,0323497
2940,9121;0,0321133
2941,8762;0,0318775
2942,8406;0,0316473
2943,8047;0,0314251
2944,7690;0,0312114
2945,7332;0,0310075
2946,6975;0,0308168
2947,6616;0,0306435
2948,6260;0,0304897
2949,5901;0,0303534
2950,5544;0,030229
2951,5186;0,0301102
2952,4829;0,0299929
2953,4470;0,0298756
2954,4114;0,0297579
2955,3755;0,0296385
2956,3398;0,0295144
2957,3040;0,0293826
2958,2683;0,0292423
2959,2324;0,0290956
2960,1968;0,0289467
2961,1609;0,0287986
2962,1252;0,0286519
2963,0894;0,028505
2964,0537;0,0283557
2965,0178;0,0282038
2965,9822;0,0280501
2966,9463;0,0278957
2967,9106;0,0277391
2968,8748;0,0275761
2969,8391;0,0274026
2970,8032;0,027218
2971,7676;0,0270277
2972,7317;0,0268425
2973,6960;0,0266739
2974,6602;0,0265284
2975,6245;0,0264046
2976,5886;0,0262935
2977,5530;0,0261844
2978,5171;0,0260698
2979,4814;0,0259487
2980,4456;0,0258259
2981,4099;0,0257086
2982,3740;0,0256024
2983,3384;0,02551
2984,3025;0,0254312
2985,2668;0,0253642
2986,2310;0,0253067
2987,1953;0,0252566
2988,1594;0,0252117
2989,1238;0,0251709
2990,0879;0,0251344
2991,0522;0,0251037
2992,0164;0,0250807
2992,9807;0,0250664
2993,9448;0,0250599
2994,9092;0,0250592
2995,8733;0,0250633
2996,8376;0,025073
2997,8018;0,0250906
2998,7661;0,0251167
2999,7302;0,0251492
3000,6946;0,0251826
3001,6587;0,0252112
3002,6230;0,0252329
3003,5872;0,0252511
3004,5515;0,0252731
3005,5156;0,0253057
3006,4800;0,0253501
3007,4441;0,0254008
3008,4084;0,0254479
3009,3726;0,0254824
3010,3369;0,0255007
3011,3010;0,0255061
3012,2654;0,0255065
3013,2295;0,0255105
3014,1938;0,025523
3015,1580;0,0255444
3016,1223;0,0255716
3017,0864;0,025601
3018,0508;0,0256307
3019,0149;0,0256622
3019,9792;0,0256996
3020,9434;0,0257477
3021,9077;0,0258096
3022,8718;0,025886
3023,8362;0,0259744
3024,8003;0,0260715
3025,7646;0,0261737
3026,7288;0,0262781
3027,6931;0,0263807
3028,6572;0,0264762
3029,6216;0,026558
3030,5857;0,0266208
3031,5500;0,026664
3032,5142;0,0266932
3033,4785;0,0267188
3034,4426;0,0267519
3035,4070;0,0267995
3036,3711;0,0268624
3037,3354;0,0269361
3038,2996;0,0270132
3039,2639;0,0270872
3040,2280;0,0271559
3041,1924;0,0272223
3042,1565;0,0272943
3043,1208;0,027381
3044,0850;0,0274874
3045,0493;0,0276104
3046,0134;0,0277389
3046,9778;0,0278576
3047,9419;0,027955
3048,9063;0,0280292
3049,8704;0,0280893
3050,8347;0,0281499
3051,7988;0,0282236
3052,7632;0,0283152
3053,7273;0,0284207
3054,6917;0,0285317
3055,6558;0,0286411
3056,6201;0,0287462
3057,5842;0,0288487
3058,5486;0,0289521
3059,5127;0,0290587
3060,4771;0,0291674
3061,4412;0,0292747
3062,4055;0,0293758
3063,3696;0,029466
3064,3340;0,0295432
3065,2981;0,0296084
3066,2625;0,0296664
3067,2266;0,0297248
3068,1909;0,029791
3069,1550;0,0298706
3070,1194;0,0299654
3071,0835;0,030074
3072,0479;0,0301928
3073,0120;0,0303177
3073,9763;0,0304446
3074,9404;0,0305698
3075,9048;0,0306893
3076,8689;0,0307989
3077,8333;0,030894
3078,7974;0,0309721
3079,7617;0,0310341
3080,7258;0,0310859
3081,6902;0,0311373
3082,6543;0,0311985
3083,6187;0,031275
3084,5828;0,0313654
3085,5471;0,0314615
3086,5112;0,0315541
3087,4756;0,0316388
3088,4397;0,0317195
3089,4041;0,031807
3090,3682;0,0319125
3091,3325;0,0320408
3092,2966;0,0321872
3093,2610;0,0323402
3094,2251;0,0324864
3095,1895;0,0326171
3096,1536;0,0327299
3097,1179;0,0328276
3098,0820;0,0329148
3099,0464;0,0329955
3100,0105;0,0330735
3100,9749;0,0331523
3101,9390;0,0332361
3102,9033;0,0333277
3103,8674;0,0334273
3104,8318;0,0335317
3105,7959;0,0336365
3106,7603;0,0337395
3107,7244;0,0338427
3108,6887;0,033952
3109,6528;0,0340731
3110,6172;0,034207
3111,5813;0,0343475
3112,5457;0,0344833
3113,5098;0,0346041
3114,4741;0,0347069
3115,4382;0,0347979
3116,4026;0,0348901
3117,3667;0,034995
3118,3311;0,0351174
3119,2952;0,0352528
3120,2595;0,0353919
3121,2236;0,035526
3122,1880;0,0356508
3123,1521;0,0357664
3124,1165;0,0358748
3125,0806;0,0359783
3126,0449;0,0360796
3127,0090;0,0361831
3127,9734;0,0362947
3128,9375;0,0364194
3129,9019;0,0365576
3130,8660;0,0367036
3131,8303;0,0368484
3132,7944;0,0369847
3133,7588;0,0371114
3134,7229;0,0372336
3135,6873;0,0373581
3136,6514;0,0374877
3137,6157;0,0376183
3138,5798;0,0377421
3139,5442;0,0378529
3140,5083;0,0379517
3141,4727;0,0380478
3142,4368;0,0381546
3143,4011;0,0382835
3144,3652;0,0384378
3145,3296;0,0386122
3146,2937;0,0387946
3147,2581;0,0389718
3148,2222;0,0391336
3149,1865;0,0392762
3150,1506;0,0394018
3151,1150;0,0395178
3152,0791;0,0396332
3153,0435;0,0397559
3154,0076;0,0398906
3154,9719;0,0400379
3155,9360;0,040195
3156,9004;0,0403576
3157,8645;0,0405214
3158,8289;0,0406824
3159,7930;0,0408378
3160,7573;0,040986
3161,7214;0,0411278
3162,6858;0,0412671
3163,6499;0,04141
3164,6143;0,0415615
3165,5784;0,0417226
3166,5427;0,0418877
3167,5068;0,0420474
3168,4712;0,0421938
3169,4353;0,0422226
3170,3997;0,0423498
3171,3638;0,0424853
3172,3281;0,0426386
3173,2922;0,04281
3174,2566;0,0429902
3175,2207;0,0431656
3176,1851;0,0433258
3177,1492;0,0434688
3178,1135;0,0436008
3179,0776;0,0437311
3180,0420;0,0438668
3181,0061;0,044009
3181,9705;0,044155
3182,9346;0,0443013
3183,8989;0,0444471
3184,8630;0,0445945
3185,8274;0,044746
3186,7915;0,0449018
3187,7559;0,0450584
3188,7200;0,0452113
3189,6843;0,0453585
3190,6484;0,0455027
3191,6128;0,0456504
3192,5769;0,045807
3193,5413;0,0459719
3194,5054;0,0461373
3195,4697;0,0462917
3196,4338;0,0464261
3197,3982;0,0465402
3198,3623;0,0466426
3199,3267;0,0467463
3200,2908;0,0468624
3201,2551;0,0469952
3202,2192;0,0471422
3203,1836;0,047297
3204,1477;0,0474528
3205,1121;0,0476042
3206,0762;0,0477483
3207,0405;0,0478847
3208,0046;0,0480164
3208,9690;0,0481489
3209,9331;0,0482882
3210,8975;0,0484375
3211,8616;0,0485942
3212,8259;0,0487496
3213,7900;0,0488927
3214,7544;0,0490155
3215,7185;0,0491176
3216,6829;0,0492071
3217,6470;0,0492973
3218,6113;0,0494017
3219,5754;0,0495279
3220,5398;0,0496746
3221,5039;0,0498314
3222,4683;0,0499841
3223,4324;0,0501205
3224,3967;0,0502369
3225,3608;0,0503405
3226,3252;0,0504455
3227,2893;0,0505656
3228,2537;0,050706
3229,2178;0,0508609
3230,1821;0,0510167
3231,1462;0,0511606
3232,1106;0,0512869
3233,0747;0,0513986
3234,0391;0,0515033
3235,0032;0,0516083
3235,9675;0,0517179
3236,9316;0,0518343
3237,8960;0,0519605
3238,8601;0,0521005
3239,8245;0,0522562
3240,7886;0,0524233
3241,7529;0,0525904
3242,7170;0,0527437
3243,6814;0,0528742
3244,6455;0,0529835
3245,6099;0,0530841
3246,5740;0,053193
3247,5383;0,0533222
3248,5024;0,0534741
3249,4668;0,0536417
3250,4309;0,0538142
3251,3953;0,0539828
3252,3594;0,0541436
3253,3237;0,0542968
3254,2878;0,0544441
3255,2522;0,0545873
3256,2163;0,0547278
3257,1807;0,0548675
3258,1448;0,0550094
3259,1091;0,0551561
3260,0732;0,0553079
3261,0376;0,0554617
3262,0017;0,0556124
3262,9661;0,0557557
3263,9302;0,0558922
3264,8945;0,0560267
3265,8586;0,0561651
3266,8230;0,0563096
3267,7871;0,0564559
3268,7515;0,0565946
3269,7156;0,056716
3270,6799;0,056815
3271,6440;0,0568935
3272,6084;0,0569581
3273,5725;0,0570156
3274,5369;0,0570703
3275,5010;0,0571235
3276,4653;0,0571766
3277,4294;0,0572321
3278,3938;0,0572937
3279,3579;0,0573624
3280,3223;0,0574341
3281,2864;0,0575002
3282,2507;0,0575517
3283,2148;0,0575848
3284,1792;0,0576037
3285,1433;0,0576181
3286,1077;0,0576372
3287,0718;0,0576628
3288,0361;0,0576891
3289,0002;0,0577057
3289,9646;0,0577062
3290,9287;0,057693
3291,8931;0,0576778
3292,8572;0,0576738
3293,8215;0,0576887
3294,7856;0,0577193
3295,7500;0,0577541
3296,7141;0,0577799
3297,6785;0,0577887
3298,6426;0,0577804
3299,6069;0,0577608
3300,5710;0,0577379
3301,5354;0,0577189
3302,4995;0,0577087
3303,4639;0,0577097
3304,4280;0,0577211
3305,3923;0,0577377
3306,3564;0,0577508
3307,3208;0,0577517
3308,2849;0,0577366
3309,2493;0,0577101
3310,2134;0,057684
3311,1777;0,0576717
3312,1418;0,0576818
3313,1062;0,057714
3314,0703;0,0577602
3315,0347;0,0578091
3315,9988;0,0578512
3316,9631;0,0578839
3317,9272;0,0579121
3318,8916;0,0579461
3319,8557;0,0579966
3320,8201;0,0580686
3321,7842;0,0581575
3322,7485;0,0582491
3323,7126;0,0583258
3324,6770;0,0583756
3325,6411;0,0583992
3326,6055;0,0584106
3327,5696;0,0584299
3328,5339;0,058473
3329,4980;0,0585433
3330,4624;0,0586302
3331,4265;0,0587152
3332,3909;0,0587805
3333,3550;0,0588164
3334,3193;0,0588228
3335,2834;0,0588062
3336,2478;0,0587744
3337,2119;0,0587324
3338,1763;0,0586802
3339,1404;0,0586148
3340,1047;0,0585331
3341,0688;0,0584346
3342,0332;0,0583221
3342,9973;0,0582015
3343,9617;0,0580799
3344,9258;0,0579638
3345,8901;0,0578578
3346,8542;0,0577641
3347,8186;0,0576818
3348,7827;0,0576072
3349,7471;0,0575338
3350,7112;0,0574534
3351,6755;0,0573585
3352,6396;0,0572451
3353,6040;0,0571142
3354,5681;0,0569729
3355,5325;0,0568321
3356,4966;0,056702
3357,4609;0,0565882
3358,4250;0,0564894
3359,3894;0,056399
3360,3535;0,0563092
3361,3179;0,0562149
3362,2820;0,0561151
3363,2463;0,0560107
3364,2104;0,0559013
3365,1748;0,0557837
3366,1389;0,0556534
3367,1033;0,0555083
3368,0674;0,0553516
3369,0317;0,0551907
3369,9958;0,0550332
3370,9602;0,0548837
3371,9243;0,0547428
3372,8887;0,0546093
3373,8528;0,0544825
3374,8171;0,054364
3375,7813;0,0542555
3376,7456;0,0541575
3377,7097;0,054067
3378,6741;0,0539784
3379,6382;0,0538842
3380,6025;0,0537768
3381,5667;0,0536498
3382,5310;0,0535012
3383,4951;0,053336
3384,4595;0,0531679
3385,4236;0,0530154
3386,3879;0,0528938
3387,3521;0,0528064
3388,3164;0,052742
3389,2805;0,052681
3390,2449;0,0526053
3391,2090;0,0525082
3392,1733;0,0523948
3393,1375;0,0522763
3394,1018;0,0521592
3395,0659;0,0520416
3396,0303;0,051916
3396,9944;0,0517778
3397,9587;0,0516297
3398,9229;0,0514805
3399,8872;0,051338
3400,8513;0,0512032
3401,8157;0,0510706
3402,7798;0,0509325
3403,7441;0,0507855
3404,7083;0,0506323
3405,6726;0,0504803
3406,6367;0,0503371
3407,6011;0,0502068
3408,5652;0,0500873
3409,5295;0,0499704
3410,4937;0,0498438
3411,4580;0,049697
3412,4221;0,0495274
3413,3865;0,0493454
3414,3506;0,0491706
3415,3149;0,0490215
3416,2791;0,0489046
3417,2434;0,0488069
3418,2075;0,0487012
3419,1719;0,0485595
3420,1360;0,0483696
3421,1003;0,0481425
3422,0645;0,0479053
3423,0288;0,0476846
3423,9929;0,0474931
3424,9573;0,0473263
3425,9214;0,0471694
3426,8857;0,0470076
3427,8499;0,046833
3428,8142;0,0466465
3429,7783;0,0464542
3430,7427;0,0462633
3431,7068;0,0460783
3432,6711;0,0458997
3433,6353;0,0457251
3434,5996;0,0455507
3435,5637;0,0453732
3436,5281;0,0451906
3437,4922;0,0450042
3438,4565;0,0448197
3439,4207;0,0446475
3440,3850;0,0444988
3441,3491;0,0443798
3442,3135;0,0442845
3443,2776;0,0441912
3444,2419;0,0440672
3445,2061;0,0438826
3446,1704;0,0436261
3447,1345;0,0433158
3448,0989;0,0429928
3449,0630;0,0427002
3450,0273;0,0424607
3450,9915;0,0422702
3451,9558;0,0421079
3452,9199;0,0419523
3453,8843;0,0417939
3454,8484;0,0416376
3455,8127;0,041494
3456,7769;0,0413671
3457,7412;0,0412465
3458,7053;0,0411114
3459,6697;0,0409418
3460,6338;0,0407319
3461,5981;0,0404939
3462,5623;0,0402512
3463,5266;0,0400236
3464,4907;0,039816
3465,4551;0,0396182
3466,4192;0,0394162
3467,3835;0,039206
3468,3477;0,0389983
3469,3120;0,0388116
3470,2761;0,0386561
3471,2405;0,0385236
3472,2046;0,0383909
3473,1689;0,0382351
3474,1331;0,0380507
3475,0974;0,0378547
3476,0615;0,0376739
3477,0259;0,0375245
3477,9900;0,0373993
3478,9543;0,0372731
3479,9185;0,0371197
3480,8828;0,0369318
3481,8469;0,036727
3482,8113;0,036534
3483,7754;0,0363693
3484,7397;0,0362243
3485,7039;0,0360721
3486,6682;0,0358871
3487,6323;0,0356645
3488,5967;0,0354253
3489,5608;0,035204
3490,5251;0,0350248
3491,4893;0,0348863
3492,4536;0,0347626
3493,4177;0,03462
3494,3821;0,0344412
3495,3462;0,0342411
3496,3105;0,0340623
3497,2747;0,0339486
3498,2390;0,0339131
3499,2031;0,0339222
3500,1675;0,0339055
3501,1316;0,0337884
3502,0959;0,0335364
3503,0601;0,0331861
3504,0244;0,0328284
3504,9885;0,0325505
3505,9529;0,0323822
3506,9170;0,0322877
3507,8813;0,0321949
3508,8455;0,0320403
3509,8098;0,0318048
3510,7739;0,0315213
3511,7383;0,0312477
3512,7024;0,0310261
3513,6667;0,0308634
3514,6309;0,0307405
3515,5952;0,0306344
3516,5593;0,0305369
3517,5237;0,0304551
3518,4878;0,0304
3519,4521;0,0303712
3520,4163;0,0303516
3521,3806;0,0303151
3522,3447;0,0302387
3523,3091;0,0301127
3524,2732;0,0299381
3525,2375;0,0297164
3526,2017;0,029444
3527,1660;0,0291196
3528,1301;0,0287602
3529,0945;0,0284076
3530,0586;0,028114
3531,0229;0,0279131
3531,9871;0,0278015
3532,9514;0,0277395
3533,9155;0,0276702
3534,8799;0,0275452
3535,8440;0,0273497
3536,8083;0,0271132
3537,7725;0,0268966
3538,7368;0,0267606
3539,7009;0,0267341
3540,6653;0,0268025
3541,6294;0,026912
3542,5938;0,0269838
3543,5579;0,0269388
3544,5222;0,0267357
3545,4863;0,0264054
3546,4507;0,0260428
3547,4148;0,0257444
3548,3792;0,0255463
3549,3433;0,0254146
3550,3076;0,0252804
3551,2717;0,0250863
3552,2361;0,0248226
3553,2002;0,0245335
3554,1646;0,0242845
3555,1287;0,024116
3556,0930;0,0240228
3557,0571;0,0239716
3558,0215;0,0239351
3558,9856;0,0239164
3559,9500;0,0239485
3560,9141;0,0240655
3561,8784;0,0242663
3562,8425;0,0244918
3563,8069;0,0246244
3564,7710;0,0245066
3565,7354;0,0240137
3566,6995;0,0231923
3567,6638;0,0223161
3568,6279;0,0216924
3569,5923;0,0214286
3570,5564;0,0214287
3571,5208;0,0215299
3572,4849;0,0216062
3573,4492;0,0216004
3574,4133;0,0215145
3575,3777;0,0213806
3576,3418;0,0212309
3577,3062;0,021083
3578,2703;0,0209506
3579,2346;0,020861
3580,1987;0,0208561
3581,1631;0,0209682
3582,1272;0,0211889
3583,0916;0,0214553
3584,0557;0,0216559
3585,0200;0,0216542
3585,9841;0,0213484
3586,9485;0,0207852
3587,9126;0,020211
3588,8770;0,0199046
3589,8411;0,0199547
3590,8054;0,0202433
3591,7695;0,020574
3592,7339;0,0207823
3593,6980;0,0207923
3594,6624;0,0206357
3595,6265;0,0204163
3596,5908;0,020223
3597,5549;0,0200645
3598,5193;0,0198868
3599,4834;0,0196466
3600,4478;0,0193694
3601,4119;0,0191379
3602,3762;0,0190218
3603,3403;0,019017
3604,3047;0,0190466
3605,2688;0,0190034
3606,2332;0,0187986
3607,1973;0,0184083
3608,1616;0,0178973
3609,1257;0,0173888
3610,0901;0,0169924
3611,0542;0,016758
3612,0186;0,016684
3612,9827;0,0167419
3613,9470;0,0168847
3614,9111;0,0170433
3615,8755;0,0171284
3616,8396;0,0170541
3617,8040;0,0167837
3618,7681;0,0163894
3619,7324;0,0160627
3620,6965;0,016006
3621,6609;0,0162819
3622,6250;0,0167842
3623,5894;0,017326
3624,5535;0,0177276
3625,5178;0,0178447
3626,4819;0,0175631
3627,4463;0,016832
3628,4104;0,0158018
3629,3748;0,0148673
3630,3389;0,0143545
3631,3032;0,0142434
3632,2673;0,0142978
3633,2317;0,0143083
3634,1958;0,0141937
3635,1602;0,0139841
3636,1243;0,0137535
3637,0886;0,0135539
3638,0527;0,0133907
3639,0171;0,0132473
3639,9812;0,013126
3640,9456;0,013062
3641,9097;0,0130995
3642,8740;0,0132521
3643,8381;0,0134835
3644,8025;0,0137133
3645,7666;0,0138191
3646,7310;0,0136121
3647,6951;0,012871
3648,6594;0,0116277
3649,6235;0,0104249
3650,5879;0,00983104
3651,5520;0,00987033
3652,5164;0,010201
3653,4805;0,0104865
3654,4448;0,0105449
3655,4089;0,0103656
3656,3733;0,0100776
3657,3374;0,00985647
3658,3018;0,00979539
3659,2659;0,00985621
3660,2302;0,00994232
3661,1943;0,00999856
3662,1587;0,0100489
3663,1228;0,0101571
3664,0872;0,0103535
3665,0513;0,0105962
3666,0156;0,0107909
3666,9797;0,0108428
3667,9441;0,0107089
3668,9082;0,0104444
3669,8726;0,0102045
3670,8367;0,0101261
3671,8010;0,0101905
3672,7651;0,0102399
3673,7295;0,0100994
3674,6936;0,00969995
3675,6580;0,00917538
3676,6221;0,00880966
3677,5864;0,00877776
3678,5505;0,00901235
3679,5149;0,00934405
3680,4790;0,00966391
3681,4434;0,00995996
3682,4075;0,0102653
3683,3718;0,010591
3684,3359;0,0108974
3685,3003;0,0111122
3686,2644;0,011166
3687,2288;0,0110184
3688,1929;0,010685
3689,1572;0,0102851
3690,1213;0,0100211
3691,0857;0,0100228
3692,0498;0,0102547
3693,0142;0,0105984
3693,9783;0,0109587
3694,9426;0,0112919
3695,9067;0,0115834
3696,8711;0,0118174
3697,8352;0,0119658
3698,7996;0,0119984
3699,7637;0,0119071
3700,7280;0,0117316
3701,6921;0,0115658
3702,6565;0,0115204
3703,6206;0,011655
3704,5850;0,0119438
3705,5491;0,0122994
3706,5134;0,0126161
3707,4775;0,0127848
3708,4419;0,0126808
3709,4060;0,0121764
3710,3704;0,0112615
3711,3345;0,0101999
3712,2988;0,00941926
3713,2629;0,00916953
3714,2273;0,00940383
3715,1914;0,00993094
3716,1558;0,0105711
3717,1199;0,0112117
3718,0842;0,0118012
3719,0483;0,012323
3720,0127;0,012774
3720,9768;0,0131498
3721,9412;0,0134385
3722,9053;0,0136263
3723,8696;0,013712
3724,8337;0,0137247
3725,7981;0,0137198
3726,7622;0,0137484
3727,7266;0,0138265
3728,6907;0,0139366
3729,6550;0,0140523
3730,6191;0,0141521
3731,5835;0,0142005
3732,5476;0,0141038
3733,5120;0,013707
3734,4761;0,0129324
3735,4404;0,0119803
3736,4045;0,0112487
3737,3689;0,0109803
3738,3330;0,0111036
3739,2974;0,011366
3740,2615;0,0115062
3741,2258;0,0113439
3742,1899;0,0108247
3743,1543;0,0100684
3744,1184;0,0093851
3745,0828;0,00910546
3746,0469;0,00929041
3747,0112;0,00968555
3747,9753;0,00993029
3748,9397;0,00974303
3749,9038;0,00905911
3750,8682;0,00817218
3751,8323;0,00760578
3752,7966;0,0076392
3753,7607;0,00811975
3754,7251;0,00871604
3755,6892;0,00915802
3756,6536;0,00930855
3757,6177;0,00916792
3758,5820;0,00886481
3759,5461;0,00859427
3760,5105;0,00849703
3761,4746;0,00858543
3762,4390;0,00877719
3763,4031;0,00897122
3764,3674;0,00909559
3765,3315;0,00911805
3766,2959;0,00903534
3767,2600;0,00885801
3768,2244;0,00860553
3769,1885;0,00831828
3770,1528;0,00806961
3771,1169;0,00794585
3772,0813;0,00799618
3773,0454;0,0081987
3774,0098;0,00847393
3774,9739;0,00872527
3775,9382;0,00887395
3776,9023;0,00888016
3777,8667;0,00875836
3778,8308;0,00858209
3779,7952;0,00845063
3780,7593;0,00842474
3781,7236;0,00849201
3782,6877;0,008589
3783,6521;0,00864653
3784,6162;0,00862491
3785,5806;0,00853055
3786,5447;0,00841049
3787,5090;0,00832774
3788,4731;0,00832972
3789,4375;0,00842734
3790,4016;0,00859419
3791,3660;0,00878379
3792,3301;0,00895525
3793,2944;0,00909395
3794,2585;0,00921507
3795,2229;0,00934444
3796,1870;0,00948529
3797,1514;0,00959512
3798,1155;0,0095951
3799,0798;0,00941473
3800,0439;0,00905681
3801,0083;0,0086403
3801,9724;0,00834169
3802,9368;0,00824278
3803,9009;0,0082571
3804,8652;0,00821932
3805,8293;0,0080331
3806,7937;0,00776523
3807,7578;0,00761584
3808,7222;0,0077529
3809,6863;0,00816312
3810,6506;0,00867577
3811,6147;0,00909355
3812,5791;0,00929379
3813,5432;0,00926697
3814,5076;0,0091127
3815,4717;0,00898725
3816,4360;0,00899473
3817,4001;0,00909812
3818,3645;0,00914732
3819,3286;0,009001
3820,2930;0,0086561
3821,2571;0,00828752
3822,2214;0,00811496
3823,1855;0,00821196
3824,1499;0,00847804
3825,1140;0,00875656
3826,0784;0,00894138
3827,0425;0,00901075
3828,0068;0,00900731
3828,9709;0,00899387
3829,9353;0,00901384
3830,8994;0,00907641
3831,8638;0,00916579
3832,8279;0,00925841
3833,7922;0,0093335
3834,7563;0,00937456
3835,7207;0,00936656
3836,6848;0,00929732
3837,6492;0,00916916
3838,6133;0,00901118
3839,5776;0,00886286
3840,5417;0,00873738
3841,5061;0,00861711
3842,4702;0,00849377
3843,4346;0,00840664
3844,3987;0,00843568
3845,3630;0,00864991
3846,3271;0,00905297
3847,2915;0,00956994
3848,2556;0,0100759
3849,2200;0,0104303
3850,1841;0,0104858
3851,1484;0,0100755
3852,1125;0,0090874
3853,0769;0,00776168
3854,0410;0,00678563
3855,0054;0,00663282
3855,9695;0,00715107
3856,9338;0,00793375
3857,8979;0,00867412
3858,8623;0,00922905
3859,8264;0,00956683
3860,7908;0,00971009
3861,7549;0,00970255
3862,7192;0,00960293
3863,6833;0,00948547
3864,6477;0,00941387
3865,6118;0,00940362
3866,5762;0,00941974
3867,5403;0,00940831
3868,5046;0,00932633
3869,4688;0,00915739
3870,4331;0,00892162
3871,3972;0,00867756
3872,3616;0,00850103
3873,3257;0,00844802
3874,2900;0,00852922
3875,2542;0,00871079
3876,2185;0,00893405
3877,1826;0,00913912
3878,1470;0,00928382
3879,1111;0,00935321
3880,0754;0,00935661
3881,0396;0,00930899
3882,0039;0,00920772
3882,9680;0,00903548
3883,9324;0,00880019
3884,8965;0,00857151
3885,8608;0,00845705
3886,8250;0,00851942
3887,7893;0,00871544
3888,7534;0,00891874
3889,7178;0,00899917
3890,6819;0,00890828
3891,6462;0,00872976
3892,6104;0,00863438
3893,5747;0,00874171
3894,5388;0,00903175
3895,5032;0,00938992
3896,4673;0,00969902
3897,4316;0,00989005
3898,3958;0,0099462
3899,3601;0,00988458
3900,3242;0,00972896
3901,2886;0,00948749
3902,2527;0,00915942
3903,2170;0,00877443
3904,1812;0,00841493
3905,1455;0,00817504
3906,1096;0,00809436
3907,0740;0,00814161
3908,0381;0,00825387
3909,0024;0,00838249
3909,9666;0,00851288
3910,9309;0,00865609
3911,8950;0,0088248
3912,8594;0,00901026
3913,8235;0,00917459
3914,7878;0,00926329
3915,7520;0,00923553
3916,7163;0,00910113
3917,6804;0,00893497
3918,6448;0,00883739
3919,6089;0,0088636
3920,5732;0,00898721
3921,5374;0,00912492
3922,5017;0,00919227
3923,4658;0,00915633
3924,4302;0,0090594
3925,3943;0,00899113
3926,3586;0,00902161
3927,3228;0,009151
3928,2871;0,00931152
3929,2512;0,00940651
3930,2156;0,00936012
3931,1797;0,00916167
3932,1440;0,00887967
3933,1082;0,00862253
3934,0725;0,00847251
3935,0366;0,00845164
3936,0010;0,00853485
3936,9651;0,00867937
3937,9294;0,00884307
3938,8936;0,00898922
3939,8579;0,00908781
3940,8220;0,00912277
3941,7864;0,00910363
3942,7505;0,00906729
3943,7148;0,00905815
3944,6790;0,00909647
3945,6433;0,00916251
3946,6074;0,00920808
3947,5718;0,00918572
3948,5359;0,00907928
3949,5002;0,00891768
3950,4644;0,00875836
3951,4287;0,00865086
3952,3928;0,00861125
3953,3572;0,00862461
3954,3213;0,00866431
3955,2856;0,00870939
3956,2498;0,00875051
3957,2141;0,00878537
3958,1782;0,00881086
3959,1426;0,00881951
3960,1067;0,00880318
3961,0710;0,00876057
3962,0352;0,00870164
3962,9995;0,00864454
3963,9636;0,0086067
3964,9280;0,00859708
3965,8921;0,0086138
3966,8564;0,00864767
3967,8206;0,0086874
3968,7849;0,00872363
3969,7490;0,00875018
3970,7134;0,00876335
3971,6775;0,00876102
3972,6418;0,0087429
3973,6060;0,00871183
3974,5703;0,00867434
3975,5344;0,00863888
3976,4988;0,00861214
3977,4629;0,00859577
3978,4272;0,00858595
3979,3914;0,00857589
3980,3557;0,00856004
3981,3198;0,00853753
3982,2842;0,00851337
3983,2483;0,0084966
3984,2126;0,0084962
3985,1768;0,00851649
3986,1411;0,00855438
3987,1052;0,00859965
3988,0696;0,00863848
3989,0337;0,00865917
3989,9980;0,00865659
3990,9622;0,00863365
3991,9265;0,00859864
3992,8906;0,00856059
3993,8550;0,00852587
3994,8191;0,00849771
3995,7834;0,00847759
3996,7476;0,00846649
3997,7119;0,00846473
3998,6760;0,00847131
3999,6404;0,00848401
4000,6045;0,00867853

##### Extended Information
[Comments]
Sample name
Comment
Username
Division
Organization;UNIVERSIDAD INDUSTRIAL DE SANTANDER

[Detailed Information]
Creation date;25/02/2025 4:46 p.m.

Data array type;Linear data array
Horizontal axis;Wavenumber [cm-1]
Vertical axis;Abs
Start;399,193 cm-1
End;4000,6 cm-1
Data interval;0,964233 cm-1
Data points;3736    

[Measurement Information]
Model name;FT/IR-4X1typeA
Serial No.;A035162111

Accessory;ATR PRO 4X
Accessory S/N;A021162126
Incident angle;45 deg

Measurement date;25/02/2025 4:45 p.m.

Light source;Standard
Detector;TGS
Accumulation;40
Resolution;4 cm-1
Zero filling;On
Apodization;Cosine
Gain;Auto (8)
Aperture;Auto (7 mm)
Scan speed;Auto (2 mm/sec)
Filter;Auto (12800 Hz)

