TITLE;
DATA TYPE;INFRARED SPECTRUM
ORIGIN;JASCO
OWNER;
DATE;25/02/25
TIME;16:38:26
SPECTROMETER/DATA SYSTEM;
LOCALE;9226
RESOLUTION;
DELTAX;0,964233
XUNITS;1/CM
YUNITS;ABSORBANCE
FIRSTX;  399,1927
LASTX; 4000,6047
NPOINTS;    3736
FIRSTY;     0,17449
MAXY;     0,24134
MINY;     0,01515
XYDATA
399,1927;0,174495
400,1569;0,174262
401,1211;0,174691
402,0854;0,175608
403,0496;0,176582
404,0138;0,177142
404,9781;0,176994
405,9423;0,176197
406,9065;0,175172
407,8708;0,174469
408,8350;0,174434
409,7992;0,175026
410,7635;0,17589
411,7277;0,176631
412,6919;0,177094
413,6562;0,17744
414,6204;0,177985
415,5846;0,178985
416,5489;0,180452
417,5131;0,181995
418,4773;0,182884
419,4416;0,182664
420,4058;0,181772
421,3700;0,181083
422,3343;0,181136
423,2985;0,181973
424,2627;0,183308
425,2270;0,184712
426,1912;0,185769
427,1554;0,186235
428,1197;0,186083
429,0839;0,185449
430,0481;0,184549
431,0124;0,183643
431,9766;0,183013
432,9408;0,182916
433,9051;0,183495
434,8693;0,184676
435,8335;0,186142
436,7978;0,187439
437,7620;0,188191
438,7262;0,188273
439,6905;0,187837
440,6547;0,187191
441,6189;0,186648
442,5832;0,186373
443,5474;0,18631
444,5116;0,186242
445,4759;0,185956
446,4401;0,185372
447,4043;0,184556
448,3686;0,183655
449,3328;0,182816
450,2970;0,182149
451,2613;0,181717
452,2255;0,181539
453,1897;0,18159
454,1540;0,181795
455,1182;0,182038
456,0824;0,182185
457,0467;0,18215
458,0109;0,181974
458,9751;0,181831
459,9394;0,181898
460,9036;0,182219
461,8678;0,182674
462,8321;0,18305
463,7963;0,183144
464,7605;0,182852
465,7248;0,182237
466,6890;0,181488
467,6532;0,180815
468,6175;0,18034
469,5817;0,180064
470,5459;0,17991
471,5102;0,179791
472,4744;0,179665
473,4386;0,179534
474,4029;0,179413
475,3671;0,179309
476,3313;0,179226
477,2956;0,179194
478,2598;0,179275
479,2240;0,179535
480,1883;0,180004
481,1525;0,180652
482,1167;0,18139
483,0810;0,18211
484,0452;0,182715
485,0094;0,183154
485,9737;0,183428
486,9379;0,183576
487,9021;0,183662
488,8664;0,183747
489,8306;0,183884
490,7948;0,184093
491,7591;0,18435
492,7233;0,184593
493,6875;0,184769
494,6518;0,18487
495,6160;0,184946
496,5802;0,185067
497,5445;0,185284
498,5087;0,185591
499,4729;0,185938
500,4372;0,186272
501,4014;0,186574
502,3656;0,186882
503,3299;0,187256
504,2941;0,187724
505,2583;0,188254
506,2226;0,188773
507,1868;0,189217
508,1510;0,189565
509,1153;0,189853
510,0795;0,190141
511,0437;0,190476
512,0080;0,190883
512,9722;0,19137
513,9365;0,191958
514,9007;0,192671
515,8649;0,193505
516,8292;0,194383
517,7934;0,195153
518,7576;0,19566
519,7219;0,195847
520,6861;0,195791
521,6503;0,19564
522,6146;0,195515
523,5788;0,195457
524,5430;0,195432
525,5073;0,195377
526,4715;0,195265
527,4357;0,195127
528,4000;0,195014
529,3642;0,194937
530,3284;0,194851
531,2927;0,194682
532,2569;0,194379
533,2211;0,193948
534,1854;0,193453
535,1496;0,192973
536,1138;0,192563
537,0781;0,192236
538,0423;0,191976
539,0065;0,191764
539,9708;0,191594
540,9350;0,191469
541,8992;0,191397
542,8635;0,191384
543,8277;0,191433
544,7919;0,19155
545,7562;0,191741
546,7204;0,192009
547,6846;0,192352
548,6489;0,192762
549,6131;0,193228
550,5773;0,193742
551,5416;0,194294
552,5058;0,194872
553,4700;0,19545
554,4343;0,195992
555,3985;0,196444
556,3627;0,196744
557,3270;0,196835
558,2912;0,196671
559,2554;0,196236
560,2197;0,195547
561,1839;0,194659
562,1481;0,193655
563,1124;0,192618
564,0766;0,191606
565,0408;0,190636
566,0051;0,189694
566,9693;0,188767
567,9335;0,187879
568,8978;0,187095
569,8620;0,186489
570,8262;0,186092
571,7905;0,185871
572,7547;0,185743
573,7189;0,185626
574,6832;0,185483
575,6474;0,185337
576,6116;0,18524
577,5759;0,185222
578,5401;0,185255
579,5043;0,185269
580,4686;0,185199
581,4328;0,18502
582,3970;0,184766
583,3613;0,184502
584,3255;0,184289
585,2897;0,184155
586,2540;0,184101
587,2182;0,184112
588,1824;0,184177
589,1467;0,184281
590,1109;0,184397
591,0751;0,184476
592,0394;0,184451
593,0036;0,18427
593,9678;0,183921
594,9321;0,183442
595,8963;0,182904
596,8605;0,182388
597,8248;0,181953
598,7890;0,181619
599,7532;0,181358
600,7175;0,181109
601,6817;0,180812
602,6459;0,180432
603,6102;0,179978
604,5744;0,179499
605,5386;0,179047
606,5029;0,17865
607,4671;0,178289
608,4313;0,177903
609,3956;0,177424
610,3598;0,176819
611,3240;0,176121
612,2883;0,175417
613,2525;0,174801
614,2167;0,174319
615,1810;0,173926
616,1452;0,173495
617,1094;0,17287
618,0737;0,171945
619,0379;0,170728
620,0021;0,169321
620,9664;0,167859
621,9306;0,166449
622,8948;0,165145
623,8591;0,163948
624,8233;0,162809
625,7875;0,161772
626,7518;0,160836
627,7160;0,160013
628,6802;0,159307
629,6445;0,15871
630,6087;0,158187
631,5729;0,157686
632,5372;0,15716
633,5014;0,156589
634,4656;0,155993
635,4299;0,155428
636,3941;0,15495
637,3583;0,154585
638,3226;0,154311
639,2868;0,154071
640,2510;0,153804
641,2153;0,153482
642,1795;0,153123
643,1437;0,152777
644,1080;0,152492
645,0722;0,152284
646,0364;0,152121
647,0007;0,151939
647,9649;0,151677
648,9291;0,151316
649,8934;0,150888
650,8576;0,150472
651,8218;0,150152
652,7861;0,14999
653,7503;0,150005
654,7145;0,150176
655,6788;0,150439
656,6430;0,150715
657,6072;0,150935
658,5715;0,151056
659,5357;0,151056
660,4999;0,150918
661,4642;0,150607
662,4284;0,150055
663,3926;0,149175
664,3569;0,147927
665,3211;0,146433
666,2853;0,145058
667,2496;0,144254
668,2138;0,144075
669,1780;0,144066
670,1423;0,143939
671,1065;0,143626
672,0707;0,142973
673,0350;0,141845
673,9992;0,14028
674,9634;0,138479
675,9277;0,13669
676,8919;0,135079
677,8561;0,13367
678,8204;0,132386
679,7846;0,131154
680,7488;0,129956
681,7131;0,128836
682,6773;0,127839
683,6415;0,126982
684,6058;0,12624
685,5700;0,125568
686,5342;0,124927
687,4985;0,124298
688,4627;0,123698
689,4269;0,123151
690,3912;0,122679
691,3554;0,122287
692,3196;0,12195
693,2839;0,121625
694,2481;0,121269
695,2123;0,120862
696,1766;0,120412
697,1408;0,119942
698,1050;0,119479
699,0693;0,119037
700,0335;0,118618
700,9977;0,118214
701,9620;0,117809
702,9262;0,117392
703,8904;0,116936
704,8547;0,11644
705,8189;0,115905
706,7831;0,115347
707,7474;0,114784
708,7116;0,114231
709,6758;0,113697
710,6401;0,113173
711,6043;0,112645
712,5685;0,112099
713,5328;0,111529
714,4970;0,110949
715,4612;0,109717
716,4255;0,109316
717,3897;0,108987
718,3539;0,10865
719,3182;0,108187
720,2824;0,107503
721,2466;0,106581
722,2109;0,105498
723,1751;0,104377
724,1393;0,103328
725,1036;0,102402
726,0678;0,101597
727,0320;0,100879
727,9963;0,10021
728,9605;0,0995696
729,9247;0,0989547
730,8890;0,0983696
731,8532;0,0978165
732,8174;0,0972924
733,7817;0,0967927
734,7459;0,0963158
735,7101;0,0958625
736,6744;0,0954314
737,6386;0,0950138
738,6028;0,0945948
739,5671;0,0941587
740,5313;0,0936987
741,4955;0,0932215
742,4598;0,0927435
743,4240;0,0922812
744,3882;0,0918412
745,3525;0,091417
746,3167;0,0909942
747,2809;0,0905593
748,2452;0,0901065
749,2094;0,0896375
750,1736;0,0891561
751,1379;0,0886632
752,1021;0,0881556
753,0663;0,087631
754,0306;0,0870938
754,9948;0,0865588
755,9590;0,0860482
756,9233;0,085583
757,8875;0,0851737
758,8517;0,0848147
759,8160;0,0844865
760,7802;0,0841654
761,7444;0,0838352
762,7087;0,083494
763,6729;0,0831518
764,6371;0,0828205
765,6014;0,082503
766,5656;0,0821895
767,5298;0,0818642
768,4941;0,0815182
769,4583;0,0811589
770,4225;0,0808087
771,3868;0,0804925
772,3510;0,0802227
773,3152;0,079991
774,2795;0,079774
775,2437;0,0795475
776,2079;0,0793016
777,1722;0,0790446
778,1364;0,0787942
779,1006;0,0785611
780,0649;0,0783378
781,0291;0,0781004
781,9933;0,0778218
782,9576;0,0774896
783,9218;0,0771154
784,8860;0,0767297
785,8503;0,0763661
786,8145;0,076045
787,7787;0,0757669
788,7430;0,0755188
789,7072;0,0752876
790,6714;0,07507
791,6357;0,0748726
792,5999;0,0747032
793,5641;0,0745603
794,5284;0,0744299
795,4926;0,0742924
796,4568;0,0741344
797,4211;0,0739568
798,3853;0,0737731
799,3495;0,0735994
800,3138;0,073443
801,2780;0,0732986
802,2422;0,073154
803,2065;0,0729996
804,1707;0,0728366
805,1349;0,0726755
806,0992;0,0725293
807,0634;0,0724046
808,0276;0,0722982
808,9919;0,0721994
809,9561;0,072097
810,9203;0,0719837
811,8846;0,071857
812,8488;0,0717159
813,8130;0,0715573
814,7773;0,0713761
815,7415;0,0711691
816,7057;0,0709399
817,6700;0,0707019
818,6342;0,0704746
819,5984;0,0702764
820,5627;0,0701155
821,5269;0,0699872
822,4911;0,0698769
823,4554;0,0697699
824,4196;0,06966
825,3839;0,0695522
826,3481;0,0694567
827,3123;0,0693802
828,2766;0,0693186
829,2408;0,0692572
830,2050;0,0691774
831,1693;0,0690652
832,1335;0,0689149
833,0977;0,0687292
834,0620;0,0685144
835,0262;0,068278
835,9904;0,068028
836,9547;0,0677743
837,9189;0,0675282
838,8831;0,0672991
839,8474;0,0670902
840,8116;0,0668962
841,7758;0,0667067
842,7401;0,0665128
843,7043;0,066314
844,6685;0,0661198
845,6328;0,0659455
846,5970;0,0658047
847,5612;0,0657021
848,5255;0,0656326
849,4897;0,065584
850,4539;0,0655433
851,4182;0,0655016
852,3824;0,0654548
853,3466;0,0654019
854,3109;0,0653435
855,2751;0,0652813
856,2393;0,0652194
857,2036;0,0651658
858,1678;0,0651314
859,1320;0,0651262
860,0963;0,065156
861,0605;0,0652196
862,0247;0,0653102
862,9890;0,0654199
863,9532;0,0655434
864,9174;0,06568
865,8817;0,0658323
866,8459;0,066002
867,8101;0,0661873
868,7744;0,0663817
869,7386;0,0665775
870,7028;0,0667683
871,6671;0,0669506
872,6313;0,0671228
873,5955;0,0672815
874,5598;0,067421
875,5240;0,0675355
876,4882;0,0676243
877,4525;0,0676966
878,4167;0,0677724
879,3809;0,0678777
880,3452;0,0680372
881,3094;0,0682678
882,2736;0,0685774
883,2379;0,0689677
884,2021;0,0694383
885,1663;0,0699895
886,1306;0,0706212
887,0948;0,0713309
888,0590;0,072112
889,0233;0,0729524
889,9875;0,0738347
890,9517;0,0747345
891,9160;0,0756198
892,8802;0,0764507
893,8444;0,0771837
894,8087;0,0777778
895,7729;0,0782017
896,7371;0,0784379
897,7014;0,0784823
898,6656;0,0783397
899,6298;0,0780206
900,5941;0,0775387
901,5583;0,0769142
902,5225;0,0761764
903,4868;0,0753669
904,4510;0,0745366
905,4152;0,0737395
906,3795;0,0730224
907,3437;0,0724156
908,3079;0,0719277
909,2722;0,0715484
910,2364;0,0712571
911,2007;0,0710342
912,1649;0,0708687
913,1292;0,0707602
914,0934;0,0707139
915,0576;0,0707333
916,0219;0,0708157
916,9861;0,0709509
917,9503;0,0711249
918,9146;0,0713233
919,8788;0,0715337
920,8430;0,0717473
921,8073;0,0719599
922,7715;0,0721727
923,7357;0,0723923
924,7000;0,0726272
925,6642;0,0728834
926,6284;0,0731601
927,5927;0,0734495
928,5569;0,0737407
929,5211;0,0740258
930,4854;0,0743031
931,4496;0,0745769
932,4138;0,0748543
933,3781;0,0751429
934,3423;0,0754502
935,3065;0,0757839
936,2708;0,0761519
937,2350;0,0765597
938,1992;0,0770091
939,1635;0,0774988
940,1277;0,0780288
941,0919;0,0786049
942,0562;0,0792395
943,0204;0,0799456
943,9846;0,0807298
944,9489;0,0815881
945,9131;0,0825078
946,8773;0,0834761
947,8416;0,0844881
948,8058;0,0855486
949,7700;0,0866686
950,7343;0,0878585
951,6985;0,0891236
952,6627;0,0904645
953,6270;0,0918796
954,5912;0,0933661
955,5554;0,094919
956,5197;0,096528
957,4839;0,0981781
958,4481;0,0998546
959,4124;0,10155
960,3766;0,103267
961,3408;0,105014
962,3051;0,106797
963,2693;0,108613
964,2335;0,110443
965,1978;0,112267
966,1620;0,114072
967,1262;0,115867
968,0905;0,117675
969,0547;0,119534
970,0189;0,121478
970,9832;0,123535
971,9474;0,125729
972,9116;0,128083
973,8759;0,130624
974,8401;0,133381
975,8043;0,136378
976,7686;0,139617
977,7328;0,143079
978,6970;0,146717
979,6613;0,150458
980,6255;0,154211
981,5897;0,157868
982,5540;0,161316
983,5182;0,164452
984,4824;0,167201
985,4467;0,169537
986,4109;0,171482
987,3751;0,173102
988,3394;0,174482
989,3036;0,175695
990,2678;0,17679
991,2321;0,177781
992,1963;0,178667
993,1605;0,179448
994,1248;0,180146
995,0890;0,180809
996,0532;0,1815
997,0175;0,182274
997,9817;0,183153
998,9459;0,184121
999,9102;0,185138
1000,8744;0,186162
1001,8386;0,187176
1002,8029;0,188197
1003,7671;0,189268
1004,7313;0,190442
1005,6956;0,191764
1006,6598;0,19327
1007,6240;0,194986
1008,5883;0,196933
1009,5525;0,199118
1010,5167;0,201531
1011,4810;0,204134
1012,4452;0,206863
1013,4094;0,209638
1014,3737;0,212382
1015,3379;0,21503
1016,3021;0,217541
1017,2664;0,219893
1018,2306;0,222083
1019,1948;0,224123
1020,1591;0,226036
1021,1233;0,227851
1022,0875;0,229598
1023,0518;0,231297
1024,0160;0,232956
1024,9802;0,23457
1025,9445;0,236121
1026,9087;0,237577
1027,8729;0,238893
1028,8372;0,240008
1029,8014;0,240843
1030,7656;0,241315
1031,7299;0,241343
1032,6941;0,240869
1033,6583;0,239874
1034,6226;0,238394
1035,5868;0,236518
1036,5510;0,23439
1037,5153;0,232184
1038,4795;0,23008
1039,4437;0,228226
1040,4080;0,226717
1041,3722;0,225577
1042,3364;0,224765
1043,3007;0,224196
1044,2649;0,223769
1045,2291;0,223388
1046,1934;0,222979
1047,1576;0,22249
1048,1218;0,221883
1049,0861;0,221123
1050,0503;0,220178
1051,0145;0,219016
1051,9788;0,217616
1052,9430;0,215978
1053,9072;0,214122
1054,8715;0,212079
1055,8357;0,209874
1056,7999;0,207506
1057,7642;0,204943
1058,7284;0,202131
1059,6926;0,199027
1060,6569;0,195623
1061,6211;0,191973
1062,5853;0,188187
1063,5496;0,184407
1064,5138;0,180775
1065,4780;0,177402
1066,4423;0,174344
1067,4065;0,171604
1068,3707;0,169141
1069,3350;0,166891
1070,2992;0,164788
1071,2634;0,162776
1072,2277;0,160814
1073,1919;0,158872
1074,1561;0,156929
1075,1204;0,154962
1076,0846;0,152959
1077,0488;0,150918
1078,0131;0,148862
1078,9773;0,146839
1079,9415;0,144912
1080,9058;0,143144
1081,8700;0,141581
1082,8342;0,140239
1083,7985;0,139107
1084,7627;0,138155
1085,7269;0,137343
1086,6912;0,136639
1087,6554;0,136018
1088,6196;0,13547
1089,5839;0,134991
1090,5481;0,134584
1091,5123;0,134253
1092,4766;0,133997
1093,4408;0,133817
1094,4050;0,133708
1095,3693;0,133668
1096,3335;0,133695
1097,2977;0,133788
1098,2620;0,133945
1099,2262;0,134154
1100,1904;0,134397
1101,1547;0,134639
1102,1189;0,134841
1103,0831;0,134967
1104,0474;0,134989
1105,0116;0,134895
1105,9758;0,134692
1106,9401;0,134389
1107,9043;0,133993
1108,8685;0,133494
1109,8328;0,132864
1110,7970;0,13206
1111,7612;0,131045
1112,7255;0,129805
1113,6897;0,128368
1114,6539;0,126801
1115,6182;0,125201
1116,5824;0,123663
1117,5466;0,122253
1118,5109;0,120988
1119,4751;0,119837
1120,4393;0,118728
1121,4036;0,117578
1122,3678;0,116308
1123,3320;0,114862
1124,2963;0,113211
1125,2605;0,111351
1126,2247;0,109304
1127,1890;0,107109
1128,1532;0,104818
1129,1174;0,102485
1130,0817;0,100159
1131,0459;0,0978732
1132,0101;0,0956555
1132,9744;0,0935287
1133,9386;0,0915215
1134,9028;0,0896712
1135,8671;0,0880204
1136,8313;0,0866082
1137,7955;0,0854602
1138,7598;0,0845829
1139,7240;0,0839644
1140,6882;0,0835784
1141,6525;0,0833914
1142,6167;0,083368
1143,5809;0,0834752
1144,5452;0,0836861
1145,5094;0,0839813
1146,4736;0,0843504
1147,4379;0,0847902
1148,4021;0,0853014
1149,3663;0,0858828
1150,3306;0,0865259
1151,2948;0,0872127
1152,2590;0,0879153
1153,2233;0,0885998
1154,1875;0,0892295
1155,1517;0,0897679
1156,1160;0,0901771
1157,0802;0,090415
1158,0444;0,0904314
1159,0087;0,0901676
1159,9729;0,0895613
1160,9371;0,0885583
1161,9014;0,0871263
1162,8656;0,0852678
1163,8298;0,0830257
1164,7941;0,0804793
1165,7583;0,0777321
1166,7225;0,0748963
1167,6868;0,0720782
1168,6510;0,069367
1169,6152;0,0668288
1170,5795;0,0645044
1171,5437;0,0624111
1172,5079;0,0605467
1173,4722;0,0588974
1174,4364;0,0574444
1175,4006;0,0561708
1176,3649;0,0550637
1177,3291;0,054113
1178,2933;0,0533078
1179,2576;0,0526332
1180,2218;0,0520704
1181,1860;0,0515996
1182,1503;0,051205
1183,1145;0,0508782
1184,0787;0,050619
1185,0430;0,0504319
1186,0072;0,0503225
1186,9714;0,0502946
1187,9357;0,05035
1188,8999;0,05049
1189,8641;0,0507166
1190,8284;0,0510311
1191,7926;0,0514323
1192,7568;0,0519139
1193,7211;0,0524644
1194,6853;0,0530702
1195,6495;0,0537186
1196,6138;0,0543997
1197,5780;0,0551048
1198,5422;0,0558243
1199,5065;0,0563928
1200,4707;0,0571208
1201,4349;0,0578259
1202,3992;0,0584994
1203,3634;0,0591384
1204,3276;0,0597443
1205,2919;0,0603211
1206,2561;0,0608758
1207,2203;0,0614201
1208,1846;0,0619717
1209,1488;0,0625533
1210,1130;0,0631877
1211,0773;0,0638912
1212,0415;0,064669
1213,0057;0,0655145
1213,9700;0,0664127
1214,9342;0,0673453
1215,8984;0,0682952
1216,8627;0,069247
1217,8269;0,0701879
1218,7911;0,0711093
1219,7554;0,0720064
1220,7196;0,0728761
1221,6838;0,0737154
1222,6481;0,0745184
1223,6123;0,0752771
1224,5765;0,0759839
1225,5408;0,0766364
1226,5050;0,0772397
1227,4692;0,0778039
1228,4335;0,078339
1229,3977;0,0788487
1230,3619;0,0793288
1231,3262;0,0797696
1232,2904;0,0801621
1233,2546;0,0805024
1234,2189;0,0807938
1235,1831;0,081044
1236,1473;0,0812608
1237,1116;0,0814496
1238,0758;0,0816114
1239,0400;0,0817443
1240,0043;0,0818444
1240,9685;0,0819067
1241,9327;0,081925
1242,8970;0,0818928
1243,8612;0,0818035
1244,8254;0,0816522
1245,7897;0,0814373
1246,7539;0,0811621
1247,7181;0,0808353
1248,6824;0,0804695
1249,6466;0,0800781
1250,6108;0,0796729
1251,5751;0,0792616
1252,5393;0,0788478
1253,5035;0,0784323
1254,4678;0,0780146
1255,4320;0,0775924
1256,3962;0,0771612
1257,3605;0,0767145
1258,3247;0,0762442
1259,2889;0,0757433
1260,2532;0,0752077
1261,2174;0,0746372
1262,1816;0,0740348
1263,1459;0,0734052
1264,1101;0,0727537
1265,0743;0,0720846
1266,0386;0,0713995
1267,0028;0,0706957
1267,9670;0,0699658
1268,9313;0,0692021
1269,8955;0,0684015
1270,8597;0,0675707
1271,8240;0,0667259
1272,7882;0,0658877
1273,7524;0,0650743
1274,7167;0,0642971
1275,6809;0,0635605
1276,6451;0,0628637
1277,6094;0,062202
1278,5736;0,0615676
1279,5378;0,0609507
1280,5021;0,0603431
1281,4663;0,0597428
1282,4305;0,0591564
1283,3948;0,0585958
1284,3590;0,0580723
1285,3232;0,0575908
1286,2875;0,0571493
1287,2517;0,056744
1288,2159;0,0563755
1289,1802;0,0560523
1290,1444;0,0557879
1291,1086;0,0555943
1292,0729;0,0554765
1293,0371;0,0554315
1294,0013;0,0554522
1294,9656;0,0555311
1295,9298;0,0556643
1296,8940;0,0558513
1297,8583;0,0560938
1298,8225;0,0563942
1299,7867;0,0567541
1300,7510;0,0571729
1301,7152;0,0576507
1302,6794;0,0581853
1303,6437;0,0587719
1304,6079;0,0594038
1305,5721;0,0600709
1306,5364;0,0607606
1307,5006;0,0614612
1308,4648;0,0621648
1309,4291;0,0628674
1310,3933;0,063566
1311,3575;0,0642523
1312,3218;0,0649085
1313,2860;0,0655089
1314,2502;0,0660252
1315,2145;0,0664311
1316,1787;0,0667048
1317,1429;0,0668297
1318,1072;0,0667988
1319,0714;0,0666227
1320,0356;0,066333
1320,9999;0,0659766
1321,9641;0,0656007
1322,9283;0,0652411
1323,8926;0,0649189
1324,8568;0,0646428
1325,8210;0,0644138
1326,7853;0,0642269
1327,7495;0,0640716
1328,7137;0,0639329
1329,6780;0,0637928
1330,6422;0,0636353
1331,6064;0,0634521
1332,5707;0,0632444
1333,5349;0,0630221
1334,4991;0,0627947
1335,4634;0,0625595
1336,4276;0,0622928
1337,3918;0,0619483
1338,3561;0,0614764
1339,3203;0,0608644
1340,2845;0,0601652
1341,2488;0,0594734
1342,2130;0,0588677
1343,1772;0,0583802
1344,1415;0,0580077
1345,1057;0,0577346
1346,0699;0,0575482
1347,0342;0,0574422
1347,9984;0,0574167
1348,9626;0,0574747
1349,9269;0,0576176
1350,8911;0,0578394
1351,8553;0,0581255
1352,8196;0,0584575
1353,7838;0,0588209
1354,7480;0,0592132
1355,7123;0,059644
1356,6765;0,0601274
1357,6407;0,0606716
1358,6050;0,0612737
1359,5692;0,0619171
1360,5334;0,0625636
1361,4977;0,0631531
1362,4619;0,0636328
1363,4261;0,0640031
1364,3904;0,0643154
1365,3546;0,0646218
1366,3188;0,0649374
1367,2831;0,0652447
1368,2473;0,0655132
1369,2115;0,065718
1370,1758;0,0658464
1371,1400;0,0658934
1372,1042;0,0658504
1373,0685;0,0656988
1374,0327;0,0654224
1374,9969;0,0650296
1375,9612;0,0645532
1376,9254;0,0640161
1377,8896;0,0634063
1378,8539;0,0626949
1379,8181;0,0618764
1380,7823;0,060992
1381,7466;0,0601119
1382,7108;0,0592892
1383,6750;0,0585275
1384,6393;0,057787
1385,6035;0,0570197
1386,5677;0,0562151
1387,5320;0,0554348
1388,4962;0,0547827
1389,4604;0,0543214
1390,4247;0,0540322
1391,3889;0,0538566
1392,3531;0,0537503
1393,3174;0,0536969
1394,2816;0,0536844
1395,2458;0,0536852
1396,2101;0,0536645
1397,1743;0,0536098
1398,1385;0,0535453
1399,1028;0,0535182
1400,0670;0,0535684
1401,0313;0,0537056
1401,9955;0,0539086
1402,9597;0,0541435
1403,9240;0,0543855
1404,8882;0,0546316
1405,8524;0,0549018
1406,8167;0,0552223
1407,7809;0,0556036
1408,7451;0,0560358
1409,7094;0,0565047
1410,6736;0,0570079
1411,6378;0,0575531
1412,6021;0,0581419
1413,5663;0,0587546
1414,5305;0,0593546
1415,4948;0,0599061
1416,4590;0,0603823
1417,4232;0,0607544
1418,3875;0,0610024
1419,3517;0,0611656
1420,3159;0,061329
1421,2802;0,0615143
1422,2444;0,0616451
1423,2086;0,0616232
1424,1729;0,0614062
1425,1371;0,0610227
1426,1013;0,0605289
1427,0656;0,0599561
1428,0298;0,0592967
1428,9940;0,0585394
1429,9583;0,0577164
1430,9225;0,0569023
1431,8867;0,05615
1432,8510;0,0554385
1433,8152;0,0546916
1434,7794;0,0538392
1435,7437;0,052887
1436,7079;0,051971
1437,6721;0,0513073
1438,6364;0,0510119
1439,6006;0,0510119
1440,5648;0,0511524
1441,5291;0,0513258
1442,4933;0,0515081
1443,4575;0,0517265
1444,4218;0,0520078
1445,3860;0,0523488
1446,3502;0,0527196
1447,3145;0,0530913
1448,2787;0,0534629
1449,2429;0,053858
1450,2072;0,0542871
1451,1714;0,0547144
1452,1356;0,055069
1453,0999;0,0552944
1454,0641;0,055388
1455,0283;0,0553804
1455,9926;0,0552311
1456,9568;0,0548222
1457,9210;0,0542893
1458,8853;0,0540146
1459,8495;0,0540889
1460,8137;0,0542828
1461,7780;0,0543438
1462,7422;0,0541204
1463,7064;0,0535571
1464,6707;0,0527039
1465,6349;0,0517341
1466,5991;0,0508405
1467,5634;0,0500713
1468,5276;0,0493257
1469,4918;0,0484662
1470,4561;0,0473899
1471,4203;0,0460279
1472,3845;0,0443662
1473,3488;0,0425552
1474,3130;0,0409084
1475,2772;0,0396479
1476,2415;0,038763
1477,2057;0,0381296
1478,1699;0,0376387
1479,1342;0,0372284
1480,0984;0,0368718
1481,0626;0,0365659
1482,0269;0,0363274
1482,9911;0,0361835
1483,9553;0,0361556
1484,9196;0,0362515
1485,8838;0,0364704
1486,8480;0,0367968
1487,8123;0,0371643
1488,7765;0,0374505
1489,7407;0,0376008
1490,7050;0,0377249
1491,6692;0,0379595
1492,6334;0,0383345
1493,5977;0,0388202
1494,5619;0,039411
1495,5261;0,0401345
1496,4904;0,0409918
1497,4546;0,0419191
1498,4188;0,0428497
1499,3831;0,0437668
1500,3473;0,0446384
1501,3115;0,0453777
1502,2758;0,0459026
1503,2400;0,0462177
1504,2042;0,0464629
1505,1685;0,0468523
1506,1327;0,0473795
1507,0969;0,047592
1508,0612;0,0472719
1509,0254;0,0468353
1509,9896;0,0465547
1510,9539;0,0463647
1511,9181;0,0461489
1512,8823;0,0458612
1513,8466;0,0455042
1514,8108;0,045081
1515,7750;0,0445759
1516,7393;0,0439721
1517,7035;0,0432753
1518,6677;0,0425141
1519,6320;0,0417293
1520,5962;0,0409755
1521,5604;0,0403258
1522,5247;0,0398436
1523,4889;0,0395305
1524,4531;0,0393237
1525,4174;0,0391578
1526,3816;0,0390189
1527,3458;0,0389372
1528,3101;0,0389339
1529,2743;0,038991
1530,2385;0,039072
1531,2028;0,0391578
1532,1670;0,0392536
1533,1312;0,0393721
1534,0955;0,0395174
1535,0597;0,0396679
1536,0239;0,039777
1536,9882;0,0398298
1537,9524;0,0399147
1538,9166;0,0401938
1539,8809;0,0406615
1540,8451;0,0409629
1541,8093;0,0408982
1542,7736;0,0407313
1543,7378;0,0406656
1544,7020;0,0406924
1545,6663;0,0407719
1546,6305;0,0408964
1547,5947;0,0410589
1548,5590;0,0412298
1549,5232;0,0413689
1550,4874;0,0414553
1551,4517;0,0415023
1552,4159;0,0415372
1553,3801;0,0415614
1554,3444;0,0415359
1555,3086;0,0414118
1556,2728;0,041157
1557,2371;0,0406974
1558,2013;0,0398998
1559,1655;0,039023
1560,1298;0,0387781
1561,0940;0,0393249
1562,0582;0,0402395
1563,0225;0,0411188
1563,9867;0,041776
1564,9509;0,0421867
1565,9152;0,0424109
1566,8794;0,0425374
1567,8436;0,042649
1568,8079;0,0428075
1569,7721;0,0430554
1570,7363;0,0434004
1571,7006;0,0437975
1572,6648;0,0441813
1573,6290;0,044528
1574,5933;0,0448734
1575,5575;0,0452629
1576,5217;0,0457101
1577,4860;0,0462345
1578,4502;0,0468608
1579,4144;0,0475593
1580,3787;0,0482674
1581,3429;0,0489512
1582,3071;0,0496176
1583,2714;0,0502902
1584,2356;0,0509848
1585,1998;0,051704
1586,1641;0,0524418
1587,1283;0,0531855
1588,0925;0,0539155
1589,0568;0,0546051
1590,0210;0,055223
1590,9852;0,0557375
1591,9495;0,0561168
1592,9137;0,0563319
1593,8779;0,0563656
1594,8422;0,0562279
1595,8064;0,0559626
1596,7706;0,0556337
1597,7349;0,0552994
1598,6991;0,0549922
1599,6633;0,0547171
1600,6276;0,0544623
1601,5918;0,0542167
1602,5560;0,053983
1603,5203;0,0537772
1604,4845;0,0536132
1605,4487;0,0534861
1606,4130;0,0533707
1607,3772;0,05324
1608,3414;0,0530933
1609,3057;0,0529676
1610,2699;0,0529111
1611,2341;0,0529335
1612,1984;0,0529913
1613,1626;0,0530239
1614,1268;0,0529999
1615,0911;0,0529329
1616,0553;0,052879
1617,0195;0,0529375
1617,9838;0,0531948
1618,9480;0,0536251
1619,9122;0,0541074
1620,8765;0,054531
1621,8407;0,0548527
1622,8049;0,0550842
1623,7692;0,0552612
1624,7334;0,0554212
1625,6976;0,0555864
1626,6619;0,0557622
1627,6261;0,0559562
1628,5903;0,0561838
1629,5546;0,0564456
1630,5188;0,0567044
1631,4830;0,0569022
1632,4473;0,057008
1633,4115;0,0570439
1634,3757;0,0570407
1635,3400;0,0569718
1636,3042;0,056843
1637,2684;0,0568042
1638,2327;0,0569664
1639,1969;0,0572688
1640,1611;0,0575873
1641,1254;0,0578349
1642,0896;0,0579782
1643,0538;0,0580254
1644,0181;0,0580078
1644,9823;0,0579404
1645,9465;0,0577938
1646,9108;0,0575648
1647,8750;0,0573277
1648,8392;0,0570973
1649,8035;0,0567619
1650,7677;0,0561845
1651,7319;0,0552604
1652,6962;0,0539497
1653,6604;0,0525841
1654,6246;0,0518596
1655,5889;0,0519268
1656,5531;0,0523246
1657,5173;0,052609
1658,4816;0,0525763
1659,4458;0,0521996
1660,4100;0,0515363
1661,3743;0,0506869
1662,3385;0,049804
1663,3027;0,0490628
1664,2670;0,0485507
1665,2312;0,0482141
1666,1954;0,0479247
1667,1597;0,0475586
1668,1239;0,0470306
1669,0881;0,0463233
1670,0524;0,0455271
1671,0166;0,0447857
1671,9808;0,0441465
1672,9451;0,0435301
1673,9093;0,0428514
1674,8735;0,0421395
1675,8378;0,0415484
1676,8020;0,0412336
1677,7662;0,0411989
1678,7305;0,0412866
1679,6947;0,0412942
1680,6589;0,0410723
1681,6232;0,0405399
1682,5874;0,0396582
1683,5516;0,0384983
1684,5159;0,0373985
1685,4801;0,0367542
1686,4443;0,0365886
1687,4086;0,0366273
1688,3728;0,0366112
1689,3370;0,0364274
1690,3013;0,0360896
1691,2655;0,0356749
1692,2297;0,0352719
1693,1940;0,0349542
1694,1582;0,0347633
1695,1224;0,0346816
1696,0867;0,0346071
1697,0509;0,0343827
1698,0151;0,0339134
1698,9794;0,0332969
1699,9436;0,0328118
1700,9078;0,0327095
1701,8721;0,0330179
1702,8363;0,0335607
1703,8005;0,0341127
1704,7648;0,0345229
1705,7290;0,0347607
1706,6932;0,0349036
1707,6575;0,0350753
1708,6217;0,0353615
1709,5859;0,0357701
1710,5502;0,0362568
1711,5144;0,0367716
1712,4786;0,0372838
1713,4429;0,0377808
1714,4071;0,0382438
1715,3713;0,0386053
1716,3356;0,0387525
1717,2998;0,0386862
1718,2640;0,0386388
1719,2283;0,0388396
1720,1925;0,0392868
1721,1567;0,039832
1722,1210;0,0403359
1723,0852;0,0407315
1724,0494;0,041024
1725,0137;0,041267
1725,9779;0,0415278
1726,9421;0,0418474
1727,9064;0,0422154
1728,8706;0,0425726
1729,8348;0,042835
1730,7991;0,0429174
1731,7633;0,0427464
1732,7275;0,0422965
1733,6918;0,0416828
1734,6560;0,041166
1735,6202;0,0409205
1736,5845;0,0408746
1737,5487;0,0408321
1738,5129;0,0406436
1739,4772;0,0402722
1740,4414;0,0397773
1741,4056;0,0392565
1742,3699;0,0387747
1743,3341;0,03833
1744,2983;0,0378789
1745,2626;0,0373779
1746,2268;0,0367942
1747,1910;0,0360794
1748,1553;0,035153
1749,1195;0,0339616
1750,0837;0,0325974
1751,0480;0,0313009
1752,0122;0,0302757
1752,9764;0,0295478
1753,9407;0,029008
1754,9049;0,0285263
1755,8691;0,0280242
1756,8334;0,0274868
1757,7976;0,0269338
1758,7618;0,0263785
1759,7261;0,0258111
1760,6903;0,025221
1761,6545;0,0246327
1762,6188;0,0241094
1763,5830;0,023709
1764,5472;0,0234385
1765,5115;0,0232556
1766,4757;0,0231059
1767,4399;0,022954
1768,4042;0,0227876
1769,3684;0,0225997
1770,3326;0,022369
1771,2969;0,0220716
1772,2611;0,0217307
1773,2253;0,0214417
1774,1896;0,021298
1775,1538;0,0213028
1776,1180;0,0213786
1777,0823;0,0214379
1778,0465;0,0214315
1779,0107;0,0213556
1779,9750;0,0212346
1780,9392;0,0210966
1781,9034;0,0209584
1782,8677;0,0208266
1783,8319;0,0207124
1784,7961;0,0206398
1785,7604;0,0206331
1786,7246;0,0206938
1787,6888;0,0207944
1788,6531;0,020894
1789,6173;0,0209597
1790,5815;0,0209683
1791,5458;0,0209061
1792,5100;0,0207951
1793,4742;0,0207069
1794,4385;0,0206989
1795,4027;0,0207556
1796,3669;0,0208153
1797,3312;0,020829
1798,2954;0,0207845
1799,2596;0,0206966
1800,2239;0,0205872
1801,1881;0,020477
1802,1523;0,0203835
1803,1166;0,02032
1804,0808;0,0202937
1805,0450;0,0203069
1806,0093;0,0203569
1806,9735;0,0204315
1807,9377;0,0205063
1808,9020;0,0205472
1809,8662;0,0205266
1810,8304;0,0204447
1811,7947;0,020334
1812,7589;0,0202373
1813,7231;0,0201789
1814,6874;0,0201576
1815,6516;0,0201583
1816,6158;0,0201658
1817,5801;0,0201732
1818,5443;0,0201827
1819,5085;0,0202001
1820,4728;0,0202272
1821,4370;0,0202603
1822,4012;0,020296
1823,3655;0,0203338
1824,3297;0,0203764
1825,2939;0,0204249
1826,2582;0,0204712
1827,2224;0,0204928
1828,1866;0,0204583
1829,1509;0,0203491
1830,1151;0,0201884
1831,0793;0,0200423
1832,0436;0,0199735
1833,0078;0,0199948
1833,9720;0,0200738
1834,9363;0,0201699
1835,9005;0,0202588
1836,8647;0,0203355
1837,8290;0,0204033
1838,7932;0,0204597
1839,7574;0,0204906
1840,7217;0,0204815
1841,6859;0,0204325
1842,6501;0,0203593
1843,6144;0,0202799
1844,5786;0,0202111
1845,5428;0,0201704
1846,5071;0,0201624
1847,4713;0,0201667
1848,4355;0,0201571
1849,3998;0,0201272
1850,3640;0,0200927
1851,3282;0,0200744
1852,2925;0,020079
1853,2567;0,0200955
1854,2209;0,0201075
1855,1852;0,0201069
1856,1494;0,0200985
1857,1136;0,0200926
1858,0779;0,0200942
1859,0421;0,0201003
1860,0063;0,0201077
1860,9706;0,0201213
1861,9348;0,0201555
1862,8990;0,0202243
1863,8633;0,0203315
1864,8275;0,0204675
1865,7917;0,0206098
1866,7560;0,0207187
1867,7202;0,0207423
1868,6844;0,0206524
1869,6487;0,0204841
1870,6129;0,0203125
1871,5771;0,0201877
1872,5414;0,0201123
1873,5056;0,020067
1874,4698;0,0200372
1875,4341;0,0200199
1876,3983;0,0200171
1877,3625;0,0200292
1878,3268;0,0200536
1879,2910;0,0200857
1880,2552;0,0201217
1881,2195;0,0201593
1882,1837;0,0201967
1883,1479;0,0202324
1884,1122;0,0202646
1885,0764;0,0202919
1886,0406;0,0203123
1887,0049;0,0203218
1887,9691;0,0203137
1888,9333;0,0202825
1889,8976;0,0202329
1890,8618;0,0201823
1891,8260;0,0201505
1892,7903;0,0201452
1893,7545;0,0201592
1894,7188;0,0201763
1895,6830;0,0201831
1896,6472;0,0201785
1897,6115;0,0201734
1898,5757;0,0201786
1899,5399;0,0201922
1900,5042;0,0201982
1901,4684;0,0201785
1902,4326;0,0201316
1903,3969;0,0200831
1904,3611;0,0200776
1905,3253;0,0201535
1906,2896;0,0203157
1907,2538;0,020524
1908,2180;0,0207054
1909,1823;0,0207913
1910,1465;0,0207584
1911,1107;0,0206423
1912,0750;0,0205078
1913,0392;0,0204065
1914,0034;0,0203544
1914,9677;0,0203392
1915,9319;0,0203395
1916,8961;0,020346
1917,8604;0,0203721
1918,8246;0,0204428
1919,7888;0,0205668
1920,7531;0,020716
1921,7173;0,0208338
1922,6815;0,0208656
1923,6458;0,0207925
1924,6100;0,0206459
1925,5742;0,0204881
1926,5385;0,0203745
1927,5027;0,0203273
1928,4669;0,0203349
1929,4312;0,0203672
1930,3954;0,020394
1931,3596;0,020397
1932,3239;0,0203724
1933,2881;0,0203268
1934,2523;0,0202743
1935,2166;0,0202362
1936,1808;0,0202386
1937,1450;0,0203037
1938,1093;0,0204388
1939,0735;0,0206278
1940,0377;0,0208321
1941,0020;0,0210007
1941,9662;0,0210925
1942,9304;0,0211005
1943,8947;0,0210554
1944,8589;0,020998
1945,8231;0,0209464
1946,7874;0,0208884
1947,7516;0,0208004
1948,7158;0,0206737
1949,6801;0,0205264
1950,6443;0,0203956
1951,6085;0,0203158
1952,5728;0,0203013
1953,5370;0,0203454
1954,5012;0,0204305
1955,4655;0,0205377
1956,4297;0,0206449
1957,3939;0,0207182
1958,3582;0,0207137
1959,3224;0,020601
1960,2866;0,0203982
1961,2509;0,0201867
1962,2151;0,0200793
1963,1793;0,0201548
1964,1436;0,0203981
1965,1078;0,0206899
1966,0720;0,0208601
1967,0363;0,0207864
1968,0005;0,0204804
1968,9647;0,0200893
1969,9290;0,0198074
1970,8932;0,0197658
1971,8574;0,0199745
1972,8217;0,0203326
1973,7859;0,0206886
1974,7501;0,020916
1975,7144;0,0209733
1976,6786;0,0209124
1977,6428;0,0208317
1978,6071;0,0208062
1979,5713;0,0208473
1980,5355;0,0209157
1981,4998;0,0209634
1982,4640;0,0209697
1983,4282;0,02095
1984,3925;0,0209401
1985,3567;0,0209687
1986,3209;0,021038
1987,2852;0,0211236
1988,2494;0,0211932
1989,2136;0,0212283
1990,1779;0,0212335
1991,1421;0,0212293
1992,1063;0,0212328
1993,0706;0,0212428
1994,0348;0,0212385
1994,9990;0,021194
1995,9633;0,0210958
1996,9275;0,0209538
1997,8917;0,0208008
1998,8560;0,020679
1999,8202;0,020621
2000,7844;0,0206352
2001,7487;0,0207049
2002,7129;0,0208028
2003,6771;0,0209112
2004,6414;0,0210356
2005,6056;0,0212011
2006,5698;0,0214307
2007,5341;0,0217175
2008,4983;0,0220117
2009,4625;0,0222361
2010,4268;0,0223215
2011,3910;0,022241
2012,3552;0,0220236
2013,3195;0,0217451
2014,2837;0,021501
2015,2479;0,0213723
2016,2122;0,0213962
2017,1764;0,021554
2018,1406;0,0217842
2019,1049;0,0220123
2020,0691;0,0221807
2021,0333;0,0222625
2021,9976;0,0222564
2022,9618;0,0221752
2023,9260;0,0220352
2024,8903;0,0218564
2025,8545;0,0216677
2026,8187;0,0215095
2027,7830;0,0214261
2028,7472;0,021448
2029,7114;0,0215737
2030,6757;0,0217643
2031,6399;0,0219586
2032,6041;0,0221011
2033,5684;0,0221688
2034,5326;0,02218
2035,4968;0,0221808
2036,4611;0,0222173
2037,4253;0,022313
2038,3895;0,0224613
2039,3538;0,0226308
2040,3180;0,02278
2041,2822;0,0228736
2042,2465;0,0228984
2043,2107;0,0228712
2044,1749;0,022834
2045,1392;0,0228375
2046,1034;0,0229153
2047,0676;0,023061
2048,0320;0,0232225
2048,9961;0,0233268
2049,9604;0,0233201
2050,9246;0,0231974
2051,8889;0,0230039
2052,8530;0,0228119
2053,8174;0,0226885
2054,7815;0,0226671
2055,7458;0,0227361
2056,7100;0,0228499
2057,6743;0,0229549
2058,6384;0,0230156
2059,6028;0,0230254
2060,5669;0,023001
2061,5313;0,0229676
2062,4954;0,0229468
2063,4597;0,0229486
2064,4238;0,0229709
2065,3882;0,0230012
2066,3523;0,0230213
2067,3167;0,0230135
2068,2808;0,0229671
2069,2451;0,0228833
2070,2092;0,0227748
2071,1736;0,0226622
2072,1377;0,0225671
2073,1021;0,0225082
2074,0662;0,0224989
2075,0305;0,022545
2075,9946;0,0226424
2076,9590;0,0227728
2077,9231;0,0229054
2078,8875;0,0230053
2079,8516;0,0230471
2080,8159;0,023027
2081,7800;0,022964
2082,7444;0,0228906
2083,7085;0,0228367
2084,6729;0,0228172
2085,6370;0,0228293
2086,6013;0,0228592
2087,5654;0,0228912
2088,5298;0,0229138
2089,4939;0,0229209
2090,4583;0,0229093
2091,4224;0,0228796
2092,3867;0,0228391
2093,3508;0,0228045
2094,3152;0,0227967
2095,2793;0,0228291
2096,2437;0,0228936
2097,2078;0,022958
2098,1721;0,0229806
2099,1362;0,0229355
2100,1006;0,0228324
2101,0647;0,022711
2102,0291;0,0226281
2102,9932;0,0226223
2103,9575;0,0226956
2104,9216;0,0228162
2105,8860;0,0229393
2106,8501;0,0230326
2107,8145;0,0230891
2108,7786;0,023121
2109,7429;0,0231423
2110,7070;0,0231557
2111,6714;0,0231519
2112,6355;0,0231204
2113,5999;0,0230631
2114,5640;0,022998
2115,5283;0,0229529
2116,4924;0,0229509
2117,4568;0,0229989
2118,4209;0,0230839
2119,3853;0,0231793
2120,3494;0,0232577
2121,3137;0,0233044
2122,2778;0,0233239
2123,2422;0,0233368
2124,2063;0,0233671
2125,1707;0,023427
2126,1348;0,0235084
2127,0991;0,0235867
2128,0632;0,0236347
2129,0276;0,0236393
2129,9917;0,023609
2130,9561;0,0235682
2131,9202;0,0235417
2132,8845;0,0235403
2133,8486;0,0235577
2134,8130;0,0235816
2135,7771;0,023609
2136,7415;0,0236522
2137,7056;0,0237281
2138,6699;0,0238398
2139,6340;0,0239643
2140,5984;0,0240602
2141,5625;0,0240908
2142,5269;0,0240493
2143,4910;0,0239689
2144,4553;0,0239092
2145,4194;0,0239241
2146,3838;0,0240293
2147,3479;0,0241917
2148,3123;0,0243487
2149,2764;0,0244497
2150,2407;0,0244931
2151,2048;0,0245353
2152,1692;0,024661
2153,1333;0,02493
2154,0977;0,0253309
2155,0618;0,0257684
2156,0261;0,0260962
2156,9902;0,0261874
2157,9546;0,0260083
2158,9187;0,0256431
2159,8831;0,0252367
2160,8472;0,0249023
2161,8115;0,0246776
2162,7756;0,02455
2163,7400;0,0244972
2164,7041;0,0245036
2165,6685;0,0245534
2166,6326;0,0246229
2167,5969;0,0246875
2168,5610;0,0247359
2169,5254;0,0247736
2170,4895;0,0248087
2171,4539;0,0248301
2172,4180;0,0248018
2173,3823;0,0246824
2174,3464;0,0244598
2175,3108;0,0241718
2176,2749;0,023893
2177,2393;0,0236942
2178,2034;0,0236062
2179,1677;0,023614
2180,1318;0,0236796
2181,0962;0,0237724
2182,0603;0,0238824
2183,0247;0,0240097
2183,9888;0,0241444
2184,9531;0,0242578
2185,9172;0,0243137
2186,8816;0,0242908
2187,8457;0,0241986
2188,8101;0,0240758
2189,7742;0,0239727
2190,7385;0,0239271
2191,7026;0,0239456
2192,6670;0,0240014
2193,6311;0,0240498
2194,5955;0,0240531
2195,5596;0,0240014
2196,5239;0,0239161
2197,4880;0,023832
2198,4524;0,0237726
2199,4165;0,0237348
2200,3809;0,023697
2201,3450;0,0236428
2202,3093;0,0235813
2203,2734;0,0235455
2204,2378;0,0235693
2205,2019;0,0236616
2206,1663;0,023797
2207,1304;0,0239308
2208,0947;0,024025
2209,0588;0,0240643
2210,0232;0,024054
2210,9873;0,0240065
2211,9517;0,0239313
2212,9158;0,0238364
2213,8801;0,0237356
2214,8442;0,0236486
2215,8086;0,0235908
2216,7727;0,0235612
2217,7371;0,0235394
2218,7012;0,0234998
2219,6655;0,0234293
2220,6296;0,0233371
2221,5940;0,0232484
2222,5581;0,0231884
2223,5225;0,0231715
2224,4866;0,0231998
2225,4509;0,023269
2226,4150;0,0233708
2227,3794;0,0234883
2228,3435;0,0235929
2229,3079;0,0236486
2230,2720;0,023628
2231,2363;0,0235294
2232,2004;0,0233823
2233,1648;0,023235
2234,1289;0,0231333
2235,0933;0,0231016
2236,0574;0,0231391
2237,0217;0,0232274
2237,9858;0,0233421
2238,9502;0,0234591
2239,9143;0,0235574
2240,8787;0,0236195
2241,8428;0,0236363
2242,8071;0,023611
2243,7712;0,0235603
2244,7356;0,0235071
2245,6997;0,0234703
2246,6641;0,0234562
2247,6282;0,0234591
2248,5925;0,023468
2249,5566;0,0234771
2250,5210;0,0234908
2251,4851;0,0235224
2252,4495;0,0235858
2253,4136;0,0236856
2254,3779;0,0238098
2255,3420;0,0239298
2256,3064;0,0240086
2257,2705;0,024016
2258,2349;0,0239436
2259,1990;0,0238122
2260,1633;0,023667
2261,1274;0,0235602
2262,0918;0,0235285
2263,0559;0,0235761
2264,0203;0,0236734
2264,9844;0,023772
2265,9487;0,0238293
2266,9128;0,0238281
2267,8772;0,0237797
2268,8413;0,0237121
2269,8057;0,0236506
2270,7698;0,0236053
2271,7341;0,0235711
2272,6982;0,0235382
2273,6626;0,0235026
2274,6267;0,0234707
2275,5911;0,0234538
2276,5552;0,0234593
2277,5195;0,023485
2278,4836;0,0235202
2279,4480;0,0235516
2280,4121;0,0235704
2281,3765;0,0235757
2282,3406;0,0235744
2283,3049;0,023579
2284,2690;0,0236038
2285,2334;0,0236626
2286,1975;0,0237641
2287,1619;0,0239085
2288,1260;0,0240841
2289,0903;0,0242689
2290,0544;0,0244355
2291,0188;0,0245608
2291,9829;0,0246348
2292,9473;0,0246664
2293,9114;0,0246793
2294,8757;0,0247014
2295,8398;0,0247491
2296,8042;0,0248173
2297,7683;0,0248806
2298,7327;0,0249069
2299,6968;0,0248762
2300,6611;0,0247942
2301,6252;0,0246923
2302,5896;0,0246137
2303,5537;0,0245944
2304,5181;0,0246481
2305,4822;0,0247611
2306,4465;0,024897
2307,4106;0,0250081
2308,3750;0,0250489
2309,3391;0,0249895
2310,3035;0,0248254
2311,2676;0,0245808
2312,2319;0,0243023
2313,1960;0,0240424
2314,1604;0,0238395
2315,1245;0,0237045
2316,0889;0,0236222
2317,0530;0,0235653
2318,0173;0,0235122
2318,9814;0,0234598
2319,9458;0,0234265
2320,9099;0,0234447
2321,8743;0,0235449
2322,8384;0,0237346
2323,8027;0,0239826
2324,7668;0,0242222
2325,7312;0,0243757
2326,6953;0,0243889
2327,6597;0,0242572
2328,6238;0,0240331
2329,5881;0,0238079
2330,5522;0,0236763
2331,5166;0,0236922
2332,4807;0,0238434
2333,4451;0,0240603
2334,4092;0,0242563
2335,3735;0,0243738
2336,3376;0,0244108
2337,3020;0,0244152
2338,2661;0,0244512
2339,2305;0,0245523
2340,1946;0,0246853
2341,1589;0,0247462
2342,1230;0,0246091
2343,0874;0,0242498
2344,0515;0,0238736
2345,0159;0,0238315
2345,9800;0,0243006
2346,9443;0,0251106
2347,9084;0,0258958
2348,8728;0,026342
2349,8369;0,0263288
2350,8013;0,0259484
2351,7654;0,0254335
2352,7297;0,0250221
2353,6938;0,0248299
2354,6582;0,024837
2355,6223;0,0249845
2356,5867;0,0252335
2357,5508;0,0255302
2358,5151;0,0257743
2359,4792;0,0258624
2360,4436;0,0257565
2361,4077;0,0254936
2362,3721;0,0251327
2363,3362;0,0247123
2364,3005;0,0242513
2365,2646;0,0237683
2366,2290;0,0232849
2367,1931;0,0228162
2368,1575;0,0223678
2369,1216;0,0219438
2370,0859;0,0215553
2371,0500;0,0212215
2372,0144;0,020968
2372,9785;0,0208251
2373,9429;0,0208251
2374,9070;0,020993
2375,8713;0,0213314
2376,8354;0,0218089
2377,7998;0,0223627
2378,7639;0,0229151
2379,7283;0,0233975
2380,6924;0,0237675
2381,6567;0,0240141
2382,6208;0,0241498
2383,5852;0,0241984
2384,5493;0,0241851
2385,5137;0,0241322
2386,4778;0,0240599
2387,4421;0,0239872
2388,4063;0,0239309
2389,3706;0,0239014
2390,3347;0,0238994
2391,2991;0,0239155
2392,2632;0,0239349
2393,2275;0,0239451
2394,1917;0,0239413
2395,1560;0,023928
2396,1201;0,0239154
2397,0845;0,0239139
2398,0486;0,0239304
2399,0129;0,023964
2399,9771;0,0240074
2400,9414;0,0240506
2401,9055;0,0240844
2402,8699;0,0241048
2403,8340;0,024114
2404,7983;0,024119
2405,7625;0,0241279
2406,7268;0,0241453
2407,6909;0,0241711
2408,6553;0,0242026
2409,6194;0,0242362
2410,5837;0,02427
2411,5479;0,0243026
2412,5122;0,0243306
2413,4763;0,0243486
2414,4407;0,0243513
2415,4048;0,0243381
2416,3691;0,0243155
2417,3333;0,0242951
2418,2976;0,024288
2419,2617;0,0242988
2420,2261;0,0243231
2421,1902;0,024351
2422,1545;0,0243736
2423,1187;0,0243876
2424,0830;0,0243967
2425,0471;0,0244072
2426,0115;0,0244234
2426,9756;0,0244454
2427,9399;0,0244696
2428,9041;0,0244925
2429,8684;0,0245134
2430,8325;0,024535
2431,7969;0,0245608
2432,7610;0,0245927
2433,7253;0,0246288
2434,6895;0,0246643
2435,6538;0,0246935
2436,6179;0,0247124
2437,5823;0,0247209
2438,5464;0,0247225
2439,5107;0,0247229
2440,4749;0,0247274
2441,4392;0,0247386
2442,4033;0,024755
2443,3677;0,0247722
2444,3318;0,0247855
2445,2961;0,0247932
2446,2603;0,0247981
2447,2246;0,0248063
2448,1887;0,0248235
2449,1531;0,0248507
2450,1172;0,0248824
2451,0815;0,0249096
2452,0457;0,0249248
2453,0100;0,0249272
2453,9741;0,0249239
2454,9385;0,024926
2455,9026;0,0249418
2456,8669;0,0249732
2457,8311;0,0250151
2458,7954;0,0250597
2459,7595;0,0251014
2460,7239;0,0251392
2461,6880;0,0251753
2462,6523;0,025212
2463,6165;0,0252489
2464,5808;0,0252824
2465,5449;0,0253072
2466,5093;0,0253186
2467,4734;0,0253138
2468,4377;0,025293
2469,4019;0,0252607
2470,3662;0,0252249
2471,3303;0,0251962
2472,2947;0,0251838
2473,2588;0,0251921
2474,2231;0,0252182
2475,1873;0,0252534
2476,1516;0,0252871
2477,1157;0,0253119
2478,0801;0,0253256
2479,0442;0,0253311
2480,0085;0,0253333
2480,9727;0,025337
2481,9370;0,0253447
2482,9011;0,0253573
2483,8655;0,0253743
2484,8296;0,0253945
2485,7939;0,0254162
2486,7581;0,025438
2487,7224;0,0254596
2488,6865;0,0254823
2489,6509;0,0255081
2490,6150;0,0255382
2491,5793;0,0255713
2492,5435;0,025604
2493,5078;0,0256322
2494,4719;0,0256525
2495,4363;0,0256634
2496,4004;0,025664
2497,3647;0,0256534
2498,3289;0,0256308
2499,2932;0,025598
2500,2573;0,0255618
2501,2217;0,0255345
2502,1858;0,0255293
2503,1501;0,0255538
2504,1143;0,0256051
2505,0786;0,02567
2506,0427;0,0257307
2507,0071;0,0257741
2507,9712;0,025797
2508,9355;0,0258057
2509,8997;0,0258095
2510,8640;0,0258135
2511,8281;0,0258165
2512,7925;0,0258128
2513,7566;0,0257992
2514,7209;0,025778
2515,6851;0,0257564
2516,6494;0,0257416
2517,6135;0,0257363
2518,5779;0,025738
2519,5420;0,0257426
2520,5063;0,0257492
2521,4705;0,0257615
2522,4348;0,0257846
2523,3989;0,0258199
2524,3633;0,0258622
2525,3274;0,0259013
2526,2917;0,025927
2527,2559;0,0259343
2528,2202;0,0259244
2529,1843;0,0259027
2530,1487;0,025875
2531,1128;0,025846
2532,0771;0,0258203
2533,0413;0,0258041
2534,0056;0,0258043
2534,9697;0,0258254
2535,9341;0,0258643
2536,8982;0,0259099
2537,8625;0,0259466
2538,8267;0,0259615
2539,7910;0,0259514
2540,7551;0,0259245
2541,7195;0,0258969
2542,6836;0,0258841
2543,6479;0,0258938
2544,6121;0,0259231
2545,5764;0,0259611
2546,5405;0,0259956
2547,5049;0,0260189
2548,4690;0,0260309
2549,4333;0,0260366
2550,3975;0,0260411
2551,3618;0,0260464
2552,3259;0,0260504
2553,2903;0,0260505
2554,2544;0,0260472
2555,2188;0,0260449
2556,1829;0,0260501
2557,1472;0,026066
2558,1113;0,0260905
2559,0757;0,0261167
2560,0398;0,0261366
2561,0042;0,0261449
2561,9683;0,0261406
2562,9326;0,0261256
2563,8967;0,0261031
2564,8611;0,0260769
2565,8252;0,026052
2566,7896;0,0260352
2567,7537;0,0260331
2568,7180;0,0260488
2569,6821;0,0260792
2570,6465;0,0261147
2571,6106;0,0261444
2572,5750;0,0261618
2573,5391;0,0261682
2574,5034;0,0261709
2575,4675;0,026178
2576,4319;0,026192
2577,3960;0,0262087
2578,3604;0,0262208
2579,3245;0,0262241
2580,2888;0,0262218
2581,2529;0,0262226
2582,2173;0,0262345
2583,1814;0,0262594
2584,1458;0,0262913
2585,1099;0,0263201
2586,0742;0,026338
2587,0383;0,0263437
2588,0027;0,0263415
2588,9668;0,026338
2589,9312;0,0263376
2590,8953;0,0263414
2591,8596;0,026349
2592,8237;0,02636
2593,7881;0,026375
2594,7522;0,0263942
2595,7166;0,0264167
2596,6807;0,0264404
2597,6450;0,0264635
2598,6091;0,0264867
2599,5735;0,0265118
2600,5376;0,0265402
2601,5020;0,026571
2602,4661;0,0265998
2603,4304;0,0266214
2604,3945;0,0266328
2605,3589;0,0266354
2606,3230;0,0266346
2607,2874;0,0266368
2608,2515;0,0266459
2609,2158;0,02666
2610,1799;0,0266729
2611,1443;0,0266779
2612,1084;0,0266725
2613,0728;0,0266617
2614,0369;0,0266563
2615,0012;0,0266679
2615,9653;0,0267028
2616,9297;0,0267587
2617,8938;0,0268259
2618,8582;0,0268922
2619,8223;0,0269477
2620,7866;0,0269878
2621,7507;0,0270127
2622,7151;0,0270247
2623,6792;0,0270268
2624,6436;0,0270216
2625,6077;0,0270123
2626,5720;0,0270029
2627,5361;0,0269979
2628,5005;0,0270015
2629,4646;0,0270164
2630,4290;0,0270426
2631,3931;0,0270784
2632,3574;0,0271198
2633,3215;0,027162
2634,2859;0,0272004
2635,2500;0,0272319
2636,2144;0,027256
2637,1785;0,0272747
2638,1428;0,0272923
2639,1069;0,0273129
2640,0713;0,0273396
2641,0354;0,027373
2641,9998;0,027411
2642,9639;0,0274499
2643,9282;0,0274855
2644,8923;0,0275145
2645,8567;0,0275353
2646,8208;0,0275481
2647,7852;0,0275542
2648,7493;0,0275563
2649,7136;0,0275578
2650,6777;0,0275633
2651,6421;0,027577
2652,6062;0,0276016
2653,5706;0,0276362
2654,5347;0,0276759
2655,4990;0,0277135
2656,4631;0,0277426
2657,4275;0,0277614
2658,3916;0,0277732
2659,3560;0,0277846
2660,3201;0,0278012
2661,2844;0,0278248
2662,2485;0,0278528
2663,2129;0,0278805
2664,1770;0,0279046
2665,1414;0,0279248
2666,1055;0,0279434
2667,0698;0,0279633
2668,0339;0,0279851
2668,9983;0,0280073
2669,9624;0,0280275
2670,9268;0,0280443
2671,8909;0,0280588
2672,8552;0,0280739
2673,8193;0,0280927
2674,7837;0,0281168
2675,7478;0,0281457
2676,7122;0,0281767
2677,6763;0,0282065
2678,6406;0,0282326
2679,6047;0,0282548
2680,5691;0,028275
2681,5332;0,0282967
2682,4976;0,0283232
2683,4617;0,0283557
2684,4260;0,028393
2685,3901;0,028432
2686,3545;0,0284697
2687,3186;0,0285048
2688,2830;0,0285382
2689,2471;0,0285715
2690,2114;0,0286055
2691,1755;0,0286392
2692,1399;0,0286704
2693,1040;0,0286974
2694,0684;0,0287202
2695,0325;0,0287401
2695,9968;0,0287588
2696,9609;0,0287766
2697,9253;0,0287924
2698,8894;0,0288057
2699,8538;0,0288177
2700,8179;0,0288323
2701,7822;0,0288548
2702,7463;0,0288891
2703,7107;0,0289348
2704,6748;0,0289864
2705,6392;0,0290353
2706,6033;0,0290737
2707,5676;0,0290979
2708,5317;0,0291106
2709,4961;0,0291196
2710,4602;0,0291342
2711,4246;0,0291609
2712,3887;0,029201
2713,3530;0,0292505
2714,3171;0,0293018
2715,2815;0,0293471
2716,2456;0,029381
2717,2100;0,0294022
2718,1741;0,0294136
2719,1384;0,0294215
2720,1025;0,0294335
2721,0669;0,0294558
2722,0310;0,0294906
2722,9954;0,0295347
2723,9595;0,0295815
2724,9238;0,0296234
2725,8879;0,0296562
2726,8523;0,0296811
2727,8164;0,0297035
2728,7808;0,0297299
2729,7449;0,0297644
2730,7092;0,0298063
2731,6733;0,0298506
2732,6377;0,0298903
2733,6018;0,0299191
2734,5662;0,0299341
2735,5303;0,0299371
2736,4946;0,0299342
2737,4587;0,0299341
2738,4231;0,0299443
2739,3872;0,0299685
2740,3516;0,0300048
2741,3157;0,0300475
2742,2800;0,0300892
2743,2441;0,0301244
2744,2085;0,0301504
2745,1726;0,0301667
2746,1370;0,0301748
2747,1011;0,0301773
2748,0654;0,0301782
2749,0295;0,030183
2749,9939;0,0301971
2750,9580;0,0302236
2751,9224;0,0302612
2752,8865;0,0303051
2753,8508;0,0303493
2754,8149;0,0303895
2755,7793;0,0304254
2756,7434;0,0304587
2757,7078;0,0304919
2758,6719;0,0305258
2759,6362;0,03056
2760,6003;0,0305936
2761,5647;0,0306266
2762,5288;0,0306593
2763,4932;0,0306921
2764,4573;0,0307245
2765,4216;0,0307566
2766,3857;0,0307897
2767,3501;0,0308267
2768,3142;0,0308705
2769,2786;0,0309216
2770,2427;0,0309765
2771,2070;0,031029
2772,1711;0,0310732
2773,1355;0,0311074
2774,0996;0,0311353
2775,0640;0,0311644
2776,0281;0,0312017
2776,9924;0,0312502
2777,9565;0,0313078
2778,9209;0,0313691
2779,8850;0,0314285
2780,8494;0,0314829
2781,8135;0,0315325
2782,7778;0,0315795
2783,7419;0,0316262
2784,7063;0,0316738
2785,6704;0,0317224
2786,6348;0,031771
2787,5989;0,0318188
2788,5632;0,0318659
2789,5273;0,0319143
2790,4917;0,0319676
2791,4558;0,0320296
2792,4202;0,0321025
2793,3843;0,0321848
2794,3486;0,032271
2795,3127;0,0323544
2796,2771;0,0324301
2797,2412;0,0324983
2798,2056;0,0325635
2799,1697;0,032632
2800,1340;0,032708
2801,0981;0,0327919
2802,0625;0,0328813
2803,0266;0,032973
2803,9910;0,0330647
2804,9551;0,0331545
2805,9194;0,0332403
2806,8835;0,0333201
2807,8479;0,0333935
2808,8120;0,0334638
2809,7764;0,0335382
2810,7405;0,0336244
2811,7048;0,0337269
2812,6689;0,0338441
2813,6333;0,0339697
2814,5974;0,0340966
2815,5618;0,0342208
2816,5259;0,0343425
2817,4902;0,0344649
2818,4543;0,0345916
2819,4187;0,0347241
2820,3828;0,0348624
2821,3472;0,0350059
2822,3113;0,0351542
2823,2756;0,0353072
2824,2397;0,0354647
2825,2041;0,0356265
2826,1682;0,0357927
2827,1326;0,0359641
2828,0967;0,0361422
2829,0610;0,0363295
2830,0251;0,0365289
2830,9895;0,0367433
2831,9536;0,0369749
2832,9180;0,037224
2833,8821;0,0374882
2834,8464;0,0377621
2835,8105;0,0380403
2836,7749;0,0383209
2837,7390;0,0386088
2838,7034;0,0389152
2839,6675;0,0392553
2840,6318;0,0396432
2841,5959;0,0400886
2842,5603;0,0405953
2843,5244;0,0411609
2844,4888;0,0417742
2845,4529;0,0424132
2846,4172;0,0430424
2847,3813;0,0436156
2848,3457;0,0440846
2849,3098;0,0444119
2850,2742;0,044582
2851,2383;0,0446049
2852,2026;0,0445122
2853,1667;0,0443464
2854,1311;0,0441491
2855,0952;0,0439528
2856,0596;0,0437771
2857,0237;0,0436301
2857,9880;0,0435121
2858,9521;0,0434208
2859,9165;0,0433553
2860,8806;0,0433185
2861,8450;0,0433156
2862,8091;0,0433507
2863,7734;0,0434239
2864,7375;0,0435286
2865,7019;0,0436541
2866,6660;0,0437883
2867,6304;0,0439212
2868,5945;0,0440465
2869,5588;0,0441607
2870,5229;0,0442615
2871,4873;0,0443467
2872,4514;0,044415
2873,4158;0,0444677
2874,3799;0,0445086
2875,3442;0,0445443
2876,3083;0,0445813
2877,2727;0,0446242
2878,2368;0,0446746
2879,2012;0,0447311
2880,1653;0,0447915
2881,1296;0,0448544
2882,0938;0,0449208
2883,0581;0,0449933
2884,0222;0,0450747
2884,9866;0,0451655
2885,9507;0,0452639
2886,9150;0,0453664
2887,8792;0,0454702
2888,8435;0,0455756
2889,8076;0,0456853
2890,7720;0,0458026
2891,7361;0,0459284
2892,7004;0,0460589
2893,6646;0,0461869
2894,6289;0,046305
2895,5930;0,0464094
2896,5574;0,046502
2897,5215;0,0465898
2898,4858;0,046682
2899,4500;0,0467859
2900,4143;0,0469036
2901,3784;0,0470328
2902,3428;0,0471684
2903,3069;0,0473067
2904,2712;0,0474488
2905,2354;0,0476007
2906,1997;0,0477719
2907,1638;0,0479717
2908,1282;0,0482059
2909,0923;0,0484765
2910,0566;0,0487823
2911,0208;0,0491201
2911,9851;0,049483
2912,9492;0,049858
2913,9136;0,0502236
2914,8777;0,0505517
2915,8420;0,0508129
2916,8062;0,0509852
2917,7705;0,0510598
2918,7346;0,0510412
2919,6990;0,0509425
2920,6631;0,0507789
2921,6274;0,050563
2922,5916;0,050305
2923,5559;0,0500139
2924,5200;0,0496995
2925,4844;0,0493709
2926,4485;0,0490345
2927,4128;0,048693
2928,3770;0,0483468
2929,3413;0,0479979
2930,3054;0,047651
2931,2698;0,0473132
2932,2339;0,0469899
2933,1982;0,0466814
2934,1624;0,0463823
2935,1267;0,0460842
2936,0908;0,0457804
2937,0552;0,0454688
2938,0193;0,0451531
2938,9836;0,0448394
2939,9478;0,0445329
2940,9121;0,0442356
2941,8762;0,0439464
2942,8406;0,0436639
2943,8047;0,0433897
2944,7690;0,0431293
2945,7332;0,0428909
2946,6975;0,042681
2947,6616;0,0425005
2948,6260;0,042344
2949,5901;0,042202
2950,5544;0,0420648
2951,5186;0,0419263
2952,4829;0,0417843
2953,4470;0,0416391
2954,4114;0,0414917
2955,3755;0,0413423
2956,3398;0,0411907
2957,3040;0,0410363
2958,2683;0,0408781
2959,2324;0,040714
2960,1968;0,0405413
2961,1609;0,0403583
2962,1252;0,040167
2963,0894;0,0399728
2964,0537;0,0397827
2965,0178;0,0396009
2965,9822;0,0394261
2966,9463;0,0392517
2967,9106;0,0390687
2968,8748;0,0388712
2969,8391;0,0386586
2970,8032;0,0384368
2971,7676;0,0382158
2972,7317;0,0380071
2973,6960;0,0378202
2974,6602;0,0376593
2975,6245;0,0375222
2976,5886;0,0373996
2977,5530;0,0372788
2978,5171;0,0371489
2979,4814;0,0370053
2980,4456;0,0368534
2981,4099;0,0367054
2982,3740;0,0365755
2983,3384;0,0364734
2984,3025;0,0364007
2985,2668;0,0363511
2986,2310;0,0363145
2987,1953;0,0362819
2988,1594;0,0362485
2989,1238;0,0362142
2990,0879;0,036182
2991,0522;0,036155
2992,0164;0,0361347
2992,9807;0,0361209
2993,9448;0,0361127
2994,9092;0,0361099
2995,8733;0,0361136
2996,8376;0,0361252
2997,8018;0,0361451
2998,7661;0,0361719
2999,7302;0,036203
3000,6946;0,0362363
3001,6587;0,0362715
3002,6230;0,0363108
3003,5872;0,0363567
3004,5515;0,0364108
3005,5156;0,0364717
3006,4800;0,0365359
3007,4441;0,0365991
3008,4084;0,0366578
3009,3726;0,0367097
3010,3369;0,0367529
3011,3010;0,0367859
3012,2654;0,036808
3013,2295;0,0368205
3014,1938;0,0368284
3015,1580;0,0368389
3016,1223;0,0368596
3017,0864;0,0368957
3018,0508;0,0369485
3019,0149;0,0370158
3019,9792;0,0370935
3020,9434;0,0371766
3021,9077;0,0372605
3022,8718;0,0373413
3023,8362;0,0374173
3024,8003;0,0374907
3025,7646;0,037568
3026,7288;0,0376569
3027,6931;0,037762
3028,6572;0,0378802
3029,6216;0,0380008
3030,5857;0,0381105
3031,5500;0,0381998
3032,5142;0,0382684
3033,4785;0,0383247
3034,4426;0,0383797
3035,4070;0,0384415
3036,3711;0,0385119
3037,3354;0,0385877
3038,2996;0,0386647
3039,2639;0,0387407
3040,2280;0,0388173
3041,1924;0,0388986
3042,1565;0,0389905
3043,1208;0,0390973
3044,0850;0,0392196
3045,0493;0,0393524
3046,0134;0,0394855
3046,9778;0,0396074
3047,9419;0,0397115
3048,9063;0,0397994
3049,8704;0,0398815
3050,8347;0,0399706
3051,7988;0,040075
3052,7632;0,0401937
3053,7273;0,0403179
3054,6917;0,0404367
3055,6558;0,0405443
3056,6201;0,040643
3057,5842;0,0407421
3058,5486;0,0408526
3059,5127;0,0409815
3060,4771;0,0411286
3061,4412;0,0412863
3062,4055;0,0414416
3063,3696;0,0415805
3064,3340;0,0416921
3065,2981;0,0417736
3066,2625;0,041831
3067,2266;0,0418782
3068,1909;0,0419315
3069,1550;0,042004
3070,1194;0,042102
3071,0835;0,0422236
3072,0479;0,042361
3073,0120;0,0425042
3073,9763;0,0426443
3074,9404;0,0427754
3075,9048;0,0428953
3076,8689;0,043003
3077,8333;0,0430981
3078,7974;0,04318
3079,7617;0,0432492
3080,7258;0,0433096
3081,6902;0,0433694
3082,6543;0,0434386
3083,6187;0,0435253
3084,5828;0,0436305
3085,5471;0,0437476
3086,5112;0,0438655
3087,4756;0,0439746
3088,4397;0,0440731
3089,4041;0,0441671
3090,3682;0,0442667
3091,3325;0,0443796
3092,2966;0,0445058
3093,2610;0,0446386
3094,2251;0,0447696
3095,1895;0,0448937
3096,1536;0,0450124
3097,1179;0,0451309
3098,0820;0,045253
3099,0464;0,045378
3100,0105;0,0455
3100,9749;0,0456122
3101,9390;0,0457117
3102,9033;0,0458011
3103,8674;0,0458878
3104,8318;0,0459802
3105,7959;0,0460838
3106,7603;0,0462004
3107,7244;0,0463284
3108,6887;0,0464645
3109,6528;0,0466055
3110,6172;0,0467495
3111,5813;0,0468955
3112,5457;0,0470427
3113,5098;0,0471897
3114,4741;0,047334
3115,4382;0,0474722
3116,4026;0,0476017
3117,3667;0,0477223
3118,3311;0,0478373
3119,2952;0,0479527
3120,2595;0,0480746
3121,2236;0,0482061
3122,1880;0,0483458
3123,1521;0,048488
3124,1165;0,0486264
3125,0806;0,048757
3126,0449;0,0488808
3127,0090;0,049002
3127,9734;0,0491259
3128,9375;0,0492551
3129,9019;0,0493889
3130,8660;0,0495239
3131,8303;0,0496567
3132,7944;0,0497868
3133,7588;0,0499171
3134,7229;0,0500529
3135,6873;0,0501985
3136,6514;0,0503548
3137,6157;0,0505175
3138,5798;0,0506786
3139,5442;0,0508299
3140,5083;0,0509675
3141,4727;0,0510948
3142,4368;0,0512221
3143,4011;0,051362
3144,3652;0,0515238
3145,3296;0,0517084
3146,2937;0,0519072
3147,2581;0,0521056
3148,2222;0,0522889
3149,1865;0,0524479
3150,1506;0,0525824
3151,1150;0,0527006
3152,0791;0,0528159
3153,0435;0,052942
3154,0076;0,053089
3154,9719;0,05326
3155,9360;0,0534503
3156,9004;0,0536495
3157,8645;0,0538451
3158,8289;0,0540263
3159,7930;0,0541888
3160,7573;0,0543358
3161,7214;0,054477
3162,6858;0,0546246
3163,6499;0,0547879
3164,6143;0,0549691
3165,5784;0,0551621
3166,5427;0,0553549
3167,5068;0,055536
3168,4712;0,0556998
3169,4353;0,0557384
3170,3997;0,0558886
3171,3638;0,0560527
3172,3281;0,0562382
3173,2922;0,0564425
3174,2566;0,0566532
3175,2207;0,0568547
3176,1851;0,0570351
3177,1492;0,0571913
3178,1135;0,0573301
3179,0776;0,0574633
3180,0420;0,0576019
3181,0061;0,0577517
3181,9705;0,0579123
3182,9346;0,0580793
3183,8989;0,0582479
3184,8630;0,0584151
3185,8274;0,0585798
3186,7915;0,058742
3187,7559;0,0589018
3188,7200;0,0590597
3189,6843;0,0592175
3190,6484;0,0593785
3191,6128;0,0595462
3192,5769;0,0597222
3193,5413;0,0599041
3194,5054;0,0600859
3195,4697;0,0602602
3196,4338;0,0604215
3197,3982;0,0605683
3198,3623;0,0607037
3199,3267;0,0608338
3200,2908;0,0609662
3201,2551;0,061108
3202,2192;0,0612646
3203,1836;0,0614374
3204,1477;0,061622
3205,1121;0,0618089
3206,0762;0,061987
3207,0405;0,0621481
3208,0046;0,0622922
3208,9690;0,0624267
3209,9331;0,0625625
3210,8975;0,0627079
3211,8616;0,0628641
3212,8259;0,0630254
3213,7900;0,0631838
3214,7544;0,063333
3215,7185;0,0634711
3216,6829;0,0636008
3217,6470;0,0637272
3218,6113;0,063856
3219,5754;0,0639924
3220,5398;0,0641394
3221,5039;0,0642962
3222,4683;0,0644577
3223,4324;0,0646163
3224,3967;0,0647662
3225,3608;0,0649077
3226,3252;0,0650487
3227,2893;0,0652001
3228,2537;0,0653685
3229,2178;0,0655509
3230,1821;0,0657346
3231,1462;0,0659039
3232,1106;0,066049
3233,0747;0,066171
3234,0391;0,06628
3235,0032;0,0663889
3235,9675;0,0665065
3236,9316;0,066636
3237,8960;0,0667775
3238,8601;0,0669316
3239,8245;0,0671006
3240,7886;0,0672856
3241,7529;0,0674824
3242,7170;0,0676808
3243,6814;0,067868
3244,6455;0,0680356
3245,6099;0,0681842
3246,5740;0,0683239
3247,5383;0,0684682
3248,5024;0,0686272
3249,4668;0,0688029
3250,4309;0,0689898
3251,3953;0,0691787
3252,3594;0,0693614
3253,3237;0,0695345
3254,2878;0,0696997
3255,2522;0,0698624
3256,2163;0,0700283
3257,1807;0,0702006
3258,1448;0,0703792
3259,1091;0,0705609
3260,0732;0,0707414
3261,0376;0,0709172
3262,0017;0,0710871
3262,9661;0,0712529
3263,9302;0,0714177
3264,8945;0,0715845
3265,8586;0,0717543
3266,8230;0,0719251
3267,7871;0,0720931
3268,7515;0,0722536
3269,7156;0,0724022
3270,6799;0,0725358
3271,6440;0,0726518
3272,6084;0,0727497
3273,5725;0,0728309
3274,5369;0,0729
3275,5010;0,072964
3276,4653;0,0730304
3277,4294;0,0731033
3278,3938;0,0731814
3279,3579;0,0732579
3280,3223;0,0733237
3281,2864;0,0733727
3282,2507;0,0734049
3283,2148;0,0734271
3284,1792;0,0734502
3285,1433;0,0734829
3286,1077;0,0735285
3287,0718;0,0735821
3288,0361;0,0736344
3289,0002;0,0736753
3289,9646;0,0736994
3290,9287;0,0737078
3291,8931;0,0737071
3292,8572;0,073705
3293,8215;0,0737066
3294,7856;0,0737122
3295,7500;0,0737173
3296,7141;0,0737159
3297,6785;0,0737035
3298,6426;0,0736789
3299,6069;0,0736444
3300,5710;0,0736059
3301,5354;0,0735708
3302,4995;0,0735456
3303,4639;0,0735332
3304,4280;0,0735309
3305,3923;0,0735317
3306,3564;0,0735271
3307,3208;0,0735124
3308,2849;0,0734887
3309,2493;0,0734627
3310,2134;0,0734417
3311,1777;0,0734302
3312,1418;0,0734279
3313,1062;0,0734321
3314,0703;0,0734412
3315,0347;0,0734564
3315,9988;0,0734815
3316,9631;0,07352
3317,9272;0,0735739
3318,8916;0,0736431
3319,8557;0,073726
3320,8201;0,073819
3321,7842;0,0739153
3322,7485;0,0740049
3323,7126;0,074077
3324,6770;0,0741248
3325,6411;0,0741496
3326,6055;0,0741617
3327,5696;0,0741759
3328,5339;0,0742044
3329,4980;0,0742507
3330,4624;0,0743085
3331,4265;0,0743649
3332,3909;0,0744068
3333,3550;0,0744262
3334,3193;0,074421
3335,2834;0,0743947
3336,2478;0,074352
3337,2119;0,0742968
3338,1763;0,0742311
3339,1404;0,0741558
3340,1047;0,0740718
3341,0688;0,0739807
3342,0332;0,0738832
3342,9973;0,0737787
3343,9617;0,0736649
3344,9258;0,0735402
3345,8901;0,0734064
3346,8542;0,0732704
3347,8186;0,0731415
3348,7827;0,0730263
3349,7471;0,0729242
3350,7112;0,0728262
3351,6755;0,0727189
3352,6396;0,0725916
3353,6040;0,0724417
3354,5681;0,0722762
3355,5325;0,0721076
3356,4966;0,0719476
3357,4609;0,0718022
3358,4250;0,0716702
3359,3894;0,0715463
3360,3535;0,0714256
3361,3179;0,0713065
3362,2820;0,0711906
3363,2463;0,0710796
3364,2104;0,0709708
3365,1748;0,070856
3366,1389;0,0707233
3367,1033;0,0705631
3368,0674;0,0703744
3369,0317;0,0701663
3369,9958;0,0699543
3370,9602;0,069754
3371,9243;0,0695742
3372,8887;0,0694151
3373,8528;0,0692704
3374,8171;0,0691323
3375,7813;0,0689951
3376,7456;0,0688573
3377,7097;0,0687199
3378,6741;0,068583
3379,6382;0,0684448
3380,6025;0,0683006
3381,5667;0,0681459
3382,5310;0,0679801
3383,4951;0,0678086
3384,4595;0,0676425
3385,4236;0,067494
3386,3879;0,0673697
3387,3521;0,0672667
3388,3164;0,0671733
3389,2805;0,0670761
3390,2449;0,0669669
3391,2090;0,0668454
3392,1733;0,0667171
3393,1375;0,0665863
3394,1018;0,0664519
3395,0659;0,0663076
3396,0303;0,0661479
3396,9944;0,0659734
3397,9587;0,0657923
3398,9229;0,0656151
3399,8872;0,0654485
3400,8513;0,0652919
3401,8157;0,0651389
3402,7798;0,0649819
3403,7441;0,0648163
3404,7083;0,0646417
3405,6726;0,064461
3406,6367;0,0642784
3407,6011;0,0640976
3408,5652;0,0639202
3409,5295;0,0637447
3410,4937;0,0635657
3411,4580;0,0633775
3412,4221;0,0631782
3413,3865;0,0629729
3414,3506;0,0627728
3415,3149;0,0625884
3416,2791;0,0624224
3417,2434;0,0622654
3418,2075;0,0620984
3419,1719;0,0619028
3420,1360;0,0616712
3421,1003;0,0614138
3422,0645;0,0611539
3423,0288;0,0609151
3423,9929;0,0607093
3424,9573;0,0605313
3425,9214;0,0603638
3426,8857;0,0601865
3427,8499;0,0599862
3428,8142;0,0597614
3429,7783;0,059521
3430,7427;0,0592776
3431,7068;0,0590401
3432,6711;0,0588109
3433,6353;0,0585878
3434,5996;0,0583678
3435,5637;0,0581501
3436,5281;0,0579358
3437,4922;0,0577264
3438,4565;0,0575234
3439,4207;0,0573287
3440,3850;0,057145
3441,3491;0,0569737
3442,3135;0,0568106
3443,2776;0,0566435
3444,2419;0,0564544
3445,2061;0,0562273
3446,1704;0,0559577
3447,1345;0,0556581
3448,0989;0,0553529
3449,0630;0,0550653
3450,0273;0,0548059
3450,9915;0,054572
3451,9558;0,0543551
3452,9199;0,0541495
3453,8843;0,0539558
3454,8484;0,0537772
3455,8127;0,0536136
3456,7769;0,0534567
3457,7412;0,0532919
3458,7053;0,053104
3459,6697;0,0528854
3460,6338;0,0526402
3461,5981;0,0523822
3462,5623;0,0521281
3463,5266;0,0518879
3464,4907;0,051661
3465,4551;0,0514398
3466,4192;0,0512172
3467,3835;0,0509931
3468,3477;0,0507742
3469,3120;0,0505673
3470,2761;0,0503713
3471,2405;0,0501763
3472,2046;0,0499702
3473,1689;0,0497498
3474,1331;0,0495258
3475,0974;0,0493176
3476,0615;0,0491389
3477,0259;0,0489854
3477,9900;0,048836
3478,9543;0,0486651
3479,9185;0,0484592
3480,8828;0,0482269
3481,8469;0,0479936
3482,8113;0,0477832
3483,7754;0,0476013
3484,7397;0,0474311
3485,7039;0,0472464
3486,6682;0,0470285
3487,6323;0,0467785
3488,5967;0,0465161
3489,5608;0,0462678
3490,5251;0,0460509
3491,4893;0,0458657
3492,4536;0,0456981
3493,4177;0,0455306
3494,3821;0,0453552
3495,3462;0,04518
3496,3105;0,0450252
3497,2747;0,0449082
3498,2390;0,0448273
3499,2031;0,0447546
3500,1675;0,0446455
3501,1316;0,0444595
3502,0959;0,044186
3503,0601;0,0438594
3504,0244;0,043543
3504,9885;0,043289
3505,9529;0,0431073
3506,9170;0,042967
3507,8813;0,0428209
3508,8455;0,0426332
3509,8098;0,0423977
3510,7739;0,0421358
3511,7383;0,0418778
3512,7024;0,0416423
3513,6667;0,0414308
3514,6309;0,0412386
3515,5952;0,0410663
3516,5593;0,040923
3517,5237;0,0408173
3518,4878;0,0407464
3519,4521;0,0406924
3520,4163;0,0406285
3521,3806;0,0405318
3522,3447;0,0403939
3523,3091;0,0402222
3524,2732;0,0400286
3525,2375;0,0398163
3526,2017;0,0395749
3527,1660;0,0392917
3528,1301;0,0389701
3529,0945;0,0386394
3530,0586;0,0383436
3531,0229;0,038115
3531,9871;0,0379554
3532,9514;0,0378356
3533,9155;0,0377109
3534,8799;0,0375433
3535,8440;0,0373225
3536,8083;0,0370742
3537,7725;0,0368485
3538,7368;0,0366913
3539,7009;0,0366205
3540,6653;0,0366181
3541,6294;0,0366388
3542,5938;0,0366247
3543,5579;0,0365226
3544,5222;0,0363089
3545,4863;0,0360092
3546,4507;0,0356893
3547,4148;0,0354109
3548,3792;0,0351916
3549,3433;0,0350038
3550,3076;0,0348032
3551,2717;0,0345622
3552,2361;0,0342882
3553,2002;0,0340197
3554,1646;0,033798
3555,1287;0,0336384
3556,0930;0,0335245
3557,0571;0,0334286
3558,0215;0,0333378
3558,9856;0,0332657
3559,9500;0,0332422
3560,9141;0,0332863
3561,8784;0,033382
3562,8425;0,0334724
3563,8069;0,0334693
3564,7710;0,0332702
3565,7354;0,0328031
3566,6995;0,0321164
3567,6638;0,0314136
3568,6279;0,0309111
3569,5923;0,0306705
3570,5564;0,0306046
3571,5208;0,0305894
3572,4849;0,0305434
3573,4492;0,0304443
3574,4133;0,0303087
3575,3777;0,0301621
3576,3418;0,0300172
3577,3062;0,0298732
3578,2703;0,0297324
3579,2346;0,0296147
3580,1987;0,0295539
3581,1631;0,0295734
3582,1272;0,0296613
3583,0916;0,0297656
3584,0557;0,0298053
3585,0200;0,0296895
3585,9841;0,0293561
3586,9485;0,0288486
3587,9126;0,0283528
3588,8770;0,0280743
3589,8411;0,02807
3590,8054;0,0282384
3591,7695;0,0284274
3592,7339;0,0285206
3593,6980;0,0284739
3594,6624;0,028318
3595,6265;0,0281267
3596,5908;0,0279555
3597,5549;0,0278004
3598,5193;0,0276169
3599,4834;0,0273751
3600,4478;0,0270996
3601,4119;0,0268571
3602,3762;0,0267
3603,3403;0,0266232
3604,3047;0,0265694
3605,2688;0,0264643
3606,2332;0,0262526
3607,1973;0,0259257
3608,1616;0,0255358
3609,1257;0,0251737
3610,0901;0,0249153
3611,0542;0,024786
3612,0186;0,024766
3612,9827;0,0248132
3613,9470;0,0248778
3614,9111;0,0249056
3615,8755;0,0248417
3616,8396;0,0246421
3617,8040;0,0243012
3618,7681;0,0238886
3619,7324;0,0235544
3620,6965;0,0234473
3621,6609;0,0236003
3622,6250;0,0239105
3623,5894;0,0242165
3624,5535;0,0243787
3625,5178;0,0243113
3626,4819;0,023974
3627,4463;0,023371
3628,4104;0,0226179
3629,3748;0,0219767
3630,3389;0,0216591
3631,3032;0,0216295
3632,2673;0,0216963
3633,2317;0,0216978
3634,1958;0,0215805
3635,1602;0,0213809
3636,1243;0,0211671
3637,0886;0,020985
3638,0527;0,020841
3639,0171;0,020724
3639,9812;0,0206362
3640,9456;0,0206009
3641,9097;0,0206404
3642,8740;0,0207488
3643,8381;0,0208858
3644,8025;0,0209932
3645,7666;0,0210039
3646,7310;0,0208146
3647,6951;0,0202731
3648,6594;0,0193621
3649,6235;0,0184456
3650,5879;0,0179633
3651,5520;0,017954
3652,5164;0,0181546
3653,4805;0,018302
3654,4448;0,0182661
3655,4089;0,0180585
3656,3733;0,0177925
3657,3374;0,017603
3658,3018;0,0175507
3659,2659;0,0175958
3660,2302;0,0176612
3661,1943;0,0177082
3662,1587;0,0177574
3663,1228;0,0178497
3664,0872;0,0179925
3665,0513;0,0181431
3666,0156;0,0182372
3666,9797;0,0182325
3667,9441;0,0181294
3668,9082;0,017973
3669,8726;0,017841
3670,8367;0,0177899
3671,8010;0,0177914
3672,7651;0,0177514
3673,7295;0,0175842
3674,6936;0,0172733
3675,6580;0,0169112
3676,6221;0,0166684
3677,5864;0,0166427
3678,5505;0,0167765
3679,5149;0,0169541
3680,4790;0,0171165
3681,4434;0,0172784
3682,4075;0,0174757
3683,3718;0,0177081
3684,3359;0,0179264
3685,3003;0,0180639
3686,2644;0,0180767
3687,2288;0,0179559
3688,1929;0,0177236
3689,1572;0,0174519
3690,1213;0,0172689
3691,0857;0,0172676
3692,0498;0,0174259
3693,0142;0,0176554
3693,9783;0,0178828
3694,9426;0,0180765
3695,9067;0,01823
3696,8711;0,0183377
3697,8352;0,0183864
3698,7996;0,0183618
3699,7637;0,0182657
3700,7280;0,0181318
3701,6921;0,0180298
3702,6565;0,0180378
3703,6206;0,0181917
3704,5850;0,0184583
3705,5491;0,0187579
3706,5134;0,0190031
3707,4775;0,0191177
3708,4419;0,0190267
3709,4060;0,0186548
3710,3704;0,0179999
3711,3345;0,0172485
3712,2988;0,0167096
3713,2629;0,0165621
3714,2273;0,0167588
3715,1914;0,0171445
3716,1558;0,0175817
3717,1199;0,0179956
3718,0842;0,0183639
3719,0483;0,0186892
3720,0127;0,0189747
3720,9768;0,019213
3721,9412;0,0193875
3722,9053;0,0194832
3723,8696;0,0195013
3724,8337;0,0194709
3725,7981;0,0194416
3726,7622;0,0194555
3727,7266;0,0195218
3728,6907;0,0196217
3729,6550;0,0197326
3730,6191;0,0198416
3731,5835;0,0199291
3732,5476;0,0199269
3733,5120;0,0197099
3734,4761;0,0192067
3735,4404;0,0185705
3736,4045;0,0181155
3737,3689;0,0180204
3738,3330;0,0181973
3739,2974;0,018415
3740,2615;0,0184568
3741,2258;0,0182065
3742,1899;0,0176847
3743,1543;0,0170637
3744,1184;0,0166246
3745,0828;0,0165903
3746,0469;0,0169335
3747,0112;0,0174018
3747,9753;0,0177019
3748,9397;0,0176297
3749,9038;0,0171464
3750,8682;0,0164743
3751,8323;0,0160209
3752,7966;0,0160199
3753,7607;0,0163605
3754,7251;0,0167801
3755,6892;0,0170702
3756,6536;0,0171384
3757,6177;0,017003
3758,5820;0,01677
3759,5461;0,0165815
3760,5105;0,0165303
3761,4746;0,0166134
3762,4390;0,016762
3763,4031;0,0169006
3764,3674;0,0169807
3765,3315;0,0169837
3766,2959;0,0169088
3767,2600;0,0167616
3768,2244;0,0165543
3769,1885;0,0163193
3770,1528;0,0161196
3771,1169;0,016028
3772,0813;0,0160822
3773,0454;0,0162558
3774,0098;0,0164752
3774,9739;0,0166595
3775,9382;0,0167527
3776,9023;0,0167374
3777,8667;0,0166379
3778,8308;0,0165153
3779,7952;0,0164408
3780,7593;0,0164508
3781,7236;0,0165271
3782,6877;0,0166169
3783,6521;0,0166686
3784,6162;0,0166559
3785,5806;0,0165876
3786,5447;0,0165004
3787,5090;0,0164396
3788,4731;0,0164358
3789,4375;0,0164926
3790,4016;0,0165909
3791,3660;0,0167049
3792,3301;0,0168215
3793,2944;0,0169485
3794,2585;0,0171044
3795,2229;0,0172942
3796,1870;0,0174879
3797,1514;0,0176226
3798,1155;0,0176294
3799,0798;0,0174717
3800,0439;0,0171797
3801,0083;0,0168593
3801,9724;0,0166371
3802,9368;0,0165547
3803,9009;0,0165319
3804,8652;0,0164461
3805,8293;0,016245
3806,7937;0,0160057
3807,7578;0,0158918
3808,7222;0,0160165
3809,6863;0,0163377
3810,6506;0,0166987
3811,6147;0,0169473
3812,5791;0,0170209
3813,5432;0,0169652
3814,5076;0,0168996
3815,4717;0,0169396
3816,4360;0,017111
3817,4001;0,0173223
3818,3645;0,0174249
3819,3286;0,0173122
3820,2930;0,0170065
3821,2571;0,0166736
3822,2214;0,0165056
3823,1855;0,0165626
3824,1499;0,0167544
3825,1140;0,0169478
3826,0784;0,0170587
3827,0425;0,0170792
3828,0068;0,0170553
3828,9709;0,0170446
3829,9353;0,0170825
3830,8994;0,0171706
3831,8638;0,017287
3832,8279;0,0174033
3833,7922;0,0174972
3834,7563;0,0175555
3835,7207;0,0175707
3836,6848;0,0175359
3837,6492;0,017449
3838,6133;0,0173251
3839,5776;0,0171923
3840,5417;0,017064
3841,5061;0,0169316
3842,4702;0,0167948
3843,4346;0,0166926
3844,3987;0,0166955
3845,3630;0,016859
3846,3271;0,0171753
3847,2915;0,0175657
3848,2556;0,0179118
3849,2200;0,0180964
3850,1841;0,0180215
3851,1484;0,017602
3852,1125;0,0167999
3853,0769;0,0158148
3854,0410;0,0151548
3855,0054;0,0151548
3855,9695;0,015661
3856,9338;0,0163256
3857,8979;0,0168991
3858,8623;0,0172841
3859,8264;0,0174889
3860,7908;0,0175674
3861,7549;0,0175739
3862,7192;0,0175432
3863,6833;0,0174999
3864,6477;0,0174665
3865,6118;0,0174527
3866,5762;0,0174494
3867,5403;0,0174381
3868,5046;0,0174003
3869,4688;0,0173185
3870,4331;0,0171851
3871,3972;0,0170193
3872,3616;0,0168691
3873,3257;0,0167848
3874,2900;0,016789
3875,2542;0,0168685
3876,2185;0,0169898
3877,1826;0,0171187
3878,1470;0,0172329
3879,1111;0,0173217
3880,0754;0,0173769
3881,0396;0,017384
3882,0039;0,0173207
3882,9680;0,0171711
3883,9324;0,0169549
3884,8965;0,0167451
3885,8608;0,0166379
3886,8250;0,0166838
3887,7893;0,0168443
3888,7534;0,0170175
3889,7178;0,0171039
3890,6819;0,0170663
3891,6462;0,0169616
3892,6104;0,0169073
3893,5747;0,0169853
3894,5388;0,0171773
3895,5032;0,0173998
3896,4673;0,0175754
3897,4316;0,0176696
3898,3958;0,017685
3899,3601;0,0176393
3900,3242;0,0175454
3901,2886;0,0174018
3902,2527;0,0172002
3903,2170;0,0169535
3904,1812;0,0167133
3905,1455;0,0165439
3906,1096;0,0164755
3907,0740;0,0164894
3908,0381;0,0165451
3909,0024;0,0166138
3909,9666;0,01669
3910,9309;0,016783
3911,8950;0,016899
3912,8594;0,0170276
3913,8235;0,0171405
3914,7878;0,0172027
3915,7520;0,017191
3916,7163;0,0171154
3917,6804;0,0170265
3918,6448;0,0169893
3919,6089;0,0170366
3920,5732;0,0171452
3921,5374;0,0172546
3922,5017;0,0173073
3923,4658;0,0172842
3924,4302;0,0172189
3925,3943;0,0171765
3926,3586;0,0172057
3927,3228;0,0173036
3928,2871;0,0174202
3929,2512;0,0174869
3930,2156;0,0174515
3931,1797;0,0173067
3932,1440;0,0171005
3933,1082;0,0169094
3934,0725;0,016792
3935,0366;0,0167643
3936,0010;0,0168093
3936,9651;0,0168987
3937,9294;0,017006
3938,8936;0,0171078
3939,8579;0,0171838
3940,8220;0,01722
3941,7864;0,0172185
3942,7505;0,0172014
3943,7148;0,0171988
3944,6790;0,0172264
3945,6433;0,0172725
3946,6074;0,0173048
3947,5718;0,0172898
3948,5359;0,0172151
3949,5002;0,0170992
3950,4644;0,0169826
3951,4287;0,0169017
3952,3928;0,0168702
3953,3572;0,0168802
3954,3213;0,0169148
3955,2856;0,0169593
3956,2498;0,0170047
3957,2141;0,017045
3958,1782;0,0170727
3959,1426;0,0170782
3960,1067;0,0170549
3961,0710;0,0170049
3962,0352;0,016942
3962,9995;0,0168867
3963,9636;0,0168566
3964,9280;0,0168583
3965,8921;0,0168856
3966,8564;0,016925
3967,8206;0,0169626
3968,7849;0,0169904
3969,7490;0,0170069
3970,7134;0,0170143
3971,6775;0,0170138
3972,6418;0,0170044
3973,6060;0,0169845
3974,5703;0,0169558
3975,5344;0,0169249
3976,4988;0,0169003
3977,4629;0,016888
3978,4272;0,0168879
3979,3914;0,0168941
3980,3557;0,0168985
3981,3198;0,0168952
3982,2842;0,0168834
3983,2483;0,0168679
3984,2126;0,0168567
3985,1768;0,0168577
3986,1411;0,016875
3987,1052;0,0169071
3988,0696;0,0169465
3989,0337;0,0169816
3989,9980;0,0170005
3990,9622;0,0169962
3991,9265;0,0169692
3992,8906;0,0169276
3993,8550;0,0168843
3994,8191;0,0168521
3995,7834;0,0168392
3996,7476;0,0168466
3997,7119;0,0168677
3998,6760;0,0168917
3999,6404;0,0169091
4000,6045;0,0171069

##### Extended Information
[Comments]
Sample name
Comment
Username
Division
Organization;UNIVERSIDAD INDUSTRIAL DE SANTANDER

[Detailed Information]
Creation date;25/02/2025 4:38 p.m.

Data array type;Linear data array
Horizontal axis;Wavenumber [cm-1]
Vertical axis;Abs
Start;399,193 cm-1
End;4000,6 cm-1
Data interval;0,964233 cm-1
Data points;3736    

[Measurement Information]
Model name;FT/IR-4X1typeA
Serial No.;A035162111

Accessory;ATR PRO 4X
Accessory S/N;A021162126
Incident angle;45 deg

Measurement date;25/02/2025 4:28 p.m.

Light source;Standard
Detector;TGS
Accumulation;40
Resolution;4 cm-1
Zero filling;On
Apodization;Cosine
Gain;Auto (8)
Aperture;Auto (7 mm)
Scan speed;Auto (2 mm/sec)
Filter;Auto (12800 Hz)

