TITLE;
DATA TYPE;INFRARED SPECTRUM
ORIGIN;JASCO
OWNER;
DATE;25/02/25
TIME;16:48:37
SPECTROMETER/DATA SYSTEM;
LOCALE;9226
RESOLUTION;
DELTAX;0,964233
XUNITS;1/CM
YUNITS;ABSORBANCE
FIRSTX;  399,1927
LASTX; 4000,6047
NPOINTS;    3736
FIRSTY;     0,17980
MAXY;     0,22397
MINY;     0,01140
XYDATA
399,1927;0,179796
400,1569;0,177634
401,1211;0,175092
402,0854;0,173034
403,0496;0,171654
404,0138;0,170699
404,9781;0,169771
405,9423;0,16864
406,9065;0,167435
407,8708;0,166587
408,8350;0,166536
409,7992;0,167412
410,7635;0,168909
411,7277;0,170444
412,6919;0,171523
413,6562;0,17204
414,6204;0,172291
415,5846;0,172781
416,5489;0,173983
417,5131;0,176029
418,4773;0,178339
419,4416;0,179814
420,4058;0,179903
421,3700;0,179102
422,3343;0,178251
423,2985;0,177866
424,2627;0,178015
425,2270;0,178412
426,1912;0,178623
427,1554;0,17834
428,1197;0,17757
429,0839;0,176623
430,0481;0,175944
431,0124;0,175894
431,9766;0,176588
432,9408;0,177839
433,9051;0,179232
434,8693;0,180298
435,8335;0,180695
436,7978;0,180345
437,7620;0,179435
438,7262;0,178296
439,6905;0,177259
440,6547;0,176561
441,6189;0,176306
442,5832;0,176439
443,5474;0,176757
444,5116;0,17698
445,4759;0,176875
446,4401;0,176364
447,4043;0,175537
448,3686;0,174606
449,3328;0,173813
450,2970;0,17333
451,2613;0,173177
452,2255;0,173213
453,1897;0,173224
454,1540;0,173048
455,1182;0,172665
456,0824;0,172217
457,0467;0,171925
458,0109;0,171959
458,9751;0,172306
459,9394;0,172801
460,9036;0,173255
461,8678;0,173556
462,8321;0,173658
463,7963;0,173543
464,7605;0,173209
465,7248;0,172696
466,6890;0,172108
467,6532;0,171594
468,6175;0,171282
469,5817;0,171223
470,5459;0,171364
471,5102;0,171569
472,4744;0,171694
473,4386;0,171677
474,4029;0,171563
475,3671;0,171444
476,3313;0,171386
477,2956;0,171402
478,2598;0,171474
479,2240;0,171588
480,1883;0,171759
481,1525;0,17203
482,1167;0,172439
483,0810;0,172975
484,0452;0,173566
485,0094;0,174096
485,9737;0,174472
486,9379;0,174675
487,9021;0,174762
488,8664;0,174825
489,8306;0,174933
490,7948;0,175096
491,7591;0,175257
492,7233;0,175327
493,6875;0,175252
494,6518;0,175055
495,6160;0,174827
496,5802;0,17467
497,5445;0,174644
498,5087;0,174738
499,4729;0,174894
500,4372;0,175053
501,4014;0,175203
502,3656;0,17539
503,3299;0,175671
504,2941;0,176053
505,2583;0,176476
506,2226;0,176849
507,1868;0,177115
508,1510;0,177296
509,1153;0,177479
510,0795;0,17775
511,0437;0,178137
512,0080;0,178592
512,9722;0,179039
513,9365;0,179434
514,9007;0,179797
515,8649;0,18019
516,8292;0,180659
517,7934;0,181169
518,7576;0,181617
519,7219;0,181896
520,6861;0,18198
521,6503;0,181924
522,6146;0,181823
523,5788;0,181745
524,5430;0,181707
525,5073;0,18167
526,4715;0,181582
527,4357;0,181418
528,4000;0,181198
529,3642;0,180959
530,3284;0,180724
531,2927;0,180488
532,2569;0,180215
533,2211;0,17987
534,1854;0,179442
535,1496;0,178964
536,1138;0,1785
537,0781;0,178124
538,0423;0,177886
539,0065;0,177797
539,9708;0,177828
540,9350;0,177927
541,8992;0,178047
542,8635;0,178158
543,8277;0,178255
544,7919;0,178355
545,7562;0,17849
546,7204;0,178696
547,6846;0,179006
548,6489;0,179426
549,6131;0,179931
550,5773;0,180472
551,5416;0,180987
552,5058;0,181437
553,4700;0,181811
554,4343;0,182118
555,3985;0,18236
556,3627;0,18251
557,3270;0,182512
558,2912;0,182302
559,2554;0,181841
560,2197;0,181136
561,1839;0,180241
562,1481;0,179237
563,1124;0,178209
564,0766;0,177225
565,0408;0,176322
566,0051;0,17551
566,9693;0,174779
567,9335;0,174111
568,8978;0,173495
569,8620;0,172931
570,8262;0,172434
571,7905;0,17202
572,7547;0,171705
573,7189;0,171493
574,6832;0,171375
575,6474;0,171326
576,6116;0,171314
577,5759;0,17131
578,5401;0,17129
579,5043;0,171242
580,4686;0,171168
581,4328;0,171071
582,3970;0,170959
583,3613;0,170836
584,3255;0,170706
585,2897;0,170579
586,2540;0,170467
587,2182;0,170388
588,1824;0,170358
589,1467;0,170382
590,1109;0,170448
591,0751;0,170523
592,0394;0,170559
593,0036;0,17051
593,9678;0,170351
594,9321;0,17009
595,8963;0,16976
596,8605;0,169409
597,8248;0,169081
598,7890;0,168796
599,7532;0,16855
600,7175;0,168312
601,6817;0,168041
602,6459;0,167709
603,6102;0,16731
604,5744;0,166858
605,5386;0,166378
606,5029;0,165887
607,4671;0,165374
608,4313;0,164816
609,3956;0,164187
610,3598;0,163497
611,3240;0,162802
612,2883;0,162184
613,2525;0,161713
614,2167;0,161394
615,1810;0,161142
616,1452;0,160796
617,1094;0,160188
618,0737;0,159233
619,0379;0,157973
620,0021;0,156553
620,9664;0,155134
621,9306;0,153835
622,8948;0,152706
623,8591;0,151745
624,8233;0,150881
625,7875;0,150144
626,7518;0,149498
627,7160;0,148916
628,6802;0,148376
629,6445;0,147869
630,6087;0,147391
631,5729;0,146944
632,5372;0,146516
633,5014;0,146091
634,4656;0,145648
635,4299;0,145185
636,3941;0,144723
637,3583;0,144299
638,3226;0,143948
639,2868;0,143678
640,2510;0,143466
641,2153;0,143272
642,1795;0,143065
643,1437;0,142837
644,1080;0,142606
645,0722;0,142397
646,0364;0,14222
647,0007;0,142058
647,9649;0,141873
648,9291;0,14163
649,8934;0,141319
650,8576;0,140965
651,8218;0,140626
652,7861;0,140368
653,7503;0,140245
654,7145;0,140275
655,6788;0,140431
656,6430;0,140651
657,6072;0,140869
658,5715;0,141033
659,5357;0,141102
660,4999;0,141026
661,4642;0,140726
662,4284;0,140105
663,3926;0,139078
664,3569;0,13765
665,3211;0,136037
666,2853;0,134755
667,2496;0,134381
668,2138;0,134867
669,1780;0,135372
670,1423;0,135372
671,1065;0,13492
672,0707;0,13406
673,0350;0,132782
673,9992;0,131181
674,9634;0,129467
675,9277;0,127851
676,8919;0,126443
677,8561;0,125223
678,8204;0,124109
679,7846;0,123036
680,7488;0,121992
681,7131;0,121001
682,6773;0,12008
683,6415;0,119236
684,6058;0,118461
685,5700;0,117752
686,5342;0,117108
687,4985;0,116526
688,4627;0,116006
689,4269;0,115527
690,3912;0,115076
691,3554;0,114649
692,3196;0,114245
693,2839;0,113858
694,2481;0,113473
695,2123;0,113069
696,1766;0,112627
697,1408;0,112141
698,1050;0,111633
699,0693;0,111139
700,0335;0,110698
700,9977;0,110325
701,9620;0,110004
702,9262;0,10969
703,8904;0,109319
704,8547;0,10886
705,8189;0,108314
706,7831;0,107715
707,7474;0,107111
708,7116;0,10654
709,6758;0,106023
710,6401;0,105548
711,6043;0,105084
712,5685;0,104588
713,5328;0,104034
714,4970;0,103431
715,4612;0,102091
716,4255;0,101675
717,3897;0,101382
718,3539;0,101137
719,3182;0,100798
720,2824;0,100228
721,2466;0,0993809
722,2109;0,098329
723,1751;0,0972177
724,1393;0,096181
725,1036;0,0952875
726,0678;0,0945375
727,0320;0,0938943
727,9963;0,0933205
728,9605;0,092794
729,9247;0,0923015
730,8890;0,0918244
731,8532;0,091336
732,8174;0,0908143
733,7817;0,0902584
734,7459;0,089693
735,7101;0,0891559
736,6744;0,0886765
737,6386;0,0882619
738,6028;0,0878975
739,5671;0,0875589
740,5313;0,0872254
741,4955;0,0868848
742,4598;0,0865303
743,4240;0,0861551
744,3882;0,0857502
745,3525;0,0853096
746,3167;0,0848364
747,2809;0,0843457
748,2452;0,0838599
749,2094;0,0833983
750,1736;0,0829669
751,1379;0,0825551
752,1021;0,0821414
753,0663;0,0817057
754,0306;0,0812406
754,9948;0,0807559
755,9590;0,0802729
756,9233;0,0798142
757,8875;0,0793941
758,8517;0,0790147
759,8160;0,0786699
760,7802;0,0783497
761,7444;0,0780454
762,7087;0,0777493
763,6729;0,077455
764,6371;0,0771578
765,6014;0,076857
766,5656;0,0765569
767,5298;0,0762648
768,4941;0,0759858
769,4583;0,0757181
770,4225;0,075453
771,3868;0,0751801
772,3510;0,0748942
773,3152;0,0745982
774,2795;0,0743009
775,2437;0,0740116
776,2079;0,0737349
777,1722;0,0734705
778,1364;0,0732156
779,1006;0,0729675
780,0649;0,0727239
781,0291;0,0724809
781,9933;0,0722323
782,9576;0,0719713
783,9218;0,0716947
784,8860;0,0714057
785,8503;0,0711139
786,8145;0,0708312
787,7787;0,0705669
788,7430;0,0703259
789,7072;0,0701088
790,6714;0,0699147
791,6357;0,0697424
792,5999;0,0695892
793,5641;0,0694492
794,5284;0,0693121
795,4926;0,0691672
796,4568;0,0690084
797,4211;0,0688386
798,3853;0,0686681
799,3495;0,0685082
800,3138;0,068364
801,2780;0,0682315
802,2422;0,0681019
803,2065;0,0679701
804,1707;0,0678392
805,1349;0,0677184
806,0992;0,0676142
807,0634;0,0675227
808,0276;0,0674298
808,9919;0,067319
809,9561;0,0671819
810,9203;0,0670223
811,8846;0,0668519
812,8488;0,0666804
813,8130;0,0665101
814,7773;0,0663375
815,7415;0,0661612
816,7057;0,0659877
817,6700;0,0658305
818,6342;0,0657016
819,5984;0,0656029
820,5627;0,0655236
821,5269;0,065446
822,4911;0,0653557
823,4554;0,0652496
824,4196;0,0651367
825,3839;0,0650314
826,3481;0,0649441
827,3123;0,0648746
828,2766;0,0648114
829,2408;0,0647375
830,2050;0,0646392
831,1693;0,064513
832,1335;0,0643651
833,0977;0,0642059
834,0620;0,0640414
835,0262;0,0638685
835,9904;0,0636772
836,9547;0,0634595
837,9189;0,0632173
838,8831;0,062964
839,8474;0,0627184
840,8116;0,0624946
841,7758;0,0622949
842,7401;0,0621104
843,7043;0,0619287
844,6685;0,0617419
845,6328;0,0615527
846,5970;0,0613729
847,5612;0,0612175
848,5255;0,0610973
849,4897;0,0610139
850,4539;0,0609582
851,4182;0,0609144
852,3824;0,0608673
853,3466;0,0608098
854,3109;0,0607455
855,2751;0,0606857
856,2393;0,0606411
857,2036;0,0606145
858,1678;0,0605995
859,1320;0,0605866
860,0963;0,0605716
861,0605;0,0605607
862,0247;0,0605684
862,9890;0,0606093
863,9532;0,0606914
864,9174;0,0608141
865,8817;0,0609716
866,8459;0,061157
867,8101;0,0613646
868,7744;0,0615875
869,7386;0,0618151
870,7028;0,0620339
871,6671;0,0622303
872,6313;0,0623954
873,5955;0,0625265
874,5598;0,0626275
875,5240;0,0627066
876,4882;0,062777
877,4525;0,062857
878,4167;0,0629688
879,3809;0,0631338
880,3452;0,0633658
881,3094;0,063667
882,2736;0,064031
883,2379;0,0644509
884,2021;0,0649283
885,1663;0,0654746
886,1306;0,0661045
887,0948;0,0668241
888,0590;0,0676228
889,0233;0,068474
889,9875;0,0693441
890,9517;0,0702025
891,9160;0,0710251
892,8802;0,0717908
893,8444;0,0724743
894,8087;0,0730429
895,7729;0,0734613
896,7371;0,0737011
897,7014;0,0737487
898,6656;0,0736071
899,6298;0,0732916
900,5941;0,072823
901,5583;0,0722257
902,5225;0,0715279
903,4868;0,0707657
904,4510;0,0699825
905,4152;0,0692259
906,3795;0,06854
907,3437;0,0679567
908,3079;0,0674909
909,2722;0,0671393
910,2364;0,0668847
911,2007;0,0667035
912,1649;0,0665737
913,1292;0,0664811
914,0934;0,0664208
915,0576;0,0663964
916,0219;0,066416
916,9861;0,0664876
917,9503;0,0666153
918,9146;0,0667956
919,8788;0,0670156
920,8430;0,067255
921,8073;0,067493
922,7715;0,0677166
923,7357;0,0679266
924,7000;0,0681363
925,6642;0,0683624
926,6284;0,068614
927,5927;0,0688867
928,5569;0,0691659
929,5211;0,0694375
930,4854;0,0696974
931,4496;0,0699544
932,4138;0,0702248
933,3781;0,0705235
934,3423;0,0708582
935,3065;0,0712299
936,2708;0,0716366
937,2350;0,072078
938,1992;0,0725563
939,1635;0,073076
940,1277;0,0736438
941,0919;0,0742689
942,0562;0,0749621
943,0204;0,0757328
943,9846;0,0765839
944,9489;0,0775083
945,9131;0,0784913
946,8773;0,0795177
947,8416;0,0805793
948,8058;0,0816793
949,7700;0,0828285
950,7343;0,0840387
951,6985;0,0853166
952,6627;0,086663
953,6270;0,0880757
954,5912;0,0895526
955,5554;0,0910916
956,5197;0,0926879
957,4839;0,0943313
958,4481;0,0960075
959,4124;0,0977025
960,3766;0,0994074
961,3408;0,101119
962,3051;0,102838
963,2693;0,104562
964,2335;0,106283
965,1978;0,107995
966,1620;0,1097
967,1262;0,111408
968,0905;0,113143
969,0547;0,114933
970,0189;0,116808
970,9832;0,118791
971,9474;0,120908
972,9116;0,123181
973,8759;0,125631
974,8401;0,128275
975,8043;0,131115
976,7686;0,134141
977,7328;0,137328
978,6970;0,140639
979,6613;0,144019
980,6255;0,147395
981,5897;0,150679
982,5540;0,153773
983,5182;0,156588
984,4824;0,159063
985,4467;0,161184
986,4109;0,162976
987,3751;0,164496
988,3394;0,165809
989,3036;0,16697
990,2678;0,168013
991,2321;0,168957
992,1963;0,169811
993,1605;0,170585
994,1248;0,171299
995,0890;0,171985
996,0532;0,172677
997,0175;0,173408
997,9817;0,174194
998,9459;0,175036
999,9102;0,175916
1000,8744;0,176816
1001,8386;0,177727
1002,8029;0,178663
1003,7671;0,179655
1004,7313;0,180749
1005,6956;0,181985
1006,6598;0,183397
1007,6240;0,185
1008,5883;0,186796
1009,5525;0,188773
1010,5167;0,190904
1011,4810;0,193151
1012,4452;0,195468
1013,4094;0,19781
1014,3737;0,200136
1015,3379;0,202414
1016,3021;0,204615
1017,2664;0,206713
1018,2306;0,208682
1019,1948;0,210501
1020,1591;0,212165
1021,1233;0,213688
1022,0875;0,2151
1023,0518;0,216438
1024,0160;0,217731
1024,9802;0,218989
1025,9445;0,2202
1026,9087;0,221331
1027,8729;0,222334
1028,8372;0,223152
1029,8014;0,223719
1030,7656;0,223971
1031,7299;0,223852
1032,6941;0,22332
1033,6583;0,222366
1034,6226;0,22102
1035,5868;0,219357
1036,5510;0,217495
1037,5153;0,215578
1038,4795;0,213751
1039,4437;0,212138
1040,4080;0,210814
1041,3722;0,209799
1042,3364;0,209063
1043,3007;0,20854
1044,2649;0,208153
1045,2291;0,207823
1046,1934;0,207479
1047,1576;0,207061
1048,1218;0,206521
1049,0861;0,20582
1050,0503;0,204936
1051,0145;0,203855
1051,9788;0,202574
1052,9430;0,201098
1053,9072;0,199433
1054,8715;0,197585
1055,8357;0,195561
1056,7999;0,193358
1057,7642;0,19096
1058,7284;0,188344
1059,6926;0,185489
1060,6569;0,1824
1061,6211;0,17912
1062,5853;0,175741
1063,5496;0,172381
1064,5138;0,169158
1065,4780;0,166165
1066,4423;0,163446
1067,4065;0,160998
1068,3707;0,158785
1069,3350;0,156757
1070,2992;0,154867
1071,2634;0,153075
1072,2277;0,151346
1073,1919;0,149642
1074,1561;0,147925
1075,1204;0,146156
1076,0846;0,144314
1077,0488;0,142405
1078,0131;0,140463
1078,9773;0,13855
1079,9415;0,136737
1080,9058;0,135085
1081,8700;0,133634
1082,8342;0,132392
1083,7985;0,131338
1084,7627;0,130436
1085,7269;0,129644
1086,6912;0,128933
1087,6554;0,128286
1088,6196;0,127708
1089,5839;0,127209
1090,5481;0,126804
1091,5123;0,126496
1092,4766;0,126278
1093,4408;0,126136
1094,4050;0,126049
1095,3693;0,126007
1096,3335;0,126008
1097,2977;0,126056
1098,2620;0,126156
1099,2262;0,126304
1100,1904;0,126479
1101,1547;0,126649
1102,1189;0,126777
1103,0831;0,126829
1104,0474;0,126784
1105,0116;0,126636
1105,9758;0,12639
1106,9401;0,126059
1107,9043;0,125649
1108,8685;0,125154
1109,8328;0,124549
1110,7970;0,123798
1111,7612;0,122864
1112,7255;0,12173
1113,6897;0,120421
1114,6539;0,118999
1115,6182;0,117555
1116,5824;0,116181
1117,5466;0,114941
1118,5109;0,113849
1119,4751;0,112874
1120,4393;0,111944
1121,4036;0,110973
1122,3678;0,109878
1123,3320;0,108597
1124,2963;0,107096
1125,2605;0,105375
1126,2247;0,103461
1127,1890;0,101403
1128,1532;0,0992573
1129,1174;0,0970773
1130,0817;0,0949026
1131,0459;0,0927588
1132,0101;0,090664
1132,9744;0,0886387
1133,9386;0,0867139
1134,9028;0,0849314
1135,8671;0,0833368
1136,8313;0,0819681
1137,7955;0,080848
1138,7598;0,0799814
1139,7240;0,0793593
1140,6882;0,0789633
1141,6525;0,0787693
1142,6167;0,078748
1143,5809;0,0788655
1144,5452;0,0790871
1145,5094;0,0793838
1146,4736;0,0797389
1147,4379;0,08015
1148,4021;0,0806246
1149,3663;0,0811703
1150,3306;0,0817846
1151,2948;0,0824499
1152,2590;0,0831343
1153,2233;0,0837979
1154,1875;0,0844
1155,1517;0,0849023
1156,1160;0,0852681
1157,0802;0,0854567
1158,0444;0,0854206
1159,0087;0,0851045
1159,9729;0,0844519
1160,9371;0,0834162
1161,9014;0,0819734
1162,8656;0,0801317
1163,8298;0,0779352
1164,7941;0,0754596
1165,7583;0,0728023
1166,7225;0,0700699
1167,6868;0,067365
1168,6510;0,0647752
1169,6152;0,0623654
1170,5795;0,0601743
1171,5437;0,0582158
1172,5079;0,056485
1173,4722;0,0549662
1174,4364;0,0536399
1175,4006;0,0524883
1176,3649;0,0514955
1177,3291;0,050647
1178,2933;0,0499274
1179,2576;0,0493198
1180,2218;0,0488075
1181,1860;0,0483759
1182,1503;0,048016
1183,1145;0,047725
1184,0787;0,0475057
1185,0430;0,0473636
1186,0072;0,0473033
1186,9714;0,0473265
1187,9357;0,0474313
1188,8999;0,0476138
1189,8641;0,0478709
1190,8284;0,0482013
1191,7926;0,0486052
1192,7568;0,0490829
1193,7211;0,0496328
1194,6853;0,0502501
1195,6495;0,050927
1196,6138;0,0516532
1197,5780;0,0524161
1198,5422;0,0532017
1199,5065;0,0538693
1200,4707;0,05467
1201,4349;0,055452
1202,3992;0,0562061
1203,3634;0,0569277
1204,3276;0,0576174
1205,2919;0,0582812
1206,2561;0,0589303
1207,2203;0,0595813
1208,1846;0,0602538
1209,1488;0,060968
1210,1130;0,0617408
1211,0773;0,0625823
1212,0415;0,0634942
1213,0057;0,0644706
1213,9700;0,0654995
1214,9342;0,0665652
1215,8984;0,06765
1216,8627;0,0687351
1217,8269;0,0698029
1218,7911;0,0708405
1219,7554;0,0718403
1220,7196;0,0727981
1221,6838;0,0737097
1222,6481;0,0745676
1223,6123;0,0753623
1224,5765;0,0760864
1225,5408;0,0767401
1226,5050;0,077333
1227,4692;0,0778797
1228,4335;0,0783928
1229,3977;0,0788755
1230,3619;0,0793213
1231,3262;0,0797184
1232,2904;0,0800574
1233,2546;0,0803368
1234,2189;0,0805626
1235,1831;0,0807446
1236,1473;0,0808917
1237,1116;0,0810081
1238,0758;0,0810938
1239,0400;0,0811454
1240,0043;0,081158
1240,9685;0,081125
1241,9327;0,0810389
1242,8970;0,0808931
1243,8612;0,0806831
1244,8254;0,0804098
1245,7897;0,0800795
1246,7539;0,0797036
1247,7181;0,0792957
1248,6824;0,0788679
1249,6466;0,0784277
1250,6108;0,0779771
1251,5751;0,0775145
1252,5393;0,0770383
1253,5035;0,0765504
1254,4678;0,0760559
1255,4320;0,0755603
1256,3962;0,0750644
1257,3605;0,0745616
1258,3247;0,0740401
1259,2889;0,0734871
1260,2532;0,0728948
1261,2174;0,0722625
1262,1816;0,0715946
1263,1459;0,0708977
1264,1101;0,0701775
1265,0743;0,0694385
1266,0386;0,0686838
1267,0028;0,0679139
1267,9670;0,0671253
1268,9313;0,0663102
1269,8955;0,0654606
1270,8597;0,0645739
1271,8240;0,0636587
1272,7882;0,0627352
1273,7524;0,0618301
1274,7167;0,0609693
1275,6809;0,0601694
1276,6451;0,0594337
1277,6094;0,0587513
1278,5736;0,0581018
1279,5378;0,0574629
1280,5021;0,0568197
1281,4663;0,0561714
1282,4305;0,0555309
1283,3948;0,0549179
1284,3590;0,0543495
1285,3232;0,0538333
1286,2875;0,053367
1287,2517;0,0529432
1288,2159;0,0525572
1289,1802;0,0522113
1290,1444;0,0519146
1291,1086;0,0516777
1292,0729;0,0515082
1293,0371;0,0514075
1294,0013;0,0513719
1294,9656;0,0513963
1295,9298;0,0514774
1296,8940;0,0516161
1297,8583;0,0518168
1298,8225;0,0520841
1299,7867;0,0524196
1300,7510;0,0528191
1301,7152;0,0532756
1302,6794;0,0537795
1303,6437;0,0543229
1304,6079;0,0549014
1305,5721;0,0555127
1306,5364;0,0561544
1307,5006;0,0568232
1308,4648;0,0575148
1309,4291;0,0582224
1310,3933;0,0589347
1311,3575;0,0596334
1312,3218;0,0602936
1313,2860;0,0608883
1314,2502;0,0613943
1315,2145;0,0617943
1316,1787;0,0620735
1317,1429;0,0622182
1318,1072;0,0622193
1319,0714;0,0620834
1320,0356;0,0618399
1320,9999;0,0615356
1321,9641;0,0612183
1322,9283;0,0609215
1323,8926;0,06066
1324,8568;0,0604344
1325,8210;0,0602393
1326,7853;0,0600689
1327,7495;0,059918
1328,7137;0,0597787
1329,6780;0,0596384
1330,6422;0,0594825
1331,6064;0,059301
1332,5707;0,0590946
1333,5349;0,0588761
1334,4991;0,05866
1335,4634;0,058448
1336,4276;0,0582162
1337,3918;0,057911
1338,3561;0,0574704
1339,3203;0,0568697
1340,2845;0,0561577
1341,2488;0,0554349
1342,2130;0,0547927
1343,1772;0,0542755
1344,1415;0,0538873
1345,1057;0,0536137
1346,0699;0,053439
1347,0342;0,0533523
1347,9984;0,0533491
1348,9626;0,0534294
1349,9269;0,0535936
1350,8911;0,0538378
1351,8553;0,0541511
1352,8196;0,054518
1353,7838;0,0549235
1354,7480;0,0553589
1355,7123;0,0558259
1356,6765;0,0563345
1357,6407;0,0568974
1358,6050;0,0575235
1359,5692;0,058208
1360,5334;0,0589173
1361,4977;0,0595827
1362,4619;0,0601307
1363,4261;0,0605404
1364,3904;0,0608567
1365,3546;0,0611424
1366,3188;0,0614313
1367,2831;0,0617199
1368,2473;0,061984
1369,2115;0,0621972
1370,1758;0,0623419
1371,1400;0,0624061
1372,1042;0,0623711
1373,0685;0,0622062
1374,0327;0,0618844
1374,9969;0,0614115
1375,9612;0,0608286
1376,9254;0,060173
1377,8896;0,0594443
1378,8539;0,0586184
1379,8181;0,0576895
1380,7823;0,0566994
1381,7466;0,0557229
1382,7108;0,0548212
1383,6750;0,0540032
1384,6393;0,053227
1385,6035;0,0524323
1386,5677;0,0515928
1387,5320;0,0507579
1388,4962;0,0500318
1389,4604;0,0494889
1390,4247;0,0491268
1391,3889;0,0488985
1392,3531;0,0487631
1393,3174;0,0486994
1394,2816;0,0486877
1395,2458;0,0486911
1396,2101;0,0486653
1397,1743;0,0485896
1398,1385;0,0484858
1399,1028;0,0484075
1400,0670;0,0484075
1401,0313;0,0485095
1401,9955;0,0487018
1402,9597;0,048952
1403,9240;0,0492277
1404,8882;0,049513
1405,8524;0,0498161
1406,8167;0,0501593
1407,7809;0,050558
1408,7451;0,0510103
1409,7094;0,0515048
1410,6736;0,0520347
1411,6378;0,0526001
1412,6021;0,053202
1413,5663;0,0538332
1414,5305;0,0544789
1415,4948;0,0551243
1416,4590;0,05575
1417,4232;0,0563099
1418,3875;0,0567384
1419,3517;0,0570229
1420,3159;0,057231
1421,2802;0,0574147
1422,2444;0,0575433
1423,2086;0,0575449
1424,1729;0,0573749
1425,1371;0,0570414
1426,1013;0,0565818
1427,0656;0,0560226
1428,0298;0,0553654
1428,9940;0,0546121
1429,9583;0,0538027
1430,9225;0,053011
1431,8867;0,0522871
1432,8510;0,0516106
1433,8152;0,050905
1434,7794;0,0500915
1435,7437;0,0491565
1436,7079;0,0482141
1437,6721;0,0474721
1438,6364;0,0470609
1439,6006;0,0469384
1440,5648;0,0469791
1441,5291;0,0470908
1442,4933;0,0472498
1443,4575;0,0474731
1444,4218;0,0477754
1445,3860;0,0481433
1446,3502;0,0485398
1447,3145;0,0489283
1448,2787;0,0492975
1449,2429;0,0496631
1450,2072;0,0500383
1451,1714;0,0504039
1452,1356;0,0507136
1453,0999;0,0509324
1454,0641;0,0510673
1455,0283;0,051146
1455,9926;0,0511152
1456,9568;0,0508247
1457,9210;0,0503408
1458,8853;0,0499988
1459,8495;0,0499267
1460,8137;0,0499689
1461,7780;0,049926
1462,7422;0,0496674
1463,7064;0,0491318
1464,6707;0,0483414
1465,6349;0,0474279
1466,5991;0,0465542
1467,5634;0,045772
1468,5276;0,0450062
1469,4918;0,0441431
1470,4561;0,0430915
1471,4203;0,0417889
1472,3845;0,0402282
1473,3488;0,0385501
1474,3130;0,0370272
1475,2772;0,0358416
1476,2415;0,0349766
1477,2057;0,0343249
1478,1699;0,0337968
1479,1342;0,0333449
1480,0984;0,0329513
1481,0626;0,0326166
1482,0269;0,0323561
1482,9911;0,0321924
1483,9553;0,0321432
1484,9196;0,0322163
1485,8838;0,0324123
1486,8480;0,0327166
1487,8123;0,0330637
1488,7765;0,0333304
1489,7407;0,033451
1490,7050;0,0335172
1491,6692;0,0336631
1492,6334;0,0339372
1493,5977;0,034332
1494,5619;0,0348544
1495,5261;0,0355351
1496,4904;0,0363736
1497,4546;0,0372964
1498,4188;0,0382103
1499,3831;0,0390713
1500,3473;0,0398487
1501,3115;0,0404834
1502,2758;0,0409236
1503,2400;0,0411886
1504,2042;0,0414105
1505,1685;0,0417835
1506,1327;0,0422977
1507,0969;0,0425106
1508,0612;0,0421541
1509,0254;0,0415799
1509,9896;0,0410836
1510,9539;0,040662
1511,9181;0,0402376
1512,8823;0,0397715
1513,8466;0,0392547
1514,8108;0,0386772
1515,7750;0,0380214
1516,7393;0,0372815
1517,7035;0,036474
1518,6677;0,0356253
1519,6320;0,0347596
1520,5962;0,0339143
1521,5604;0,0331609
1522,5247;0,032578
1523,4889;0,0321826
1524,4531;0,0319119
1525,4174;0,0316844
1526,3816;0,0314666
1527,3458;0,0312828
1528,3101;0,0311682
1529,2743;0,0311288
1530,2385;0,0311436
1531,2028;0,0311897
1532,1670;0,0312509
1533,1312;0,031315
1534,0955;0,0313769
1535,0597;0,0314285
1536,0239;0,0314449
1536,9882;0,0314185
1537,9524;0,0314185
1538,9166;0,0315794
1539,8809;0,0319243
1540,8451;0,0322076
1541,8093;0,0322566
1542,7736;0,0322224
1543,7378;0,0322333
1544,7020;0,0322858
1545,6663;0,0323665
1546,6305;0,0324868
1547,5947;0,0326508
1548,5590;0,0328332
1549,5232;0,0329931
1550,4874;0,0331043
1551,4517;0,0331742
1552,4159;0,0332304
1553,3801;0,0332839
1554,3444;0,0333114
1555,3086;0,0332784
1556,2728;0,033163
1557,2371;0,0329089
1558,2013;0,0323984
1559,1655;0,031805
1560,1298;0,0316794
1561,0940;0,032166
1562,0582;0,0329459
1563,0225;0,0337062
1563,9867;0,0343011
1564,9509;0,0347118
1565,9152;0,0349859
1566,8794;0,0351934
1567,8436;0,035396
1568,8079;0,0356336
1569,7721;0,0359287
1570,7363;0,0362831
1571,7006;0,0366692
1572,6648;0,0370525
1573,6290;0,0374367
1574,5933;0,0378701
1575,5575;0,0383899
1576,5217;0,0389726
1577,4860;0,0395853
1578,4502;0,0402334
1579,4144;0,0409157
1580,3787;0,0416119
1581,3429;0,0423125
1582,3071;0,0430266
1583,2714;0,0437662
1584,2356;0,0445342
1585,1998;0,0453265
1586,1641;0,0461355
1587,1283;0,0469453
1588,0925;0,0477286
1589,0568;0,0484499
1590,0210;0,0490758
1590,9852;0,0495823
1591,9495;0,0499517
1592,9137;0,0501675
1593,8779;0,0502174
1594,8422;0,0501075
1595,8064;0,0498717
1596,7706;0,0495641
1597,7349;0,0492364
1598,6991;0,0489191
1599,6633;0,0486182
1600,6276;0,048325
1601,5918;0,0480328
1602,5560;0,0477487
1603,5203;0,0474924
1604,4845;0,0472801
1605,4487;0,0471073
1606,4130;0,0469476
1607,3772;0,0467701
1608,3414;0,0465672
1609,3057;0,0463699
1610,2699;0,0462263
1611,2341;0,0461542
1612,1984;0,0461221
1613,1626;0,0460765
1614,1268;0,0459818
1615,0911;0,0458413
1616,0553;0,0457064
1617,0195;0,045678
1617,9838;0,0458419
1618,9480;0,0461739
1619,9122;0,0465589
1620,8765;0,0468874
1621,8407;0,0471085
1622,8049;0,0472262
1623,7692;0,0472812
1624,7334;0,0473264
1625,6976;0,0473961
1626,6619;0,0474951
1627,6261;0,047619
1628,5903;0,04777
1629,5546;0,0479456
1630,5188;0,0481189
1631,4830;0,048248
1632,4473;0,0483096
1633,4115;0,0483189
1634,3757;0,0482958
1635,3400;0,0482162
1636,3042;0,0480877
1637,2684;0,048035
1638,2327;0,048147
1639,1969;0,0483727
1640,1611;0,0486112
1641,1254;0,048793
1642,0896;0,0488924
1643,0538;0,0489153
1644,0181;0,0488812
1644,9823;0,0487926
1645,9465;0,0486194
1646,9108;0,0483681
1647,8750;0,0481215
1648,8392;0,0479094
1649,8035;0,04765
1650,7677;0,0472375
1651,7319;0,0465881
1652,6962;0,0456484
1653,6604;0,0446318
1654,6246;0,0440684
1655,5889;0,0441089
1656,5531;0,044419
1657,5173;0,0446576
1658,4816;0,0446631
1659,4458;0,044408
1660,4100;0,0439275
1661,3743;0,0432888
1662,3385;0,0426047
1663,3027;0,0420178
1664,2670;0,0416076
1665,2312;0,0413391
1666,1954;0,0411105
1667,1597;0,0408186
1668,1239;0,0403899
1669,0881;0,0398093
1670,0524;0,0391559
1671,0166;0,0385538
1671,9808;0,0380441
1672,9451;0,0375588
1673,9093;0,0370229
1674,8735;0,0364553
1675,8378;0,0359814
1676,8020;0,0357325
1677,7662;0,0357172
1678,7305;0,0358098
1679,6947;0,0358433
1680,6589;0,0356904
1681,6232;0,0352769
1682,5874;0,0345667
1683,5516;0,0336256
1684,5159;0,0327439
1685,4801;0,0322455
1686,4443;0,0321386
1687,4086;0,0321921
1688,3728;0,0321947
1689,3370;0,0320599
1690,3013;0,0318062
1691,2655;0,0315031
1692,2297;0,0312254
1693,1940;0,0310302
1694,1582;0,0309436
1695,1224;0,0309433
1696,0867;0,0309463
1697,0509;0,0308407
1698,0151;0,0305746
1698,9794;0,0302377
1699,9436;0,0300313
1700,9078;0,0301163
1701,8721;0,0304914
1702,8363;0,0310229
1703,8005;0,0315557
1704,7648;0,0319939
1705,7290;0,0323238
1706,6932;0,0326015
1707,6575;0,0329127
1708,6217;0,0333201
1709,5859;0,0338365
1710,5502;0,034437
1711,5144;0,035086
1712,4786;0,0357537
1713,4429;0,0364178
1714,4071;0,0370527
1715,3713;0,0376015
1716,3356;0,0379762
1717,2998;0,0381724
1718,2640;0,0383624
1719,2283;0,0387237
1720,1925;0,0392637
1721,1567;0,0398764
1722,1210;0,0404575
1723,0852;0,0409527
1724,0494;0,0413599
1725,0137;0,0417153
1725,9779;0,0420702
1726,9421;0,0424596
1727,9064;0,0428783
1728,8706;0,0432803
1729,8348;0,0435941
1730,7991;0,043739
1731,7633;0,0436326
1732,7275;0,0432271
1733,6918;0,0426095
1734,6560;0,0420216
1735,6202;0,0416454
1736,5845;0,0414403
1737,5487;0,0412415
1738,5129;0,0409153
1739,4772;0,0404259
1740,4414;0,0398266
1741,4056;0,0392064
1742,3699;0,0386207
1743,3341;0,0380603
1744,2983;0,0374803
1745,2626;0,0368438
1746,2268;0,0361304
1747,1910;0,0353072
1748,1553;0,034307
1749,1195;0,0330771
1750,0837;0,0316895
1751,0480;0,0303522
1752,0122;0,0292511
1752,9764;0,028419
1753,9407;0,0277671
1754,9049;0,0271847
1755,8691;0,026605
1756,8334;0,0260164
1757,7976;0,0254332
1758,7618;0,0248553
1759,7261;0,024256
1760,6903;0,0236116
1761,6545;0,0229445
1762,6188;0,0223285
1763,5830;0,0218377
1764,5472;0,0214906
1765,5115;0,0212466
1766,4757;0,021044
1767,4399;0,0208365
1768,4042;0,0206044
1769,3684;0,0203453
1770,3326;0,0200564
1771,2969;0,0197355
1772,2611;0,019409
1773,2253;0,0191455
1774,1896;0,0190052
1775,1538;0,0189805
1776,1180;0,0190079
1777,0823;0,019021
1778,0465;0,0189873
1779,0107;0,0189111
1779,9750;0,018816
1780,9392;0,0187204
1781,9034;0,0186244
1782,8677;0,0185171
1783,8319;0,0183972
1784,7961;0,0182867
1785,7604;0,0182204
1786,7246;0,0182192
1787,6888;0,0182736
1788,6531;0,0183524
1789,6173;0,0184191
1790,5815;0,0184382
1791,5458;0,0183829
1792,5100;0,0182668
1793,4742;0,0181574
1794,4385;0,0181146
1795,4027;0,0181335
1796,3669;0,018167
1797,3312;0,0181759
1798,2954;0,0181503
1799,2596;0,0180991
1800,2239;0,0180315
1801,1881;0,017952
1802,1523;0,0178663
1803,1166;0,0177863
1804,0808;0,0177278
1805,0450;0,0177052
1806,0093;0,0177259
1806,9735;0,0177835
1807,9377;0,0178548
1808,9020;0,0179026
1809,8662;0,0178927
1810,8304;0,0178168
1811,7947;0,017702
1812,7589;0,0175925
1813,7231;0,0175214
1814,6874;0,0174977
1815,6516;0,0175103
1816,6158;0,017539
1817,5801;0,0175652
1818,5443;0,017581
1819,5085;0,0175904
1820,4728;0,017602
1821,4370;0,0176196
1822,4012;0,0176393
1823,3655;0,0176528
1824,3297;0,0176539
1825,2939;0,0176449
1826,2582;0,0176333
1827,2224;0,0176206
1828,1866;0,0175951
1829,1509;0,0175401
1830,1151;0,017456
1831,0793;0,0173719
1832,0436;0,0173245
1833,0078;0,0173244
1833,9720;0,0173545
1834,9363;0,0173923
1835,9005;0,0174279
1836,8647;0,0174665
1837,8290;0,0175179
1838,7932;0,0175825
1839,7574;0,0176454
1840,7217;0,0176867
1841,6859;0,0176945
1842,6501;0,017668
1843,6144;0,0176122
1844,5786;0,0175411
1845,5428;0,0174795
1846,5071;0,0174413
1847,4713;0,0174132
1848,4355;0,0173719
1849,3998;0,0173089
1850,3640;0,0172377
1851,3282;0,0171804
1852,2925;0,0171509
1853,2567;0,0171477
1854,2209;0,0171615
1855,1852;0,0171851
1856,1494;0,0172175
1857,1136;0,0172579
1858,0779;0,017299
1859,0421;0,0173269
1860,0063;0,0173314
1860,9706;0,0173169
1861,9348;0,0173035
1862,8990;0,0173157
1863,8633;0,01737
1864,8275;0,0174685
1865,7917;0,0175982
1866,7560;0,0177264
1867,7202;0,0178022
1868,6844;0,0177846
1869,6487;0,0176831
1870,6129;0,0175506
1871,5771;0,0174335
1872,5414;0,0173462
1873,5056;0,0172829
1874,4698;0,017235
1875,4341;0,0171965
1876,3983;0,0171636
1877,3625;0,0171354
1878,3268;0,0171164
1879,2910;0,017114
1880,2552;0,0171333
1881,2195;0,0171719
1882,1837;0,0172203
1883,1479;0,0172676
1884,1122;0,0173092
1885,0764;0,0173486
1886,0406;0,0173921
1887,0049;0,0174392
1887,9691;0,0174771
1888,9333;0,017486
1889,8976;0,0174544
1890,8618;0,0173913
1891,8260;0,0173189
1892,7903;0,0172574
1893,7545;0,0172155
1894,7188;0,0171929
1895,6830;0,0171872
1896,6472;0,0171997
1897,6115;0,0172342
1898,5757;0,0172896
1899,5399;0,0173548
1900,5042;0,0174098
1901,4684;0,017436
1902,4326;0,0174271
1903,3969;0,0173966
1904,3611;0,0173726
1905,3253;0,0173835
1906,2896;0,0174422
1907,2538;0,0175359
1908,2180;0,0176284
1909,1823;0,0176748
1910,1465;0,0176476
1911,1107;0,0175537
1912,0750;0,0174295
1913,0392;0,0173199
1914,0034;0,0172585
1914,9677;0,0172574
1915,9319;0,0173036
1916,8961;0,0173639
1917,8604;0,0174041
1918,8246;0,0174126
1919,7888;0,0174048
1920,7531;0,0174063
1921,7173;0,0174307
1922,6815;0,0174706
1923,6458;0,0175029
1924,6100;0,0175046
1925,5742;0,0174666
1926,5385;0,0173959
1927,5027;0,0173087
1928,4669;0,0172233
1929,4312;0,0171562
1930,3954;0,0171212
1931,3596;0,0171279
1932,3239;0,0171761
1933,2881;0,0172519
1934,2523;0,0173286
1935,2166;0,0173783
1936,1808;0,017388
1937,1450;0,01737
1938,1093;0,0173554
1939,0735;0,0173749
1940,0377;0,0174363
1941,0020;0,0175142
1941,9662;0,0175633
1942,9304;0,0175516
1943,8947;0,0174877
1944,8589;0,0174111
1945,8231;0,0173553
1946,7874;0,0173218
1947,7516;0,017284
1948,7158;0,0172109
1949,6801;0,0170914
1950,6443;0,0169414
1951,6085;0,0167921
1952,5728;0,016671
1953,5370;0,0165926
1954,5012;0,0165624
1955,4655;0,0165821
1956,4297;0,0166464
1957,3939;0,0167326
1958,3582;0,0167984
1959,3224;0,0168012
1960,2866;0,0167319
1961,2509;0,0166354
1962,2151;0,0165924
1963,1793;0,0166685
1964,1436;0,0168677
1965,1078;0,017123
1966,0720;0,0173328
1967,0363;0,0174205
1968,0005;0,0173751
1968,9647;0,0172414
1969,9290;0,0170738
1970,8932;0,0169026
1971,8574;0,0167402
1972,8217;0,0166109
1973,7859;0,0165656
1974,7501;0,0166586
1975,7144;0,0168998
1976,6786;0,0172242
1977,6428;0,0175175
1978,6071;0,0176872
1979,5713;0,0177187
1980,5355;0,0176712
1981,4998;0,0176247
1982,4640;0,0176282
1983,4282;0,0176792
1984,3925;0,017738
1985,3567;0,0177611
1986,3209;0,017733
1987,2852;0,0176776
1988,2494;0,017646
1989,2136;0,0176901
1990,1779;0,0178339
1991,1421;0,0180556
1992,1063;0,0182924
1993,0706;0,0184667
1994,0348;0,0185226
1994,9990;0,0184483
1995,9633;0,0182779
1996,9275;0,0180756
1997,8917;0,0179089
1998,8560;0,0178204
1999,8202;0,0178066
2000,7844;0,017822
2001,7487;0,0178075
2002,7129;0,0177298
2003,6771;0,0176082
2004,6414;0,0175123
2005,6056;0,0175254
2006,5698;0,0176912
2007,5341;0,0179753
2008,4983;0,0182753
2009,4625;0,0184752
2010,4268;0,0185072
2011,3910;0,0183808
2012,3552;0,018168
2013,3195;0,0179625
2014,2837;0,0178384
2015,2479;0,0178251
2016,2122;0,017905
2017,1764;0,0180317
2018,1406;0,018157
2019,1049;0,0182559
2020,0691;0,0183334
2021,0333;0,0184144
2021,9976;0,0185209
2022,9618;0,0186479
2023,9260;0,0187543
2024,8903;0,0187797
2025,8545;0,0186819
2026,8187;0,0184727
2027,7830;0,0182228
2028,7472;0,0180272
2029,7114;0,0179512
2030,6757;0,0179949
2031,6399;0,0180997
2032,6041;0,0181926
2033,5684;0,018235
2034,5326;0,0182403
2035,4968;0,0182531
2036,4611;0,018311
2037,4253;0,0184234
2038,3895;0,0185745
2039,3538;0,0187375
2040,3180;0,0188843
2041,2822;0,0189884
2042,2465;0,0190297
2043,2107;0,019007
2044,1749;0,0189499
2045,1392;0,018915
2046,1034;0,0189585
2047,0676;0,0190971
2048,0320;0,0192856
2048,9961;0,0194383
2049,9604;0,0194822
2050,9246;0,0194006
2051,8889;0,0192379
2052,8530;0,0190699
2053,8174;0,0189637
2054,7815;0,018948
2055,7458;0,0190075
2056,7100;0,0190982
2057,6743;0,0191746
2058,6384;0,0192091
2059,6028;0,0191988
2060,5669;0,0191605
2061,5313;0,0191222
2062,4954;0,019114
2063,4597;0,0191567
2064,4238;0,0192512
2065,3882;0,0193737
2066,3523;0,019483
2067,3167;0,0195388
2068,2808;0,0195209
2069,2451;0,0194371
2070,2092;0,0193168
2071,1736;0,0191948
2072,1377;0,0190972
2073,1021;0,0190367
2074,0662;0,0190161
2075,0305;0,0190345
2075,9946;0,0190888
2076,9590;0,0191695
2077,9231;0,0192581
2078,8875;0,0193312
2079,8516;0,0193698
2080,8159;0,0193701
2081,7800;0,0193451
2082,7444;0,0193173
2083,7085;0,0193065
2084,6729;0,0193202
2085,6370;0,0193515
2086,6013;0,0193848
2087,5654;0,0194039
2088,5298;0,0193979
2089,4939;0,0193634
2090,4583;0,0193035
2091,4224;0,0192273
2092,3867;0,0191501
2093,3508;0,0190917
2094,3152;0,0190722
2095,2793;0,0191033
2096,2437;0,0191804
2097,2078;0,0192805
2098,1721;0,0193708
2099,1362;0,0194226
2100,1006;0,0194252
2101,0647;0,0193874
2102,0291;0,0193382
2102,9932;0,0193097
2103,9575;0,0193233
2104,9216;0,0193807
2105,8860;0,0194642
2106,8501;0,0195463
2107,8145;0,0196043
2108,7786;0,0196307
2109,7429;0,0196355
2110,7070;0,0196386
2111,6714;0,0196582
2112,6355;0,0197007
2113,5999;0,0197589
2114,5640;0,0198166
2115,5283;0,0198571
2116,4924;0,0198685
2117,4568;0,0198468
2118,4209;0,0197957
2119,3853;0,0197262
2120,3494;0,0196556
2121,3137;0,0196047
2122,2778;0,0195905
2123,2422;0,0196185
2124,2063;0,019679
2125,1707;0,0197498
2126,1348;0,0198066
2127,0991;0,0198338
2128,0632;0,0198292
2129,0276;0,0197995
2129,9917;0,0197536
2130,9561;0,0196974
2131,9202;0,0196369
2132,8845;0,0195856
2133,8486;0,0195672
2134,8130;0,0196081
2135,7771;0,0197204
2136,7415;0,0198875
2137,7056;0,0200662
2138,6699;0,0202061
2139,6340;0,0202768
2140,5984;0,0202867
2141,5625;0,0202811
2142,5269;0,020321
2143,4910;0,0204519
2144,4553;0,0206792
2145,4194;0,020963
2146,3838;0,0212346
2147,3479;0,0214247
2148,3123;0,0214895
2149,2764;0,0214237
2150,2407;0,0212602
2151,2048;0,0210618
2152,1692;0,0209082
2153,1333;0,0208772
2154,0977;0,0210198
2155,0618;0,0213319
2156,0261;0,0217369
2156,9902;0,0220968
2157,9546;0,0222681
2158,9187;0,0221865
2159,8831;0,0219109
2160,8472;0,021575
2161,8115;0,0212913
2162,7756;0,0210939
2163,7400;0,0209496
2164,7041;0,0208035
2165,6685;0,0206253
2166,6326;0,0204303
2167,5969;0,0202712
2168,5610;0,02021
2169,5254;0,0202843
2170,4895;0,0204867
2171,4539;0,0207613
2172,4180;0,0210219
2173,3823;0,0211863
2174,3464;0,0212133
2175,3108;0,021121
2176,2749;0,0209724
2177,2393;0,0208335
2178,2034;0,0207348
2179,1677;0,0206611
2180,1318;0,0205765
2181,0962;0,0204642
2182,0603;0,0203499
2183,0247;0,0202864
2183,9888;0,020311
2184,9531;0,0204088
2185,9172;0,0205142
2186,8816;0,0205497
2187,8457;0,0204752
2188,8101;0,0203131
2189,7742;0,0201334
2190,7385;0,0200109
2191,7026;0,0199821
2192,6670;0,0200314
2193,6311;0,0201084
2194,5955;0,0201641
2195,5596;0,0201771
2196,5239;0,0201593
2197,4880;0,0201404
2198,4524;0,0201477
2199,4165;0,0201933
2200,3809;0,0202722
2201,3450;0,0203687
2202,3093;0,020463
2203,2734;0,0205372
2204,2378;0,0205809
2205,2019;0,0205953
2206,1663;0,0205933
2207,1304;0,0205911
2208,0947;0,0205966
2209,0588;0,0206009
2210,0232;0,0205831
2210,9873;0,0205244
2211,9517;0,0204248
2212,9158;0,0203079
2213,8801;0,020211
2214,8442;0,0201653
2215,8086;0,0201796
2216,7727;0,0202378
2217,7371;0,0203076
2218,7012;0,0203558
2219,6655;0,0203592
2220,6296;0,0203099
2221,5940;0,0202155
2222,5581;0,0200958
2223,5225;0,0199783
2224,4866;0,0198896
2225,4509;0,0198464
2226,4150;0,019849
2227,3794;0,0198809
2228,3435;0,0199192
2229,3079;0,0199436
2230,2720;0,0199434
2231,2363;0,0199172
2232,2004;0,0198685
2233,1648;0,0198023
2234,1289;0,0197259
2235,0933;0,0196521
2236,0574;0,0195999
2237,0217;0,0195884
2237,9858;0,0196279
2238,9502;0,0197128
2239,9143;0,0198228
2240,8787;0,0199321
2241,8428;0,0200219
2242,8071;0,0200873
2243,7712;0,0201351
2244,7356;0,0201755
2245,6997;0,0202127
2246,6641;0,0202426
2247,6282;0,0202566
2248,5925;0,0202496
2249,5566;0,020226
2250,5210;0,0201995
2251,4851;0,0201881
2252,4495;0,0202065
2253,4136;0,0202586
2254,3779;0,0203353
2255,3420;0,0204172
2256,3064;0,020482
2257,2705;0,0205138
2258,2349;0,0205098
2259,1990;0,0204804
2260,1633;0,0204428
2261,1274;0,0204126
2262,0918;0,0203967
2263,0559;0,0203933
2264,0203;0,0203964
2264,9844;0,0204022
2265,9487;0,0204103
2266,9128;0,0204211
2267,8772;0,0204317
2268,8413;0,0204348
2269,8057;0,0204233
2270,7698;0,0203964
2271,7341;0,0203617
2272,6982;0,0203301
2273,6626;0,0203081
2274,6267;0,0202917
2275,5911;0,0202686
2276,5552;0,0202265
2277,5195;0,0201624
2278,4836;0,0200867
2279,4480;0,0200185
2280,4121;0,0199769
2281,3765;0,0199736
2282,3406;0,0200102
2283,3049;0,020081
2284,2690;0,0201781
2285,2334;0,0202947
2286,1975;0,0204275
2287,1619;0,0205747
2288,1260;0,0207343
2289,0903;0,0209012
2290,0544;0,021066
2291,0188;0,0212165
2291,9829;0,0213434
2292,9473;0,0214458
2293,9114;0,0215351
2294,8757;0,0216295
2295,8398;0,0217432
2296,8042;0,0218746
2297,7683;0,0220015
2298,7327;0,0220897
2299,6968;0,0221101
2300,6611;0,0220573
2301,6252;0,0219566
2302,5896;0,0218563
2303,5537;0,0218097
2304,5181;0,0218536
2305,4822;0,0219929
2306,4465;0,0221937
2307,4106;0,0223912
2308,3750;0,022508
2309,3391;0,0224816
2310,3035;0,0222894
2311,2676;0,0219613
2312,2319;0,0215704
2313,1960;0,0212019
2314,1604;0,0209177
2315,1245;0,0207345
2316,0889;0,0206274
2317,0530;0,0205547
2318,0173;0,0204864
2318,9814;0,0204227
2319,9458;0,0203962
2320,9099;0,0204542
2321,8743;0,0206308
2322,8384;0,0209189
2323,8027;0,0212587
2324,7668;0,0215525
2325,7312;0,0217016
2326,6953;0,02165
2327,6597;0,0214128
2328,6238;0,0210762
2329,5881;0,0207682
2330,5522;0,0206048
2331,5166;0,0206366
2332,4807;0,0208251
2333,4451;0,0210659
2334,4092;0,0212486
2335,3735;0,0213173
2336,3376;0,0213008
2337,3020;0,0212964
2338,2661;0,0214109
2339,2305;0,0216864
2340,1946;0,0220501
2341,1589;0,022317
2342,1230;0,0222711
2343,0874;0,0218448
2344,0515;0,0213033
2345,0159;0,0211316
2345,9800;0,0215995
2346,9443;0,0225193
2347,9084;0,0234389
2348,8728;0,0239625
2349,8369;0,0239358
2350,8013;0,0234708
2351,7654;0,0228536
2352,7297;0,0223719
2353,6938;0,0221531
2354,6582;0,0221531
2355,6223;0,0222893
2356,5867;0,0225239
2357,5508;0,0228195
2358,5151;0,0230926
2359,4792;0,0232526
2360,4436;0,0232673
2361,4077;0,0231608
2362,3721;0,0229516
2363,3362;0,0226225
2364,3005;0,0221529
2365,2646;0,0215619
2366,2290;0,0209077
2367,1931;0,0202508
2368,1575;0,0196266
2369,1216;0,0190475
2370,0859;0,0185233
2371,0500;0,0180733
2372,0144;0,0177277
2372,9785;0,017521
2373,9429;0,0174844
2374,9070;0,017636
2375,8713;0,0179697
2376,8354;0,0184481
2377,7998;0,0190056
2378,7639;0,0195633
2379,7283;0,0200485
2380,6924;0,0204121
2381,6567;0,0206352
2382,6208;0,0207257
2383,5852;0,0207089
2384,5493;0,0206169
2385,5137;0,0204811
2386,4778;0,0203296
2387,4421;0,020186
2388,4063;0,0200686
2389,3706;0,0199883
2390,3347;0,0199463
2391,2991;0,0199336
2392,2632;0,0199357
2393,2275;0,0199394
2394,1917;0,0199394
2395,1560;0,0199398
2396,1201;0,0199491
2397,0845;0,0199722
2398,0486;0,0200066
2399,0129;0,0200407
2399,9771;0,0200617
2400,9414;0,0200653
2401,9055;0,0200573
2402,8699;0,0200508
2403,8340;0,0200566
2404,7983;0,0200763
2405,7625;0,0201015
2406,7268;0,0201211
2407,6909;0,0201299
2408,6553;0,0201337
2409,6194;0,020144
2410,5837;0,0201703
2411,5479;0,0202132
2412,5122;0,0202631
2413,4763;0,0203068
2414,4407;0,0203355
2415,4048;0,0203485
2416,3691;0,0203523
2417,3333;0,0203549
2418,2976;0,0203611
2419,2617;0,0203712
2420,2261;0,0203819
2421,1902;0,0203897
2422,1545;0,0203938
2423,1187;0,0203961
2424,0830;0,0204008
2425,0471;0,0204118
2426,0115;0,0204309
2426,9756;0,0204556
2427,9399;0,0204805
2428,9041;0,0204994
2429,8684;0,0205094
2430,8325;0,0205132
2431,7969;0,0205179
2432,7610;0,0205305
2433,7253;0,0205536
2434,6895;0,0205833
2435,6538;0,0206121
2436,6179;0,0206339
2437,5823;0,0206477
2438,5464;0,0206578
2439,5107;0,0206694
2440,4749;0,0206854
2441,4392;0,0207047
2442,4033;0,0207253
2443,3677;0,0207461
2444,3318;0,0207672
2445,2961;0,0207882
2446,2603;0,0208058
2447,2246;0,0208154
2448,1887;0,0208138
2449,1531;0,0208034
2450,1172;0,0207915
2451,0815;0,0207863
2452,0457;0,0207918
2453,0100;0,0208065
2453,9741;0,0208258
2454,9385;0,0208465
2455,9026;0,0208691
2456,8669;0,0208961
2457,8311;0,0209285
2458,7954;0,0209639
2459,7595;0,0209979
2460,7239;0,0210272
2461,6880;0,0210511
2462,6523;0,0210701
2463,6165;0,0210836
2464,5808;0,0210891
2465,5449;0,0210843
2466,5093;0,0210707
2467,4734;0,0210546
2468,4377;0,0210442
2469,4019;0,0210444
2470,3662;0,0210542
2471,3303;0,0210677
2472,2947;0,0210795
2473,2588;0,0210889
2474,2231;0,0211005
2475,1873;0,0211206
2476,1516;0,0211516
2477,1157;0,0211898
2478,0801;0,0212266
2479,0442;0,0212533
2480,0085;0,021265
2480,9727;0,0212626
2481,9370;0,0212511
2482,9011;0,0212369
2483,8655;0,0212248
2484,8296;0,0212177
2485,7939;0,0212167
2486,7581;0,021223
2487,7224;0,0212374
2488,6865;0,0212606
2489,6509;0,0212915
2490,6150;0,0213269
2491,5793;0,021362
2492,5435;0,0213918
2493,5078;0,0214133
2494,4719;0,0214263
2495,4363;0,021433
2496,4004;0,0214358
2497,3647;0,0214356
2498,3289;0,0214311
2499,2932;0,0214207
2500,2573;0,0214052
2501,2217;0,0213898
2502,1858;0,0213827
2503,1501;0,0213908
2504,1143;0,0214145
2505,0786;0,0214467
2506,0427;0,0214757
2507,0071;0,0214919
2507,9712;0,0214938
2508,9355;0,0214885
2509,8997;0,0214862
2510,8640;0,0214934
2511,8281;0,0215089
2512,7925;0,0215252
2513,7566;0,0215343
2514,7209;0,0215335
2515,6851;0,0215257
2516,6494;0,0215153
2517,6135;0,0215036
2518,5779;0,0214878
2519,5420;0,0214645
2520,5063;0,0214351
2521,4705;0,0214092
2522,4348;0,0214002
2523,3989;0,0214183
2524,3633;0,0214632
2525,3274;0,0215223
2526,2917;0,0215765
2527,2559;0,0216085
2528,2202;0,0216113
2529,1843;0,0215901
2530,1487;0,021559
2531,1128;0,0215332
2532,0771;0,0215226
2533,0413;0,0215298
2534,0056;0,0215506
2534,9697;0,0215787
2535,9341;0,0216083
2536,8982;0,0216349
2537,8625;0,0216551
2538,8267;0,0216662
2539,7910;0,0216674
2540,7551;0,0216617
2541,7195;0,0216568
2542,6836;0,021662
2543,6479;0,0216828
2544,6121;0,021717
2545,5764;0,0217546
2546,5405;0,021783
2547,5049;0,021794
2548,4690;0,0217877
2549,4333;0,0217714
2550,3975;0,0217537
2551,3618;0,0217393
2552,3259;0,0217277
2553,2903;0,0217162
2554,2544;0,021705
2555,2188;0,0216982
2556,1829;0,021702
2557,1472;0,021719
2558,1113;0,0217461
2559,0757;0,021775
2560,0398;0,0217966
2561,0042;0,0218059
2561,9683;0,0218026
2562,9326;0,0217905
2563,8967;0,0217741
2564,8611;0,0217574
2565,8252;0,0217446
2566,7896;0,02174
2567,7537;0,0217477
2568,7180;0,0217687
2569,6821;0,0217988
2570,6465;0,0218294
2571,6106;0,0218518
2572,5750;0,0218624
2573,5391;0,0218653
2574,5034;0,0218691
2575,4675;0,0218806
2576,4319;0,0218991
2577,3960;0,0219166
2578,3604;0,0219232
2579,3245;0,0219152
2580,2888;0,0218978
2581,2529;0,0218825
2582,2173;0,0218793
2583,1814;0,021891
2584,1458;0,0219118
2585,1099;0,0219329
2586,0742;0,0219475
2587,0383;0,0219538
2588,0027;0,0219539
2588,9668;0,0219498
2589,9312;0,0219428
2590,8953;0,0219337
2591,8596;0,0219249
2592,8237;0,0219206
2593,7881;0,0219242
2594,7522;0,0219361
2595,7166;0,0219535
2596,6807;0,0219727
2597,6450;0,0219923
2598,6091;0,0220136
2599,5735;0,0220394
2600,5376;0,0220706
2601,5020;0,0221046
2602,4661;0,0221368
2603,4304;0,0221635
2604,3945;0,0221841
2605,3589;0,0222008
2606,3230;0,0222167
2607,2874;0,0222329
2608,2515;0,0222475
2609,2158;0,0222563
2610,1799;0,0222553
2611,1443;0,0222438
2612,1084;0,0222256
2613,0728;0,0222084
2614,0369;0,0222015
2615,0012;0,0222126
2615,9653;0,0222441
2616,9297;0,0222918
2617,8938;0,0223462
2618,8582;0,0223952
2619,8223;0,0224292
2620,7866;0,0224437
2621,7507;0,0224413
2622,7151;0,0224301
2623,6792;0,0224201
2624,6436;0,0224192
2625,6077;0,02243
2626,5720;0,0224497
2627,5361;0,0224721
2628,5005;0,0224919
2629,4646;0,0225074
2630,4290;0,0225213
2631,3931;0,0225377
2632,3574;0,0225594
2633,3215;0,0225854
2634,2859;0,0226119
2635,2500;0,0226353
2636,2144;0,0226549
2637,1785;0,0226738
2638,1428;0,0226976
2639,1069;0,0227305
2640,0713;0,0227725
2641,0354;0,0228187
2641,9998;0,0228607
2642,9639;0,0228906
2643,9282;0,0229041
2644,8923;0,0229024
2645,8567;0,0228918
2646,8208;0,0228811
2647,7852;0,0228778
2648,7493;0,0228859
2649,7136;0,0229055
2650,6777;0,0229341
2651,6421;0,0229684
2652,6062;0,0230058
2653,5706;0,023044
2654,5347;0,0230795
2655,4990;0,0231079
2656,4631;0,0231257
2657,4275;0,0231327
2658,3916;0,0231335
2659,3560;0,023136
2660,3201;0,0231476
2661,2844;0,0231708
2662,2485;0,0232017
2663,2129;0,0232329
2664,1770;0,0232579
2665,1414;0,0232754
2666,1055;0,0232892
2667,0698;0,0233054
2668,0339;0,023328
2668,9983;0,0233564
2669,9624;0,0233871
2670,9268;0,0234161
2671,8909;0,0234415
2672,8552;0,0234629
2673,8193;0,0234805
2674,7837;0,0234934
2675,7478;0,0235009
2676,7122;0,0235039
2677,6763;0,0235064
2678,6406;0,0235145
2679,6047;0,023533
2680,5691;0,0235638
2681,5332;0,0236043
2682,4976;0,023649
2683,4617;0,0236925
2684,4260;0,0237305
2685,3901;0,0237612
2686,3545;0,023785
2687,3186;0,0238043
2688,2830;0,0238224
2689,2471;0,023843
2690,2114;0,0238682
2691,1755;0,0238975
2692,1399;0,0239287
2693,1040;0,0239586
2694,0684;0,0239857
2695,0325;0,0240102
2695,9968;0,0240329
2696,9609;0,024054
2697,9253;0,0240725
2698,8894;0,0240872
2699,8538;0,0240991
2700,8179;0,0241122
2701,7822;0,024132
2702,7463;0,0241625
2703,7107;0,0242033
2704,6748;0,024249
2705,6392;0,0242922
2706,6033;0,0243265
2707,5676;0,0243504
2708,5317;0,0243669
2709,4961;0,0243824
2710,4602;0,0244028
2711,4246;0,0244314
2712,3887;0,0244674
2713,3530;0,0245068
2714,3171;0,0245446
2715,2815;0,0245767
2716,2456;0,0246006
2717,2100;0,0246167
2718,1741;0,0246278
2719,1384;0,0246381
2720,1025;0,0246522
2721,0669;0,024673
2722,0310;0,0247002
2722,9954;0,0247296
2723,9595;0,0247552
2724,9238;0,0247725
2725,8879;0,0247816
2726,8523;0,0247884
2727,8164;0,0248019
2728,7808;0,0248295
2729,7449;0,0248732
2730,7092;0,0249272
2731,6733;0,0249814
2732,6377;0,0250252
2733,6018;0,0250525
2734,5662;0,0250635
2735,5303;0,025064
2736,4946;0,0250625
2737,4587;0,0250669
2738,4231;0,0250814
2739,3872;0,0251057
2740,3516;0,0251354
2741,3157;0,025165
2742,2800;0,0251898
2743,2441;0,0252081
2744,2085;0,025221
2745,1726;0,0252307
2746,1370;0,0252394
2747,1011;0,0252479
2748,0654;0,0252573
2749,0295;0,0252691
2749,9939;0,0252855
2750,9580;0,0253079
2751,9224;0,0253363
2752,8865;0,0253682
2753,8508;0,025401
2754,8149;0,0254331
2755,7793;0,0254648
2756,7434;0,0254974
2757,7078;0,0255315
2758,6719;0,0255662
2759,6362;0,0255997
2760,6003;0,0256311
2761,5647;0,0256606
2762,5288;0,0256894
2763,4932;0,0257182
2764,4573;0,0257467
2765,4216;0,0257744
2766,3857;0,0258025
2767,3501;0,0258336
2768,3142;0,0258707
2769,2786;0,0259148
2770,2427;0,0259626
2771,2070;0,0260077
2772,1711;0,0260433
2773,1355;0,0260665
2774,0996;0,0260799
2775,0640;0,0260917
2776,0281;0,0261118
2776,9924;0,0261471
2777,9565;0,0261988
2778,9209;0,0262613
2779,8850;0,0263255
2780,8494;0,0263825
2781,8135;0,0264279
2782,7778;0,0264634
2783,7419;0,0264946
2784,7063;0,0265279
2785,6704;0,0265667
2786,6348;0,0266101
2787,5989;0,0266547
2788,5632;0,0266975
2789,5273;0,0267385
2790,4917;0,0267815
2791,4558;0,0268317
2792,4202;0,0268927
2793,3843;0,0269638
2794,3486;0,0270408
2795,3127;0,027118
2796,2771;0,0271907
2797,2412;0,0272577
2798,2056;0,0273204
2799,1697;0,0273815
2800,1340;0,0274429
2801,0981;0,0275057
2802,0625;0,0275702
2803,0266;0,027637
2803,9910;0,0277067
2804,9551;0,0277791
2805,9194;0,0278529
2806,8835;0,027927
2807,8479;0,0280013
2808,8120;0,0280781
2809,7764;0,0281609
2810,7405;0,0282517
2811,7048;0,0283498
2812,6689;0,0284518
2813,6333;0,0285544
2814,5974;0,0286567
2815,5618;0,0287614
2816,5259;0,0288717
2817,4902;0,0289891
2818,4543;0,0291114
2819,4187;0,0292352
2820,3828;0,0293585
2821,3472;0,0294829
2822,3113;0,0296124
2823,2756;0,0297506
2824,2397;0,0298982
2825,2041;0,0300527
2826,1682;0,0302108
2827,1326;0,0303708
2828,0967;0,0305335
2829,0610;0,0307017
2830,0251;0,0308781
2830,9895;0,0310643
2831,9536;0,0312609
2832,9180;0,0314675
2833,8821;0,0316827
2834,8464;0,0319042
2835,8105;0,03213
2836,7749;0,0323592
2837,7390;0,0325946
2838,7034;0,0328418
2839,6675;0,0331073
2840,6318;0,0333955
2841,5959;0,0337069
2842,5603;0,0340383
2843,5244;0,0343849
2844,4888;0,0347423
2845,4529;0,0351055
2846,4172;0,0354664
2847,3813;0,0358113
2848,3457;0,0361212
2849,3098;0,0363766
2850,2742;0,0365637
2851,2383;0,0366797
2852,2026;0,036735
2853,1667;0,0367489
2854,1311;0,0367433
2855,0952;0,036736
2856,0596;0,0367369
2857,0237;0,0367485
2857,9880;0,0367702
2858,9521;0,0368024
2859,9165;0,0368491
2860,8806;0,036917
2861,8450;0,0370114
2862,8091;0,0371318
2863,7734;0,0372705
2864,7375;0,037415
2865,7019;0,0375538
2866,6660;0,0376808
2867,6304;0,037798
2868,5945;0,0379116
2869,5588;0,0380275
2870,5229;0,0381457
2871,4873;0,03826
2872,4514;0,0383613
2873,4158;0,0384425
2874,3799;0,0385031
2875,3442;0,0385483
2876,3083;0,0385867
2877,2727;0,0386254
2878,2368;0,0386682
2879,2012;0,0387159
2880,1653;0,038768
2881,1296;0,0388248
2882,0938;0,0388872
2883,0581;0,0389557
2884,0222;0,0390291
2884,9866;0,0391044
2885,9507;0,039177
2886,9150;0,0392437
2887,8792;0,0393038
2888,8435;0,0393611
2889,8076;0,0394225
2890,7720;0,0394953
2891,7361;0,0395834
2892,7004;0,0396839
2893,6646;0,0397871
2894,6289;0,039881
2895,5930;0,0399567
2896,5574;0,0400134
2897,5215;0,0400584
2898,4858;0,0401021
2899,4500;0,040152
2900,4143;0,0402086
2901,3784;0,0402675
2902,3428;0,040324
2903,3069;0,0403779
2904,2712;0,0404341
2905,2354;0,0404991
2906,1997;0,0405765
2907,1638;0,0406655
2908,1282;0,0407633
2909,0923;0,0408686
2910,0566;0,040984
2911,0208;0,0411141
2911,9851;0,0412607
2912,9492;0,0414193
2913,9136;0,0415786
2914,8777;0,0417233
2915,8420;0,0418394
2916,8062;0,0419175
2917,7705;0,0419538
2918,7346;0,0419496
2919,6990;0,0419089
2920,6631;0,0418374
2921,6274;0,0417412
2922,5916;0,0416258
2923,5559;0,0414947
2924,5200;0,0413492
2925,4844;0,0411885
2926,4485;0,0410124
2927,4128;0,0408229
2928,3770;0,0406258
2929,3413;0,0404289
2930,3054;0,0402388
2931,2698;0,0400586
2932,2339;0,0398859
2933,1982;0,0397153
2934,1624;0,0395406
2935,1267;0,0393576
2936,0908;0,0391645
2937,0552;0,0389615
2938,0193;0,0387492
2938,9836;0,0385284
2939,9478;0,0383005
2940,9121;0,0380671
2941,8762;0,0378303
2942,8406;0,0375918
2943,8047;0,0373531
2944,7690;0,0371165
2945,7332;0,0368861
2946,6975;0,0366673
2947,6616;0,0364649
2948,6260;0,0362803
2949,5901;0,0361109
2950,5544;0,0359512
2951,5186;0,035796
2952,4829;0,0356429
2953,4470;0,0354921
2954,4114;0,0353446
2955,3755;0,0351994
2956,3398;0,0350535
2957,3040;0,0349032
2958,2683;0,0347468
2959,2324;0,0345856
2960,1968;0,0344227
2961,1609;0,0342614
2962,1252;0,0341029
2963,0894;0,0339475
2964,0537;0,0337955
2965,0178;0,0336479
2965,9822;0,0335056
2966,9463;0,0333666
2967,9106;0,0332255
2968,8748;0,0330741
2969,8391;0,0329054
2970,8032;0,0327177
2971,7676;0,0325175
2972,7317;0,0323173
2973,6960;0,0321313
2974,6602;0,0319688
2975,6245;0,0318298
2976,5886;0,0317058
2977,5530;0,0315841
2978,5171;0,0314545
2979,4814;0,0313147
2980,4456;0,031171
2981,4099;0,0310346
2982,3740;0,0309161
2983,3384;0,0308208
2984,3025;0,0307469
2985,2668;0,0306879
2986,2310;0,0306366
2987,1953;0,0305881
2988,1594;0,0305413
2989,1238;0,0304978
2990,0879;0,0304599
2991,0522;0,0304288
2992,0164;0,0304039
2992,9807;0,0303833
2993,9448;0,0303657
2994,9092;0,0303512
2995,8733;0,0303423
2996,8376;0,0303427
2997,8018;0,0303558
2998,7661;0,0303819
2999,7302;0,0304173
3000,6946;0,0304546
3001,6587;0,0304856
3002,6230;0,030506
3003,5872;0,030518
3004,5515;0,0305298
3005,5156;0,0305522
3006,4800;0,030592
3007,4441;0,0306484
3008,4084;0,0307129
3009,3726;0,0307732
3010,3369;0,0308184
3011,3010;0,0308442
3012,2654;0,0308531
3013,2295;0,0308528
3014,1938;0,0308514
3015,1580;0,0308546
3016,1223;0,030865
3017,0864;0,030883
3018,0508;0,0309089
3019,0149;0,0309441
3019,9792;0,03099
3020,9434;0,0310469
3021,9077;0,0311126
3022,8718;0,0311823
3023,8362;0,0312515
3024,8003;0,031319
3025,7646;0,0313882
3026,7288;0,0314656
3027,6931;0,0315551
3028,6572;0,0316543
3029,6216;0,0317535
3030,5857;0,0318396
3031,5500;0,0319036
3032,5142;0,031946
3033,4785;0,0319761
3034,4426;0,0320075
3035,4070;0,032051
3036,3711;0,0321108
3037,3354;0,0321848
3038,2996;0,0322671
3039,2639;0,032352
3040,2280;0,0324352
3041,1924;0,0325156
3042,1565;0,0325953
3043,1208;0,0326795
3044,0850;0,0327735
3045,0493;0,0328794
3046,0134;0,0329929
3046,9778;0,0331047
3047,9419;0,0332052
3048,9063;0,033291
3049,8704;0,0333679
3050,8347;0,0334483
3051,7988;0,0335435
3052,7632;0,0336567
3053,7273;0,0337814
3054,6917;0,0339048
3055,6558;0,0340154
3056,6201;0,0341087
3057,5842;0,0341894
3058,5486;0,0342682
3059,5127;0,034357
3060,4771;0,0344637
3061,4412;0,0345889
3062,4055;0,0347257
3063,3696;0,0348618
3064,3340;0,0349836
3065,2981;0,0350818
3066,2625;0,0351556
3067,2266;0,0352133
3068,1909;0,0352687
3069,1550;0,0353358
3070,1194;0,0354239
3071,0835;0,0355356
3072,0479;0,0356669
3073,0120;0,0358099
3073,9763;0,0359554
3074,9404;0,0360951
3075,9048;0,0362237
3076,8689;0,0363393
3077,8333;0,0364421
3078,7974;0,0365337
3079,7617;0,0366157
3080,7258;0,0366899
3081,6902;0,0367594
3082,6543;0,0368295
3083,6187;0,036906
3084,5828;0,036993
3085,5471;0,0370903
3086,5112;0,0371932
3087,4756;0,0372961
3088,4397;0,0373962
3089,4041;0,0374966
3090,3682;0,0376041
3091,3325;0,0377245
3092,2966;0,0378582
3093,2610;0,0379993
3094,2251;0,0381387
3095,1895;0,0382694
3096,1536;0,0383901
3097,1179;0,0385041
3098,0820;0,0386164
3099,0464;0,0387292
3100,0105;0,038841
3100,9749;0,0389486
3101,9390;0,0390506
3102,9033;0,0391486
3103,8674;0,0392473
3104,8318;0,0393512
3105,7959;0,0394622
3106,7603;0,0395792
3107,7244;0,0396994
3108,6887;0,0398199
3109,6528;0,0399396
3110,6172;0,0400593
3111,5813;0,0401805
3112,5457;0,0403046
3113,5098;0,0404322
3114,4741;0,0405636
3115,4382;0,0406987
3116,4026;0,0408366
3117,3667;0,0409757
3118,3311;0,0411136
3119,2952;0,0412486
3120,2595;0,0413812
3121,2236;0,0415141
3122,1880;0,0416506
3123,1521;0,0417916
3124,1165;0,0419339
3125,0806;0,0420711
3126,0449;0,0421982
3127,0090;0,0423149
3127,9734;0,0424274
3128,9375;0,042545
3129,9019;0,042674
3130,8660;0,0428142
3131,8303;0,0429589
3132,7944;0,0431003
3133,7588;0,0432352
3134,7229;0,0433676
3135,6873;0,0435053
3136,6514;0,0436537
3137,6157;0,0438114
3138,5798;0,0439703
3139,5442;0,0441202
3140,5083;0,0442557
3141,4727;0,0443793
3142,4368;0,0445012
3143,4011;0,0446339
3144,3652;0,0447862
3145,3296;0,0449594
3146,2937;0,0451465
3147,2581;0,0453358
3148,2222;0,0455147
3149,1865;0,045675
3150,1506;0,0458159
3151,1150;0,0459437
3152,0791;0,0460701
3153,0435;0,0462065
3154,0076;0,0463599
3154,9719;0,0465296
3155,9360;0,0467079
3156,9004;0,0468842
3157,8645;0,0470497
3158,8289;0,0472013
3159,7930;0,0473427
3160,7573;0,0474818
3161,7214;0,0476275
3162,6858;0,047786
3163,6499;0,047959
3164,6143;0,0481442
3165,5784;0,0483354
3166,5427;0,048525
3167,5068;0,0487052
3168,4712;0,0488708
3169,4353;0,0489266
3170,3997;0,0490686
3171,3638;0,0492113
3172,3281;0,0493631
3173,2922;0,0495276
3174,2566;0,0497027
3175,2207;0,0498818
3176,1851;0,0500576
3177,1492;0,0502265
3178,1135;0,050389
3179,0776;0,050549
3180,0420;0,05071
3181,0061;0,0508734
3181,9705;0,0510378
3182,9346;0,0512013
3183,8989;0,0513628
3184,8630;0,0515224
3185,8274;0,0516807
3186,7915;0,0518372
3187,7559;0,0519907
3188,7200;0,0521407
3189,6843;0,0522893
3190,6484;0,0524417
3191,6128;0,0526031
3192,5769;0,0527751
3193,5413;0,052953
3194,5054;0,0531271
3195,4697;0,0532874
3196,4338;0,0534295
3197,3982;0,0535569
3198,3623;0,0536799
3199,3267;0,0538086
3200,2908;0,0539487
3201,2551;0,0540995
3202,2192;0,0542573
3203,1836;0,0544195
3204,1477;0,0545865
3205,1121;0,0547595
3206,0762;0,0549376
3207,0405;0,0551158
3208,0046;0,0552868
3208,9690;0,0554448
3209,9331;0,055589
3210,8975;0,055724
3211,8616;0,0558566
3212,8259;0,0559925
3213,7900;0,0561332
3214,7544;0,056277
3215,7185;0,0564204
3216,6829;0,0565615
3217,6470;0,0567007
3218,6113;0,0568408
3219,5754;0,0569853
3220,5398;0,0571363
3221,5039;0,0572927
3222,4683;0,0574504
3223,4324;0,0576037
3224,3967;0,0577489
3225,3608;0,0578862
3226,3252;0,058021
3227,2893;0,0581614
3228,2537;0,0583134
3229,2178;0,0584779
3230,1821;0,0586491
3231,1462;0,0588179
3232,1106;0,0589756
3233,0747;0,0591186
3234,0391;0,0592488
3235,0032;0,0593724
3235,9675;0,0594968
3236,9316;0,0596288
3237,8960;0,0597729
3238,8601;0,0599313
3239,8245;0,0601034
3240,7886;0,0602846
3241,7529;0,0604667
3242,7170;0,0606394
3243,6814;0,0607933
3244,6455;0,0609256
3245,6099;0,0610419
3246,5740;0,0611565
3247,5383;0,0612847
3248,5024;0,0614366
3249,4668;0,0616121
3250,4309;0,0618021
3251,3953;0,0619935
3252,3594;0,0621764
3253,3237;0,0623474
3254,2878;0,062509
3255,2522;0,0626651
3256,2163;0,0628178
3257,1807;0,0629673
3258,1448;0,0631145
3259,1091;0,0632637
3260,0732;0,0634217
3261,0376;0,0635935
3262,0017;0,063778
3262,9661;0,0639678
3263,9302;0,0641522
3264,8945;0,0643236
3265,8586;0,0644805
3266,8230;0,0646267
3267,7871;0,0647677
3268,7515;0,0649064
3269,7156;0,0650424
3270,6799;0,0651727
3271,6440;0,0652935
3272,6084;0,0654017
3273,5725;0,0654951
3274,5369;0,0655729
3275,5010;0,0656369
3276,4653;0,0656921
3277,4294;0,065746
3278,3938;0,0658056
3279,3579;0,0658741
3280,3223;0,0659492
3281,2864;0,066024
3282,2507;0,0660903
3283,2148;0,0661429
3284,1792;0,0661813
3285,1433;0,0662103
3286,1077;0,0662368
3287,0718;0,0662672
3288,0361;0,0663053
3289,0002;0,0663511
3289,9646;0,0664013
3290,9287;0,0664512
3291,8931;0,0664962
3292,8572;0,0665333
3293,8215;0,0665617
3294,7856;0,0665813
3295,7500;0,066592
3296,7141;0,0665928
3297,6785;0,0665829
3298,6426;0,0665631
3299,6069;0,0665385
3300,5710;0,0665181
3301,5354;0,0665128
3302,4995;0,0665304
3303,4639;0,0665713
3304,4280;0,066626
3305,3923;0,0666781
3306,3564;0,066711
3307,3208;0,0667155
3308,2849;0,0666942
3309,2493;0,0666599
3310,2134;0,0666296
3311,1777;0,0666173
3312,1418;0,0666295
3313,1062;0,0666653
3314,0703;0,0667191
3315,0347;0,0667839
3315,9988;0,0668532
3316,9631;0,0669223
3317,9272;0,0669898
3318,8916;0,0670583
3319,8557;0,0671341
3320,8201;0,0672236
3321,7842;0,0673289
3322,7485;0,0674443
3323,7126;0,0675571
3324,6770;0,0676531
3325,6411;0,0677248
3326,6055;0,0677752
3327,5696;0,0678164
3328,5339;0,0678629
3329,4980;0,0679237
3330,4624;0,0679983
3331,4265;0,0680776
3332,3909;0,0681491
3333,3550;0,0682021
3334,3193;0,0682309
3335,2834;0,0682358
3336,2478;0,0682207
3337,2119;0,068191
3338,1763;0,0681505
3339,1404;0,0680991
3340,1047;0,0680337
3341,0688;0,0679496
3342,0332;0,0678454
3342,9973;0,0677249
3343,9617;0,0675977
3344,9258;0,0674756
3345,8901;0,0673677
3346,8542;0,0672757
3347,8186;0,0671942
3348,7827;0,0671125
3349,7471;0,0670196
3350,7112;0,0669086
3351,6755;0,0667784
3352,6396;0,0666342
3353,6040;0,0664852
3354,5681;0,0663416
3355,5325;0,0662108
3356,4966;0,0660944
3357,4609;0,065988
3358,4250;0,065883
3359,3894;0,0657718
3360,3535;0,0656521
3361,3179;0,0655279
3362,2820;0,0654073
3363,2463;0,0652971
3364,2104;0,0651992
3365,1748;0,0651089
3366,1389;0,0650169
3367,1033;0,0649132
3368,0674;0,0647902
3369,0317;0,0646444
3369,9958;0,0644775
3370,9602;0,0642957
3371,9243;0,0641096
3372,8887;0,063932
3373,8528;0,063774
3374,8171;0,063641
3375,7813;0,0635307
3376,7456;0,0634342
3377,7097;0,0633402
3378,6741;0,063239
3379,6382;0,0631249
3380,6025;0,0629961
3381,5667;0,062854
3382,5310;0,062703
3383,4951;0,0625506
3384,4595;0,0624066
3385,4236;0,0622794
3386,3879;0,0621721
3387,3521;0,0620795
3388,3164;0,0619913
3389,2805;0,0618973
3390,2449;0,0617932
3391,2090;0,0616816
3392,1733;0,0615685
3393,1375;0,0614568
3394,1018;0,0613439
3395,0659;0,061223
3396,0303;0,0610887
3396,9944;0,0609412
3397,9587;0,0607858
3398,9229;0,0606276
3399,8872;0,060468
3400,8513;0,0603035
3401,8157;0,0601303
3402,7798;0,0599492
3403,7441;0,0597679
3404,7083;0,0595978
3405,6726;0,0594483
3406,6367;0,0593217
3407,6011;0,0592112
3408,5652;0,0591034
3409,5295;0,0589831
3410,4937;0,0588382
3411,4580;0,0586648
3412,4221;0,0584691
3413,3865;0,058266
3414,3506;0,0580733
3415,3149;0,0579041
3416,2791;0,0577606
3417,2434;0,0576314
3418,2075;0,0574956
3419,1719;0,0573321
3420,1360;0,0571304
3421,1003;0,0568964
3422,0645;0,0566504
3423,0288;0,0564158
3423,9929;0,0562071
3424,9573;0,0560237
3425,9214;0,0558529
3426,8857;0,0556777
3427,8499;0,0554859
3428,8142;0,0552765
3429,7783;0,0550575
3430,7427;0,0548398
3431,7068;0,0546301
3432,6711;0,054428
3433,6353;0,0542283
3434,5996;0,0540267
3435,5637;0,0538225
3436,5281;0,0536181
3437,4922;0,0534173
3438,4565;0,0532236
3439,4207;0,0530407
3440,3850;0,0528731
3441,3491;0,0527234
3442,3135;0,0525872
3443,2776;0,0524498
3444,2419;0,0522887
3445,2061;0,0520835
3446,1704;0,051828
3447,1345;0,0515373
3448,0989;0,0512409
3449,0630;0,0509663
3450,0273;0,0507253
3450,9915;0,0505123
3451,9558;0,0503143
3452,9199;0,0501215
3453,8843;0,0499323
3454,8484;0,0497501
3455,8127;0,0495767
3456,7769;0,0494077
3457,7412;0,0492336
3458,7053;0,0490453
3459,6697;0,0488396
3460,6338;0,0486205
3461,5981;0,0483964
3462,5623;0,0481745
3463,5266;0,0479569
3464,4907;0,0477405
3465,4551;0,0475209
3466,4192;0,0472967
3467,3835;0,0470728
3468,3477;0,0468578
3469,3120;0,0466579
3470,2761;0,0464705
3471,2405;0,0462838
3472,2046;0,0460835
3473,1689;0,0458636
3474,1331;0,0456338
3475,0974;0,0454157
3476,0615;0,0452296
3477,0259;0,0450795
3477,9900;0,0449484
3478,9543;0,0448078
3479,9185;0,044635
3480,8828;0,0444284
3481,8469;0,0442088
3482,8113;0,0440032
3483,7754;0,0438238
3484,7397;0,0436588
3485,7039;0,0434814
3486,6682;0,0432689
3487,6323;0,04302
3488,5967;0,0427565
3489,5608;0,0425104
3490,5251;0,0423031
3491,4893;0,0421336
3492,4536;0,0419813
3493,4177;0,0418217
3494,3821;0,0416429
3495,3462;0,0414553
3496,3105;0,0412865
3497,2747;0,0411617
3498,2390;0,0410842
3499,2031;0,0410267
3500,1675;0,0409407
3501,1316;0,0407786
3502,0959;0,0405226
3503,0601;0,0402026
3504,0244;0,0398838
3504,9885;0,0396258
3505,9529;0,0394483
3506,9170;0,039326
3507,8813;0,0392094
3508,8455;0,0390535
3509,8098;0,0388405
3510,7739;0,0385864
3511,7383;0,0383253
3512,7024;0,0380849
3513,6667;0,0378733
3514,6309;0,0376837
3515,5952;0,0375079
3516,5593;0,0373464
3517,5237;0,0372092
3518,4878;0,0371072
3519,4521;0,0370424
3520,4163;0,0370028
3521,3806;0,0369642
3522,3447;0,0368984
3523,3091;0,0367832
3524,2732;0,0366082
3525,2375;0,0363742
3526,2017;0,0360891
3527,1660;0,0357674
3528,1301;0,0354326
3529,0945;0,0351166
3530,0586;0,0348506
3531,0229;0,0346497
3531,9871;0,0345054
3532,9514;0,0343886
3533,9155;0,034261
3534,8799;0,0340911
3535,8440;0,0338701
3536,8083;0,0336203
3537,7725;0,0333887
3538,7368;0,0332234
3539,7009;0,0331506
3540,6653;0,0331623
3541,6294;0,0332175
3542,5938;0,033252
3543,5579;0,0331957
3544,5222;0,0330054
3545,4863;0,0326972
3546,4507;0,0323457
3547,4148;0,0320356
3548,3792;0,0318067
3549,3433;0,0316411
3550,3076;0,0314869
3551,2717;0,0312953
3552,2361;0,0310499
3553,2002;0,030776
3554,1646;0,0305213
3555,1287;0,0303206
3556,0930;0,0301768
3557,0571;0,0300698
3558,0215;0,0299796
3558,9856;0,0299057
3559,9500;0,0298689
3560,9141;0,029895
3561,8784;0,0299886
3562,8425;0,0301164
3563,8069;0,0302018
3564,7710;0,0301302
3565,7354;0,0297906
3566,6995;0,0291815
3567,6638;0,0284786
3568,6279;0,0279139
3569,5923;0,0275882
3570,5564;0,027449
3571,5208;0,0273884
3572,4849;0,0273255
3573,4492;0,0272307
3574,4133;0,0271127
3575,3777;0,026991
3576,3418;0,0268739
3577,3062;0,026755
3578,2703;0,0266293
3579,2346;0,0265116
3580,1987;0,0264365
3581,1631;0,0264369
3582,1272;0,0265165
3583,0916;0,0266394
3584,0557;0,0267346
3585,0200;0,0267093
3585,9841;0,0264826
3586,9485;0,0260632
3587,9126;0,0256045
3588,8770;0,0253059
3589,8411;0,0252483
3590,8054;0,0253642
3591,7695;0,0255252
3592,7339;0,0256206
3593,6980;0,0255956
3594,6624;0,0254628
3595,6265;0,0252822
3596,5908;0,0251078
3597,5549;0,0249441
3598,5193;0,0247558
3599,4834;0,0245165
3600,4478;0,0242484
3601,4119;0,0240145
3602,3762;0,0238666
3603,3403;0,0238008
3604,3047;0,0237586
3605,2688;0,0236583
3606,2332;0,0234334
3607,1973;0,0230681
3608,1616;0,0226187
3609,1257;0,0221896
3610,0901;0,0218712
3611,0542;0,0216977
3612,0186;0,0216515
3612,9827;0,0216898
3613,9470;0,021762
3614,9111;0,0218156
3615,8755;0,0217974
3616,8396;0,0216634
3617,8040;0,0214017
3618,7681;0,0210675
3619,7324;0,0207918
3620,6965;0,0207115
3621,6609;0,0208657
3622,6250;0,0211724
3623,5894;0,0214927
3624,5535;0,0216989
3625,5178;0,021699
3626,4819;0,0214275
3627,4463;0,0208558
3628,4104;0,0200818
3629,3748;0,0193795
3630,3389;0,0189879
3631,3032;0,0188925
3632,2673;0,0189102
3633,2317;0,0188756
3634,1958;0,0187266
3635,1602;0,0184937
3636,1243;0,0182459
3637,0886;0,0180334
3638,0527;0,017864
3639,0171;0,0177203
3639,9812;0,0175939
3640,9456;0,0175021
3641,9097;0,0174727
3642,8740;0,0175164
3643,8381;0,0176108
3644,8025;0,0177057
3645,7666;0,0177241
3646,7310;0,0175351
3647,6951;0,0169595
3648,6594;0,0159819
3649,6235;0,0149955
3650,5879;0,0144635
3651,5520;0,0144347
3652,5164;0,0146525
3653,4805;0,0148542
3654,4448;0,0148997
3655,4089;0,0147804
3656,3733;0,0145873
3657,3374;0,0144407
3658,3018;0,0144003
3659,2659;0,0144341
3660,2302;0,0144719
3661,1943;0,0144777
3662,1587;0,014473
3663,1228;0,0145049
3664,0872;0,0145919
3665,0513;0,0147011
3666,0156;0,0147702
3666,9797;0,0147482
3667,9441;0,0146253
3668,9082;0,0144457
3669,8726;0,0142979
3670,8367;0,0142482
3671,8010;0,0142679
3672,7651;0,0142534
3673,7295;0,0141089
3674,6936;0,0138168
3675,6580;0,0134825
3676,6221;0,0132872
3677,5864;0,0133239
3678,5505;0,0135222
3679,5149;0,0137553
3680,4790;0,0139542
3681,4434;0,0141273
3682,4075;0,0143119
3683,3718;0,0145189
3684,3359;0,0147139
3685,3003;0,0148391
3686,2644;0,0148489
3687,2288;0,0147274
3688,1929;0,0144966
3689,1572;0,0142391
3690,1213;0,0140897
3691,0857;0,0141339
3692,0498;0,0143407
3693,0142;0,0146194
3693,9783;0,0148979
3694,9426;0,0151445
3695,9067;0,0153499
3696,8711;0,0155043
3697,8352;0,01559
3698,7996;0,0155893
3699,7637;0,0155021
3700,7280;0,0153611
3701,6921;0,0152351
3702,6565;0,0152007
3703,6206;0,0152962
3704,5850;0,0154968
3705,5491;0,0157359
3706,5134;0,0159389
3707,4775;0,016036
3708,4419;0,0159488
3709,4060;0,0155881
3710,3704;0,014932
3711,3345;0,014153
3712,2988;0,0135626
3713,2629;0,0133586
3714,2273;0,0135172
3715,1914;0,013899
3716,1558;0,0143713
3717,1199;0,0148541
3718,0842;0,0153139
3719,0483;0,0157409
3720,0127;0,0161286
3720,9768;0,0164648
3721,9412;0,0167311
3722,9053;0,0169094
3723,8696;0,0169927
3724,8337;0,0169977
3725,7981;0,0169627
3726,7622;0,0169266
3727,7266;0,016906
3728,6907;0,0168965
3729,6550;0,0168935
3730,6191;0,0169038
3731,5835;0,0169284
3732,5476;0,0169169
3733,5120;0,0167419
3734,4761;0,0162935
3735,4404;0,0156627
3736,4045;0,015131
3737,3689;0,0149022
3738,3330;0,0149435
3739,2974;0,01507
3740,2615;0,0150858
3741,2258;0,0148659
3742,1899;0,0143934
3743,1543;0,0137852
3744,1184;0,0132804
3745,0828;0,0131058
3746,0469;0,0132777
3747,0112;0,0135881
3747,9753;0,0137674
3748,9397;0,0136203
3749,9038;0,0131152
3750,8682;0,0124758
3751,8323;0,0120879
3752,7966;0,0121531
3753,7607;0,012547
3754,7251;0,0130115
3755,6892;0,0133414
3756,6536;0,0134399
3757,6177;0,013317
3758,5820;0,0130771
3759,5461;0,01287
3760,5105;0,0128014
3761,4746;0,0128784
3762,4390;0,0130361
3763,4031;0,0131963
3764,3674;0,0133031
3765,3315;0,0133296
3766,2959;0,0132703
3767,2600;0,0131307
3768,2244;0,0129262
3769,1885;0,0126914
3770,1528;0,0124879
3771,1169;0,0123854
3772,0813;0,0124221
3773,0454;0,0125785
3774,0098;0,0127907
3774,9739;0,0129841
3775,9382;0,0131007
3776,9023;0,0131127
3777,8667;0,0130309
3778,8308;0,0129083
3779,7952;0,0128183
3780,7593;0,0128083
3781,7236;0,01287
3782,6877;0,0129546
3783,6521;0,013007
3784,6162;0,0129954
3785,5806;0,0129255
3786,5447;0,0128359
3787,5090;0,0127766
3788,4731;0,0127818
3789,4375;0,0128539
3790,4016;0,0129671
3791,3660;0,013085
3792,3301;0,0131825
3793,2944;0,0132595
3794,2585;0,0133366
3795,2229;0,0134342
3796,1870;0,0135457
3797,1514;0,0136275
3798,1155;0,0136156
3799,0798;0,0134645
3800,0439;0,0131902
3801,0083;0,0128907
3801,9724;0,0126941
3802,9368;0,0126473
3803,9009;0,0126719
3804,8652;0,0126386
3805,8293;0,0124812
3806,7937;0,012262
3807,7578;0,0121407
3808,7222;0,012242
3809,6863;0,012544
3810,6506;0,0129044
3811,6147;0,0131704
3812,5791;0,0132609
3813,5432;0,0131928
3814,5076;0,0130642
3815,4717;0,0129973
3816,4360;0,013053
3817,4001;0,0131797
3818,3645;0,0132515
3819,3286;0,013164
3820,2930;0,0129247
3821,2571;0,0126745
3822,2214;0,0125817
3823,1855;0,0126963
3824,1499;0,0129326
3825,1140;0,013163
3826,0784;0,0133027
3827,0425;0,0133357
3828,0068;0,0132985
3828,9709;0,0132456
3829,9353;0,0132178
3830,8994;0,0132293
3831,8638;0,0132733
3832,8279;0,0133334
3833,7922;0,0133931
3834,7563;0,0134387
3835,7207;0,0134583
3836,6848;0,0134411
3837,6492;0,0133838
3838,6133;0,0133007
3839,5776;0,013216
3840,5417;0,0131379
3841,5061;0,0130538
3842,4702;0,0129587
3843,4346;0,012884
3844,3987;0,0128921
3845,3630;0,0130349
3846,3271;0,0133113
3847,2915;0,013658
3848,2556;0,0139752
3849,2200;0,0141595
3850,1841;0,0141171
3851,1484;0,0137547
3852,1125;0,0130167
3853,0769;0,0120792
3854,0410;0,0114281
3855,0054;0,0113967
3855,9695;0,0118565
3856,9338;0,0124882
3857,8979;0,0130554
3858,8623;0,0134571
3859,8264;0,0136864
3860,7908;0,0137801
3861,7549;0,0137828
3862,7192;0,0137341
3863,6833;0,013674
3864,6477;0,0136373
3865,6118;0,0136352
3866,5762;0,0136515
3867,5403;0,0136575
3868,5046;0,0136274
3869,4688;0,0135424
3870,4331;0,0133996
3871,3972;0,0132241
3872,3616;0,0130668
3873,3257;0,01298
3874,2900;0,0129893
3875,2542;0,0130863
3876,2185;0,0132391
3877,1826;0,0134093
3878,1470;0,0135635
3879,1111;0,0136771
3880,0754;0,0137341
3881,0396;0,0137244
3882,0039;0,013639
3882,9680;0,0134738
3883,9324;0,0132511
3884,8965;0,0130377
3885,8608;0,0129223
3886,8250;0,0129539
3887,7893;0,0130997
3888,7534;0,0132658
3889,7178;0,0133557
3890,6819;0,0133299
3891,6462;0,0132378
3892,6104;0,0131904
3893,5747;0,0132667
3894,5388;0,0134516
3895,5032;0,0136667
3896,4673;0,0138378
3897,4316;0,0139322
3898,3958;0,0139566
3899,3601;0,0139355
3900,3242;0,0138837
3901,2886;0,0137896
3902,2527;0,0136263
3903,2170;0,0133909
3904,1812;0,0131325
3905,1455;0,0129265
3906,1096;0,0128184
3907,0740;0,0128008
3908,0381;0,0128373
3909,0024;0,0128976
3909,9666;0,0129739
3910,9309;0,0130751
3911,8950;0,0132093
3912,8594;0,0133673
3913,8235;0,0135166
3914,7878;0,0136104
3915,7520;0,0136104
3916,7163;0,013517
3917,6804;0,0133863
3918,6448;0,0133034
3919,6089;0,0133237
3920,5732;0,0134354
3921,5374;0,0135727
3922,5017;0,0136586
3923,4658;0,013651
3924,4302;0,0135705
3925,3943;0,0134886
3926,3586;0,0134759
3927,3228;0,0135538
3928,2871;0,0136854
3929,2512;0,0137992
3930,2156;0,0138241
3931,1797;0,0137273
3932,1440;0,0135372
3933,1082;0,0133272
3934,0725;0,013169
3935,0366;0,013098
3936,0010;0,013113
3936,9651;0,0131934
3937,9294;0,0133123
3938,8936;0,0134398
3939,8579;0,0135458
3940,8220;0,0136063
3941,7864;0,013617
3942,7505;0,0135996
3943,7148;0,0135902
3944,6790;0,013613
3945,6433;0,0136621
3946,6074;0,0137051
3947,5718;0,0137021
3948,5359;0,0136314
3949,5002;0,0135058
3950,4644;0,0133673
3951,4287;0,0132605
3952,3928;0,0132084
3953,3572;0,0132076
3954,3213;0,0132386
3955,2856;0,0132799
3956,2498;0,0133163
3957,2141;0,0133405
3958,1782;0,0133503
3959,1426;0,0133446
3960,1067;0,0133228
3961,0710;0,013287
3962,0352;0,013244
3962,9995;0,0132047
3963,9636;0,0131797
3964,9280;0,0131749
3965,8921;0,0131901
3966,8564;0,0132202
3967,8206;0,0132587
3968,7849;0,0132992
3969,7490;0,0133358
3970,7134;0,0133621
3971,6775;0,013371
3972,6418;0,0133566
3973,6060;0,0133187
3974,5703;0,0132649
3975,5344;0,01321
3976,4988;0,0131691
3977,4629;0,0131509
3978,4272;0,0131533
3979,3914;0,0131648
3980,3557;0,0131716
3981,3198;0,0131646
3982,2842;0,0131445
3983,2483;0,0131214
3984,2126;0,0131097
3985,1768;0,0131204
3986,1411;0,013156
3987,1052;0,0132091
3988,0696;0,0132654
3989,0337;0,0133091
3989,9980;0,013328
3990,9622;0,0133174
3991,9265;0,0132806
3992,8906;0,0132271
3993,8550;0,0131698
3994,8191;0,0131222
3995,7834;0,0130948
3996,7476;0,0130924
3997,7119;0,0131121
3998,6760;0,0131444
3999,6404;0,0131774
4000,6045;0,013368

##### Extended Information
[Comments]
Sample name
Comment
Username
Division
Organization;UNIVERSIDAD INDUSTRIAL DE SANTANDER

[Detailed Information]
Creation date;25/02/2025 4:48 p.m.

Data array type;Linear data array
Horizontal axis;Wavenumber [cm-1]
Vertical axis;Abs
Start;399,193 cm-1
End;4000,6 cm-1
Data interval;0,964233 cm-1
Data points;3736    

[Measurement Information]
Model name;FT/IR-4X1typeA
Serial No.;A035162111

Accessory;ATR PRO 4X
Accessory S/N;A021162126
Incident angle;45 deg

Measurement date;25/02/2025 4:48 p.m.

Light source;Standard
Detector;TGS
Accumulation;40
Resolution;4 cm-1
Zero filling;On
Apodization;Cosine
Gain;Auto (8)
Aperture;Auto (7 mm)
Scan speed;Auto (2 mm/sec)
Filter;Auto (12800 Hz)

