TITLE;
DATA TYPE;INFRARED SPECTRUM
ORIGIN;JASCO
OWNER;
DATE;25/03/17
TIME;15:10:04
SPECTROMETER/DATA SYSTEM;
LOCALE;9226
RESOLUTION;
DELTAX;0,964233
XUNITS;1/CM
YUNITS;ABSORBANCE
FIRSTX;  399,1927
LASTX; 4000,6047
NPOINTS;    3736
FIRSTY;     0,16875
MAXY;     0,21288
MINY;     0,00542
XYDATA
399,1927;0,168752
400,1569;0,167693
401,1211;0,167015
402,0854;0,166699
403,0496;0,166633
404,0138;0,16672
404,9781;0,166882
405,9423;0,167033
406,9065;0,167075
407,8708;0,166944
408,8350;0,166645
409,7992;0,166268
410,7635;0,16595
411,7277;0,1658
412,6919;0,165851
413,6562;0,166074
414,6204;0,166433
415,5846;0,166942
416,5489;0,16765
417,5131;0,16856
418,4773;0,169486
419,4416;0,170082
420,4058;0,170161
421,3700;0,169881
422,3343;0,169526
423,2985;0,169302
424,2627;0,169301
425,2270;0,16953
426,1912;0,169946
427,1554;0,170494
428,1197;0,171128
429,0839;0,171803
430,0481;0,17247
431,0124;0,173063
431,9766;0,17353
432,9408;0,173838
433,9051;0,173967
434,8693;0,173887
435,8335;0,173551
436,7978;0,172947
437,7620;0,17214
438,7262;0,171285
439,6905;0,170574
440,6547;0,170177
441,6189;0,170172
442,5832;0,170514
443,5474;0,171052
444,5116;0,17159
445,4759;0,171976
446,4401;0,172131
447,4043;0,172022
448,3686;0,171632
449,3328;0,170961
450,2970;0,170043
451,2613;0,168978
452,2255;0,167919
453,1897;0,167042
454,1540;0,166506
455,1182;0,166432
456,0824;0,16686
457,0467;0,167697
458,0109;0,168686
458,9751;0,169496
459,9394;0,169917
460,9036;0,169952
461,8678;0,169741
462,8321;0,16943
463,7963;0,169111
464,7605;0,168816
465,7248;0,168562
466,6890;0,168383
467,6532;0,168331
468,6175;0,168442
469,5817;0,168704
470,5459;0,16907
471,5102;0,16949
472,4744;0,169954
473,4386;0,170464
474,4029;0,170962
475,3671;0,171286
476,3313;0,171216
477,2956;0,170604
478,2598;0,169492
479,2240;0,168163
480,1883;0,167048
481,1525;0,166538
482,1167;0,166792
483,0810;0,167655
484,0452;0,16873
485,0094;0,169587
485,9737;0,169968
486,9379;0,169868
487,9021;0,169451
488,8664;0,168923
489,8306;0,168456
490,7948;0,168174
491,7591;0,168146
492,7233;0,168374
493,6875;0,168783
494,6518;0,16923
495,6160;0,169569
496,5802;0,169701
497,5445;0,169608
498,5087;0,169344
499,4729;0,168996
500,4372;0,168653
501,4014;0,16839
502,3656;0,168259
503,3299;0,168293
504,2941;0,168511
505,2583;0,168903
506,2226;0,169428
507,1868;0,170006
508,1510;0,170546
509,1153;0,170977
510,0795;0,171279
511,0437;0,171486
512,0080;0,171661
512,9722;0,171866
513,9365;0,172133
514,9007;0,172468
515,8649;0,17285
516,8292;0,173238
517,7934;0,173581
518,7576;0,173833
519,7219;0,173959
520,6861;0,173944
521,6503;0,173792
522,6146;0,173528
523,5788;0,173205
524,5430;0,172904
525,5073;0,172712
526,4715;0,172667
527,4357;0,172716
528,4000;0,172737
529,3642;0,172599
530,3284;0,172234
531,2927;0,171668
532,2569;0,171008
533,2211;0,170398
534,1854;0,169952
535,1496;0,169713
536,1138;0,169649
537,0781;0,169684
538,0423;0,16974
539,0065;0,169768
539,9708;0,169754
540,9350;0,169708
541,8992;0,169654
542,8635;0,169617
543,8277;0,169615
544,7919;0,169654
545,7562;0,169737
546,7204;0,169866
547,6846;0,17005
548,6489;0,170302
549,6131;0,17063
550,5773;0,171029
551,5416;0,171486
552,5058;0,17198
553,4700;0,172482
554,4343;0,172946
555,3985;0,173306
556,3627;0,173471
557,3270;0,173355
558,2912;0,172905
559,2554;0,172122
560,2197;0,171066
561,1839;0,169834
562,1481;0,16854
563,1124;0,16729
564,0766;0,166169
565,0408;0,165232
566,0051;0,164499
566,9693;0,163951
567,9335;0,163532
568,8978;0,163167
569,8620;0,162793
570,8262;0,16238
571,7905;0,161942
572,7547;0,161517
573,7189;0,161151
574,6832;0,160865
575,6474;0,160651
576,6116;0,160473
577,5759;0,16029
578,5401;0,16008
579,5043;0,159851
580,4686;0,159632
581,4328;0,159454
582,3970;0,159327
583,3613;0,159238
584,3255;0,159157
585,2897;0,159053
586,2540;0,158911
587,2182;0,158729
588,1824;0,158518
589,1467;0,158293
590,1109;0,158073
591,0751;0,157882
592,0394;0,157744
593,0036;0,157666
593,9678;0,157627
594,9321;0,157582
595,8963;0,157479
596,8605;0,157282
597,8248;0,156986
598,7890;0,156617
599,7532;0,156214
600,7175;0,155816
601,6817;0,155447
602,6459;0,155119
603,6102;0,154833
604,5744;0,154578
605,5386;0,154327
606,5029;0,154032
607,4671;0,153646
608,4313;0,153143
609,3956;0,152537
610,3598;0,151879
611,3240;0,15123
612,2883;0,150628
613,2525;0,150066
614,2167;0,1495
615,1810;0,148869
616,1452;0,148129
617,1094;0,147264
618,0737;0,146292
619,0379;0,145249
620,0021;0,144166
620,9664;0,143073
621,9306;0,141996
622,8948;0,140973
623,8591;0,140049
624,8233;0,139263
625,7875;0,138614
626,7518;0,13807
627,7160;0,137576
628,6802;0,137072
629,6445;0,136523
630,6087;0,135921
631,5729;0,135288
632,5372;0,134652
633,5014;0,134041
634,4656;0,13347
635,4299;0,132944
636,3941;0,132459
637,3583;0,132016
638,3226;0,131614
639,2868;0,13125
640,2510;0,130915
641,2153;0,130591
642,1795;0,130257
643,1437;0,129896
644,1080;0,129502
645,0722;0,129081
646,0364;0,128643
647,0007;0,128206
647,9649;0,127788
648,9291;0,127413
649,8934;0,127108
650,8576;0,126898
651,8218;0,126795
652,7861;0,126797
653,7503;0,126891
654,7145;0,127064
655,6788;0,127305
656,6430;0,127608
657,6072;0,127955
658,5715;0,128302
659,5357;0,128579
660,4999;0,12872
661,4642;0,12871
662,4284;0,128604
663,3926;0,128497
664,3569;0,128454
665,3211;0,128454
666,2853;0,128343
667,2496;0,12783
668,2138;0,126698
669,1780;0,125149
670,1423;0,123632
671,1065;0,122328
672,0707;0,121138
673,0350;0,119908
673,9992;0,118544
674,9634;0,11705
675,9277;0,115529
676,8919;0,114113
677,8561;0,112875
678,8204;0,111797
679,7846;0,110817
680,7488;0,109894
681,7131;0,10903
682,6773;0,108251
683,6415;0,107577
684,6058;0,107007
685,5700;0,106529
686,5342;0,106125
687,4985;0,105783
688,4627;0,105485
689,4269;0,105215
690,3912;0,104954
691,3554;0,104688
692,3196;0,104413
693,2839;0,104134
694,2481;0,103864
695,2123;0,103612
696,1766;0,103377
697,1408;0,103145
698,1050;0,102897
699,0693;0,102615
700,0335;0,102292
700,9977;0,101932
701,9620;0,101541
702,9262;0,101122
703,8904;0,100677
704,8547;0,100211
705,8189;0,0997379
706,7831;0,0992828
707,7474;0,0988639
708,7116;0,0984788
709,6758;0,0980972
710,6401;0,0976701
711,6043;0,0971518
712,5685;0,0965232
713,5328;0,0958022
714,4970;0,0950336
715,4612;0,0943387
716,4255;0,0935723
717,3897;0,0928101
718,3539;0,0920273
719,3182;0,0912062
720,2824;0,0903544
721,2466;0,0895044
722,2109;0,0886933
723,1751;0,0879395
724,1393;0,0872362
725,1036;0,0865613
726,0678;0,085893
727,0320;0,0852213
727,9963;0,0845491
728,9605;0,0838865
729,9247;0,0832443
730,8890;0,0826313
731,8532;0,0820552
732,8174;0,0815226
733,7817;0,0810371
734,7459;0,0805959
735,7101;0,0801895
736,6744;0,0798056
737,6386;0,0794351
738,6028;0,0790752
739,5671;0,0787272
740,5313;0,0783922
741,4955;0,0780673
742,4598;0,0777459
743,4240;0,0774213
744,3882;0,0770907
745,3525;0,0767555
746,3167;0,0764176
747,2809;0,0760754
748,2452;0,0757231
749,2094;0,075355
750,1736;0,0749729
751,1379;0,0745892
752,1021;0,0742228
753,0663;0,0738871
754,0306;0,0735803
754,9948;0,0732842
755,9590;0,0729745
756,9233;0,0726376
757,8875;0,0722807
758,8517;0,0719289
759,8160;0,071609
760,7802;0,0713312
761,7444;0,0710815
762,7087;0,0708281
763,6729;0,0705404
764,6371;0,0702066
765,6014;0,0698401
766,5656;0,0694713
767,5298;0,0691297
768,4941;0,0688289
769,4583;0,0685609
770,4225;0,0683045
771,3868;0,0680392
772,3510;0,0677574
773,3152;0,0674667
774,2795;0,067183
775,2437;0,0669207
776,2079;0,0666862
777,1722;0,0664768
778,1364;0,0662845
779,1006;0,0660978
780,0649;0,0659021
781,0291;0,0656787
781,9933;0,0654076
782,9576;0,0650744
783,9218;0,064679
784,8860;0,0642388
785,8503;0,0637849
786,8145;0,0633529
787,7787;0,0629724
788,7430;0,06266
789,7072;0,0624175
790,6714;0,0622333
791,6357;0,0620856
792,5999;0,0619482
793,5641;0,0617984
794,5284;0,0616245
795,4926;0,0614296
796,4568;0,0612281
797,4211;0,061036
798,3853;0,0608614
799,3495;0,0606989
800,3138;0,0605328
801,2780;0,0603468
802,2422;0,0601327
803,2065;0,0598962
804,1707;0,0596547
805,1349;0,0594309
806,0992;0,0592436
807,0634;0,0591002
808,0276;0,0589938
808,9919;0,0589061
809,9561;0,0588152
810,9203;0,0587058
811,8846;0,0585746
812,8488;0,058431
813,8130;0,0582897
814,7773;0,0581625
815,7415;0,0580535
816,7057;0,0579606
817,6700;0,057881
818,6342;0,0578164
819,5984;0,0577719
820,5627;0,0577507
821,5269;0,0577476
822,4911;0,0577468
823,4554;0,0577271
824,4196;0,0576711
825,3839;0,0575741
826,3481;0,0574461
827,3123;0,057307
828,2766;0,0571774
829,2408;0,0570691
830,2050;0,0569817
831,1693;0,0569047
832,1335;0,0568238
833,0977;0,0567272
834,0620;0,0566081
835,0262;0,0564648
835,9904;0,0562988
836,9547;0,0561144
837,9189;0,0559192
838,8831;0,055725
839,8474;0,055545
840,8116;0,0553892
841,7758;0,055259
842,7401;0,0551464
843,7043;0,0550389
844,6685;0,0549286
845,6328;0,0548174
846,5970;0,0547171
847,5612;0,0546407
848,5255;0,0545928
849,4897;0,0545654
850,4539;0,0545416
851,4182;0,0545056
852,3824;0,0544526
853,3466;0,054391
854,3109;0,0543379
855,2751;0,0543103
856,2393;0,0543181
857,2036;0,0543624
858,1678;0,0544381
859,1320;0,0545368
860,0963;0,0546499
861,0605;0,0547697
862,0247;0,0548912
862,9890;0,0550166
863,9532;0,0551578
864,9174;0,0553367
865,8817;0,0555795
866,8459;0,0559064
867,8101;0,0563237
868,7744;0,0568206
869,7386;0,0573747
870,7028;0,0579587
871,6671;0,0585456
872,6313;0,0591066
873,5955;0,0596066
874,5598;0,0600029
875,5240;0,0602543
876,4882;0,0603395
877,4525;0,0602743
878,4167;0,0601166
879,3809;0,0599514
880,3452;0,0598624
881,3094;0,0599039
882,2736;0,060089
883,2379;0,0603991
884,2021;0,0608063
885,1663;0,0612943
886,1306;0,0618652
887,0948;0,0625296
888,0590;0,0632903
889,0233;0,0641307
889,9875;0,0650147
890,9517;0,0658957
891,9160;0,0667282
892,8802;0,0674751
893,8444;0,0681101
894,8087;0,0686159
895,7729;0,0689838
896,7371;0,0692123
897,7014;0,0693058
898,6656;0,0692724
899,6298;0,0691208
900,5941;0,0688598
901,5583;0,0685007
902,5225;0,0680604
903,4868;0,0675633
904,4510;0,0670391
905,4152;0,0665186
906,3795;0,0660276
907,3437;0,0655839
908,3079;0,0651974
909,2722;0,0648726
910,2364;0,0646127
911,2007;0,064423
912,1649;0,0643102
913,1292;0,0642793
914,0934;0,0643286
915,0576;0,064446
916,0219;0,0646105
916,9861;0,0647988
917,9503;0,0649948
918,9146;0,0651955
919,8788;0,0654112
920,8430;0,0656574
921,8073;0,0659448
922,7715;0,0662717
923,7357;0,0666232
924,7000;0,0669772
925,6642;0,0673115
926,6284;0,0676108
927,5927;0,0678687
928,5569;0,0680879
929,5211;0,0682785
930,4854;0,0684561
931,4496;0,0686394
932,4138;0,0688457
933,3781;0,0690871
934,3423;0,069368
935,3065;0,0696861
936,2708;0,0700374
937,2350;0,0704216
938,1992;0,0708465
939,1635;0,0713267
940,1277;0,0718785
941,0919;0,0725135
942,0562;0,0732344
943,0204;0,0740362
943,9846;0,0749121
944,9489;0,0758595
945,9131;0,0768823
946,8773;0,0779876
947,8416;0,0791789
948,8058;0,0804506
949,7700;0,0817899
950,7343;0,0831833
951,6985;0,0846251
952,6627;0,0861204
953,6270;0,08768
954,5912;0,089312
955,5554;0,0910142
956,5197;0,0927744
957,4839;0,0945763
958,4481;0,0964069
959,4124;0,0982593
960,3766;0,10013
961,3408;0,102015
962,3051;0,103905
963,2693;0,105791
964,2335;0,107669
965,1978;0,109545
966,1620;0,11143
967,1262;0,113342
968,0905;0,115296
969,0547;0,117308
970,0189;0,119393
970,9832;0,121573
971,9474;0,123878
972,9116;0,126342
973,8759;0,128994
974,8401;0,131856
975,8043;0,134926
976,7686;0,138183
977,7328;0,14158
978,6970;0,145049
979,6613;0,148511
980,6255;0,151881
981,5897;0,155083
982,5540;0,158052
983,5182;0,160747
984,4824;0,163149
985,4467;0,165267
986,4109;0,167131
987,3751;0,168792
988,3394;0,1703
989,3036;0,1717
990,2678;0,173013
991,2321;0,17424
992,1963;0,175368
993,1605;0,176385
994,1248;0,177293
995,0890;0,178116
996,0532;0,178884
997,0175;0,17962
997,9817;0,180329
998,9459;0,181001
999,9102;0,181622
1000,8744;0,182201
1001,8386;0,182773
1002,8029;0,183399
1003,7671;0,184143
1004,7313;0,185052
1005,6956;0,186145
1006,6598;0,187418
1007,6240;0,188854
1008,5883;0,190435
1009,5525;0,192142
1010,5167;0,193947
1011,4810;0,19581
1012,4452;0,197674
1013,4094;0,199481
1014,3737;0,201184
1015,3379;0,20276
1016,3021;0,204202
1017,2664;0,205515
1018,2306;0,206705
1019,1948;0,207768
1020,1591;0,208701
1021,1233;0,209505
1022,0875;0,210193
1023,0518;0,210785
1024,0160;0,211305
1024,9802;0,211767
1025,9445;0,212174
1026,9087;0,212513
1027,8729;0,212759
1028,8372;0,212877
1029,8014;0,212824
1030,7656;0,212549
1031,7299;0,211996
1032,6941;0,211117
1033,6583;0,209891
1034,6226;0,208344
1035,5868;0,206552
1036,5510;0,204634
1037,5153;0,202731
1038,4795;0,200973
1039,4437;0,199459
1040,4080;0,198239
1041,3722;0,197322
1042,3364;0,196678
1043,3007;0,19625
1044,2649;0,19597
1045,2291;0,195762
1046,1934;0,195555
1047,1576;0,195294
1048,1218;0,194936
1049,0861;0,194455
1050,0503;0,193832
1051,0145;0,193052
1051,9788;0,192105
1052,9430;0,190985
1053,9072;0,189692
1054,8715;0,188226
1055,8357;0,186579
1056,7999;0,184729
1057,7642;0,182642
1058,7284;0,180289
1059,6926;0,17766
1060,6569;0,174786
1061,6211;0,171743
1062,5853;0,168639
1063,5496;0,165597
1064,5138;0,162728
1065,4780;0,16011
1066,4423;0,157776
1067,4065;0,155714
1068,3707;0,153875
1069,3350;0,15219
1070,2992;0,150589
1071,2634;0,14901
1072,2277;0,147409
1073,1919;0,145757
1074,1561;0,144033
1075,1204;0,142225
1076,0846;0,140335
1077,0488;0,138381
1078,0131;0,136406
1078,9773;0,134471
1079,9415;0,132643
1080,9058;0,130976
1081,8700;0,129498
1082,8342;0,128208
1083,7985;0,127087
1084,7627;0,126112
1085,7269;0,125268
1086,6912;0,124544
1087,6554;0,123933
1088,6196;0,123427
1089,5839;0,12301
1090,5481;0,122671
1091,5123;0,122401
1092,4766;0,122202
1093,4408;0,122074
1094,4050;0,122016
1095,3693;0,122017
1096,3335;0,122064
1097,2977;0,122141
1098,2620;0,122233
1099,2262;0,122327
1100,1904;0,122404
1101,1547;0,122443
1102,1189;0,12242
1103,0831;0,122319
1104,0474;0,122132
1105,0116;0,121868
1105,9758;0,12154
1106,9401;0,121159
1107,9043;0,120723
1108,8685;0,120208
1109,8328;0,119572
1110,7970;0,118762
1111,7612;0,117732
1112,7255;0,116466
1113,6897;0,114985
1114,6539;0,113359
1115,6182;0,111687
1116,5824;0,110071
1117,5466;0,108587
1118,5109;0,107264
1119,4751;0,106075
1120,4393;0,104948
1121,4036;0,103794
1122,3678;0,102531
1123,3320;0,101104
1124,2963;0,0994955
1125,2605;0,0977242
1126,2247;0,0958328
1127,1890;0,0938737
1128,1532;0,0918948
1129,1174;0,0899302
1130,0817;0,0879979
1131,0459;0,0861064
1132,0101;0,0842648
1132,9744;0,082494
1133,9386;0,0808298
1134,9028;0,0793195
1135,8671;0,0780105
1136,8313;0,07694
1137,7955;0,076127
1138,7598;0,0755724
1139,7240;0,0752615
1140,6882;0,0751686
1141,6525;0,0752602
1142,6167;0,0754987
1143,5809;0,0758471
1144,5452;0,076275
1145,5094;0,0767634
1146,4736;0,0773048
1147,4379;0,0778983
1148,4021;0,0785411
1149,3663;0,0792224
1150,3306;0,0799204
1151,2948;0,080605
1152,2590;0,0812428
1153,2233;0,0818024
1154,1875;0,0822564
1155,1517;0,0825803
1156,1160;0,082749
1157,0802;0,0827313
1158,0444;0,0824854
1159,0087;0,0819585
1159,9729;0,0810913
1160,9371;0,0798303
1161,9014;0,0781434
1162,8656;0,0760339
1163,8298;0,0735476
1164,7941;0,070769
1165,7583;0,0678093
1166,7225;0,0647889
1167,6868;0,061821
1168,6510;0,058998
1169,6152;0,0563838
1170,5795;0,0540121
1171,5437;0,0518907
1172,5079;0,0500098
1173,4722;0,0483497
1174,4364;0,0468878
1175,4006;0,0456012
1176,3649;0,0444689
1177,3291;0,0434729
1178,2933;0,0425996
1179,2576;0,0418395
1180,2218;0,0411856
1181,1860;0,0406295
1182,1503;0,0401603
1183,1145;0,0397667
1184,0787;0,0394418
1185,0430;0,0391871
1186,0072;0,0390119
1186,9714;0,0389286
1187,9357;0,0389461
1188,8999;0,039066
1189,8641;0,0392838
1190,8284;0,0395924
1191,7926;0,0399856
1192,7568;0,0404584
1193,7211;0,0410052
1194,6853;0,0416172
1195,6495;0,0422819
1196,6138;0,0429839
1197,5780;0,0437064
1198,5422;0,0444325
1199,5065;0,0451537
1200,4707;0,0458431
1201,4349;0,0464984
1202,3992;0,0471129
1203,3634;0,0476816
1204,3276;0,048201
1205,2919;0,0486691
1206,2561;0,0490881
1207,2203;0,0494673
1208,1846;0,0498243
1209,1488;0,0501852
1210,1130;0,0505807
1211,0773;0,0510407
1212,0415;0,0515891
1213,0057;0,0522377
1213,9700;0,0529844
1214,9342;0,0538124
1215,8984;0,0546948
1216,8627;0,0556007
1217,8269;0,0565029
1218,7911;0,057384
1219,7554;0,0582384
1220,7196;0,0590701
1221,6838;0,0598861
1222,6481;0,06069
1223,6123;0,0614784
1224,5765;0,0622411
1225,5408;0,0629659
1226,5050;0,0636424
1227,4692;0,0642658
1228,4335;0,0648357
1229,3977;0,0653534
1230,3619;0,0658187
1231,3262;0,0662286
1232,2904;0,0665785
1233,2546;0,0668656
1234,2189;0,0670906
1235,1831;0,0672589
1236,1473;0,0673786
1237,1116;0,0674586
1238,0758;0,0675064
1239,0400;0,0675269
1240,0043;0,0675215
1240,9685;0,0674882
1241,9327;0,0674214
1242,8970;0,0673128
1243,8612;0,0671542
1244,8254;0,0669409
1245,7897;0,0666746
1246,7539;0,0663634
1247,7181;0,0660193
1248,6824;0,0656532
1249,6466;0,0652721
1250,6108;0,0648788
1251,5751;0,0644749
1252,5393;0,0640649
1253,5035;0,0636568
1254,4678;0,063259
1255,4320;0,062875
1256,3962;0,0625009
1257,3605;0,0621259
1258,3247;0,0617373
1259,2889;0,0613264
1260,2532;0,0608898
1261,2174;0,0604284
1262,1816;0,0599425
1263,1459;0,0594298
1264,1101;0,0588864
1265,0743;0,0583092
1266,0386;0,057699
1267,0028;0,0570604
1267,9670;0,0564012
1268,9313;0,0557304
1269,8955;0,0550568
1270,8597;0,0543875
1271,8240;0,0537262
1272,7882;0,053072
1273,7524;0,0524212
1274,7167;0,0517709
1275,6809;0,0511225
1276,6451;0,050483
1277,6094;0,049861
1278,5736;0,0492615
1279,5378;0,0486818
1280,5021;0,0481133
1281,4663;0,0475475
1282,4305;0,0469828
1283,3948;0,0464276
1284,3590;0,0458972
1285,3232;0,045409
1286,2875;0,0449775
1287,2517;0,0446123
1288,2159;0,0443181
1289,1802;0,044095
1290,1444;0,0439397
1291,1086;0,0438461
1292,0729;0,0438086
1293,0371;0,043825
1294,0013;0,0438983
1294,9656;0,0440361
1295,9298;0,0442467
1296,8940;0,0445341
1297,8583;0,0448953
1298,8225;0,0453203
1299,7867;0,0457956
1300,7510;0,0463086
1301,7152;0,0468518
1302,6794;0,0474242
1303,6437;0,0480314
1304,6079;0,0486804
1305,5721;0,0493749
1306,5364;0,0501101
1307,5006;0,0508725
1308,4648;0,0516442
1309,4291;0,0524089
1310,3933;0,0531542
1311,3575;0,0538696
1312,3218;0,0545407
1313,2860;0,0551458
1314,2502;0,0556556
1315,2145;0,0560393
1316,1787;0,0562717
1317,1429;0,0563417
1318,1072;0,0562588
1319,0714;0,0560556
1320,0356;0,0557799
1320,9999;0,05548
1321,9641;0,0551914
1322,9283;0,0549326
1323,8926;0,05471
1324,8568;0,0545251
1325,8210;0,0543786
1326,7853;0,0542699
1327,7495;0,0541954
1328,7137;0,0541465
1329,6780;0,0541098
1330,6422;0,0540694
1331,6064;0,0540085
1332,5707;0,0539115
1333,5349;0,0537626
1334,4991;0,0535436
1335,4634;0,0532322
1336,4276;0,052807
1337,3918;0,0522621
1338,3561;0,0516273
1339,3203;0,0509734
1340,2845;0,050383
1341,2488;0,0499054
1342,2130;0,0495397
1343,1772;0,0492539
1344,1415;0,0490145
1345,1057;0,0488037
1346,0699;0,0486241
1347,0342;0,0484932
1347,9984;0,0484346
1348,9626;0,0484668
1349,9269;0,0485965
1350,8911;0,0488157
1351,8553;0,0491064
1352,8196;0,0494485
1353,7838;0,0498283
1354,7480;0,0502435
1355,7123;0,0506983
1356,6765;0,0511943
1357,6407;0,0517228
1358,6050;0,0522643
1359,5692;0,0527945
1360,5334;0,0532915
1361,4977;0,0537445
1362,4619;0,0541589
1363,4261;0,0545516
1364,3904;0,0549374
1365,3546;0,05532
1366,3188;0,0556923
1367,2831;0,0560404
1368,2473;0,0563458
1369,2115;0,0565861
1370,1758;0,0567328
1371,1400;0,0567513
1372,1042;0,0566065
1373,0685;0,0562817
1374,0327;0,055803
1374,9969;0,0552389
1375,9612;0,0546587
1376,9254;0,0540827
1377,8896;0,053478
1378,8539;0,052798
1379,8181;0,0520293
1380,7823;0,0512109
1381,7466;0,0504099
1382,7108;0,0496709
1383,6750;0,0489837
1384,6393;0,0482942
1385,6035;0,0475543
1386,5677;0,046781
1387,5320;0,046071
1388,4962;0,045533
1389,4604;0,045203
1390,4247;0,0450356
1391,3889;0,0449531
1392,3531;0,0448893
1393,3174;0,0448096
1394,2816;0,0447167
1395,2458;0,0446438
1396,2101;0,0446325
1397,1743;0,0447097
1398,1385;0,0448788
1399,1028;0,0451254
1400,0670;0,0454259
1401,0313;0,045755
1401,9955;0,0460926
1402,9597;0,0464309
1403,9240;0,046778
1404,8882;0,047154
1405,8524;0,0475774
1406,8167;0,048051
1407,7809;0,0485619
1408,7451;0,0490958
1409,7094;0,049649
1410,6736;0,0502294
1411,6378;0,0508456
1412,6021;0,0514949
1413,5663;0,0521589
1414,5305;0,0528105
1415,4948;0,0534198
1416,4590;0,0539575
1417,4232;0,0544026
1418,3875;0,0547561
1419,3517;0,0550415
1420,3159;0,0552756
1421,2802;0,0554448
1422,2444;0,0555185
1423,2086;0,055476
1424,1729;0,055323
1425,1371;0,0550835
1426,1013;0,0547704
1427,0656;0,0543618
1428,0298;0,0538138
1428,9940;0,0531105
1429,9583;0,0523122
1430,9225;0,0515359
1431,8867;0,0508682
1432,8510;0,0502969
1433,8152;0,0497179
1434,7794;0,0490042
1435,7437;0,0481147
1436,7079;0,0471827
1437,6721;0,0464377
1438,6364;0,0460011
1439,6006;0,045824
1440,5648;0,0457944
1441,5291;0,0458279
1442,4933;0,0458882
1443,4575;0,0459714
1444,4218;0,0460823
1445,3860;0,0462178
1446,3502;0,0463644
1447,3145;0,0465086
1448,2787;0,0466494
1449,2429;0,0467994
1450,2072;0,0469736
1451,1714;0,047176
1452,1356;0,0473936
1453,0999;0,0475891
1454,0641;0,0476858
1455,0283;0,0475522
1455,9926;0,0470545
1456,9568;0,0462628
1457,9210;0,045547
1458,8853;0,0451845
1459,8495;0,0451141
1460,8137;0,0451418
1461,7780;0,0450908
1462,7422;0,044812
1463,7064;0,044206
1464,6707;0,0433044
1465,6349;0,0423012
1466,5991;0,0414085
1467,5634;0,0406903
1468,5276;0,0400587
1469,4918;0,0393511
1470,4561;0,0383855
1471,4203;0,0370265
1472,3845;0,0353202
1473,3488;0,0335753
1474,3130;0,0321401
1475,2772;0,0311065
1476,2415;0,0303544
1477,2057;0,0297442
1478,1699;0,0291953
1479,1342;0,0286762
1480,0984;0,0281831
1481,0626;0,0277294
1482,0269;0,0273399
1482,9911;0,0270391
1483,9553;0,0268349
1484,9196;0,0267078
1485,8838;0,0266123
1486,8480;0,0264927
1487,8123;0,026319
1488,7765;0,0261351
1489,7407;0,0260492
1490,7050;0,0261348
1491,6692;0,0263743
1492,6334;0,0267084
1493,5977;0,0270877
1494,5619;0,0274824
1495,5261;0,0278774
1496,4904;0,0282738
1497,4546;0,0286927
1498,4188;0,029161
1499,3831;0,0296862
1500,3473;0,0302522
1501,3115;0,030833
1502,2758;0,0313965
1503,2400;0,0318923
1504,2042;0,0322245
1505,1685;0,0322246
1506,1327;0,031717
1507,0969;0,0308142
1508,0612;0,029996
1509,0254;0,0295284
1509,9896;0,029296
1510,9539;0,0291253
1511,9181;0,0289116
1512,8823;0,0285974
1513,8466;0,0281522
1514,8108;0,0275788
1515,7750;0,0269231
1516,7393;0,0262556
1517,7035;0,0256218
1518,6677;0,0250085
1519,6320;0,024365
1520,5962;0,0236687
1521,5604;0,0229737
1522,5247;0,022375
1523,4889;0,0219253
1524,4531;0,0216084
1525,4174;0,0213822
1526,3816;0,0212249
1527,3458;0,0211406
1528,3101;0,0211345
1529,2743;0,02119
1530,2385;0,0212685
1531,2028;0,0213273
1532,1670;0,0213511
1533,1312;0,0213767
1534,0955;0,021474
1535,0597;0,0216857
1536,0239;0,0219964
1536,9882;0,0223473
1537,9524;0,022645
1538,9166;0,0227559
1539,8809;0,0225585
1540,8451;0,0221291
1541,8093;0,0217689
1542,7736;0,0216475
1543,7378;0,0217031
1544,7020;0,021838
1545,6663;0,022001
1546,6305;0,0221735
1547,5947;0,0223447
1548,5590;0,0225028
1549,5232;0,0226387
1550,4874;0,0227582
1551,4517;0,0228874
1552,4159;0,0230608
1553,3801;0,0232966
1554,3444;0,0235801
1555,3086;0,0238571
1556,2728;0,0240265
1557,2371;0,0239584
1558,2013;0,0236399
1559,1655;0,023349
1560,1298;0,0233497
1561,0940;0,0235967
1562,0582;0,0239561
1563,0225;0,0243534
1563,9867;0,0247546
1564,9509;0,0251347
1565,9152;0,0254693
1566,8794;0,0257458
1567,8436;0,0259853
1568,8079;0,0262483
1569,7721;0,0265953
1570,7363;0,027034
1571,7006;0,0275228
1572,6648;0,0280111
1573,6290;0,0284649
1574,5933;0,0288742
1575,5575;0,0292624
1576,5217;0,029682
1577,4860;0,0301734
1578,4502;0,0307331
1579,4144;0,0313368
1580,3787;0,0319662
1581,3429;0,0326113
1582,3071;0,0332642
1583,2714;0,0339203
1584,2356;0,0345819
1585,1998;0,0352566
1586,1641;0,0359488
1587,1283;0,0366502
1588,0925;0,0373387
1589,0568;0,0379847
1590,0210;0,0385596
1590,9852;0,0390394
1591,9495;0,0394029
1592,9137;0,0396325
1593,8779;0,0397241
1594,8422;0,0396965
1595,8064;0,0395895
1596,7706;0,039446
1597,7349;0,0392921
1598,6991;0,0391319
1599,6633;0,0389568
1600,6276;0,0387618
1601,5918;0,0385567
1602,5560;0,0383652
1603,5203;0,038212
1604,4845;0,0381063
1605,4487;0,0380352
1606,4130;0,0379723
1607,3772;0,0378984
1608,3414;0,0378222
1609,3057;0,0377829
1610,2699;0,0378232
1611,2341;0,0379542
1612,1984;0,0381442
1613,1626;0,0383317
1614,1268;0,0384481
1615,0911;0,0384561
1616,0553;0,0384002
1617,0195;0,0384011
1617,9838;0,0385442
1618,9480;0,0388063
1619,9122;0,0391043
1620,8765;0,03936
1621,8407;0,0395265
1622,8049;0,0396018
1623,7692;0,0396289
1624,7334;0,0396623
1625,6976;0,0397272
1626,6619;0,0398179
1627,6261;0,0399275
1628,5903;0,0400676
1629,5546;0,0402569
1630,5188;0,0404973
1631,4830;0,0407579
1632,4473;0,0409712
1633,4115;0,0410364
1634,3757;0,0408558
1635,3400;0,0404481
1636,3042;0,0400253
1637,2684;0,039805
1638,2327;0,039805
1639,1969;0,0399287
1640,1611;0,040098
1641,1254;0,0402771
1642,0896;0,0404445
1643,0538;0,0405596
1644,0181;0,0405463
1644,9823;0,0403232
1645,9465;0,03991
1646,9108;0,0395042
1647,8750;0,0393238
1648,8392;0,0393952
1649,8035;0,0395715
1650,7677;0,0396205
1651,7319;0,0392623
1652,6962;0,0383552
1653,6604;0,0372768
1654,6246;0,0366254
1655,5889;0,0364711
1656,5531;0,0365519
1657,5173;0,0366621
1658,4816;0,0366904
1659,4458;0,0365632
1660,4100;0,036229
1661,3743;0,0356992
1662,3385;0,0350886
1663,3027;0,034559
1664,2670;0,0341945
1665,2312;0,0339575
1666,1954;0,0337329
1667,1597;0,0333838
1668,1239;0,0328125
1669,0881;0,0320464
1670,0524;0,0312626
1671,0166;0,0306414
1671,9808;0,030201
1672,9451;0,0298206
1673,9093;0,0293675
1674,8735;0,0287978
1675,8378;0,0281906
1676,8020;0,0276838
1677,7662;0,0273601
1678,7305;0,0272014
1679,6947;0,0271204
1680,6589;0,0269887
1681,6232;0,0266427
1682,5874;0,025936
1683,5516;0,0249159
1684,5159;0,0239173
1685,4801;0,0232386
1686,4443;0,0228692
1687,4086;0,022651
1688,3728;0,022469
1689,3370;0,0222876
1690,3013;0,0221205
1691,2655;0,02199
1692,2297;0,0218982
1693,1940;0,02182
1694,1582;0,0217135
1695,1224;0,0215413
1696,0867;0,0212903
1697,0509;0,0209781
1698,0151;0,0206437
1698,9794;0,0203373
1699,9436;0,0201126
1700,9078;0,0200079
1701,8721;0,0200264
1702,8363;0,0201409
1703,8005;0,020315
1704,7648;0,0205219
1705,7290;0,0207544
1706,6932;0,0210228
1707,6575;0,0213434
1708,6217;0,0217251
1709,5859;0,0221657
1710,5502;0,0226542
1711,5144;0,0231715
1712,4786;0,023688
1713,4429;0,024164
1714,4071;0,0245577
1715,3713;0,0248508
1716,3356;0,025087
1717,2998;0,0253664
1718,2640;0,0257546
1719,2283;0,0262302
1720,1925;0,0267402
1721,1567;0,0272493
1722,1210;0,0277404
1723,0852;0,028202
1724,0494;0,0286252
1725,0137;0,0290074
1725,9779;0,0293564
1726,9421;0,0296872
1727,9064;0,0300113
1728,8706;0,0303227
1729,8348;0,0305858
1730,7991;0,030729
1731,7633;0,0306616
1732,7275;0,0303442
1733,6918;0,0298799
1734,6560;0,0294671
1735,6202;0,029212
1736,5845;0,0290635
1737,5487;0,0289026
1738,5129;0,0286258
1739,4772;0,0281862
1740,4414;0,0276109
1741,4056;0,0269825
1742,3699;0,0263772
1743,3341;0,0258171
1744,2983;0,025277
1745,2626;0,0247178
1746,2268;0,0241019
1747,1910;0,0233878
1748,1553;0,022539
1749,1195;0,0215672
1750,0837;0,0205721
1751,0480;0,0196923
1752,0122;0,0189986
1752,9764;0,0184574
1753,9407;0,0179799
1754,9049;0,0174841
1755,8691;0,0169344
1756,8334;0,0163469
1757,7976;0,015761
1758,7618;0,0151969
1759,7261;0,0146391
1760,6903;0,0140653
1761,6545;0,0134891
1762,6188;0,0129654
1763,5830;0,0125486
1764,5472;0,0122485
1765,5115;0,0120291
1766,4757;0,0118358
1767,4399;0,0116219
1768,4042;0,0113572
1769,3684;0,0110261
1770,3326;0,0106264
1771,2969;0,0101844
1772,2611;0,00976797
1773,2253;0,00945878
1774,1896;0,00929342
1775,1538;0,00924429
1776,1180;0,00925097
1777,0823;0,00925638
1778,0465;0,00922653
1779,0107;0,00915762
1779,9750;0,00907033
1780,9392;0,0089896
1781,9034;0,00892356
1782,8677;0,00886286
1783,8319;0,00879963
1784,7961;0,00874363
1785,7604;0,00871811
1786,7246;0,00873964
1787,6888;0,00880114
1788,6531;0,00886996
1789,6173;0,00889879
1790,5815;0,00884809
1791,5458;0,00871846
1792,5100;0,00856556
1793,4742;0,00845954
1794,4385;0,00842621
1795,4027;0,0084413
1796,3669;0,00846312
1797,3312;0,00845794
1798,2954;0,00841049
1799,2596;0,00832777
1800,2239;0,00823492
1801,1881;0,00815998
1802,1523;0,00811726
1803,1166;0,00810413
1804,0808;0,00810993
1805,0450;0,00812388
1806,0093;0,00813626
1806,9735;0,00813635
1807,9377;0,00811259
1808,9020;0,00805789
1809,8662;0,00797778
1810,8304;0,00789292
1811,7947;0,00782937
1812,7589;0,00780276
1813,7231;0,00781025
1814,6874;0,00783509
1815,6516;0,00785801
1816,6158;0,00786831
1817,5801;0,00786943
1818,5443;0,00787455
1819,5085;0,00789431
1820,4728;0,00792713
1821,4370;0,00795976
1822,4012;0,00797638
1823,3655;0,00796898
1824,3297;0,00794131
1825,2939;0,00790237
1826,2582;0,00785508
1827,2224;0,00779319
1828,1866;0,00771217
1829,1509;0,00762509
1830,1151;0,00756442
1831,0793;0,00755948
1832,0436;0,00761056
1833,0078;0,00768852
1833,9720;0,00775516
1834,9363;0,00778363
1835,9005;0,0077711
1836,8647;0,00774056
1837,8290;0,00772578
1838,7932;0,00774666
1839,7574;0,00779554
1840,7217;0,00784303
1841,6859;0,00785424
1842,6501;0,00780825
1843,6144;0,00771563
1844,5786;0,00761643
1845,5428;0,00754803
1846,5071;0,00751561
1847,4713;0,00749899
1848,4355;0,00747744
1849,3998;0,00744466
1850,3640;0,00740919
1851,3282;0,00738581
1852,2925;0,00738495
1853,2567;0,00740703
1854,2209;0,00744509
1855,1852;0,00749183
1856,1494;0,00754392
1857,1136;0,00760014
1858,0779;0,00765642
1859,0421;0,00770378
1860,0063;0,00773262
1860,9706;0,00774019
1861,9348;0,00773424
1862,8990;0,00772839
1863,8633;0,00773258
1864,8275;0,00774578
1865,7917;0,00775546
1866,7560;0,00774487
1867,7202;0,00770594
1868,6844;0,00764855
1869,6487;0,00759363
1870,6129;0,00755539
1871,5771;0,00753347
1872,5414;0,00751965
1873,5056;0,00750687
1874,4698;0,00749376
1875,4341;0,0074843
1876,3983;0,00748364
1877,3625;0,00749316
1878,3268;0,00750857
1879,2910;0,00752349
1880,2552;0,00753542
1881,2195;0,00754908
1882,1837;0,007574
1883,1479;0,00761698
1884,1122;0,00767404
1885,0764;0,00772804
1886,0406;0,00775425
1887,0049;0,00773225
1887,9691;0,00765977
1888,9333;0,00756011
1889,8976;0,00747303
1890,8618;0,00743081
1891,8260;0,00743854
1892,7903;0,00747438
1893,7545;0,00750601
1894,7188;0,00751025
1895,6830;0,00748548
1896,6472;0,00745039
1897,6115;0,00742963
1898,5757;0,00743707
1899,5399;0,00746919
1900,5042;0,0075105
1901,4684;0,00754431
1902,4326;0,00756156
1903,3969;0,00756305
1904,3611;0,0075554
1905,3253;0,00754444
1906,2896;0,00753102
1907,2538;0,00751117
1908,2180;0,00748002
1909,1823;0,0074377
1910,1465;0,00739364
1911,1107;0,0073659
1912,0750;0,00737483
1913,0392;0,00743476
1914,0034;0,00754709
1914,9677;0,00769617
1915,9319;0,0078496
1916,8961;0,00796666
1917,8604;0,00801572
1918,8246;0,00798987
1919,7888;0,00790663
1920,7531;0,00779298
1921,7173;0,00767079
1922,6815;0,00755256
1923,6458;0,0074454
1924,6100;0,00735661
1925,5742;0,00729587
1926,5385;0,00727314
1927,5027;0,00729407
1928,4669;0,00735496
1929,4312;0,0074396
1930,3954;0,00752154
1931,3596;0,00757372
1932,3239;0,00758184
1933,2881;0,00755244
1934,2523;0,00750917
1935,2166;0,00747853
1936,1808;0,00747375
1937,1450;0,00748809
1938,1093;0,00750271
1939,0735;0,00750323
1940,0377;0,00749331
1941,0020;0,0074955
1941,9662;0,00753586
1942,9304;0,00762021
1943,8947;0,00772281
1944,8589;0,00780078
1945,8231;0,00782169
1946,7874;0,00778082
1947,7516;0,00769946
1948,7158;0,00761088
1949,6801;0,00754369
1950,6443;0,00751157
1951,6085;0,00751331
1952,5728;0,00754039
1953,5370;0,00758369
1954,5012;0,00763404
1955,4655;0,00767822
1956,4297;0,00769724
1957,3939;0,00767219
1958,3582;0,00759633
1959,3224;0,00748575
1960,2866;0,00737927
1961,2509;0,007324
1962,2151;0,00735403
1963,1793;0,00747562
1964,1436;0,00766559
1965,1078;0,00787945
1966,0720;0,00806306
1967,0363;0,00816583
1968,0005;0,00815442
1968,9647;0,00802267
1969,9290;0,00779286
1970,8932;0,0075084
1971,8574;0,00722259
1972,8217;0,00698727
1973,7859;0,0068439
1974,7501;0,00681852
1975,7144;0,00691997
1976,6786;0,00713821
1977,6428;0,0074413
1978,6071;0,00777629
1979,5713;0,00808097
1980,5355;0,00830436
1981,4998;0,00842491
1982,4640;0,00845623
1983,4282;0,00843796
1984,3925;0,00841544
1985,3567;0,00841738
1986,3209;0,00844343
1987,2852;0,00846937
1988,2494;0,00846605
1989,2136;0,00841908
1990,1779;0,00833774
1991,1421;0,00824882
1992,1063;0,00817963
1993,0706;0,00814232
1994,0348;0,00813105
1994,9990;0,00813283
1995,9633;0,00814157
1996,9275;0,00816418
1997,8917;0,0082145
1998,8560;0,0082987
1999,8202;0,00840259
2000,7844;0,00849337
2001,7487;0,00853936
2002,7129;0,0085359
2003,6771;0,00851738
2004,6414;0,00854086
2005,6056;0,00864357
2006,5698;0,00880042
2007,5341;0,00891986
2008,4983;0,00889508
2009,4625;0,00867958
2010,4268;0,00832906
2011,3910;0,0079782
2012,3552;0,00777256
2013,3195;0,00780209
2014,2837;0,00807219
2015,2479;0,00851881
2016,2122;0,00904873
2017,1764;0,00957488
2018,1406;0,0100252
2019,1049;0,010331
2020,0691;0,0104206
2021,0333;0,0102405
2021,9976;0,00979618
2022,9618;0,00918153
2023,9260;0,00856612
2024,8903;0,00813138
2025,8545;0,00798655
2026,8187;0,00811683
2027,7830;0,00839935
2028,7472;0,00867812
2029,7114;0,00885175
2030,6757;0,00892114
2031,6399;0,00896974
2032,6041;0,00909155
2033,5684;0,00931689
2034,5326;0,00958898
2035,4968;0,00980672
2036,4611;0,00989791
2037,4253;0,00986603
2038,3895;0,00978047
2039,3538;0,00972391
2040,3180;0,00973647
2041,2822;0,00979399
2042,2465;0,00983364
2043,2107;0,00980567
2044,1749;0,00971137
2045,1392;0,0096008
2046,1034;0,00953555
2047,0676;0,00954562
2048,0320;0,00961168
2048,9961;0,00968511
2049,9604;0,00972642
2050,9246;0,00972917
2051,8889;0,00971569
2052,8530;0,00971569
2053,8174;0,00974579
2054,7815;0,00980052
2055,7458;0,00985631
2056,7100;0,00988389
2057,6743;0,00986119
2058,6384;0,00978085
2059,6028;0,00965068
2060,5669;0,00948992
2061,5313;0,00932418
2062,4954;0,00918097
2063,4597;0,00908632
2064,4238;0,00906141
2065,3882;0,00911785
2066,3523;0,00925154
2067,3167;0,00943805
2068,2808;0,00963411
2069,2451;0,00978846
2070,2092;0,00985998
2071,1736;0,00983564
2072,1377;0,00973784
2073,1021;0,00961487
2074,0662;0,0095186
2075,0305;0,00948216
2075,9946;0,00951019
2076,9590;0,00958438
2077,9231;0,00967709
2078,8875;0,00976345
2079,8516;0,00982658
2080,8159;0,00985801
2081,7800;0,00985727
2082,7444;0,00983213
2083,7085;0,00979664
2084,6729;0,00976463
2085,6370;0,00974069
2086,6013;0,00971541
2087,5654;0,00967014
2088,5298;0,00959054
2089,4939;0,00948028
2090,4583;0,00936501
2091,4224;0,00928275
2092,3867;0,00926647
2093,3508;0,00932937
2094,3152;0,00946066
2095,2793;0,00963216
2096,2437;0,00980925
2097,2078;0,00995899
2098,1721;0,0100537
2099,1362;0,0100746
2100,1006;0,0100193
2101,0647;0,00991194
2102,0291;0,00980305
2102,9932;0,00975365
2103,9575;0,00980563
2104,9216;0,00995584
2105,8860;0,0101527
2106,8501;0,0103215
2107,8145;0,0104035
2108,7786;0,0103852
2109,7429;0,0102979
2110,7070;0,0101913
2111,6714;0,0101025
2112,6355;0,0100404
2113,5999;0,0099955
2114,5640;0,00995938
2115,5283;0,0099375
2116,4924;0,00994375
2117,4568;0,00998431
2118,4209;0,0100465
2119,3853;0,0101031
2120,3494;0,0101304
2121,3137;0,0101244
2122,2778;0,0101035
2123,2422;0,0100945
2124,2063;0,0101147
2125,1707;0,0101606
2126,1348;0,0102133
2127,0991;0,0102523
2128,0632;0,0102678
2129,0276;0,010264
2129,9917;0,0102538
2130,9561;0,0102513
2131,9202;0,0102691
2132,8845;0,0103185
2133,8486;0,0104088
2134,8130;0,0105417
2135,7771;0,0107038
2136,7415;0,0108645
2137,7056;0,0109854
2138,6699;0,0110397
2139,6340;0,0110292
2140,5984;0,0109878
2141,5625;0,010968
2142,5269;0,0110145
2143,4910;0,0111388
2144,4553;0,0113106
2145,4194;0,0114718
2146,3838;0,0115666
2147,3479;0,01157
2148,3123;0,0114985
2149,2764;0,0113974
2150,2407;0,0113138
2151,2048;0,0112733
2152,1692;0,0112698
2153,1333;0,0112736
2154,0977;0,0112483
2155,0618;0,0111706
2156,0261;0,0110487
2156,9902;0,0109315
2157,9546;0,0108976
2158,9187;0,0110143
2159,8831;0,0112885
2160,8472;0,0116523
2161,8115;0,0120007
2162,7756;0,0122441
2163,7400;0,0123403
2164,7041;0,0122964
2165,6685;0,0121483
2166,6326;0,0119338
2167,5969;0,0116792
2168,5610;0,0114063
2169,5254;0,0111499
2170,4895;0,0109643
2171,4539;0,010907
2172,4180;0,0110048
2173,3823;0,0112263
2174,3464;0,0114838
2175,3108;0,0116718
2176,2749;0,0117208
2177,2393;0,0116303
2178,2034;0,0114607
2179,1677;0,0112942
2180,1318;0,0111897
2181,0962;0,0111568
2182,0603;0,0111575
2183,0247;0,0111326
2183,9888;0,0110367
2184,9531;0,0108655
2185,9172;0,0106629
2186,8816;0,0105057
2187,8457;0,0104696
2188,8101;0,0105904
2189,7742;0,0108389
2190,7385;0,0111255
2191,7026;0,011337
2192,6670;0,0113875
2193,6311;0,0112567
2194,5955;0,0109939
2195,5596;0,0106882
2196,5239;0,0104253
2197,4880;0,0102541
2198,4524;0,0101811
2199,4165;0,010185
2200,3809;0,010239
2201,3450;0,0103246
2202,3093;0,0104325
2203,2734;0,0105562
2204,2378;0,0106833
2205,2019;0,0107924
2206,1663;0,0108548
2207,1304;0,0108436
2208,0947;0,010746
2209,0588;0,0105759
2210,0232;0,0103761
2210,9873;0,0102052
2211,9517;0,0101113
2212,9158;0,0101066
2213,8801;0,0101608
2214,8442;0,0102191
2215,8086;0,0102357
2216,7727;0,0101997
2217,7371;0,0101366
2218,7012;0,0100858
2219,6655;0,0100721
2220,6296;0,0100927
2221,5940;0,0101265
2222,5581;0,010155
2223,5225;0,0101751
2224,4866;0,010196
2225,4509;0,0102237
2226,4150;0,0102506
2227,3794;0,0102584
2228,3435;0,0102319
2229,3079;0,0101723
2230,2720;0,0100978
2231,2363;0,0100335
2232,2004;0,0099977
2233,1648;0,00999596
2234,1289;0,0100219
2235,0933;0,0100625
2236,0574;0,0101023
2237,0217;0,0101262
2237,9858;0,0101234
2238,9502;0,0100928
2239,9143;0,0100442
2240,8787;0,00999464
2241,8428;0,00995755
2242,8071;0,00993489
2243,7712;0,00991799
2244,7356;0,00989782
2245,6997;0,00987618
2246,6641;0,00986746
2247,6282;0,00988764
2248,5925;0,00993854
2249,5566;0,0100003
2250,5210;0,0100395
2251,4851;0,0100297
2252,4495;0,00996988
2253,4136;0,00988889
2254,3779;0,00983098
2255,3420;0,00983116
2256,3064;0,00989535
2257,2705;0,00999731
2258,2349;0,0100933
2259,1990;0,0101452
2260,1633;0,0101385
2261,1274;0,0100864
2262,0918;0,010019
2263,0559;0,00996527
2264,0203;0,00993799
2264,9844;0,00993028
2265,9487;0,00992434
2266,9128;0,00990539
2267,8772;0,0098711
2268,8413;0,00983141
2269,8057;0,00980058
2270,7698;0,00978793
2271,7341;0,00979307
2272,6982;0,00980704
2273,6626;0,00981726
2274,6267;0,00981351
2275,5911;0,00979259
2276,5552;0,0097604
2277,5195;0,00973019
2278,4836;0,00971634
2279,4480;0,00972587
2280,4121;0,00975258
2281,3765;0,0097788
2282,3406;0,00978511
2283,3049;0,00976246
2284,2690;0,00971864
2285,2334;0,00967447
2286,1975;0,00965209
2287,1619;0,00966271
2288,1260;0,00970177
2289,0903;0,00975362
2290,0544;0,00980144
2291,0188;0,00983512
2291,9829;0,0098526
2292,9473;0,00985577
2293,9114;0,00984598
2294,8757;0,0098232
2295,8398;0,00978893
2296,8042;0,00974965
2297,7683;0,00971708
2298,7327;0,00970421
2299,6968;0,00971947
2300,6611;0,00976262
2301,6252;0,00982473
2302,5896;0,00989191
2303,5537;0,0099503
2304,5181;0,00998989
2305,4822;0,0100062
2306,4465;0,0100002
2307,4106;0,00997771
2308,3750;0,00994747
2309,3391;0,0099193
2310,3035;0,00990102
2311,2676;0,00989607
2312,2319;0,009903
2313,1960;0,00991749
2314,1604;0,0099357
2315,1245;0,00995658
2316,0889;0,0099811
2317,0530;0,0100089
2318,0173;0,0100343
2318,9814;0,010045
2319,9458;0,0100262
2320,9099;0,00997083
2321,8743;0,00988739
2322,8384;0,00979875
2323,8027;0,00972916
2324,7668;0,00969078
2325,7312;0,00967977
2326,6953;0,00968242
2327,6597;0,00968526
2328,6238;0,00968359
2329,5881;0,00968465
2330,5522;0,00970257
2331,5166;0,00974592
2332,4807;0,00980568
2333,4451;0,00985366
2334,4092;0,00985442
2335,3735;0,00978485
2336,3376;0,00965134
2337,3020;0,00949376
2338,2661;0,00936811
2339,2305;0,00931261
2340,1946;0,00931903
2341,1589;0,00933331
2342,1230;0,00929236
2343,0874;0,00918204
2344,0515;0,00906933
2345,0159;0,00905433
2345,9800;0,00918086
2346,9443;0,00941048
2347,9084;0,00966792
2348,8728;0,00989095
2349,8369;0,0100526
2350,8013;0,0101624
2351,7654;0,0102535
2352,7297;0,010358
2353,6938;0,0104753
2354,6582;0,0105621
2355,6223;0,0105621
2356,5867;0,0104515
2357,5508;0,0102567
2358,5151;0,0100359
2359,4792;0,00984037
2360,4436;0,00968157
2361,4077;0,0095324
2362,3721;0,00936044
2363,3362;0,00916281
2364,3005;0,00897246
2365,2646;0,00883312
2366,2290;0,00876647
2367,1931;0,00875883
2368,1575;0,00877413
2369,1216;0,00877837
2370,0859;0,00875718
2371,0500;0,00871887
2372,0144;0,00868576
2372,9785;0,00868153
2373,9429;0,00872102
2374,9070;0,00880521
2375,8713;0,00892222
2376,8354;0,009053
2377,7998;0,00917928
2378,7639;0,00929001
2379,7283;0,00938368
2380,6924;0,00946597
2381,6567;0,00954469
2382,6208;0,00962511
2383,5852;0,00970765
2384,5493;0,00978831
2385,5137;0,0098608
2386,4778;0,00991928
2387,4421;0,00996082
2388,4063;0,00998712
2389,3706;0,0100049
2390,3347;0,010024
2391,2991;0,0100536
2392,2632;0,0100965
2393,2275;0,0101467
2394,1917;0,0101911
2395,1560;0,0102167
2396,1201;0,0102186
2397,0845;0,010205
2398,0486;0,0101931
2399,0129;0,0101986
2399,9771;0,0102265
2400,9414;0,0102679
2401,9055;0,0103063
2402,8699;0,0103291
2403,8340;0,0103353
2404,7983;0,0103343
2405,7625;0,0103381
2406,7268;0,0103521
2407,6909;0,0103724
2408,6553;0,0103904
2409,6194;0,0104001
2410,5837;0,0104025
2411,5479;0,0104036
2412,5122;0,0104093
2413,4763;0,0104216
2414,4407;0,0104388
2415,4048;0,010459
2416,3691;0,0104817
2417,3333;0,0105078
2418,2976;0,0105366
2419,2617;0,0105646
2420,2261;0,0105873
2421,1902;0,0106026
2422,1545;0,0106126
2423,1187;0,0106229
2424,0830;0,0106378
2425,0471;0,0106571
2426,0115;0,0106756
2426,9756;0,0106874
2427,9399;0,0106905
2428,9041;0,0106894
2429,8684;0,0106936
2430,8325;0,0107122
2431,7969;0,0107489
2432,7610;0,0107997
2433,7253;0,0108552
2434,6895;0,0109052
2435,6538;0,0109434
2436,6179;0,0109694
2437,5823;0,0109869
2438,5464;0,0110003
2439,5107;0,0110126
2440,4749;0,011024
2441,4392;0,0110334
2442,4033;0,0110402
2443,3677;0,0110448
2444,3318;0,0110484
2445,2961;0,0110524
2446,2603;0,0110581
2447,2246;0,0110666
2448,1887;0,011079
2449,1531;0,0110957
2450,1172;0,0111168
2451,0815;0,0111421
2452,0457;0,0111718
2453,0100;0,0112071
2453,9741;0,0112484
2454,9385;0,0112936
2455,9026;0,0113366
2456,8669;0,0113681
2457,8311;0,0113802
2458,7954;0,0113712
2459,7595;0,0113483
2460,7239;0,0113249
2461,6880;0,0113147
2462,6523;0,0113244
2463,6165;0,0113511
2464,5808;0,0113843
2465,5449;0,0114128
2466,5093;0,0114297
2467,4734;0,0114358
2468,4377;0,0114368
2469,4019;0,0114394
2470,3662;0,0114483
2471,3303;0,0114642
2472,2947;0,0114851
2473,2588;0,0115075
2474,2231;0,0115274
2475,1873;0,0115415
2476,1516;0,0115491
2477,1157;0,0115529
2478,0801;0,0115596
2479,0442;0,0115771
2480,0085;0,0116103
2480,9727;0,0116575
2481,9370;0,0117096
2482,9011;0,0117543
2483,8655;0,0117824
2484,8296;0,0117926
2485,7939;0,0117919
2486,7581;0,0117906
2487,7224;0,0117957
2488,6865;0,0118065
2489,6509;0,011816
2490,6150;0,0118164
2491,5793;0,0118056
2492,5435;0,0117894
2493,5078;0,0117789
2494,4719;0,0117835
2495,4363;0,011805
2496,4004;0,0118372
2497,3647;0,01187
2498,3289;0,011896
2499,2932;0,0119151
2500,2573;0,0119336
2501,2217;0,0119588
2502,1858;0,011993
2503,1501;0,0120302
2504,1143;0,0120591
2505,0786;0,0120683
2506,0427;0,0120535
2507,0071;0,0120202
2507,9712;0,0119824
2508,9355;0,0119568
2509,8997;0,0119553
2510,8640;0,0119802
2511,8281;0,0120238
2512,7925;0,0120726
2513,7566;0,0121141
2514,7209;0,012142
2515,6851;0,0121578
2516,6494;0,0121677
2517,6135;0,0121779
2518,5779;0,0121902
2519,5420;0,0122026
2520,5063;0,0122108
2521,4705;0,0122121
2522,4348;0,0122074
2523,3989;0,0122009
2524,3633;0,0121981
2525,3274;0,0122033
2526,2917;0,0122177
2527,2559;0,0122385
2528,2202;0,0122595
2529,1843;0,0122735
2530,1487;0,012275
2531,1128;0,0122636
2532,0771;0,0122447
2533,0413;0,0122276
2534,0056;0,012221
2534,9697;0,0122291
2535,9341;0,0122496
2536,8982;0,0122753
2537,8625;0,0122981
2538,8267;0,0123115
2539,7910;0,012312
2540,7551;0,012299
2541,7195;0,0122751
2542,6836;0,0122465
2543,6479;0,0122229
2544,6121;0,012215
2545,5764;0,0122291
2546,5405;0,0122617
2547,5049;0,0122983
2548,4690;0,0123197
2549,4333;0,0123117
2550,3975;0,0122755
2551,3618;0,0122288
2552,3259;0,012198
2553,2903;0,0122042
2554,2544;0,0122524
2555,2188;0,0123287
2556,1829;0,0124088
2557,1472;0,01247
2558,1113;0,0125008
2559,0757;0,0125024
2560,0398;0,0124839
2561,0042;0,0124557
2561,9683;0,0124254
2562,9326;0,0123985
2563,8967;0,0123804
2564,8611;0,0123765
2565,8252;0,0123904
2566,7896;0,0124204
2567,7537;0,012459
2568,7180;0,0124958
2569,6821;0,0125227
2570,6465;0,0125377
2571,6106;0,0125449
2572,5750;0,0125504
2573,5391;0,0125576
2574,5034;0,0125662
2575,4675;0,0125736
2576,4319;0,0125794
2577,3960;0,0125867
2578,3604;0,0126
2579,3245;0,0126213
2580,2888;0,012647
2581,2529;0,0126691
2582,2173;0,0126807
2583,1814;0,0126808
2584,1458;0,0126748
2585,1099;0,0126709
2586,0742;0,0126742
2587,0383;0,0126828
2588,0027;0,0126904
2588,9668;0,0126911
2589,9312;0,0126844
2590,8953;0,0126761
2591,8596;0,0126747
2592,8237;0,0126855
2593,7881;0,0127077
2594,7522;0,012736
2595,7166;0,0127641
2596,6807;0,0127888
2597,6450;0,0128119
2598,6091;0,0128375
2599,5735;0,012869
2600,5376;0,0129061
2601,5020;0,0129451
2602,4661;0,012981
2603,4304;0,0130103
2604,3945;0,013032
2605,3589;0,0130465
2606,3230;0,013054
2607,2874;0,0130532
2608,2515;0,0130431
2609,2158;0,0130257
2610,1799;0,0130073
2611,1443;0,0129979
2612,1084;0,0130064
2613,0728;0,013036
2614,0369;0,0130828
2615,0012;0,0131373
2615,9653;0,0131891
2616,9297;0,0132311
2617,8938;0,0132616
2618,8582;0,0132825
2619,8223;0,0132974
2620,7866;0,0133087
2621,7507;0,0133182
2622,7151;0,0133278
2623,6792;0,0133403
2624,6436;0,0133591
2625,6077;0,0133868
2626,5720;0,0134237
2627,5361;0,0134664
2628,5005;0,0135089
2629,4646;0,0135445
2630,4290;0,0135689
2631,3931;0,0135823
2632,3574;0,0135892
2633,3215;0,013596
2634,2859;0,0136078
2635,2500;0,0136254
2636,2144;0,0136461
2637,1785;0,0136667
2638,1428;0,0136865
2639,1069;0,0137083
2640,0713;0,0137358
2641,0354;0,0137696
2641,9998;0,0138055
2642,9639;0,0138355
2643,9282;0,0138536
2644,8923;0,0138599
2645,8567;0,0138618
2646,8208;0,0138703
2647,7852;0,013894
2648,7493;0,0139342
2649,7136;0,0139845
2650,6777;0,0140347
2651,6421;0,0140756
2652,6062;0,0141025
2653,5706;0,0141166
2654,5347;0,0141226
2655,4990;0,0141269
2656,4631;0,0141355
2657,4275;0,0141521
2658,3916;0,0141776
2659,3560;0,0142097
2660,3201;0,0142438
2661,2844;0,0142751
2662,2485;0,0143008
2663,2129;0,0143219
2664,1770;0,0143418
2665,1414;0,0143639
2666,1055;0,0143893
2667,0698;0,0144153
2668,0339;0,0144371
2668,9983;0,0144512
2669,9624;0,0144575
2670,9268;0,0144598
2671,8909;0,0144643
2672,8552;0,0144765
2673,8193;0,0144987
2674,7837;0,01453
2675,7478;0,0145666
2676,7122;0,0146038
2677,6763;0,0146373
2678,6406;0,0146652
2679,6047;0,0146883
2680,5691;0,01471
2681,5332;0,0147353
2682,4976;0,0147685
2683,4617;0,0148115
2684,4260;0,0148629
2685,3901;0,0149184
2686,3545;0,0149728
2687,3186;0,015021
2688,2830;0,0150595
2689,2471;0,0150871
2690,2114;0,0151055
2691,1755;0,0151194
2692,1399;0,0151354
2693,1040;0,0151598
2694,0684;0,0151956
2695,0325;0,0152406
2695,9968;0,015288
2696,9609;0,0153294
2697,9253;0,0153591
2698,8894;0,0153773
2699,8538;0,0153892
2700,8179;0,0154031
2701,7822;0,0154257
2702,7463;0,01546
2703,7107;0,0155042
2704,6748;0,0155534
2705,6392;0,0156019
2706,6033;0,0156453
2707,5676;0,0156821
2708,5317;0,0157135
2709,4961;0,0157421
2710,4602;0,0157706
2711,4246;0,0158002
2712,3887;0,0158299
2713,3530;0,0158582
2714,3171;0,0158841
2715,2815;0,0159087
2716,2456;0,0159346
2717,2100;0,0159644
2718,1741;0,0159993
2719,1384;0,0160376
2720,1025;0,0160753
2721,0669;0,0161075
2722,0310;0,0161303
2722,9954;0,0161425
2723,9595;0,0161467
2724,9238;0,016149
2725,8879;0,016157
2726,8523;0,016177
2727,8164;0,0162112
2728,7808;0,0162566
2729,7449;0,0163068
2730,7092;0,0163553
2731,6733;0,0163979
2732,6377;0,0164345
2733,6018;0,0164667
2734,5662;0,016496
2735,5303;0,0165224
2736,4946;0,0165445
2737,4587;0,0165613
2738,4231;0,0165736
2739,3872;0,016584
2740,3516;0,0165956
2741,3157;0,0166109
2742,2800;0,0166303
2743,2441;0,0166526
2744,2085;0,0166752
2745,1726;0,0166951
2746,1370;0,0167098
2747,1011;0,016719
2748,0654;0,016725
2749,0295;0,016733
2749,9939;0,0167486
2750,9580;0,0167755
2751,9224;0,0168133
2752,8865;0,0168578
2753,8508;0,0169029
2754,8149;0,0169437
2755,7793;0,0169784
2756,7434;0,0170082
2757,7078;0,0170365
2758,6719;0,0170668
2759,6362;0,017101
2760,6003;0,0171397
2761,5647;0,0171812
2762,5288;0,0172229
2763,4932;0,0172618
2764,4573;0,0172959
2765,4216;0,0173261
2766,3857;0,0173558
2767,3501;0,0173902
2768,3142;0,0174327
2769,2786;0,0174826
2770,2427;0,0175347
2771,2070;0,0175813
2772,1711;0,0176166
2773,1355;0,0176401
2774,0996;0,0176571
2775,0640;0,0176762
2776,0281;0,017705
2776,9924;0,0177469
2777,9565;0,0177998
2778,9209;0,0178585
2779,8850;0,0179173
2780,8494;0,0179727
2781,8135;0,0180242
2782,7778;0,018073
2783,7419;0,0181209
2784,7063;0,0181684
2785,6704;0,0182149
2786,6348;0,0182596
2787,5989;0,0183029
2788,5632;0,0183478
2789,5273;0,0183986
2790,4917;0,0184594
2791,4558;0,0185315
2792,4202;0,0186115
2793,3843;0,0186925
2794,3486;0,0187675
2795,3127;0,0188332
2796,2771;0,0188911
2797,2412;0,0189472
2798,2056;0,0190082
2799,1697;0,0190783
2800,1340;0,0191586
2801,0981;0,0192471
2802,0625;0,0193415
2803,0266;0,0194394
2803,9910;0,0195388
2804,9551;0,0196375
2805,9194;0,0197332
2806,8835;0,0198243
2807,8479;0,0199111
2808,8120;0,0199963
2809,7764;0,0200845
2810,7405;0,0201801
2811,7048;0,0202868
2812,6689;0,0204053
2813,6333;0,0205339
2814,5974;0,0206681
2815,5618;0,0208023
2816,5259;0,0209322
2817,4902;0,0210561
2818,4543;0,0211762
2819,4187;0,0212967
2820,3828;0,0214217
2821,3472;0,0215527
2822,3113;0,0216895
2823,2756;0,0218316
2824,2397;0,0219795
2825,2041;0,0221353
2826,1682;0,0223005
2827,1326;0,0224744
2828,0967;0,0226542
2829,0610;0,0228371
2830,0251;0,0230232
2830,9895;0,0232167
2831,9536;0,0234241
2832,9180;0,0236501
2833,8821;0,0238941
2834,8464;0,0241497
2835,8105;0,0244083
2836,7749;0,0246644
2837,7390;0,0249198
2838,7034;0,0251841
2839,6675;0,025471
2840,6318;0,0257923
2841,5959;0,0261531
2842,5603;0,0265499
2843,5244;0,0269731
2844,4888;0,0274095
2845,4529;0,0278443
2846,4172;0,0282614
2847,3813;0,0286419
2848,3457;0,0289659
2849,3098;0,0292172
2850,2742;0,0293891
2851,2383;0,0294881
2852,2026;0,0295334
2853,1667;0,0295501
2854,1311;0,0295614
2855,0952;0,0295829
2856,0596;0,0296211
2857,0237;0,0296773
2857,9880;0,0297515
2858,9521;0,0298456
2859,9165;0,0299627
2860,8806;0,0301044
2861,8450;0,0302689
2862,8091;0,0304505
2863,7734;0,0306417
2864,7375;0,0308364
2865,7019;0,0310314
2866,6660;0,0312262
2867,6304;0,03142
2868,5945;0,0316096
2869,5588;0,0317891
2870,5229;0,0319518
2871,4873;0,0320945
2872,4514;0,0322197
2873,4158;0,0323346
2874,3799;0,0324472
2875,3442;0,0325624
2876,3083;0,0326789
2877,2727;0,032792
2878,2368;0,0328966
2879,2012;0,0329915
2880,1653;0,0330797
2881,1296;0,033167
2882,0938;0,033258
2883,0581;0,0333543
2884,0222;0,0334539
2884,9866;0,0335528
2885,9507;0,0336473
2886,9150;0,033735
2887,8792;0,0338156
2888,8435;0,0338905
2889,8076;0,0339621
2890,7720;0,0340329
2891,7361;0,0341047
2892,7004;0,0341785
2893,6646;0,0342542
2894,6289;0,0343308
2895,5930;0,0344075
2896,5574;0,0344832
2897,5215;0,0345567
2898,4858;0,0346265
2899,4500;0,0346904
2900,4143;0,0347465
2901,3784;0,0347942
2902,3428;0,0348345
2903,3069;0,0348693
2904,2712;0,0349009
2905,2354;0,0349308
2906,1997;0,0349609
2907,1638;0,034995
2908,1282;0,0350399
2909,0923;0,035105
2910,0566;0,0351987
2911,0208;0,0353244
2911,9851;0,0354766
2912,9492;0,0356412
2913,9136;0,0357984
2914,8777;0,035928
2915,8420;0,0360144
2916,8062;0,0360483
2917,7705;0,0360265
2918,7346;0,0359505
2919,6990;0,0358248
2920,6631;0,0356573
2921,6274;0,0354589
2922,5916;0,0352426
2923,5559;0,0350205
2924,5200;0,0348002
2925,4844;0,0345837
2926,4485;0,0343684
2927,4128;0,0341516
2928,3770;0,0339345
2929,3413;0,0337235
2930,3054;0,0335278
2931,2698;0,0333539
2932,2339;0,0332017
2933,1982;0,0330639
2934,1624;0,0329292
2935,1267;0,032787
2936,0908;0,0326314
2937,0552;0,0324611
2938,0193;0,032278
2938,9836;0,0320836
2939,9478;0,0318779
2940,9121;0,0316592
2941,8762;0,0314252
2942,8406;0,0311751
2943,8047;0,0309111
2944,7690;0,0306382
2945,7332;0,0303642
2946,6975;0,0300977
2947,6616;0,0298454
2948,6260;0,0296101
2949,5901;0,0293899
2950,5544;0,0291799
2951,5186;0,0289749
2952,4829;0,0287726
2953,4470;0,0285748
2954,4114;0,0283856
2955,3755;0,0282082
2956,3398;0,0280417
2957,3040;0,0278804
2958,2683;0,0277163
2959,2324;0,0275436
2960,1968;0,0273625
2961,1609;0,0271802
2962,1252;0,0270076
2963,0894;0,0268536
2964,0537;0,0267201
2965,0178;0,0265999
2965,9822;0,0264797
2966,9463;0,0263458
2967,9106;0,0261905
2968,8748;0,0260141
2969,8391;0,0258248
2970,8032;0,0256337
2971,7676;0,0254509
2972,7317;0,0252818
2973,6960;0,0251264
2974,6602;0,0249808
2975,6245;0,0248396
2976,5886;0,0246994
2977,5530;0,02456
2978,5171;0,024425
2979,4814;0,0242996
2980,4456;0,0241872
2981,4099;0,0240879
2982,3740;0,0239984
2983,3384;0,0239144
2984,3025;0,0238337
2985,2668;0,0237575
2986,2310;0,0236888
2987,1953;0,0236297
2988,1594;0,0235797
2989,1238;0,0235354
2990,0879;0,0234935
2991,0522;0,0234525
2992,0164;0,0234138
2992,9807;0,0233799
2993,9448;0,023353
2994,9092;0,0233346
2995,8733;0,0233268
2996,8376;0,0233326
2997,8018;0,023355
2998,7661;0,0233938
2999,7302;0,0234431
3000,6946;0,0234924
3001,6587;0,0235316
3002,6230;0,0235564
3003,5872;0,0235708
3004,5515;0,0235844
3005,5156;0,0236056
3006,4800;0,0236358
3007,4441;0,0236688
3008,4084;0,0236955
3009,3726;0,0237114
3010,3369;0,0237205
3011,3010;0,0237335
3012,2654;0,0237617
3013,2295;0,02381
3014,1938;0,0238751
3015,1580;0,0239488
3016,1223;0,0240236
3017,0864;0,0240969
3018,0508;0,02417
3019,0149;0,0242447
3019,9792;0,0243193
3020,9434;0,0243893
3021,9077;0,0244513
3022,8718;0,0245066
3023,8362;0,0245631
3024,8003;0,0246311
3025,7646;0,0247166
3026,7288;0,0248167
3027,6931;0,02492
3028,6572;0,0250121
3029,6216;0,0250843
3030,5857;0,0251387
3031,5500;0,0251881
3032,5142;0,0252489
3033,4785;0,0253333
3034,4426;0,0254437
3035,4070;0,025573
3036,3711;0,0257094
3037,3354;0,0258422
3038,2996;0,0259651
3039,2639;0,0260766
3040,2280;0,0261785
3041,1924;0,0262743
3042,1565;0,0263683
3043,1208;0,0264651
3044,0850;0,0265686
3045,0493;0,0266802
3046,0134;0,0267981
3046,9778;0,0269183
3047,9419;0,0270373
3048,9063;0,0271546
3049,8704;0,027273
3050,8347;0,0273957
3051,7988;0,0275236
3052,7632;0,0276534
3053,7273;0,0277798
3054,6917;0,0278995
3055,6558;0,0280143
3056,6201;0,0281309
3057,5842;0,0282569
3058,5486;0,0283959
3059,5127;0,0285449
3060,4771;0,0286947
3061,4412;0,0288347
3062,4055;0,0289578
3063,3696;0,0290644
3064,3340;0,0291623
3065,2981;0,029264
3066,2625;0,0293801
3067,2266;0,0295146
3068,1909;0,029663
3069,1550;0,0298158
3070,1194;0,029964
3071,0835;0,0301042
3072,0479;0,0302392
3073,0120;0,030374
3073,9763;0,0305116
3074,9404;0,0306504
3075,9048;0,0307859
3076,8689;0,0309146
3077,8333;0,0310378
3078,7974;0,0311606
3079,7617;0,0312881
3080,7258;0,0314222
3081,6902;0,03156
3082,6543;0,0316966
3083,6187;0,0318286
3084,5828;0,0319563
3085,5471;0,0320834
3086,5112;0,0322142
3087,4756;0,032351
3088,4397;0,0324927
3089,4041;0,0326354
3090,3682;0,0327744
3091,3325;0,0329068
3092,2966;0,033034
3093,2610;0,0331618
3094,2251;0,0332979
3095,1895;0,0334479
3096,1536;0,0336112
3097,1179;0,0337805
3098,0820;0,0339446
3099,0464;0,0340947
3100,0105;0,0342297
3100,9749;0,0343575
3101,9390;0,0344905
3102,9033;0,0346385
3103,8674;0,0348022
3104,8318;0,0349727
3105,7959;0,0351375
3106,7603;0,0352876
3107,7244;0,0354244
3108,6887;0,0355586
3109,6528;0,0357043
3110,6172;0,0358698
3111,5813;0,0360525
3112,5457;0,0362402
3113,5098;0,0364188
3114,4741;0,03658
3115,4382;0,0367258
3116,4026;0,0368661
3117,3667;0,0370123
3118,3311;0,0371705
3119,2952;0,0373391
3120,2595;0,0375114
3121,2236;0,0376798
3122,1880;0,0378395
3123,1521;0,0379907
3124,1165;0,0381377
3125,0806;0,0382873
3126,0449;0,0384464
3127,0090;0,0386196
3127,9734;0,0388074
3128,9375;0,0390055
3129,9019;0,039206
3130,8660;0,0394007
3131,8303;0,0395845
3132,7944;0,0397569
3133,7588;0,0399217
3134,7229;0,0400841
3135,6873;0,0402484
3136,6514;0,0404165
3137,6157;0,0405882
3138,5798;0,0407629
3139,5442;0,0409404
3140,5083;0,0411207
3141,4727;0,0413035
3142,4368;0,0414877
3143,4011;0,0416719
3144,3652;0,0418561
3145,3296;0,0420419
3146,2937;0,0422322
3147,2581;0,0424284
3148,2222;0,042628
3149,1865;0,0428242
3150,1506;0,0430082
3151,1150;0,0431742
3152,0791;0,0433237
3153,0435;0,0434658
3154,0076;0,043614
3154,9719;0,0437803
3155,9360;0,0439699
3156,9004;0,0441803
3157,8645;0,0444039
3158,8289;0,044631
3159,7930;0,0448533
3160,7573;0,0450652
3161,7214;0,0452644
3162,6858;0,0454527
3163,6499;0,0456354
3164,6143;0,0458192
3165,5784;0,0460091
3166,5427;0,0462045
3167,5068;0,0463997
3168,4712;0,0465874
3169,4353;0,0467617
3170,3997;0,0469323
3171,3638;0,0471047
3172,3281;0,0472867
3173,2922;0,0474797
3174,2566;0,0476793
3175,2207;0,0478797
3176,1851;0,0480786
3177,1492;0,0482786
3178,1135;0,0484837
3179,0776;0,048694
3180,0420;0,0489035
3181,0061;0,0491038
3181,9705;0,04929
3182,9346;0,0494647
3183,8989;0,0496363
3184,8630;0,0498129
3185,8274;0,049997
3186,7915;0,0501838
3187,7559;0,050366
3188,7200;0,0505391
3189,6843;0,0507048
3190,6484;0,0508689
3191,6128;0,0510365
3192,5769;0,0512083
3193,5413;0,0513806
3194,5054;0,0515493
3195,4697;0,051714
3196,4338;0,0518797
3197,3982;0,0520535
3198,3623;0,0522395
3199,3267;0,0524359
3200,2908;0,0526347
3201,2551;0,0528272
3202,2192;0,0530086
3203,1836;0,0531809
3204,1477;0,0533523
3205,1121;0,053532
3206,0762;0,0537257
3207,0405;0,0539323
3208,0046;0,0541444
3208,9690;0,0543514
3209,9331;0,0545433
3210,8975;0,054715
3211,8616;0,0548672
3212,8259;0,0550065
3213,7900;0,0551425
3214,7544;0,0552839
3215,7185;0,0554355
3216,6829;0,0555963
3217,6470;0,0557613
3218,6113;0,0559252
3219,5754;0,0560854
3220,5398;0,0562443
3221,5039;0,0564063
3222,4683;0,0565751
3223,4324;0,0567505
3224,3967;0,0569288
3225,3608;0,0571051
3226,3252;0,0572757
3227,2893;0,0574399
3228,2537;0,0575992
3229,2178;0,0577561
3230,1821;0,0579124
3231,1462;0,0580692
3232,1106;0,0582265
3233,0747;0,0583831
3234,0391;0,0585369
3235,0032;0,0586866
3235,9675;0,0588333
3236,9316;0,0589818
3237,8960;0,0591388
3238,8601;0,0593092
3239,8245;0,0594919
3240,7886;0,0596787
3241,7529;0,0598578
3242,7170;0,060021
3243,6814;0,0601683
3244,6455;0,0603095
3245,6099;0,0604585
3246,5740;0,0606253
3247,5383;0,060811
3248,5024;0,0610075
3249,4668;0,0612033
3250,4309;0,0613901
3251,3953;0,0615664
3252,3594;0,0617371
3253,3237;0,061908
3254,2878;0,0620824
3255,2522;0,0622587
3256,2163;0,0624335
3257,1807;0,0626044
3258,1448;0,062773
3259,1091;0,0629429
3260,0732;0,0631173
3261,0376;0,0632966
3262,0017;0,0634792
3262,9661;0,0636635
3263,9302;0,0638499
3264,8945;0,0640398
3265,8586;0,0642327
3266,8230;0,0644233
3267,7871;0,0646026
3268,7515;0,0647615
3269,7156;0,064895
3270,6799;0,0650043
3271,6440;0,0650952
3272,6084;0,0651752
3273,5725;0,0652499
3274,5369;0,0653232
3275,5010;0,0653982
3276,4653;0,0654778
3277,4294;0,0655637
3278,3938;0,0656543
3279,3579;0,0657448
3280,3223;0,065829
3281,2864;0,0659034
3282,2507;0,0659696
3283,2148;0,0660337
3284,1792;0,0661014
3285,1433;0,0661742
3286,1077;0,0662469
3287,0718;0,0663116
3288,0361;0,0663622
3289,0002;0,0663991
3289,9646;0,0664293
3290,9287;0,066462
3291,8931;0,0665023
3292,8572;0,0665484
3293,8215;0,0665926
3294,7856;0,0666268
3295,7500;0,0666473
3296,7141;0,0666577
3297,6785;0,0666667
3298,6426;0,0666841
3299,6069;0,0667167
3300,5710;0,066766
3301,5354;0,0668278
3302,4995;0,0668935
3303,4639;0,0669517
3304,4280;0,0669904
3305,3923;0,0670006
3306,3564;0,0669792
3307,3208;0,0669318
3308,2849;0,0668717
3309,2493;0,0668165
3310,2134;0,0667828
3311,1777;0,0667812
3312,1418;0,0668145
3313,1062;0,0668783
3314,0703;0,066964
3315,0347;0,0670617
3315,9988;0,0671644
3316,9631;0,067269
3317,9272;0,0673765
3318,8916;0,0674897
3319,8557;0,06761
3320,8201;0,0677349
3321,7842;0,0678586
3322,7485;0,0679738
3323,7126;0,0680767
3324,6770;0,068169
3325,6411;0,0682575
3326,6055;0,0683507
3327,5696;0,0684537
3328,5339;0,0685663
3329,4980;0,0686829
3330,4624;0,0687957
3331,4265;0,0688975
3332,3909;0,0689829
3333,3550;0,069048
3334,3193;0,0690896
3335,2834;0,0691054
3336,2478;0,0690956
3337,2119;0,0690636
3338,1763;0,069016
3339,1404;0,068959
3340,1047;0,0688963
3341,0688;0,0688267
3342,0332;0,0687471
3342,9973;0,0686552
3343,9617;0,068553
3344,9258;0,068446
3345,8901;0,0683398
3346,8542;0,0682354
3347,8186;0,0681269
3348,7827;0,0680045
3349,7471;0,0678599
3350,7112;0,0676919
3351,6755;0,0675087
3352,6396;0,0673247
3353,6040;0,0671543
3354,5681;0,0670052
3355,5325;0,0668765
3356,4966;0,0667602
3357,4609;0,0666469
3358,4250;0,0665306
3359,3894;0,0664108
3360,3535;0,0662912
3361,3179;0,0661763
3362,2820;0,0660687
3363,2463;0,0659682
3364,2104;0,0658727
3365,1748;0,0657791
3366,1389;0,0656837
3367,1033;0,0655828
3368,0674;0,0654725
3369,0317;0,0653505
3369,9958;0,0652171
3370,9602;0,0650754
3371,9243;0,06493
3372,8887;0,0647843
3373,8528;0,0646397
3374,8171;0,0644958
3375,7813;0,0643525
3376,7456;0,0642117
3377,7097;0,0640772
3378,6741;0,0639517
3379,6382;0,0638334
3380,6025;0,0637163
3381,5667;0,063593
3382,5310;0,0634612
3383,4951;0,0633277
3384,4595;0,0632066
3385,4236;0,0631115
3386,3879;0,0630464
3387,3521;0,0630008
3388,3164;0,0629539
3389,2805;0,0628852
3390,2449;0,0627836
3391,2090;0,0626526
3392,1733;0,0625062
3393,1375;0,0623604
3394,1018;0,0622244
3395,0659;0,0620989
3396,0303;0,0619792
3396,9944;0,0618592
3397,9587;0,0617339
3398,9229;0,0615994
3399,8872;0,0614528
3400,8513;0,0612938
3401,8157;0,0611264
3402,7798;0,0609591
3403,7441;0,0608015
3404,7083;0,0606582
3405,6726;0,0605264
3406,6367;0,0603964
3407,6011;0,0602569
3408,5652;0,0600991
3409,5295;0,0599198
3410,4937;0,0597211
3411,4580;0,0595099
3412,4221;0,0592971
3413,3865;0,0590946
3414,3506;0,0589101
3415,3149;0,058741
3416,2791;0,0585718
3417,2434;0,0583794
3418,2075;0,0581457
3419,1719;0,0578699
3420,1360;0,0575743
3421,1003;0,0572949
3422,0645;0,0570629
3423,0288;0,0568885
3423,9929;0,0567579
3424,9573;0,0566432
3425,9214;0,0565166
3426,8857;0,0563606
3427,8499;0,0561702
3428,8142;0,0559494
3429,7783;0,0557062
3430,7427;0,0554489
3431,7068;0,0551865
3432,6711;0,0549291
3433,6353;0,0546862
3434,5996;0,0544633
3435,5637;0,0542587
3436,5281;0,0540637
3437,4922;0,0538676
3438,4565;0,0536645
3439,4207;0,053457
3440,3850;0,0532531
3441,3491;0,0530579
3442,3135;0,052865
3443,2776;0,0526573
3444,2419;0,0524155
3445,2061;0,0521332
3446,1704;0,0518257
3447,1345;0,0515255
3448,0989;0,0512642
3449,0630;0,0510535
3450,0273;0,0508807
3450,9915;0,050719
3451,9558;0,0505442
3452,9199;0,0503466
3453,8843;0,0501311
3454,8484;0,0499096
3455,8127;0,0496892
3456,7769;0,0494669
3457,7412;0,0492328
3458,7053;0,0489791
3459,6697;0,0487082
3460,6338;0,0484333
3461,5981;0,0481719
3462,5623;0,0479357
3463,5266;0,0477234
3464,4907;0,0475216
3465,4551;0,0473132
3466,4192;0,0470872
3467,3835;0,0468446
3468,3477;0,046596
3469,3120;0,0463526
3470,2761;0,0461184
3471,2405;0,0458886
3472,2046;0,0456557
3473,1689;0,0454186
3474,1331;0,0451847
3475,0974;0,0449636
3476,0615;0,044756
3477,0259;0,044549
3477,9900;0,0443226
3478,9543;0,0440644
3479,9185;0,0437818
3480,8828;0,0435015
3481,8469;0,0432528
3482,8113;0,0430462
3483,7754;0,0428652
3484,7397;0,042678
3485,7039;0,0424595
3486,6682;0,0422071
3487,6323;0,0419426
3488,5967;0,0416968
3489,5608;0,0414891
3490,5251;0,0413148
3491,4893;0,0411496
3492,4536;0,0409652
3493,4177;0,0407472
3494,3821;0,0405048
3495,3462;0,040266
3496,3105;0,04006
3497,2747;0,0398956
3498,2390;0,0397518
3499,2031;0,0395865
3500,1675;0,0393584
3501,1316;0,0390535
3502,0959;0,0386992
3503,0601;0,0383525
3504,0244;0,0380636
3504,9885;0,0378426
3505,9529;0,0376586
3506,9170;0,0374658
3507,8813;0,0372348
3508,8455;0,0369708
3509,8098;0,0367085
3510,7739;0,0364856
3511,7383;0,0363158
3512,7024;0,0361819
3513,6667;0,036052
3514,6309;0,0359009
3515,5952;0,0357228
3516,5593;0,0355289
3517,5237;0,035334
3518,4878;0,0351442
3519,4521;0,0349525
3520,4163;0,0347466
3521,3806;0,0345188
3522,3447;0,0342731
3523,3091;0,0340211
3524,2732;0,0337718
3525,2375;0,0335243
3526,2017;0,0332713
3527,1660;0,0330095
3528,1301;0,0327492
3529,0945;0,0325111
3530,0586;0,0323127
3531,0229;0,0321547
3531,9871;0,032018
3532,9514;0,0318726
3533,9155;0,0316923
3534,8799;0,0314694
3535,8440;0,0312212
3536,8083;0,0309834
3537,7725;0,0307916
3538,7368;0,0306609
3539,7009;0,0305777
3540,6653;0,0305026
3541,6294;0,0303826
3542,5938;0,03017
3543,5579;0,0298462
3544,5222;0,0294438
3545,4863;0,0290397
3546,4507;0,0287114
3547,4148;0,0284872
3548,3792;0,0283357
3549,3433;0,0281938
3550,3076;0,0280072
3551,2717;0,0277594
3552,2361;0,0274798
3553,2002;0,0272217
3554,1646;0,0270225
3555,1287;0,0268779
3556,0930;0,0267507
3557,0571;0,0266012
3558,0215;0,0264174
3558,9856;0,0262278
3559,9500;0,0260835
3560,9141;0,0260182
3561,8784;0,0260123
3562,8425;0,025985
3563,8069;0,0258176
3564,7710;0,0254083
3565,7354;0,0247612
3566,6995;0,024043
3567,6638;0,0234893
3568,6279;0,0232147
3569,5923;0,023159
3570,5564;0,023188
3571,5208;0,023188
3572,4849;0,0231005
3573,4492;0,0229223
3574,4133;0,0226884
3575,3777;0,0224434
3576,3418;0,0222137
3577,3062;0,0220027
3578,2703;0,0218093
3579,2346;0,0216481
3580,1987;0,0215469
3581,1631;0,0215222
3582,1272;0,0215524
3583,0916;0,0215694
3584,0557;0,0214736
3585,0200;0,0211761
3585,9841;0,0206702
3586,9485;0,0200876
3587,9126;0,0196321
3588,8770;0,0194139
3589,8411;0,0193843
3590,8054;0,019414
3591,7695;0,0193847
3592,7339;0,0192342
3593,6980;0,0189748
3594,6624;0,0186789
3595,6265;0,0184244
3596,5908;0,0182336
3597,5549;0,0180683
3598,5193;0,0178779
3599,4834;0,017653
3600,4478;0,017439
3601,4119;0,0172984
3602,3762;0,0172563
3603,3403;0,017279
3604,3047;0,017294
3605,2688;0,0172287
3606,2332;0,0170472
3607,1973;0,0167716
3608,1616;0,0164667
3609,1257;0,0161903
3610,0901;0,0159579
3611,0542;0,0157558
3612,0186;0,0155771
3612,9827;0,0154352
3613,9470;0,0153439
3614,9111;0,0152862
3615,8755;0,0152036
3616,8396;0,015021
3617,8040;0,0147015
3618,7681;0,0143002
3619,7324;0,0139558
3620,6965;0,0137956
3621,6609;0,0138496
3622,6250;0,0140583
3623,5894;0,0143226
3624,5535;0,0145297
3625,5178;0,0145517
3626,4819;0,0142643
3627,4463;0,0136372
3628,4104;0,0128496
3629,3748;0,0122072
3630,3389;0,0118644
3631,3032;0,0117504
3632,2673;0,0117258
3633,2317;0,0116965
3634,1958;0,0116304
3635,1602;0,0115373
3636,1243;0,01144
3637,0886;0,0113505
3638,0527;0,0112652
3639,0171;0,0111796
3639,9812;0,0111065
3640,9456;0,011079
3641,9097;0,0111321
3642,8740;0,0112765
3643,8381;0,0114782
3644,8025;0,011649
3645,7666;0,0116419
3646,7310;0,0112799
3647,6951;0,0104954
3648,6594;0,0095412
3649,6235;0,00887449
3650,5879;0,00868232
3651,5520;0,00880285
3652,5164;0,00900393
3653,4805;0,00912605
3654,4448;0,00909208
3655,4089;0,00890834
3656,3733;0,00866084
3657,3374;0,00845997
3658,3018;0,00835894
3659,2659;0,00833278
3660,2302;0,00832792
3661,1943;0,00831778
3662,1587;0,0083221
3663,1228;0,00838434
3664,0872;0,00852654
3665,0513;0,00871701
3666,0156;0,00887307
3666,9797;0,00889645
3667,9441;0,00873999
3668,9082;0,00847848
3669,8726;0,0082833
3670,8367;0,00826606
3671,8010;0,00837256
3672,7651;0,00843451
3673,7295;0,00828058
3674,6936;0,00785331
3675,6580;0,00729353
3676,6221;0,00684569
3677,5864;0,0066359
3678,5505;0,00662263
3679,5149;0,00671399
3680,4790;0,00685209
3681,4434;0,0070235
3682,4075;0,00723602
3683,3718;0,0074893
3684,3359;0,00775358
3685,3003;0,00796278
3686,2644;0,00802344
3687,2288;0,00785238
3688,1929;0,00745571
3689,1572;0,00698638
3690,1213;0,00664934
3691,0857;0,00652942
3692,0498;0,00657495
3693,0142;0,00669989
3693,9783;0,00684701
3694,9426;0,00699219
3695,9067;0,00712693
3696,8711;0,00724009
3697,8352;0,00730762
3698,7996;0,00729717
3699,7637;0,00718985
3700,7280;0,00701002
3701,6921;0,00683414
3702,6565;0,00675355
3703,6206;0,00681729
3704,5850;0,00701042
3705,5491;0,00727243
3706,5134;0,0075195
3707,4775;0,00765368
3708,4419;0,0075764
3709,4060;0,00723847
3710,3704;0,0067207
3711,3345;0,00623404
3712,2988;0,00596331
3713,2629;0,00593944
3714,2273;0,0060851
3715,1914;0,0063076
3716,1558;0,0065366
3717,1199;0,00672561
3718,0842;0,00684981
3719,0483;0,00690691
3720,0127;0,00691266
3720,9768;0,00688623
3721,9412;0,00683579
3722,9053;0,00676052
3723,8696;0,0066696
3724,8337;0,00659735
3725,7981;0,00659281
3726,7622;0,00668985
3727,7266;0,00688669
3728,6907;0,00714779
3729,6550;0,00741441
3730,6191;0,00761023
3731,5835;0,00764527
3732,5476;0,0074375
3733,5120;0,00697466
3734,4761;0,00638923
3735,4404;0,00592426
3736,4045;0,00575641
3737,3689;0,00589149
3738,3330;0,00623202
3739,2974;0,00666546
3740,2615;0,0070856
3741,2258;0,00738218
3742,1899;0,00745384
3743,1543;0,00728071
3744,1184;0,00700236
3745,0828;0,00683706
3746,0469;0,00687578
3747,0112;0,00702375
3747,9753;0,00709791
3748,9397;0,00693328
3749,9038;0,00650163
3750,8682;0,00599982
3751,8323;0,00570427
3752,7966;0,0057043
3753,7607;0,0058921
3754,7251;0,00611623
3755,6892;0,00626232
3756,6536;0,00627134
3757,6177;0,00615494
3758,5820;0,00599547
3759,5461;0,00589381
3760,5105;0,00589827
3761,4746;0,00598883
3762,4390;0,00611463
3763,4031;0,00623066
3764,3674;0,00631097
3765,3315;0,00634458
3766,2959;0,00632483
3767,2600;0,00624385
3768,2244;0,00610175
3769,1885;0,00592566
3770,1528;0,00577434
3771,1169;0,00571162
3772,0813;0,00576725
3773,0454;0,00592099
3774,0098;0,00611605
3774,9739;0,00628204
3775,9382;0,00635701
3776,9023;0,00631255
3777,8667;0,00617684
3778,8308;0,00602719
3779,7952;0,00593775
3780,7593;0,00592819
3781,7236;0,00596426
3782,6877;0,0059956
3783,6521;0,0059895
3784,6162;0,00594428
3785,5806;0,00588357
3786,5447;0,00583959
3787,5090;0,00583689
3788,4731;0,00588524
3789,4375;0,00598013
3790,4016;0,00610545
3791,3660;0,00623721
3792,3301;0,0063513
3793,2944;0,00643602
3794,2585;0,00650249
3795,2229;0,00657997
3796,1870;0,00668995
3797,1514;0,00681608
3798,1155;0,00689825
3799,0798;0,00686567
3800,0439;0,00669828
3801,0083;0,00646757
3801,9724;0,00628847
3802,9368;0,0062126
3803,9009;0,00619008
3804,8652;0,00612806
3805,8293;0,00597401
3806,7937;0,00577122
3807,7578;0,00564108
3808,7222;0,00568582
3809,6863;0,00591111
3810,6506;0,006241
3811,6147;0,00657122
3812,5791;0,00680656
3813,5432;0,00689204
3814,5076;0,00684713
3815,4717;0,00676152
3816,4360;0,00671682
3817,4001;0,00670717
3818,3645;0,00665193
3819,3286;0,00648047
3820,2930;0,0062124
3821,2571;0,00595848
3822,2214;0,00582335
3823,1855;0,00582336
3824,1499;0,00590766
3825,1140;0,00601924
3826,0784;0,00612687
3827,0425;0,00622646
3828,0068;0,00632801
3828,9709;0,00644036
3829,9353;0,00656357
3830,8994;0,00669212
3831,8638;0,00682075
3832,8279;0,00694296
3833,7922;0,00704125
3834,7563;0,00707941
3835,7207;0,00701093
3836,6848;0,00680975
3837,6492;0,00650676
3838,6133;0,00618852
3839,5776;0,00594106
3840,5417;0,00579601
3841,5061;0,00573504
3842,4702;0,00572976
3843,4346;0,00577173
3844,3987;0,00587656
3845,3630;0,00606907
3846,3271;0,00636432
3847,2915;0,00675485
3848,2556;0,00720168
3849,2200;0,00761978
3850,1841;0,00785857
3851,1484;0,00771691
3852,1125;0,00709106
3853,0769;0,00622525
3854,0410;0,00559762
3855,0054;0,00541672
3855,9695;0,00556084
3856,9338;0,00585553
3857,8979;0,00618575
3858,8623;0,00647664
3859,8264;0,00666886
3860,7908;0,006723
3861,7549;0,00664726
3862,7192;0,00651596
3863,6833;0,0064346
3864,6477;0,00646499
3865,6118;0,00658775
3866,5762;0,00672907
3867,5403;0,0068067
3868,5046;0,00676471
3869,4688;0,00659727
3870,4331;0,00635584
3871,3972;0,00612569
3872,3616;0,0059823
3873,3257;0,00596143
3874,2900;0,00605663
3875,2542;0,00623115
3876,2185;0,00643089
3877,1826;0,0065983
3878,1470;0,0066905
3879,1111;0,00669919
3880,0754;0,00665479
3881,0396;0,00659932
3882,0039;0,00654885
3882,9680;0,00648882
3883,9324;0,00640852
3884,8965;0,0063327
3885,8608;0,00630969
3886,8250;0,00636332
3887,7893;0,00646031
3888,7534;0,00652391
3889,7178;0,00648168
3890,6819;0,00632527
3891,6462;0,00614087
3892,6104;0,00605692
3893,5747;0,00614355
3894,5388;0,00637602
3895,5032;0,00667592
3896,4673;0,00695861
3897,4316;0,00715784
3898,3958;0,00723761
3899,3601;0,00719277
3900,3242;0,00703399
3901,2886;0,00677432
3902,2527;0,00644163
3903,2170;0,00610022
3904,1812;0,00583578
3905,1455;0,0057044
3906,1096;0,00570225
3907,0740;0,00578383
3908,0381;0,00589861
3909,0024;0,00601481
3909,9666;0,0061249
3910,9309;0,00623721
3911,8950;0,00635918
3912,8594;0,00648204
3913,8235;0,00657777
3914,7878;0,00661273
3915,7520;0,00657269
3916,7163;0,00648257
3917,6804;0,0063977
3918,6448;0,00636515
3919,6089;0,0063899
3920,5732;0,00643658
3921,5374;0,00645722
3922,5017;0,00642268
3923,4658;0,00634322
3924,4302;0,00626504
3925,3943;0,00623865
3926,3586;0,0062824
3927,3228;0,00637174
3928,2871;0,00645617
3929,2512;0,00648633
3930,2156;0,00643962
3931,1797;0,00633417
3932,1440;0,00621839
3933,1082;0,00613988
3934,0725;0,00612096
3935,0366;0,0061583
3936,0010;0,00623513
3936,9651;0,00633013
3937,9294;0,00642009
3938,8936;0,00648218
3939,8579;0,00650067
3940,8220;0,00647685
3941,7864;0,00643283
3942,7505;0,0064004
3943,7148;0,00639929
3944,6790;0,00642343
3945,6433;0,00644635
3946,6074;0,00643976
3947,5718;0,00639264
3948,5359;0,00631953
3949,5002;0,00625118
3950,4644;0,00621281
3951,4287;0,0062088
3952,3928;0,00622582
3953,3572;0,00624729
3954,3213;0,00626528
3955,2856;0,00628257
3956,2498;0,00630571
3957,2141;0,00633602
3958,1782;0,00636595
3959,1426;0,00638381
3960,1067;0,00638295
3961,0710;0,00636774
3962,0352;0,00635176
3962,9995;0,006349
3963,9636;0,00636485
3964,9280;0,00639315
3965,8921;0,00642076
3966,8564;0,0064356
3967,8206;0,00643344
3968,7849;0,00641959
3969,7490;0,00640481
3970,7134;0,00639809
3971,6775;0,00640142
3972,6418;0,00640971
3973,6060;0,00641519
3974,5703;0,00641283
3975,5344;0,00640275
3976,4988;0,00638857
3977,4629;0,00637374
3978,4272;0,00635929
3979,3914;0,0063448
3980,3557;0,00633121
3981,3198;0,00632278
3982,2842;0,00632567
3983,2483;0,00634377
3984,2126;0,00637483
3985,1768;0,00640998
3986,1411;0,0064376
3987,1052;0,0064491
3988,0696;0,00644319
3989,0337;0,00642603
3989,9980;0,00640746
3990,9622;0,0063953
3991,9265;0,0063918
3992,8906;0,00639396
3993,8550;0,00639693
3994,8191;0,00639752
3995,7834;0,00639554
3996,7476;0,0063927
3997,7119;0,00639078
3998,6760;0,00639064
3999,6404;0,00639263
4000,6045;0,00632273

##### Extended Information
[Comments]
Sample name
Comment
Username
Division
Organization;UNIVERSIDAD INDUSTRIAL DE SANTANDER

[Detailed Information]
Creation date;17/03/2025 3:10 p.m.

Data array type;Linear data array
Horizontal axis;Wavenumber [cm-1]
Vertical axis;Abs
Start;399,193 cm-1
End;4000,6 cm-1
Data interval;0,964233 cm-1
Data points;3736    

[Measurement Information]
Model name;FT/IR-4X1typeA
Serial No.;A035162111

Accessory;ATR PRO 4X
Accessory S/N;A021162126
Incident angle;45 deg

Measurement date;17/03/2025 3:09 p.m.

Light source;Standard
Detector;TGS
Accumulation;40
Resolution;4 cm-1
Zero filling;On
Apodization;Cosine
Gain;Auto (8)
Aperture;Auto (7 mm)
Scan speed;Auto (2 mm/sec)
Filter;Auto (12800 Hz)

