TITLE;
DATA TYPE;INFRARED SPECTRUM
ORIGIN;JASCO
OWNER;
DATE;25/03/17
TIME;15:12:27
SPECTROMETER/DATA SYSTEM;
LOCALE;9226
RESOLUTION;
DELTAX;0,964233
XUNITS;1/CM
YUNITS;ABSORBANCE
FIRSTX;  399,1927
LASTX; 4000,6047
NPOINTS;    3736
FIRSTY;     0,13693
MAXY;     0,16252
MINY;     0,00614
XYDATA
399,1927;0,136928
400,1569;0,133857
401,1211;0,131397
402,0854;0,129831
403,0496;0,129009
404,0138;0,128695
404,9781;0,128692
405,9423;0,128854
406,9065;0,129055
407,8708;0,129186
408,8350;0,129187
409,7992;0,129091
410,7635;0,129027
411,7277;0,129151
412,6919;0,12955
413,6562;0,130186
414,6204;0,130953
415,5846;0,131739
416,5489;0,132459
417,5131;0,133033
418,4773;0,133357
419,4416;0,133344
420,4058;0,133023
421,3700;0,132521
422,3343;0,13198
423,2985;0,131523
424,2627;0,13125
425,2270;0,131214
426,1912;0,131383
427,1554;0,131634
428,1197;0,131819
429,0839;0,131856
430,0481;0,131783
431,0124;0,131744
431,9766;0,131911
432,9408;0,132381
433,9051;0,133108
434,8693;0,133919
435,8335;0,134604
436,7978;0,13503
437,7620;0,135176
438,7262;0,135092
439,6905;0,134821
440,6547;0,13438
441,6189;0,133798
442,5832;0,133175
443,5474;0,132675
444,5116;0,132426
445,4759;0,132416
446,4401;0,132492
447,4043;0,132464
448,3686;0,132237
449,3328;0,131847
450,2970;0,131428
451,2613;0,131102
452,2255;0,130897
453,1897;0,130751
454,1540;0,130582
455,1182;0,130384
456,0824;0,130242
457,0467;0,130284
458,0109;0,130554
458,9751;0,130943
459,9394;0,131261
460,9036;0,131383
461,8678;0,131307
462,8321;0,131111
463,7963;0,130882
464,7605;0,130666
465,7248;0,13047
466,6890;0,130278
467,6532;0,130086
468,6175;0,129909
469,5817;0,129778
470,5459;0,129728
471,5102;0,129802
472,4744;0,130039
473,4386;0,130446
474,4029;0,130961
475,3671;0,131454
476,3313;0,131762
477,2956;0,131754
478,2598;0,131399
479,2240;0,1308
480,1883;0,130169
481,1525;0,129742
482,1167;0,129674
483,0810;0,129972
484,0452;0,130493
485,0094;0,131031
485,9737;0,131423
486,9379;0,131617
487,9021;0,131657
488,8664;0,131617
489,8306;0,131547
490,7948;0,131461
491,7591;0,131357
492,7233;0,131246
493,6875;0,131173
494,6518;0,131188
495,6160;0,131312
496,5802;0,131511
497,5445;0,131705
498,5087;0,131808
499,4729;0,131775
500,4372;0,131622
501,4014;0,131421
502,3656;0,131249
503,3299;0,131147
504,2941;0,131113
505,2583;0,131143
506,2226;0,131261
507,1868;0,131526
508,1510;0,131981
509,1153;0,132597
510,0795;0,13326
511,0437;0,133814
512,0080;0,134137
512,9722;0,134201
513,9365;0,134079
514,9007;0,133912
515,8649;0,133855
516,8292;0,134006
517,7934;0,134364
518,7576;0,134827
519,7219;0,135254
520,6861;0,135538
521,6503;0,135631
522,6146;0,135532
523,5788;0,135264
524,5430;0,134869
525,5073;0,134423
526,4715;0,134022
527,4357;0,133749
528,4000;0,133621
529,3642;0,133584
530,3284;0,133541
531,2927;0,133403
532,2569;0,13314
533,2211;0,132792
534,1854;0,132446
535,1496;0,132186
536,1138;0,132047
537,0781;0,132012
538,0423;0,13204
539,0065;0,132093
539,9708;0,132155
540,9350;0,132216
541,8992;0,132259
542,8635;0,132264
543,8277;0,132226
544,7919;0,132174
545,7562;0,132169
546,7204;0,132275
547,6846;0,132519
548,6489;0,132878
549,6131;0,13329
550,5773;0,133701
551,5416;0,134087
552,5058;0,134463
553,4700;0,134857
554,4343;0,135275
555,3985;0,135674
556,3627;0,135959
557,3270;0,136016
558,2912;0,135746
559,2554;0,135116
560,2197;0,134171
561,1839;0,133027
562,1481;0,131838
563,1124;0,130738
564,0766;0,129812
565,0408;0,129073
566,0051;0,128484
566,9693;0,127985
567,9335;0,127526
568,8978;0,127083
569,8620;0,126658
570,8262;0,126272
571,7905;0,125945
572,7547;0,125686
573,7189;0,125489
574,6832;0,125334
575,6474;0,125197
576,6116;0,125057
577,5759;0,124911
578,5401;0,124765
579,5043;0,124624
580,4686;0,124488
581,4328;0,124347
582,3970;0,124189
583,3613;0,124019
584,3255;0,123854
585,2897;0,123724
586,2540;0,123651
587,2182;0,123638
588,1824;0,123664
589,1467;0,123692
590,1109;0,123683
591,0751;0,123603
592,0394;0,123443
593,0036;0,123214
593,9678;0,122948
594,9321;0,122676
595,8963;0,122424
596,8605;0,122203
597,8248;0,122009
598,7890;0,121824
599,7532;0,121633
600,7175;0,121421
601,6817;0,121187
602,6459;0,120939
603,6102;0,120685
604,5744;0,120428
605,5386;0,120158
606,5029;0,119851
607,4671;0,119487
608,4313;0,119058
609,3956;0,118582
610,3598;0,118093
611,3240;0,117623
612,2883;0,117186
613,2525;0,116768
614,2167;0,116331
615,1810;0,115833
616,1452;0,115245
617,1094;0,114568
618,0737;0,113827
619,0379;0,113054
620,0021;0,112269
620,9664;0,111476
621,9306;0,110671
622,8948;0,10986
623,8591;0,10907
624,8233;0,108346
625,7875;0,107731
626,7518;0,107238
627,7160;0,106839
628,6802;0,106476
629,6445;0,106086
630,6087;0,105632
631,5729;0,105118
632,5372;0,104578
633,5014;0,104062
634,4656;0,103605
635,4299;0,10322
636,3941;0,102895
637,3583;0,102611
638,3226;0,102344
639,2868;0,102074
640,2510;0,101784
641,2153;0,101465
642,1795;0,10112
643,1437;0,10077
644,1080;0,100442
645,0722;0,100153
646,0364;0,0998982
647,0007;0,0996547
647,9649;0,0993973
648,9291;0,0991221
649,8934;0,0988538
650,8576;0,0986322
651,8218;0,0984878
652,7861;0,0984287
653,7503;0,0984451
654,7145;0,098525
655,6788;0,0986667
656,6430;0,0988752
657,6072;0,0991472
658,5715;0,0994521
659,5357;0,0997277
660,4999;0,0999011
661,4642;0,0999335
662,4284;0,0998494
663,3926;0,0997202
664,3569;0,0996198
665,3211;0,099587
666,2853;0,099587
667,2496;0,0994624
668,2138;0,0989633
669,1780;0,0980109
670,1423;0,0968426
671,1065;0,0956943
672,0707;0,0946065
673,0350;0,0935213
673,9992;0,0923899
674,9634;0,0912166
675,9277;0,0900574
676,8919;0,0889793
677,8561;0,0880108
678,8204;0,0871324
679,7846;0,0863106
680,7488;0,0855308
681,7131;0,084803
682,6773;0,0841435
683,6415;0,0835575
684,6058;0,0830367
685,5700;0,0825703
686,5342;0,0821551
687,4985;0,0817965
688,4627;0,0815013
689,4269;0,081271
690,3912;0,0810978
691,3554;0,0809665
692,3196;0,0808577
693,2839;0,0807511
694,2481;0,080627
695,2123;0,0804677
696,1766;0,0802598
697,1408;0,0799969
698,1050;0,0796835
699,0693;0,0793347
700,0335;0,0789703
700,9977;0,0786055
701,9620;0,0782441
702,9262;0,0778785
703,8904;0,077499
704,8547;0,0771048
705,8189;0,0767102
706,7831;0,0763371
707,7474;0,0759992
708,7116;0,0756879
709,6758;0,0753714
710,6401;0,0750092
711,6043;0,0745742
712,5685;0,0740684
713,5328;0,073521
714,4970;0,0729699
715,4612;0,0724429
716,4255;0,071918
717,3897;0,0713705
718,3539;0,070766
719,3182;0,0700908
720,2824;0,0693646
721,2466;0,068632
722,2109;0,0679383
723,1751;0,0673094
724,1393;0,0667472
725,1036;0,0662382
726,0678;0,065761
727,0320;0,0652912
727,9963;0,0648046
728,9605;0,0642838
729,9247;0,0637285
730,8890;0,0631601
731,8532;0,0626151
732,8174;0,0621291
733,7817;0,0617193
734,7459;0,0613787
735,7101;0,0610848
736,6744;0,0608149
737,6386;0,0605562
738,6028;0,0603042
739,5671;0,0600543
740,5313;0,0597957
741,4955;0,0595157
742,4598;0,0592101
743,4240;0,0588899
744,3882;0,0585771
745,3525;0,0582912
746,3167;0,0580359
747,2809;0,057796
748,2452;0,0575467
749,2094;0,0572683
750,1736;0,056957
751,1379;0,0566242
752,1021;0,0562872
753,0663;0,0559565
754,0306;0,0556314
754,9948;0,0553039
755,9590;0,0549702
756,9233;0,0546373
757,8875;0,0543223
758,8517;0,0540419
759,8160;0,0538002
760,7802;0,053584
761,7444;0,0533699
762,7087;0,0531379
763,6729;0,0528844
764,6371;0,0526235
765,6014;0,0523773
766,5656;0,0521615
767,5298;0,051975
768,4941;0,0518009
769,4583;0,0516169
770,4225;0,0514082
771,3868;0,0511755
772,3510;0,050933
773,3152;0,0507005
774,2795;0,0504925
775,2437;0,0503124
776,2079;0,0501519
777,1722;0,0499963
778,1364;0,0498312
779,1006;0,0496486
780,0649;0,049448
781,0291;0,0492347
781,9933;0,049015
782,9576;0,0487917
783,9218;0,0485627
784,8860;0,0483234
785,8503;0,0480711
786,8145;0,0478097
787,7787;0,0475503
788,7430;0,0473083
789,7072;0,0470968
790,6714;0,0469213
791,6357;0,0467788
792,5999;0,046661
793,5641;0,0465596
794,5284;0,0464691
795,4926;0,0463858
796,4568;0,0463036
797,4211;0,0462118
798,3853;0,0460974
799,3495;0,0459504
800,3138;0,0457709
801,2780;0,0455701
802,2422;0,0453665
803,2065;0,0451784
804,1707;0,0450182
805,1349;0,0448902
806,0992;0,0447924
807,0634;0,0447188
808,0276;0,0446609
808,9919;0,0446072
809,9561;0,0445452
810,9203;0,0444646
811,8846;0,0443627
812,8488;0,0442465
813,8130;0,0441307
814,7773;0,044031
815,7415;0,0439576
816,7057;0,043912
817,6700;0,04389
818,6342;0,0438857
819,5984;0,0438948
820,5627;0,043914
821,5269;0,0439377
822,4911;0,0439571
823,4554;0,0439618
824,4196;0,0439441
825,3839;0,0439029
826,3481;0,0438434
827,3123;0,0437741
828,2766;0,0437028
829,2408;0,0436349
830,2050;0,0435738
831,1693;0,0435207
832,1335;0,0434737
833,0977;0,0434255
834,0620;0,0433636
835,0262;0,0432743
835,9904;0,0431498
836,9547;0,0429929
837,9189;0,0428162
838,8831;0,0426353
839,8474;0,0424608
840,8116;0,0422948
841,7758;0,0421347
842,7401;0,0419803
843,7043;0,0418382
844,6685;0,0417197
845,6328;0,0416326
846,5970;0,0415747
847,5612;0,0415329
848,5255;0,0414904
849,4897;0,0414359
850,4539;0,0413694
851,4182;0,0412997
852,3824;0,041238
853,3466;0,0411908
854,3109;0,0411591
855,2751;0,0411421
856,2393;0,0411415
857,2036;0,0411619
858,1678;0,041207
859,1320;0,0412734
860,0963;0,041349
861,0605;0,0414186
862,0247;0,0414728
862,9890;0,041517
863,9532;0,0415715
864,9174;0,0416643
865,8817;0,0418184
866,8459;0,0420418
867,8101;0,0423251
868,7744;0,0426479
869,7386;0,0429881
870,7028;0,0433288
871,6671;0,043659
872,6313;0,0439685
873,5955;0,0442425
874,5598;0,0444607
875,5240;0,0446036
876,4882;0,0446621
877,4525;0,0446465
878,4167;0,0445884
879,3809;0,0445344
880,3452;0,0445325
881,3094;0,0446189
882,2736;0,044809
883,2379;0,0450984
884,2021;0,0454708
885,1663;0,0459092
886,1306;0,0464025
887,0948;0,0469468
888,0590;0,0475391
889,0233;0,0481701
889,9875;0,04882
890,9517;0,0494598
891,9160;0,0500575
892,8802;0,0505863
893,8444;0,0510306
894,8087;0,0513883
895,7729;0,0516666
896,7371;0,0518735
897,7014;0,0520092
898,6656;0,0520616
899,6298;0,052011
900,5941;0,0518428
901,5583;0,0515605
902,5225;0,0511924
903,4868;0,0507852
904,4510;0,050388
905,4152;0,0500348
906,3795;0,0497365
907,3437;0,0494846
908,3079;0,0492636
909,2722;0,0490633
910,2364;0,0488844
911,2007;0,0487379
912,1649;0,0486384
913,1292;0,0485995
914,0934;0,0486286
915,0576;0,0487244
916,0219;0,048876
916,9861;0,0490641
917,9503;0,0492677
918,9146;0,0494717
919,8788;0,0496728
920,8430;0,0498781
921,8073;0,0500975
922,7715;0,0503336
923,7357;0,0505774
924,7000;0,0508115
925,6642;0,0510191
926,6284;0,0511921
927,5927;0,0513323
928,5569;0,0514478
929,5211;0,051548
930,4854;0,0516416
931,4496;0,051738
932,4138;0,0518494
933,3781;0,0519889
934,3423;0,0521659
935,3065;0,0523819
936,2708;0,0526317
937,2350;0,0529083
938,1992;0,0532103
939,1635;0,0535442
940,1277;0,0539211
941,0919;0,0543504
942,0562;0,0548353
943,0204;0,0553732
943,9846;0,0559606
944,9489;0,0565975
945,9131;0,0572892
946,8773;0,0580431
947,8416;0,0588651
948,8058;0,0597562
949,7700;0,0607129
950,7343;0,0617285
951,6985;0,0627958
952,6627;0,063908
953,6270;0,0650592
954,5912;0,0662456
955,5554;0,0674651
956,5197;0,0687177
957,4839;0,0700051
958,4481;0,0713289
959,4124;0,0726892
960,3766;0,074083
961,3408;0,0755032
962,3051;0,0769395
963,2693;0,0783816
964,2335;0,0798236
965,1978;0,0812673
966,1620;0,0827222
967,1262;0,0842021
968,0905;0,0857202
969,0547;0,0872862
970,0189;0,0889086
970,9832;0,0906008
971,9474;0,0923855
972,9116;0,0942934
973,8759;0,0963549
974,8401;0,0985892
975,8043;0,100995
976,7686;0,10355
977,7328;0,106212
978,6970;0,108927
979,6613;0,111633
980,6255;0,114267
981,5897;0,11676
982,5540;0,119054
983,5182;0,121102
984,4824;0,122883
985,4467;0,124402
986,4109;0,125691
987,3751;0,126799
988,3394;0,127778
989,3036;0,128675
990,2678;0,12952
991,2321;0,130326
992,1963;0,131091
993,1605;0,131804
994,1248;0,132455
995,0890;0,133043
996,0532;0,133571
997,0175;0,134053
997,9817;0,134499
998,9459;0,13492
999,9102;0,135321
1000,8744;0,135715
1001,8386;0,136118
1002,8029;0,136558
1003,7671;0,137066
1004,7313;0,137672
1005,6956;0,138402
1006,6598;0,139267
1007,6240;0,140271
1008,5883;0,14141
1009,5525;0,142667
1010,5167;0,144014
1011,4810;0,145411
1012,4452;0,146815
1013,4094;0,148184
1014,3737;0,149491
1015,3379;0,150728
1016,3021;0,151901
1017,2664;0,15302
1018,2306;0,154088
1019,1948;0,1551
1020,1591;0,156043
1021,1233;0,156906
1022,0875;0,15769
1023,0518;0,158406
1024,0160;0,159076
1024,9802;0,15972
1025,9445;0,16035
1026,9087;0,160963
1027,8729;0,161536
1028,8372;0,162026
1029,8014;0,162377
1030,7656;0,16252
1031,7299;0,162386
1032,6941;0,161925
1033,6583;0,161122
1034,6226;0,160005
1035,5868;0,158647
1036,5510;0,157157
1037,5153;0,155652
1038,4795;0,154241
1039,4437;0,153004
1040,4080;0,151994
1041,3722;0,151232
1042,3364;0,150715
1043,3007;0,150416
1044,2649;0,150287
1045,2291;0,150269
1046,1934;0,150298
1047,1576;0,150316
1048,1218;0,150275
1049,0861;0,15014
1050,0503;0,149884
1051,0145;0,149487
1051,9788;0,148933
1052,9430;0,14822
1053,9072;0,147349
1054,8715;0,146326
1055,8357;0,145144
1056,7999;0,143782
1057,7642;0,142204
1058,7284;0,140372
1059,6926;0,13827
1060,6569;0,135917
1061,6211;0,133378
1062,5853;0,130751
1063,5496;0,128148
1064,5138;0,125673
1065,4780;0,123397
1066,4423;0,121354
1067,4065;0,119538
1068,3707;0,117915
1069,3350;0,116434
1070,2992;0,115043
1071,2634;0,113697
1072,2277;0,112357
1073,1919;0,110995
1074,1561;0,109586
1075,1204;0,108117
1076,0846;0,106584
1077,0488;0,105008
1078,0131;0,103425
1078,9773;0,101887
1079,9415;0,100443
1080,9058;0,0991273
1081,8700;0,0979555
1082,8342;0,0969234
1083,7985;0,0960187
1084,7627;0,0952293
1085,7269;0,0945473
1086,6912;0,0939674
1087,6554;0,0934838
1088,6196;0,0930892
1089,5839;0,0927773
1090,5481;0,0925461
1091,5123;0,0923978
1092,4766;0,0923353
1093,4408;0,0923561
1094,4050;0,0924501
1095,3693;0,0926017
1096,3335;0,0927942
1097,2977;0,0930139
1098,2620;0,0932486
1099,2262;0,0934841
1100,1904;0,0936998
1101,1547;0,0938707
1102,1189;0,0939732
1103,0831;0,0939927
1104,0474;0,093928
1105,0116;0,0937893
1105,9758;0,0935916
1106,9401;0,0933463
1107,9043;0,0930534
1108,8685;0,092697
1109,8328;0,0922448
1110,7970;0,0916529
1111,7612;0,0908781
1112,7255;0,0898948
1113,6897;0,0887124
1114,6539;0,087382
1115,6182;0,0859894
1116,5824;0,0846312
1117,5466;0,0833856
1118,5109;0,0822891
1119,4751;0,0813278
1120,4393;0,0804466
1121,4036;0,0795704
1122,3678;0,0786271
1123,3320;0,0775649
1124,2963;0,0763602
1125,2605;0,0750163
1126,2247;0,0735576
1127,1890;0,0720201
1128,1532;0,0704424
1129,1174;0,0688584
1130,0817;0,0672927
1131,0459;0,0657606
1132,0101;0,0642733
1132,9744;0,0628438
1133,9386;0,0614928
1134,9028;0,0602497
1135,8671;0,0591489
1136,8313;0,058223
1137,7955;0,0574966
1138,7598;0,0569809
1139,7240;0,0566721
1140,6882;0,056551
1141,6525;0,0565856
1142,6167;0,0567367
1143,5809;0,056965
1144,5452;0,0572406
1145,5094;0,057549
1146,4736;0,0578916
1147,4379;0,0582793
1148,4021;0,0587223
1149,3663;0,0592197
1150,3306;0,059756
1151,2948;0,0603038
1152,2590;0,0608323
1153,2233;0,0613141
1154,1875;0,0617289
1155,1517;0,0620601
1156,1160;0,0622881
1157,0802;0,0623842
1158,0444;0,0623072
1159,0087;0,0620064
1159,9729;0,061429
1160,9371;0,0605307
1161,9014;0,0592872
1162,8656;0,0577025
1163,8298;0,0558126
1164,7941;0,0536831
1165,7583;0,0514007
1166,7225;0,0490605
1167,6868;0,0467534
1168,6510;0,0445549
1169,6152;0,0425178
1170,5795;0,0406718
1171,5437;0,0390266
1172,5079;0,0375787
1173,4722;0,0363167
1174,4364;0,0352247
1175,4006;0,034283
1176,3649;0,033469
1177,3291;0,0327596
1178,2933;0,0321355
1179,2576;0,0315848
1180,2218;0,0311035
1181,1860;0,0306926
1182,1503;0,0303531
1183,1145;0,030083
1184,0787;0,0298773
1185,0430;0,02973
1186,0072;0,0296376
1186,9714;0,0296008
1187,9357;0,029623
1188,8999;0,0297094
1189,8641;0,0298641
1190,8284;0,0300893
1191,7926;0,0303841
1192,7568;0,0307446
1193,7211;0,0311643
1194,6853;0,0316339
1195,6495;0,0321426
1196,6138;0,032678
1197,5780;0,0332259
1198,5422;0,0337722
1199,5065;0,0343019
1200,4707;0,0348125
1201,4349;0,035298
1202,3992;0,0357583
1203,3634;0,0361928
1204,3276;0,036598
1205,2919;0,0369682
1206,2561;0,0372995
1207,2203;0,0375954
1208,1846;0,0378694
1209,1488;0,0381434
1210,1130;0,0384431
1211,0773;0,0387913
1212,0415;0,0392034
1213,0057;0,0396849
1213,9700;0,0402329
1214,9342;0,0408376
1215,8984;0,0414852
1216,8627;0,0421596
1217,8269;0,0428445
1218,7911;0,0435256
1219,7554;0,0441916
1220,7196;0,0448358
1221,6838;0,0454554
1222,6481;0,0460499
1223,6123;0,0466195
1224,5765;0,0471636
1225,5408;0,0476811
1226,5050;0,048171
1227,4692;0,0486332
1228,4335;0,049069
1229,3977;0,0494786
1230,3619;0,0498585
1231,3262;0,0502004
1232,2904;0,0504919
1233,2546;0,0507217
1234,2189;0,0508846
1235,1831;0,0509855
1236,1473;0,0510391
1237,1116;0,0510645
1238,0758;0,0510786
1239,0400;0,0510896
1240,0043;0,0510953
1240,9685;0,0510856
1241,9327;0,0510475
1242,8970;0,0509702
1243,8612;0,0508485
1244,8254;0,0506826
1245,7897;0,0504772
1246,7539;0,0502391
1247,7181;0,0499754
1248,6824;0,0496924
1249,6466;0,0493951
1250,6108;0,0490878
1251,5751;0,0487744
1252,5393;0,048459
1253,5035;0,0481459
1254,4678;0,047838
1255,4320;0,0475356
1256,3962;0,0472354
1257,3605;0,0469311
1258,3247;0,0466157
1259,2889;0,0462836
1260,2532;0,0459318
1261,2174;0,0455601
1262,1816;0,0451698
1263,1459;0,0447629
1264,1101;0,044341
1265,0743;0,0439055
1266,0386;0,0434576
1267,0028;0,0429985
1267,9670;0,0425301
1268,9313;0,0420548
1269,8955;0,0415757
1270,8597;0,0410954
1271,8240;0,0406147
1272,7882;0,0401328
1273,7524;0,0396493
1274,7167;0,0391672
1275,6809;0,0386936
1276,6451;0,0382371
1277,6094;0,0378033
1278,5736;0,0373902
1279,5378;0,0369885
1280,5021;0,0365866
1281,4663;0,0361778
1282,4305;0,0357648
1283,3948;0,0353583
1284,3590;0,0349719
1285,3232;0,0346169
1286,2875;0,0343005
1287,2517;0,0340266
1288,2159;0,0337975
1289,1802;0,0336148
1290,1444;0,0334779
1291,1086;0,0333844
1292,0729;0,0333313
1293,0371;0,0333186
1294,0013;0,0333509
1294,9656;0,0334366
1295,9298;0,0335843
1296,8940;0,0337974
1297,8583;0,0340723
1298,8225;0,0343988
1299,7867;0,034764
1300,7510;0,0351566
1301,7152;0,0355707
1302,6794;0,036007
1303,6437;0,0364715
1304,6079;0,0369714
1305,5721;0,0375092
1306,5364;0,038079
1307,5006;0,0386668
1308,4648;0,0392567
1309,4291;0,0398366
1310,3933;0,0404011
1311,3575;0,040947
1312,3218;0,0414659
1313,2860;0,041939
1314,2502;0,0423382
1315,2145;0,0426337
1316,1787;0,0428037
1317,1429;0,0428422
1318,1072;0,0427629
1319,0714;0,042597
1320,0356;0,042384
1320,9999;0,0421588
1321,9641;0,0419443
1322,9283;0,0417503
1323,8926;0,0415795
1324,8568;0,0414332
1325,8210;0,0413138
1326,7853;0,0412233
1327,7495;0,0411615
1328,7137;0,0411237
1329,6780;0,0411007
1330,6422;0,0410792
1331,6064;0,0410435
1332,5707;0,0409768
1333,5349;0,0408625
1334,4991;0,0406849
1335,4634;0,040429
1336,4276;0,0400844
1337,3918;0,039654
1338,3561;0,0391652
1339,3203;0,0386697
1340,2845;0,0382213
1341,2488;0,0378476
1342,2130;0,0375423
1343,1772;0,0372826
1344,1415;0,0370497
1345,1057;0,0368395
1346,0699;0,0366631
1347,0342;0,03654
1347,9984;0,0364884
1348,9626;0,0365177
1349,9269;0,0366249
1350,8911;0,0367962
1351,8553;0,0370129
1352,8196;0,037258
1353,7838;0,0375225
1354,7480;0,0378071
1355,7123;0,038118
1356,6765;0,0384591
1357,6407;0,0388269
1358,6050;0,03921
1359,5692;0,0395932
1360,5334;0,0399611
1361,4977;0,0403022
1362,4619;0,0406128
1363,4261;0,0408983
1364,3904;0,0411672
1365,3546;0,0414242
1366,3188;0,0416663
1367,2831;0,0418837
1368,2473;0,0420625
1369,2115;0,042188
1370,1758;0,0422451
1371,1400;0,0422177
1372,1042;0,0420885
1373,0685;0,0418475
1374,0327;0,0415055
1374,9969;0,0410977
1375,9612;0,0406627
1376,9254;0,0402131
1377,8896;0,0397303
1378,8539;0,0391862
1379,8181;0,0385732
1380,7823;0,0379182
1381,7466;0,0372692
1382,7108;0,0366627
1383,6750;0,0361004
1384,6393;0,0355549
1385,6035;0,034998
1386,5677;0,034437
1387,5320;0,0339238
1388,4962;0,0335184
1389,4604;0,0332403
1390,4247;0,0330642
1391,3889;0,0329483
1392,3531;0,0328591
1393,3174;0,0327809
1394,2816;0,0327155
1395,2458;0,0326757
1396,2101;0,0326752
1397,1743;0,0327222
1398,1385;0,0328188
1399,1028;0,0329616
1400,0670;0,0331419
1401,0313;0,0333475
1401,9955;0,0335668
1402,9597;0,0337943
1403,9240;0,0340329
1404,8882;0,0342918
1405,8524;0,0345781
1406,8167;0,0348906
1407,7809;0,035222
1408,7451;0,0355679
1409,7094;0,0359317
1410,6736;0,0363224
1411,6378;0,0367441
1412,6021;0,0371889
1413,5663;0,0376392
1414,5305;0,0380768
1415,4948;0,038491
1416,4590;0,0388794
1417,4232;0,0392445
1418,3875;0,0395867
1419,3517;0,0398962
1420,3159;0,0401513
1421,2802;0,0403268
1422,2444;0,040403
1423,2086;0,0403739
1424,1729;0,0402514
1425,1371;0,0400577
1426,1013;0,0398065
1427,0656;0,0394868
1428,0298;0,0390703
1428,9940;0,0385461
1429,9583;0,0379532
1430,9225;0,0373694
1431,8867;0,0368539
1432,8510;0,0364005
1433,8152;0,035943
1434,7794;0,0354014
1435,7437;0,034754
1436,7079;0,0340929
1437,6721;0,0335699
1438,6364;0,0332606
1439,6006;0,033128
1440,5648;0,0330957
1441,5291;0,0331091
1442,4933;0,0331476
1443,4575;0,0332125
1444,4218;0,0333097
1445,3860;0,0334386
1446,3502;0,03359
1447,3145;0,0337514
1448,2787;0,0339136
1449,2429;0,0340732
1450,2072;0,0342294
1451,1714;0,0343802
1452,1356;0,0345181
1453,0999;0,0346258
1454,0641;0,034668
1455,0283;0,0345831
1455,9926;0,0343089
1456,9568;0,0338848
1457,9210;0,0335002
1458,8853;0,0332958
1459,8495;0,0332365
1460,8137;0,0332164
1461,7780;0,033137
1462,7422;0,0329131
1463,7064;0,0324863
1464,6707;0,0318739
1465,6349;0,0311904
1466,5991;0,0305629
1467,5634;0,0300296
1468,5276;0,0295352
1469,4918;0,0289772
1470,4561;0,0282425
1471,4203;0,0272509
1472,3845;0,0260431
1473,3488;0,0248297
1474,3130;0,0238392
1475,2772;0,0231243
1476,2415;0,0225984
1477,2057;0,022166
1478,1699;0,0217741
1479,1342;0,0214042
1480,0984;0,0210561
1481,0626;0,0207388
1482,0269;0,0204665
1482,9911;0,0202511
1483,9553;0,0200943
1484,9196;0,0199831
1485,8838;0,0198931
1486,8480;0,0197994
1487,8123;0,0196975
1488,7765;0,0196227
1489,7407;0,0196336
1490,7050;0,0197558
1491,6692;0,0199648
1492,6334;0,0202224
1493,5977;0,0205036
1494,5619;0,0207968
1495,5261;0,0210986
1496,4904;0,0214116
1497,4546;0,0217461
1498,4188;0,0221141
1499,3831;0,0225167
1500,3473;0,0229412
1501,3115;0,0233675
1502,2758;0,0237713
1503,2400;0,0241177
1504,2042;0,0243449
1505,1685;0,0243449
1506,1327;0,0240022
1507,0969;0,0233855
1508,0612;0,0228125
1509,0254;0,0224681
1509,9896;0,0222778
1510,9539;0,0221229
1511,9181;0,0219309
1512,8823;0,0216645
1513,8466;0,0213076
1514,8108;0,0208687
1515,7750;0,0203851
1516,7393;0,0199078
1517,7035;0,0194661
1518,6677;0,019046
1519,6320;0,0186075
1520,5962;0,0181316
1521,5604;0,0176551
1522,5247;0,0172458
1523,4889;0,0169437
1524,4531;0,0167392
1525,4174;0,0166019
1526,3816;0,0165129
1527,3458;0,0164712
1528,3101;0,0164781
1529,2743;0,0165245
1530,2385;0,0165909
1531,2028;0,0166583
1532,1670;0,0167249
1533,1312;0,0168141
1534,0955;0,0169582
1535,0597;0,0171688
1536,0239;0,0174277
1536,9882;0,0176987
1537,9524;0,0179301
1538,9166;0,0180448
1539,8809;0,0179623
1540,8451;0,0177102
1541,8093;0,0174672
1542,7736;0,0173552
1543,7378;0,0173521
1544,7020;0,0174027
1545,6663;0,0174771
1546,6305;0,017565
1547,5947;0,0176604
1548,5590;0,0177549
1549,5232;0,0178425
1550,4874;0,0179269
1551,4517;0,0180251
1552,4159;0,0181566
1553,3801;0,0183278
1554,3444;0,0185228
1555,3086;0,0187027
1556,2728;0,0188048
1557,2371;0,0187577
1558,2013;0,0185723
1559,1655;0,0184327
1560,1298;0,018491
1561,0940;0,0187028
1562,0582;0,0189786
1563,0225;0,0192736
1563,9867;0,0195708
1564,9509;0,0198585
1565,9152;0,0201245
1566,8794;0,0203621
1567,8436;0,0205836
1568,8079;0,0208225
1569,7721;0,0211104
1570,7363;0,0214481
1571,7006;0,0218098
1572,6648;0,0221691
1573,6290;0,0225121
1574,5933;0,0228398
1575,5575;0,0231661
1576,5217;0,0235092
1577,4860;0,0238773
1578,4502;0,0242649
1579,4144;0,0246656
1580,3787;0,0250771
1581,3429;0,025498
1582,3071;0,0259245
1583,2714;0,0263536
1584,2356;0,0267883
1585,1998;0,0272373
1586,1641;0,0277093
1587,1283;0,028203
1588,0925;0,0287029
1589,0568;0,0291824
1590,0210;0,0296112
1590,9852;0,0299629
1591,9495;0,0302172
1592,9137;0,0303624
1593,8779;0,0303991
1594,8422;0,0303453
1595,8064;0,0302324
1596,7706;0,0300927
1597,7349;0,0299458
1598,6991;0,0297954
1599,6633;0,0296361
1600,6276;0,0294638
1601,5918;0,0292839
1602,5560;0,0291117
1603,5203;0,0289647
1604,4845;0,0288516
1605,4487;0,0287664
1606,4130;0,0286934
1607,3772;0,0286201
1608,3414;0,0285509
1609,3057;0,0285089
1610,2699;0,0285193
1611,2341;0,0285876
1612,1984;0,0286924
1613,1626;0,0287947
1614,1268;0,0288527
1615,0911;0,0288454
1616,0553;0,028803
1617,0195;0,0288012
1617,9838;0,0288915
1618,9480;0,0290573
1619,9122;0,0292458
1620,8765;0,0294088
1621,8407;0,0295184
1622,8049;0,0295735
1623,7692;0,0296
1624,7334;0,029631
1625,6976;0,0296819
1626,6619;0,0297483
1627,6261;0,0298224
1628,5903;0,0299059
1629,5546;0,0300067
1630,5188;0,0301267
1631,4830;0,030252
1632,4473;0,0303496
1633,4115;0,0303683
1634,3757;0,0302582
1635,3400;0,0300297
1636,3042;0,0297936
1637,2684;0,0296635
1638,2327;0,0296477
1639,1969;0,0296948
1640,1611;0,0297639
1641,1254;0,0298376
1642,0896;0,0299072
1643,0538;0,0299543
1644,0181;0,0299428
1644,9823;0,0298326
1645,9465;0,029632
1646,9108;0,0294355
1647,8750;0,0293471
1648,8392;0,0293765
1649,8035;0,0294458
1650,7677;0,0294301
1651,7319;0,029176
1652,6962;0,0286071
1653,6604;0,0279428
1654,6246;0,0275275
1655,5889;0,0274006
1656,5531;0,0274102
1657,5173;0,0274375
1658,4816;0,0274189
1659,4458;0,0273115
1660,4100;0,0270838
1661,3743;0,0267388
1662,3385;0,0263415
1663,3027;0,0259891
1664,2670;0,0257357
1665,2312;0,0255618
1666,1954;0,0253983
1667,1597;0,0251611
1668,1239;0,024788
1669,0881;0,0242919
1670,0524;0,023778
1671,0166;0,0233563
1671,9808;0,0230397
1672,9451;0,0227555
1673,9093;0,0224237
1674,8735;0,0220211
1675,8378;0,0216022
1676,8020;0,021257
1677,7662;0,0210374
1678,7305;0,0209295
1679,6947;0,020875
1680,6589;0,0207892
1681,6232;0,0205627
1682,5874;0,0200913
1683,5516;0,019394
1684,5159;0,0186892
1685,4801;0,0181885
1686,4443;0,0179004
1687,4086;0,0177268
1688,3728;0,0175917
1689,3370;0,0174708
1690,3013;0,017371
1691,2655;0,0173042
1692,2297;0,0172685
1693,1940;0,0172445
1694,1582;0,017202
1695,1224;0,0171139
1696,0867;0,0169683
1697,0509;0,0167732
1698,0151;0,0165538
1698,9794;0,016348
1699,9436;0,0162007
1700,9078;0,016144
1701,8721;0,0161797
1702,8363;0,0162843
1703,8005;0,0164263
1704,7648;0,0165823
1705,7290;0,0167451
1706,6932;0,016924
1707,6575;0,0171371
1708,6217;0,0173983
1709,5859;0,0177114
1710,5502;0,0180703
1711,5144;0,0184604
1712,4786;0,0188589
1713,4429;0,0192353
1714,4071;0,0195577
1715,3713;0,0198093
1716,3356;0,0200124
1717,2998;0,0202287
1718,2640;0,020504
1719,2283;0,0208319
1720,1925;0,0211833
1721,1567;0,0215369
1722,1210;0,0218812
1723,0852;0,0222072
1724,0494;0,0225067
1725,0137;0,0227761
1725,9779;0,0230203
1726,9421;0,0232506
1727,9064;0,0234774
1728,8706;0,0236982
1729,8348;0,0238888
1730,7991;0,0239972
1731,7633;0,0239544
1732,7275;0,0237248
1733,6918;0,0233762
1734,6560;0,0230532
1735,6202;0,0228409
1736,5845;0,022709
1737,5487;0,0225729
1738,5129;0,0223567
1739,4772;0,0220251
1740,4414;0,0215972
1741,4056;0,0211336
1742,3699;0,0206917
1743,3341;0,0202887
1744,2983;0,0199056
1745,2626;0,0195122
1746,2268;0,0190785
1747,1910;0,0185731
1748,1553;0,0179699
1749,1195;0,0172795
1750,0837;0,0165743
1751,0480;0,0159518
1752,0122;0,01546
1752,9764;0,0150734
1753,9407;0,0147309
1754,9049;0,0143789
1755,8691;0,013997
1756,8334;0,013598
1757,7976;0,0132049
1758,7618;0,0128222
1759,7261;0,01243
1760,6903;0,01201
1761,6545;0,0115784
1762,6188;0,0111861
1763,5830;0,0108809
1764,5472;0,0106734
1765,5115;0,0105366
1766,4757;0,0104289
1767,4399;0,0103132
1768,4042;0,0101623
1769,3684;0,00995559
1770,3326;0,0096807
1771,2969;0,0093519
1772,2611;0,00902744
1773,2253;0,0087846
1774,1896;0,00866189
1775,1538;0,00863719
1776,1180;0,00865635
1777,0823;0,00866866
1778,0465;0,00864666
1779,0107;0,00859243
1779,9750;0,00852995
1780,9392;0,00848305
1781,9034;0,00845473
1782,8677;0,00842877
1783,8319;0,00839137
1784,7961;0,00834932
1785,7604;0,00832667
1786,7246;0,00834371
1787,6888;0,00839809
1788,6531;0,00846155
1789,6173;0,00849058
1790,5815;0,00844861
1791,5458;0,00833724
1792,5100;0,00821019
1793,4742;0,00813414
1794,4385;0,00813192
1795,4027;0,00817704
1796,3669;0,00822573
1797,3312;0,00824194
1798,2954;0,0082084
1799,2596;0,0081318
1800,2239;0,00804055
1801,1881;0,00796931
1802,1523;0,00793847
1803,1166;0,00794666
1804,0808;0,00797897
1805,0450;0,00801787
1806,0093;0,00804826
1806,9735;0,00805817
1807,9377;0,00803973
1808,9020;0,00799279
1809,8662;0,007929
1810,8304;0,0078702
1811,7947;0,0078377
1812,7589;0,0078398
1813,7231;0,00786807
1814,6874;0,00790364
1815,6516;0,00792781
1816,6158;0,00793161
1817,5801;0,00792042
1818,5443;0,00790937
1819,5085;0,00791142
1820,4728;0,00792789
1821,4370;0,00794938
1822,4012;0,00796479
1823,3655;0,00797067
1824,3297;0,00797301
1825,2939;0,00797831
1826,2582;0,00798176
1827,2224;0,0079655
1828,1866;0,00791226
1829,1509;0,0078261
1830,1151;0,00774087
1831,0793;0,0076999
1832,0436;0,00772242
1833,0078;0,00779229
1833,9720;0,00787409
1834,9363;0,00793525
1835,9005;0,00796219
1836,8647;0,00796662
1837,8290;0,00797611
1838,7932;0,00801206
1839,7574;0,00807291
1840,7217;0,00813367
1841,6859;0,00815746
1842,6501;0,00811447
1843,6144;0,00800583
1844,5786;0,00787399
1845,5428;0,00777508
1846,5071;0,00773636
1847,4713;0,00774656
1848,4355;0,00777675
1849,3998;0,00780138
1850,3640;0,00780796
1851,3282;0,00779789
1852,2925;0,00778131
1853,2567;0,00776971
1854,2209;0,00777056
1855,1852;0,00778664
1856,1494;0,00781807
1857,1136;0,00786367
1858,0779;0,00792028
1859,0421;0,00798129
1860,0063;0,00803755
1860,9706;0,00808158
1861,9348;0,00811218
1862,8990;0,00813489
1863,8633;0,00815667
1864,8275;0,00817809
1865,7917;0,00818806
1866,7560;0,00816642
1867,7202;0,00809786
1868,6844;0,00799032
1869,6487;0,00787609
1870,6129;0,0077877
1871,5771;0,00773561
1872,5414;0,00770851
1873,5056;0,00768716
1874,4698;0,00765825
1875,4341;0,00762294
1876,3983;0,00759645
1877,3625;0,00759744
1878,3268;0,00763378
1879,2910;0,00769613
1880,2552;0,00776376
1881,2195;0,00781761
1882,1837;0,00785094
1883,1479;0,00787068
1884,1122;0,00788899
1885,0764;0,00791204
1886,0406;0,00793485
1887,0049;0,00794554
1887,9691;0,00793612
1888,9333;0,00791198
1889,8976;0,00789116
1890,8618;0,00789115
1891,8260;0,00791402
1892,7903;0,00794258
1893,7545;0,00794941
1894,7188;0,00791277
1895,6830;0,00783165
1896,6472;0,00773083
1897,6115;0,0076499
1898,5757;0,00762258
1899,5399;0,00766079
1900,5042;0,00775166
1901,4684;0,00786601
1902,4326;0,00797292
1903,3969;0,00805319
1904,3611;0,00810428
1905,3253;0,00813401
1906,2896;0,00814907
1907,2538;0,00814774
1908,2180;0,00812288
1909,1823;0,00807331
1910,1465;0,00801416
1911,1107;0,00797498
1912,0750;0,00798529
1913,0392;0,00805867
1914,0034;0,008185
1914,9677;0,00833166
1915,9319;0,00845243
1916,8961;0,00850486
1917,8604;0,00847173
1918,8246;0,00837129
1919,7888;0,00824492
1920,7531;0,00813208
1921,7173;0,00805217
1922,6815;0,00800113
1923,6458;0,00796058
1924,6100;0,0079141
1925,5742;0,00786146
1926,5385;0,00782116
1927,5027;0,00781934
1928,4669;0,00787183
1929,4312;0,007969
1930,3954;0,00807322
1931,3596;0,00813519
1932,3239;0,00812241
1933,2881;0,00804126
1934,2523;0,0079364
1935,2166;0,00786651
1936,1808;0,00787089
1937,1450;0,00794844
1938,1093;0,00806262
1939,0735;0,00816603
1940,0377;0,00822693
1941,0020;0,0082429
1941,9662;0,00823506
1942,9304;0,00822597
1943,8947;0,00821849
1944,8589;0,00819536
1945,8231;0,00813944
1946,7874;0,00805419
1947,7516;0,00796863
1948,7158;0,00792428
1949,6801;0,00795234
1950,6443;0,00805433
1951,6085;0,00819874
1952,5728;0,00833584
1953,5370;0,00842103
1954,5012;0,00843382
1955,4655;0,00838373
1956,4297;0,00830235
1957,3939;0,00822723
1958,3582;0,00818563
1959,3224;0,00818534
1960,2866;0,00821615
1961,2509;0,00826106
1962,2151;0,0083102
1963,1793;0,00836719
1964,1436;0,00844256
1965,1078;0,00853851
1966,0720;0,00863695
1967,0363;0,0087029
1968,0005;0,00870539
1968,9647;0,00864044
1969,9290;0,00853549
1970,8932;0,00843137
1971,8574;0,00835781
1972,8217;0,00832099
1973,7859;0,00831064
1974,7501;0,00832082
1975,7144;0,00836734
1976,6786;0,00848432
1977,6428;0,00869642
1978,6071;0,00898755
1979,5713;0,00929346
1980,5355;0,0095255
1981,4998;0,00960879
1982,4640;0,00951524
1983,4282;0,00928053
1984,3925;0,00899758
1985,3567;0,00878179
1986,3209;0,00871696
1987,2852;0,00881001
1988,2494;0,00898409
1989,2136;0,00911804
1990,1779;0,00911353
1991,1421;0,0089532
1992,1063;0,00871022
1993,0706;0,00849768
1994,0348;0,00839562
1994,9990;0,00841346
1995,9633;0,00850752
1996,9275;0,00862646
1997,8917;0,00874642
1998,8560;0,0088747
1999,8202;0,00902561
2000,7844;0,0091916
2001,7487;0,00933505
2002,7129;0,00940737
2003,6771;0,00938065
2004,6414;0,00926996
2005,6056;0,00913183
2006,5698;0,00903761
2007,5341;0,00903478
2008,4983;0,00911883
2009,4625;0,00923361
2010,4268;0,00930127
2011,3910;0,00926629
2012,3552;0,0091326
2013,3195;0,00897519
2014,2837;0,0089151
2015,2479;0,00906025
2016,2122;0,00943605
2017,1764;0,00995045
2018,1406;0,0104283
2019,1049;0,0107009
2020,0691;0,0106891
2021,0333;0,0104295
2021,9976;0,0100384
2022,9618;0,00964862
2023,9260;0,00935442
2024,8903;0,00918709
2025,8545;0,00912443
2026,8187;0,00912112
2027,7830;0,00914066
2028,7472;0,00917452
2029,7114;0,00924273
2030,6757;0,00937733
2031,6399;0,00959587
2032,6041;0,00987882
2033,5684;0,0101679
2034,5326;0,0103925
2035,4968;0,010508
2036,4611;0,0105196
2037,4253;0,0104718
2038,3895;0,0104132
2039,3538;0,0103645
2040,3180;0,0103096
2041,2822;0,0102178
2042,2465;0,0100768
2043,2107;0,00991261
2044,1749;0,00977905
2045,1392;0,00972534
2046,1034;0,00976348
2047,0676;0,00985752
2048,0320;0,00994372
2048,9961;0,00996984
2049,9604;0,00992551
2050,9246;0,00984348
2051,8889;0,00977655
2052,8530;0,00976798
2053,8174;0,00982952
2054,7815;0,00993422
2055,7458;0,0100271
2056,7100;0,0100513
2057,6743;0,00997642
2058,6384;0,00981512
2059,6028;0,00961766
2060,5669;0,0094496
2061,5313;0,00936419
2062,4954;0,00938259
2063,4597;0,00949007
2064,4238;0,00964761
2065,3882;0,00981089
2066,3523;0,00994549
2067,3167;0,0100314
2068,2808;0,0100591
2069,2451;0,0100247
2070,2092;0,00993067
2071,1736;0,0097913
2072,1377;0,00963621
2073,1021;0,0095048
2074,0662;0,00943142
2075,0305;0,00942886
2075,9946;0,00948081
2076,9590;0,0095495
2077,9231;0,0095951
2078,8875;0,00959611
2079,8516;0,0095589
2080,8159;0,00951152
2081,7800;0,00948654
2082,7444;0,00950354
2083,7085;0,0095604
2084,6729;0,00963653
2085,6370;0,00970369
2086,6013;0,00973799
2087,5654;0,00972772
2088,5298;0,00967598
2089,4939;0,00959925
2090,4583;0,00952312
2091,4224;0,0094757
2092,3867;0,00947923
2093,3508;0,00954132
2094,3152;0,0096496
2095,2793;0,00977371
2096,2437;0,00987629
2097,2078;0,00992858
2098,1721;0,00992236
2099,1362;0,00987212
2100,1006;0,00980753
2101,0647;0,00976216
2102,0291;0,00976199
2102,9932;0,00981868
2103,9575;0,00992669
2104,9216;0,010065
2105,8860;0,0102036
2106,8501;0,0103122
2107,8145;0,0103703
2108,7786;0,0103727
2109,7429;0,0103285
2110,7070;0,0102551
2111,6714;0,0101715
2112,6355;0,0100935
2113,5999;0,0100336
2114,5640;0,010001
2115,5283;0,0100003
2116,4924;0,0100273
2117,4568;0,0100675
2118,4209;0,0101011
2119,3853;0,0101123
2120,3494;0,0100994
2121,3137;0,0100764
2122,2778;0,0100652
2123,2422;0,0100827
2124,2063;0,0101315
2125,1707;0,0102002
2126,1348;0,0102712
2127,0991;0,010329
2128,0632;0,0103623
2129,0276;0,0103633
2129,9917;0,0103282
2130,9561;0,0102627
2131,9202;0,0101894
2132,8845;0,0101475
2133,8486;0,0101774
2134,8130;0,0102951
2135,7771;0,0104748
2136,7415;0,0106564
2137,7056;0,0107774
2138,6699;0,0108081
2139,6340;0,0107662
2140,5984;0,0107041
2141,5625;0,0106792
2142,5269;0,0107283
2143,4910;0,0108566
2144,4553;0,0110438
2145,4194;0,0112549
2146,3838;0,0114503
2147,3479;0,0115898
2148,3123;0,0116387
2149,2764;0,0115777
2150,2407;0,0114132
2151,2048;0,0111819
2152,1692;0,0109434
2153,1333;0,0107642
2154,0977;0,0106982
2155,0618;0,0107732
2156,0261;0,0109831
2156,9902;0,0112884
2157,9546;0,0116273
2158,9187;0,0119407
2159,8831;0,0121952
2160,8472;0,0123824
2161,8115;0,0124985
2162,7756;0,0125282
2163,7400;0,012451
2164,7041;0,0122636
2165,6685;0,0119972
2166,6326;0,0117086
2167,5969;0,0114511
2168,5610;0,011246
2169,5254;0,0110829
2170,4895;0,010948
2171,4539;0,0108566
2172,4180;0,0108577
2173,3823;0,0109976
2174,3464;0,0112647
2175,3108;0,0115642
2176,2749;0,0117565
2177,2393;0,0117424
2178,2034;0,0115337
2179,1677;0,0112539
2180,1318;0,0110626
2181,0962;0,0110517
2182,0603;0,0111849
2183,0247;0,0113254
2183,9888;0,011333
2184,9531;0,0111565
2185,9172;0,0108557
2186,8816;0,0105491
2187,8457;0,0103362
2188,8101;0,0102508
2189,7742;0,0102665
2190,7385;0,0103356
2191,7026;0,0104234
2192,6670;0,0105134
2193,6311;0,0105908
2194,5955;0,0106292
2195,5596;0,0105993
2196,5239;0,0104951
2197,4880;0,0103521
2198,4524;0,0102389
2199,4165;0,0102214
2200,3809;0,0103231
2201,3450;0,0105104
2202,3093;0,0107117
2203,2734;0,0108573
2204,2378;0,010912
2205,2019;0,0108812
2206,1663;0,0107909
2207,1304;0,0106637
2208,0947;0,0105096
2209,0588;0,0103366
2210,0232;0,0101666
2210,9873;0,0100368
2211,9517;0,00998258
2212,9158;0,0100126
2213,8801;0,0100989
2214,8442;0,0101906
2215,8086;0,0102439
2216,7727;0,0102449
2217,7371;0,0102104
2218,7012;0,0101681
2219,6655;0,0101358
2220,6296;0,0101137
2221,5940;0,0100951
2222,5581;0,010081
2223,5225;0,0100841
2224,4866;0,0101178
2225,4509;0,0101816
2226,4150;0,0102554
2227,3794;0,0103093
2228,3435;0,0103216
2229,3079;0,0102902
2230,2720;0,0102319
2231,2363;0,0101691
2232,2004;0,0101174
2233,1648;0,0100792
2234,1289;0,0100474
2235,0933;0,0100136
2236,0574;0,00997551
2237,0217;0,00993923
2237,9858;0,00991746
2238,9502;0,00992305
2239,9143;0,00996094
2240,8787;0,0100221
2241,8428;0,010084
2242,8071;0,0101195
2243,7712;0,0101116
2244,7356;0,010064
2245,6997;0,0100017
2246,6641;0,00995782
2247,6282;0,00995571
2248,5925;0,0099956
2249,5566;0,0100542
2250,5210;0,0100963
2251,4851;0,0100912
2252,4495;0,010027
2253,4136;0,00991664
2254,3779;0,00979608
2255,3420;0,00971233
2256,3064;0,0097052
2257,2705;0,00978808
2258,2349;0,0099374
2259,1990;0,0100987
2260,1633;0,0102095
2261,1274;0,0102292
2262,0918;0,0101591
2263,0559;0,0100402
2264,0203;0,00992884
2264,9844;0,00986535
2265,9487;0,00985509
2266,9128;0,00987268
2267,8772;0,0098836
2268,8413;0,009867
2269,8057;0,00982516
2270,7698;0,00977677
2271,7341;0,00974189
2272,6982;0,00972943
2273,6626;0,00973393
2274,6267;0,00974141
2275,5911;0,00973919
2276,5552;0,00972393
2277,5195;0,00970356
2278,4836;0,00969225
2279,4480;0,00970092
2280,4121;0,0097291
2281,3765;0,00976366
2282,3406;0,0097862
2283,3049;0,00978481
2284,2690;0,00976252
2285,2334;0,00973655
2286,1975;0,00972854
2287,1619;0,00975195
2288,1260;0,00980462
2289,0903;0,00987096
2290,0544;0,00993116
2291,0188;0,00997103
2291,9829;0,0099865
2292,9473;0,00998204
2293,9114;0,0099661
2294,8757;0,00994752
2295,8398;0,00993424
2296,8042;0,00993303
2297,7683;0,00994831
2298,7327;0,00997994
2299,6968;0,0100219
2300,6611;0,0100636
2301,6252;0,0100945
2302,5896;0,0101091
2303,5537;0,0101093
2304,5181;0,0101033
2305,4822;0,0101003
2306,4465;0,0101051
2307,4106;0,0101145
2308,3750;0,0101185
2309,3391;0,0101055
2310,3035;0,0100702
2311,2676;0,0100177
2312,2319;0,00996327
2313,1960;0,00992518
2314,1604;0,00991648
2315,1245;0,00993921
2316,0889;0,00998387
2317,0530;0,010033
2318,0173;0,0100662
2318,9814;0,0100667
2319,9458;0,0100284
2320,9099;0,00996157
2321,8743;0,00989112
2322,8384;0,00984446
2323,8027;0,00983493
2324,7668;0,00985432
2325,7312;0,00988031
2326,6953;0,00989207
2327,6597;0,00988356
2328,6238;0,00986695
2329,5881;0,00986406
2330,5522;0,00988976
2331,5166;0,00993806
2332,4807;0,00998159
2333,4451;0,00998553
2334,4092;0,00992717
2335,3735;0,00981088
2336,3376;0,00967209
2337,3020;0,00956702
2338,2661;0,00954786
2339,2305;0,00963201
2340,1946;0,00978274
2341,1589;0,00991553
2342,1230;0,00993665
2343,0874;0,00981254
2344,0515;0,00962691
2345,0159;0,00953483
2345,9800;0,00962935
2346,9443;0,00987733
2347,9084;0,0101736
2348,8728;0,0104207
2349,8369;0,0105702
2350,8013;0,0106279
2351,7654;0,0106349
2352,7297;0,0106344
2353,6938;0,0106412
2354,6582;0,0106412
2355,6223;0,0106203
2356,5867;0,0105838
2357,5508;0,010547
2358,5151;0,0105173
2359,4792;0,010488
2360,4436;0,0104451
2361,4077;0,0103754
2362,3721;0,0102709
2363,3362;0,0101306
2364,3005;0,0099625
2365,2646;0,00978244
2366,2290;0,0096096
2367,1931;0,00945971
2368,1575;0,00933961
2369,1216;0,00924521
2370,0859;0,00916424
2371,0500;0,0090841
2372,0144;0,00900158
2372,9785;0,0089279
2373,9429;0,00888458
2374,9070;0,00889194
2375,8713;0,00895751
2376,8354;0,00907187
2377,7998;0,00921383
2378,7639;0,00936059
2379,7283;0,00949625
2380,6924;0,00961422
2381,6567;0,00971426
2382,6208;0,00979777
2383,5852;0,00986504
2384,5493;0,00991548
2385,5137;0,00994959
2386,4778;0,00997061
2387,4421;0,00998437
2388,4063;0,0099975
2389,3706;0,010015
2390,3347;0,0100388
2391,2991;0,0100674
2392,2632;0,0100973
2393,2275;0,0101247
2394,1917;0,0101473
2395,1560;0,0101656
2396,1201;0,0101831
2397,0845;0,0102042
2398,0486;0,0102317
2399,0129;0,0102638
2399,9771;0,0102928
2400,9414;0,0103087
2401,9055;0,0103042
2402,8699;0,0102804
2403,8340;0,0102475
2404,7983;0,0102205
2405,7625;0,0102115
2406,7268;0,0102237
2407,6909;0,0102506
2408,6553;0,0102819
2409,6194;0,01031
2410,5837;0,0103338
2411,5479;0,0103569
2412,5122;0,0103821
2413,4763;0,0104073
2414,4407;0,0104268
2415,4048;0,0104359
2416,3691;0,0104354
2417,3333;0,0104326
2418,2976;0,0104371
2419,2617;0,0104549
2420,2261;0,0104848
2421,1902;0,0105193
2422,1545;0,0105492
2423,1187;0,0105679
2424,0830;0,0105731
2425,0471;0,0105662
2426,0115;0,0105506
2426,9756;0,0105313
2427,9399;0,0105145
2428,9041;0,0105078
2429,8684;0,0105175
2430,8325;0,0105465
2431,7969;0,0105916
2432,7610;0,0106444
2433,7253;0,0106946
2434,6895;0,0107342
2435,6538;0,0107606
2436,6179;0,010777
2437,5823;0,0107903
2438,5464;0,0108064
2439,5107;0,0108272
2440,4749;0,0108488
2441,4392;0,0108639
2442,4033;0,0108662
2443,3677;0,0108549
2444,3318;0,0108366
2445,2961;0,0108218
2446,2603;0,0108193
2447,2246;0,0108315
2448,1887;0,0108534
2449,1531;0,0108781
2450,1172;0,0109017
2451,0815;0,010927
2452,0457;0,0109597
2453,0100;0,0110019
2453,9741;0,0110476
2454,9385;0,0110834
2455,9026;0,0110958
2456,8669;0,0110797
2457,8311;0,011043
2458,7954;0,0110042
2459,7595;0,010984
2460,7239;0,0109953
2461,6880;0,0110368
2462,6523;0,0110932
2463,6165;0,0111426
2464,5808;0,011167
2465,5449;0,0111616
2466,5093;0,0111377
2467,4734;0,0111165
2468,4377;0,0111176
2469,4019;0,0111471
2470,3662;0,0111938
2471,3303;0,011235
2472,2947;0,01125
2473,2588;0,011232
2474,2231;0,0111914
2475,1873;0,011149
2476,1516;0,0111241
2477,1157;0,0111251
2478,0801;0,0111486
2479,0442;0,0111846
2480,0085;0,0112241
2480,9727;0,0112627
2481,9370;0,0112992
2482,9011;0,0113329
2483,8655;0,0113616
2484,8296;0,0113832
2485,7939;0,0113978
2486,7581;0,011408
2487,7224;0,0114164
2488,6865;0,0114234
2489,6509;0,0114264
2490,6150;0,011423
2491,5793;0,0114147
2492,5435;0,0114079
2493,5078;0,0114108
2494,4719;0,0114272
2495,4363;0,011453
2496,4004;0,0114775
2497,3647;0,0114901
2498,3289;0,0114871
2499,2932;0,0114745
2500,2573;0,0114642
2501,2217;0,0114662
2502,1858;0,0114826
2503,1501;0,0115064
2504,1143;0,0115261
2505,0786;0,0115325
2506,0427;0,011524
2507,0071;0,0115065
2507,9712;0,01149
2508,9355;0,0114836
2509,8997;0,0114916
2510,8640;0,0115128
2511,8281;0,0115419
2512,7925;0,0115722
2513,7566;0,0115979
2514,7209;0,0116157
2515,6851;0,011625
2516,6494;0,011628
2517,6135;0,0116284
2518,5779;0,0116301
2519,5420;0,0116352
2520,5063;0,0116428
2521,4705;0,011649
2522,4348;0,0116495
2523,3989;0,0116432
2524,3633;0,0116349
2525,3274;0,0116343
2526,2917;0,01165
2527,2559;0,0116831
2528,2202;0,0117241
2529,1843;0,0117569
2530,1487;0,011768
2531,1128;0,0117552
2532,0771;0,0117292
2533,0413;0,0117072
2534,0056;0,0117023
2534,9697;0,0117168
2535,9341;0,011742
2536,8982;0,0117664
2537,8625;0,0117826
2538,8267;0,0117905
2539,7910;0,011794
2540,7551;0,011796
2541,7195;0,0117955
2542,6836;0,0117889
2543,6479;0,011774
2544,6121;0,0117522
2545,5764;0,0117287
2546,5405;0,0117091
2547,5049;0,0116973
2548,4690;0,0116948
2549,4333;0,0117007
2550,3975;0,0117128
2551,3618;0,0117278
2552,3259;0,0117419
2553,2903;0,0117522
2554,2544;0,0117578
2555,2188;0,0117611
2556,1829;0,0117661
2557,1472;0,0117752
2558,1113;0,0117872
2559,0757;0,0117964
2560,0398;0,0117958
2561,0042;0,0117819
2561,9683;0,0117574
2562,9326;0,0117317
2563,8967;0,0117163
2564,8611;0,0117197
2565,8252;0,0117436
2566,7896;0,0117823
2567,7537;0,0118261
2568,7180;0,0118658
2569,6821;0,0118952
2570,6465;0,011912
2571,6106;0,0119159
2572,5750;0,0119073
2573,5391;0,0118873
2574,5034;0,011859
2575,4675;0,0118287
2576,4319;0,0118047
2577,3960;0,0117945
2578,3604;0,0118011
2579,3245;0,0118216
2580,2888;0,0118482
2581,2529;0,0118727
2582,2173;0,0118897
2583,1814;0,0118988
2584,1458;0,0119044
2585,1099;0,0119125
2586,0742;0,011928
2587,0383;0,0119515
2588,0027;0,0119788
2588,9668;0,0120021
2589,9312;0,0120133
2590,8953;0,0120086
2591,8596;0,0119906
2592,8237;0,0119681
2593,7881;0,011952
2594,7522;0,0119496
2595,7166;0,0119617
2596,6807;0,0119827
2597,6450;0,012005
2598,6091;0,0120238
2599,5735;0,0120386
2600,5376;0,0120519
2601,5020;0,0120657
2602,4661;0,01208
2603,4304;0,0120932
2604,3945;0,0121044
2605,3589;0,0121144
2606,3230;0,0121242
2607,2874;0,0121332
2608,2515;0,0121384
2609,2158;0,012137
2610,1799;0,0121303
2611,1443;0,0121247
2612,1084;0,0121301
2613,0728;0,012154
2614,0369;0,0121964
2615,0012;0,0122496
2615,9653;0,0123013
2616,9297;0,0123411
2617,8938;0,0123643
2618,8582;0,0123723
2619,8223;0,01237
2620,7866;0,0123626
2621,7507;0,0123545
2622,7151;0,0123496
2623,6792;0,0123522
2624,6436;0,0123657
2625,6077;0,0123909
2626,5720;0,0124241
2627,5361;0,0124573
2628,5005;0,012482
2629,4646;0,0124931
2630,4290;0,0124921
2631,3931;0,0124859
2632,3574;0,0124835
2633,3215;0,0124909
2634,2859;0,0125089
2635,2500;0,0125329
2636,2144;0,0125569
2637,1785;0,0125765
2638,1428;0,0125913
2639,1069;0,0126034
2640,0713;0,0126157
2641,0354;0,0126288
2641,9998;0,012641
2642,9639;0,0126496
2643,9282;0,0126534
2644,8923;0,0126545
2645,8567;0,0126582
2646,8208;0,0126707
2647,7852;0,0126955
2648,7493;0,0127309
2649,7136;0,0127708
2650,6777;0,0128063
2651,6421;0,0128309
2652,6062;0,0128427
2653,5706;0,0128455
2654,5347;0,0128462
2655,4990;0,0128519
2656,4631;0,0128663
2657,4275;0,0128898
2658,3916;0,0129193
2659,3560;0,0129508
2660,3201;0,0129807
2661,2844;0,0130065
2662,2485;0,0130269
2663,2129;0,0130424
2664,1770;0,0130542
2665,1414;0,0130639
2666,1055;0,0130726
2667,0698;0,0130806
2668,0339;0,0130876
2668,9983;0,0130933
2669,9624;0,0130989
2670,9268;0,0131061
2671,8909;0,013117
2672,8552;0,0131323
2673,8193;0,0131514
2674,7837;0,0131726
2675,7478;0,0131945
2676,7122;0,0132159
2677,6763;0,0132363
2678,6406;0,0132545
2679,6047;0,0132691
2680,5691;0,0132796
2681,5332;0,0132874
2682,4976;0,0132961
2683,4617;0,0133111
2684,4260;0,0133364
2685,3901;0,0133729
2686,3545;0,0134172
2687,3186;0,013463
2688,2830;0,013503
2689,2471;0,0135324
2690,2114;0,0135502
2691,1755;0,0135596
2692,1399;0,0135664
2693,1040;0,0135769
2694,0684;0,0135949
2695,0325;0,0136204
2695,9968;0,0136502
2696,9609;0,0136792
2697,9253;0,0137036
2698,8894;0,0137222
2699,8538;0,0137373
2700,8179;0,0137527
2701,7822;0,0137724
2702,7463;0,0137985
2703,7107;0,0138306
2704,6748;0,0138661
2705,6392;0,0139014
2706,6033;0,0139332
2707,5676;0,0139595
2708,5317;0,0139803
2709,4961;0,0139974
2710,4602;0,0140141
2711,4246;0,0140331
2712,3887;0,0140555
2713,3530;0,0140803
2714,3171;0,0141052
2715,2815;0,0141273
2716,2456;0,0141453
2717,2100;0,0141599
2718,1741;0,0141729
2719,1384;0,0141865
2720,1025;0,0142013
2721,0669;0,0142168
2722,0310;0,0142315
2722,9954;0,0142446
2723,9595;0,0142567
2724,9238;0,0142697
2725,8879;0,0142862
2726,8523;0,0143079
2727,8164;0,0143347
2728,7808;0,0143648
2729,7449;0,0143953
2730,7092;0,014424
2731,6733;0,0144497
2732,6377;0,0144729
2733,6018;0,014494
2734,5662;0,0145135
2735,5303;0,0145307
2736,4946;0,0145447
2737,4587;0,0145552
2738,4231;0,0145635
2739,3872;0,0145717
2740,3516;0,0145822
2741,3157;0,0145957
2742,2800;0,0146109
2743,2441;0,0146251
2744,2085;0,014636
2745,1726;0,0146432
2746,1370;0,0146483
2747,1011;0,0146541
2748,0654;0,0146629
2749,0295;0,0146756
2749,9939;0,0146919
2750,9580;0,0147111
2751,9224;0,014733
2752,8865;0,0147574
2753,8508;0,0147839
2754,8149;0,0148107
2755,7793;0,0148356
2756,7434;0,0148568
2757,7078;0,0148748
2758,6719;0,0148921
2759,6362;0,0149128
2760,6003;0,0149403
2761,5647;0,014975
2762,5288;0,0150138
2763,4932;0,0150509
2764,4573;0,0150803
2765,4216;0,0150991
2766,3857;0,0151087
2767,3501;0,0151148
2768,3142;0,0151241
2769,2786;0,0151413
2770,2427;0,0151666
2771,2070;0,0151963
2772,1711;0,0152253
2773,1355;0,0152501
2774,0996;0,0152704
2775,0640;0,0152887
2776,0281;0,0153084
2776,9924;0,0153315
2777,9565;0,0153589
2778,9209;0,0153899
2779,8850;0,0154243
2780,8494;0,0154618
2781,8135;0,0155023
2782,7778;0,0155445
2783,7419;0,0155866
2784,7063;0,0156263
2785,6704;0,0156621
2786,6348;0,015694
2787,5989;0,0157233
2788,5632;0,0157522
2789,5273;0,0157838
2790,4917;0,0158211
2791,4558;0,0158663
2792,4202;0,0159203
2793,3843;0,0159812
2794,3486;0,016045
2795,3127;0,0161067
2796,2771;0,0161624
2797,2412;0,0162112
2798,2056;0,016255
2799,1697;0,0162972
2800,1340;0,0163417
2801,0981;0,0163905
2802,0625;0,0164444
2803,0266;0,0165031
2803,9910;0,0165656
2804,9551;0,0166312
2805,9194;0,0166987
2806,8835;0,0167666
2807,8479;0,016834
2808,8120;0,0169002
2809,7764;0,0169656
2810,7405;0,0170318
2811,7048;0,0171006
2812,6689;0,0171732
2813,6333;0,0172501
2814,5974;0,0173306
2815,5618;0,0174132
2816,5259;0,0174972
2817,4902;0,0175828
2818,4543;0,0176714
2819,4187;0,0177648
2820,3828;0,0178638
2821,3472;0,017967
2822,3113;0,0180713
2823,2756;0,0181735
2824,2397;0,0182722
2825,2041;0,0183692
2826,1682;0,0184695
2827,1326;0,0185782
2828,0967;0,0186989
2829,0610;0,0188318
2830,0251;0,0189741
2830,9895;0,0191224
2831,9536;0,0192737
2832,9180;0,019427
2833,8821;0,0195821
2834,8464;0,0197389
2835,8105;0,019897
2836,7749;0,0200572
2837,7390;0,0202227
2838,7034;0,0203997
2839,6675;0,0205953
2840,6318;0,0208149
2841,5959;0,0210587
2842,5603;0,0213218
2843,5244;0,0215954
2844,4888;0,0218695
2845,4529;0,0221339
2846,4172;0,0223782
2847,3813;0,022591
2848,3457;0,0227611
2849,3098;0,0228808
2850,2742;0,0229498
2851,2383;0,0229776
2852,2026;0,0229808
2853,1667;0,022978
2854,1311;0,022984
2855,0952;0,0230064
2856,0596;0,0230461
2857,0237;0,0231007
2857,9880;0,0231679
2858,9521;0,0232474
2859,9165;0,02334
2860,8806;0,0234468
2861,8450;0,023568
2862,8091;0,0237024
2863,7734;0,0238482
2864,7375;0,0240023
2865,7019;0,0241603
2866,6660;0,0243158
2867,6304;0,0244614
2868,5945;0,02459
2869,5588;0,0246976
2870,5229;0,0247854
2871,4873;0,0248596
2872,4514;0,024929
2873,4158;0,0250021
2874,3799;0,0250827
2875,3442;0,0251694
2876,3083;0,0252564
2877,2727;0,0253373
2878,2368;0,0254084
2879,2012;0,0254706
2880,1653;0,0255281
2881,1296;0,0255866
2882,0938;0,0256499
2883,0581;0,0257183
2884,0222;0,0257888
2884,9866;0,0258567
2885,9507;0,0259182
2886,9150;0,0259719
2887,8792;0,0260194
2888,8435;0,0260644
2889,8076;0,0261108
2890,7720;0,0261608
2891,7361;0,0262146
2892,7004;0,0262705
2893,6646;0,0263267
2894,6289;0,0263824
2895,5930;0,026438
2896,5574;0,026494
2897,5215;0,0265493
2898,4858;0,0265999
2899,4500;0,0266405
2900,4143;0,0266672
2901,3784;0,0266797
2902,3428;0,0266824
2903,3069;0,0266817
2904,2712;0,0266829
2905,2354;0,0266876
2906,1997;0,0266944
2907,1638;0,0267025
2908,1282;0,0267151
2909,0923;0,02674
2910,0566;0,0267857
2911,0208;0,0268553
2911,9851;0,0269422
2912,9492;0,027031
2913,9136;0,0271019
2914,8777;0,027138
2915,8420;0,0271299
2916,8062;0,0270765
2917,7705;0,0269828
2918,7346;0,0268569
2919,6990;0,0267077
2920,6631;0,0265444
2921,6274;0,0263764
2922,5916;0,0262111
2923,5559;0,0260533
2924,5200;0,0259029
2925,4844;0,0257569
2926,4485;0,0256118
2927,4128;0,0254667
2928,3770;0,0253254
2929,3413;0,0251956
2930,3054;0,0250854
2931,2698;0,0249995
2932,2339;0,024937
2933,1982;0,0248905
2934,1624;0,0248494
2935,1267;0,0248026
2936,0908;0,0247416
2937,0552;0,0246623
2938,0193;0,0245644
2938,9836;0,0244508
2939,9478;0,0243253
2940,9121;0,0241915
2941,8762;0,0240503
2942,8406;0,0239
2943,8047;0,0237372
2944,7690;0,0235597
2945,7332;0,0233689
2946,6975;0,0231721
2947,6616;0,0229803
2948,6260;0,0228046
2949,5901;0,0226515
2950,5544;0,0225212
2951,5186;0,022408
2952,4829;0,0223035
2953,4470;0,0222006
2954,4114;0,0220947
2955,3755;0,0219837
2956,3398;0,0218674
2957,3040;0,0217469
2958,2683;0,0216243
2959,2324;0,0215035
2960,1968;0,0213898
2961,1609;0,0212883
2962,1252;0,0212012
2963,0894;0,0211267
2964,0537;0,0210585
2965,0178;0,0209875
2965,9822;0,0209055
2966,9463;0,0208078
2967,9106;0,0206948
2968,8748;0,0205713
2969,8391;0,0204447
2970,8032;0,0203221
2971,7676;0,0202081
2972,7317;0,0201041
2973,6960;0,0200082
2974,6602;0,0199168
2975,6245;0,0198263
2976,5886;0,0197346
2977,5530;0,0196423
2978,5171;0,0195527
2979,4814;0,0194701
2980,4456;0,0193981
2981,4099;0,0193374
2982,3740;0,019286
2983,3384;0,0192406
2984,3025;0,0191985
2985,2668;0,0191585
2986,2310;0,0191212
2987,1953;0,0190877
2988,1594;0,0190582
2989,1238;0,0190317
2990,0879;0,0190067
2991,0522;0,0189817
2992,0164;0,0189562
2992,9807;0,0189305
2993,9448;0,0189068
2994,9092;0,0188891
2995,8733;0,018882
2996,8376;0,0188892
2997,8018;0,0189109
2998,7661;0,0189431
2999,7302;0,0189787
3000,6946;0,0190105
3001,6587;0,0190351
3002,6230;0,0190537
3003,5872;0,0190712
3004,5515;0,0190919
3005,5156;0,0191166
3006,4800;0,0191413
3007,4441;0,0191601
3008,4084;0,0191694
3009,3726;0,0191705
3010,3369;0,0191705
3011,3010;0,0191789
3012,2654;0,0192035
3013,2295;0,019246
3014,1938;0,0193021
3015,1580;0,0193633
3016,1223;0,0194222
3017,0864;0,0194752
3018,0508;0,0195234
3019,0149;0,0195703
3019,9792;0,0196183
3020,9434;0,0196671
3021,9077;0,0197147
3022,8718;0,0197602
3023,8362;0,0198058
3024,8003;0,0198558
3025,7646;0,0199134
3026,7288;0,0199777
3027,6931;0,0200427
3028,6572;0,0201009
3029,6216;0,0201484
3030,5857;0,0201878
3031,5500;0,0202272
3032,5142;0,0202754
3033,4785;0,020336
3034,4426;0,0204062
3035,4070;0,0204792
3036,3711;0,0205498
3037,3354;0,0206175
3038,2996;0,0206861
3039,2639;0,0207599
3040,2280;0,0208397
3041,1924;0,0209218
3042,1565;0,0210004
3043,1208;0,0210712
3044,0850;0,0211347
3045,0493;0,0211954
3046,0134;0,02126
3046,9778;0,0213334
3047,9419;0,0214169
3048,9063;0,021507
3049,8704;0,0215972
3050,8347;0,0216802
3051,7988;0,0217511
3052,7632;0,0218103
3053,7273;0,021864
3054,6917;0,0219225
3055,6558;0,0219959
3056,6201;0,0220886
3057,5842;0,0221973
3058,5486;0,0223121
3059,5127;0,0224216
3060,4771;0,0225184
3061,4412;0,0226018
3062,4055;0,0226774
3063,3696;0,0227529
3064,3340;0,0228345
3065,2981;0,0229242
3066,2625;0,0230189
3067,2266;0,0231134
3068,1909;0,0232032
3069,1550;0,0232874
3070,1194;0,023369
3071,0835;0,0234534
3072,0479;0,0235447
3073,0120;0,0236431
3073,9763;0,0237441
3074,9404;0,0238413
3075,9048;0,0239303
3076,8689;0,0240115
3077,8333;0,0240898
3078,7974;0,0241711
3079,7617;0,0242584
3080,7258;0,0243499
3081,6902;0,0244411
3082,6543;0,0245282
3083,6187;0,0246107
3084,5828;0,0246916
3085,5471;0,0247755
3086,5112;0,0248658
3087,4756;0,0249624
3088,4397;0,0250624
3089,4041;0,0251613
3090,3682;0,0252551
3091,3325;0,0253423
3092,2966;0,0254252
3093,2610;0,0255095
3094,2251;0,0256011
3095,1895;0,0257033
3096,1536;0,0258138
3097,1179;0,0259249
3098,0820;0,0260271
3099,0464;0,0261151
3100,0105;0,0261913
3100,9749;0,0262655
3101,9390;0,0263499
3102,9033;0,0264522
3103,8674;0,0265707
3104,8318;0,0266952
3105,7959;0,0268129
3106,7603;0,0269154
3107,7244;0,0270038
3108,6887;0,027087
3109,6528;0,0271767
3110,6172;0,0272798
3111,5813;0,0273947
3112,5457;0,0275128
3113,5098;0,0276252
3114,4741;0,0277285
3115,4382;0,0278269
3116,4026;0,0279299
3117,3667;0,0280452
3118,3311;0,0281734
3119,2952;0,0283073
3120,2595;0,0284351
3121,2236;0,028547
3122,1880;0,0286401
3123,1521;0,0287202
3124,1165;0,028799
3125,0806;0,0288884
3126,0449;0,0289958
3127,0090;0,0291204
3127,9734;0,0292545
3128,9375;0,0293871
3129,9019;0,0295099
3130,8660;0,0296206
3131,8303;0,0297232
3132,7944;0,0298248
3133,7588;0,0299309
3134,7229;0,0300428
3135,6873;0,0301587
3136,6514;0,0302768
3137,6157;0,0303976
3138,5798;0,0305241
3139,5442;0,0306582
3140,5083;0,0307976
3141,4727;0,0309359
3142,4368;0,0310652
3143,4011;0,0311816
3144,3652;0,0312874
3145,3296;0,0313902
3146,2937;0,0314979
3147,2581;0,031614
3148,2222;0,031736
3149,1865;0,0318576
3150,1506;0,0319739
3151,1150;0,0320844
3152,0791;0,0321938
3153,0435;0,0323079
3154,0076;0,0324303
3154,9719;0,0325597
3155,9360;0,0326919
3156,9004;0,032823
3157,8645;0,0329523
3158,8289;0,033082
3159,7930;0,0332153
3160,7573;0,0333532
3161,7214;0,0334939
3162,6858;0,0336342
3163,6499;0,0337725
3164,6143;0,0339093
3165,5784;0,0340464
3166,5427;0,0341839
3167,5068;0,0343195
3168,4712;0,0344492
3169,4353;0,0345694
3170,3997;0,0346865
3171,3638;0,0348042
3172,3281;0,0349281
3173,2922;0,0350588
3174,2566;0,0351915
3175,2207;0,0353189
3176,1851;0,0354364
3177,1492;0,0355457
3178,1135;0,0356533
3179,0776;0,0357667
3180,0420;0,035889
3181,0061;0,0360179
3181,9705;0,036149
3182,9346;0,0362797
3183,8989;0,0364115
3184,8630;0,0365472
3185,8274;0,0366878
3186,7915;0,0368294
3187,7559;0,0369651
3188,7200;0,0370891
3189,6843;0,0372004
3190,6484;0,0373033
3191,6128;0,0374042
3192,5769;0,0375072
3193,5413;0,0376129
3194,5054;0,0377199
3195,4697;0,0378283
3196,4338;0,037941
3197,3982;0,0380622
3198,3623;0,0381941
3199,3267;0,0383341
3200,2908;0,0384752
3201,2551;0,0386099
3202,2192;0,0387341
3203,1836;0,0388494
3204,1477;0,0389625
3205,1121;0,0390817
3206,0762;0,0392133
3207,0405;0,0393582
3208,0046;0,0395111
3208,9690;0,039662
3209,9331;0,0397994
3210,8975;0,0399152
3211,8616;0,0400087
3212,8259;0,040087
3213,7900;0,0401629
3214,7544;0,0402484
3215,7185;0,0403496
3216,6829;0,0404644
3217,6470;0,0405853
3218,6113;0,0407049
3219,5754;0,0408208
3220,5398;0,0409362
3221,5039;0,0410566
3222,4683;0,0411841
3223,4324;0,0413153
3224,3967;0,0414428
3225,3608;0,04156
3226,3252;0,0416651
3227,2893;0,0417627
3228,2537;0,0418603
3229,2178;0,0419646
3230,1821;0,0420782
3231,1462;0,0421996
3232,1106;0,0423247
3233,0747;0,0424486
3234,0391;0,0425668
3235,0032;0,0426766
3235,9675;0,0427782
3236,9316;0,0428762
3237,8960;0,0429785
3238,8601;0,043093
3239,8245;0,0432233
3240,7886;0,0433655
3241,7529;0,04351
3242,7170;0,0436464
3243,6814;0,0437699
3244,6455;0,0438829
3245,6099;0,0439931
3246,5740;0,0441071
3247,5383;0,0442264
3248,5024;0,0443479
3249,4668;0,0444679
3250,4309;0,0445865
3251,3953;0,0447084
3252,3594;0,0448392
3253,3237;0,0449802
3254,2878;0,0451266
3255,2522;0,0452695
3256,2163;0,045402
3257,1807;0,0455237
3258,1448;0,0456413
3259,1091;0,045764
3260,0732;0,0458986
3261,0376;0,0460461
3262,0017;0,0462016
3262,9661;0,0463577
3263,9302;0,0465082
3264,8945;0,0466497
3265,8586;0,0467822
3266,8230;0,0469076
3267,7871;0,0470278
3268,7515;0,0471428
3269,7156;0,04725
3270,6799;0,0473448
3271,6440;0,0474226
3272,6084;0,0474828
3273,5725;0,0475308
3274,5369;0,0475775
3275,5010;0,047634
3276,4653;0,0477063
3277,4294;0,0477916
3278,3938;0,0478792
3279,3579;0,0479569
3280,3223;0,0480165
3281,2864;0,0480585
3282,2507;0,0480907
3283,2148;0,0481232
3284,1792;0,0481634
3285,1433;0,0482126
3286,1077;0,0482666
3287,0718;0,0483194
3288,0361;0,0483664
3289,0002;0,0484062
3289,9646;0,0484399
3290,9287;0,0484698
3291,8931;0,0484969
3292,8572;0,048521
3293,8215;0,0485413
3294,7856;0,0485582
3295,7500;0,0485746
3296,7141;0,0485946
3297,6785;0,0486213
3298,6426;0,0486549
3299,6069;0,0486912
3300,5710;0,048724
3301,5354;0,0487486
3302,4995;0,0487649
3303,4639;0,0487772
3304,4280;0,04879
3305,3923;0,0488042
3306,3564;0,0488146
3307,3208;0,0488131
3308,2849;0,0487952
3309,2493;0,0487657
3310,2134;0,048738
3311,1777;0,0487281
3312,1418;0,0487458
3313,1062;0,0487901
3314,0703;0,0488514
3315,0347;0,048919
3315,9988;0,048988
3316,9631;0,0490603
3317,9272;0,0491411
3318,8916;0,0492327
3319,8557;0,0493311
3320,8201;0,0494289
3321,7842;0,0495201
3322,7485;0,049604
3323,7126;0,0496848
3324,6770;0,0497677
3325,6411;0,0498546
3326,6055;0,0499429
3327,5696;0,0500276
3328,5339;0,050105
3329,4980;0,0501742
3330,4624;0,0502372
3331,4265;0,0502965
3332,3909;0,0503535
3333,3550;0,050407
3334,3193;0,0504536
3335,2834;0,0504886
3336,2478;0,0505072
3337,2119;0,0505058
3338,1763;0,0504836
3339,1404;0,0504421
3340,1047;0,0503844
3341,0688;0,0503143
3342,0332;0,0502353
3342,9973;0,0501513
3343,9617;0,0500669
3344,9258;0,0499872
3345,8901;0,049915
3346,8542;0,0498484
3347,8186;0,049779
3348,7827;0,0496946
3349,7471;0,0495846
3350,7112;0,0494465
3351,6755;0,0492884
3352,6396;0,0491259
3353,6040;0,0489753
3354,5681;0,0488458
3355,5325;0,0487369
3356,4966;0,0486406
3357,4609;0,0485481
3358,4250;0,0484553
3359,3894;0,0483645
3360,3535;0,0482809
3361,3179;0,0482074
3362,2820;0,0481413
3363,2463;0,0480748
3364,2104;0,0479989
3365,1748;0,0479088
3366,1389;0,0478057
3367,1033;0,0476961
3368,0674;0,0475876
3369,0317;0,0474852
3369,9958;0,047389
3370,9602;0,0472952
3371,9243;0,0471989
3372,8887;0,0470962
3373,8528;0,0469859
3374,8171;0,0468695
3375,7813;0,0467511
3376,7456;0,0466361
3377,7097;0,0465298
3378,6741;0,0464352
3379,6382;0,0463505
3380,6025;0,0462687
3381,5667;0,0461801
3382,5310;0,046078
3383,4951;0,0459644
3384,4595;0,0458504
3385,4236;0,0457515
3386,3879;0,0456774
3387,3521;0,0456253
3388,3164;0,0455804
3389,2805;0,0455237
3390,2449;0,0454423
3391,2090;0,0453362
3392,1733;0,0452172
3393,1375;0,0451007
3394,1018;0,0449971
3395,0659;0,0449073
3396,0303;0,0448247
3396,9944;0,0447406
3397,9587;0,0446481
3398,9229;0,0445442
3399,8872;0,0444292
3400,8513;0,0443062
3401,8157;0,0441803
3402,7798;0,0440571
3403,7441;0,0439408
3404,7083;0,0438327
3405,6726;0,0437307
3406,6367;0,0436305
3407,6011;0,0435276
3408,5652;0,0434181
3409,5295;0,043299
3410,4937;0,0431682
3411,4580;0,0430264
3412,4221;0,0428787
3413,3865;0,042734
3414,3506;0,0426006
3415,3149;0,0424794
3416,2791;0,0423606
3417,2434;0,0422265
3418,2075;0,0420614
3419,1719;0,0418618
3420,1360;0,0416414
3421,1003;0,0414255
3422,0645;0,0412373
3423,0288;0,0410864
3423,9929;0,0409664
3424,9573;0,0408608
3425,9214;0,0407531
3426,8857;0,0406321
3427,8499;0,040494
3428,8142;0,0403394
3429,7783;0,0401712
3430,7427;0,0399934
3431,7068;0,0398109
3432,6711;0,03963
3433,6353;0,039456
3434,5996;0,0392917
3435,5637;0,0391356
3436,5281;0,0389844
3437,4922;0,0388352
3438,4565;0,0386889
3439,4207;0,0385493
3440,3850;0,038419
3441,3491;0,0382945
3442,3135;0,0381644
3443,2776;0,0380131
3444,2419;0,0378294
3445,2061;0,0376146
3446,1704;0,0373855
3447,1345;0,037167
3448,0989;0,0369792
3449,0630;0,0368263
3450,0273;0,0366963
3450,9915;0,0365706
3451,9558;0,0364346
3452,9199;0,0362839
3453,8843;0,0361234
3454,8484;0,0359613
3455,8127;0,035802
3456,7769;0,0356432
3457,7412;0,0354786
3458,7053;0,0353034
3459,6697;0,0351194
3460,6338;0,0349345
3461,5981;0,0347585
3462,5623;0,0345964
3463,5266;0,0344448
3464,4907;0,034294
3465,4551;0,0341336
3466,4192;0,0339596
3467,3835;0,0337764
3468,3477;0,0335931
3469,3120;0,0334166
3470,2761;0,0332467
3471,2405;0,0330778
3472,2046;0,0329056
3473,1689;0,0327326
3474,1331;0,0325679
3475,0974;0,0324196
3476,0615;0,032286
3477,0259;0,0321537
3477,9900;0,0320056
3478,9543;0,0318322
3479,9185;0,0316402
3480,8828;0,0314493
3481,8469;0,0312798
3482,8113;0,0311378
3483,7754;0,0310112
3484,7397;0,030879
3485,7039;0,0307249
3486,6682;0,0305462
3487,6323;0,0303538
3488,5967;0,0301645
3489,5608;0,0299908
3490,5251;0,0298351
3491,4893;0,0296918
3492,4536;0,0295528
3493,4177;0,0294136
3494,3821;0,029276
3495,3462;0,0291456
3496,3105;0,0290259
3497,2747;0,0289131
3498,2390;0,0287937
3499,2031;0,0286508
3500,1675;0,028473
3501,1316;0,0282648
3502,0959;0,0280489
3503,0601;0,0278547
3504,0244;0,0276985
3504,9885;0,0275714
3505,9529;0,0274463
3506,9170;0,0272967
3507,8813;0,0271138
3508,8455;0,026912
3509,8098;0,0267199
3510,7739;0,0265609
3511,7383;0,0264379
3512,7024;0,0263343
3513,6667;0,0262281
3514,6309;0,0261068
3515,5952;0,0259728
3516,5593;0,0258381
3517,5237;0,0257138
3518,4878;0,0256012
3519,4521;0,0254908
3520,4163;0,0253688
3521,3806;0,0252258
3522,3447;0,0250617
3523,3091;0,0248846
3524,2732;0,0247034
3525,2375;0,0245215
3526,2017;0,0243372
3527,1660;0,0241502
3528,1301;0,0239677
3529,0945;0,0238033
3530,0586;0,0236681
3531,0229;0,0235616
3531,9871;0,0234691
3532,9514;0,0233682
3533,9155;0,0232402
3534,8799;0,0230812
3535,8440;0,0229073
3536,8083;0,0227476
3537,7725;0,0226283
3538,7368;0,0225573
3539,7009;0,0225192
3540,6653;0,0224817
3541,6294;0,0224068
3542,5938;0,0222652
3543,5579;0,022051
3544,5222;0,0217911
3545,4863;0,021536
3546,4507;0,0213293
3547,4148;0,0211797
3548,3792;0,0210607
3549,3433;0,020932
3550,3076;0,0207644
3551,2717;0,020557
3552,2361;0,0203379
3553,2002;0,0201478
3554,1646;0,0200117
3555,1287;0,0199244
3556,0930;0,0198576
3557,0571;0,0197812
3558,0215;0,0196834
3558,9856;0,0195788
3559,9500;0,0194983
3560,9141;0,0194648
3561,8784;0,0194688
3562,8425;0,0194605
3563,8069;0,0193621
3564,7710;0,0191023
3565,7354;0,0186758
3566,6995;0,0181878
3567,6638;0,0177973
3568,6279;0,0175903
3569,5923;0,0175359
3570,5564;0,0175498
3571,5208;0,017557
3572,4849;0,0175162
3573,4492;0,0174208
3574,4133;0,0172876
3575,3777;0,0171391
3576,3418;0,0169876
3577,3062;0,0168354
3578,2703;0,0166885
3579,2346;0,0165674
3580,1987;0,0165006
3581,1631;0,0165023
3582,1272;0,0165523
3583,0916;0,0165937
3584,0557;0,0165494
3585,0200;0,0163563
3585,9841;0,0160189
3586,9485;0,0156425
3587,9126;0,0153742
3588,8770;0,0152807
3589,8411;0,0153122
3590,8054;0,015368
3591,7695;0,0153628
3592,7339;0,0152563
3593,6980;0,0150631
3594,6624;0,0148415
3595,6265;0,0146519
3596,5908;0,0145138
3597,5549;0,0144029
3598,5193;0,0142849
3599,4834;0,0141526
3600,4478;0,0140325
3601,4119;0,0139605
3602,3762;0,0139476
3603,3403;0,0139685
3604,3047;0,0139755
3605,2688;0,013923
3606,2332;0,0137898
3607,1973;0,0135912
3608,1616;0,0133688
3609,1257;0,0131604
3610,0901;0,0129804
3611,0542;0,0128288
3612,0186;0,0127116
3612,9827;0,0126433
3613,9470;0,0126287
3614,9111;0,0126431
3615,8755;0,0126302
3616,8396;0,012526
3617,8040;0,0123022
3618,7681;0,0120074
3619,7324;0,0117584
3620,6965;0,0116614
3621,6609;0,011742
3622,6250;0,0119508
3623,5894;0,0122045
3624,5535;0,0124065
3625,5178;0,0124474
3626,4819;0,0122241
3627,4463;0,011718
3628,4104;0,0110902
3629,3748;0,0105996
3630,3389;0,0103635
3631,3032;0,0103068
3632,2673;0,0103043
3633,2317;0,0102773
3634,1958;0,0102057
3635,1602;0,0101078
3636,1243;0,0100123
3637,0886;0,00993456
3638,0527;0,00987251
3639,0171;0,00982056
3639,9812;0,00978728
3640,9456;0,00979834
3641,9097;0,0098809
3642,8740;0,0100412
3643,8381;0,0102492
3644,8025;0,0104319
3645,7666;0,0104702
3646,7310;0,0102211
3647,6951;0,00962417
3648,6594;0,00887141
3649,6235;0,00832342
3650,5879;0,00813776
3651,5520;0,00819766
3652,5164;0,00832664
3653,4805;0,0084022
3654,4448;0,00836506
3655,4089;0,00821989
3656,3733;0,00803161
3657,3374;0,00788265
3658,3018;0,00781171
3659,2659;0,00779983
3660,2302;0,00780926
3661,1943;0,00782496
3662,1587;0,00786687
3663,1228;0,00796941
3664,0872;0,00814543
3665,0513;0,00836266
3666,0156;0,00854794
3666,9797;0,00861592
3667,9441;0,00852262
3668,9082;0,00832477
3669,8726;0,00816309
3670,8367;0,0081352
3671,8010;0,00820399
3672,7651;0,00823653
3673,7295;0,00809658
3674,6936;0,00774293
3675,6580;0,0072962
3676,6221;0,00695457
3677,5864;0,0068118
3678,5505;0,00682484
3679,5149;0,00691548
3680,4790;0,00703938
3681,4434;0,00719224
3682,4075;0,00738751
3683,3718;0,0076285
3684,3359;0,00788886
3685,3003;0,00810706
3686,2644;0,00819615
3687,2288;0,00807907
3688,1929;0,00776083
3689,1572;0,00737997
3690,1213;0,00712086
3691,0857;0,00705607
3692,0498;0,00713259
3693,0142;0,00726724
3693,9783;0,00740623
3694,9426;0,00753002
3695,9067;0,00763682
3696,8711;0,00772409
3697,8352;0,00777698
3698,7996;0,0077707
3699,7637;0,00768943
3700,7280;0,00755271
3701,6921;0,0074235
3702,6565;0,00737657
3703,6206;0,0074501
3704,5850;0,007628
3705,5491;0,00785636
3706,5134;0,0080626
3707,4775;0,00816307
3708,4419;0,00807463
3709,4060;0,00775785
3710,3704;0,00728658
3711,3345;0,0068472
3712,2988;0,00660177
3713,2629;0,00657702
3714,2273;0,00670539
3715,1914;0,00690703
3716,1558;0,00712287
3717,1199;0,00731501
3718,0842;0,00746279
3719,0483;0,00756092
3720,0127;0,00761481
3720,9768;0,00763099
3721,9412;0,0076104
3722,9053;0,00755426
3723,8696;0,00747944
3724,8337;0,00742562
3725,7981;0,0074397
3726,7622;0,00754832
3727,7266;0,00774423
3728,6907;0,0079929
3729,6550;0,00824346
3730,6191;0,00843174
3731,5835;0,00848015
3732,5476;0,00831276
3733,5120;0,00790914
3734,4761;0,0073775
3735,4404;0,00693538
3736,4045;0,00675193
3737,3689;0,00684142
3738,3330;0,00711622
3739,2974;0,00746922
3740,2615;0,00779919
3741,2258;0,00800597
3742,1899;0,00800597
3743,1543;0,00779895
3744,1184;0,0075303
3745,0828;0,00740147
3746,0469;0,00747948
3747,0112;0,00765801
3747,9753;0,00775596
3748,9397;0,00761299
3749,9038;0,00719712
3750,8682;0,00669362
3751,8323;0,00637658
3752,7966;0,00634934
3753,7607;0,00651987
3754,7251;0,00674363
3755,6892;0,00690441
3756,6536;0,00693393
3757,6177;0,00682866
3758,5820;0,00665733
3759,5461;0,0065202
3760,5105;0,00647977
3761,4746;0,00653412
3762,4390;0,00664367
3763,4031;0,00676511
3764,3674;0,00686667
3765,3315;0,00692781
3766,2959;0,00693268
3767,2600;0,00686785
3768,2244;0,00673221
3769,1885;0,0065541
3770,1528;0,00639431
3771,1169;0,0063193
3772,0813;0,00636232
3773,0454;0,00650701
3774,0098;0,00670009
3774,9739;0,00687381
3775,9382;0,00696691
3776,9023;0,0069475
3777,8667;0,00683476
3778,8308;0,00669467
3779,7952;0,00659558
3780,7593;0,00656153
3781,7236;0,00656987
3782,6877;0,00658258
3783,6521;0,00657478
3784,6162;0,0065447
3785,5806;0,00650773
3786,5447;0,00648377
3787,5090;0,00648778
3788,4731;0,00652752
3789,4375;0,00660388
3790,4016;0,0067095
3791,3660;0,00682768
3792,3301;0,00693662
3793,2944;0,0070209
3794,2585;0,00708378
3795,2229;0,00714717
3796,1870;0,00723136
3797,1514;0,00732711
3798,1155;0,00738676
3799,0798;0,00735033
3800,0439;0,00719961
3801,0083;0,00699675
3801,9724;0,00684435
3802,9368;0,00679023
3803,9009;0,00679025
3804,8652;0,00675778
3805,8293;0,00663798
3806,7937;0,0064606
3807,7578;0,0063307
3808,7222;0,00634552
3809,6863;0,00652091
3810,6506;0,00679774
3811,6147;0,00708724
3812,5791;0,00730538
3813,5432;0,00740088
3814,5076;0,00738511
3815,4717;0,0073298
3816,4360;0,0073019
3817,4001;0,00729514
3818,3645;0,00723913
3819,3286;0,00707247
3820,2930;0,00681553
3821,2571;0,00657372
3822,2214;0,00644862
3823,1855;0,00645856
3824,1499;0,00655445
3825,1140;0,00667647
3826,0784;0,0067866
3827,0425;0,00687425
3828,0068;0,0069485
3828,9709;0,00702544
3829,9353;0,00711726
3830,8994;0,00722805
3831,8638;0,00735368
3832,8279;0,00748068
3833,7922;0,00758325
3834,7563;0,0076239
3835,7207;0,00756496
3836,6848;0,00739309
3837,6492;0,00714236
3838,6133;0,00688452
3839,5776;0,00668149
3840,5417;0,00654991
3841,5061;0,00647367
3842,4702;0,00643809
3843,4346;0,00644935
3844,3987;0,00653064
3845,3630;0,00670481
3846,3271;0,00697855
3847,2915;0,00733578
3848,2556;0,00773439
3849,2200;0,00809583
3850,1841;0,00828897
3851,1484;0,00814371
3852,1125;0,00757954
3853,0769;0,00681905
3854,0410;0,00628001
3855,0054;0,0061365
3855,9695;0,00627484
3856,9338;0,00653954
3857,8979;0,00682988
3858,8623;0,00708114
3859,8264;0,0072422
3860,7908;0,00727944
3861,7549;0,00720181
3862,7192;0,00707807
3863,6833;0,00700552
3864,6477;0,00704139
3865,6118;0,0071672
3866,5762;0,00731215
3867,5403;0,00739549
3868,5046;0,00736027
3869,4688;0,00719901
3870,4331;0,00696394
3871,3972;0,00674378
3872,3616;0,00661557
3873,3257;0,00661026
3874,2900;0,00671172
3875,2542;0,00687462
3876,2185;0,00704296
3877,1826;0,00716608
3878,1470;0,00721536
3879,1111;0,00719867
3880,0754;0,00715611
3881,0396;0,00712688
3882,0039;0,00711398
3882,9680;0,0070881
3883,9324;0,0070287
3884,8965;0,00695745
3885,8608;0,00692525
3886,8250;0,0069623
3887,7893;0,00704341
3888,7534;0,00710001
3889,7178;0,00706621
3890,6819;0,00693443
3891,6462;0,00678224
3892,6104;0,00672315
3893,5747;0,00681546
3894,5388;0,00703092
3895,5032;0,00729433
3896,4673;0,00752833
3897,4316;0,00767749
3898,3958;0,00771985
3899,3601;0,00766466
3900,3242;0,00753112
3901,2886;0,00732837
3902,2527;0,00706663
3903,2170;0,00678608
3904,1812;0,00655488
3905,1455;0,00642727
3906,1096;0,00641011
3907,0740;0,00647092
3908,0381;0,00656727
3909,0024;0,00666942
3909,9666;0,00676798
3910,9309;0,00686863
3911,8950;0,00697803
3912,8594;0,00708961
3913,8235;0,00717941
3914,7878;0,00721685
3915,7520;0,00718664
3916,7163;0,00710722
3917,6804;0,00702509
3918,6448;0,00698205
3919,6089;0,00698496
3920,5732;0,00700612
3921,5374;0,00700723
3922,5017;0,00696673
3923,4658;0,00689664
3924,4302;0,00683746
3925,3943;0,00682972
3926,3586;0,00688411
3927,3228;0,00697536
3928,2871;0,00705851
3929,2512;0,00709154
3930,2156;0,00705512
3931,1797;0,00696287
3932,1440;0,00685353
3933,1082;0,00676757
3934,0725;0,00672835
3935,0366;0,00674036
3936,0010;0,0067959
3936,9651;0,00687922
3937,9294;0,0069675
3938,8936;0,00703434
3939,8579;0,00705932
3940,8220;0,0070408
3941,7864;0,00700119
3942,7505;0,00697498
3943,7148;0,00698457
3944,6790;0,00702436
3945,6433;0,00706549
3946,6074;0,00707519
3947,5718;0,00703718
3948,5359;0,00696205
3949,5002;0,00688029
3950,4644;0,00682176
3951,4287;0,00679876
3952,3928;0,00680562
3953,3572;0,00683008
3954,3213;0,00686358
3955,2856;0,00690349
3956,2498;0,00694832
3957,2141;0,00699204
3958,1782;0,00702353
3959,1426;0,00703201
3960,1067;0,00701443
3961,0710;0,00697864
3962,0352;0,00693979
3962,9995;0,00691218
3963,9636;0,00690275
3964,9280;0,00690999
3965,8921;0,00692785
3966,8564;0,00695019
3967,8206;0,00697325
3968,7849;0,00699531
3969,7490;0,00701515
3970,7134;0,00703078
3971,6775;0,0070397
3972,6418;0,00704003
3973,6060;0,00703156
3974,5703;0,00701593
3975,5344;0,00699589
3976,4988;0,00697422
3977,4629;0,00695303
3978,4272;0,00693381
3979,3914;0,00691803
3980,3557;0,00690781
3981,3198;0,00690604
3982,2842;0,00691558
3983,2483;0,0069375
3984,2126;0,00696951
3985,1768;0,00700551
3986,1411;0,00703717
3987,1052;0,00705703
3988,0696;0,00706169
3989,0337;0,00705316
3989,9980;0,00703754
3990,9622;0,00702137
3991,9265;0,0070083
3992,8906;0,00699821
3993,8550;0,00698922
3994,8191;0,00698047
3995,7834;0,00697341
3996,7476;0,00697055
3997,7119;0,00697322
3998,6760;0,00698026
3999,6404;0,00698898
4000,6045;0,00693664

##### Extended Information
[Comments]
Sample name
Comment
Username
Division
Organization;UNIVERSIDAD INDUSTRIAL DE SANTANDER

[Detailed Information]
Creation date;17/03/2025 3:12 p.m.

Data array type;Linear data array
Horizontal axis;Wavenumber [cm-1]
Vertical axis;Abs
Start;399,193 cm-1
End;4000,6 cm-1
Data interval;0,964233 cm-1
Data points;3736    

[Measurement Information]
Model name;FT/IR-4X1typeA
Serial No.;A035162111

Accessory;ATR PRO 4X
Accessory S/N;A021162126
Incident angle;45 deg

Measurement date;17/03/2025 3:11 p.m.

Light source;Standard
Detector;TGS
Accumulation;40
Resolution;4 cm-1
Zero filling;On
Apodization;Cosine
Gain;Auto (8)
Aperture;Auto (7 mm)
Scan speed;Auto (2 mm/sec)
Filter;Auto (12800 Hz)

