TITLE;
DATA TYPE;INFRARED SPECTRUM
ORIGIN;JASCO
OWNER;
DATE;25/03/17
TIME;15:08:48
SPECTROMETER/DATA SYSTEM;
LOCALE;9226
RESOLUTION;
DELTAX;0,964233
XUNITS;1/CM
YUNITS;ABSORBANCE
FIRSTX;  399,1927
LASTX; 4000,6047
NPOINTS;    3736
FIRSTY;     0,17167
MAXY;     0,21876
MINY;     0,00643
XYDATA
399,1927;0,171666
400,1569;0,170181
401,1211;0,169104
402,0854;0,168654
403,0496;0,16878
404,0138;0,169343
404,9781;0,170149
405,9423;0,170948
406,9065;0,171498
407,8708;0,171667
408,8350;0,171508
409,7992;0,171208
410,7635;0,170967
411,7277;0,170875
412,6919;0,17089
413,6562;0,170912
414,6204;0,170903
415,5846;0,170932
416,5489;0,171163
417,5131;0,171742
418,4773;0,172603
419,4416;0,173379
420,4058;0,173725
421,3700;0,173668
422,3343;0,173479
423,2985;0,173394
424,2627;0,173492
425,2270;0,173693
426,1912;0,173818
427,1554;0,1737
428,1197;0,173273
429,0839;0,172592
430,0481;0,171791
431,0124;0,171021
431,9766;0,17039
432,9408;0,169943
433,9051;0,169656
434,8693;0,169466
435,8335;0,169301
436,7978;0,169099
437,7620;0,168827
438,7262;0,168478
439,6905;0,168073
440,6547;0,167662
441,6189;0,167315
442,5832;0,167095
443,5474;0,167015
444,5116;0,166999
445,4759;0,166905
446,4401;0,166594
447,4043;0,166011
448,3686;0,165212
449,3328;0,164347
450,2970;0,163591
451,2613;0,163062
452,2255;0,162758
453,1897;0,162572
454,1540;0,162378
455,1182;0,162112
456,0824;0,161812
457,0467;0,161585
458,0109;0,161499
458,9751;0,161503
459,9394;0,161458
460,9036;0,161247
461,8678;0,160853
462,8321;0,160333
463,7963;0,15977
464,7605;0,159228
465,7248;0,158749
466,6890;0,158375
467,6532;0,158165
468,6175;0,158185
469,5817;0,158464
470,5459;0,158947
471,5102;0,159484
472,4744;0,15989
473,4386;0,160044
474,4029;0,159958
475,3671;0,159722
476,3313;0,15943
477,2956;0,159135
478,2598;0,158867
479,2240;0,15866
480,1883;0,15856
481,1525;0,15861
482,1167;0,158823
483,0810;0,159176
484,0452;0,159622
485,0094;0,160107
485,9737;0,160574
486,9379;0,160964
487,9021;0,161224
488,8664;0,161329
489,8306;0,161307
490,7948;0,161256
491,7591;0,161307
492,7233;0,16156
493,6875;0,16202
494,6518;0,162602
495,6160;0,163193
496,5802;0,163714
497,5445;0,164141
498,5087;0,164487
499,4729;0,164761
500,4372;0,164952
501,4014;0,165042
502,3656;0,165036
503,3299;0,16498
504,2941;0,164947
505,2583;0,16501
506,2226;0,16522
507,1868;0,165597
508,1510;0,166132
509,1153;0,166778
510,0795;0,167459
511,0437;0,168081
512,0080;0,168572
512,9722;0,16891
513,9365;0,16914
514,9007;0,169358
515,8649;0,169669
516,8292;0,170134
517,7934;0,170721
518,7576;0,171317
519,7219;0,171791
520,6861;0,172075
521,6503;0,172179
522,6146;0,172164
523,5788;0,172107
524,5430;0,172068
525,5073;0,172079
526,4715;0,172133
527,4357;0,172186
528,4000;0,172178
529,3642;0,172052
530,3284;0,171775
531,2927;0,171344
532,2569;0,170793
533,2211;0,17019
534,1854;0,169625
535,1496;0,169181
536,1138;0,168919
537,0781;0,16886
538,0423;0,168982
539,0065;0,169221
539,9708;0,169488
540,9350;0,169692
541,8992;0,169772
542,8635;0,16972
543,8277;0,169586
544,7919;0,169459
545,7562;0,169431
546,7204;0,169559
547,6846;0,169842
548,6489;0,170231
549,6131;0,170658
550,5773;0,171076
551,5416;0,171478
552,5058;0,171897
553,4700;0,172369
554,4343;0,172903
555,3985;0,173443
556,3627;0,17388
557,3270;0,174086
558,2912;0,173975
559,2554;0,17354
560,2197;0,172863
561,1839;0,172075
562,1481;0,171301
563,1124;0,170616
564,0766;0,170027
565,0408;0,169498
566,0051;0,168988
566,9693;0,168487
567,9335;0,168025
568,8978;0,167655
569,8620;0,167419
570,8262;0,167315
571,7905;0,167296
572,7547;0,167286
573,7189;0,16721
574,6832;0,167022
575,6474;0,166726
576,6116;0,166367
577,5759;0,166013
578,5401;0,165714
579,5043;0,165485
580,4686;0,165305
581,4328;0,165135
582,3970;0,164942
583,3613;0,164718
584,3255;0,164477
585,2897;0,164244
586,2540;0,164045
587,2182;0,16389
588,1824;0,163776
589,1467;0,163686
590,1109;0,163598
591,0751;0,163492
592,0394;0,163359
593,0036;0,163202
593,9678;0,163029
594,9321;0,162847
595,8963;0,162657
596,8605;0,162449
597,8248;0,162213
598,7890;0,161941
599,7532;0,161636
600,7175;0,161302
601,6817;0,160949
602,6459;0,160585
603,6102;0,160219
604,5744;0,159857
605,5386;0,159494
606,5029;0,159112
607,4671;0,158677
608,4313;0,158157
609,3956;0,157542
610,3598;0,156857
611,3240;0,156154
612,2883;0,155488
613,2525;0,154877
614,2167;0,154295
615,1810;0,153675
616,1452;0,152947
617,1094;0,152077
618,0737;0,151088
619,0379;0,150046
620,0021;0,149014
620,9664;0,14802
621,9306;0,147058
622,8948;0,146113
623,8591;0,145187
624,8233;0,144312
625,7875;0,143519
626,7518;0,142831
627,7160;0,142235
628,6802;0,141689
629,6445;0,141142
630,6087;0,140561
631,5729;0,139943
632,5372;0,139311
633,5014;0,138695
634,4656;0,138114
635,4299;0,137576
636,3941;0,137076
637,3583;0,13661
638,3226;0,136177
639,2868;0,135775
640,2510;0,135392
641,2153;0,135012
642,1795;0,134616
643,1437;0,134196
644,1080;0,133763
645,0722;0,133337
646,0364;0,132932
647,0007;0,132552
647,9649;0,132191
648,9291;0,131844
649,8934;0,131522
650,8576;0,13125
651,8218;0,131046
652,7861;0,130918
653,7503;0,130866
654,7145;0,130889
655,6788;0,131002
656,6430;0,131219
657,6072;0,131537
658,5715;0,131909
659,5357;0,132248
660,4999;0,13246
661,4642;0,132508
662,4284;0,132441
663,3926;0,132354
664,3569;0,13232
665,3211;0,13232
666,2853;0,132191
667,2496;0,131629
668,2138;0,130421
669,1780;0,128807
670,1423;0,127281
671,1065;0,126034
672,0707;0,124955
673,0350;0,123876
673,9992;0,122671
674,9634;0,121299
675,9277;0,119815
676,8919;0,118331
677,8561;0,116942
678,8204;0,11569
679,7846;0,11457
680,7488;0,113575
681,7131;0,112699
682,6773;0,111933
683,6415;0,111257
684,6058;0,110643
685,5700;0,110078
686,5342;0,109566
687,4985;0,109126
688,4627;0,108776
689,4269;0,108514
690,3912;0,108316
691,3554;0,10814
692,3196;0,107936
693,2839;0,107675
694,2481;0,107355
695,2123;0,107006
696,1766;0,10667
697,1408;0,106376
698,1050;0,106126
699,0693;0,105889
700,0335;0,105625
700,9977;0,1053
701,9620;0,104904
702,9262;0,104449
703,8904;0,103962
704,8547;0,103472
705,8189;0,103002
706,7831;0,10256
707,7474;0,102143
708,7116;0,101732
709,6758;0,101297
710,6401;0,100813
711,6043;0,100265
712,5685;0,0996584
713,5328;0,0990124
714,4970;0,0983491
715,4612;0,0977602
716,4255;0,0970634
717,3897;0,0963347
718,3539;0,0955684
719,3182;0,0947786
720,2824;0,0939971
721,2466;0,0932556
722,2109;0,0925664
723,1751;0,0919167
724,1393;0,0912816
725,1036;0,0906424
726,0678;0,0899962
727,0320;0,0893515
727,9963;0,0887172
728,9605;0,0880932
729,9247;0,0874739
730,8890;0,086859
731,8532;0,086261
732,8174;0,0857018
733,7817;0,0851984
734,7459;0,0847513
735,7101;0,0843451
736,6744;0,0839604
737,6386;0,0835872
738,6028;0,0832293
739,5671;0,0828949
740,5313;0,0825848
741,4955;0,0822869
742,4598;0,0819824
743,4240;0,0816581
744,3882;0,0813138
745,3525;0,0809603
746,3167;0,0806092
747,2809;0,080264
748,2452;0,079919
749,2094;0,0795665
750,1736;0,079204
751,1379;0,0788374
752,1021;0,0784751
753,0663;0,078119
754,0306;0,0777606
754,9948;0,0773859
755,9590;0,0769857
756,9233;0,0765658
757,8875;0,0761472
758,8517;0,0757557
759,8160;0,0754086
760,7802;0,075104
761,7444;0,0748221
762,7087;0,0745366
763,6729;0,0742287
764,6371;0,0738965
765,6014;0,0735537
766,5656;0,0732205
767,5298;0,0729115
768,4941;0,072627
769,4583;0,0723529
770,4225;0,0720679
771,3868;0,071754
772,3510;0,0714057
773,3152;0,0710337
774,2795;0,0706612
775,2437;0,0703152
776,2079;0,0700157
777,1722;0,0697672
778,1364;0,069557
779,1006;0,0693584
780,0649;0,0691406
781,0291;0,0688784
781,9933;0,0685598
782,9576;0,0681889
783,9218;0,0677815
784,8860;0,0673595
785,8503;0,066944
786,8145;0,0665527
787,7787;0,0661988
788,7430;0,0658916
789,7072;0,0656349
790,6714;0,0654241
791,6357;0,0652459
792,5999;0,0650826
793,5641;0,0649202
794,5284;0,0647553
795,4926;0,064596
796,4568;0,0644542
797,4211;0,0643337
798,3853;0,0642234
799,3495;0,0640993
800,3138;0,0639372
801,2780;0,0637263
802,2422;0,0634771
803,2065;0,0632172
804,1707;0,0629788
805,1349;0,0627845
806,0992;0,0626395
807,0634;0,0625328
808,0276;0,0624446
808,9919;0,0623573
809,9561;0,062262
810,9203;0,0621605
811,8846;0,062062
812,8488;0,0619752
813,8130;0,0619022
814,7773;0,0618347
815,7415;0,0617571
816,7057;0,0616558
817,6700;0,0615289
818,6342;0,0613915
819,5984;0,0612706
820,5627;0,0611909
821,5269;0,0611602
822,4911;0,0611624
823,4554;0,0611651
824,4196;0,061136
825,3839;0,0610606
826,3481;0,0609485
827,3123;0,0608258
828,2766;0,0607188
829,2408;0,0606401
830,2050;0,0605834
831,1693;0,0605296
832,1335;0,0604574
833,0977;0,0603514
834,0620;0,0602057
835,0262;0,0600217
835,9904;0,0598065
836,9547;0,0595719
837,9189;0,0593325
838,8831;0,0591034
839,8474;0,0588956
840,8116;0,0587126
841,7758;0,0585512
842,7401;0,0584062
843,7043;0,0582759
844,6685;0,0581628
845,6328;0,0580716
846,5970;0,0580029
847,5612;0,0579503
848,5255;0,057902
849,4897;0,0578459
850,4539;0,0577752
851,4182;0,0576897
852,3824;0,0575944
853,3466;0,057497
854,3109;0,057407
855,2751;0,0573357
856,2393;0,0572953
857,2036;0,0572961
858,1678;0,0573396
859,1320;0,057415
860,0963;0,0575013
861,0605;0,057576
862,0247;0,0576269
862,9890;0,0576599
863,9532;0,0576971
864,9174;0,0577664
865,8817;0,0578883
866,8459;0,0580668
867,8101;0,0582899
868,7744;0,0585378
869,7386;0,0587942
870,7028;0,0590522
871,6671;0,0593116
872,6313;0,0595703
873,5955;0,0598149
874,5598;0,0600185
875,5240;0,0601486
876,4882;0,0601838
877,4525;0,0601295
878,4167;0,0600241
879,3809;0,0599297
880,3452;0,059911
881,3094;0,0600122
882,2736;0,0602441
883,2379;0,0605893
884,2021;0,0610196
885,1663;0,0615171
886,1306;0,0620834
887,0948;0,0627345
888,0590;0,0634829
889,0233;0,0643209
889,9875;0,0652128
890,9517;0,0661032
891,9160;0,0669338
892,8802;0,0676611
893,8444;0,0682655
894,8087;0,0687477
895,7729;0,0691174
896,7371;0,0693788
897,7014;0,0695237
898,6656;0,0695344
899,6298;0,0693962
900,5941;0,0691102
901,5583;0,0686998
902,5225;0,0682067
903,4868;0,0676783
904,4510;0,0671533
905,4152;0,0666557
906,3795;0,0661967
907,3437;0,0657822
908,3079;0,0654198
909,2722;0,0651202
910,2364;0,0648943
911,2007;0,0647489
912,1649;0,0646856
913,1292;0,0647018
914,0934;0,0647922
915,0576;0,0649478
916,0219;0,0651544
916,9861;0,0653929
917,9503;0,0656428
918,9146;0,0658885
919,8788;0,0661246
920,8430;0,0663551
921,8073;0,0665883
922,7715;0,0668287
923,7357;0,0670729
924,7000;0,0673101
925,6642;0,067528
926,6284;0,0677182
927,5927;0,0678796
928,5569;0,0680162
929,5211;0,0681339
930,4854;0,0682374
931,4496;0,0683317
932,4138;0,0684246
933,3781;0,0685276
934,3423;0,0686544
935,3065;0,0688154
936,2708;0,069015
937,2350;0,0692525
938,1992;0,0695281
939,1635;0,0698482
940,1277;0,0702259
941,0919;0,0706747
942,0562;0,0712004
943,0204;0,0717984
943,9846;0,0724583
944,9489;0,0731749
945,9131;0,0739548
946,8773;0,0748152
947,8416;0,0757728
948,8058;0,0768323
949,7700;0,0779817
950,7343;0,0791993
951,6985;0,0804664
952,6627;0,0817774
953,6270;0,0831412
954,5912;0,0845735
955,5554;0,0860857
956,5197;0,0876777
957,4839;0,0893374
958,4481;0,0910452
959,4124;0,0927801
960,3766;0,0945244
961,3408;0,0962655
962,3051;0,0979977
963,2693;0,0997225
964,2335;0,101449
965,1978;0,10319
966,1620;0,104963
967,1262;0,106785
968,0905;0,108667
969,0547;0,110623
970,0189;0,112663
970,9832;0,114804
971,9474;0,11707
972,9116;0,11949
973,8759;0,122098
974,8401;0,124921
975,8043;0,127974
976,7686;0,13125
977,7328;0,134715
978,6970;0,138313
979,6613;0,141967
980,6255;0,145595
981,5897;0,149117
982,5540;0,15246
983,5182;0,155569
984,4824;0,158408
985,4467;0,160964
986,4109;0,163243
987,3751;0,165274
988,3394;0,167094
989,3036;0,168741
990,2678;0,170242
991,2321;0,171607
992,1963;0,172834
993,1605;0,173913
994,1248;0,174848
995,0890;0,175657
996,0532;0,176377
997,0175;0,17705
997,9817;0,177711
998,9459;0,178379
999,9102;0,179061
1000,8744;0,179758
1001,8386;0,180483
1002,8029;0,181266
1003,7671;0,182146
1004,7313;0,183169
1005,6956;0,184371
1006,6598;0,185774
1007,6240;0,187386
1008,5883;0,1892
1009,5525;0,191195
1010,5167;0,193335
1011,4810;0,195566
1012,4452;0,197823
1013,4094;0,200037
1014,3737;0,202152
1015,3379;0,204135
1016,3021;0,205972
1017,2664;0,207661
1018,2306;0,209208
1019,1948;0,210618
1020,1591;0,211897
1021,1233;0,213055
1022,0875;0,214104
1023,0518;0,215053
1024,0160;0,215909
1024,9802;0,21667
1025,9445;0,21733
1026,9087;0,217882
1027,8729;0,218319
1028,8372;0,218624
1029,8014;0,218762
1030,7656;0,218673
1031,7299;0,218288
1032,6941;0,217541
1033,6583;0,216402
1034,6226;0,214895
1035,5868;0,213099
1036,5510;0,211137
1037,5153;0,209148
1038,4795;0,207258
1039,4437;0,205563
1040,4080;0,204117
1041,3722;0,202932
1042,3364;0,201986
1043,3007;0,201231
1044,2649;0,200602
1045,2291;0,200032
1046,1934;0,199458
1047,1576;0,19883
1048,1218;0,19811
1049,0861;0,197264
1050,0503;0,196259
1051,0145;0,195069
1051,9788;0,193679
1052,9430;0,1921
1053,9072;0,190358
1054,8715;0,188488
1055,8357;0,186506
1056,7999;0,184401
1057,7642;0,182131
1058,7284;0,179645
1059,6926;0,176912
1060,6569;0,173945
1061,6211;0,170812
1062,5853;0,167622
1063,5496;0,164497
1064,5138;0,161548
1065,4780;0,158848
1066,4423;0,156428
1067,4065;0,154273
1068,3707;0,152344
1069,3350;0,150583
1070,2992;0,148932
1071,2634;0,147338
1072,2277;0,145757
1073,1919;0,144148
1074,1561;0,142477
1075,1204;0,140718
1076,0846;0,138862
1077,0488;0,13692
1078,0131;0,134932
1078,9773;0,132955
1079,9415;0,131055
1080,9058;0,129289
1081,8700;0,127691
1082,8342;0,126269
1083,7985;0,125008
1084,7627;0,123885
1085,7269;0,122879
1086,6912;0,121982
1087,6554;0,121194
1088,6196;0,120521
1089,5839;0,11997
1090,5481;0,119537
1091,5123;0,119213
1092,4766;0,118982
1093,4408;0,11883
1094,4050;0,118748
1095,3693;0,118729
1096,3335;0,11877
1097,2977;0,118864
1098,2620;0,118998
1099,2262;0,119153
1100,1904;0,119302
1101,1547;0,119422
1102,1189;0,11949
1103,0831;0,119491
1104,0474;0,119418
1105,0116;0,119268
1105,9758;0,119045
1106,9401;0,118756
1107,9043;0,118405
1108,8685;0,117987
1109,8328;0,117478
1110,7970;0,116839
1111,7612;0,116025
1112,7255;0,115011
1113,6897;0,113808
1114,6539;0,112478
1115,6182;0,111113
1116,5824;0,109807
1117,5466;0,108622
1118,5109;0,107569
1119,4751;0,10661
1120,4393;0,105677
1121,4036;0,104696
1122,3678;0,103603
1123,3320;0,102359
1124,2963;0,100943
1125,2605;0,0993561
1126,2247;0,0976179
1127,1890;0,0957614
1128,1532;0,0938277
1129,1174;0,0918576
1130,0817;0,0898854
1131,0459;0,0879382
1132,0101;0,0860399
1132,9744;0,0842173
1133,9386;0,0825032
1134,9028;0,0809351
1135,8671;0,0795509
1136,8313;0,0783829
1137,7955;0,0774537
1138,7598;0,076773
1139,7240;0,0763356
1140,6882;0,0761211
1141,6525;0,0760969
1142,6167;0,0762245
1143,5809;0,076468
1144,5452;0,0768011
1145,5094;0,077208
1146,4736;0,07768
1147,4379;0,0782086
1148,4021;0,0787813
1149,3663;0,07938
1150,3306;0,0799836
1151,2948;0,0805706
1152,2590;0,0811189
1153,2233;0,0816047
1154,1875;0,0820002
1155,1517;0,0822729
1156,1160;0,082387
1157,0802;0,0823037
1158,0444;0,081981
1159,0087;0,0813737
1159,9729;0,0804355
1160,9371;0,0791265
1161,9014;0,0774248
1162,8656;0,075338
1163,8298;0,0729105
1164,7941;0,0702212
1165,7583;0,0673737
1166,7225;0,0644807
1167,6868;0,0616478
1168,6510;0,05896
1169,6152;0,0564737
1170,5795;0,0542157
1171,5437;0,0521889
1172,5079;0,0503826
1173,4722;0,0487822
1174,4364;0,0473745
1175,4006;0,0461486
1176,3649;0,0450919
1177,3291;0,0441881
1178,2933;0,0434176
1179,2576;0,0427612
1180,2218;0,0422027
1181,1860;0,0417307
1182,1503;0,0413371
1183,1145;0,0410152
1184,0787;0,0407603
1185,0430;0,0405714
1186,0072;0,0404528
1186,9714;0,0404137
1187,9357;0,0404649
1188,8999;0,0406148
1189,8641;0,0408665
1190,8284;0,0412172
1191,7926;0,0416599
1192,7568;0,042185
1193,7211;0,042781
1194,6853;0,0434355
1195,6495;0,0441353
1196,6138;0,0448676
1197,5780;0,0456212
1198,5422;0,0463873
1199,5065;0,047172
1200,4707;0,0479412
1201,4349;0,0487027
1202,3992;0,049448
1203,3634;0,0501678
1204,3276;0,0508548
1205,2919;0,0515065
1206,2561;0,0521286
1207,2203;0,0527351
1208,1846;0,053347
1209,1488;0,0539882
1210,1130;0,0546809
1211,0773;0,0554409
1212,0415;0,0562749
1213,0057;0,05718
1213,9700;0,0581451
1214,9342;0,0591551
1215,8984;0,0601932
1216,8627;0,0612432
1217,8269;0,0622909
1218,7911;0,063324
1219,7554;0,0643326
1220,7196;0,06531
1221,6838;0,0662509
1222,6481;0,067151
1223,6123;0,068005
1224,5765;0,0688071
1225,5408;0,069553
1226,5050;0,0702419
1227,4692;0,0708778
1228,4335;0,071466
1229,3977;0,0720101
1230,3619;0,0725077
1231,3262;0,0729515
1232,2904;0,0733329
1233,2546;0,0736465
1234,2189;0,0738938
1235,1831;0,0740818
1236,1473;0,0742198
1237,1116;0,0743151
1238,0758;0,0743713
1239,0400;0,0743887
1240,0043;0,0743661
1240,9685;0,0743024
1241,9327;0,074197
1242,8970;0,074049
1243,8612;0,0738567
1244,8254;0,0736172
1245,7897;0,0733277
1246,7539;0,0729865
1247,7181;0,0725962
1248,6824;0,0721641
1249,6466;0,0717026
1250,6108;0,0712262
1251,5751;0,0707489
1252,5393;0,0702804
1253,5035;0,0698241
1254,4678;0,0693763
1255,4320;0,0689283
1256,3962;0,068469
1257,3605;0,0679891
1258,3247;0,0674833
1259,2889;0,0669515
1260,2532;0,0663964
1261,2174;0,0658193
1262,1816;0,0652174
1263,1459;0,0645841
1264,1101;0,063913
1265,0743;0,0632013
1266,0386;0,0624521
1267,0028;0,0616722
1267,9670;0,0608694
1268,9313;0,0600503
1269,8955;0,0592209
1270,8597;0,0583871
1271,8240;0,0575551
1272,7882;0,0567292
1273,7524;0,0559105
1274,7167;0,0550985
1275,6809;0,0542938
1276,6451;0,0535016
1277,6094;0,0527313
1278,5736;0,0519927
1279,5378;0,0512908
1280,5021;0,050624
1281,4663;0,0499861
1282,4305;0,0493709
1283,3948;0,0487769
1284,3590;0,0482085
1285,3232;0,0476747
1286,2875;0,0471874
1287,2517;0,0467589
1288,2159;0,0463994
1289,1802;0,0461147
1290,1444;0,0459039
1291,1086;0,0457612
1292,0729;0,0456797
1293,0371;0,045656
1294,0013;0,0456926
1294,9656;0,0457959
1295,9298;0,0459715
1296,8940;0,0462193
1297,8583;0,0465334
1298,8225;0,0469041
1299,7867;0,047323
1300,7510;0,0477849
1301,7152;0,0482882
1302,6794;0,048833
1303,6437;0,0494198
1304,6079;0,0500473
1305,5721;0,0507116
1306,5364;0,0514055
1307,5006;0,0521189
1308,4648;0,052841
1309,4291;0,0535628
1310,3933;0,054277
1311,3575;0,0549759
1312,3218;0,0556467
1313,2860;0,0562692
1314,2502;0,0568165
1315,2145;0,0572593
1316,1787;0,0575723
1317,1429;0,0577406
1318,1072;0,0577669
1319,0714;0,0576751
1320,0356;0,0575056
1320,9999;0,057303
1321,9641;0,0571027
1322,9283;0,0569243
1323,8926;0,0567738
1324,8568;0,0566503
1325,8210;0,0565499
1326,7853;0,0564684
1327,7495;0,0564006
1328,7137;0,056339
1329,6780;0,0562733
1330,6422;0,0561913
1331,6064;0,0560807
1332,5707;0,0559301
1333,5349;0,0557279
1334,4991;0,0554584
1335,4634;0,0551003
1336,4276;0,0546321
1337,3918;0,0540487
1338,3561;0,0533835
1339,3203;0,052713
1340,2845;0,0521244
1341,2488;0,0516667
1342,2130;0,0513332
1343,1772;0,0510842
1344,1415;0,0508789
1345,1057;0,0506952
1346,0699;0,0505346
1347,0342;0,0504177
1347,9984;0,050373
1348,9626;0,0504233
1349,9269;0,0505754
1350,8911;0,0508175
1351,8553;0,0511262
1352,8196;0,0514781
1353,7838;0,0518625
1354,7480;0,0522863
1355,7123;0,0527662
1356,6765;0,0533125
1357,6407;0,0539172
1358,6050;0,0545536
1359,5692;0,0551846
1360,5334;0,0557753
1361,4977;0,056306
1362,4619;0,0567824
1363,4261;0,0572291
1364,3904;0,0576676
1365,3546;0,058101
1366,3188;0,0585143
1367,2831;0,0588849
1368,2473;0,0591914
1369,2115;0,0594179
1370,1758;0,0595498
1371,1400;0,0595653
1372,1042;0,0594342
1373,0685;0,0591336
1374,0327;0,0586757
1374,9969;0,0581166
1375,9612;0,0575212
1376,9254;0,0569126
1377,8896;0,0562611
1378,8539;0,0555204
1379,8181;0,0546768
1380,7823;0,0537723
1381,7466;0,0528814
1382,7108;0,0520556
1383,6750;0,0512852
1384,6393;0,0505083
1385,6035;0,0496646
1386,5677;0,0487658
1387,5320;0,0479191
1388,4962;0,0472546
1389,4604;0,0468248
1390,4247;0,0465858
1391,3889;0,0464506
1392,3531;0,0463397
1393,3174;0,0462071
1394,2816;0,0460492
1395,2458;0,0458983
1396,2101;0,0457982
1397,1743;0,0457793
1398,1385;0,0458512
1399,1028;0,046009
1400,0670;0,0462391
1401,0313;0,0465217
1401,9955;0,046834
1402,9597;0,0471575
1403,9240;0,0474865
1404,8882;0,047831
1405,8524;0,0482097
1406,8167;0,0486338
1407,7809;0,0491
1408,7451;0,0495984
1409,7094;0,050125
1410,6736;0,0506881
1411,6378;0,0513009
1412,6021;0,0519669
1413,5663;0,0526708
1414,5305;0,0533796
1415,4948;0,0540477
1416,4590;0,0546226
1417,4232;0,055061
1418,3875;0,0553605
1419,3517;0,0555709
1420,3159;0,0557436
1421,2802;0,0558788
1422,2444;0,0559358
1423,2086;0,0558771
1424,1729;0,0556977
1425,1371;0,05542
1426,1013;0,05506
1427,0656;0,0545974
1428,0298;0,0539863
1428,9940;0,053212
1429,9583;0,0523449
1430,9225;0,0515183
1431,8867;0,0508307
1432,8510;0,0502678
1433,8152;0,0497099
1434,7794;0,0490062
1435,7437;0,0480958
1436,7079;0,0471133
1437,6721;0,0463153
1438,6364;0,0458527
1439,6006;0,0456878
1440,5648;0,0457035
1441,5291;0,0458056
1442,4933;0,0459501
1443,4575;0,0461285
1444,4218;0,0463436
1445,3860;0,046592
1446,3502;0,0468606
1447,3145;0,0471352
1448,2787;0,0474117
1449,2429;0,0476986
1450,2072;0,0480071
1451,1714;0,0483396
1452,1356;0,0486823
1453,0999;0,0489964
1454,0641;0,0491988
1455,0283;0,0491444
1455,9926;0,0486811
1456,9568;0,0478793
1457,9210;0,0471506
1458,8853;0,0468157
1459,8495;0,0468157
1460,8137;0,0469354
1461,7780;0,0469735
1462,7422;0,0467565
1463,7064;0,0461628
1464,6707;0,0452184
1465,6349;0,0441401
1466,5991;0,0431763
1467,5634;0,0424093
1468,5276;0,0417425
1469,4918;0,0409864
1470,4561;0,0399232
1471,4203;0,0383863
1472,3845;0,0364251
1473,3488;0,0344103
1474,3130;0,0327696
1475,2772;0,0316225
1476,2415;0,0308254
1477,2057;0,0302051
1478,1699;0,0296591
1479,1342;0,029147
1480,0984;0,0286647
1481,0626;0,0282307
1482,0269;0,0278759
1482,9911;0,0276289
1483,9553;0,0274963
1484,9196;0,0274519
1485,8838;0,0274406
1486,8480;0,0273969
1487,8123;0,0272866
1488,7765;0,0271624
1489,7407;0,0271531
1490,7050;0,0273483
1491,6692;0,0277298
1492,6334;0,0282272
1493,5977;0,0287802
1494,5619;0,0293497
1495,5261;0,0299117
1496,4904;0,030461
1497,4546;0,0310213
1498,4188;0,0316339
1499,3831;0,0323208
1500,3473;0,0330682
1501,3115;0,0338424
1502,2758;0,0346004
1503,2400;0,0352803
1504,2042;0,0357684
1505,1685;0,0358597
1506,1327;0,0353243
1507,0969;0,0342675
1508,0612;0,0332762
1509,0254;0,0327155
1509,9896;0,0324649
1510,9539;0,0323069
1511,9181;0,0321008
1512,8823;0,0317662
1513,8466;0,0312601
1514,8108;0,0305843
1515,7750;0,029799
1516,7393;0,0289976
1517,7035;0,0282431
1518,6677;0,0275221
1519,6320;0,0267703
1520,5962;0,0259542
1521,5604;0,0251338
1522,5247;0,0244237
1523,4889;0,0238923
1524,4531;0,0235257
1525,4174;0,0232777
1526,3816;0,0231236
1527,3458;0,0230668
1528,3101;0,0231084
1529,2743;0,0232233
1530,2385;0,0233612
1531,2028;0,0234698
1532,1670;0,0235311
1533,1312;0,0235904
1534,0955;0,0237325
1535,0597;0,0240073
1536,0239;0,0243924
1536,9882;0,0248107
1537,9524;0,0251436
1538,9166;0,0252254
1539,8809;0,0249143
1540,8451;0,0243323
1541,8093;0,0238813
1542,7736;0,0237666
1543,7378;0,0238847
1544,7020;0,024093
1545,6663;0,0243195
1546,6305;0,0245403
1547,5947;0,0247456
1548,5590;0,0249258
1549,5232;0,025076
1550,4874;0,0252099
1551,4517;0,0253648
1552,4159;0,0255842
1553,3801;0,0258859
1554,3444;0,0262428
1555,3086;0,0265767
1556,2728;0,0267505
1557,2371;0,0265897
1558,2013;0,026083
1559,1655;0,0256256
1560,1298;0,0255978
1561,0940;0,0259332
1562,0582;0,0264286
1563,0225;0,0269673
1563,9867;0,0274987
1564,9509;0,0279913
1565,9152;0,0284147
1566,8794;0,0287495
1567,8436;0,0290145
1568,8079;0,0292833
1569,7721;0,0296437
1570,7363;0,0301271
1571,7006;0,0306943
1572,6648;0,0312801
1573,6290;0,0318292
1574,5933;0,0323115
1575,5575;0,0327389
1576,5217;0,0331748
1577,4860;0,0336904
1578,4502;0,0343039
1579,4144;0,0349882
1580,3787;0,0357098
1581,3429;0,0364442
1582,3071;0,037176
1583,2714;0,0378993
1584,2356;0,0386207
1585,1998;0,0393535
1586,1641;0,0401062
1587,1283;0,0408721
1588,0925;0,0416285
1589,0568;0,0423433
1590,0210;0,0429835
1590,9852;0,0435182
1591,9495;0,0439184
1592,9137;0,0441598
1593,8779;0,0442348
1594,8422;0,0441642
1595,8064;0,0439946
1596,7706;0,0437776
1597,7349;0,0435475
1598,6991;0,0433146
1599,6633;0,0430743
1600,6276;0,0428234
1601,5918;0,0425704
1602,5560;0,042336
1603,5203;0,0421412
1604,4845;0,0419923
1605,4487;0,0418742
1606,4130;0,0417592
1607,3772;0,0416296
1608,3414;0,0415017
1609,3057;0,0414286
1610,2699;0,0414665
1611,2341;0,0416294
1612,1984;0,041875
1613,1626;0,0421205
1614,1268;0,0422695
1615,0911;0,0422591
1616,0553;0,0421322
1617,0195;0,0420488
1617,9838;0,042147
1618,9480;0,0424226
1619,9122;0,0427747
1620,8765;0,0430971
1621,8407;0,0433221
1622,8049;0,0434403
1623,7692;0,0435005
1624,7334;0,0435679
1625,6976;0,0436706
1626,6619;0,0437962
1627,6261;0,0439323
1628,5903;0,0440943
1629,5546;0,0443129
1630,5188;0,044599
1631,4830;0,0449191
1632,4473;0,0451898
1633,4115;0,0452815
1634,3757;0,0450616
1635,3400;0,0445382
1636,3042;0,0439763
1637,2684;0,0436727
1638,2327;0,0436696
1639,1969;0,043843
1640,1611;0,0440815
1641,1254;0,0443295
1642,0896;0,0445559
1643,0538;0,0447121
1644,0181;0,0447092
1644,9823;0,0444501
1645,9465;0,0439553
1646,9108;0,043463
1647,8750;0,0432444
1648,8392;0,0433383
1649,8035;0,0435658
1650,7677;0,0436417
1651,7319;0,0432219
1652,6962;0,0421266
1653,6604;0,0408176
1654,6246;0,0400523
1655,5889;0,0399314
1656,5531;0,0401173
1657,5173;0,0403347
1658,4816;0,0404326
1659,4458;0,0403165
1660,4100;0,039928
1661,3743;0,0392931
1662,3385;0,0385685
1663,3027;0,0379625
1664,2670;0,0375762
1665,2312;0,0373544
1666,1954;0,0371487
1667,1597;0,03679
1668,1239;0,0361595
1669,0881;0,0352886
1670,0524;0,0343876
1671,0166;0,0336731
1671,9808;0,0331695
1672,9451;0,0327344
1673,9093;0,0322133
1674,8735;0,0315612
1675,8378;0,0308808
1676,8020;0,0303379
1677,7662;0,0300222
1678,7305;0,0298975
1679,6947;0,0298463
1680,6589;0,0297083
1681,6232;0,0292881
1682,5874;0,0284178
1683,5516;0,0271691
1684,5159;0,025965
1685,4801;0,0251775
1686,4443;0,0247897
1687,4086;0,0245987
1688,3728;0,0244557
1689,3370;0,024312
1690,3013;0,0241805
1691,2655;0,0240846
1692,2297;0,0240244
1693,1940;0,0239686
1694,1582;0,0238669
1695,1224;0,0236743
1696,0867;0,0233739
1697,0509;0,0229875
1698,0151;0,0225687
1698,9794;0,0221923
1699,9436;0,0219385
1700,9078;0,0218592
1701,8721;0,0219498
1702,8363;0,0221608
1703,8005;0,0224323
1704,7648;0,0227217
1705,7290;0,0230186
1706,6932;0,0233438
1707,6575;0,0237305
1708,6217;0,0242
1709,5859;0,0247508
1710,5502;0,0253631
1711,5144;0,0260041
1712,4786;0,0266299
1713,4429;0,0271883
1714,4071;0,0276302
1715,3713;0,0279414
1716,3356;0,0281886
1717,2998;0,0285085
1718,2640;0,0289882
1719,2283;0,0295958
1720,1925;0,0302519
1721,1567;0,0308999
1722,1210;0,0315119
1723,0852;0,0320744
1724,0494;0,0325815
1725,0137;0,0330364
1725,9779;0,0334534
1726,9421;0,0338523
1727,9064;0,0342462
1728,8706;0,0346259
1729,8348;0,0349468
1730,7991;0,0351202
1731,7633;0,0350319
1732,7275;0,0346268
1733,6918;0,0340285
1734,6560;0,0334924
1735,6202;0,033165
1736,5845;0,0329866
1737,5487;0,0328017
1738,5129;0,0324718
1739,4772;0,0319325
1740,4414;0,0312194
1741,4056;0,0304444
1742,3699;0,0297162
1743,3341;0,02907
1744,2983;0,0284714
1745,2626;0,0278594
1746,2268;0,0271703
1747,1910;0,0263385
1748,1553;0,025313
1749,1195;0,0241171
1750,0837;0,0228937
1751,0480;0,0218302
1752,0122;0,0210155
1752,9764;0,0203981
1753,9407;0,0198582
1754,9049;0,0192914
1755,8691;0,0186565
1756,8334;0,017978
1757,7976;0,0173073
1758,7618;0,0166683
1759,7261;0,0160394
1760,6903;0,0153911
1761,6545;0,0147374
1762,6188;0,0141429
1763,5830;0,0136692
1764,5472;0,0133248
1765,5115;0,0130646
1766,4757;0,0128261
1767,4399;0,0125602
1768,4042;0,0122409
1769,3684;0,0118568
1770,3326;0,0114059
1771,2969;0,010911
1772,2611;0,0104441
1773,2253;0,0101013
1774,1896;0,00993198
1775,1538;0,00990647
1776,1180;0,0099493
1777,0823;0,00998589
1778,0465;0,00997037
1779,0107;0,00989592
1779,9750;0,00978846
1780,9392;0,009682
1781,9034;0,00959218
1782,8677;0,0095136
1783,8319;0,00944087
1784,7961;0,0093865
1785,7604;0,0093749
1786,7246;0,00941882
1787,6888;0,00950199
1788,6531;0,00958032
1789,6173;0,00959723
1790,5815;0,00951016
1791,5458;0,00932733
1792,5100;0,00912341
1793,4742;0,00898915
1794,4385;0,00895811
1795,4027;0,00899908
1796,3669;0,00905776
1797,3312;0,00908875
1798,2954;0,00906726
1799,2596;0,00899326
1800,2239;0,00889088
1801,1881;0,00879673
1802,1523;0,00874021
1803,1166;0,00873086
1804,0808;0,0087606
1805,0450;0,00881236
1806,0093;0,00886637
1806,9735;0,00890307
1807,9377;0,00890617
1808,9020;0,0088685
1809,8662;0,0087986
1810,8304;0,00872099
1811,7947;0,00866427
1812,7589;0,00864439
1813,7231;0,008657
1814,6874;0,00868345
1815,6516;0,0087036
1816,6158;0,00870811
1817,5801;0,0087039
1818,5443;0,00870797
1819,5085;0,00873225
1820,4728;0,00877231
1821,4370;0,00880934
1822,4012;0,00882289
1823,3655;0,00880483
1824,3297;0,00876432
1825,2939;0,00871792
1826,2582;0,00867211
1827,2224;0,0086166
1828,1866;0,00853738
1829,1509;0,00843956
1830,1151;0,00835648
1831,0793;0,00832786
1832,0436;0,00836525
1833,0078;0,00844353
1833,9720;0,00852185
1834,9363;0,00857008
1835,9005;0,00858572
1836,8647;0,00859503
1837,8290;0,00863347
1838,7932;0,00871655
1839,7574;0,00882551
1840,7217;0,00891629
1841,6859;0,00894008
1842,6501;0,00886832
1843,6144;0,00871812
1844,5786;0,00855396
1845,5428;0,00844265
1846,5071;0,00840235
1847,4713;0,00840384
1848,4355;0,00840784
1849,3998;0,00839359
1850,3640;0,0083652
1851,3282;0,00834181
1852,2925;0,00834118
1853,2567;0,00836796
1854,2209;0,00841403
1855,1852;0,00846808
1856,1494;0,00852469
1857,1136;0,00858501
1858,0779;0,00864962
1859,0421;0,00871153
1860,0063;0,00875685
1860,9706;0,00877389
1861,9348;0,00876265
1862,8990;0,00873585
1863,8633;0,00871041
1864,8275;0,00869677
1865,7917;0,00869312
1866,7560;0,00868682
1867,7202;0,00866351
1868,6844;0,00861956
1869,6487;0,00856601
1870,6129;0,00851714
1871,5771;0,00847788
1872,5414;0,00844359
1873,5056;0,00840796
1874,4698;0,0083699
1875,4341;0,00833566
1876,3983;0,00831544
1877,3625;0,00831691
1878,3268;0,00834046
1879,2910;0,00837977
1880,2552;0,00842655
1881,2195;0,00847529
1882,1837;0,00852487
1883,1479;0,00857657
1884,1122;0,00863041
1885,0764;0,00868226
1886,0406;0,00872375
1887,0049;0,00874517
1887,9691;0,00874052
1888,9333;0,00871244
1889,8976;0,00867248
1890,8618;0,00863436
1891,8260;0,00860523
1892,7903;0,00858275
1893,7545;0,00855989
1894,7188;0,00853294
1895,6830;0,00850699
1896,6472;0,00849448
1897,6115;0,00850709
1898,5757;0,0085471
1899,5399;0,00860505
1900,5042;0,00866433
1901,4684;0,00870925
1902,4326;0,00873228
1903,3969;0,00873652
1904,3611;0,00873248
1905,3253;0,00873142
1906,2896;0,00873979
1907,2538;0,00875755
1908,2180;0,0087802
1909,1823;0,00880324
1910,1465;0,00882655
1911,1107;0,00885556
1912,0750;0,00889812
1913,0392;0,00895907
1914,0034;0,00903561
1914,9677;0,00911542
1915,9319;0,00917846
1916,8961;0,00920464
1917,8604;0,00918536
1918,8246;0,00913021
1919,7888;0,00906116
1920,7531;0,00899917
1921,7173;0,00895436
1922,6815;0,00892437
1923,6458;0,00889932
1924,6100;0,00886977
1925,5742;0,00883377
1926,5385;0,00879879
1927,5027;0,00877829
1928,4669;0,00878487
1929,4312;0,00882243
1930,3954;0,00888096
1931,3596;0,00893846
1932,3239;0,00897129
1933,2881;0,0089676
1934,2523;0,00893476
1935,2166;0,00889558
1936,1808;0,00887476
1937,1450;0,00888463
1938,1093;0,00891964
1939,0735;0,00896226
1940,0377;0,00899436
1941,0020;0,00900652
1941,9662;0,00900044
1942,9304;0,00898423
1943,8947;0,00896519
1944,8589;0,00894732
1945,8231;0,00893462
1946,7874;0,00893458
1947,7516;0,00895671
1948,7158;0,00900645
1949,6801;0,00907987
1950,6443;0,00916431
1951,6085;0,00924474
1952,5728;0,00930984
1953,5370;0,00935215
1954,5012;0,00936361
1955,4655;0,00933376
1956,4297;0,00925677
1957,3939;0,00914455
1958,3582;0,00903492
1959,3224;0,008983
1960,2866;0,00903475
1961,2509;0,00919808
1962,2151;0,00943427
1963,1793;0,0096783
1964,1436;0,00987306
1965,1078;0,00999379
1966,0720;0,0100496
1967,0363;0,0100648
1968,0005;0,0100545
1968,9647;0,0100148
1969,9290;0,00993126
1970,8932;0,00979479
1971,8574;0,00961082
1972,8217;0,00939904
1973,7859;0,00919076
1974,7501;0,00902915
1975,7144;0,00896662
1976,6786;0,00904781
1977,6428;0,00927792
1978,6071;0,00959962
1979,5713;0,00990633
1980,5355;0,0100904
1981,4998;0,0100948
1982,4640;0,00993911
1983,4282;0,00971073
1984,3925;0,00952603
1985,3567;0,00947774
1986,3209;0,00959232
1987,2852;0,00982019
1988,2494;0,0100631
1989,2136;0,0102229
1990,1779;0,0102481
1991,1421;0,0101602
1992,1063;0,0100432
1993,0706;0,00999713
1994,0348;0,0100833
1994,9990;0,0102961
1995,9633;0,010573
1996,9275;0,01083
1997,8917;0,0109996
1998,8560;0,0110573
1999,8202;0,0110254
2000,7844;0,010952
2001,7487;0,010883
2002,7129;0,0108441
2003,6771;0,0108405
2004,6414;0,0108677
2005,6056;0,0109185
2006,5698;0,0109819
2007,5341;0,0110385
2008,4983;0,0110632
2009,4625;0,0110383
2010,4268;0,0109675
2011,3910;0,0108816
2012,3552;0,0108303
2013,3195;0,0108663
2014,2837;0,0110266
2015,2479;0,0113151
2016,2122;0,0116919
2017,1764;0,0120782
2018,1406;0,0123823
2019,1049;0,0125371
2020,0691;0,0125291
2021,0333;0,0124017
2021,9976;0,0122338
2022,9618;0,0121033
2023,9260;0,0120522
2024,8903;0,0120689
2025,8545;0,0120977
2026,8187;0,0120708
2027,7830;0,0119448
2028,7472;0,0117236
2029,7114;0,0114579
2030,6757;0,0112243
2031,6399;0,0110952
2032,6041;0,0111126
2033,5684;0,0112784
2034,5326;0,0115618
2035,4968;0,0119164
2036,4611;0,0122923
2037,4253;0,0126365
2038,3895;0,0128898
2039,3538;0,0129929
2040,3180;0,0129098
2041,2822;0,0126582
2042,2465;0,0123208
2043,2107;0,0120201
2044,1749;0,0118633
2045,1392;0,0118882
2046,1034;0,01204
2047,0676;0,0121963
2048,0320;0,0122328
2048,9961;0,012092
2049,9604;0,0118101
2050,9246;0,0114881
2051,8889;0,0112393
2052,8530;0,0111432
2053,8174;0,0112205
2054,7815;0,0114287
2055,7458;0,0116773
2056,7100;0,0118626
2057,6743;0,0119091
2058,6384;0,0117993
2059,6028;0,0115772
2060,5669;0,0113251
2061,5313;0,0111253
2062,4954;0,0110267
2063,4597;0,0110311
2064,4238;0,0111049
2065,3882;0,011205
2066,3523;0,0113023
2067,3167;0,0113884
2068,2808;0,0114651
2069,2451;0,0115317
2070,2092;0,011579
2071,1736;0,0115946
2072,1377;0,0115727
2073,1021;0,0115195
2074,0662;0,0114512
2075,0305;0,0113857
2075,9946;0,0113354
2076,9590;0,0113037
2077,9231;0,0112876
2078,8875;0,0112816
2079,8516;0,0112827
2080,8159;0,0112932
2081,7800;0,0113197
2082,7444;0,01137
2083,7085;0,0114469
2084,6729;0,0115445
2085,6370;0,0116462
2086,6013;0,0117287
2087,5654;0,0117679
2088,5298;0,0117465
2089,4939;0,0116601
2090,4583;0,0115212
2091,4224;0,0113608
2092,3867;0,0112238
2093,3508;0,011159
2094,3152;0,0112021
2095,2793;0,011357
2096,2437;0,0115878
2097,2078;0,0118281
2098,1721;0,0120072
2099,1362;0,0120789
2100,1006;0,0120386
2101,0647;0,0119212
2102,0291;0,0117834
2102,9932;0,0116783
2103,9575;0,0116346
2104,9216;0,0116489
2105,8860;0,0116939
2106,8501;0,0117373
2107,8145;0,0117617
2108,7786;0,0117729
2109,7429;0,0117929
2110,7070;0,0118411
2111,6714;0,0119166
2112,6355;0,0119936
2113,5999;0,0120337
2114,5640;0,0120068
2115,5283;0,0119089
2116,4924;0,0117658
2117,4568;0,0116211
2118,4209;0,0115174
2119,3853;0,0114806
2120,3494;0,0115135
2121,3137;0,0115998
2122,2778;0,0117142
2123,2422;0,011832
2124,2063;0,0119348
2125,1707;0,0120112
2126,1348;0,012054
2127,0991;0,0120588
2128,0632;0,0120261
2129,0276;0,0119663
2129,9917;0,0119047
2130,9561;0,0118785
2131,9202;0,0119241
2132,8845;0,0120591
2133,8486;0,0122692
2134,8130;0,0125118
2135,7771;0,0127394
2136,7415;0,0129254
2137,7056;0,0130729
2138,6699;0,0131998
2139,6340;0,0133145
2140,5984;0,0134061
2141,5625;0,0134571
2142,5269;0,0134697
2143,4910;0,0134793
2144,4553;0,0135402
2145,4194;0,0136872
2146,3838;0,0139035
2147,3479;0,0141204
2148,3123;0,0142567
2149,2764;0,0142703
2150,2407;0,0141892
2151,2048;0,0140973
2152,1692;0,0140865
2153,1333;0,0142059
2154,0977;0,0144383
2155,0618;0,0147169
2156,0261;0,014968
2156,9902;0,0151575
2157,9546;0,0153091
2158,9187;0,0154738
2159,8831;0,0156695
2160,8472;0,0158474
2161,8115;0,0159183
2162,7756;0,015812
2163,7400;0,0155225
2164,7041;0,0151168
2165,6685;0,0147033
2166,6326;0,0143759
2167,5969;0,0141678
2168,5610;0,0140436
2169,5254;0,013937
2170,4895;0,0138061
2171,4539;0,0136697
2172,4180;0,0135996
2173,3823;0,0136698
2174,3464;0,0138951
2175,3108;0,0142024
2176,2749;0,0144609
2177,2393;0,0145552
2178,2034;0,0144497
2179,1677;0,0142032
2180,1318;0,0139277
2181,0962;0,0137209
2182,0603;0,0136161
2183,0247;0,013578
2183,9888;0,0135421
2184,9531;0,0134635
2185,9172;0,0133414
2186,8816;0,0132097
2187,8457;0,0131087
2188,8101;0,0130595
2189,7742;0,0130538
2190,7385;0,0130608
2191,7026;0,0130429
2192,6670;0,0129733
2193,6311;0,0128489
2194,5955;0,012693
2195,5596;0,012548
2196,5239;0,0124558
2197,4880;0,0124381
2198,4524;0,0124853
2199,4165;0,0125636
2200,3809;0,0126359
2201,3450;0,0126838
2202,3093;0,0127143
2203,2734;0,0127474
2204,2378;0,0127933
2205,2019;0,0128374
2206,1663;0,0128444
2207,1304;0,0127814
2208,0947;0,0126422
2209,0588;0,0124553
2210,0232;0,0122697
2210,9873;0,0121271
2211,9517;0,0120418
2212,9158;0,0120015
2213,8801;0,0119861
2214,8442;0,0119878
2215,8086;0,0120159
2216,7727;0,0120824
2217,7371;0,012182
2218,7012;0,0122855
2219,6655;0,0123545
2220,6296;0,0123669
2221,5940;0,0123336
2222,5581;0,0122919
2223,5225;0,0122793
2224,4866;0,0123077
2225,4509;0,0123553
2226,4150;0,0123814
2227,3794;0,0123519
2228,3435;0,0122587
2229,3079;0,0121216
2230,2720;0,0119754
2231,2363;0,0118532
2232,2004;0,0117763
2233,1648;0,0117524
2234,1289;0,0117774
2235,0933;0,0118372
2236,0574;0,0119088
2237,0217;0,011965
2237,9858;0,0119832
2238,9502;0,0119561
2239,9143;0,0118964
2240,8787;0,0118319
2241,8428;0,0117916
2242,8071;0,0117899
2243,7712;0,01182
2244,7356;0,0118587
2245,6997;0,0118807
2246,6641;0,0118726
2247,6282;0,0118381
2248,5925;0,0117917
2249,5566;0,0117467
2250,5210;0,0117061
2251,4851;0,0116633
2252,4495;0,0116105
2253,4136;0,0115489
2254,3779;0,0114914
2255,3420;0,011456
2256,3064;0,0114541
2257,2705;0,0114829
2258,2349;0,0115259
2259,1990;0,0115618
2260,1633;0,0115751
2261,1274;0,0115615
2262,0918;0,0115291
2263,0559;0,011492
2264,0203;0,0114646
2264,9844;0,011455
2265,9487;0,0114616
2266,9128;0,0114735
2267,8772;0,0114757
2268,8413;0,0114571
2269,8057;0,0114171
2270,7698;0,0113656
2271,7341;0,0113162
2272,6982;0,0112757
2273,6626;0,011239
2274,6267;0,0111944
2275,5911;0,0111353
2276,5552;0,0110714
2277,5195;0,0110268
2278,4836;0,0110258
2279,4480;0,0110754
2280,4121;0,0111568
2281,3765;0,0112339
2282,3406;0,0112722
2283,3049;0,0112569
2284,2690;0,0111983
2285,2334;0,0111245
2286,1975;0,0110662
2287,1619;0,0110435
2288,1260;0,0110602
2289,0903;0,0111062
2290,0544;0,0111631
2291,0188;0,0112119
2291,9829;0,0112382
2292,9473;0,0112363
2293,9114;0,0112108
2294,8757;0,0111747
2295,8398;0,0111454
2296,8042;0,0111375
2297,7683;0,0111587
2298,7327;0,0112073
2299,6968;0,0112739
2300,6611;0,0113443
2301,6252;0,0114034
2302,5896;0,0114384
2303,5537;0,0114422
2304,5181;0,0114162
2305,4822;0,0113712
2306,4465;0,0113244
2307,4106;0,011294
2308,3750;0,0112909
2309,3391;0,0113139
2310,3035;0,0113499
2311,2676;0,0113807
2312,2319;0,0113922
2313,1960;0,0113819
2314,1604;0,0113599
2315,1245;0,0113452
2316,0889;0,0113567
2317,0530;0,0114043
2318,0173;0,011482
2318,9814;0,0115656
2319,9458;0,0116205
2320,9099;0,0116195
2321,8743;0,0115602
2322,8384;0,0114681
2323,8027;0,0113787
2324,7668;0,0113147
2325,7312;0,0112756
2326,6953;0,011245
2327,6597;0,0112058
2328,6238;0,011155
2329,5881;0,0111077
2330,5522;0,0110877
2331,5166;0,0111078
2332,4807;0,0111562
2333,4451;0,0112003
2334,4092;0,0112045
2335,3735;0,0111513
2336,3376;0,0110516
2337,3020;0,0109418
2338,2661;0,010863
2339,2305;0,0108336
2340,1946;0,0108328
2341,1589;0,0108096
2342,1230;0,0107202
2343,0874;0,0105761
2344,0515;0,010459
2345,0159;0,0104638
2345,9800;0,0106203
2346,9443;0,0108828
2347,9084;0,011178
2348,8728;0,0114488
2349,8369;0,0116697
2350,8013;0,0118454
2351,7654;0,0119992
2352,7297;0,0121514
2353,6938;0,0122956
2354,6582;0,012391
2355,6223;0,0123872
2356,5867;0,0122611
2357,5508;0,0120337
2358,5151;0,011761
2359,4792;0,011505
2360,4436;0,0113025
2361,4077;0,0111521
2362,3721;0,0110294
2363,3362;0,0109123
2364,3005;0,0107944
2365,2646;0,0106819
2366,2290;0,0105837
2367,1931;0,0105038
2368,1575;0,0104415
2369,1216;0,0103936
2370,0859;0,010356
2371,0500;0,0103251
2372,0144;0,0102998
2372,9785;0,0102835
2373,9429;0,0102834
2374,9070;0,0103076
2375,8713;0,0103597
2376,8354;0,0104373
2377,7998;0,010533
2378,7639;0,0106377
2379,7283;0,0107444
2380,6924;0,0108488
2381,6567;0,0109491
2382,6208;0,0110439
2383,5852;0,0111311
2384,5493;0,0112082
2385,5137;0,0112735
2386,4778;0,011328
2387,4421;0,0113754
2388,4063;0,0114214
2389,3706;0,0114714
2390,3347;0,0115278
2391,2991;0,0115886
2392,2632;0,0116476
2393,2275;0,0116976
2394,1917;0,0117331
2395,1560;0,0117531
2396,1201;0,0117606
2397,0845;0,0117618
2398,0486;0,0117629
2399,0129;0,0117689
2399,9771;0,0117813
2400,9414;0,0117986
2401,9055;0,0118168
2402,8699;0,0118311
2403,8340;0,0118388
2404,7983;0,0118414
2405,7625;0,0118451
2406,7268;0,0118581
2407,6909;0,0118871
2408,6553;0,0119327
2409,6194;0,0119888
2410,5837;0,0120446
2411,5479;0,012089
2412,5122;0,0121148
2413,4763;0,0121211
2414,4407;0,0121132
2415,4048;0,0121008
2416,3691;0,0120947
2417,3333;0,0121029
2418,2976;0,0121271
2419,2617;0,0121622
2420,2261;0,012198
2421,1902;0,0122245
2422,1545;0,0122371
2423,1187;0,0122379
2424,0830;0,0122342
2425,0471;0,012233
2426,0115;0,0122376
2426,9756;0,0122474
2427,9399;0,0122612
2428,9041;0,0122806
2429,8684;0,0123104
2430,8325;0,0123548
2431,7969;0,0124122
2432,7610;0,0124741
2433,7253;0,0125274
2434,6895;0,0125617
2435,6538;0,0125752
2436,6179;0,0125758
2437,5823;0,0125772
2438,5464;0,012591
2439,5107;0,0126208
2440,4749;0,0126606
2441,4392;0,0126991
2442,4033;0,0127269
2443,3677;0,0127418
2444,3318;0,0127499
2445,2961;0,0127608
2446,2603;0,012781
2447,2246;0,0128094
2448,1887;0,012838
2449,1531;0,0128576
2450,1172;0,0128643
2451,0815;0,0128622
2452,0457;0,0128606
2453,0100;0,0128669
2453,9741;0,0128815
2454,9385;0,012898
2455,9026;0,0129088
2456,8669;0,0129123
2457,8311;0,0129152
2458,7954;0,0129288
2459,7595;0,0129613
2460,7239;0,0130119
2461,6880;0,0130704
2462,6523;0,0131227
2463,6165;0,0131587
2464,5808;0,0131764
2465,5449;0,0131808
2466,5093;0,0131798
2467,4734;0,0131798
2468,4377;0,0131846
2469,4019;0,0131957
2470,3662;0,0132143
2471,3303;0,0132407
2472,2947;0,0132734
2473,2588;0,0133075
2474,2231;0,0133361
2475,1873;0,0133522
2476,1516;0,0133524
2477,1157;0,0133393
2478,0801;0,0133215
2479,0442;0,0133116
2480,0085;0,0133212
2480,9727;0,0133553
2481,9370;0,0134087
2482,9011;0,0134669
2483,8655;0,0135126
2484,8296;0,013535
2485,7939;0,0135356
2486,7581;0,0135275
2487,7224;0,0135274
2488,6865;0,0135447
2489,6509;0,0135764
2490,6150;0,01361
2491,5793;0,0136331
2492,5435;0,0136419
2493,5078;0,0136433
2494,4719;0,0136489
2495,4363;0,0136661
2496,4004;0,0136926
2497,3647;0,0137189
2498,3289;0,0137352
2499,2932;0,0137386
2500,2573;0,0137352
2501,2217;0,0137362
2502,1858;0,0137509
2503,1501;0,0137802
2504,1143;0,013816
2505,0786;0,0138449
2506,0427;0,0138559
2507,0071;0,0138464
2507,9712;0,0138242
2508,9355;0,0138042
2509,8997;0,0138004
2510,8640;0,013819
2511,8281;0,0138552
2512,7925;0,0138966
2513,7566;0,0139301
2514,7209;0,0139496
2515,6851;0,0139578
2516,6494;0,0139643
2517,6135;0,013979
2518,5779;0,014006
2519,5420;0,0140409
2520,5063;0,0140733
2521,4705;0,0140918
2522,4348;0,0140904
2523,3989;0,0140721
2524,3633;0,0140478
2525,3274;0,0140309
2526,2917;0,0140297
2527,2559;0,0140426
2528,2202;0,0140593
2529,1843;0,0140667
2530,1487;0,0140584
2531,1128;0,0140394
2532,0771;0,0140236
2533,0413;0,0140254
2534,0056;0,0140511
2534,9697;0,0140952
2535,9341;0,0141441
2536,8982;0,0141843
2537,8625;0,0142083
2538,8267;0,0142164
2539,7910;0,0142122
2540,7551;0,014199
2541,7195;0,0141784
2542,6836;0,0141533
2543,6479;0,0141304
2544,6121;0,0141192
2545,5764;0,0141274
2546,5405;0,0141545
2547,5049;0,0141896
2548,4690;0,0142164
2549,4333;0,0142224
2550,3975;0,0142065
2551,3618;0,0141803
2552,3259;0,014162
2553,2903;0,0141661
2554,2544;0,0141952
2555,2188;0,0142402
2556,1829;0,0142852
2557,1472;0,0143166
2558,1113;0,0143276
2559,0757;0,0143197
2560,0398;0,0142989
2561,0042;0,0142728
2561,9683;0,0142486
2562,9326;0,0142328
2563,8967;0,0142308
2564,8611;0,014245
2565,8252;0,0142729
2566,7896;0,0143071
2567,7537;0,014338
2568,7180;0,0143578
2569,6821;0,0143643
2570,6465;0,0143605
2571,6106;0,0143523
2572,5750;0,0143449
2573,5391;0,0143409
2574,5034;0,0143412
2575,4675;0,0143468
2576,4319;0,0143596
2577,3960;0,0143812
2578,3604;0,0144101
2579,3245;0,0144412
2580,2888;0,0144666
2581,2529;0,0144801
2582,2173;0,0144807
2583,1814;0,0144736
2584,1458;0,0144686
2585,1099;0,0144757
2586,0742;0,0145002
2587,0383;0,0145402
2588,0027;0,0145878
2588,9668;0,0146317
2589,9312;0,0146617
2590,8953;0,0146726
2591,8596;0,0146662
2592,8237;0,0146503
2593,7881;0,0146358
2594,7522;0,0146324
2595,7166;0,0146455
2596,6807;0,014675
2597,6450;0,0147167
2598,6091;0,0147639
2599,5735;0,0148103
2600,5376;0,0148503
2601,5020;0,0148798
2602,4661;0,0148964
2603,4304;0,0149009
2604,3945;0,0148972
2605,3589;0,0148917
2606,3230;0,0148908
2607,2874;0,0148982
2608,2515;0,0149141
2609,2158;0,0149362
2610,1799;0,0149617
2611,1443;0,014989
2612,1084;0,0150172
2613,0728;0,0150457
2614,0369;0,0150728
2615,0012;0,0150977
2615,9653;0,0151209
2616,9297;0,0151451
2617,8938;0,0151733
2618,8582;0,0152066
2619,8223;0,0152424
2620,7866;0,0152758
2621,7507;0,0153023
2622,7151;0,0153207
2623,6792;0,0153335
2624,6436;0,0153455
2625,6077;0,015361
2626,5720;0,0153818
2627,5361;0,0154064
2628,5005;0,0154313
2629,4646;0,0154529
2630,4290;0,0154694
2631,3931;0,015482
2632,3574;0,0154942
2633,3215;0,0155101
2634,2859;0,0155318
2635,2500;0,0155591
2636,2144;0,0155895
2637,1785;0,0156209
2638,1428;0,0156532
2639,1069;0,0156882
2640,0713;0,0157269
2641,0354;0,0157671
2641,9998;0,015803
2642,9639;0,0158279
2643,9282;0,0158394
2644,8923;0,0158412
2645,8567;0,0158428
2646,8208;0,0158543
2647,7852;0,015881
2648,7493;0,0159208
2649,7136;0,0159656
2650,6777;0,016006
2651,6421;0,0160358
2652,6062;0,0160541
2653,5706;0,0160647
2654,5347;0,0160738
2655,4990;0,016087
2656,4631;0,0161073
2657,4275;0,0161351
2658,3916;0,0161682
2659,3560;0,0162033
2660,3201;0,0162377
2661,2844;0,0162698
2662,2485;0,0162997
2663,2129;0,0163284
2664,1770;0,0163566
2665,1414;0,0163841
2666,1055;0,0164096
2667,0698;0,0164319
2668,0339;0,0164507
2668,9983;0,0164671
2669,9624;0,0164824
2670,9268;0,0164981
2671,8909;0,0165147
2672,8552;0,0165324
2673,8193;0,0165512
2674,7837;0,0165718
2675,7478;0,0165947
2676,7122;0,0166195
2677,6763;0,0166446
2678,6406;0,0166686
2679,6047;0,0166915
2680,5691;0,0167159
2681,5332;0,0167461
2682,4976;0,0167858
2683,4617;0,0168354
2684,4260;0,016891
2685,3901;0,016946
2686,3545;0,0169939
2687,3186;0,0170313
2688,2830;0,0170585
2689,2471;0,0170785
2690,2114;0,0170956
2691,1755;0,0171134
2692,1399;0,017135
2693,1040;0,0171625
2694,0684;0,0171972
2695,0325;0,0172386
2695,9968;0,017284
2696,9609;0,017329
2697,9253;0,0173699
2698,8894;0,0174045
2699,8538;0,017434
2700,8179;0,0174616
2701,7822;0,0174909
2702,7463;0,0175243
2703,7107;0,0175621
2704,6748;0,0176025
2705,6392;0,0176427
2706,6033;0,0176801
2707,5676;0,0177134
2708,5317;0,0177428
2709,4961;0,0177702
2710,4602;0,0177983
2711,4246;0,0178294
2712,3887;0,017865
2713,3530;0,0179053
2714,3171;0,0179498
2715,2815;0,0179968
2716,2456;0,0180439
2717,2100;0,0180878
2718,1741;0,0181255
2719,1384;0,0181548
2720,1025;0,0181755
2721,0669;0,0181892
2722,0310;0,0181988
2722,9954;0,0182071
2723,9595;0,0182167
2724,9238;0,0182301
2725,8879;0,0182498
2726,8523;0,0182782
2727,8164;0,0183162
2728,7808;0,0183626
2729,7449;0,0184137
2730,7092;0,018465
2731,6733;0,0185122
2732,6377;0,0185523
2733,6018;0,0185833
2734,5662;0,0186036
2735,5303;0,0186131
2736,4946;0,0186139
2737,4587;0,0186113
2738,4231;0,0186131
2739,3872;0,0186265
2740,3516;0,0186545
2741,3157;0,0186944
2742,2800;0,0187386
2743,2441;0,0187782
2744,2085;0,0188065
2745,1726;0,0188216
2746,1370;0,018826
2747,1011;0,0188256
2748,0654;0,0188279
2749,0295;0,0188399
2749,9939;0,0188664
2750,9580;0,018908
2751,9224;0,0189606
2752,8865;0,0190159
2753,8508;0,0190648
2754,8149;0,0191006
2755,7793;0,0191223
2756,7434;0,0191347
2757,7078;0,0191461
2758,6719;0,0191653
2759,6362;0,0191983
2760,6003;0,0192461
2761,5647;0,0193048
2762,5288;0,0193665
2763,4932;0,0194222
2764,4573;0,0194651
2765,4216;0,0194938
2766,3857;0,0195128
2767,3501;0,0195307
2768,3142;0,0195556
2769,2786;0,0195906
2770,2427;0,0196323
2771,2070;0,0196734
2772,1711;0,0197078
2773,1355;0,0197344
2774,0996;0,0197581
2775,0640;0,0197866
2776,0281;0,0198255
2776,9924;0,0198752
2777,9565;0,0199317
2778,9209;0,0199898
2779,8850;0,0200467
2780,8494;0,0201029
2781,8135;0,0201602
2782,7778;0,0202194
2783,7419;0,0202777
2784,7063;0,0203302
2785,6704;0,0203729
2786,6348;0,0204064
2787,5989;0,0204368
2788,5632;0,0204738
2789,5273;0,020527
2790,4917;0,0206005
2791,4558;0,0206912
2792,4202;0,0207898
2793,3843;0,0208848
2794,3486;0,0209674
2795,3127;0,0210355
2796,2771;0,0210927
2797,2412;0,0211461
2798,2056;0,0212019
2799,1697;0,0212632
2800,1340;0,0213308
2801,0981;0,0214045
2802,0625;0,0214858
2803,0266;0,0215767
2803,9910;0,0216782
2804,9551;0,0217874
2805,9194;0,0218983
2806,8835;0,0220042
2807,8479;0,0221013
2808,8120;0,0221909
2809,7764;0,0222786
2810,7405;0,0223707
2811,7048;0,0224719
2812,6689;0,0225829
2813,6333;0,022702
2814,5974;0,0228266
2815,5618;0,0229545
2816,5259;0,0230848
2817,4902;0,0232169
2818,4543;0,0233507
2819,4187;0,0234868
2820,3828;0,0236267
2821,3472;0,0237719
2822,3113;0,0239237
2823,2756;0,0240813
2824,2397;0,0242423
2825,2041;0,0244041
2826,1682;0,0245656
2827,1326;0,0247289
2828,0967;0,0248989
2829,0610;0,0250816
2830,0251;0,0252815
2830,9895;0,0254998
2831,9536;0,0257341
2832,9180;0,0259798
2833,8821;0,0262321
2834,8464;0,0264876
2835,8105;0,0267453
2836,7749;0,0270072
2837,7390;0,0272775
2838,7034;0,0275622
2839,6675;0,0278682
2840,6318;0,0282017
2841,5959;0,028567
2842,5603;0,0289648
2843,5244;0,0293918
2844,4888;0,0298387
2845,4529;0,0302901
2846,4172;0,0307248
2847,3813;0,031118
2848,3457;0,0314467
2849,3098;0,0316955
2850,2742;0,0318608
2851,2383;0,0319521
2852,2026;0,0319878
2853,1667;0,0319903
2854,1311;0,0319796
2855,0952;0,0319709
2856,0596;0,0319743
2857,0237;0,031996
2857,9880;0,0320402
2858,9521;0,0321089
2859,9165;0,0322027
2860,8806;0,0323207
2861,8450;0,0324612
2862,8091;0,0326225
2863,7734;0,0328026
2864,7375;0,0329984
2865,7019;0,0332053
2866,6660;0,0334165
2867,6304;0,0336236
2868,5945;0,0338177
2869,5588;0,0339916
2870,5229;0,0341419
2871,4873;0,03427
2872,4514;0,0343825
2873,4158;0,0344885
2874,3799;0,0345958
2875,3442;0,0347079
2876,3083;0,0348227
2877,2727;0,0349344
2878,2368;0,0350379
2879,2012;0,0351319
2880,1653;0,0352196
2881,1296;0,0353065
2882,0938;0,0353968
2883,0581;0,0354908
2884,0222;0,0355852
2884,9866;0,035676
2885,9507;0,0357611
2886,9150;0,035842
2887,8792;0,0359222
2888,8435;0,0360046
2889,8076;0,0360891
2890,7720;0,0361727
2891,7361;0,0362518
2892,7004;0,0363244
2893,6646;0,0363922
2894,6289;0,0364598
2895,5930;0,0365313
2896,5574;0,0366083
2897,5215;0,0366881
2898,4858;0,036765
2899,4500;0,0368334
2900,4143;0,0368905
2901,3784;0,0369375
2902,3428;0,0369789
2903,3069;0,0370196
2904,2712;0,0370638
2905,2354;0,0371136
2906,1997;0,0371706
2907,1638;0,0372378
2908,1282;0,0373208
2909,0923;0,0374272
2910,0566;0,0375637
2911,0208;0,0377327
2911,9851;0,0379299
2912,9492;0,0381432
2913,9136;0,0383548
2914,8777;0,0385439
2915,8420;0,0386899
2916,8062;0,0387761
2917,7705;0,0387927
2918,7346;0,0387381
2919,6990;0,03862
2920,6631;0,0384528
2921,6274;0,038254
2922,5916;0,038039
2923,5559;0,0378179
2924,5200;0,0375945
2925,4844;0,0373687
2926,4485;0,0371396
2927,4128;0,0369089
2928,3770;0,036682
2929,3413;0,0364667
2930,3054;0,03627
2931,2698;0,0360949
2932,2339;0,0359384
2933,1982;0,0357924
2934,1624;0,0356458
2935,1267;0,0354889
2936,0908;0,035316
2937,0552;0,0351261
2938,0193;0,0349212
2938,9836;0,0347039
2939,9478;0,0344752
2940,9121;0,0342342
2941,8762;0,0339795
2942,8406;0,0337109
2943,8047;0,0334314
2944,7690;0,033147
2945,7332;0,0328658
2946,6975;0,032596
2947,6616;0,0323435
2948,6260;0,0321098
2949,5901;0,0318922
2950,5544;0,0316857
2951,5186;0,0314859
2952,4829;0,0312914
2953,4470;0,0311034
2954,4114;0,0309237
2955,3755;0,030751
2956,3398;0,0305807
2957,3040;0,0304066
2958,2683;0,030225
2959,2324;0,0300371
2960,1968;0,0298485
2961,1609;0,0296667
2962,1252;0,0294968
2963,0894;0,02934
2964,0537;0,0291934
2965,0178;0,0290522
2965,9822;0,0289104
2966,9463;0,0287623
2967,9106;0,0286027
2968,8748;0,0284284
2969,8391;0,0282404
2970,8032;0,028044
2971,7676;0,0278482
2972,7317;0,0276628
2973,6960;0,0274943
2974,6602;0,0273439
2975,6245;0,0272082
2976,5886;0,0270814
2977,5530;0,0269586
2978,5171;0,0268376
2979,4814;0,0267192
2980,4456;0,0266056
2981,4099;0,0264987
2982,3740;0,0263996
2983,3384;0,0263088
2984,3025;0,0262263
2985,2668;0,0261522
2986,2310;0,0260853
2987,1953;0,0260232
2988,1594;0,0259621
2989,1238;0,0258995
2990,0879;0,0258358
2991,0522;0,0257748
2992,0164;0,0257218
2992,9807;0,0256808
2993,9448;0,0256529
2994,9092;0,0256375
2995,8733;0,0256349
2996,8376;0,0256472
2997,8018;0,0256766
2998,7661;0,0257213
2999,7302;0,0257732
3000,6946;0,0258203
3001,6587;0,0258531
3002,6230;0,0258707
3003,5872;0,0258813
3004,5515;0,0258973
3005,5156;0,025927
3006,4800;0,0259685
3007,4441;0,0260122
3008,4084;0,0260463
3009,3726;0,0260653
3010,3369;0,0260725
3011,3010;0,0260778
3012,2654;0,0260924
3013,2295;0,0261237
3014,1938;0,0261742
3015,1580;0,0262425
3016,1223;0,0263256
3017,0864;0,0264193
3018,0508;0,0265175
3019,0149;0,0266122
3019,9792;0,0266949
3020,9434;0,0267607
3021,9077;0,0268114
3022,8718;0,0268562
3023,8362;0,0269081
3024,8003;0,0269779
3025,7646;0,0270679
3026,7288;0,0271704
3027,6931;0,0272712
3028,6572;0,0273576
3029,6216;0,0274253
3030,5857;0,0274814
3031,5500;0,0275402
3032,5142;0,0276152
3033,4785;0,027712
3034,4426;0,0278267
3035,4070;0,0279499
3036,3711;0,0280719
3037,3354;0,0281874
3038,2996;0,0282951
3039,2639;0,028396
3040,2280;0,0284918
3041,1924;0,0285856
3042,1565;0,028682
3043,1208;0,0287872
3044,0850;0,0289053
3045,0493;0,029036
3046,0134;0,0291727
3046,9778;0,0293062
3047,9419;0,0294293
3048,9063;0,0295411
3049,8704;0,0296471
3050,8347;0,0297556
3051,7988;0,029872
3052,7632;0,0299967
3053,7273;0,0301256
3054,6917;0,0302544
3055,6558;0,0303821
3056,6201;0,0305117
3057,5842;0,0306482
3058,5486;0,0307947
3059,5127;0,0309492
3060,4771;0,0311052
3061,4412;0,0312541
3062,4055;0,0313895
3063,3696;0,031511
3064,3340;0,0316251
3065,2981;0,0317416
3066,2625;0,0318692
3067,2266;0,0320101
3068,1909;0,0321602
3069,1550;0,0323119
3070,1194;0,0324593
3071,0835;0,0326014
3072,0479;0,0327412
3073,0120;0,0328824
3073,9763;0,0330251
3074,9404;0,0331659
3075,9048;0,0333004
3076,8689;0,0334271
3077,8333;0,0335496
3078,7974;0,0336748
3079,7617;0,0338084
3080,7258;0,0339517
3081,6902;0,0341003
3082,6543;0,0342466
3083,6187;0,034384
3084,5828;0,0345097
3085,5471;0,0346264
3086,5112;0,0347411
3087,4756;0,0348621
3088,4397;0,0349953
3089,4041;0,0351413
3090,3682;0,0352951
3091,3325;0,0354495
3092,2966;0,0355993
3093,2610;0,0357454
3094,2251;0,0358935
3095,1895;0,0360501
3096,1536;0,0362167
3097,1179;0,0363869
3098,0820;0,0365495
3099,0464;0,0366952
3100,0105;0,036823
3100,9749;0,0369411
3101,9390;0,0370629
3102,9033;0,0371989
3103,8674;0,0373518
3104,8318;0,0375167
3105,7959;0,0376857
3106,7603;0,037854
3107,7244;0,0380227
3108,6887;0,0381961
3109,6528;0,0383771
3110,6172;0,0385632
3111,5813;0,0387459
3112,5457;0,0389155
3113,5098;0,0390666
3114,4741;0,0392025
3115,4382;0,0393337
3116,4026;0,0394733
3117,3667;0,0396304
3118,3311;0,0398062
3119,2952;0,0399937
3120,2595;0,0401821
3121,2236;0,0403613
3122,1880;0,0405266
3123,1521;0,0406801
3124,1165;0,0408299
3125,0806;0,0409868
3126,0449;0,0411593
3127,0090;0,0413495
3127,9734;0,0415521
3128,9375;0,0417566
3129,9019;0,0419535
3130,8660;0,0421384
3131,8303;0,042314
3132,7944;0,042487
3133,7588;0,0426634
3134,7229;0,0428447
3135,6873;0,0430284
3136,6514;0,0432114
3137,6157;0,0433938
3138,5798;0,0435785
3139,5442;0,043769
3140,5083;0,0439655
3141,4727;0,0441642
3142,4368;0,0443591
3143,4011;0,0445466
3144,3652;0,0447283
3145,3296;0,0449099
3146,2937;0,0450978
3147,2581;0,0452947
3148,2222;0,0454979
3149,1865;0,0457007
3150,1506;0,0458961
3151,1150;0,0460815
3152,0791;0,0462599
3153,0435;0,0464388
3154,0076;0,0466263
3154,9719;0,0468272
3155,9360;0,0470404
3156,9004;0,0472603
3157,8645;0,0474784
3158,8289;0,0476874
3159,7930;0,0478835
3160,7573;0,0480678
3161,7214;0,0482461
3162,6858;0,048427
3163,6499;0,048619
3164,6143;0,0488269
3165,5784;0,0490488
3166,5427;0,0492766
3167,5068;0,0494991
3168,4712;0,0497083
3169,4353;0,0499054
3170,3997;0,050093
3171,3638;0,0502831
3172,3281;0,0504823
3173,2922;0,0506891
3174,2566;0,0508952
3175,2207;0,051091
3176,1851;0,0512729
3177,1492;0,0514463
3178,1135;0,0516229
3179,0776;0,051814
3180,0420;0,0520232
3181,0061;0,052245
3181,9705;0,0524689
3182,9346;0,0526855
3183,8989;0,0528908
3184,8630;0,0530862
3185,8274;0,0532744
3186,7915;0,053456
3187,7559;0,053629
3188,7200;0,0537925
3189,6843;0,0539508
3190,6484;0,0541132
3191,6128;0,0542892
3192,5769;0,0544824
3193,5413;0,0546869
3194,5054;0,0548904
3195,4697;0,0550813
3196,4338;0,0552558
3197,3982;0,0554191
3198,3623;0,055581
3199,3267;0,0557491
3200,2908;0,0559254
3201,2551;0,056107
3202,2192;0,0562912
3203,1836;0,0564783
3204,1477;0,0566712
3205,1121;0,0568726
3206,0762;0,057082
3207,0405;0,0572948
3208,0046;0,0575041
3208,9690;0,0577022
3209,9331;0,0578828
3210,8975;0,0580426
3211,8616;0,0581832
3212,8259;0,0583123
3213,7900;0,0584427
3214,7544;0,0585871
3215,7185;0,0587518
3216,6829;0,0589328
3217,6470;0,0591175
3218,6113;0,0592928
3219,5754;0,0594525
3220,5398;0,059601
3221,5039;0,0597493
3222,4683;0,0599071
3223,4324;0,0600768
3224,3967;0,0602534
3225,3608;0,0604293
3226,3252;0,0605995
3227,2893;0,0607637
3228,2537;0,0609245
3229,2178;0,0610843
3230,1821;0,0612441
3231,1462;0,0614041
3232,1106;0,0615656
3233,0747;0,0617303
3234,0391;0,0618985
3235,0032;0,0620677
3235,9675;0,0622347
3236,9316;0,0623986
3237,8960;0,0625628
3238,8601;0,062733
3239,8245;0,0629117
3240,7886;0,0630949
3241,7529;0,0632719
3242,7170;0,0634321
3243,6814;0,0635725
3244,6455;0,0637004
3245,6099;0,0638301
3246,5740;0,0639745
3247,5383;0,0641374
3248,5024;0,0643131
3249,4668;0,0644922
3250,4309;0,0646683
3251,3953;0,0648421
3252,3594;0,0650201
3253,3237;0,0652079
3254,2878;0,0654056
3255,2522;0,0656061
3256,2163;0,0657994
3257,1807;0,0659787
3258,1448;0,0661444
3259,1091;0,066304
3260,0732;0,0664666
3261,0376;0,0666381
3262,0017;0,0668176
3262,9661;0,0669991
3263,9302;0,0671764
3264,8945;0,0673472
3265,8586;0,0675141
3266,8230;0,0676815
3267,7871;0,0678502
3268,7515;0,0680152
3269,7156;0,0681663
3270,6799;0,068294
3271,6440;0,0683948
3272,6084;0,0684744
3273,5725;0,0685454
3274,5369;0,0686221
3275,5010;0,0687142
3276,4653;0,0688223
3277,4294;0,0689393
3278,3938;0,0690534
3279,3579;0,0691544
3280,3223;0,0692376
3281,2864;0,0693058
3282,2507;0,0693673
3283,2148;0,0694313
3284,1792;0,0695025
3285,1433;0,0695786
3286,1077;0,0696512
3287,0718;0,0697114
3288,0361;0,0697547
3289,0002;0,0697839
3289,9646;0,0698078
3290,9287;0,0698351
3291,8931;0,0698699
3292,8572;0,0699097
3293,8215;0,0699486
3294,7856;0,0699818
3295,7500;0,0700096
3296,7141;0,0700367
3297,6785;0,0700679
3298,6426;0,0701047
3299,6069;0,0701441
3300,5710;0,070182
3301,5354;0,0702164
3302,4995;0,070249
3303,4639;0,0702828
3304,4280;0,070318
3305,3923;0,0703497
3306,3564;0,0703705
3307,3208;0,0703754
3308,2849;0,0703673
3309,2493;0,0703569
3310,2134;0,0703575
3311,1777;0,0703779
3312,1418;0,0704182
3313,1062;0,0704711
3314,0703;0,0705282
3315,0347;0,0705862
3315,9988;0,0706494
3316,9631;0,0707266
3317,9272;0,0708252
3318,8916;0,0709455
3319,8557;0,0710801
3320,8201;0,0712171
3321,7842;0,0713452
3322,7485;0,0714584
3323,7126;0,0715557
3324,6770;0,0716397
3325,6411;0,0717142
3326,6055;0,0717834
3327,5696;0,0718527
3328,5339;0,0719286
3329,4980;0,0720162
3330,4624;0,0721148
3331,4265;0,072215
3332,3909;0,0723003
3333,3550;0,0723545
3334,3193;0,0723699
3335,2834;0,0723526
3336,2478;0,0723197
3337,2119;0,0722894
3338,1763;0,0722705
3339,1404;0,0722578
3340,1047;0,0722371
3341,0688;0,0721943
3342,0332;0,0721242
3342,9973;0,0720323
3343,9617;0,0719305
3344,9258;0,0718291
3345,8901;0,0717314
3346,8542;0,0716331
3347,8186;0,0715257
3348,7827;0,0714017
3349,7471;0,0712582
3350,7112;0,0710987
3351,6755;0,0709323
3352,6396;0,0707712
3353,6040;0,0706269
3354,5681;0,0705058
3355,5325;0,0704058
3356,4966;0,0703172
3357,4609;0,0702259
3358,4250;0,0701208
3359,3894;0,0699984
3360,3535;0,0698638
3361,3179;0,0697271
3362,2820;0,0695976
3363,2463;0,0694793
3364,2104;0,0693699
3365,1748;0,0692638
3366,1389;0,0691556
3367,1033;0,0690422
3368,0674;0,0689227
3369,0317;0,0687963
3369,9958;0,0686611
3370,9602;0,0685148
3371,9243;0,0683561
3372,8887;0,0681867
3373,8528;0,068012
3374,8171;0,06784
3375,7813;0,0676791
3376,7456;0,0675361
3377,7097;0,0674139
3378,6741;0,0673104
3379,6382;0,0672172
3380,6025;0,0671218
3381,5667;0,0670107
3382,5310;0,0668764
3383,4951;0,0667223
3384,4595;0,0665626
3385,4236;0,0664163
3386,3879;0,0662962
3387,3521;0,066201
3388,3164;0,0661156
3389,2805;0,0660201
3390,2449;0,065901
3391,2090;0,0657585
3392,1733;0,0656052
3393,1375;0,0654561
3394,1018;0,0653194
3395,0659;0,0651924
3396,0303;0,0650661
3396,9944;0,0649318
3397,9587;0,0647855
3398,9229;0,0646268
3399,8872;0,0644565
3400,8513;0,0642754
3401,8157;0,0640864
3402,7798;0,0638965
3403,7441;0,0637156
3404,7083;0,0635523
3405,6726;0,0634083
3406,6367;0,0632764
3407,6011;0,0631432
3408,5652;0,0629936
3409,5295;0,0628164
3410,4937;0,0626078
3411,4580;0,0623744
3412,4221;0,0621327
3413,3865;0,061904
3414,3506;0,0617055
3415,3149;0,0615386
3416,2791;0,0613848
3417,2434;0,0612122
3418,2075;0,0609912
3419,1719;0,0607139
3420,1360;0,0604025
3421,1003;0,0601001
3422,0645;0,0598465
3423,0288;0,059657
3423,9929;0,0595157
3424,9573;0,0593887
3425,9214;0,059243
3426,8857;0,0590619
3427,8499;0,058848
3428,8142;0,0586158
3429,7783;0,0583795
3430,7427;0,0581447
3431,7068;0,0579088
3432,6711;0,0576674
3433,6353;0,0574212
3434,5996;0,0571766
3435,5637;0,0569412
3436,5281;0,0567174
3437,4922;0,0565019
3438,4565;0,0562893
3439,4207;0,0560784
3440,3850;0,0558736
3441,3491;0,0556785
3442,3135;0,0554866
3443,2776;0,0552782
3444,2419;0,0550284
3445,2061;0,0547241
3446,1704;0,0543779
3447,1345;0,0540268
3448,0989;0,0537125
3449,0630;0,0534566
3450,0273;0,0532514
3450,9915;0,0530692
3451,9558;0,0528821
3452,9199;0,0526765
3453,8843;0,052456
3454,8484;0,0522321
3455,8127;0,0520123
3456,7769;0,0517932
3457,7412;0,0515641
3458,7053;0,051316
3459,6697;0,0510493
3460,6338;0,0507739
3461,5981;0,050503
3462,5623;0,0502439
3463,5266;0,0499938
3464,4907;0,0497418
3465,4551;0,0494783
3466,4192;0,0492024
3467,3835;0,0489249
3468,3477;0,0486614
3469,3120;0,0484211
3470,2761;0,0481991
3471,2405;0,0479782
3472,2046;0,0477419
3473,1689;0,0474868
3474,1331;0,0472278
3475,0974;0,0469865
3476,0615;0,0467743
3477,0259;0,0465797
3477,9900;0,0463748
3478,9543;0,046133
3479,9185;0,0458495
3480,8828;0,0455466
3481,8469;0,0452596
3482,8113;0,0450106
3483,7754;0,0447934
3484,7397;0,0445793
3485,7039;0,0443388
3486,6682;0,0440629
3487,6323;0,0437695
3488,5967;0,0434925
3489,5608;0,0432596
3490,5251;0,0430742
3491,4893;0,042914
3492,4536;0,0427439
3493,4177;0,0425368
3494,3821;0,0422894
3495,3462;0,0420256
3496,3105;0,0417815
3497,2747;0,0415799
3498,2390;0,0414115
3499,2031;0,0412376
3500,1675;0,0410112
3501,1316;0,0407092
3502,0959;0,0403541
3503,0601;0,0400064
3504,0244;0,0397232
3504,9885;0,0395175
3505,9529;0,039352
3506,9170;0,0391674
3507,8813;0,0389217
3508,8455;0,0386166
3509,8098;0,0382959
3510,7739;0,0380143
3511,7383;0,0377995
3512,7024;0,0376382
3513,6667;0,0374937
3514,6309;0,0373339
3515,5952;0,03715
3516,5593;0,0369552
3517,5237;0,0367679
3518,4878;0,0365933
3519,4521;0,0364178
3520,4163;0,0362191
3521,3806;0,0359826
3522,3447;0,0357115
3523,3091;0,0354231
3524,2732;0,035134
3525,2375;0,0348477
3526,2017;0,0345577
3527,1660;0,0342624
3528,1301;0,0339781
3529,0945;0,0337341
3530,0586;0,0335525
3531,0229;0,0334284
3531,9871;0,0333265
3532,9514;0,0331967
3533,9155;0,032999
3534,8799;0,032726
3535,8440;0,0324123
3536,8083;0,0321201
3537,7725;0,0319064
3538,7368;0,0317928
3539,7009;0,0317552
3540,6653;0,0317349
3541,6294;0,0316582
3542,5938;0,031461
3543,5579;0,031118
3544,5222;0,0306681
3545,4863;0,0302065
3546,4507;0,0298325
3547,4148;0,0295869
3548,3792;0,0294364
3549,3433;0,0293047
3550,3076;0,0291205
3551,2717;0,0288565
3552,2361;0,0285437
3553,2002;0,0282503
3554,1646;0,0280323
3555,1287;0,027895
3556,0930;0,0277964
3557,0571;0,0276812
3558,0215;0,0275199
3558,9856;0,0273319
3559,9500;0,0271736
3560,9141;0,0270953
3561,8784;0,027094
3562,8425;0,0270941
3563,8069;0,0269644
3564,7710;0,026575
3565,7354;0,0258999
3566,6995;0,0251001
3567,6638;0,0244419
3568,6279;0,0240841
3569,5923;0,0239914
3570,5564;0,0240276
3571,5208;0,0240622
3572,4849;0,0240163
3573,4492;0,0238707
3574,4133;0,023655
3575,3777;0,0234177
3576,3418;0,0231922
3577,3062;0,0229848
3578,2703;0,0227919
3579,2346;0,0226259
3580,1987;0,0225196
3581,1631;0,0225018
3582,1272;0,0225621
3583,0916;0,0226322
3584,0557;0,0225953
3585,0200;0,0223306
3585,9841;0,0218009
3586,9485;0,0211366
3587,9126;0,0205802
3588,8770;0,0202914
3589,8411;0,0202437
3590,8054;0,0202985
3591,7695;0,0203116
3592,7339;0,0201941
3593,6980;0,0199411
3594,6624;0,0196256
3595,6265;0,0193403
3596,5908;0,0191247
3597,5549;0,0189476
3598,5193;0,0187546
3599,4834;0,0185286
3600,4478;0,0183112
3601,4119;0,0181682
3602,3762;0,0181305
3603,3403;0,0181673
3604,3047;0,0182026
3605,2688;0,0181554
3606,2332;0,0179808
3607,1973;0,0176973
3608,1616;0,0173748
3609,1257;0,0170812
3610,0901;0,0168401
3611,0542;0,0166404
3612,0186;0,0164734
3612,9827;0,0163504
3613,9470;0,0162822
3614,9111;0,0162467
3615,8755;0,0161749
3616,8396;0,0159773
3617,8040;0,0156063
3618,7681;0,0151238
3619,7324;0,0146985
3620,6965;0,0144944
3621,6609;0,0145631
3622,6250;0,0148432
3623,5894;0,015219
3624,5535;0,0155504
3625,5178;0,0156723
3626,4819;0,0154164
3627,4463;0,0147228
3628,4104;0,0137957
3629,3748;0,0130187
3630,3389;0,0126056
3631,3032;0,0124853
3632,2673;0,0124858
3633,2317;0,0124812
3634,1958;0,012422
3635,1602;0,0123165
3636,1243;0,0121973
3637,0886;0,0120894
3638,0527;0,0119983
3639,0171;0,0119225
3639,9812;0,0118751
3640,9456;0,0118899
3641,9097;0,0120031
3642,8740;0,0122246
3643,8381;0,0125145
3644,8025;0,0127714
3645,7666;0,0128255
3646,7310;0,0124702
3647,6951;0,0116181
3648,6594;0,0105458
3649,6235;0,00977255
3650,5879;0,00952332
3651,5520;0,0096286
3652,5164;0,00983239
3653,4805;0,00995432
3654,4448;0,00990314
3655,4089;0,00968136
3656,3733;0,00938511
3657,3374;0,00914377
3658,3018;0,0090247
3659,2659;0,00900443
3660,2302;0,00902222
3661,1943;0,00904392
3662,1587;0,00908661
3663,1228;0,00919581
3664,0872;0,0093955
3665,0513;0,00964981
3666,0156;0,00986275
3666,9797;0,00991636
3667,9441;0,00974859
3668,9082;0,00944139
3669,8726;0,0091978
3670,8367;0,00915778
3671,8010;0,00926455
3672,7651;0,0093201
3673,7295;0,00911965
3674,6936;0,00859834
3675,6580;0,00793481
3676,6221;0,00742863
3677,5864;0,00722479
3678,5505;0,00725897
3679,5149;0,00740783
3680,4790;0,00759556
3681,4434;0,00780813
3682,4075;0,00806464
3683,3718;0,00837724
3684,3359;0,0087188
3685,3003;0,00900937
3686,2644;0,00912522
3687,2288;0,00894701
3688,1929;0,00846566
3689,1572;0,00786815
3690,1213;0,0074254
3691,0857;0,00726176
3692,0498;0,00731755
3693,0142;0,00747802
3693,9783;0,00766229
3694,9426;0,00783564
3695,9067;0,00798988
3696,8711;0,00811899
3697,8352;0,00820249
3698,7996;0,00820631
3699,7637;0,00810589
3700,7280;0,00792163
3701,6921;0,00773345
3702,6565;0,00764325
3703,6206;0,00771113
3704,5850;0,00792728
3705,5491;0,00822925
3706,5134;0,0085255
3707,4775;0,00870541
3708,4419;0,00865411
3709,4060;0,00830812
3710,3704;0,00774764
3711,3345;0,00720287
3712,2988;0,00688388
3713,2629;0,00683423
3714,2273;0,00697565
3715,1914;0,00720948
3716,1558;0,00745949
3717,1199;0,00767434
3718,0842;0,00782491
3719,0483;0,00790419
3720,0127;0,00792211
3720,9768;0,0078913
3721,9412;0,0078154
3722,9053;0,00769553
3723,8696;0,00755278
3724,8337;0,00744137
3725,7981;0,00742928
3726,7622;0,00755875
3727,7266;0,00782386
3728,6907;0,00817756
3729,6550;0,00854727
3730,6191;0,00884159
3731,5835;0,00895242
3732,5476;0,0087762
3733,5120;0,00828365
3734,4761;0,00761263
3735,4404;0,00704265
3736,4045;0,00679488
3737,3689;0,00689752
3738,3330;0,00725074
3739,2974;0,00772755
3740,2615;0,00820309
3741,2258;0,00854625
3742,1899;0,00863704
3743,1543;0,00845216
3744,1184;0,00815495
3745,0828;0,00799852
3746,0469;0,00808448
3747,0112;0,00829531
3747,9753;0,00840677
3748,9397;0,00821097
3749,9038;0,0076627
3750,8682;0,0070008
3751,8323;0,00658178
3752,7966;0,00654071
3753,7607;0,00675897
3754,7251;0,00704978
3755,6892;0,00726296
3756,6536;0,00731067
3757,6177;0,00718962
3758,5820;0,0069895
3759,5461;0,00683792
3760,5105;0,00681063
3761,4746;0,00689938
3762,4390;0,00704857
3763,4031;0,00719986
3764,3674;0,00731293
3765,3315;0,00736642
3766,2959;0,00734978
3767,2600;0,0072572
3768,2244;0,00709433
3769,1885;0,00689482
3770,1528;0,00672385
3771,1169;0,00665085
3772,0813;0,00670926
3773,0454;0,00687953
3774,0098;0,00710199
3774,9739;0,00729973
3775,9382;0,00740125
3776,9023;0,00736834
3777,8667;0,00722461
3778,8308;0,0070526
3779,7952;0,0069393
3780,7593;0,00691598
3781,7236;0,00695178
3782,6877;0,00699109
3783,6521;0,00699137
3784,6162;0,00694179
3785,5806;0,00686249
3786,5447;0,00678994
3787,5090;0,00675842
3788,4731;0,00678788
3789,4375;0,00687999
3790,4016;0,00701919
3791,3660;0,0071777
3792,3301;0,00732594
3793,2944;0,00744762
3794,2585;0,00755146
3795,2229;0,00766538
3796,1870;0,00780768
3797,1514;0,00795433
3798,1155;0,00803404
3799,0798;0,00796741
3800,0439;0,0077386
3801,0083;0,00744152
3801,9724;0,0072191
3802,9368;0,0071343
3803,9009;0,00712552
3804,8652;0,00707753
3805,8293;0,00692051
3806,7937;0,00669689
3807,7578;0,00654507
3808,7222;0,00658888
3809,6863;0,00684409
3810,6506;0,00722994
3811,6147;0,00762827
3812,5791;0,00792706
3813,5432;0,00805722
3814,5076;0,00803376
3815,4717;0,00795439
3816,4360;0,00791195
3817,4001;0,00790085
3818,3645;0,00782773
3819,3286;0,00760942
3820,2930;0,00727092
3821,2571;0,00695033
3822,2214;0,00678063
3823,1855;0,00678458
3824,1499;0,00689682
3825,1140;0,00703981
3826,0784;0,00716744
3827,0425;0,00727136
3828,0068;0,00736798
3828,9709;0,00747812
3829,9353;0,00761207
3830,8994;0,00776748
3831,8638;0,00793482
3832,8279;0,00809873
3833,7922;0,00823167
3834,7563;0,00828834
3835,7207;0,00821543
3836,6848;0,00798512
3837,6492;0,00763504
3838,6133;0,007266
3839,5776;0,00697751
3840,5417;0,00680596
3841,5061;0,00672965
3842,4702;0,00671536
3843,4346;0,0067539
3844,3987;0,0068658
3845,3630;0,00708369
3846,3271;0,00742862
3847,2915;0,00789384
3848,2556;0,00843422
3849,2200;0,00894983
3850,1841;0,00926347
3851,1484;0,00913608
3852,1125;0,00843557
3853,0769;0,00743147
3854,0410;0,00667753
3855,0054;0,00642974
3855,9695;0,00656013
3856,9338;0,00687163
3857,8979;0,00723168
3858,8623;0,00755305
3859,8264;0,00776604
3860,7908;0,00782378
3861,7549;0,007735
3862,7192;0,00758654
3863,6833;0,00750245
3864,6477;0,00755444
3865,6118;0,0077156
3866,5762;0,00789161
3867,5403;0,0079775
3868,5046;0,0079038
3869,4688;0,00767004
3870,4331;0,00735314
3871,3972;0,00706972
3872,3616;0,00691232
3873,3257;0,00691233
3874,2900;0,00704678
3875,2542;0,00726236
3876,2185;0,00749429
3877,1826;0,00768055
3878,1470;0,00777923
3879,1111;0,00778717
3880,0754;0,00774123
3881,0396;0,00768607
3882,0039;0,00763362
3882,9680;0,00756219
3883,9324;0,00745864
3884,8965;0,00735494
3885,8608;0,00731251
3886,8250;0,00736432
3887,7893;0,00747561
3888,7534;0,00755955
3889,7178;0,00753243
3890,6819;0,00738133
3891,6462;0,00719837
3892,6104;0,00712284
3893,5747;0,00723023
3894,5388;0,00749198
3895,5032;0,00782093
3896,4673;0,00812394
3897,4316;0,00832982
3898,3958;0,00840286
3899,3601;0,00834194
3900,3242;0,00816052
3901,2886;0,00786988
3902,2527;0,00749571
3903,2170;0,00710701
3904,1812;0,00680166
3905,1455;0,00664726
3906,1096;0,00664327
3907,0740;0,00673947
3908,0381;0,00687748
3909,0024;0,00701882
3909,9666;0,00715228
3910,9309;0,00728517
3911,8950;0,00742474
3912,8594;0,00756048
3913,8235;0,00765991
3914,7878;0,00768373
3915,7520;0,00761497
3916,7163;0,00748302
3917,6804;0,00735491
3918,6448;0,00729023
3919,6089;0,00730019
3920,5732;0,00734803
3921,5374;0,0073808
3922,5017;0,00736516
3923,4658;0,00730958
3924,4302;0,00725922
3925,3943;0,00726129
3926,3586;0,0073277
3927,3228;0,00742682
3928,2871;0,0075041
3929,2512;0,00751223
3930,2156;0,00743744
3931,1797;0,00731004
3932,1440;0,00718669
3933,1082;0,00711402
3934,0725;0,00710677
3935,0366;0,00715428
3936,0010;0,00723724
3936,9651;0,00733585
3937,9294;0,00742906
3938,8936;0,00749399
3939,8579;0,00751239
3940,8220;0,00748322
3941,7864;0,00742983
3942,7505;0,00738946
3943,7148;0,00738789
3944,6790;0,00742089
3945,6433;0,00745749
3946,6074;0,00746064
3947,5718;0,00741087
3948,5359;0,00731979
3949,5002;0,00722324
3950,4644;0,0071573
3951,4287;0,0071371
3952,3928;0,00715511
3953,3572;0,0071941
3954,3213;0,00724045
3955,2856;0,00728852
3956,2498;0,0073367
3957,2141;0,0073808
3958,1782;0,00741177
3959,1426;0,00742008
3960,1067;0,00740314
3961,0710;0,00736931
3962,0352;0,00733455
3962,9995;0,00731359
3963,9636;0,00731231
3964,9280;0,00732633
3965,8921;0,00734611
3966,8564;0,00736352
3967,8206;0,00737593
3968,7849;0,00738555
3969,7490;0,00739526
3970,7134;0,00740442
3971,6775;0,00740828
3972,6418;0,0074015
3973,6060;0,00738303
3974,5703;0,00735849
3975,5344;0,0073375
3976,4988;0,0073277
3977,4629;0,00732964
3978,4272;0,00733633
3979,3914;0,00733803
3980,3557;0,00732909
3981,3198;0,00731277
3982,2842;0,00730028
3983,2483;0,00730417
3984,2126;0,00732988
3985,1768;0,00737118
3986,1411;0,0074124
3987,1052;0,0074365
3988,0696;0,00743424
3989,0337;0,00740926
3989,9980;0,00737602
3990,9622;0,00735142
3991,9265;0,0073454
3992,8906;0,0073566
3993,8550;0,00737491
3994,8191;0,00738866
3995,7834;0,00739124
3996,7476;0,00738363
3997,7119;0,00737243
3998,6760;0,00736582
3999,6404;0,00737027
4000,6045;0,0073064

##### Extended Information
[Comments]
Sample name
Comment
Username
Division
Organization;UNIVERSIDAD INDUSTRIAL DE SANTANDER

[Detailed Information]
Creation date;17/03/2025 3:08 p.m.

Data array type;Linear data array
Horizontal axis;Wavenumber [cm-1]
Vertical axis;Abs
Start;399,193 cm-1
End;4000,6 cm-1
Data interval;0,964233 cm-1
Data points;3736    

[Measurement Information]
Model name;FT/IR-4X1typeA
Serial No.;A035162111

Accessory;ATR PRO 4X
Accessory S/N;A021162126
Incident angle;45 deg

Measurement date;17/03/2025 3:07 p.m.

Light source;Standard
Detector;TGS
Accumulation;40
Resolution;4 cm-1
Zero filling;On
Apodization;Cosine
Gain;Auto (8)
Aperture;Auto (7 mm)
Scan speed;Auto (2 mm/sec)
Filter;Auto (12800 Hz)

