TITLE;
DATA TYPE;INFRARED SPECTRUM
ORIGIN;JASCO
OWNER;
DATE;25/03/10
TIME;21:09:18
SPECTROMETER/DATA SYSTEM;
LOCALE;9226
RESOLUTION;
DELTAX;0,964233
XUNITS;1/CM
YUNITS;ABSORBANCE
FIRSTX;  399,1927
LASTX; 4000,6047
NPOINTS;    3736
FIRSTY;     0,18316
MAXY;     0,22104
MINY;     0,01520
XYDATA
399,1927;0,183157
400,1569;0,183727
401,1211;0,184474
402,0854;0,184973
403,0496;0,185052
404,0138;0,184718
404,9781;0,184079
405,9423;0,183297
406,9065;0,182513
407,8708;0,181791
408,8350;0,181123
409,7992;0,180503
410,7635;0,180008
411,7277;0,179797
412,6919;0,180007
413,6562;0,180647
414,6204;0,18158
415,5846;0,182577
416,5489;0,183372
417,5131;0,183735
418,4773;0,183655
419,4416;0,183469
420,4058;0,183553
421,3700;0,183946
422,3343;0,184453
423,2985;0,184898
424,2627;0,185216
425,2270;0,185434
426,1912;0,185611
427,1554;0,185784
428,1197;0,185958
429,0839;0,186137
430,0481;0,186357
431,0124;0,186671
431,9766;0,187084
432,9408;0,187501
433,9051;0,187751
434,8693;0,187688
435,8335;0,187308
436,7978;0,18678
437,7620;0,186334
438,7262;0,186108
439,6905;0,186072
440,6547;0,186065
441,6189;0,185912
442,5832;0,185539
443,5474;0,185024
444,5116;0,184526
445,4759;0,184137
446,4401;0,18381
447,4043;0,183411
448,3686;0,182833
449,3328;0,18209
450,2970;0,181335
451,2613;0,180789
452,2255;0,180617
453,1897;0,180812
454,1540;0,181181
455,1182;0,181413
456,0824;0,181223
457,0467;0,180524
458,0109;0,179538
458,9751;0,178692
459,9394;0,178319
460,9036;0,178456
461,8678;0,178909
462,8321;0,179433
463,7963;0,179839
464,7605;0,180038
465,7248;0,180018
466,6890;0,179807
467,6532;0,179433
468,6175;0,17892
469,5817;0,178318
470,5459;0,177731
471,5102;0,177298
472,4744;0,177136
473,4386;0,177266
474,4029;0,177619
475,3671;0,178112
476,3313;0,178705
477,2956;0,179386
478,2598;0,180124
479,2240;0,180828
480,1883;0,181368
481,1525;0,18163
482,1167;0,181581
483,0810;0,181293
484,0452;0,180927
485,0094;0,180661
485,9737;0,180615
486,9379;0,180808
487,9021;0,181182
488,8664;0,181644
489,8306;0,182104
490,7948;0,182497
491,7591;0,1828
492,7233;0,183028
493,6875;0,183212
494,6518;0,183368
495,6160;0,183473
496,5802;0,183487
497,5445;0,183381
498,5087;0,183167
499,4729;0,182913
500,4372;0,18273
501,4014;0,182738
502,3656;0,183004
503,3299;0,183514
504,2941;0,184168
505,2583;0,184825
506,2226;0,185356
507,1868;0,185681
508,1510;0,185804
509,1153;0,185815
510,0795;0,185854
511,0437;0,186046
512,0080;0,186438
512,9722;0,186988
513,9365;0,187591
514,9007;0,188133
515,8649;0,188542
516,8292;0,18882
517,7934;0,189023
518,7576;0,189221
519,7219;0,189435
520,6861;0,189631
521,6503;0,189751
522,6146;0,189748
523,5788;0,189611
524,5430;0,189373
525,5073;0,189099
526,4715;0,188862
527,4357;0,188694
528,4000;0,188576
529,3642;0,188458
530,3284;0,188296
531,2927;0,188075
532,2569;0,187815
533,2211;0,187549
534,1854;0,187301
535,1496;0,187065
536,1138;0,186817
537,0781;0,186538
538,0423;0,186242
539,0065;0,185976
539,9708;0,185802
540,9350;0,185771
541,8992;0,185897
542,8635;0,186156
543,8277;0,186493
544,7919;0,186842
545,7562;0,187143
546,7204;0,18736
547,6846;0,187496
548,6489;0,187596
549,6131;0,187732
550,5773;0,187973
551,5416;0,188352
552,5058;0,188852
553,4700;0,189412
554,4343;0,189953
555,3985;0,190407
556,3627;0,190725
557,3270;0,190873
558,2912;0,190816
559,2554;0,190509
560,2197;0,189915
561,1839;0,189034
562,1481;0,187928
563,1124;0,186711
564,0766;0,185513
565,0408;0,18444
566,0051;0,183541
566,9693;0,182817
567,9335;0,182231
568,8978;0,181737
569,8620;0,181297
570,8262;0,180884
571,7905;0,180485
572,7547;0,180098
573,7189;0,179734
574,6832;0,17941
575,6474;0,179147
576,6116;0,178956
577,5759;0,178828
578,5401;0,178738
579,5043;0,178654
580,4686;0,178548
581,4328;0,178401
582,3970;0,178209
583,3613;0,177976
584,3255;0,177723
585,2897;0,177474
586,2540;0,177257
587,2182;0,17709
588,1824;0,176979
589,1467;0,176916
590,1109;0,17688
591,0751;0,176844
592,0394;0,176775
593,0036;0,176647
593,9678;0,17644
594,9321;0,176145
595,8963;0,175766
596,8605;0,175315
597,8248;0,174816
598,7890;0,174293
599,7532;0,173779
600,7175;0,173303
601,6817;0,172891
602,6459;0,172554
603,6102;0,172285
604,5744;0,17205
605,5386;0,171799
606,5029;0,171484
607,4671;0,171072
608,4313;0,170561
609,3956;0,169969
610,3598;0,169326
611,3240;0,168663
612,2883;0,168016
613,2525;0,167416
614,2167;0,166883
615,1810;0,166398
616,1452;0,165891
617,1094;0,165252
618,0737;0,164392
619,0379;0,163301
620,0021;0,162054
620,9664;0,160773
621,9306;0,159558
622,8948;0,158457
623,8591;0,157459
624,8233;0,156502
625,7875;0,155616
626,7518;0,154805
627,7160;0,154087
628,6802;0,153459
629,6445;0,152892
630,6087;0,152329
631,5729;0,151725
632,5372;0,15106
633,5014;0,150359
634,4656;0,149672
635,4299;0,149051
636,3941;0,148533
637,3583;0,148126
638,3226;0,147811
639,2868;0,147553
640,2510;0,147305
641,2153;0,147015
642,1795;0,146639
643,1437;0,146156
644,1080;0,145585
645,0722;0,144976
646,0364;0,144398
647,0007;0,143911
647,9649;0,143545
648,9291;0,14329
649,8934;0,143112
650,8576;0,142971
651,8218;0,142848
652,7861;0,142751
653,7503;0,142703
654,7145;0,142721
655,6788;0,142799
656,6430;0,142901
657,6072;0,142989
658,5715;0,143037
659,5357;0,143035
660,4999;0,14297
661,4642;0,142797
662,4284;0,142417
663,3926;0,141702
664,3569;0,140547
665,3211;0,138971
666,2853;0,137189
667,2496;0,13557
668,2138;0,134401
669,1780;0,13375
670,1423;0,133557
671,1065;0,133557
672,0707;0,133356
673,0350;0,132688
673,9992;0,131516
674,9634;0,129975
675,9277;0,128277
676,8919;0,126617
677,8561;0,125108
678,8204;0,123783
679,7846;0,122635
680,7488;0,121649
681,7131;0,120809
682,6773;0,12009
683,6415;0,119468
684,6058;0,118927
685,5700;0,118459
686,5342;0,118046
687,4985;0,117658
688,4627;0,117261
689,4269;0,116835
690,3912;0,116396
691,3554;0,115984
692,3196;0,115638
693,2839;0,11537
694,2481;0,115162
695,2123;0,114981
696,1766;0,114787
697,1408;0,114555
698,1050;0,114268
699,0693;0,113926
700,0335;0,11354
700,9977;0,113128
701,9620;0,112704
702,9262;0,112276
703,8904;0,111828
704,8547;0,111359
705,8189;0,110871
706,7831;0,110382
707,7474;0,109911
708,7116;0,109468
709,6758;0,109042
710,6401;0,108606
711,6043;0,108131
712,5685;0,107602
713,5328;0,107024
714,4970;0,106421
715,4612;0,105253
716,4255;0,104769
717,3897;0,104322
718,3539;0,10385
719,3182;0,103286
720,2824;0,102591
721,2466;0,101783
722,2109;0,100923
723,1751;0,100071
724,1393;0,0992601
725,1036;0,0984896
726,0678;0,0977426
727,0320;0,0970073
727,9963;0,0962846
728,9605;0,0955807
729,9247;0,0948976
730,8890;0,0942307
731,8532;0,093578
732,8174;0,0929499
733,7817;0,0923677
734,7459;0,0918526
735,7101;0,0914104
736,6744;0,0910261
737,6386;0,0906707
738,6028;0,0903134
739,5671;0,0899322
740,5313;0,0895173
741,4955;0,0890691
742,4598;0,0885952
743,4240;0,088109
744,3882;0,0876273
745,3525;0,087166
746,3167;0,0867337
747,2809;0,0863277
748,2452;0,0859359
749,2094;0,085543
750,1736;0,085138
751,1379;0,0847176
752,1021;0,0842848
753,0663;0,0838444
754,0306;0,0834004
754,9948;0,0829552
755,9590;0,0825123
756,9233;0,0820771
757,8875;0,0816574
758,8517;0,0812609
759,8160;0,0808939
760,7802;0,0805594
761,7444;0,0802557
762,7087;0,0799751
763,6729;0,0797026
764,6371;0,0794197
765,6014;0,0791109
766,5656;0,0787717
767,5298;0,0784126
768,4941;0,078054
769,4583;0,0777157
770,4225;0,0774049
771,3868;0,077114
772,3510;0,0768276
773,3152;0,076536
774,2795;0,076245
775,2437;0,0759741
776,2079;0,0757449
777,1722;0,0755658
778,1364;0,075423
779,1006;0,0752844
780,0649;0,0751116
781,0291;0,0748756
781,9933;0,0745654
782,9576;0,07419
783,9218;0,0737721
784,8860;0,0733416
785,8503;0,0729284
786,8145;0,0725574
787,7787;0,0722442
788,7430;0,0719918
789,7072;0,0717902
790,6714;0,0716192
791,6357;0,0714563
792,5999;0,0712845
793,5641;0,0710977
794,5284;0,0708993
795,4926;0,0706959
796,4568;0,0704919
797,4211;0,0702863
798,3853;0,0700766
799,3495;0,0698641
800,3138;0,0696571
801,2780;0,0694679
802,2422;0,0693057
803,2065;0,06917
804,1707;0,0690489
805,1349;0,0689253
806,0992;0,0687875
807,0634;0,068637
808,0276;0,0684894
808,9919;0,0683658
809,9561;0,0682795
810,9203;0,0682257
811,8846;0,0681805
812,8488;0,0681115
813,8130;0,0679948
814,7773;0,0678273
815,7415;0,0676291
816,7057;0,0674326
817,6700;0,0672666
818,6342;0,0671434
819,5984;0,067056
820,5627;0,0669847
821,5269;0,0669072
822,4911;0,0668058
823,4554;0,0666706
824,4196;0,0664997
825,3839;0,0663002
826,3481;0,0660884
827,3123;0,0658874
828,2766;0,0657182
829,2408;0,0655894
830,2050;0,0654898
831,1693;0,0653914
832,1335;0,0652614
833,0977;0,0650776
834,0620;0,0648369
835,0262;0,0645548
835,9904;0,064255
836,9547;0,0639593
837,9189;0,0636814
838,8831;0,063426
839,8474;0,0631922
840,8116;0,062976
841,7758;0,062772
842,7401;0,0625741
843,7043;0,0623787
844,6685;0,0621866
845,6328;0,062003
846,5970;0,0618351
847,5612;0,0616875
848,5255;0,0615587
849,4897;0,0614427
850,4539;0,0613327
851,4182;0,0612263
852,3824;0,061126
853,3466;0,0610369
854,3109;0,060961
855,2751;0,0608947
856,2393;0,0608294
857,2036;0,0607571
858,1678;0,060675
859,1320;0,0605876
860,0963;0,0605046
861,0605;0,0604362
862,0247;0,0603892
862,9890;0,060367
863,9532;0,060371
864,9174;0,0604036
865,8817;0,0604678
866,8459;0,0605654
867,8101;0,0606942
868,7744;0,0608479
869,7386;0,0610185
870,7028;0,0611991
871,6671;0,0613853
872,6313;0,0615737
873,5955;0,0617606
874,5598;0,0619412
875,5240;0,0621122
876,4882;0,0622757
877,4525;0,062442
878,4167;0,0626288
879,3809;0,0628572
880,3452;0,0631472
881,3094;0,0635126
882,2736;0,0639596
883,2379;0,0644862
884,2021;0,0650837
885,1663;0,0657391
886,1306;0,066439
887,0948;0,0671719
888,0590;0,0679303
889,0233;0,0687094
889,9875;0,0695041
890,9517;0,0703044
891,9160;0,0710908
892,8802;0,0718328
893,8444;0,0724912
894,8087;0,0730242
895,7729;0,0733954
896,7371;0,0735809
897,7014;0,0735727
898,6656;0,0733763
899,6298;0,0730068
900,5941;0,0724848
901,5583;0,0718366
902,5225;0,0710975
903,4868;0,0703123
904,4510;0,0695318
905,4152;0,0688028
906,3795;0,0681579
907,3437;0,0676112
908,3079;0,0671599
909,2722;0,0667927
910,2364;0,0664965
911,2007;0,0662608
912,1649;0,0660781
913,1292;0,0659441
914,0934;0,0658593
915,0576;0,0658293
916,0219;0,0658622
916,9861;0,0659616
917,9503;0,0661203
918,9146;0,0663205
919,8788;0,0665406
920,8430;0,0667659
921,8073;0,0669943
922,7715;0,067233
923,7357;0,067489
924,7000;0,0677608
925,6642;0,0680376
926,6284;0,0683051
927,5927;0,0685549
928,5569;0,0687885
929,5211;0,0690159
930,4854;0,0692504
931,4496;0,0695035
932,4138;0,0697838
933,3781;0,0700977
934,3423;0,0704495
935,3065;0,070843
936,2708;0,0712811
937,2350;0,0717673
938,1992;0,0723066
939,1635;0,0729053
940,1277;0,0735691
941,0919;0,0743009
942,0562;0,0751002
943,0204;0,0759642
943,9846;0,0768905
944,9489;0,0778769
945,9131;0,0789216
946,8773;0,0800207
947,8416;0,0811681
948,8058;0,0823568
949,7700;0,0835819
950,7343;0,084842
951,6985;0,0861403
952,6627;0,0874828
953,6270;0,0888758
954,5912;0,0903229
955,5554;0,0918224
956,5197;0,0933657
957,4839;0,0949388
958,4481;0,096525
959,4124;0,0981099
960,3766;0,0996843
961,3408;0,101246
962,3051;0,1028
963,2693;0,104352
964,2335;0,105911
965,1978;0,107487
966,1620;0,109088
967,1262;0,110721
968,0905;0,112397
969,0547;0,114127
970,0189;0,115927
970,9832;0,117819
971,9474;0,119827
972,9116;0,12198
973,8759;0,124305
974,8401;0,126823
975,8043;0,129548
976,7686;0,13248
977,7328;0,135599
978,6970;0,138862
979,6613;0,142202
980,6255;0,145532
981,5897;0,148755
982,5540;0,15178
983,5182;0,154538
984,4824;0,15699
985,4467;0,15913
986,4109;0,160984
987,3751;0,162596
988,3394;0,164017
989,3036;0,165292
990,2678;0,166449
991,2321;0,167499
992,1963;0,168442
993,1605;0,169277
994,1248;0,170017
995,0890;0,170691
996,0532;0,171345
997,0175;0,172023
997,9817;0,172751
998,9459;0,173531
999,9102;0,174348
1000,8744;0,175189
1001,8386;0,176061
1002,8029;0,177
1003,7671;0,178054
1004,7313;0,179268
1005,6956;0,180664
1006,6598;0,182241
1007,6240;0,18398
1008,5883;0,185861
1009,5525;0,18787
1010,5167;0,189993
1011,4810;0,192214
1012,4452;0,194503
1013,4094;0,19682
1014,3737;0,199118
1015,3379;0,201348
1016,3021;0,203471
1017,2664;0,205455
1018,2306;0,207286
1019,1948;0,208966
1020,1591;0,210514
1021,1233;0,211959
1022,0875;0,213329
1023,0518;0,21464
1024,0160;0,215893
1024,9802;0,217073
1025,9445;0,218158
1026,9087;0,219125
1027,8729;0,219942
1028,8372;0,220571
1029,8014;0,22096
1030,7656;0,221041
1031,7299;0,220746
1032,6941;0,220023
1033,6583;0,218858
1034,6226;0,217293
1035,5868;0,215422
1036,5510;0,21338
1037,5153;0,211319
1038,4795;0,209379
1039,4437;0,20767
1040,4080;0,206264
1041,3722;0,205187
1042,3364;0,20443
1043,3007;0,203946
1044,2649;0,20366
1045,2291;0,203483
1046,1934;0,203321
1047,1576;0,203097
1048,1218;0,20275
1049,0861;0,202241
1050,0503;0,201543
1051,0145;0,200638
1051,9788;0,199517
1052,9430;0,198184
1053,9072;0,196657
1054,8715;0,194958
1055,8357;0,193097
1056,7999;0,191056
1057,7642;0,188786
1058,7284;0,186231
1059,6926;0,183355
1060,6569;0,18018
1061,6211;0,176791
1062,5853;0,173323
1063,5496;0,169922
1064,5138;0,166707
1065,4780;0,163744
1066,4423;0,161043
1067,4065;0,158576
1068,3707;0,156291
1069,3350;0,15414
1070,2992;0,152078
1071,2634;0,150065
1072,2277;0,148069
1073,1919;0,146056
1074,1561;0,144007
1075,1204;0,141912
1076,0846;0,139786
1077,0488;0,137659
1078,0131;0,135571
1078,9773;0,133571
1079,9415;0,131706
1080,9058;0,130016
1081,8700;0,128533
1082,8342;0,127275
1083,7985;0,126236
1084,7627;0,125394
1085,7269;0,124711
1086,6912;0,12415
1087,6554;0,123681
1088,6196;0,123287
1089,5839;0,122964
1090,5481;0,122714
1091,5123;0,122535
1092,4766;0,122422
1093,4408;0,122365
1094,4050;0,122353
1095,3693;0,122378
1096,3335;0,12243
1097,2977;0,122502
1098,2620;0,122582
1099,2262;0,12266
1100,1904;0,122725
1101,1547;0,122771
1102,1189;0,12279
1103,0831;0,122769
1104,0474;0,122691
1105,0116;0,12254
1105,9758;0,122302
1106,9401;0,121973
1107,9043;0,121556
1108,8685;0,12105
1109,8328;0,120441
1110,7970;0,119698
1111,7612;0,118787
1112,7255;0,117687
1113,6897;0,116413
1114,6539;0,115016
1115,6182;0,113575
1116,5824;0,112169
1117,5466;0,110849
1118,5109;0,109629
1119,4751;0,108482
1120,4393;0,107357
1121,4036;0,106196
1122,3678;0,104944
1123,3320;0,10356
1124,2963;0,102015
1125,2605;0,100299
1126,2247;0,0984202
1127,1890;0,0964088
1128,1532;0,0943098
1129,1174;0,0921749
1130,0817;0,0900509
1131,0459;0,087974
1132,0101;0,0859705
1132,9744;0,0840636
1133,9386;0,0822813
1134,9028;0,0806595
1135,8671;0,0792381
1136,8313;0,0780529
1137,7955;0,0771262
1138,7598;0,0764613
1139,7240;0,0760435
1140,6882;0,075844
1141,6525;0,0758275
1142,6167;0,075959
1143,5809;0,0762081
1144,5452;0,076551
1145,5094;0,0769703
1146,4736;0,0774533
1147,4379;0,0779911
1148,4021;0,0785767
1149,3663;0,0792032
1150,3306;0,079861
1151,2948;0,0805346
1152,2590;0,0812009
1153,2233;0,0818305
1154,1875;0,0823893
1155,1517;0,0828397
1156,1160;0,0831391
1157,0802;0,0832369
1158,0444;0,0830734
1159,0087;0,0825841
1159,9729;0,0817106
1160,9371;0,0804147
1161,9014;0,0786909
1162,8656;0,0765712
1163,8298;0,0741222
1164,7941;0,0714355
1165,7583;0,0686148
1166,7225;0,0657643
1167,6868;0,0629773
1168,6510;0,0603288
1169,6152;0,0578719
1170,5795;0,0556377
1171,5437;0,0536395
1172,5079;0,0518772
1173,4722;0,0503413
1174,4364;0,0490145
1175,4006;0,0478747
1176,3649;0,0468989
1177,3291;0,0460676
1178,2933;0,0453678
1179,2576;0,0447905
1180,2218;0,0443254
1181,1860;0,0439572
1182,1503;0,0436663
1183,1145;0,0434348
1184,0787;0,0432535
1185,0430;0,0431244
1186,0072;0,0430567
1186,9714;0,0430605
1187,9357;0,0431408
1188,8999;0,0432972
1189,8641;0,0435265
1190,8284;0,0438262
1191,7926;0,0441948
1192,7568;0,0446297
1193,7211;0,0451247
1194,6853;0,0456701
1195,6495;0,046254
1196,6138;0,0468653
1197,5780;0,0474931
1198,5422;0,0481263
1199,5065;0,0487373
1200,4707;0,0493472
1201,4349;0,0499291
1202,3992;0,0504783
1203,3634;0,050994
1204,3276;0,0514779
1205,2919;0,051932
1206,2561;0,0523588
1207,2203;0,0527643
1208,1846;0,0531614
1209,1488;0,0535708
1210,1130;0,0540184
1211,0773;0,054528
1212,0415;0,0551144
1213,0057;0,0557788
1213,9700;0,0565103
1214,9342;0,057291
1215,8984;0,0581025
1216,8627;0,0589289
1217,8269;0,0597566
1218,7911;0,0605727
1219,7554;0,0613643
1220,7196;0,0621189
1221,6838;0,0628275
1222,6481;0,0634859
1223,6123;0,0640947
1224,5765;0,0646576
1225,5408;0,0651788
1226,5050;0,0656621
1227,4692;0,0661111
1228,4335;0,0665283
1229,3977;0,0669146
1230,3619;0,0672674
1231,3262;0,0675802
1232,2904;0,0678448
1233,2546;0,0680549
1234,2189;0,0682104
1235,1831;0,0683185
1236,1473;0,0683915
1237,1116;0,0684419
1238,0758;0,0684785
1239,0400;0,0685037
1240,0043;0,0685147
1240,9685;0,068506
1241,9327;0,0684709
1242,8970;0,0684037
1243,8612;0,0682997
1244,8254;0,068156
1245,7897;0,0679727
1246,7539;0,0677536
1247,7181;0,067506
1248,6824;0,06724
1249,6466;0,066966
1250,6108;0,0666933
1251,5751;0,0664283
1252,5393;0,0661747
1253,5035;0,065934
1254,4678;0,065705
1255,4320;0,0654845
1256,3962;0,0652671
1257,3605;0,0650455
1258,3247;0,0648114
1259,2889;0,064557
1260,2532;0,0642756
1261,2174;0,0639627
1262,1816;0,0636151
1263,1459;0,0632311
1264,1101;0,062809
1265,0743;0,0623474
1266,0386;0,061844
1267,0028;0,0612966
1267,9670;0,0607034
1268,9313;0,0600656
1269,8955;0,059389
1270,8597;0,058686
1271,8240;0,057973
1272,7882;0,0572671
1273,7524;0,0565816
1274,7167;0,0559241
1275,6809;0,0552966
1276,6451;0,0546964
1277,6094;0,0541177
1278,5736;0,0535529
1279,5378;0,0529945
1280,5021;0,0524382
1281,4663;0,0518854
1282,4305;0,0513437
1283,3948;0,0508249
1284,3590;0,0503416
1285,3232;0,0499046
1286,2875;0,0495214
1287,2517;0,0491962
1288,2159;0,0489303
1289,1802;0,0487221
1290,1444;0,0485684
1291,1086;0,0484672
1292,0729;0,0484188
1293,0371;0,0484265
1294,0013;0,048494
1294,9656;0,0486233
1295,9298;0,048812
1296,8940;0,0490554
1297,8583;0,0493491
1298,8225;0,0496914
1299,7867;0,0500827
1300,7510;0,0505222
1301,7152;0,0510062
1302,6794;0,0515287
1303,6437;0,0520846
1304,6079;0,0526715
1305,5721;0,053289
1306,5364;0,0539349
1307,5006;0,0546032
1308,4648;0,0552847
1309,4291;0,0559699
1310,3933;0,0566499
1311,3575;0,0573142
1312,3218;0,0579475
1313,2860;0,058528
1314,2502;0,0590306
1315,2145;0,0594316
1316,1787;0,0597113
1317,1429;0,0598571
1318,1072;0,0598672
1319,0714;0,0597554
1320,0356;0,0595517
1320,9999;0,0592953
1321,9641;0,0590227
1322,9283;0,0587597
1323,8926;0,0585208
1324,8568;0,0583117
1325,8210;0,0581332
1326,7853;0,0579821
1327,7495;0,0578511
1328,7137;0,0577288
1329,6780;0,0576009
1330,6422;0,0574534
1331,6064;0,0572764
1332,5707;0,0570659
1333,5349;0,0568213
1334,4991;0,0565391
1335,4634;0,0562061
1336,4276;0,0558
1337,3918;0,0553003
1338,3561;0,0547126
1339,3203;0,0540856
1340,2845;0,0534949
1341,2488;0,052998
1342,2130;0,0526057
1343,1772;0,0522953
1344,1415;0,0520389
1345,1057;0,0518226
1346,0699;0,0516512
1347,0342;0,0515417
1347,9984;0,0515112
1348,9626;0,0515666
1349,9269;0,0517005
1350,8911;0,0518948
1351,8553;0,0521286
1352,8196;0,0523857
1353,7838;0,0526597
1354,7480;0,0529547
1355,7123;0,0532793
1356,6765;0,0536394
1357,6407;0,054033
1358,6050;0,0544518
1359,5692;0,0548849
1360,5334;0,0553187
1361,4977;0,0557367
1362,4619;0,0561228
1363,4261;0,0564703
1364,3904;0,0567842
1365,3546;0,0570728
1366,3188;0,0573389
1367,2831;0,0575778
1368,2473;0,0577788
1369,2115;0,057927
1370,1758;0,0580038
1371,1400;0,057986
1372,1042;0,0578475
1373,0685;0,0575725
1374,0327;0,0571748
1374,9969;0,0567034
1375,9612;0,0562098
1376,9254;0,0557061
1377,8896;0,055158
1378,8539;0,0545201
1379,8181;0,0537797
1380,7823;0,0529764
1381,7466;0,0521806
1382,7108;0,0514435
1383,6750;0,0507638
1384,6393;0,0500941
1385,6035;0,049385
1386,5677;0,0486414
1387,5320;0,0479456
1388,4962;0,0474009
1389,4604;0,0470475
1390,4247;0,0468494
1391,3889;0,046742
1392,3531;0,0466743
1393,3174;0,0466233
1394,2816;0,0465902
1395,2458;0,0465861
1396,2101;0,0466169
1397,1743;0,0466786
1398,1385;0,0467674
1399,1028;0,0468869
1400,0670;0,0470449
1401,0313;0,0472454
1401,9955;0,0474849
1402,9597;0,0477575
1403,9240;0,0480594
1404,8882;0,0483916
1405,8524;0,048757
1406,8167;0,0491567
1407,7809;0,0495906
1408,7451;0,0500602
1409,7094;0,0505716
1410,6736;0,0511294
1411,6378;0,0517281
1412,6021;0,0523474
1413,5663;0,0529614
1414,5305;0,0535499
1415,4948;0,0541027
1416,4590;0,0546142
1417,4232;0,0550741
1418,3875;0,055467
1419,3517;0,0557843
1420,3159;0,0560259
1421,2802;0,0561808
1422,2444;0,0562223
1423,2086;0,0561283
1424,1729;0,0559028
1425,1371;0,055574
1426,1013;0,0551648
1427,0656;0,0546648
1428,0298;0,0540368
1428,9940;0,0532646
1429,9583;0,052403
1430,9225;0,0515644
1431,8867;0,0508334
1432,8510;0,0502
1433,8152;0,049568
1434,7794;0,0488215
1435,7437;0,0479261
1436,7079;0,0470124
1437,6721;0,0463015
1438,6364;0,0459022
1439,6006;0,0457573
1440,5648;0,0457555
1441,5291;0,0458223
1442,4933;0,0459345
1443,4575;0,0460984
1444,4218;0,0463233
1445,3860;0,0466046
1446,3502;0,0469232
1447,3145;0,0472557
1448,2787;0,0475874
1449,2429;0,0479159
1450,2072;0,0482435
1451,1714;0,048566
1452,1356;0,0488685
1453,0999;0,0491243
1454,0641;0,0492897
1455,0283;0,0492896
1455,9926;0,0490364
1456,9568;0,0485701
1457,9210;0,048172
1458,8853;0,0480639
1459,8495;0,0481831
1460,8137;0,0483584
1461,7780;0,0484391
1462,7422;0,0482942
1463,7064;0,047819
1464,6707;0,0470135
1465,6349;0,0460444
1466,5991;0,0451319
1467,5634;0,0443679
1468,5276;0,0436904
1469,4918;0,0429586
1470,4561;0,0420037
1471,4203;0,0406749
1472,3845;0,038966
1473,3488;0,0371534
1474,3130;0,0356239
1475,2772;0,0345204
1476,2415;0,0337394
1477,2057;0,0331373
1478,1699;0,0326252
1479,1342;0,0321634
1480,0984;0,0317415
1481,0626;0,0313689
1482,0269;0,0310697
1482,9911;0,0308686
1483,9553;0,0307739
1484,9196;0,0307699
1485,8838;0,0308222
1486,8480;0,0308909
1487,8123;0,03095
1488,7765;0,0310133
1489,7407;0,0311388
1490,7050;0,0313739
1491,6692;0,0317115
1492,6334;0,0321162
1493,5977;0,0325628
1494,5619;0,0330484
1495,5261;0,0335874
1496,4904;0,0341964
1497,4546;0,0348726
1498,4188;0,0355865
1499,3831;0,0362986
1500,3473;0,0369769
1501,3115;0,0375971
1502,2758;0,038139
1503,2400;0,0385824
1504,2042;0,0388955
1505,1685;0,0390036
1506,1327;0,0387705
1507,0969;0,0381653
1508,0612;0,0374978
1509,0254;0,0370548
1509,9896;0,0368002
1510,9539;0,0365995
1511,9181;0,0363588
1512,8823;0,0360206
1513,8466;0,0355456
1514,8108;0,0349195
1515,7750;0,0341741
1516,7393;0,0333848
1517,7035;0,0326249
1518,6677;0,0319138
1519,6320;0,0312178
1520,5962;0,0305082
1521,5604;0,0298193
1522,5247;0,0292311
1523,4889;0,0287921
1524,4531;0,0284876
1525,4174;0,0282786
1526,3816;0,0281445
1527,3458;0,0280877
1528,3101;0,0281106
1529,2743;0,0281999
1530,2385;0,0283322
1531,2028;0,0284906
1532,1670;0,0286766
1533,1312;0,0289095
1534,0955;0,0292065
1535,0597;0,0295614
1536,0239;0,0299472
1536,9882;0,0303315
1537,9524;0,030675
1538,9166;0,030897
1539,8809;0,0308461
1540,8451;0,0304481
1541,8093;0,0299515
1542,7736;0,0296469
1543,7378;0,0295538
1544,7020;0,0295821
1545,6663;0,029672
1546,6305;0,0297986
1547,5947;0,0299447
1548,5590;0,0300896
1549,5232;0,0302139
1550,4874;0,030314
1551,4517;0,0304097
1552,4159;0,0305322
1553,3801;0,0306986
1554,3444;0,0308957
1555,3086;0,03108
1556,2728;0,0311772
1557,2371;0,0310861
1558,2013;0,030788
1559,1655;0,0305414
1560,1298;0,0306205
1561,0940;0,0309762
1562,0582;0,0314489
1563,0225;0,0319419
1563,9867;0,032413
1564,9509;0,0328427
1565,9152;0,0332218
1566,8794;0,0335578
1567,8436;0,0338855
1568,8079;0,0342595
1569,7721;0,0347133
1570,7363;0,0352288
1571,7006;0,0357588
1572,6648;0,036272
1573,6290;0,0367723
1574,5933;0,0372933
1575,5575;0,0378705
1576,5217;0,0385015
1577,4860;0,0391444
1578,4502;0,0397692
1579,4144;0,0403812
1580,3787;0,0410014
1581,3429;0,0416481
1582,3071;0,0423291
1583,2714;0,0430412
1584,2356;0,0437755
1585,1998;0,0445244
1586,1641;0,0452816
1587,1283;0,0460344
1588,0925;0,0467586
1589,0568;0,047422
1590,0210;0,0479932
1590,9852;0,0484467
1591,9495;0,048762
1592,9137;0,0489235
1593,8779;0,0489288
1594,8422;0,0487994
1595,8064;0,0485788
1596,7706;0,0483145
1597,7349;0,0480367
1598,6991;0,0477536
1599,6633;0,0474607
1600,6276;0,0471561
1601,5918;0,0468487
1602,5560;0,0465572
1603,5203;0,0462988
1604,4845;0,0460767
1605,4487;0,0458762
1606,4130;0,0456728
1607,3772;0,0454492
1608,3414;0,0452152
1609,3057;0,0450107
1610,2699;0,0448812
1611,2341;0,0448416
1612,1984;0,0448654
1613,1626;0,0448992
1614,1268;0,0448835
1615,0911;0,0447804
1616,0553;0,0446162
1617,0195;0,044491
1617,9838;0,0444907
1618,9480;0,0446044
1619,9122;0,0447587
1620,8765;0,0448823
1621,8407;0,0449357
1622,8049;0,0449206
1623,7692;0,0448753
1624,7334;0,0448447
1625,6976;0,0448455
1626,6619;0,044868
1627,6261;0,0449039
1628,5903;0,0449634
1629,5546;0,0450624
1630,5188;0,0451999
1631,4830;0,0453485
1632,4473;0,0454573
1633,4115;0,0454564
1634,3757;0,0452737
1635,3400;0,0449109
1636,3042;0,0445293
1637,2684;0,0443189
1638,2327;0,0443
1639,1969;0,0443816
1640,1611;0,0444877
1641,1254;0,0445859
1642,0896;0,0446643
1643,0538;0,0447035
1644,0181;0,0446571
1644,9823;0,0444604
1645,9465;0,0441014
1646,9108;0,0437106
1647,8750;0,0434704
1648,8392;0,0434187
1649,8035;0,0434404
1650,7677;0,0433527
1651,7319;0,042934
1652,6962;0,0420555
1653,6604;0,0410357
1654,6246;0,0404271
1655,5889;0,040286
1656,5531;0,0403448
1657,5173;0,0404004
1658,4816;0,0403554
1659,4458;0,0401603
1660,4100;0,0397889
1661,3743;0,0392635
1662,3385;0,0386898
1663,3027;0,0382109
1664,2670;0,0378968
1665,2312;0,0377076
1666,1954;0,0375393
1667,1597;0,0372727
1668,1239;0,0368163
1669,0881;0,0361771
1670,0524;0,035501
1671,0166;0,034957
1671,9808;0,0345749
1672,9451;0,034254
1673,9093;0,0338815
1674,8735;0,0334249
1675,8378;0,0329571
1676,8020;0,0325935
1677,7662;0,0323915
1678,7305;0,0323196
1679,6947;0,0322945
1680,6589;0,0322125
1681,6232;0,0319492
1682,5874;0,0313866
1683,5516;0,0305554
1684,5159;0,0297464
1685,4801;0,0292357
1686,4443;0,0290123
1687,4086;0,0289224
1688,3728;0,0288515
1689,3370;0,0287607
1690,3013;0,0286602
1691,2655;0,0285748
1692,2297;0,0285192
1693,1940;0,0284903
1694,1582;0,0284687
1695,1224;0,0284243
1696,0867;0,0283223
1697,0509;0,0281371
1698,0151;0,0278779
1698,9794;0,0276076
1699,9436;0,0274204
1700,9078;0,027378
1701,8721;0,0274726
1702,8363;0,0276484
1703,8005;0,0278447
1704,7648;0,0280254
1705,7290;0,0281899
1706,6932;0,0283673
1707,6575;0,0285935
1708,6217;0,0288858
1709,5859;0,0292383
1710,5502;0,0296319
1711,5144;0,0300444
1712,4786;0,0304525
1713,4429;0,0308286
1714,4071;0,0311386
1715,3713;0,0313484
1716,3356;0,0314597
1717,2998;0,0315504
1718,2640;0,0317257
1719,2283;0,0320175
1720,1925;0,0323868
1721,1567;0,0327833
1722,1210;0,033172
1723,0852;0,0335345
1724,0494;0,0338663
1725,0137;0,0341758
1725,9779;0,0344793
1726,9421;0,0347913
1727,9064;0,035114
1728,8706;0,0354307
1729,8348;0,0357025
1730,7991;0,0358668
1731,7633;0,0358458
1732,7275;0,0355997
1733,6918;0,0352111
1734,6560;0,0348583
1735,6202;0,0346417
1736,5845;0,034515
1737,5487;0,0343686
1738,5129;0,0341097
1739,4772;0,0336991
1740,4414;0,0331654
1741,4056;0,0325879
1742,3699;0,0320418
1743,3341;0,0315527
1744,2983;0,0311
1745,2626;0,030646
1746,2268;0,0301464
1747,1910;0,0295417
1748,1553;0,0287667
1749,1195;0,0278114
1750,0837;0,0267875
1751,0480;0,0258745
1752,0122;0,0251752
1752,9764;0,024663
1753,9407;0,0242432
1754,9049;0,023828
1755,8691;0,0233775
1756,8334;0,0229057
1757,7976;0,0224529
1758,7618;0,0220427
1759,7261;0,0216628
1760,6903;0,0212858
1761,6545;0,0209084
1762,6188;0,0205638
1763,5830;0,0202921
1764,5472;0,0201051
1765,5115;0,0199817
1766,4757;0,0198871
1767,4399;0,019791
1768,4042;0,0196719
1769,3684;0,0195107
1770,3326;0,0192888
1771,2969;0,0190058
1772,2611;0,0187084
1773,2253;0,0184782
1774,1896;0,0183676
1775,1538;0,0183642
1776,1180;0,0184144
1777,0823;0,0184616
1778,0465;0,0184679
1779,0107;0,0184228
1779,9750;0,018343
1780,9392;0,0182584
1781,9034;0,0181912
1782,8677;0,0181475
1783,8319;0,0181252
1784,7961;0,0181262
1785,7604;0,0181572
1786,7246;0,0182192
1787,6888;0,0182994
1788,6531;0,0183705
1789,6173;0,0183971
1790,5815;0,0183491
1791,5458;0,0182272
1792,5100;0,0180822
1793,4742;0,0179859
1794,4385;0,017971
1795,4027;0,0180169
1796,3669;0,018081
1797,3312;0,0181262
1798,2954;0,0181301
1799,2596;0,0180888
1800,2239;0,0180181
1801,1881;0,017947
1802,1523;0,0179026
1803,1166;0,0178972
1804,0808;0,0179276
1805,0450;0,0179809
1806,0093;0,0180412
1806,9735;0,0180918
1807,9377;0,0181184
1808,9020;0,018113
1809,8662;0,0180788
1810,8304;0,0180306
1811,7947;0,0179864
1812,7589;0,0179562
1813,7231;0,0179371
1814,6874;0,0179202
1815,6516;0,0178996
1816,6158;0,0178798
1817,5801;0,0178745
1818,5443;0,0178976
1819,5085;0,0179505
1820,4728;0,0180194
1821,4370;0,0180821
1822,4012;0,0181197
1823,3655;0,0181265
1824,3297;0,0181112
1825,2939;0,0180876
1826,2582;0,0180611
1827,2224;0,0180233
1828,1866;0,0179641
1829,1509;0,01789
1830,1151;0,0178314
1831,0793;0,0178226
1832,0436;0,0178717
1833,0078;0,0179549
1833,9720;0,0180347
1834,9363;0,0180824
1835,9005;0,0180912
1836,8647;0,0180786
1837,8290;0,0180743
1838,7932;0,0180973
1839,7574;0,0181433
1840,7217;0,0181895
1841,6859;0,018209
1842,6501;0,0181849
1843,6144;0,018123
1844,5786;0,0180529
1845,5428;0,0180053
1846,5071;0,0179854
1847,4713;0,0179751
1848,4355;0,0179542
1849,3998;0,0179171
1850,3640;0,0178749
1851,3282;0,0178477
1852,2925;0,0178517
1853,2567;0,017891
1854,2209;0,0179563
1855,1852;0,0180316
1856,1494;0,0181005
1857,1136;0,0181506
1858,0779;0,0181753
1859,0421;0,0181745
1860,0063;0,0181572
1860,9706;0,0181396
1861,9348;0,0181394
1862,8990;0,0181653
1863,8633;0,0182111
1864,8275;0,0182564
1865,7917;0,0182742
1866,7560;0,018246
1867,7202;0,0181789
1868,6844;0,0181127
1869,6487;0,0180928
1870,6129;0,0181315
1871,5771;0,018202
1872,5414;0,0182638
1873,5056;0,0182863
1874,4698;0,0182604
1875,4341;0,0181997
1876,3983;0,0181342
1877,3625;0,018094
1878,3268;0,018094
1879,2910;0,0181274
1880,2552;0,0181729
1881,2195;0,0182095
1882,1837;0,0182278
1883,1479;0,0182342
1884,1122;0,0182441
1885,0764;0,0182688
1886,0406;0,0183071
1887,0049;0,0183437
1887,9691;0,0183581
1888,9333;0,018339
1889,8976;0,0182949
1890,8618;0,0182495
1891,8260;0,0182243
1892,7903;0,0182246
1893,7545;0,0182388
1894,7188;0,0182491
1895,6830;0,0182446
1896,6472;0,0182289
1897,6115;0,018217
1898,5757;0,0182228
1899,5399;0,0182493
1900,5042;0,0182871
1901,4684;0,0183212
1902,4326;0,0183418
1903,3969;0,01835
1904,3611;0,0183572
1905,3253;0,0183759
1906,2896;0,0184112
1907,2538;0,0184568
1908,2180;0,0184975
1909,1823;0,0185175
1910,1465;0,018509
1911,1107;0,0184749
1912,0750;0,0184258
1913,0392;0,018374
1914,0034;0,0183327
1914,9677;0,0183168
1915,9319;0,0183418
1916,8961;0,0184161
1917,8604;0,018532
1918,8246;0,0186641
1919,7888;0,0187797
1920,7531;0,0188516
1921,7173;0,0188636
1922,6815;0,0188114
1923,6458;0,0187034
1924,6100;0,0185619
1925,5742;0,0184208
1926,5385;0,0183184
1927,5027;0,0182873
1928,4669;0,0183422
1929,4312;0,0184695
1930,3954;0,0186262
1931,3596;0,0187563
1932,3239;0,0188186
1933,2881;0,0188073
1934,2523;0,0187507
1935,2166;0,0186899
1936,1808;0,0186547
1937,1450;0,018652
1938,1093;0,0186731
1939,0735;0,0187097
1940,0377;0,0187641
1941,0020;0,018843
1941,9662;0,0189424
1942,9304;0,019036
1943,8947;0,0190862
1944,8589;0,0190696
1945,8231;0,018995
1946,7874;0,018899
1947,7516;0,0188262
1948,7158;0,0188058
1949,6801;0,0188366
1950,6443;0,018886
1951,6085;0,0189074
1952,5728;0,0188655
1953,5370;0,0187556
1954,5012;0,018609
1955,4655;0,0184807
1956,4297;0,0184283
1957,3939;0,01849
1958,3582;0,0186706
1959,3224;0,0189395
1960,2866;0,0192402
1961,2509;0,019512
1962,2151;0,0197135
1963,1793;0,0198339
1964,1436;0,0198853
1965,1078;0,0198825
1966,0720;0,0198221
1967,0363;0,0196799
1968,0005;0,0194325
1968,9647;0,0190911
1969,9290;0,0187188
1970,8932;0,0184167
1971,8574;0,0182853
1972,8217;0,0183805
1973,7859;0,0186832
1974,7501;0,0190979
1975,7144;0,0194916
1976,6786;0,0197532
1977,6428;0,0198401
1978,6071;0,0197798
1979,5713;0,0196335
1980,5355;0,019456
1981,4998;0,0192807
1982,4640;0,0191252
1983,4282;0,0190031
1984,3925;0,0189287
1985,3567;0,0189144
1986,3209;0,0189671
1987,2852;0,0190873
1988,2494;0,019271
1989,2136;0,0195061
1990,1779;0,0197636
1991,1421;0,0199903
1992,1063;0,020118
1993,0706;0,0200934
1994,0348;0,0199095
1994,9990;0,0196164
1995,9633;0,0193072
1996,9275;0,019087
1997,8917;0,0190358
1998,8560;0,0191767
1999,8202;0,0194626
2000,7844;0,0197945
2001,7487;0,0200652
2002,7129;0,0202032
2003,6771;0,0201989
2004,6414;0,020103
2005,6056;0,0200022
2006,5698;0,0199769
2007,5341;0,0200605
2008,4983;0,020223
2009,4625;0,0203936
2010,4268;0,0205083
2011,3910;0,0205497
2012,3552;0,0205567
2013,3195;0,0205964
2014,2837;0,0207154
2015,2479;0,0208972
2016,2122;0,0210563
2017,1764;0,021086
2018,1406;0,0209328
2019,1049;0,020643
2020,0691;0,0203398
2021,0333;0,0201533
2021,9976;0,020152
2022,9618;0,020317
2023,9260;0,0205686
2024,8903;0,0208217
2025,8545;0,0210301
2026,8187;0,0211907
2027,7830;0,0213123
2028,7472;0,0213838
2029,7114;0,0213755
2030,6757;0,021272
2031,6399;0,0211078
2032,6041;0,0209681
2033,5684;0,020945
2034,5326;0,0210779
2035,4968;0,0213229
2036,4611;0,0215759
2037,4253;0,0217275
2038,3895;0,0217135
2039,3538;0,0215353
2040,3180;0,0212518
2041,2822;0,0209541
2042,2465;0,0207348
2043,2107;0,0206604
2044,1749;0,0207534
2045,1392;0,0209842
2046,1034;0,0212767
2047,0676;0,0215313
2048,0320;0,0216655
2048,9961;0,021653
2049,9604;0,0215302
2050,9246;0,0213677
2051,8889;0,0212295
2052,8530;0,0211478
2053,8174;0,0211207
2054,7815;0,0211288
2055,7458;0,0211547
2056,7100;0,0211934
2057,6743;0,0212462
2058,6384;0,0213062
2059,6028;0,0213503
2060,5669;0,0213482
2061,5313;0,0212822
2062,4954;0,0211638
2063,4597;0,0210313
2064,4238;0,020929
2065,3882;0,0208796
2066,3523;0,0208729
2067,3167;0,0208785
2068,2808;0,0208728
2069,2451;0,020857
2070,2092;0,0208535
2071,1736;0,0208844
2072,1377;0,0209497
2073,1021;0,0210228
2074,0662;0,0210678
2075,0305;0,0210641
2075,9946;0,0210205
2076,9590;0,0209649
2077,9231;0,0209224
2078,8875;0,0208972
2079,8516;0,0208742
2080,8159;0,0208381
2081,7800;0,020792
2082,7444;0,02076
2083,7085;0,020771
2084,6729;0,020835
2085,6370;0,0209315
2086,6013;0,0210169
2087,5654;0,0210468
2088,5298;0,0209987
2089,4939;0,0208825
2090,4583;0,0207359
2091,4224;0,0206109
2092,3867;0,0205567
2093,3508;0,020605
2094,3152;0,0207564
2095,2793;0,020974
2096,2437;0,0211903
2097,2078;0,0213327
2098,1721;0,0213562
2099,1362;0,0212647
2100,1006;0,021107
2101,0647;0,0209491
2102,0291;0,0208421
2102,9932;0,0208024
2103,9575;0,0208153
2104,9216;0,0208546
2105,8860;0,0209018
2106,8501;0,0209524
2107,8145;0,0210086
2108,7786;0,0210691
2109,7429;0,0211253
2110,7070;0,021166
2111,6714;0,0211849
2112,6355;0,0211836
2113,5999;0,021169
2114,5640;0,0211489
2115,5283;0,0211294
2116,4924;0,0211154
2117,4568;0,021112
2118,4209;0,0211229
2119,3853;0,0211476
2120,3494;0,02118
2121,3137;0,0212099
2122,2778;0,0212277
2123,2422;0,0212293
2124,2063;0,0212184
2125,1707;0,0212053
2126,1348;0,0212033
2127,0991;0,0212255
2128,0632;0,0212822
2129,0276;0,0213796
2129,9917;0,0215199
2130,9561;0,0217004
2131,9202;0,0219125
2132,8845;0,0221387
2133,8486;0,0223516
2134,8130;0,022519
2135,7771;0,022615
2136,7415;0,0226332
2137,7056;0,0225917
2138,6699;0,022526
2139,6340;0,0224723
2140,5984;0,0224536
2141,5625;0,0224754
2142,5269;0,0225334
2143,4910;0,0226226
2144,4553;0,0227382
2145,4194;0,0228696
2146,3838;0,0229968
2147,3479;0,0231004
2148,3123;0,023182
2149,2764;0,0232763
2150,2407;0,0234363
2151,2048;0,0236928
2152,1692;0,0240166
2153,1333;0,0243134
2154,0977;0,0244652
2155,0618;0,0243972
2156,0261;0,0241315
2156,9902;0,02379
2157,9546;0,0235271
2158,9187;0,0234253
2159,8831;0,0234416
2160,8472;0,0234621
2161,8115;0,0234035
2162,7756;0,0232659
2163,7400;0,0231125
2164,7041;0,023016
2165,6685;0,0230141
2166,6326;0,023095
2167,5969;0,0232124
2168,5610;0,0233151
2169,5254;0,0233719
2170,4895;0,0233815
2171,4539;0,0233677
2172,4180;0,0233626
2173,3823;0,0233847
2174,3464;0,0234202
2175,3108;0,023423
2176,2749;0,0233391
2177,2393;0,0231452
2178,2034;0,0228772
2179,1677;0,0226251
2180,1318;0,0224909
2181,0962;0,0225285
2182,0603;0,0227041
2183,0247;0,0229094
2183,9888;0,0230277
2184,9531;0,0230086
2185,9172;0,0228986
2186,8816;0,0228053
2187,8457;0,0228227
2188,8101;0,0229671
2189,7742;0,0231665
2190,7385;0,0233085
2191,7026;0,023312
2192,6670;0,0231727
2193,6311;0,0229553
2194,5955;0,0227433
2195,5596;0,0225842
2196,5239;0,0224705
2197,4880;0,0223631
2198,4524;0,0222359
2199,4165;0,0221053
2200,3809;0,0220247
2201,3450;0,0220492
2202,3093;0,0221997
2203,2734;0,0224472
2204,2378;0,0227244
2205,2019;0,022954
2206,1663;0,0230754
2207,1304;0,0230615
2208,0947;0,0229224
2209,0588;0,0227007
2210,0232;0,0224578
2210,9873;0,0222535
2211,9517;0,0221232
2212,9158;0,0220637
2213,8801;0,0220381
2214,8442;0,0219981
2215,8086;0,0219143
2216,7727;0,0217938
2217,7371;0,0216756
2218,7012;0,0216069
2219,6655;0,0216159
2220,6296;0,0216961
2221,5940;0,0218113
2222,5581;0,0219131
2223,5225;0,0219622
2224,4866;0,0219409
2225,4509;0,0218563
2226,4150;0,0217342
2227,3794;0,0216084
2228,3435;0,0215096
2229,3079;0,0214544
2230,2720;0,0214423
2231,2363;0,0214605
2232,2004;0,0214947
2233,1648;0,0215391
2234,1289;0,0215966
2235,0933;0,0216707
2236,0574;0,0217529
2237,0217;0,0218199
2237,9858;0,0218432
2238,9502;0,021809
2239,9143;0,0217309
2240,8787;0,0216474
2241,8428;0,0216
2242,8071;0,0216085
2243,7712;0,0216575
2244,7356;0,0217063
2245,6997;0,0217147
2246,6641;0,0216681
2247,6282;0,0215854
2248,5925;0,021506
2249,5566;0,0214672
2250,5210;0,021485
2251,4851;0,0215521
2252,4495;0,0216465
2253,4136;0,0217454
2254,3779;0,0218318
2255,3420;0,021894
2256,3064;0,0219236
2257,2705;0,0219152
2258,2349;0,0218714
2259,1990;0,0218053
2260,1633;0,0217383
2261,1274;0,0216913
2262,0918;0,0216748
2263,0559;0,0216844
2264,0203;0,0217036
2264,9844;0,0217124
2265,9487;0,0216961
2266,9128;0,0216511
2267,8772;0,0215847
2268,8413;0,0215127
2269,8057;0,0214534
2270,7698;0,0214205
2271,7341;0,0214167
2272,6982;0,0214307
2273,6626;0,021443
2274,6267;0,0214361
2275,5911;0,0214063
2276,5552;0,021367
2277,5195;0,0213405
2278,4836;0,0213434
2279,4480;0,0213754
2280,4121;0,0214196
2281,3765;0,0214544
2282,3406;0,0214689
2283,3049;0,0214693
2284,2690;0,0214747
2285,2334;0,0215032
2286,1975;0,0215612
2287,1619;0,0216392
2288,1260;0,0217183
2289,0903;0,0217803
2290,0544;0,0218156
2291,0188;0,0218243
2291,9829;0,0218139
2292,9473;0,0217948
2293,9114;0,021779
2294,8757;0,0217779
2295,8398;0,0217999
2296,8042;0,0218463
2297,7683;0,0219074
2298,7327;0,0219648
2299,6968;0,0219988
2300,6611;0,0219989
2301,6252;0,0219705
2302,5896;0,0219333
2303,5537;0,0219126
2304,5181;0,021927
2305,4822;0,0219783
2306,4465;0,0220485
2307,4106;0,0221046
2308,3750;0,0221109
2309,3391;0,0220442
2310,3035;0,0219056
2311,2676;0,0217237
2312,2319;0,0215446
2313,1960;0,0214121
2314,1604;0,0213483
2315,1245;0,0213459
2316,0889;0,0213755
2317,0530;0,0214039
2318,0173;0,0214106
2318,9814;0,021397
2319,9458;0,0213821
2320,9099;0,0213887
2321,8743;0,0214279
2322,8384;0,0214899
2323,8027;0,0215476
2324,7668;0,0215691
2325,7312;0,0215339
2326,6953;0,0214468
2327,6597;0,0213402
2328,6238;0,0212632
2329,5881;0,0212582
2330,5522;0,0213383
2331,5166;0,0214786
2332,4807;0,0216288
2333,4451;0,0217364
2334,4092;0,0217692
2335,3735;0,02173
2336,3376;0,0216569
2337,3020;0,0216095
2338,2661;0,0216407
2339,2305;0,0217649
2340,1946;0,0219365
2341,1589;0,0220534
2342,1230;0,0219981
2343,0874;0,0217325
2344,0515;0,0213953
2345,0159;0,0212422
2345,9800;0,0214207
2346,9443;0,0218471
2347,9084;0,0223027
2348,8728;0,0225919
2349,8369;0,0226318
2350,8013;0,0224669
2351,7654;0,0222312
2352,7297;0,0220722
2353,6938;0,0220722
2354,6582;0,0222235
2355,6223;0,0224683
2356,5867;0,0227335
2357,5508;0,0229299
2358,5151;0,0229611
2359,4792;0,0227735
2360,4436;0,0224021
2361,4077;0,0219548
2362,3721;0,0215457
2363,3362;0,0212386
2364,3005;0,0210338
2365,2646;0,0208872
2366,2290;0,0207412
2367,1931;0,0205538
2368,1575;0,0203148
2369,1216;0,0200468
2370,0859;0,0197899
2371,0500;0,0195831
2372,0144;0,0194509
2372,9785;0,019404
2373,9429;0,0194449
2374,9070;0,0195719
2375,8713;0,0197776
2376,8354;0,0200449
2377,7998;0,0203476
2378,7639;0,0206543
2379,7283;0,0209352
2380,6924;0,0211681
2381,6567;0,0213416
2382,6208;0,0214555
2383,5852;0,0215199
2384,5493;0,0215517
2385,5137;0,0215695
2386,4778;0,0215876
2387,4421;0,0216108
2388,4063;0,021635
2389,3706;0,0216513
2390,3347;0,0216537
2391,2991;0,0216437
2392,2632;0,0216295
2393,2275;0,0216207
2394,1917;0,0216219
2395,1560;0,0216316
2396,1201;0,0216456
2397,0845;0,0216616
2398,0486;0,0216821
2399,0129;0,0217106
2399,9771;0,0217468
2400,9414;0,021785
2401,9055;0,0218157
2402,8699;0,0218316
2403,8340;0,0218327
2404,7983;0,0218271
2405,7625;0,0218271
2406,7268;0,0218418
2407,6909;0,0218725
2408,6553;0,0219127
2409,6194;0,0219511
2410,5837;0,0219783
2411,5479;0,0219917
2412,5122;0,0219954
2413,4763;0,0219979
2414,4407;0,0220067
2415,4048;0,0220247
2416,3691;0,02205
2417,3333;0,0220784
2418,2976;0,022106
2419,2617;0,0221299
2420,2261;0,0221483
2421,1902;0,0221598
2422,1545;0,0221654
2423,1187;0,0221689
2424,0830;0,0221769
2425,0471;0,0221943
2426,0115;0,0222196
2426,9756;0,0222442
2427,9399;0,0222565
2428,9041;0,0222501
2429,8684;0,0222303
2430,8325;0,0222117
2431,7969;0,0222101
2432,7610;0,0222331
2433,7253;0,0222759
2434,6895;0,0223261
2435,6538;0,0223725
2436,6179;0,0224114
2437,5823;0,0224459
2438,5464;0,0224798
2439,5107;0,0225117
2440,4749;0,0225341
2441,4392;0,0225388
2442,4033;0,0225239
2443,3677;0,0224974
2444,3318;0,022474
2445,2961;0,0224685
2446,2603;0,0224881
2447,2246;0,0225305
2448,1887;0,0225864
2449,1531;0,0226452
2450,1172;0,0226988
2451,0815;0,0227433
2452,0457;0,0227769
2453,0100;0,0227979
2453,9741;0,0228034
2454,9385;0,0227918
2455,9026;0,0227651
2456,8669;0,0227304
2457,8311;0,0226991
2458,7954;0,022682
2459,7595;0,022686
2460,7239;0,0227109
2461,6880;0,02275
2462,6523;0,0227932
2463,6165;0,0228305
2464,5808;0,0228545
2465,5449;0,0228616
2466,5093;0,0228532
2467,4734;0,0228351
2468,4377;0,0228173
2469,4019;0,0228115
2470,3662;0,0228267
2471,3303;0,0228642
2472,2947;0,0229152
2473,2588;0,0229641
2474,2231;0,0229951
2475,1873;0,0230008
2476,1516;0,0229862
2477,1157;0,0229657
2478,0801;0,0229561
2479,0442;0,022968
2480,0085;0,0230015
2480,9727;0,0230478
2481,9370;0,0230943
2482,9011;0,0231307
2483,8655;0,0231513
2484,8296;0,0231556
2485,7939;0,0231467
2486,7581;0,0231306
2487,7224;0,0231152
2488,6865;0,0231099
2489,6509;0,0231226
2490,6150;0,023156
2491,5793;0,0232045
2492,5435;0,0232548
2493,5078;0,0232905
2494,4719;0,0232999
2495,4363;0,0232818
2496,4004;0,0232474
2497,3647;0,0232148
2498,3289;0,0232012
2499,2932;0,023215
2500,2573;0,0232533
2501,2217;0,0233048
2502,1858;0,0233562
2503,1501;0,0233972
2504,1143;0,0234227
2505,0786;0,0234322
2506,0427;0,0234284
2507,0071;0,0234169
2507,9712;0,0234057
2508,9355;0,0234036
2509,8997;0,0234171
2510,8640;0,0234462
2511,8281;0,0234825
2512,7925;0,0235122
2513,7566;0,0235224
2514,7209;0,023507
2515,6851;0,0234693
2516,6494;0,0234198
2517,6135;0,0233716
2518,5779;0,0233355
2519,5420;0,0233191
2520,5063;0,0233264
2521,4705;0,0233582
2522,4348;0,0234113
2523,3989;0,0234766
2524,3633;0,0235398
2525,3274;0,0235853
2526,2917;0,0236019
2527,2559;0,0235887
2528,2202;0,0235555
2529,1843;0,0235197
2530,1487;0,023499
2531,1128;0,0235032
2532,0771;0,0235315
2533,0413;0,0235727
2534,0056;0,0236114
2534,9697;0,0236351
2535,9341;0,0236403
2536,8982;0,0236337
2537,8625;0,0236276
2538,8267;0,0236333
2539,7910;0,0236543
2540,7551;0,0236845
2541,7195;0,0237129
2542,6836;0,0237305
2543,6479;0,0237368
2544,6121;0,0237385
2545,5764;0,0237446
2546,5405;0,0237585
2547,5049;0,0237743
2548,4690;0,0237805
2549,4333;0,0237676
2550,3975;0,0237353
2551,3618;0,023695
2552,3259;0,0236642
2553,2903;0,0236576
2554,2544;0,0236795
2555,2188;0,0237216
2556,1829;0,0237678
2557,1472;0,0238028
2558,1113;0,0238202
2559,0757;0,0238243
2560,0398;0,0238266
2561,0042;0,0238374
2561,9683;0,0238581
2562,9326;0,0238795
2563,8967;0,0238868
2564,8611;0,0238694
2565,8252;0,0238283
2566,7896;0,0237776
2567,7537;0,023738
2568,7180;0,0237263
2569,6821;0,0237463
2570,6465;0,0237877
2571,6106;0,023832
2572,5750;0,0238626
2573,5391;0,023873
2574,5034;0,0238688
2575,4675;0,0238627
2576,4319;0,0238669
2577,3960;0,0238869
2578,3604;0,0239204
2579,3245;0,0239599
2580,2888;0,0239969
2581,2529;0,024025
2582,2173;0,0240402
2583,1814;0,0240408
2584,1458;0,0240274
2585,1099;0,0240038
2586,0742;0,023978
2587,0383;0,0239598
2588,0027;0,0239577
2588,9668;0,0239737
2589,9312;0,0240027
2590,8953;0,0240347
2591,8596;0,0240603
2592,8237;0,0240753
2593,7881;0,0240811
2594,7522;0,0240819
2595,7166;0,0240808
2596,6807;0,0240775
2597,6450;0,0240707
2598,6091;0,0240613
2599,5735;0,024055
2600,5376;0,0240608
2601,5020;0,0240865
2602,4661;0,0241332
2603,4304;0,0241933
2604,3945;0,0242525
2605,3589;0,0242954
2606,3230;0,0243123
2607,2874;0,0243033
2608,2515;0,0242778
2609,2158;0,0242501
2610,1799;0,0242331
2611,1443;0,024233
2612,1084;0,0242482
2613,0728;0,0242724
2614,0369;0,0242993
2615,0012;0,0243268
2615,9653;0,024357
2616,9297;0,0243932
2617,8938;0,0244357
2618,8582;0,0244803
2619,8223;0,0245197
2620,7866;0,0245476
2621,7507;0,0245627
2622,7151;0,0245697
2623,6792;0,024576
2624,6436;0,0245879
2625,6077;0,0246068
2626,5720;0,0246298
2627,5361;0,0246515
2628,5005;0,0246688
2629,4646;0,0246824
2630,4290;0,0246964
2631,3931;0,0247154
2632,3574;0,0247416
2633,3215;0,0247729
2634,2859;0,0248037
2635,2500;0,024828
2636,2144;0,0248421
2637,1785;0,0248457
2638,1428;0,0248425
2639,1069;0,024839
2640,0713;0,024842
2641,0354;0,0248571
2641,9998;0,0248869
2642,9639;0,0249294
2643,9282;0,024978
2644,8923;0,0250235
2645,8567;0,0250577
2646,8208;0,025077
2647,7852;0,0250843
2648,7493;0,0250876
2649,7136;0,0250957
2650,6777;0,0251135
2651,6421;0,02514
2652,6062;0,0251698
2653,5706;0,0251967
2654,5347;0,0252177
2655,4990;0,0252338
2656,4631;0,0252489
2657,4275;0,0252665
2658,3916;0,0252879
2659,3560;0,0253119
2660,3201;0,0253362
2661,2844;0,0253585
2662,2485;0,0253777
2663,2129;0,0253939
2664,1770;0,0254075
2665,1414;0,0254191
2666,1055;0,0254296
2667,0698;0,0254402
2668,0339;0,0254524
2668,9983;0,0254676
2669,9624;0,0254861
2670,9268;0,0255076
2671,8909;0,0255302
2672,8552;0,0255516
2673,8193;0,0255696
2674,7837;0,0255832
2675,7478;0,0255929
2676,7122;0,025601
2677,6763;0,0256106
2678,6406;0,0256252
2679,6047;0,0256476
2680,5691;0,0256786
2681,5332;0,0257171
2682,4976;0,025759
2683,4617;0,0257994
2684,4260;0,0258331
2685,3901;0,0258571
2686,3545;0,0258717
2687,3186;0,0258804
2688,2830;0,0258888
2689,2471;0,0259026
2690,2114;0,025926
2691,1755;0,0259602
2692,1399;0,0260029
2693,1040;0,0260489
2694,0684;0,0260918
2695,0325;0,0261265
2695,9968;0,0261508
2696,9609;0,0261666
2697,9253;0,0261785
2698,8894;0,0261922
2699,8538;0,0262117
2700,8179;0,0262388
2701,7822;0,0262734
2702,7463;0,0263137
2703,7107;0,026357
2704,6748;0,0263997
2705,6392;0,0264377
2706,6033;0,0264677
2707,5676;0,0264889
2708,5317;0,0265047
2709,4961;0,0265206
2710,4602;0,0265424
2711,4246;0,0265721
2712,3887;0,0266079
2713,3530;0,0266448
2714,3171;0,0266774
2715,2815;0,0267026
2716,2456;0,0267199
2717,2100;0,0267314
2718,1741;0,0267407
2719,1384;0,0267522
2720,1025;0,0267697
2721,0669;0,0267956
2722,0310;0,0268287
2722,9954;0,0268647
2723,9595;0,026898
2724,9238;0,0269244
2725,8879;0,0269437
2726,8523;0,0269599
2727,8164;0,0269789
2728,7808;0,0270057
2729,7449;0,0270422
2730,7092;0,0270866
2731,6733;0,0271341
2732,6377;0,0271784
2733,6018;0,0272127
2734,5662;0,0272323
2735,5303;0,0272366
2736,4946;0,0272302
2737,4587;0,027222
2738,4231;0,0272219
2739,3872;0,0272366
2740,3516;0,0272662
2741,3157;0,0273044
2742,2800;0,0273424
2743,2441;0,0273722
2744,2085;0,0273907
2745,1726;0,0273994
2746,1370;0,0274036
2747,1011;0,027409
2748,0654;0,0274201
2749,0295;0,0274385
2749,9939;0,0274628
2750,9580;0,0274897
2751,9224;0,0275156
2752,8865;0,0275385
2753,8508;0,0275592
2754,8149;0,027581
2755,7793;0,0276078
2756,7434;0,0276412
2757,7078;0,0276792
2758,6719;0,0277168
2759,6362;0,0277489
2760,6003;0,0277732
2761,5647;0,0277926
2762,5288;0,0278126
2763,4932;0,0278381
2764,4573;0,02787
2765,4216;0,0279047
2766,3857;0,027937
2767,3501;0,0279639
2768,3142;0,0279869
2769,2786;0,0280105
2770,2427;0,0280386
2771,2070;0,0280724
2772,1711;0,0281097
2773,1355;0,028148
2774,0996;0,0281866
2775,0640;0,0282274
2776,0281;0,0282726
2776,9924;0,0283228
2777,9565;0,0283763
2778,9209;0,0284308
2779,8850;0,028485
2780,8494;0,028539
2781,8135;0,0285929
2782,7778;0,0286452
2783,7419;0,0286931
2784,7063;0,0287342
2785,6704;0,0287687
2786,6348;0,0287989
2787,5989;0,0288281
2788,5632;0,0288584
2789,5273;0,0288915
2790,4917;0,0289303
2791,4558;0,0289802
2792,4202;0,0290467
2793,3843;0,0291319
2794,3486;0,0292305
2795,3127;0,0293301
2796,2771;0,0294168
2797,2412;0,0294823
2798,2056;0,0295284
2799,1697;0,0295664
2800,1340;0,0296112
2801,0981;0,0296732
2802,0625;0,0297546
2803,0266;0,0298491
2803,9910;0,0299464
2804,9551;0,0300375
2805,9194;0,0301183
2806,8835;0,0301903
2807,8479;0,0302594
2808,8120;0,0303329
2809,7764;0,0304167
2810,7405;0,030513
2811,7048;0,0306197
2812,6689;0,0307314
2813,6333;0,0308416
2814,5974;0,0309467
2815,5618;0,0310474
2816,5259;0,0311494
2817,4902;0,0312597
2818,4543;0,0313828
2819,4187;0,0315178
2820,3828;0,0316587
2821,3472;0,0317986
2822,3113;0,0319343
2823,2756;0,0320687
2824,2397;0,0322099
2825,2041;0,032366
2826,1682;0,032541
2827,1326;0,0327322
2828,0967;0,0329331
2829,0610;0,0331373
2830,0251;0,0333425
2830,9895;0,0335506
2831,9536;0,0337666
2832,9180;0,0339949
2833,8821;0,0342385
2834,8464;0,034499
2835,8105;0,0347781
2836,7749;0,0350792
2837,7390;0,0354075
2838,7034;0,0357702
2839,6675;0,036177
2840,6318;0,0366405
2841,5959;0,0371743
2842,5603;0,0377893
2843,5244;0,0384862
2844,4888;0,0392461
2845,4529;0,0400252
2846,4172;0,0407569
2847,3813;0,0413628
2848,3457;0,0417728
2849,3098;0,0419451
2850,2742;0,0418792
2851,2383;0,0416158
2852,2026;0,0412238
2853,1667;0,0407792
2854,1311;0,0403469
2855,0952;0,0399679
2856,0596;0,0396588
2857,0237;0,0394182
2857,9880;0,0392366
2858,9521;0,0391052
2859,9165;0,0390194
2860,8806;0,0389781
2861,8450;0,0389803
2862,8091;0,0390219
2863,7734;0,0390953
2864,7375;0,0391911
2865,7019;0,0393001
2866,6660;0,0394156
2867,6304;0,0395327
2868,5945;0,0396472
2869,5588;0,0397548
2870,5229;0,0398512
2871,4873;0,0399345
2872,4514;0,0400059
2873,4158;0,0400707
2874,3799;0,0401361
2875,3442;0,0402088
2876,3083;0,0402929
2877,2727;0,0403892
2878,2368;0,0404953
2879,2012;0,0406077
2880,1653;0,040722
2881,1296;0,0408345
2882,0938;0,0409426
2883,0581;0,0410455
2884,0222;0,0411443
2884,9866;0,0412418
2885,9507;0,0413415
2886,9150;0,0414469
2887,8792;0,0415598
2888,8435;0,0416801
2889,8076;0,0418046
2890,7720;0,0419285
2891,7361;0,0420465
2892,7004;0,0421559
2893,6646;0,042258
2894,6289;0,0423582
2895,5930;0,0424628
2896,5574;0,0425753
2897,5215;0,0426946
2898,4858;0,0428154
2899,4500;0,0429325
2900,4143;0,0430445
2901,3784;0,0431554
2902,3428;0,0432728
2903,3069;0,0434046
2904,2712;0,0435572
2905,2354;0,0437347
2906,1997;0,0439423
2907,1638;0,0441884
2908,1282;0,0444857
2909,0923;0,0448493
2910,0566;0,0452908
2911,0208;0,045811
2911,9851;0,046392
2912,9492;0,0469942
2913,9136;0,0475591
2914,8777;0,0480209
2915,8420;0,0483227
2916,8062;0,0484316
2917,7705;0,0483462
2918,7346;0,0480924
2919,6990;0,0477119
2920,6631;0,0472479
2921,6274;0,0467366
2922,5916;0,0462041
2923,5559;0,0456689
2924,5200;0,0451441
2925,4844;0,0446389
2926,4485;0,0441589
2927,4128;0,0437064
2928,3770;0,0432826
2929,3413;0,0428883
2930,3054;0,0425234
2931,2698;0,042186
2932,2339;0,0418711
2933,1982;0,0415717
2934,1624;0,0412818
2935,1267;0,0409978
2936,0908;0,040719
2937,0552;0,0404455
2938,0193;0,0401763
2938,9836;0,0399096
2939,9478;0,0396443
2940,9121;0,039381
2941,8762;0,0391213
2942,8406;0,0388664
2943,8047;0,0386152
2944,7690;0,0383662
2945,7332;0,0381191
2946,6975;0,0378782
2947,6616;0,0376509
2948,6260;0,0374448
2949,5901;0,0372635
2950,5544;0,0371042
2951,5186;0,0369591
2952,4829;0,0368186
2953,4470;0,0366755
2954,4114;0,0365267
2955,3755;0,036373
2956,3398;0,0362168
2957,3040;0,03606
2958,2683;0,0359039
2959,2324;0,035749
2960,1968;0,0355967
2961,1609;0,0354487
2962,1252;0,035307
2963,0894;0,0351716
2964,0537;0,0350399
2965,0178;0,0349067
2965,9822;0,034767
2966,9463;0,0346184
2967,9106;0,034463
2968,8748;0,034306
2969,8391;0,0341533
2970,8032;0,0340083
2971,7676;0,0338707
2972,7317;0,0337379
2973,6960;0,033608
2974,6602;0,0334812
2975,6245;0,0333601
2976,5886;0,0332478
2977,5530;0,0331457
2978,5171;0,0330533
2979,4814;0,0329692
2980,4456;0,0328925
2981,4099;0,032824
2982,3740;0,0327651
2983,3384;0,0327164
2984,3025;0,0326766
2985,2668;0,0326422
2986,2310;0,0326094
2987,1953;0,0325754
2988,1594;0,0325395
2989,1238;0,032503
2990,0879;0,0324683
2991,0522;0,0324382
2992,0164;0,0324155
2992,9807;0,0324022
2993,9448;0,0324001
2994,9092;0,0324094
2995,8733;0,0324287
2996,8376;0,0324552
2997,8018;0,0324852
2998,7661;0,0325157
2999,7302;0,0325459
3000,6946;0,0325765
3001,6587;0,0326102
3002,6230;0,0326489
3003,5872;0,0326933
3004,5515;0,0327421
3005,5156;0,032792
3006,4800;0,032839
3007,4441;0,0328791
3008,4084;0,0329098
3009,3726;0,0329311
3010,3369;0,0329463
3011,3010;0,0329619
3012,2654;0,0329855
3013,2295;0,0330223
3014,1938;0,0330729
3015,1580;0,0331327
3016,1223;0,0331953
3017,0864;0,0332556
3018,0508;0,033313
3019,0149;0,0333705
3019,9792;0,0334315
3020,9434;0,0334972
3021,9077;0,0335657
3022,8718;0,0336339
3023,8362;0,0337
3024,8003;0,0337655
3025,7646;0,033833
3026,7288;0,0339051
3027,6931;0,0339819
3028,6572;0,0340611
3029,6216;0,0341397
3030,5857;0,0342152
3031,5500;0,0342866
3032,5142;0,0343542
3033,4785;0,03442
3034,4426;0,0344872
3035,4070;0,03456
3036,3711;0,0346422
3037,3354;0,0347351
3038,2996;0,0348358
3039,2639;0,0349385
3040,2280;0,0350368
3041,1924;0,0351273
3042,1565;0,0352116
3043,1208;0,0352946
3044,0850;0,0353816
3045,0493;0,0354752
3046,0134;0,0355744
3046,9778;0,0356762
3047,9419;0,0357778
3048,9063;0,0358789
3049,8704;0,0359803
3050,8347;0,0360833
3051,7988;0,0361876
3052,7632;0,0362914
3053,7273;0,0363927
3054,6917;0,0364911
3055,6558;0,0365886
3056,6201;0,0366886
3057,5842;0,0367943
3058,5486;0,0369067
3059,5127;0,037024
3060,4771;0,0371424
3061,4412;0,0372574
3062,4055;0,0373652
3063,3696;0,0374648
3064,3340;0,0375582
3065,2981;0,0376501
3066,2625;0,0377461
3067,2266;0,0378495
3068,1909;0,0379601
3069,1550;0,0380744
3070,1194;0,0381888
3071,0835;0,0383022
3072,0479;0,0384177
3073,0120;0,0385398
3073,9763;0,0386708
3074,9404;0,0388073
3075,9048;0,0389407
3076,8689;0,0390614
3077,8333;0,0391648
3078,7974;0,0392546
3079,7617;0,0393408
3080,7258;0,0394346
3081,6902;0,0395419
3082,6543;0,0396613
3083,6187;0,0397854
3084,5828;0,0399064
3085,5471;0,0400203
3086,5112;0,0401285
3087,4756;0,0402363
3088,4397;0,0403495
3089,4041;0,040471
3090,3682;0,0405994
3091,3325;0,0407303
3092,2966;0,0408587
3093,2610;0,0409815
3094,2251;0,0410995
3095,1895;0,0412157
3096,1536;0,041334
3097,1179;0,0414557
3098,0820;0,0415791
3099,0464;0,0417
3100,0105;0,0418146
3100,9749;0,0419217
3101,9390;0,0420241
3102,9033;0,0421269
3103,8674;0,042236
3104,8318;0,0423552
3105,7959;0,0424857
3106,7603;0,0426257
3107,7244;0,0427717
3108,6887;0,0429198
3109,6528;0,0430667
3110,6172;0,0432099
3111,5813;0,0433478
3112,5457;0,0434797
3113,5098;0,0436057
3114,4741;0,0437269
3115,4382;0,0438456
3116,4026;0,0439647
3117,3667;0,0440869
3118,3311;0,0442143
3119,2952;0,0443473
3120,2595;0,0444849
3121,2236;0,0446248
3122,1880;0,0447641
3123,1521;0,0449004
3124,1165;0,0450335
3125,0806;0,0451659
3126,0449;0,0453015
3127,0090;0,0454436
3127,9734;0,0455924
3128,9375;0,0457445
3129,9019;0,0458956
3130,8660;0,0460433
3131,8303;0,0461895
3132,7944;0,0463389
3133,7588;0,0464947
3134,7229;0,0466555
3135,6873;0,0468151
3136,6514;0,0469665
3137,6157;0,0471066
3138,5798;0,0472378
3139,5442;0,047367
3140,5083;0,0475004
3141,4727;0,0476405
3142,4368;0,0477856
3143,4011;0,047933
3144,3652;0,0480824
3145,3296;0,0482371
3146,2937;0,0484012
3147,2581;0,0485758
3148,2222;0,0487562
3149,1865;0,0489339
3150,1506;0,0491001
3151,1150;0,0492513
3152,0791;0,0493904
3153,0435;0,049525
3154,0076;0,0496624
3154,9719;0,0498055
3155,9360;0,0499527
3156,9004;0,0501015
3157,8645;0,0502518
3158,8289;0,0504076
3159,7930;0,0505732
3160,7573;0,0507487
3161,7214;0,0509267
3162,6858;0,0510959
3163,6499;0,0512475
3164,6143;0,0513821
3165,5784;0,0515103
3166,5427;0,0516472
3167,5068;0,0518036
3168,4712;0,0519799
3169,4353;0,0521462
3170,3997;0,0523295
3171,3638;0,0525004
3172,3281;0,0526569
3173,2922;0,0528028
3174,2566;0,0529431
3175,2207;0,0530807
3176,1851;0,0532159
3177,1492;0,05335
3178,1135;0,0534865
3179,0776;0,053631
3180,0420;0,0537873
3181,0061;0,0539551
3181,9705;0,0541292
3182,9346;0,0543027
3183,8989;0,0544708
3184,8630;0,0546325
3185,8274;0,0547903
3186,7915;0,0549472
3187,7559;0,0551047
3188,7200;0,0552625
3189,6843;0,05542
3190,6484;0,0555774
3191,6128;0,0557347
3192,5769;0,0558909
3193,5413;0,0560434
3194,5054;0,0561896
3195,4697;0,0563295
3196,4338;0,0564669
3197,3982;0,0566081
3198,3623;0,0567578
3199,3267;0,0569162
3200,2908;0,0570781
3201,2551;0,0572363
3202,2192;0,0573859
3203,1836;0,0575262
3204,1477;0,0576604
3205,1121;0,0577933
3206,0762;0,0579286
3207,0405;0,0580675
3208,0046;0,0582096
3208,9690;0,0583532
3209,9331;0,058496
3210,8975;0,058636
3211,8616;0,0587722
3212,8259;0,0589059
3213,7900;0,0590403
3214,7544;0,0591783
3215,7185;0,0593205
3216,6829;0,0594635
3217,6470;0,0596023
3218,6113;0,0597336
3219,5754;0,0598589
3220,5398;0,0599844
3221,5039;0,060117
3222,4683;0,0602599
3223,4324;0,0604099
3224,3967;0,0605601
3225,3608;0,0607039
3226,3252;0,0608389
3227,2893;0,0609677
3228,2537;0,0610949
3229,2178;0,0612241
3230,1821;0,0613562
3231,1462;0,0614899
3232,1106;0,0616247
3233,0747;0,0617619
3234,0391;0,0619037
3235,0032;0,0620504
3235,9675;0,0621984
3236,9316;0,0623409
3237,8960;0,0624711
3238,8601;0,0625865
3239,8245;0,0626906
3240,7886;0,0627918
3241,7529;0,0628988
3242,7170;0,0630175
3243,6814;0,0631502
3244,6455;0,0632959
3245,6099;0,0634531
3246,5740;0,0636199
3247,5383;0,063792
3248,5024;0,0639614
3249,4668;0,0641178
3250,4309;0,0642534
3251,3953;0,0643677
3252,3594;0,0644699
3253,3237;0,0645756
3254,2878;0,0646986
3255,2522;0,0648441
3256,2163;0,0650065
3257,1807;0,0651746
3258,1448;0,0653387
3259,1091;0,0654951
3260,0732;0,0656455
3261,0376;0,0657926
3262,0017;0,0659362
3262,9661;0,0660729
3263,9302;0,0661999
3264,8945;0,0663179
3265,8586;0,0664324
3266,8230;0,0665505
3267,7871;0,066676
3268,7515;0,0668063
3269,7156;0,0669332
3270,6799;0,0670466
3271,6440;0,0671398
3272,6084;0,067212
3273,5725;0,0672687
3274,5369;0,067318
3275,5010;0,0673673
3276,4653;0,0674205
3277,4294;0,0674779
3278,3938;0,0675377
3279,3579;0,0675984
3280,3223;0,0676588
3281,2864;0,0677181
3282,2507;0,067775
3283,2148;0,0678275
3284,1792;0,0678743
3285,1433;0,067916
3286,1077;0,0679551
3287,0718;0,0679953
3288,0361;0,0680389
3289,0002;0,0680855
3289,9646;0,0681322
3290,9287;0,068175
3291,8931;0,0682109
3292,8572;0,0682387
3293,8215;0,0682585
3294,7856;0,0682708
3295,7500;0,0682759
3296,7141;0,0682746
3297,6785;0,06827
3298,6426;0,0682674
3299,6069;0,0682731
3300,5710;0,0682919
3301,5354;0,0683241
3302,4995;0,0683655
3303,4639;0,0684086
3304,4280;0,068446
3305,3923;0,0684728
3306,3564;0,0684884
3307,3208;0,068495
3308,2849;0,0684957
3309,2493;0,0684926
3310,2134;0,0684865
3311,1777;0,0684787
3312,1418;0,068473
3313,1062;0,0684765
3314,0703;0,0684977
3315,0347;0,0685431
3315,9988;0,0686136
3316,9631;0,0687035
3317,9272;0,0688029
3318,8916;0,0689024
3319,8557;0,0689963
3320,8201;0,0690837
3321,7842;0,0691667
3322,7485;0,0692466
3323,7126;0,0693229
3324,6770;0,0693933
3325,6411;0,0694569
3326,6055;0,0695154
3327,5696;0,0695731
3328,5339;0,0696351
3329,4980;0,0697039
3330,4624;0,0697785
3331,4265;0,0698543
3332,3909;0,0699239
3333,3550;0,0699792
3334,3193;0,0700127
3335,2834;0,0700201
3336,2478;0,0700022
3337,2119;0,0699656
3338,1763;0,0699198
3339,1404;0,0698728
3340,1047;0,0698268
3341,0688;0,0697771
3342,0332;0,0697162
3342,9973;0,0696384
3343,9617;0,0695448
3344,9258;0,0694412
3345,8901;0,0693344
3346,8542;0,0692261
3347,8186;0,0691121
3348,7827;0,0689856
3349,7471;0,0688437
3350,7112;0,0686906
3351,6755;0,068537
3352,6396;0,0683945
3353,6040;0,06827
3354,5681;0,0681634
3355,5325;0,0680682
3356,4966;0,0679764
3357,4609;0,0678813
3358,4250;0,0677798
3359,3894;0,0676721
3360,3535;0,0675612
3361,3179;0,0674504
3362,2820;0,0673418
3363,2463;0,067234
3364,2104;0,0671217
3365,1748;0,0669971
3366,1389;0,0668548
3367,1033;0,0666961
3368,0674;0,0665301
3369,0317;0,0663708
3369,9958;0,0662306
3370,9602;0,0661146
3371,9243;0,0660188
3372,8887;0,0659319
3373,8528;0,0658406
3374,8171;0,0657346
3375,7813;0,06561
3376,7456;0,0654695
3377,7097;0,0653209
3378,6741;0,0651736
3379,6382;0,0650347
3380,6025;0,0649062
3381,5667;0,0647846
3382,5310;0,0646634
3383,4951;0,0645375
3384,4595;0,0644074
3385,4236;0,0642795
3386,3879;0,0641621
3387,3521;0,0640592
3388,3164;0,0639665
3389,2805;0,0638725
3390,2449;0,0637646
3391,2090;0,0636355
3392,1733;0,0634881
3393,1375;0,0633339
3394,1018;0,0631865
3395,0659;0,0630543
3396,0303;0,0629369
3396,9944;0,0628262
3397,9587;0,062711
3398,9229;0,0625822
3399,8872;0,0624357
3400,8513;0,0622734
3401,8157;0,0621013
3402,7798;0,0619269
3403,7441;0,0617554
3404,7083;0,0615895
3405,6726;0,0614289
3406,6367;0,0612727
3407,6011;0,0611198
3408,5652;0,0609692
3409,5295;0,0608188
3410,4937;0,0606654
3411,4580;0,0605064
3412,4221;0,0603422
3413,3865;0,0601759
3414,3506;0,0600108
3415,3149;0,0598456
3416,2791;0,0596722
3417,2434;0,0594794
3418,2075;0,0592599
3419,1719;0,0590176
3420,1360;0,0587687
3421,1003;0,0585336
3422,0645;0,0583255
3423,0288;0,0581431
3423,9929;0,0579739
3424,9573;0,0578028
3425,9214;0,0576218
3426,8857;0,0574328
3427,8499;0,0572453
3428,8142;0,0570693
3429,7783;0,0569086
3430,7427;0,056758
3431,7068;0,0566054
3432,6711;0,0564377
3433,6353;0,0562471
3434,5996;0,0560351
3435,5637;0,0558114
3436,5281;0,0555886
3437,4922;0,0553767
3438,4565;0,0551796
3439,4207;0,0549955
3440,3850;0,0548196
3441,3491;0,054645
3442,3135;0,0544635
3443,2776;0,0542653
3444,2419;0,0540417
3445,2061;0,0537911
3446,1704;0,053524
3447,1345;0,0532615
3448,0989;0,0530247
3449,0630;0,0528219
3450,0273;0,0526442
3450,9915;0,0524719
3451,9558;0,0522864
3452,9199;0,0520801
3453,8843;0,0518574
3454,8484;0,0516304
3455,8127;0,0514091
3456,7769;0,0511959
3457,7412;0,0509866
3458,7053;0,0507752
3459,6697;0,0505591
3460,6338;0,0503405
3461,5981;0,0501236
3462,5623;0,0499108
3463,5266;0,0497012
3464,4907;0,0494912
3465,4551;0,0492785
3466,4192;0,0490641
3467,3835;0,0488524
3468,3477;0,0486479
3469,3120;0,0484507
3470,2761;0,0482549
3471,2405;0,0480516
3472,2046;0,0478357
3473,1689;0,047612
3474,1331;0,0473953
3475,0974;0,0472026
3476,0615;0,0470409
3477,0259;0,0468999
3477,9900;0,046756
3478,9543;0,0465833
3479,9185;0,0463688
3480,8828;0,0461201
3481,8469;0,0458611
3482,8113;0,045616
3483,7754;0,0453944
3484,7397;0,0451882
3485,7039;0,0449808
3486,6682;0,0447608
3487,6323;0,0445306
3488,5967;0,0443054
3489,5608;0,0441026
3490,5251;0,043929
3491,4893;0,0437751
3492,4536;0,04362
3493,4177;0,0434438
3494,3821;0,0432415
3495,3462;0,0430291
3496,3105;0,0428364
3497,2747;0,0426859
3498,2390;0,0425753
3499,2031;0,0424737
3500,1675;0,0423362
3501,1316;0,0421291
3502,0959;0,0418545
3503,0601;0,041555
3504,0244;0,0412862
3504,9885;0,0410775
3505,9529;0,0409155
3506,9170;0,0407597
3507,8813;0,0405711
3508,8455;0,0403373
3509,8098;0,040079
3510,7739;0,0398344
3511,7383;0,039631
3512,7024;0,0394705
3513,6667;0,0393349
3514,6309;0,0392048
3515,5952;0,0390724
3516,5593;0,0389423
3517,5237;0,0388213
3518,4878;0,0387069
3519,4521;0,0385847
3520,4163;0,038436
3521,3806;0,0382515
3522,3447;0,0380379
3523,3091;0,0378135
3524,2732;0,0375935
3525,2375;0,0373781
3526,2017;0,0371547
3527,1660;0,0369139
3528,1301;0,0366639
3529,0945;0,0364298
3530,0586;0,0362362
3531,0229;0,036089
3531,9871;0,0359707
3532,9514;0,035851
3533,9155;0,0357038
3534,8799;0,0355216
3535,8440;0,0353188
3536,8083;0,0351243
3537,7725;0,0349647
3538,7368;0,0348503
3539,7009;0,0347723
3540,6653;0,0347062
3541,6294;0,0346182
3542,5938;0,034473
3543,5579;0,034247
3544,5222;0,0339475
3545,4863;0,0336205
3546,4507;0,0333264
3547,4148;0,0330999
3548,3792;0,032931
3549,3433;0,0327802
3550,3076;0,0326075
3551,2717;0,0323982
3552,2361;0,032172
3553,2002;0,0319679
3554,1646;0,0318131
3555,1287;0,0317023
3556,0930;0,0316053
3557,0571;0,0314926
3558,0215;0,0313582
3558,9856;0,0312272
3559,9500;0,0311398
3560,9141;0,0311195
3561,8784;0,031147
3562,8425;0,0311576
3563,8069;0,0310568
3564,7710;0,0307575
3565,7354;0,0302467
3566,6995;0,0296473
3567,6638;0,0291572
3568,6279;0,0288855
3569,5923;0,0287948
3570,5564;0,0287827
3571,5208;0,0287617
3572,4849;0,0286871
3573,4492;0,0285558
3574,4133;0,0283925
3575,3777;0,0282276
3576,3418;0,0280769
3577,3062;0,027938
3578,2703;0,0278063
3579,2346;0,0276919
3580,1987;0,0276202
3581,1631;0,0276116
3582,1272;0,0276577
3583,0916;0,0277099
3584,0557;0,0276876
3585,0200;0,0275056
3585,9841;0,0271347
3586,9485;0,0266679
3587,9126;0,0262876
3588,8770;0,0261136
3589,8411;0,026121
3590,8054;0,0262014
3591,7695;0,0262471
3592,7339;0,0261945
3593,6980;0,0260409
3594,6624;0,0258378
3595,6265;0,025649
3596,5908;0,0254983
3597,5549;0,0253589
3598,5193;0,0251914
3599,4834;0,0249903
3600,4478;0,0247979
3601,4119;0,0246713
3602,3762;0,0246327
3603,3403;0,0246496
3604,3047;0,0246526
3605,2688;0,0245702
3606,2332;0,0243626
3607,1973;0,0240474
3608,1616;0,0236948
3609,1257;0,0233811
3610,0901;0,0231411
3611,0542;0,0229685
3612,0186;0,0228476
3612,9827;0,0227735
3613,9470;0,0227426
3614,9111;0,0227306
3615,8755;0,0226844
3616,8396;0,0225399
3617,8040;0,0222688
3618,7681;0,0219284
3619,7324;0,0216553
3620,6965;0,0215719
3621,6609;0,0217003
3622,6250;0,0219743
3623,5894;0,0222945
3624,5535;0,0225549
3625,5178;0,0226397
3626,4819;0,0224291
3627,4463;0,0218754
3628,4104;0,0211349
3629,3748;0,0205211
3630,3389;0,02021
3631,3032;0,0201315
3632,2673;0,0201315
3633,2317;0,0201016
3634,1958;0,0200032
3635,1602;0,019849
3636,1243;0,0196725
3637,0886;0,0195
3638,0527;0,0193408
3639,0171;0,0191976
3639,9812;0,0190838
3640,9456;0,019028
3641,9097;0,0190588
3642,8740;0,0191834
3643,8381;0,0193732
3644,8025;0,0195579
3645,7666;0,0196182
3646,7310;0,0193911
3647,6951;0,0187685
3648,6594;0,0179275
3649,6235;0,0173041
3650,5879;0,0171134
3651,5520;0,0172142
3652,5164;0,0173851
3653,4805;0,0174747
3654,4448;0,0174125
3655,4089;0,0172093
3656,3733;0,0169517
3657,3374;0,0167491
3658,3018;0,0166539
3659,2659;0,0166417
3660,2302;0,0166606
3661,1943;0,0166838
3662,1587;0,0167259
3663,1228;0,0168207
3664,0872;0,0169818
3665,0513;0,0171793
3666,0156;0,0173436
3666,9797;0,0173931
3667,9441;0,017283
3668,9082;0,0170652
3669,8726;0,0168802
3670,8367;0,0168291
3671,8010;0,0168723
3672,7651;0,0168717
3673,7295;0,016691
3674,6936;0,0162994
3675,6580;0,0158432
3676,6221;0,015544
3677,5864;0,0154856
3678,5505;0,0155902
3679,5149;0,0157517
3680,4790;0,0159161
3681,4434;0,0160831
3682,4075;0,0162758
3683,3718;0,0165076
3684,3359;0,0167604
3685,3003;0,0169792
3686,2644;0,0170823
3687,2288;0,0169908
3688,1929;0,0166982
3689,1572;0,016336
3690,1213;0,0160963
3691,0857;0,0160572
3692,0498;0,0161597
3693,0142;0,016315
3693,9783;0,0164693
3694,9426;0,0166069
3695,9067;0,0167283
3696,8711;0,016831
3697,8352;0,0168987
3698,7996;0,0169066
3699,7637;0,0168417
3700,7280;0,0167282
3701,6921;0,0166326
3702,6565;0,0166287
3703,6206;0,016748
3704,5850;0,0169668
3705,5491;0,0172277
3706,5134;0,0174581
3707,4775;0,017572
3708,4419;0,0174717
3709,4060;0,0170891
3710,3704;0,0164855
3711,3345;0,0158934
3712,2988;0,0155482
3713,2629;0,0155053
3714,2273;0,0156774
3715,1914;0,0159537
3716,1558;0,0162539
3717,1199;0,0165332
3718,0842;0,0167752
3719,0483;0,0169835
3720,0127;0,0171703
3720,9768;0,0173385
3721,9412;0,017473
3722,9053;0,0175521
3723,8696;0,0175733
3724,8337;0,0175706
3725,7981;0,0175992
3726,7622;0,0176985
3727,7266;0,0178684
3728,6907;0,0180761
3729,6550;0,0182725
3730,6191;0,0184008
3731,5835;0,0183959
3732,5476;0,0181876
3733,5120;0,0177424
3734,4761;0,0171453
3735,4404;0,0166112
3736,4045;0,016331
3737,3689;0,0163372
3738,3330;0,0165455
3739,2974;0,0168415
3740,2615;0,0171158
3741,2258;0,0172643
3742,1899;0,0172049
3743,1543;0,0169412
3744,1184;0,016626
3745,0828;0,016471
3746,0469;0,0165431
3747,0112;0,0167202
3747,9753;0,0168015
3748,9397;0,0166142
3749,9038;0,0161319
3750,8682;0,0155765
3751,8323;0,015259
3752,7966;0,0152713
3753,7607;0,0154827
3754,7251;0,0157233
3755,6892;0,015872
3756,6536;0,0158707
3757,6177;0,0157361
3758,5820;0,0155606
3759,5461;0,0154571
3760,5105;0,015479
3761,4746;0,0155998
3762,4390;0,0157549
3763,4031;0,0158853
3764,3674;0,0159558
3765,3315;0,0159567
3766,2959;0,0158957
3767,2600;0,0157868
3768,2244;0,0156468
3769,1885;0,0155035
3770,1528;0,0153995
3771,1169;0,0153767
3772,0813;0,0154501
3773,0454;0,0155973
3774,0098;0,0157697
3774,9739;0,0159105
3775,9382;0,0159711
3776,9023;0,0159312
3777,8667;0,0158173
3778,8308;0,0156968
3779,7952;0,0156316
3780,7593;0,0156327
3781,7236;0,0156642
3782,6877;0,0156796
3783,6521;0,0156527
3784,6162;0,015588
3785,5806;0,0155121
3786,5447;0,0154568
3787,5090;0,0154439
3788,4731;0,0154811
3789,4375;0,015565
3790,4016;0,0156837
3791,3660;0,0158189
3792,3301;0,0159503
3793,2944;0,016065
3794,2585;0,0161657
3795,2229;0,0162679
3796,1870;0,016381
3797,1514;0,0164855
3798,1155;0,0165282
3799,0798;0,0164511
3800,0439;0,0162468
3801,0083;0,0159961
3801,9724;0,0158169
3802,9368;0,0157553
3803,9009;0,0157529
3804,8652;0,015713
3805,8293;0,0155854
3806,7937;0,015416
3807,7578;0,0153228
3808,7222;0,0153984
3809,6863;0,0156384
3810,6506;0,0159647
3811,6147;0,0162822
3812,5791;0,0165128
3813,5432;0,0166175
3814,5076;0,0166175
3815,4717;0,0165866
3816,4360;0,0165845
3817,4001;0,0165909
3818,3645;0,0165213
3819,3286;0,0163097
3820,2930;0,0159905
3821,2571;0,0156982
3822,2214;0,015554
3823,1855;0,0155711
3824,1499;0,0156832
3825,1140;0,0158183
3826,0784;0,0159355
3827,0425;0,016027
3828,0068;0,0161036
3828,9709;0,016179
3829,9353;0,0162607
3830,8994;0,0163519
3831,8638;0,0164557
3832,8279;0,0165721
3833,7922;0,0166871
3834,7563;0,0167649
3835,7207;0,0167553
3836,6848;0,016623
3837,6492;0,0163854
3838,6133;0,0161171
3839,5776;0,0158957
3840,5417;0,0157471
3841,5061;0,0156528
3842,4702;0,0155943
3843,4346;0,0155827
3844,3987;0,015653
3845,3630;0,0158379
3846,3271;0,016144
3847,2915;0,0165453
3848,2556;0,0169868
3849,2200;0,0173801
3850,1841;0,0175871
3851,1484;0,0174237
3852,1125;0,0167879
3853,0769;0,0159229
3854,0410;0,0153242
3855,0054;0,0151972
3855,9695;0,0153959
3856,9338;0,0157309
3857,8979;0,0160859
3858,8623;0,0163923
3859,8264;0,0165987
3860,7908;0,0166686
3861,7549;0,0166048
3862,7192;0,0164734
3863,6833;0,0163802
3864,6477;0,0163957
3865,6118;0,0165091
3866,5762;0,016651
3867,5403;0,0167394
3868,5046;0,0167136
3869,4688;0,0165566
3870,4331;0,0163082
3871,3972;0,0160515
3872,3616;0,0158708
3873,3257;0,0158134
3874,2900;0,0158802
3875,2542;0,0160378
3876,2185;0,0162339
3877,1826;0,0164129
3878,1470;0,0165321
3879,1111;0,0165768
3880,0754;0,0165649
3881,0396;0,0165259
3882,0039;0,0164708
3882,9680;0,0163894
3883,9324;0,016282
3884,8965;0,0161852
3885,8608;0,0161532
3886,8250;0,0162087
3887,7893;0,0163148
3888,7534;0,0163945
3889,7178;0,0163781
3890,6819;0,0162578
3891,6462;0,0161135
3892,6104;0,0160608
3893,5747;0,0161566
3894,5388;0,0163703
3895,5032;0,0166299
3896,4673;0,0168675
3897,4316;0,0170375
3898,3958;0,0171189
3899,3601;0,0171076
3900,3242;0,0169996
3901,2886;0,0167871
3902,2527;0,0164829
3903,2170;0,0161494
3904,1812;0,0158801
3905,1455;0,015738
3906,1096;0,015721
3907,0740;0,0157825
3908,0381;0,0158736
3909,0024;0,0159663
3909,9666;0,0160576
3910,9309;0,0161588
3911,8950;0,0162774
3912,8594;0,0164029
3913,8235;0,0165045
3914,7878;0,0165452
3915,7520;0,0165063
3916,7163;0,0164095
3917,6804;0,0163113
3918,6448;0,0162641
3919,6089;0,0162794
3920,5732;0,0163267
3921,5374;0,0163603
3922,5017;0,0163504
3923,4658;0,0163027
3924,4302;0,0162563
3925,3943;0,0162546
3926,3586;0,016311
3927,3228;0,0164004
3928,2871;0,0164747
3929,2512;0,0164879
3930,2156;0,01642
3931,1797;0,0162915
3932,1440;0,016155
3933,1082;0,0160624
3934,0725;0,0160387
3935,0366;0,0160807
3936,0010;0,0161701
3936,9651;0,0162832
3937,9294;0,0163934
3938,8936;0,016474
3939,8579;0,0165056
3940,8220;0,0164871
3941,7864;0,0164422
3942,7505;0,0164077
3943,7148;0,0164093
3944,6790;0,0164433
3945,6433;0,0164804
3946,6074;0,0164852
3947,5718;0,0164383
3948,5359;0,0163488
3949,5002;0,0162494
3950,4644;0,0161743
3951,4287;0,0161392
3952,3928;0,0161378
3953,3572;0,0161549
3954,3213;0,0161779
3955,2856;0,0162014
3956,2498;0,0162248
3957,2141;0,0162461
3958,1782;0,0162601
3959,1426;0,0162616
3960,1067;0,0162503
3961,0710;0,016234
3962,0352;0,0162248
3962,9995;0,0162327
3963,9636;0,0162599
3964,9280;0,0163002
3965,8921;0,0163426
3966,8564;0,0163766
3967,8206;0,016396
3968,7849;0,0164
3969,7490;0,0163924
3970,7134;0,0163788
3971,6775;0,0163644
3972,6418;0,0163521
3973,6060;0,0163431
3974,5703;0,0163374
3975,5344;0,0163341
3976,4988;0,0163323
3977,4629;0,0163304
3978,4272;0,016327
3979,3914;0,0163208
3980,3557;0,0163113
3981,3198;0,0162992
3982,2842;0,0162862
3983,2483;0,0162756
3984,2126;0,0162709
3985,1768;0,0162748
3986,1411;0,0162883
3987,1052;0,0163093
3988,0696;0,0163335
3989,0337;0,0163557
3989,9980;0,0163716
3990,9622;0,0163804
3991,9265;0,016384
3992,8906;0,0163863
3993,8550;0,0163905
3994,8191;0,0163971
3995,7834;0,0164035
3996,7476;0,0164055
3997,7119;0,0163998
3998,6760;0,0163872
3999,6404;0,0163728
4000,6045;0,0163236

##### Extended Information
[Comments]
Sample name
Comment
Username
Division
Organization;UNIVERSIDAD INDUSTRIAL DE SANTANDER

[Detailed Information]
Creation date;10/03/2025 9:09 p.m.

Data array type;Linear data array
Horizontal axis;Wavenumber [cm-1]
Vertical axis;Abs
Start;399,193 cm-1
End;4000,6 cm-1
Data interval;0,964233 cm-1
Data points;3736    

[Measurement Information]
Model name;FT/IR-4X1typeA
Serial No.;A035162111

Accessory;ATR PRO 4X
Accessory S/N;A021162126
Incident angle;45 deg

Measurement date;10/03/2025 9:08 p.m.

Light source;Standard
Detector;TGS
Accumulation;40
Resolution;4 cm-1
Zero filling;On
Apodization;Cosine
Gain;Auto (8)
Aperture;Auto (7 mm)
Scan speed;Auto (2 mm/sec)
Filter;Auto (12800 Hz)

