TITLE;
DATA TYPE;INFRARED SPECTRUM
ORIGIN;JASCO
OWNER;
DATE;25/03/10
TIME;20:58:51
SPECTROMETER/DATA SYSTEM;
LOCALE;9226
RESOLUTION;
DELTAX;0,964233
XUNITS;1/CM
YUNITS;ABSORBANCE
FIRSTX;  399,1927
LASTX; 4000,6047
NPOINTS;    3736
FIRSTY;     0,18913
MAXY;     0,25464
MINY;     0,01343
XYDATA
399,1927;0,189129
400,1569;0,190039
401,1211;0,191446
402,0854;0,192626
403,0496;0,193356
404,0138;0,193712
404,9781;0,193865
405,9423;0,193931
406,9065;0,193896
407,8708;0,193665
408,8350;0,193179
409,7992;0,192537
410,7635;0,192
411,7277;0,191871
412,6919;0,192313
413,6562;0,193258
414,6204;0,194475
415,5846;0,195677
416,5489;0,196588
417,5131;0,197024
418,4773;0,19707
419,4416;0,197164
420,4058;0,197704
421,3700;0,198658
422,3343;0,199718
423,2985;0,200591
424,2627;0,201108
425,2270;0,201267
426,1912;0,201211
427,1554;0,201136
428,1197;0,201165
429,0839;0,201281
430,0481;0,201364
431,0124;0,201286
431,9766;0,20101
432,9408;0,200636
433,9051;0,200355
434,8693;0,200346
435,8335;0,200653
436,7978;0,20115
437,7620;0,2016
438,7262;0,20178
439,6905;0,201566
440,6547;0,200952
441,6189;0,200036
442,5832;0,198983
443,5474;0,19798
444,5116;0,197188
445,4759;0,19671
446,4401;0,196582
447,4043;0,196775
448,3686;0,197186
449,3328;0,197645
450,2970;0,197948
451,2613;0,197948
452,2255;0,197618
453,1897;0,19707
454,1540;0,196473
455,1182;0,195964
456,0824;0,195593
457,0467;0,195328
458,0109;0,195109
458,9751;0,194906
459,9394;0,194732
460,9036;0,1946
461,8678;0,194489
462,8321;0,19435
463,7963;0,194144
464,7605;0,193866
465,7248;0,193547
466,6890;0,193225
467,6532;0,192897
468,6175;0,192516
469,5817;0,192028
470,5459;0,191439
471,5102;0,190857
472,4744;0,190454
473,4386;0,190346
474,4029;0,190494
475,3671;0,190743
476,3313;0,190944
477,2956;0,191054
478,2598;0,191143
479,2240;0,191341
480,1883;0,191739
481,1525;0,192321
482,1167;0,192952
483,0810;0,193456
484,0452;0,193714
485,0094;0,193741
485,9737;0,19366
486,9379;0,193602
487,9021;0,193631
488,8664;0,193733
489,8306;0,193867
490,7948;0,194018
491,7591;0,194216
492,7233;0,194501
493,6875;0,194877
494,6518;0,195288
495,6160;0,195648
496,5802;0,195894
497,5445;0,196018
498,5087;0,19606
499,4729;0,196086
500,4372;0,196155
501,4014;0,196308
502,3656;0,196567
503,3299;0,196945
504,2941;0,197443
505,2583;0,198035
506,2226;0,198652
507,1868;0,199196
508,1510;0,199581
509,1153;0,199786
510,0795;0,19988
511,0437;0,199985
512,0080;0,200206
512,9722;0,200573
513,9365;0,201038
514,9007;0,201519
515,8649;0,201963
516,8292;0,20238
517,7934;0,202829
518,7576;0,203337
519,7219;0,203851
520,6861;0,204247
521,6503;0,204415
522,6146;0,204323
523,5788;0,204042
524,5430;0,203729
525,5073;0,203557
526,4715;0,203624
527,4357;0,203884
528,4000;0,204189
529,3642;0,204381
530,3284;0,204378
531,2927;0,204183
532,2569;0,203862
533,2211;0,203497
534,1854;0,203144
535,1496;0,202819
536,1138;0,202506
537,0781;0,202193
538,0423;0,201887
539,0065;0,201618
539,9708;0,201427
540,9350;0,201341
541,8992;0,201364
542,8635;0,201474
543,8277;0,201624
544,7919;0,201764
545,7562;0,201849
546,7204;0,201868
547,6846;0,201847
548,6489;0,201852
549,6131;0,201959
550,5773;0,202223
551,5416;0,202654
552,5058;0,203215
553,4700;0,203839
554,4343;0,204457
555,3985;0,20501
556,3627;0,205454
557,3270;0,205744
558,2912;0,205825
559,2554;0,205644
560,2197;0,205174
561,1839;0,204436
562,1481;0,203502
563,1124;0,202476
564,0766;0,201457
565,0408;0,200511
566,0051;0,199675
566,9693;0,19897
567,9335;0,198415
568,8978;0,198017
569,8620;0,197759
570,8262;0,197596
571,7905;0,197465
572,7547;0,197307
573,7189;0,197094
574,6832;0,196825
575,6474;0,19653
576,6116;0,196253
577,5759;0,196033
578,5401;0,195894
579,5043;0,195834
580,4686;0,195819
581,4328;0,195794
582,3970;0,195701
583,3613;0,195516
584,3255;0,195266
585,2897;0,195023
586,2540;0,194864
587,2182;0,194824
588,1824;0,194876
589,1467;0,194941
590,1109;0,19493
591,0751;0,194785
592,0394;0,19451
593,0036;0,194156
593,9678;0,193783
594,9321;0,193423
595,8963;0,193066
596,8605;0,192681
597,8248;0,192237
598,7890;0,191728
599,7532;0,191176
600,7175;0,19062
601,6817;0,190097
602,6459;0,189629
603,6102;0,189216
604,5744;0,188844
605,5386;0,188495
606,5029;0,188145
607,4671;0,187772
608,4313;0,187347
609,3956;0,186844
610,3598;0,186245
611,3240;0,185558
612,2883;0,184813
613,2525;0,184058
614,2167;0,183327
615,1810;0,182623
616,1452;0,181904
617,1094;0,181104
618,0737;0,180171
619,0379;0,179097
620,0021;0,177923
620,9664;0,17671
621,9306;0,175515
622,8948;0,174371
623,8591;0,173292
624,8233;0,172256
625,7875;0,171306
626,7518;0,170433
627,7160;0,169627
628,6802;0,168873
629,6445;0,168162
630,6087;0,167489
631,5729;0,166857
632,5372;0,166266
633,5014;0,165708
634,4656;0,165167
635,4299;0,164626
636,3941;0,164083
637,3583;0,163554
638,3226;0,163069
639,2868;0,162652
640,2510;0,162303
641,2153;0,161994
642,1795;0,161679
643,1437;0,161315
644,1080;0,160884
645,0722;0,1604
646,0364;0,159893
647,0007;0,159404
647,9649;0,158963
648,9291;0,158589
649,8934;0,158287
650,8576;0,158047
651,8218;0,157859
652,7861;0,157713
653,7503;0,157609
654,7145;0,157548
655,6788;0,157526
656,6430;0,157525
657,6072;0,157518
658,5715;0,157486
659,5357;0,157423
660,4999;0,157327
661,4642;0,157168
662,4284;0,156863
663,3926;0,156276
664,3569;0,155277
665,3211;0,153821
666,2853;0,152029
667,2496;0,150195
668,2138;0,148677
669,1780;0,147765
670,1423;0,147491
671,1065;0,147491
672,0707;0,147272
673,0350;0,146535
673,9992;0,145247
674,9634;0,143576
675,9277;0,141779
676,8919;0,140071
677,8561;0,13854
678,8204;0,137169
679,7846;0,135911
680,7488;0,134753
681,7131;0,133713
682,6773;0,132804
683,6415;0,132024
684,6058;0,131356
685,5700;0,130783
686,5342;0,130293
687,4985;0,129869
688,4627;0,12949
689,4269;0,129127
690,3912;0,128765
691,3554;0,128402
692,3196;0,128042
693,2839;0,127688
694,2481;0,12734
695,2123;0,127003
696,1766;0,126686
697,1408;0,126394
698,1050;0,126123
699,0693;0,125854
700,0335;0,125565
700,9977;0,12524
701,9620;0,124876
702,9262;0,124479
703,8904;0,124048
704,8547;0,123594
705,8189;0,123124
706,7831;0,122643
707,7474;0,122153
708,7116;0,121645
709,6758;0,121108
710,6401;0,120536
711,6043;0,11994
712,5685;0,119347
713,5328;0,118784
714,4970;0,118262
715,4612;0,117267
716,4255;0,116839
717,3897;0,116366
718,3539;0,115787
719,3182;0,115065
720,2824;0,11421
721,2466;0,113276
722,2109;0,112331
723,1751;0,111432
724,1393;0,110601
725,1036;0,109836
726,0678;0,10912
727,0320;0,108433
727,9963;0,107756
728,9605;0,107076
729,9247;0,106386
730,8890;0,105685
731,8532;0,104985
732,8174;0,104303
733,7817;0,10366
734,7459;0,103072
735,7101;0,102548
736,6744;0,102083
737,6386;0,101668
738,6028;0,101283
739,5671;0,100902
740,5313;0,100502
741,4955;0,100062
742,4598;0,0995773
743,4240;0,0990591
744,3882;0,0985317
745,3525;0,0980214
746,3167;0,0975424
747,2809;0,0970899
748,2452;0,0966434
749,2094;0,0961788
750,1736;0,0956828
751,1379;0,0951603
752,1021;0,0946302
753,0663;0,0941128
754,0306;0,0936183
754,9948;0,0931431
755,9590;0,0926769
756,9233;0,0922133
757,8875;0,0917558
758,8517;0,0913156
759,8160;0,0909015
760,7802;0,0905124
761,7444;0,0901354
762,7087;0,0897527
763,6729;0,0893508
764,6371;0,0889273
765,6014;0,088491
766,5656;0,0880562
767,5298;0,0876364
768,4941;0,0872382
769,4583;0,0868597
770,4225;0,0864922
771,3868;0,086125
772,3510;0,0857514
773,3152;0,0853725
774,2795;0,0849989
775,2437;0,084646
776,2079;0,0843275
777,1722;0,0840482
778,1364;0,0838009
779,1006;0,0835684
780,0649;0,0833289
781,0291;0,0830617
781,9933;0,0827522
782,9576;0,0823943
783,9218;0,0819931
784,8860;0,0815654
785,8503;0,0811388
786,8145;0,0807447
787,7787;0,0804079
788,7430;0,0801364
789,7072;0,0799172
790,6714;0,0797238
791,6357;0,0795303
792,5999;0,0793252
793,5641;0,0791157
794,5284;0,0789195
795,4926;0,0787495
796,4568;0,0786035
797,4211;0,0784647
798,3853;0,0783144
799,3495;0,0781448
800,3138;0,0779641
801,2780;0,0777897
802,2422;0,0776341
803,2065;0,0774949
804,1707;0,0773562
805,1349;0,077199
806,0992;0,0770157
807,0634;0,0768166
808,0276;0,0766251
808,9919;0,0764647
809,9561;0,0763441
810,9203;0,0762511
811,8846;0,076158
812,8488;0,0760359
813,8130;0,0758696
814,7773;0,0756645
815,7415;0,0754418
816,7057;0,0752264
817,6700;0,0750332
818,6342;0,0748627
819,5984;0,0747044
820,5627;0,0745466
821,5269;0,0743831
822,4911;0,074215
823,4554;0,0740464
824,4196;0,0738795
825,3839;0,0737122
826,3481;0,0735408
827,3123;0,0733636
828,2766;0,073183
829,2408;0,0730046
830,2050;0,0728333
831,1693;0,0726684
832,1335;0,0725011
833,0977;0,0723148
834,0620;0,07209
835,0262;0,0718123
835,9904;0,0714807
836,9547;0,0711116
837,9189;0,0707354
838,8831;0,0703849
839,8474;0,0700817
840,8116;0,0698268
841,7758;0,0696017
842,7401;0,0693793
843,7043;0,0691407
844,6685;0,0688863
845,6328;0,0686366
846,5970;0,0684218
847,5612;0,0682656
848,5255;0,0681722
849,4897;0,068124
850,4539;0,0680901
851,4182;0,0680415
852,3824;0,0679635
853,3466;0,0678592
854,3109;0,0677427
855,2751;0,067628
856,2393;0,0675212
857,2036;0,0674203
858,1678;0,067322
859,1320;0,0672287
860,0963;0,0671501
861,0605;0,0670977
862,0247;0,0670777
862,9890;0,0670868
863,9532;0,0671151
864,9174;0,0671534
865,8817;0,0671989
866,8459;0,0672565
867,8101;0,0673344
868,7744;0,0674384
869,7386;0,0675682
870,7028;0,0677175
871,6671;0,0678764
872,6313;0,0680336
873,5955;0,0681789
874,5598;0,0683048
875,5240;0,0684085
876,4882;0,0684937
877,4525;0,0685717
878,4167;0,0686593
879,3809;0,0687766
880,3452;0,0689444
881,3094;0,0691827
882,2736;0,0695095
883,2379;0,0699393
884,2021;0,0704808
885,1663;0,0711342
886,1306;0,0718901
887,0948;0,0727307
888,0590;0,073634
889,0233;0,0745778
889,9875;0,0755426
890,9517;0,0765101
891,9160;0,0774595
892,8802;0,0783626
893,8444;0,0791823
894,8087;0,0798741
895,7729;0,0803929
896,7371;0,0807001
897,7014;0,08077
898,6656;0,0805928
899,6298;0,080175
900,5941;0,0795391
901,5583;0,0787227
902,5225;0,0777774
903,4868;0,0767653
904,4510;0,0757511
905,4152;0,0747921
906,3795;0,0739305
907,3437;0,0731901
908,3079;0,0725791
909,2722;0,0720948
910,2364;0,0717279
911,2007;0,0714638
912,1649;0,0712831
913,1292;0,0711643
914,0934;0,0710896
915,0576;0,0710503
916,0219;0,0710495
916,9861;0,0710981
917,9503;0,0712067
918,9146;0,0713779
919,8788;0,0716034
920,8430;0,0718666
921,8073;0,0721483
922,7715;0,0724312
923,7357;0,0727029
924,7000;0,0729561
925,6642;0,0731892
926,6284;0,0734055
927,5927;0,073612
928,5569;0,0738165
929,5211;0,0740245
930,4854;0,0742382
931,4496;0,0744589
932,4138;0,0746904
933,3781;0,0749413
934,3423;0,0752233
935,3065;0,075547
936,2708;0,0759179
937,2350;0,0763366
938,1992;0,0768027
939,1635;0,0773201
940,1277;0,0778986
941,0919;0,0785516
942,0562;0,07929
943,0204;0,0801167
943,9846;0,0810262
944,9489;0,0820079
945,9131;0,083052
946,8773;0,0841547
947,8416;0,0853186
948,8058;0,0865511
949,7700;0,0878596
950,7343;0,0892477
951,6985;0,0907134
952,6627;0,092249
953,6270;0,0938442
954,5912;0,0954894
955,5554;0,0971797
956,5197;0,0989163
957,4839;0,100704
958,4481;0,102546
959,4124;0,104438
960,3766;0,106363
961,3408;0,108298
962,3051;0,110218
963,2693;0,112111
964,2335;0,113978
965,1978;0,115831
966,1620;0,117688
967,1262;0,119567
968,0905;0,121481
969,0547;0,123447
970,0189;0,125489
970,9832;0,127644
971,9474;0,129957
972,9116;0,132468
973,8759;0,13521
974,8401;0,138197
975,8043;0,141427
976,7686;0,144886
977,7328;0,148544
978,6970;0,152361
979,6613;0,156278
980,6255;0,160215
981,5897;0,164075
982,5540;0,167754
983,5182;0,171155
984,4824;0,17421
985,4467;0,176892
986,4109;0,179216
987,3751;0,181227
988,3394;0,182984
989,3036;0,184536
990,2678;0,185919
991,2321;0,187148
992,1963;0,188232
993,1605;0,189187
994,1248;0,19004
995,0890;0,190837
996,0532;0,191638
997,0175;0,192496
997,9817;0,19345
998,9459;0,194509
999,9102;0,195656
1000,8744;0,196861
1001,8386;0,198104
1002,8029;0,199387
1003,7671;0,200739
1004,7313;0,20221
1005,6956;0,203851
1006,6598;0,205704
1007,6240;0,207796
1008,5883;0,210135
1009,5525;0,212711
1010,5167;0,215496
1011,4810;0,218439
1012,4452;0,221475
1013,4094;0,224535
1014,3737;0,22755
1015,3379;0,230466
1016,3021;0,233238
1017,2664;0,235834
1018,2306;0,238226
1019,1948;0,240399
1020,1591;0,242353
1021,1233;0,244109
1022,0875;0,2457
1023,0518;0,247169
1024,0160;0,248548
1024,9802;0,249855
1025,9445;0,251083
1026,9087;0,252204
1027,8729;0,253177
1028,8372;0,25395
1029,8014;0,254462
1030,7656;0,254645
1031,7299;0,254426
1032,6941;0,253743
1033,6583;0,252562
1034,6226;0,250903
1035,5868;0,248852
1036,5510;0,246557
1037,5153;0,2442
1038,4795;0,241961
1039,4437;0,239978
1040,4080;0,238326
1041,3722;0,237019
1042,3364;0,236015
1043,3007;0,23524
1044,2649;0,234601
1045,2291;0,234
1046,1934;0,233345
1047,1576;0,232558
1048,1218;0,231587
1049,0861;0,230406
1050,0503;0,229007
1051,0145;0,227396
1051,9788;0,225586
1052,9430;0,223593
1053,9072;0,221437
1054,8715;0,21914
1055,8357;0,216709
1056,7999;0,214127
1057,7642;0,211343
1058,7284;0,208297
1059,6926;0,204947
1060,6569;0,201305
1061,6211;0,197453
1062,5853;0,193526
1063,5496;0,189674
1064,5138;0,186021
1065,4780;0,18264
1066,4423;0,179552
1067,4065;0,176743
1068,3707;0,174182
1069,3350;0,171837
1070,2992;0,169667
1071,2634;0,167628
1072,2277;0,165665
1073,1919;0,163724
1074,1561;0,161758
1075,1204;0,159738
1076,0846;0,157662
1077,0488;0,155549
1078,0131;0,153443
1078,9773;0,151398
1079,9415;0,149471
1080,9058;0,147711
1081,8700;0,14615
1082,8342;0,144793
1083,7985;0,143624
1084,7627;0,142612
1085,7269;0,141724
1086,6912;0,140932
1087,6554;0,140221
1088,6196;0,139585
1089,5839;0,139029
1090,5481;0,138554
1091,5123;0,138163
1092,4766;0,137856
1093,4408;0,13763
1094,4050;0,137484
1095,3693;0,137414
1096,3335;0,137415
1097,2977;0,13748
1098,2620;0,137597
1099,2262;0,137754
1100,1904;0,137933
1101,1547;0,138119
1102,1189;0,138288
1103,0831;0,138416
1104,0474;0,138474
1105,0116;0,138441
1105,9758;0,138304
1106,9401;0,138063
1107,9043;0,137722
1108,8685;0,137279
1109,8328;0,136712
1110,7970;0,135986
1111,7612;0,135063
1112,7255;0,133928
1113,6897;0,132608
1114,6539;0,131171
1115,6182;0,129711
1116,5824;0,128322
1117,5466;0,127063
1118,5109;0,125947
1119,4751;0,124935
1120,4393;0,123953
1121,4036;0,122909
1122,3678;0,12172
1123,3320;0,120324
1124,2963;0,118693
1125,2605;0,116829
1126,2247;0,114759
1127,1890;0,112526
1128,1532;0,11018
1129,1174;0,10777
1130,0817;0,105344
1131,0459;0,102947
1132,0101;0,100615
1132,9744;0,0983832
1133,9386;0,0962867
1134,9028;0,0943617
1135,8671;0,0926464
1136,8313;0,0911755
1137,7955;0,0899728
1138,7598;0,0890448
1139,7240;0,088378
1140,6882;0,0879425
1141,6525;0,0876997
1142,6167;0,0876107
1143,5809;0,0876434
1144,5452;0,0877766
1145,5094;0,0880001
1146,4736;0,0883121
1147,4379;0,0887151
1148,4021;0,0892113
1149,3663;0,0897973
1150,3306;0,0904608
1151,2948;0,0911781
1152,2590;0,0919146
1153,2233;0,092627
1154,1875;0,093268
1155,1517;0,0937894
1156,1160;0,0941434
1157,0802;0,0942802
1158,0444;0,0941448
1159,0087;0,0936757
1159,9729;0,0928105
1160,9371;0,0914983
1161,9014;0,0897159
1162,8656;0,08748
1163,8298;0,0848507
1164,7941;0,0819238
1165,7583;0,0788153
1166,7225;0,0756448
1167,6868;0,0725218
1168,6510;0,0695365
1169,6152;0,066755
1170,5795;0,0642181
1171,5437;0,0619426
1172,5079;0,059926
1173,4722;0,058153
1174,4364;0,0566026
1175,4006;0,0552539
1176,3649;0,05409
1177,3291;0,0530986
1178,2933;0,0522696
1179,2576;0,0515914
1180,2218;0,0510475
1181,1860;0,050616
1182,1503;0,0502737
1183,1145;0,0500018
1184,0787;0,0497911
1185,0430;0,0496426
1186,0072;0,0495638
1186,9714;0,0495633
1187,9357;0,0496462
1188,8999;0,0498137
1189,8641;0,0500649
1190,8284;0,0503987
1191,7926;0,050815
1192,7568;0,0513138
1193,7211;0,0518936
1194,6853;0,0525506
1195,6495;0,0532775
1196,6138;0,0540635
1197,5780;0,054893
1198,5422;0,0557476
1199,5065;0,0565771
1200,4707;0,0574388
1201,4349;0,0582917
1202,3992;0,0591373
1203,3634;0,0599768
1204,3276;0,0608063
1205,2919;0,0616164
1206,2561;0,0623984
1207,2203;0,0631534
1208,1846;0,0638986
1209,1488;0,0646644
1210,1130;0,0654846
1211,0773;0,0663827
1212,0415;0,0673637
1213,0057;0,0684143
1213,9700;0,0695108
1214,9342;0,0706295
1215,8984;0,0717521
1216,8627;0,0728657
1217,8269;0,0739584
1218,7911;0,0750178
1219,7554;0,0760311
1220,7196;0,0769887
1221,6838;0,0778857
1222,6481;0,0787215
1223,6123;0,0794964
1224,5765;0,0802099
1225,5408;0,080861
1226,5050;0,0814511
1227,4692;0,0819858
1228,4335;0,0824741
1229,3977;0,0829239
1230,3619;0,083338
1231,3262;0,0837121
1232,2904;0,0840386
1233,2546;0,0843118
1234,2189;0,0845337
1235,1831;0,0847138
1236,1473;0,0848654
1237,1116;0,0849989
1238,0758;0,0851169
1239,0400;0,0852134
1240,0043;0,0852775
1240,9685;0,0852986
1241,9327;0,0852703
1242,8970;0,0851914
1243,8612;0,0850639
1244,8254;0,0848907
1245,7897;0,0846732
1246,7539;0,0844124
1247,7181;0,0841105
1248,6824;0,0837732
1249,6466;0,0834098
1250,6108;0,0830324
1251,5751;0,0826529
1252,5393;0,0822808
1253,5035;0,0819206
1254,4678;0,081571
1255,4320;0,0812251
1256,3962;0,0808722
1257,3605;0,0805006
1258,3247;0,0801001
1259,2889;0,0796639
1260,2532;0,0791891
1261,2174;0,0786748
1262,1816;0,0781204
1263,1459;0,0775235
1264,1101;0,0768803
1265,0743;0,076186
1266,0386;0,0754355
1267,0028;0,0746243
1267,9670;0,0737502
1268,9313;0,0728159
1269,8955;0,0718309
1270,8597;0,0708117
1271,8240;0,0697781
1272,7882;0,0687487
1273,7524;0,0677359
1274,7167;0,0667467
1275,6809;0,065784
1276,6451;0,0648496
1277,6094;0,063944
1278,5736;0,063065
1279,5378;0,0622084
1280,5021;0,0613693
1281,4663;0,0605472
1282,4305;0,0597473
1283,3948;0,0589804
1284,3590;0,0582596
1285,3232;0,0575965
1286,2875;0,0570004
1287,2517;0,0564778
1288,2159;0,0560327
1289,1802;0,0556658
1290,1444;0,0553751
1291,1086;0,0551568
1292,0729;0,0550086
1293,0371;0,0549312
1294,0013;0,0549283
1294,9656;0,0550035
1295,9298;0,0551569
1296,8940;0,0553846
1297,8583;0,0556809
1298,8225;0,0560414
1299,7867;0,0564638
1300,7510;0,056946
1301,7152;0,057484
1302,6794;0,0580712
1303,6437;0,0587008
1304,6079;0,0593691
1305,5721;0,0600747
1306,5364;0,0608163
1307,5006;0,0615889
1308,4648;0,062384
1309,4291;0,0631906
1310,3933;0,0639976
1311,3575;0,0647919
1312,3218;0,0655558
1313,2860;0,0662654
1314,2502;0,066892
1315,2145;0,0674065
1316,1787;0,0677845
1317,1429;0,0680113
1318,1072;0,0680881
1319,0714;0,0680366
1320,0356;0,0678953
1320,9999;0,0677079
1321,9641;0,0675087
1322,9283;0,0673163
1323,8926;0,0671364
1324,8568;0,0669683
1325,8210;0,066809
1326,7853;0,0666544
1327,7495;0,0664986
1328,7137;0,0663333
1329,6780;0,0661491
1330,6422;0,0659375
1331,6064;0,0656924
1332,5707;0,0654091
1333,5349;0,0650807
1334,4991;0,0646936
1335,4634;0,0642262
1336,4276;0,0636553
1337,3918;0,0629731
1338,3561;0,0622109
1339,3203;0,0614462
1340,2845;0,0607689
1341,2488;0,0602273
1342,2130;0,0598106
1343,1772;0,059476
1344,1415;0,0591853
1345,1057;0,0589234
1346,0699;0,0586994
1347,0342;0,0585373
1347,9984;0,0584629
1348,9626;0,0584916
1349,9269;0,0586226
1350,8911;0,0588404
1351,8553;0,0591221
1352,8196;0,0594468
1353,7838;0,0598046
1354,7480;0,0601982
1355,7123;0,0606364
1356,6765;0,0611231
1357,6407;0,0616512
1358,6050;0,0622056
1359,5692;0,0627698
1360,5334;0,0633287
1361,4977;0,063868
1362,4619;0,0643758
1363,4261;0,0648479
1364,3904;0,0652878
1365,3546;0,065699
1366,3188;0,0660786
1367,2831;0,0664165
1368,2473;0,0666985
1369,2115;0,066908
1370,1758;0,0670274
1371,1400;0,0670354
1372,1042;0,066908
1373,0685;0,0666292
1374,0327;0,0662115
1374,9969;0,0657027
1375,9612;0,0651545
1376,9254;0,0645776
1377,8896;0,0639347
1378,8539;0,0631765
1379,8181;0,0622899
1380,7823;0,0613196
1381,7466;0,0603429
1382,7108;0,0594146
1383,6750;0,0585284
1384,6393;0,0576278
1385,6035;0,0566604
1386,5677;0,0556474
1387,5320;0,0547063
1388,4962;0,0539704
1389,4604;0,0534816
1390,4247;0,0531807
1391,3889;0,0529732
1392,3531;0,0527869
1393,3174;0,0525923
1394,2816;0,0524027
1395,2458;0,0522561
1396,2101;0,0521877
1397,1743;0,052209
1398,1385;0,052311
1399,1028;0,0524794
1400,0670;0,0527019
1401,0313;0,0529665
1401,9955;0,053263
1402,9597;0,0535869
1403,9240;0,0539438
1404,8882;0,0543474
1405,8524;0,0548088
1406,8167;0,0553268
1407,7809;0,0558913
1408,7451;0,0564955
1409,7094;0,0571434
1410,6736;0,0578442
1411,6378;0,0585977
1412,6021;0,0593843
1413,5663;0,0601726
1414,5305;0,0609349
1415,4948;0,0616562
1416,4590;0,062329
1417,4232;0,0629422
1418,3875;0,0634785
1419,3517;0,0639265
1420,3159;0,0642835
1421,2802;0,0645337
1422,2444;0,0646418
1423,2086;0,0645759
1424,1729;0,0643343
1425,1371;0,0639446
1426,1013;0,0634317
1427,0656;0,0627852
1428,0298;0,0619666
1428,9940;0,0609664
1429,9583;0,0598616
1430,9225;0,0587936
1431,8867;0,0578633
1432,8510;0,057052
1433,8152;0,0562389
1434,7794;0,0552855
1435,7437;0,0541608
1436,7079;0,0530367
1437,6721;0,0521854
1438,6364;0,0517318
1439,6006;0,0515982
1440,5648;0,0516479
1441,5291;0,0517931
1442,4933;0,0520087
1443,4575;0,0523029
1444,4218;0,0526856
1445,3860;0,0531492
1446,3502;0,0536678
1447,3145;0,0542079
1448,2787;0,054741
1449,2429;0,0552522
1450,2072;0,055737
1451,1714;0,0561907
1452,1356;0,0565992
1453,0999;0,056935
1454,0641;0,0571498
1455,0283;0,0571657
1455,9926;0,0569082
1456,9568;0,0564616
1457,9210;0,0561478
1458,8853;0,0561687
1459,8495;0,056413
1460,8137;0,0566769
1461,7780;0,0567893
1462,7422;0,0566001
1463,7064;0,0559899
1464,6707;0,054969
1465,6349;0,0537502
1466,5991;0,0526028
1467,5634;0,0516307
1468,5276;0,0507467
1469,4918;0,0497659
1470,4561;0,0484698
1471,4203;0,0466692
1472,3845;0,0443769
1473,3488;0,0419787
1474,3130;0,0399827
1475,2772;0,0385572
1476,2415;0,0375529
1477,2057;0,0367817
1478,1699;0,036134
1479,1342;0,0355649
1480,0984;0,0350629
1481,0626;0,0346358
1482,0269;0,034303
1482,9911;0,0340826
1483,9553;0,0339752
1484,9196;0,0339572
1485,8838;0,0339903
1486,8480;0,0340415
1487,8123;0,0341111
1488,7765;0,0342527
1489,7407;0,0345399
1490,7050;0,0349883
1491,6692;0,0355473
1492,6334;0,0361638
1493,5977;0,03682
1494,5619;0,0375338
1495,5261;0,0383459
1496,4904;0,0392932
1497,4546;0,0403669
1498,4188;0,0414964
1499,3831;0,0425967
1500,3473;0,0436165
1501,3115;0,0445326
1502,2758;0,0453284
1503,2400;0,0459812
1504,2042;0,0464464
1505,1685;0,0466245
1506,1327;0,0463538
1507,0969;0,0456274
1508,0612;0,0448364
1509,0254;0,044299
1509,9896;0,0439493
1510,9539;0,0436242
1511,9181;0,0432142
1512,8823;0,0426488
1513,8466;0,0418761
1514,8108;0,0408794
1515,7750;0,0397091
1516,7393;0,0384793
1517,7035;0,0372965
1518,6677;0,0361836
1519,6320;0,0350837
1520,5962;0,0339507
1521,5604;0,0328389
1522,5247;0,0318741
1523,4889;0,0311339
1524,4531;0,0305965
1525,4174;0,0301979
1526,3816;0,0299012
1527,3458;0,0297068
1528,3101;0,0296195
1529,2743;0,0296201
1530,2385;0,0296677
1531,2028;0,0297214
1532,1670;0,0297671
1533,1312;0,0298343
1534,0955;0,0299753
1535,0597;0,0302123
1536,0239;0,030518
1536,9882;0,0308381
1537,9524;0,0311056
1538,9166;0,0312245
1539,8809;0,031077
1540,8451;0,0306866
1541,8093;0,0303439
1542,7736;0,0302551
1543,7378;0,0303625
1544,7020;0,0305568
1545,6663;0,0307811
1546,6305;0,0310125
1547,5947;0,0312347
1548,5590;0,031429
1549,5232;0,0315827
1550,4874;0,0317037
1551,4517;0,0318254
1552,4159;0,0319889
1553,3801;0,0322134
1554,3444;0,032479
1555,3086;0,0327287
1556,2728;0,0328648
1557,2371;0,0327579
1558,2013;0,0323942
1559,1655;0,0321032
1560,1298;0,0322056
1561,0940;0,0326277
1562,0582;0,0331834
1563,0225;0,0337666
1563,9867;0,0343302
1564,9509;0,0348468
1565,9152;0,0352973
1566,8794;0,035682
1567,8436;0,0360402
1568,8079;0,0364447
1569,7721;0,0369497
1570,7363;0,0375416
1571,7006;0,0381642
1572,6648;0,0387769
1573,6290;0,0393831
1574,5933;0,0400258
1575,5575;0,0407574
1576,5217;0,0415834
1577,4860;0,0424452
1578,4502;0,0432904
1579,4144;0,0441206
1580,3787;0,0449678
1581,3429;0,0458604
1582,3071;0,0468073
1583,2714;0,0477973
1584,2356;0,0488107
1585,1998;0,0498333
1586,1641;0,0508581
1587,1283;0,0518719
1588,0925;0,0528463
1589,0568;0,0537403
1590,0210;0,054514
1590,9852;0,055136
1591,9495;0,0555815
1592,9137;0,0558295
1593,8779;0,0558712
1594,8422;0,0557254
1595,8064;0,055441
1596,7706;0,0550774
1597,7349;0,0546788
1598,6991;0,0542645
1599,6633;0,0538373
1600,6276;0,0534002
1601,5918;0,0529664
1602,5560;0,0525595
1603,5203;0,0522004
1604,4845;0,0518936
1605,4487;0,0516219
1606,4130;0,0513543
1607,3772;0,051067
1608,3414;0,0507673
1609,3057;0,0505014
1610,2699;0,0503261
1611,2341;0,0502654
1612,1984;0,0502934
1613,1626;0,0503479
1614,1268;0,0503535
1615,0911;0,0502555
1616,0553;0,0500766
1617,0195;0,0499337
1617,9838;0,0499337
1618,9480;0,050074
1619,9122;0,0502787
1620,8765;0,0504707
1621,8407;0,0506027
1622,8049;0,0506667
1623,7692;0,0506916
1624,7334;0,0507181
1625,6976;0,0507669
1626,6619;0,0508372
1627,6261;0,0509299
1628,5903;0,0510591
1629,5546;0,0512389
1630,5188;0,0514635
1631,4830;0,0516997
1632,4473;0,0518884
1633,4115;0,0519451
1634,3757;0,0517825
1635,3400;0,0514083
1636,3042;0,0510202
1637,2684;0,0508359
1638,2327;0,0508695
1639,1969;0,0510147
1640,1611;0,051187
1641,1254;0,0513493
1642,0896;0,0514842
1643,0538;0,0515625
1644,0181;0,0515225
1644,9823;0,0512886
1645,9465;0,0508662
1646,9108;0,0504372
1647,8750;0,0502225
1648,8392;0,0502523
1649,8035;0,0503809
1650,7677;0,0503842
1651,7319;0,0499834
1652,6962;0,0490063
1653,6604;0,0478228
1654,6246;0,047087
1655,5889;0,046876
1656,5531;0,046896
1657,5173;0,0469242
1658,4816;0,0468477
1659,4458;0,0465994
1660,4100;0,0461362
1661,3743;0,0454798
1662,3385;0,0447612
1663,3027;0,0441583
1664,2670;0,0437555
1665,2312;0,0435005
1666,1954;0,043262
1667,1597;0,042888
1668,1239;0,0422624
1669,0881;0,0414014
1670,0524;0,0405017
1671,0166;0,039783
1671,9808;0,03928
1672,9451;0,0388619
1673,9093;0,0383827
1674,8735;0,0377928
1675,8378;0,0371708
1676,8020;0,0366525
1677,7662;0,0363138
1678,7305;0,03613
1679,6947;0,0360136
1680,6589;0,0358441
1681,6232;0,0354693
1682,5874;0,0347455
1683,5516;0,0337142
1684,5159;0,0327184
1685,4801;0,0320635
1686,4443;0,0317247
1687,4086;0,0315316
1688,3728;0,0313664
1689,3370;0,0311954
1690,3013;0,0310351
1691,2655;0,0309129
1692,2297;0,0308401
1693,1940;0,0308036
1694,1582;0,0307719
1695,1224;0,0307071
1696,0867;0,0305774
1697,0509;0,03037
1698,0151;0,0301029
1698,9794;0,0298293
1699,9436;0,0296212
1700,9078;0,0295287
1701,8721;0,0295554
1702,8363;0,029671
1703,8005;0,0298402
1704,7648;0,0300424
1705,7290;0,0302783
1706,6932;0,0305632
1707,6575;0,0309122
1708,6217;0,0313288
1709,5859;0,0318061
1710,5502;0,0323314
1711,5144;0,0328874
1712,4786;0,0334495
1713,4429;0,0339859
1714,4071;0,0344624
1715,3713;0,0348596
1716,3356;0,0352003
1717,2998;0,035552
1718,2640;0,0359652
1719,2283;0,0364336
1720,1925;0,03693
1721,1567;0,0374367
1722,1210;0,037944
1723,0852;0,0384416
1724,0494;0,0389174
1725,0137;0,039363
1725,9779;0,0397793
1726,9421;0,0401751
1727,9064;0,0405582
1728,8706;0,0409228
1729,8348;0,041239
1730,7991;0,0414425
1731,7633;0,0414414
1732,7275;0,0411762
1733,6918;0,0407225
1734,6560;0,0402713
1735,6202;0,0399423
1736,5845;0,0397011
1737,5487;0,0394394
1738,5129;0,0390572
1739,4772;0,0385048
1740,4414;0,0378053
1741,4056;0,0370409
1742,3699;0,0362956
1743,3341;0,0356036
1744,2983;0,0349518
1745,2626;0,0343077
1746,2268;0,0336269
1747,1910;0,03284
1748,1553;0,0318644
1749,1195;0,0306798
1750,0837;0,0294108
1751,0480;0,0282656
1752,0122;0,0273661
1752,9764;0,026684
1753,9407;0,0261104
1754,9049;0,0255421
1755,8691;0,0249311
1756,8334;0,0242936
1757,7976;0,0236762
1758,7618;0,0231028
1759,7261;0,0225517
1760,6903;0,0219851
1761,6545;0,0214023
1762,6188;0,0208541
1763,5830;0,0204016
1764,5472;0,0200659
1765,5115;0,0198224
1766,4757;0,0196263
1767,4399;0,0194382
1768,4042;0,019231
1769,3684;0,0189825
1770,3326;0,0186706
1771,2969;0,0182916
1772,2611;0,0178938
1773,2253;0,0175653
1774,1896;0,0173666
1775,1538;0,0172902
1776,1180;0,017284
1777,0823;0,0172884
1778,0465;0,0172599
1779,0107;0,017182
1779,9750;0,0170683
1780,9392;0,0169482
1781,9034;0,0168453
1782,8677;0,0167659
1783,8319;0,0167083
1784,7961;0,0166764
1785,7604;0,0166805
1786,7246;0,0167262
1787,6888;0,0168037
1788,6531;0,0168843
1789,6173;0,0169255
1790,5815;0,0168856
1791,5458;0,0167553
1792,5100;0,016583
1793,4742;0,0164453
1794,4385;0,0163826
1795,4027;0,0163831
1796,3669;0,0164109
1797,3312;0,0164308
1798,2954;0,0164186
1799,2596;0,0163679
1800,2239;0,0162931
1801,1881;0,0162234
1802,1523;0,0161849
1803,1166;0,0161884
1804,0808;0,0162288
1805,0450;0,0162909
1806,0093;0,0163544
1806,9735;0,0163967
1807,9377;0,0163981
1808,9020;0,01635
1809,8662;0,0162637
1810,8304;0,0161683
1811,7947;0,0160948
1812,7589;0,016057
1813,7231;0,0160467
1814,6874;0,0160442
1815,6516;0,0160323
1816,6158;0,0160079
1817,5801;0,0159847
1818,5443;0,0159834
1819,5085;0,0160161
1820,4728;0,0160768
1821,4370;0,0161453
1822,4012;0,0161987
1823,3655;0,0162239
1824,3297;0,0162222
1825,2939;0,0162035
1826,2582;0,0161731
1827,2224;0,0161258
1828,1866;0,0160542
1829,1509;0,015966
1830,1151;0,01589
1831,0793;0,015858
1832,0436;0,0158777
1833,0078;0,0159299
1833,9720;0,0159847
1834,9363;0,0160192
1835,9005;0,0160282
1836,8647;0,0160266
1837,8290;0,0160394
1838,7932;0,0160825
1839,7574;0,0161511
1840,7217;0,0162218
1841,6859;0,0162617
1842,6501;0,0162425
1843,6144;0,0161605
1844,5786;0,0160474
1845,5428;0,0159492
1846,5071;0,0158909
1847,4713;0,0158684
1848,4355;0,0158647
1849,3998;0,0158659
1850,3640;0,0158666
1851,3282;0,0158683
1852,2925;0,0158754
1853,2567;0,0158907
1854,2209;0,0159139
1855,1852;0,0159434
1856,1494;0,0159777
1857,1136;0,0160148
1858,0779;0,0160503
1859,0421;0,0160781
1860,0063;0,0160934
1860,9706;0,0160979
1861,9348;0,0161005
1862,8990;0,0161118
1863,8633;0,016136
1864,8275;0,0161662
1865,7917;0,0161854
1866,7560;0,0161762
1867,7202;0,0161366
1868,6844;0,0160876
1869,6487;0,0160577
1870,6129;0,0160577
1871,5771;0,0160769
1872,5414;0,0160973
1873,5056;0,0161051
1874,4698;0,0160954
1875,4341;0,0160725
1876,3983;0,0160473
1877,3625;0,0160324
1878,3268;0,0160363
1879,2910;0,0160607
1880,2552;0,0161012
1881,2195;0,0161489
1882,1837;0,0161939
1883,1479;0,0162278
1884,1122;0,0162456
1885,0764;0,0162462
1886,0406;0,0162305
1887,0049;0,0162014
1887,9691;0,0161662
1888,9333;0,0161371
1889,8976;0,0161272
1890,8618;0,0161417
1891,8260;0,0161728
1892,7903;0,0162019
1893,7545;0,0162095
1894,7188;0,0161851
1895,6830;0,016134
1896,6472;0,0160755
1897,6115;0,0160309
1898,5757;0,0160107
1899,5399;0,0160114
1900,5042;0,0160218
1901,4684;0,0160325
1902,4326;0,0160437
1903,3969;0,0160648
1904,3611;0,0161081
1905,3253;0,0161799
1906,2896;0,0162735
1907,2538;0,0163675
1908,2180;0,0164317
1909,1823;0,0164403
1910,1465;0,0163888
1911,1107;0,0163012
1912,0750;0,0162201
1913,0392;0,0161871
1914,0034;0,0162258
1914,9677;0,0163333
1915,9319;0,0164789
1916,8961;0,0166146
1917,8604;0,0166978
1918,8246;0,0167155
1919,7888;0,0166879
1920,7531;0,016648
1921,7173;0,0166156
1922,6815;0,016585
1923,6458;0,0165318
1924,6100;0,0164337
1925,5742;0,0162915
1926,5385;0,016134
1927,5027;0,016006
1928,4669;0,0159487
1929,4312;0,0159826
1930,3954;0,0160978
1931,3596;0,0162577
1932,3239;0,0164158
1933,2881;0,0165359
1934,2523;0,0166023
1935,2166;0,0166205
1936,1808;0,0166097
1937,1450;0,0165945
1938,1093;0,0165972
1939,0735;0,0166324
1940,0377;0,0167019
1941,0020;0,0167893
1941,9662;0,0168602
1942,9304;0,0168768
1943,8947;0,0168226
1944,8589;0,0167173
1945,8231;0,0166099
1946,7874;0,0165539
1947,7516;0,0165823
1948,7158;0,0166913
1949,6801;0,0168374
1950,6443;0,0169538
1951,6085;0,0169781
1952,5728;0,0168796
1953,5370;0,0166726
1954,5012;0,0164121
1955,4655;0,0161743
1956,4297;0,0160319
1957,3939;0,0160316
1958,3582;0,0161796
1959,3224;0,0164389
1960,2866;0,0167419
1961,2509;0,017017
1962,2151;0,0172173
1963,1793;0,0173326
1964,1436;0,0173757
1965,1078;0,0173533
1966,0720;0,017248
1967,0363;0,0170292
1968,0005;0,0166926
1968,9647;0,0162949
1969,9290;0,0159498
1970,8932;0,0157813
1971,8574;0,0158687
1972,8217;0,0162098
1973,7859;0,016718
1974,7501;0,0172561
1975,7144;0,0176922
1976,6786;0,0179491
1977,6428;0,0180219
1978,6071;0,0179587
1979,5713;0,0178283
1980,5355;0,0176944
1981,4998;0,0176034
1982,4640;0,0175775
1983,4282;0,0176087
1984,3925;0,017659
1985,3567;0,0176763
1986,3209;0,0176231
1987,2852;0,017504
1988,2494;0,0173719
1989,2136;0,0173068
1990,1779;0,0173743
1991,1421;0,0175854
1992,1063;0,0178821
1993,0706;0,0181643
1994,0348;0,0183402
1994,9990;0,0183654
1995,9633;0,0182502
1996,9275;0,0180448
1997,8917;0,0178189
1998,8560;0,0176418
1999,8202;0,0175647
2000,7844;0,0176054
2001,7487;0,0177449
2002,7129;0,0179356
2003,6771;0,0181205
2004,6414;0,0182552
2005,6056;0,0183256
2006,5698;0,01835
2007,5341;0,0183621
2008,4983;0,0183844
2009,4625;0,0184147
2010,4268;0,0184362
2011,3910;0,0184431
2012,3552;0,0184576
2013,3195;0,018525
2014,2837;0,0186849
2015,2479;0,0189364
2016,2122;0,0192224
2017,1764;0,019452
2018,1406;0,0195537
2019,1049;0,0195206
2020,0691;0,0194128
2021,0333;0,0193163
2021,9976;0,01929
2022,9618;0,0193367
2023,9260;0,0194118
2024,8903;0,0194619
2025,8545;0,0194649
2026,8187;0,0194405
2027,7830;0,0194239
2028,7472;0,0194284
2029,7114;0,0194287
2030,6757;0,0193843
2031,6399;0,0192842
2032,6041;0,0191742
2033,5684;0,0191372
2034,5326;0,0192355
2035,4968;0,0194597
2036,4611;0,0197279
2037,4253;0,0199341
2038,3895;0,0200072
2039,3538;0,0199409
2040,3180;0,0197829
2041,2822;0,0195978
2042,2465;0,0194321
2043,2107;0,0193041
2044,1749;0,0192165
2045,1392;0,0191733
2046,1034;0,0191815
2047,0676;0,0192386
2048,0320;0,0193222
2048,9961;0,0193953
2049,9604;0,0194265
2050,9246;0,0194062
2051,8889;0,0193485
2052,8530;0,01928
2053,8174;0,0192265
2054,7815;0,0192032
2055,7458;0,0192093
2056,7100;0,0192289
2057,6743;0,0192376
2058,6384;0,0192133
2059,6028;0,0191496
2060,5669;0,0190633
2061,5313;0,0189895
2062,4954;0,0189634
2063,4597;0,0189965
2064,4238;0,0190642
2065,3882;0,0191178
2066,3523;0,019116
2067,3167;0,0190549
2068,2808;0,0189722
2069,2451;0,0189227
2070,2092;0,0189421
2071,1736;0,0190235
2072,1377;0,0191225
2073,1021;0,0191874
2074,0662;0,0191932
2075,0305;0,0191556
2075,9946;0,0191163
2076,9590;0,0191122
2077,9231;0,0191521
2078,8875;0,0192159
2079,8516;0,0192738
2080,8159;0,0193099
2081,7800;0,01933
2082,7444;0,0193513
2083,7085;0,0193827
2084,6729;0,0194121
2085,6370;0,0194117
2086,6013;0,0193552
2087,5654;0,0192363
2088,5298;0,0190757
2089,4939;0,0189125
2090,4583;0,0187891
2091,4224;0,0187371
2092,3867;0,0187706
2093,3508;0,0188845
2094,3152;0,0190549
2095,2793;0,0192412
2096,2437;0,0193949
2097,2078;0,0194761
2098,1721;0,019471
2099,1362;0,0193986
2100,1006;0,0193005
2101,0647;0,0192211
2102,0291;0,0191855
2102,9932;0,0191944
2103,9575;0,019232
2104,9216;0,0192806
2105,8860;0,0193317
2106,8501;0,0193841
2107,8145;0,0194369
2108,7786;0,0194831
2109,7429;0,0195122
2110,7070;0,019519
2111,6714;0,0195085
2112,6355;0,0194925
2113,5999;0,019479
2114,5640;0,0194632
2115,5283;0,0194298
2116,4924;0,0193653
2117,4568;0,0192739
2118,4209;0,0191838
2119,3853;0,019138
2120,3494;0,0191729
2121,3137;0,0192956
2122,2778;0,0194753
2123,2422;0,0196547
2124,2063;0,019776
2125,1707;0,0198081
2126,1348;0,0197599
2127,0991;0,0196736
2128,0632;0,0196045
2129,0276;0,0195983
2129,9917;0,0196775
2130,9561;0,0198385
2131,9202;0,0200579
2132,8845;0,0203003
2133,8486;0,0205275
2134,8130;0,0207085
2135,7771;0,0208306
2136,7415;0,0209028
2137,7056;0,0209486
2138,6699;0,0209882
2139,6340;0,0210247
2140,5984;0,0210447
2141,5625;0,0210355
2142,5269;0,0210066
2143,4910;0,0209952
2144,4553;0,021046
2145,4194;0,0211787
2146,3838;0,0213676
2147,3479;0,0215564
2148,3123;0,0217004
2149,2764;0,0218033
2150,2407;0,0219157
2151,2048;0,0220915
2152,1692;0,0223359
2153,1333;0,0225872
2154,0977;0,0227526
2155,0618;0,0227746
2156,0261;0,0226832
2156,9902;0,0225845
2157,9546;0,0225757
2158,9187;0,0226434
2159,8831;0,0226554
2160,8472;0,0224751
2161,8115;0,0220884
2162,7756;0,0216255
2163,7400;0,0212794
2164,7041;0,0211899
2165,6685;0,0213618
2166,6326;0,0216625
2167,5969;0,0218989
2168,5610;0,021925
2169,5254;0,0217163
2170,4895;0,0213745
2171,4539;0,0210702
2172,4180;0,0209573
2173,3823;0,0210989
2174,3464;0,0214379
2175,3108;0,0218275
2176,2749;0,0221062
2177,2393;0,0221767
2178,2034;0,0220449
2179,1677;0,0218047
2180,1318;0,0215823
2181,0962;0,0214702
2182,0603;0,0214851
2183,0247;0,0215708
2183,9888;0,021642
2184,9531;0,0216371
2185,9172;0,0215463
2186,8816;0,0214032
2187,8457;0,0212544
2188,8101;0,0211333
2189,7742;0,0210524
2190,7385;0,0210131
2191,7026;0,0210159
2192,6670;0,0210583
2193,6311;0,0211223
2194,5955;0,0211666
2195,5596;0,0211368
2196,5239;0,0209935
2197,4880;0,0207413
2198,4524;0,0204385
2199,4165;0,0201769
2200,3809;0,0200433
2201,3450;0,0200832
2202,3093;0,0202835
2203,2734;0,0205801
2204,2378;0,0208808
2205,2019;0,0210954
2206,1663;0,0211619
2207,1304;0,0210663
2208,0947;0,0208487
2209,0588;0,0205912
2210,0232;0,0203863
2210,9873;0,0202977
2211,9517;0,020331
2212,9158;0,0204328
2213,8801;0,0205187
2214,8442;0,0205176
2215,8086;0,0204063
2216,7727;0,0202178
2217,7371;0,0200209
2218,7012;0,0198858
2219,6655;0,0198539
2220,6296;0,0199229
2221,5940;0,0200503
2222,5581;0,0201703
2223,5225;0,0202179
2224,4866;0,0201542
2225,4509;0,019983
2226,4150;0,0197517
2227,3794;0,0195323
2228,3435;0,0193889
2229,3079;0,0193479
2230,2720;0,0193874
2231,2363;0,019454
2232,2004;0,0194962
2233,1648;0,0194952
2234,1289;0,0194728
2235,0933;0,0194726
2236,0574;0,0195291
2237,0217;0,0196436
2237,9858;0,0197827
2238,9502;0,0198979
2239,9143;0,0199521
2240,8787;0,0199378
2241,8428;0,0198757
2242,8071;0,0197997
2243,7712;0,019737
2244,7356;0,0196965
2245,6997;0,019669
2246,6641;0,0196382
2247,6282;0,0195944
2248,5925;0,0195434
2249,5566;0,0195049
2250,5210;0,0195021
2251,4851;0,0195464
2252,4495;0,0196277
2253,4136;0,0197157
2254,3779;0,0197738
2255,3420;0,0197793
2256,3064;0,0197355
2257,2705;0,0196682
2258,2349;0,0196087
2259,1990;0,0195757
2260,1633;0,0195678
2261,1274;0,0195711
2262,0918;0,0195742
2263,0559;0,019577
2264,0203;0,0195868
2264,9844;0,0196056
2265,9487;0,0196208
2266,9128;0,0196108
2267,8772;0,0195603
2268,8413;0,0194751
2269,8057;0,0193814
2270,7698;0,0193092
2271,7341;0,0192722
2272,6982;0,0192594
2273,6626;0,0192443
2274,6267;0,0192055
2275,5911;0,0191417
2276,5552;0,0190719
2277,5195;0,0190206
2278,4836;0,0190019
2279,4480;0,0190124
2280,4121;0,0190375
2281,3765;0,0190637
2282,3406;0,0190863
2283,3049;0,0191096
2284,2690;0,0191405
2285,2334;0,0191825
2286,1975;0,0192337
2287,1619;0,0192886
2288,1260;0,0193408
2289,0903;0,0193842
2290,0544;0,0194128
2291,0188;0,0194217
2291,9829;0,01941
2292,9473;0,0193847
2293,9114;0,0193605
2294,8757;0,0193554
2295,8398;0,0193814
2296,8042;0,0194363
2297,7683;0,0195021
2298,7327;0,0195522
2299,6968;0,019565
2300,6611;0,0195357
2301,6252;0,0194803
2302,5896;0,019428
2303,5537;0,0194071
2304,5181;0,0194323
2305,4822;0,019498
2306,4465;0,0195816
2307,4106;0,0196534
2308,3750;0,0196886
2309,3391;0,0196764
2310,3035;0,0196233
2311,2676;0,0195495
2312,2319;0,01948
2313,1960;0,0194347
2314,1604;0,0194203
2315,1245;0,0194295
2316,0889;0,0194468
2317,0530;0,0194573
2318,0173;0,0194546
2318,9814;0,019443
2319,9458;0,0194329
2320,9099;0,0194329
2321,8743;0,0194449
2322,8384;0,019464
2323,8027;0,0194818
2324,7668;0,0194905
2325,7312;0,0194854
2326,6953;0,0194676
2327,6597;0,0194445
2328,6238;0,0194275
2329,5881;0,0194264
2330,5522;0,0194461
2331,5166;0,0194847
2332,4807;0,0195325
2333,4451;0,0195732
2334,4092;0,0195902
2335,3735;0,019575
2336,3376;0,0195338
2337,3020;0,0194858
2338,2661;0,019454
2339,2305;0,0194504
2340,1946;0,0194623
2341,1589;0,0194488
2342,1230;0,0193584
2343,0874;0,019177
2344,0515;0,0189816
2345,0159;0,0189109
2345,9800;0,0190412
2346,9443;0,0193177
2347,9084;0,0196097
2348,8728;0,0198025
2349,8369;0,0198501
2350,8013;0,0197838
2351,7654;0,0196891
2352,7297;0,0196596
2353,6938;0,019747
2354,6582;0,0199435
2355,6223;0,0202016
2356,5867;0,0204545
2357,5508;0,0206236
2358,5151;0,0206396
2359,4792;0,0204853
2360,4436;0,0202178
2361,4077;0,0199329
2362,3721;0,0197009
2363,3362;0,0195316
2364,3005;0,019388
2365,2646;0,0192249
2366,2290;0,0190184
2367,1931;0,018773
2368,1575;0,0185126
2369,1216;0,0182673
2370,0859;0,0180636
2371,0500;0,01792
2372,0144;0,0178453
2372,9785;0,0178399
2373,9429;0,0178968
2374,9070;0,0180029
2375,8713;0,0181406
2376,8354;0,0182907
2377,7998;0,0184381
2378,7639;0,0185742
2379,7283;0,0186971
2380,6924;0,0188084
2381,6567;0,0189098
2382,6208;0,0190012
2383,5852;0,0190818
2384,5493;0,0191522
2385,5137;0,0192141
2386,4778;0,0192689
2387,4421;0,0193159
2388,4063;0,0193513
2389,3706;0,0193709
2390,3347;0,0193733
2391,2991;0,0193625
2392,2632;0,0193468
2393,2275;0,0193353
2394,1917;0,0193335
2395,1560;0,0193422
2396,1201;0,0193584
2397,0845;0,0193792
2398,0486;0,0194038
2399,0129;0,0194329
2399,9771;0,0194665
2400,9414;0,0195025
2401,9055;0,0195354
2402,8699;0,0195585
2403,8340;0,0195668
2404,7983;0,0195606
2405,7625;0,0195475
2406,7268;0,0195396
2407,6909;0,019549
2408,6553;0,0195805
2409,6194;0,0196286
2410,5837;0,0196799
2411,5479;0,0197202
2412,5122;0,0197425
2413,4763;0,0197502
2414,4407;0,0197553
2415,4048;0,0197706
2416,3691;0,0198041
2417,3333;0,0198553
2418,2976;0,0199165
2419,2617;0,0199768
2420,2261;0,0200252
2421,1902;0,0200545
2422,1545;0,020064
2423,1187;0,0200596
2424,0830;0,0200516
2425,0471;0,0200497
2426,0115;0,0200574
2426,9756;0,0200711
2427,9399;0,0200842
2428,9041;0,0200937
2429,8684;0,0201031
2430,8325;0,0201197
2431,7969;0,0201476
2432,7610;0,0201833
2433,7253;0,020217
2434,6895;0,0202411
2435,6538;0,0202561
2436,6179;0,0202717
2437,5823;0,0202989
2438,5464;0,020342
2439,5107;0,0203949
2440,4749;0,0204444
2441,4392;0,0204783
2442,4033;0,0204919
2443,3677;0,0204883
2444,3318;0,0204759
2445,2961;0,0204639
2446,2603;0,0204599
2447,2246;0,0204692
2448,1887;0,0204934
2449,1531;0,0205297
2450,1172;0,0205709
2451,0815;0,0206086
2452,0457;0,0206363
2453,0100;0,0206529
2453,9741;0,0206615
2454,9385;0,0206666
2455,9026;0,0206707
2456,8669;0,0206741
2457,8311;0,0206767
2458,7954;0,0206801
2459,7595;0,0206878
2460,7239;0,020703
2461,6880;0,0207266
2462,6523;0,0207567
2463,6165;0,0207896
2464,5808;0,0208214
2465,5449;0,0208479
2466,5093;0,0208657
2467,4734;0,0208724
2468,4377;0,0208693
2469,4019;0,0208625
2470,3662;0,0208614
2471,3303;0,0208741
2472,2947;0,0209013
2473,2588;0,0209341
2474,2231;0,0209575
2475,1873;0,0209597
2476,1516;0,0209398
2477,1157;0,0209101
2478,0801;0,0208911
2479,0442;0,020901
2480,0085;0,0209457
2480,9727;0,0210162
2481,9370;0,0210937
2482,9011;0,0211588
2483,8655;0,0212002
2484,8296;0,0212177
2485,7939;0,0212184
2486,7581;0,0212109
2487,7224;0,0212001
2488,6865;0,0211885
2489,6509;0,0211792
2490,6150;0,0211786
2491,5793;0,0211939
2492,5435;0,0212275
2493,5078;0,0212723
2494,4719;0,0213131
2495,4363;0,0213345
2496,4004;0,0213305
2497,3647;0,0213085
2498,3289;0,0212852
2499,2932;0,0212762
2500,2573;0,0212879
2501,2217;0,0213159
2502,1858;0,0213502
2503,1501;0,021382
2504,1143;0,0214069
2505,0786;0,0214242
2506,0427;0,0214333
2507,0071;0,0214335
2507,9712;0,0214262
2508,9355;0,0214176
2509,8997;0,0214172
2510,8640;0,0214331
2511,8281;0,0214663
2512,7925;0,0215086
2513,7566;0,0215466
2514,7209;0,0215676
2515,6851;0,0215648
2516,6494;0,0215384
2517,6135;0,0214946
2518,5779;0,0214435
2519,5420;0,0213984
2520,5063;0,0213733
2521,4705;0,0213789
2522,4348;0,0214179
2523,3989;0,0214811
2524,3633;0,0215499
2525,3274;0,021604
2526,2917;0,0216304
2527,2559;0,0216301
2528,2202;0,0216159
2529,1843;0,0216053
2530,1487;0,0216111
2531,1128;0,0216354
2532,0771;0,0216696
2533,0413;0,0216998
2534,0056;0,0217145
2534,9697;0,021711
2535,9341;0,0216973
2536,8982;0,0216888
2537,8625;0,0217
2538,8267;0,0217356
2539,7910;0,0217863
2540,7551;0,0218322
2541,7195;0,0218535
2542,6836;0,0218429
2543,6479;0,0218107
2544,6121;0,021779
2545,5764;0,0217689
2546,5405;0,021787
2547,5049;0,0218219
2548,4690;0,0218529
2549,4333;0,0218634
2550,3975;0,0218515
2551,3618;0,0218296
2552,3259;0,0218152
2553,2903;0,0218192
2554,2544;0,0218404
2555,2188;0,0218687
2556,1829;0,0218933
2557,1472;0,0219094
2558,1113;0,0219206
2559,0757;0,0219351
2560,0398;0,0219598
2561,0042;0,021996
2561,9683;0,0220374
2562,9326;0,0220722
2563,8967;0,0220875
2564,8611;0,0220756
2565,8252;0,0220383
2566,7896;0,0219885
2567,7537;0,0219451
2568,7180;0,0219245
2569,6821;0,0219321
2570,6465;0,0219596
2571,6106;0,0219901
2572,5750;0,0220084
2573,5391;0,0220096
2574,5034;0,0220009
2575,4675;0,021996
2576,4319;0,0220064
2577,3960;0,0220345
2578,3604;0,0220742
2579,3245;0,0221156
2580,2888;0,0221512
2581,2529;0,0221786
2582,2173;0,0221999
2583,1814;0,0222187
2584,1458;0,0222377
2585,1099;0,0222572
2586,0742;0,0222757
2587,0383;0,0222902
2588,0027;0,0222981
2588,9668;0,0222986
2589,9312;0,0222943
2590,8953;0,0222917
2591,8596;0,0222986
2592,8237;0,0223195
2593,7881;0,0223526
2594,7522;0,0223895
2595,7166;0,0224188
2596,6807;0,0224325
2597,6450;0,0224297
2598,6091;0,0224167
2599,5735;0,0224031
2600,5376;0,0223973
2601,5020;0,0224034
2602,4661;0,0224211
2603,4304;0,0224471
2604,3945;0,0224769
2605,3589;0,0225054
2606,3230;0,0225283
2607,2874;0,0225432
2608,2515;0,0225511
2609,2158;0,0225568
2610,1799;0,0225669
2611,1443;0,0225864
2612,1084;0,0226159
2613,0728;0,0226514
2614,0369;0,0226868
2615,0012;0,0227171
2615,9653;0,0227406
2616,9297;0,0227594
2617,8938;0,0227774
2618,8582;0,0227984
2619,8223;0,0228242
2620,7866;0,0228545
2621,7507;0,0228869
2622,7151;0,0229183
2623,6792;0,0229461
2624,6436;0,02297
2625,6077;0,0229912
2626,5720;0,0230121
2627,5361;0,0230337
2628,5005;0,0230555
2629,4646;0,023076
2630,4290;0,0230951
2631,3931;0,023115
2632,3574;0,0231395
2633,3215;0,0231705
2634,2859;0,0232061
2635,2500;0,02324
2636,2144;0,0232657
2637,1785;0,0232802
2638,1428;0,0232866
2639,1069;0,0232925
2640,0713;0,0233067
2641,0354;0,0233344
2641,9998;0,0233759
2642,9639;0,0234264
2643,9282;0,0234786
2644,8923;0,0235243
2645,8567;0,023557
2646,8208;0,023574
2647,7852;0,0235778
2648,7493;0,0235759
2649,7136;0,0235782
2650,6777;0,0235929
2651,6421;0,0236223
2652,6062;0,023662
2653,5706;0,0237034
2654,5347;0,0237378
2655,4990;0,0237612
2656,4631;0,0237749
2657,4275;0,0237843
2658,3916;0,0237951
2659,3560;0,0238108
2660,3201;0,0238314
2661,2844;0,0238542
2662,2485;0,0238759
2663,2129;0,0238945
2664,1770;0,0239103
2665,1414;0,0239252
2666,1055;0,0239417
2667,0698;0,0239614
2668,0339;0,0239841
2668,9983;0,0240088
2669,9624;0,0240339
2670,9268;0,0240587
2671,8909;0,0240833
2672,8552;0,024108
2673,8193;0,0241325
2674,7837;0,0241559
2675,7478;0,0241772
2676,7122;0,0241964
2677,6763;0,0242149
2678,6406;0,0242358
2679,6047;0,0242622
2680,5691;0,0242962
2681,5332;0,0243376
2682,4976;0,0243834
2683,4617;0,0244291
2684,4260;0,0244703
2685,3901;0,024505
2686,3545;0,0245342
2687,3186;0,0245609
2688,2830;0,0245877
2689,2471;0,0246158
2690,2114;0,0246438
2691,1755;0,0246702
2692,1399;0,024694
2693,1040;0,0247163
2694,0684;0,024739
2695,0325;0,0247631
2695,9968;0,0247886
2696,9609;0,0248153
2697,9253;0,0248436
2698,8894;0,024875
2699,8538;0,024911
2700,8179;0,0249519
2701,7822;0,0249961
2702,7463;0,0250413
2703,7107;0,0250859
2704,6748;0,0251298
2705,6392;0,0251735
2706,6033;0,0252169
2707,5676;0,0252588
2708,5317;0,0252977
2709,4961;0,0253327
2710,4602;0,0253638
2711,4246;0,0253922
2712,3887;0,0254185
2713,3530;0,0254428
2714,3171;0,0254656
2715,2815;0,0254877
2716,2456;0,0255108
2717,2100;0,0255365
2718,1741;0,0255656
2719,1384;0,0255981
2720,1025;0,0256327
2721,0669;0,0256677
2722,0310;0,0257001
2722,9954;0,0257261
2723,9595;0,0257432
2724,9238;0,0257522
2725,8879;0,0257588
2726,8523;0,0257722
2727,8164;0,0258009
2728,7808;0,0258479
2729,7449;0,0259088
2730,7092;0,0259736
2731,6733;0,0260315
2732,6377;0,0260761
2733,6018;0,0261063
2734,5662;0,026125
2735,5303;0,0261363
2736,4946;0,026144
2737,4587;0,0261519
2738,4231;0,0261644
2739,3872;0,0261859
2740,3516;0,0262187
2741,3157;0,0262606
2742,2800;0,0263048
2743,2441;0,0263425
2744,2085;0,0263674
2745,1726;0,0263792
2746,1370;0,0263838
2747,1011;0,0263899
2748,0654;0,0264045
2749,0295;0,0264292
2749,9939;0,0264603
2750,9580;0,026492
2751,9224;0,02652
2752,8865;0,0265447
2753,8508;0,0265702
2754,8149;0,0266016
2755,7793;0,0266411
2756,7434;0,0266871
2757,7078;0,0267343
2758,6719;0,0267769
2759,6362;0,026811
2760,6003;0,0268363
2761,5647;0,0268553
2762,5288;0,0268723
2763,4932;0,0268918
2764,4573;0,026917
2765,4216;0,0269493
2766,3857;0,0269883
2767,3501;0,0270318
2768,3142;0,0270765
2769,2786;0,0271188
2770,2427;0,0271564
2771,2070;0,0271889
2772,1711;0,0272191
2773,1355;0,0272517
2774,0996;0,0272916
2775,0640;0,0273416
2776,0281;0,0274009
2776,9924;0,0274654
2777,9565;0,02753
2778,9209;0,027591
2779,8850;0,0276473
2780,8494;0,0277004
2781,8135;0,0277523
2782,7778;0,0278045
2783,7419;0,0278571
2784,7063;0,0279101
2785,6704;0,0279636
2786,6348;0,0280175
2787,5989;0,0280712
2788,5632;0,0281233
2789,5273;0,028173
2790,4917;0,0282219
2791,4558;0,0282743
2792,4202;0,0283351
2793,3843;0,0284069
2794,3486;0,028487
2795,3127;0,0285688
2796,2771;0,0286452
2797,2412;0,0287137
2798,2056;0,0287778
2799,1697;0,0288458
2800,1340;0,0289256
2801,0981;0,0290206
2802,0625;0,0291282
2803,0266;0,0292413
2803,9910;0,0293523
2804,9551;0,0294559
2805,9194;0,0295507
2806,8835;0,0296391
2807,8479;0,029726
2808,8120;0,0298172
2809,7764;0,0299181
2810,7405;0,0300318
2811,7048;0,0301587
2812,6689;0,0302961
2813,6333;0,0304396
2814,5974;0,0305846
2815,5618;0,0307278
2816,5259;0,0308686
2817,4902;0,031008
2818,4543;0,0311482
2819,4187;0,0312917
2820,3828;0,0314409
2821,3472;0,0315981
2822,3113;0,0317653
2823,2756;0,031944
2824,2397;0,0321349
2825,2041;0,0323378
2826,1682;0,0325518
2827,1326;0,0327751
2828,0967;0,0330064
2829,0610;0,0332451
2830,0251;0,0334923
2830,9895;0,0337512
2831,9536;0,0340256
2832,9180;0,0343185
2833,8821;0,0346303
2834,8464;0,0349578
2835,8105;0,035297
2836,7749;0,0356465
2837,7390;0,036011
2838,7034;0,0364023
2839,6675;0,0368365
2840,6318;0,0373308
2841,5959;0,0378991
2842,5603;0,0385486
2843,5244;0,039276
2844,4888;0,0400621
2845,4529;0,0408653
2846,4172;0,0416209
2847,3813;0,0422497
2848,3457;0,042678
2849,3098;0,0428618
2850,2742;0,0428043
2851,2383;0,0425558
2852,2026;0,0421962
2853,1667;0,0418081
2854,1311;0,0414541
2855,0952;0,0411668
2856,0596;0,0409527
2857,0237;0,0408044
2857,9880;0,0407118
2858,9521;0,040668
2859,9165;0,0406693
2860,8806;0,0407136
2861,8450;0,0407978
2862,8091;0,0409176
2863,7734;0,0410678
2864,7375;0,0412422
2865,7019;0,0414333
2866,6660;0,041632
2867,6304;0,0418276
2868,5945;0,0420097
2869,5588;0,0421707
2870,5229;0,0423077
2871,4873;0,0424232
2872,4514;0,0425244
2873,4158;0,0426198
2874,3799;0,042717
2875,3442;0,04282
2876,3083;0,0429295
2877,2727;0,0430441
2878,2368;0,0431621
2879,2012;0,0432819
2880,1653;0,0434022
2881,1296;0,0435215
2882,0938;0,0436378
2883,0581;0,0437499
2884,0222;0,0438573
2884,9866;0,0439603
2885,9507;0,0440598
2886,9150;0,0441574
2887,8792;0,0442546
2888,8435;0,0443537
2889,8076;0,0444571
2890,7720;0,0445661
2891,7361;0,0446806
2892,7004;0,0447983
2893,6646;0,0449163
2894,6289;0,0450316
2895,5930;0,0451425
2896,5574;0,0452484
2897,5215;0,0453495
2898,4858;0,0454471
2899,4500;0,0455434
2900,4143;0,0456422
2901,3784;0,0457479
2902,3428;0,0458649
2903,3069;0,0459965
2904,2712;0,0461454
2905,2354;0,046315
2906,1997;0,0465112
2907,1638;0,0467433
2908,1282;0,0470244
2909,0923;0,0473683
2910,0566;0,047786
2911,0208;0,048279
2911,9851;0,048833
2912,9492;0,0494138
2913,9136;0,0499682
2914,8777;0,0504336
2915,8420;0,050752
2916,8062;0,0508849
2917,7705;0,0508231
2918,7346;0,0505859
2919,6990;0,0502124
2920,6631;0,0497487
2921,6274;0,0492368
2922,5916;0,0487088
2923,5559;0,0481864
2924,5200;0,0476823
2925,4844;0,0472025
2926,4485;0,0467487
2927,4128;0,0463209
2928,3770;0,0459197
2929,3413;0,0455476
2930,3054;0,045208
2931,2698;0,0449031
2932,2339;0,0446307
2933,1982;0,0443835
2934,1624;0,0441509
2935,1267;0,0439217
2936,0908;0,0436873
2937,0552;0,0434427
2938,0193;0,0431866
2938,9836;0,04292
2939,9478;0,0426453
2940,9121;0,0423651
2941,8762;0,0420809
2942,8406;0,0417934
2943,8047;0,0415026
2944,7690;0,0412093
2945,7332;0,0409161
2946,6975;0,0406279
2947,6616;0,0403505
2948,6260;0,0400882
2949,5901;0,039843
2950,5544;0,0396144
2951,5186;0,0394003
2952,4829;0,0391984
2953,4470;0,0390064
2954,4114;0,0388215
2955,3755;0,0386404
2956,3398;0,03846
2957,3040;0,0382778
2958,2683;0,0380939
2959,2324;0,0379101
2960,1968;0,0377293
2961,1609;0,0375538
2962,1252;0,0373838
2963,0894;0,0372169
2964,0537;0,0370486
2965,0178;0,0368746
2965,9822;0,0366921
2966,9463;0,0365016
2967,9106;0,0363068
2968,8748;0,036112
2969,8391;0,0359207
2970,8032;0,0357341
2971,7676;0,035552
2972,7317;0,0353743
2973,6960;0,0352026
2974,6602;0,035039
2975,6245;0,0348846
2976,5886;0,0347375
2977,5530;0,034594
2978,5171;0,0344508
2979,4814;0,0343082
2980,4456;0,0341705
2981,4099;0,0340448
2982,3740;0,0339369
2983,3384;0,0338491
2984,3025;0,0337793
2985,2668;0,0337219
2986,2310;0,0336705
2987,1953;0,0336189
2988,1594;0,0335631
2989,1238;0,033502
2990,0879;0,0334379
2991,0522;0,0333761
2992,0164;0,0333226
2992,9807;0,0332821
2993,9448;0,033257
2994,9092;0,0332478
2995,8733;0,0332542
2996,8376;0,0332765
2997,8018;0,0333139
2998,7661;0,0333629
2999,7302;0,0334166
3000,6946;0,0334663
3001,6587;0,0335053
3002,6230;0,0335323
3003,5872;0,0335519
3004,5515;0,0335716
3005,5156;0,0335971
3006,4800;0,0336294
3007,4441;0,0336645
3008,4084;0,0336971
3009,3726;0,0337244
3010,3369;0,0337483
3011,3010;0,0337744
3012,2654;0,0338088
3013,2295;0,0338544
3014,1938;0,0339097
3015,1580;0,0339706
3016,1223;0,0340334
3017,0864;0,0340979
3018,0508;0,0341667
3019,0149;0,0342423
3019,9792;0,0343235
3020,9434;0,034405
3021,9077;0,0344798
3022,8718;0,0345448
3023,8362;0,0346038
3024,8003;0,0346659
3025,7646;0,0347396
3026,7288;0,034827
3027,6931;0,0349221
3028,6572;0,0350143
3029,6216;0,0350948
3030,5857;0,0351625
3031,5500;0,0352238
3032,5142;0,0352888
3033,4785;0,0353657
3034,4426;0,0354577
3035,4070;0,0355631
3036,3711;0,0356784
3037,3354;0,0357997
3038,2996;0,0359238
3039,2639;0,0360472
3040,2280;0,036167
3041,1924;0,0362814
3042,1565;0,0363913
3043,1208;0,0365005
3044,0850;0,0366135
3045,0493;0,0367329
3046,0134;0,0368581
3046,9778;0,0369857
3047,9419;0,0371124
3048,9063;0,0372372
3049,8704;0,0373618
3050,8347;0,0374892
3051,7988;0,0376207
3052,7632;0,0377551
3053,7273;0,0378893
3054,6917;0,0380216
3055,6558;0,0381529
3056,6201;0,0382863
3057,5842;0,0384249
3058,5486;0,0385691
3059,5127;0,0387168
3060,4771;0,0388654
3061,4412;0,0390134
3062,4055;0,0391612
3063,3696;0,0393087
3064,3340;0,0394539
3065,2981;0,0395927
3066,2625;0,0397218
3067,2266;0,0398415
3068,1909;0,0399575
3069,1550;0,0400782
3070,1194;0,0402115
3071,0835;0,0403614
3072,0479;0,0405264
3073,0120;0,0407004
3073,9763;0,0408745
3074,9404;0,0410391
3075,9048;0,0411865
3076,8689;0,0413139
3077,8333;0,0414248
3078,7974;0,0415293
3079,7617;0,0416407
3080,7258;0,0417697
3081,6902;0,0419194
3082,6543;0,0420843
3083,6187;0,0422533
3084,5828;0,0424156
3085,5471;0,0425662
3086,5112;0,0427072
3087,4756;0,0428456
3088,4397;0,0429882
3089,4041;0,043138
3090,3682;0,0432924
3091,3325;0,0434467
3092,2966;0,0435973
3093,2610;0,0437446
3094,2251;0,0438931
3095,1895;0,0440479
3096,1536;0,0442114
3097,1179;0,0443812
3098,0820;0,0445521
3099,0464;0,0447194
3100,0105;0,0448812
3100,9749;0,0450389
3101,9390;0,045195
3102,9033;0,0453503
3103,8674;0,0455039
3104,8318;0,0456548
3105,7959;0,0458046
3106,7603;0,0459585
3107,7244;0,0461227
3108,6887;0,0463009
3109,6528;0,0464912
3110,6172;0,0466862
3111,5813;0,0468774
3112,5457;0,0470588
3113,5098;0,0472304
3114,4741;0,0473964
3115,4382;0,0475622
3116,4026;0,0477305
3117,3667;0,0479001
3118,3311;0,0480684
3119,2952;0,0482336
3120,2595;0,0483974
3121,2236;0,0485639
3122,1880;0,0487373
3123,1521;0,0489191
3124,1165;0,0491076
3125,0806;0,0492992
3126,0449;0,04949
3127,0090;0,0496776
3127,9734;0,0498617
3128,9375;0,0500438
3129,9019;0,0502266
3130,8660;0,0504141
3131,8303;0,0506101
3132,7944;0,0508164
3133,7588;0,0510316
3134,7229;0,0512501
3135,6873;0,0514648
3136,6514;0,0516693
3137,6157;0,0518612
3138,5798;0,0520429
3139,5442;0,05222
3140,5083;0,052399
3141,4727;0,0525846
3142,4368;0,0527782
3143,4011;0,0529797
3144,3652;0,0531887
3145,3296;0,0534052
3146,2937;0,0536294
3147,2581;0,0538589
3148,2222;0,0540874
3149,1865;0,0543062
3150,1506;0,0545075
3151,1150;0,0546896
3152,0791;0,054859
3153,0435;0,0550286
3154,0076;0,0552116
3154,9719;0,0554153
3155,9360;0,0556381
3156,9004;0,0558712
3157,8645;0,0561042
3158,8289;0,05633
3159,7930;0,056547
3160,7573;0,0567573
3161,7214;0,0569639
3162,6858;0,0571683
3163,6499;0,0573718
3164,6143;0,0575763
3165,5784;0,057786
3166,5427;0,0580054
3167,5068;0,0582359
3168,4712;0,0584743
3169,4353;0,0586875
3170,3997;0,0589191
3171,3638;0,059139
3172,3281;0,0593482
3173,2922;0,0595513
3174,2566;0,059753
3175,2207;0,0599552
3176,1851;0,060156
3177,1492;0,0603531
3178,1135;0,0605471
3179,0776;0,0607429
3180,0420;0,060947
3181,0061;0,0611633
3181,9705;0,0613901
3182,9346;0,0616208
3183,8989;0,0618482
3184,8630;0,0620685
3185,8274;0,0622829
3186,7915;0,0624955
3187,7559;0,062709
3188,7200;0,0629223
3189,6843;0,0631318
3190,6484;0,0633347
3191,6128;0,0635314
3192,5769;0,0637251
3193,5413;0,063919
3194,5054;0,0641135
3195,4697;0,0643069
3196,4338;0,0644976
3197,3982;0,0646878
3198,3623;0,0648832
3199,3267;0,0650891
3200,2908;0,065306
3201,2551;0,0655276
3202,2192;0,0657433
3203,1836;0,0659445
3204,1477;0,0661296
3205,1121;0,0663055
3206,0762;0,0664829
3207,0405;0,0666704
3208,0046;0,0668696
3208,9690;0,0670745
3209,9331;0,0672763
3210,8975;0,0674687
3211,8616;0,0676513
3212,8259;0,0678286
3213,7900;0,0680058
3214,7544;0,0681849
3215,7185;0,0683633
3216,6829;0,0685363
3217,6470;0,0687011
3218,6113;0,0688601
3219,5754;0,0690214
3220,5398;0,0691952
3221,5039;0,0693884
3222,4683;0,0696001
3223,4324;0,0698207
3224,3967;0,0700363
3225,3608;0,0702347
3226,3252;0,0704124
3227,2893;0,0705757
3228,2537;0,0707377
3229,2178;0,0709103
3230,1821;0,0710971
3231,1462;0,0712926
3232,1106;0,0714859
3233,0747;0,071669
3234,0391;0,0718415
3235,0032;0,0720099
3235,9675;0,0721823
3236,9316;0,072363
3237,8960;0,0725498
3238,8601;0,0727374
3239,8245;0,0729211
3240,7886;0,0730997
3241,7529;0,0732747
3242,7170;0,0734475
3243,6814;0,0736186
3244,6455;0,0737882
3245,6099;0,0739596
3246,5740;0,0741387
3247,5383;0,0743313
3248,5024;0,0745381
3249,4668;0,0747522
3250,4309;0,0749614
3251,3953;0,0751549
3252,3594;0,0753291
3253,3237;0,0754907
3254,2878;0,0756524
3255,2522;0,0758259
3256,2163;0,0760158
3257,1807;0,0762181
3258,1448;0,0764244
3259,1091;0,0766274
3260,0732;0,0768234
3261,0376;0,0770131
3262,0017;0,0771987
3262,9661;0,0773821
3263,9302;0,0775643
3264,8945;0,0777462
3265,8586;0,0779291
3266,8230;0,0781134
3267,7871;0,0782975
3268,7515;0,0784763
3269,7156;0,0786425
3270,6799;0,0787894
3271,6440;0,0789135
3272,6084;0,0790169
3273,5725;0,079106
3274,5369;0,0791894
3275,5010;0,0792751
3276,4653;0,0793678
3277,4294;0,0794687
3278,3938;0,0795759
3279,3579;0,0796858
3280,3223;0,0797945
3281,2864;0,0798988
3282,2507;0,0799965
3283,2148;0,0800864
3284,1792;0,0801677
3285,1433;0,0802399
3286,1077;0,0803032
3287,0718;0,0803591
3288,0361;0,0804108
3289,0002;0,0804622
3289,9646;0,0805169
3290,9287;0,0805762
3291,8931;0,0806383
3292,8572;0,0806989
3293,8215;0,0807526
3294,7856;0,0807954
3295,7500;0,0808258
3296,7141;0,0808455
3297,6785;0,0808591
3298,6426;0,0808728
3299,6069;0,0808932
3300,5710;0,0809255
3301,5354;0,0809716
3302,4995;0,0810288
3303,4639;0,0810896
3304,4280;0,0811433
3305,3923;0,0811798
3306,3564;0,0811943
3307,3208;0,0811896
3308,2849;0,0811763
3309,2493;0,0811683
3310,2134;0,0811772
3311,1777;0,0812082
3312,1418;0,0812594
3313,1062;0,0813254
3314,0703;0,0814014
3315,0347;0,0814859
3315,9988;0,0815801
3316,9631;0,0816853
3317,9272;0,0817999
3318,8916;0,0819191
3319,8557;0,0820368
3320,8201;0,0821486
3321,7842;0,0822537
3322,7485;0,0823546
3323,7126;0,0824542
3324,6770;0,0825539
3325,6411;0,0826529
3326,6055;0,0827491
3327,5696;0,0828416
3328,5339;0,0829308
3329,4980;0,0830174
3330,4624;0,0831005
3331,4265;0,083177
3332,3909;0,0832426
3333,3550;0,0832946
3334,3193;0,0833333
3335,2834;0,0833618
3336,2478;0,083383
3337,2119;0,0833963
3338,1763;0,083396
3339,1404;0,0833733
3340,1047;0,0833202
3341,0688;0,0832347
3342,0332;0,0831234
3342,9973;0,083
3343,9617;0,0828798
3344,9258;0,0827733
3345,8901;0,0826809
3346,8542;0,0825937
3347,8186;0,0824982
3348,7827;0,0823839
3349,7471;0,0822484
3350,7112;0,0820973
3351,6755;0,0819407
3352,6396;0,0817875
3353,6040;0,0816427
3354,5681;0,0815073
3355,5325;0,0813801
3356,4966;0,0812588
3357,4609;0,0811402
3358,4250;0,0810199
3359,3894;0,0808935
3360,3535;0,080759
3361,3179;0,0806183
3362,2820;0,0804767
3363,2463;0,0803391
3364,2104;0,0802065
3365,1748;0,0800752
3366,1389;0,0799392
3367,1033;0,0797946
3368,0674;0,0796418
3369,0317;0,0794851
3369,9958;0,079329
3370,9602;0,0791755
3371,9243;0,0790235
3372,8887;0,0788704
3373,8528;0,078714
3374,8171;0,0785543
3375,7813;0,0783935
3376,7456;0,0782354
3377,7097;0,0780834
3378,6741;0,0779391
3379,6382;0,0778001
3380,6025;0,07766
3381,5667;0,0775114
3382,5310;0,0773502
3383,4951;0,0771795
3384,4595;0,0770105
3385,4236;0,0768567
3386,3879;0,0767258
3387,3521;0,0766136
3388,3164;0,0765053
3389,2805;0,0763818
3390,2449;0,0762308
3391,2090;0,0760523
3392,1733;0,0758594
3393,1375;0,0756706
3394,1018;0,0754995
3395,0659;0,0753485
3396,0303;0,0752098
3396,9944;0,0750715
3397,9587;0,0749238
3398,9229;0,0747631
3399,8872;0,0745916
3400,8513;0,0744139
3401,8157;0,0742339
3402,7798;0,0740532
3403,7441;0,073872
3404,7083;0,0736906
3405,6726;0,0735101
3406,6367;0,0733322
3407,6011;0,0731576
3408,5652;0,0729839
3409,5295;0,0728054
3410,4937;0,0726154
3411,4580;0,0724103
3412,4221;0,0721928
3413,3865;0,0719704
3414,3506;0,0717509
3415,3149;0,0715364
3416,2791;0,0713209
3417,2434;0,0710934
3418,2075;0,0708454
3419,1719;0,0705775
3420,1360;0,0703012
3421,1003;0,070034
3422,0645;0,0697899
3423,0288;0,0695727
3423,9929;0,0693756
3424,9573;0,0691858
3425,9214;0,0689898
3426,8857;0,0687788
3427,8499;0,0685513
3428,8142;0,0683127
3429,7783;0,068073
3430,7427;0,0678406
3431,7068;0,0676174
3432,6711;0,0673974
3433,6353;0,0671704
3434,5996;0,0669276
3435,5637;0,0666672
3436,5281;0,0663952
3437,4922;0,0661229
3438,4565;0,065862
3439,4207;0,0656209
3440,3850;0,0654013
3441,3491;0,065196
3442,3135;0,0649877
3443,2776;0,0647531
3444,2419;0,0644727
3445,2061;0,064143
3446,1704;0,0637852
3447,1345;0,0634392
3448,0989;0,063143
3449,0630;0,0629115
3450,0273;0,0627288
3450,9915;0,0625605
3451,9558;0,0623727
3452,9199;0,0621475
3453,8843;0,0618872
3454,8484;0,0616087
3455,8127;0,0613306
3456,7769;0,0610634
3457,7412;0,0608069
3458,7053;0,0605548
3459,6697;0,0603003
3460,6338;0,06004
3461,5981;0,0597747
3462,5623;0,0595066
3463,5266;0,0592372
3464,4907;0,0589669
3465,4551;0,0586957
3466,4192;0,0584261
3467,3835;0,0581629
3468,3477;0,0579114
3469,3120;0,057672
3470,2761;0,0574383
3471,2405;0,0571992
3472,2046;0,0569472
3473,1689;0,056686
3474,1331;0,0564321
3475,0974;0,0562041
3476,0615;0,0560077
3477,0259;0,0558272
3477,9900;0,0556309
3478,9543;0,0553887
3479,9185;0,0550914
3480,8828;0,0547603
3481,8469;0,0544357
3482,8113;0,0541515
3483,7754;0,053914
3484,7397;0,0537018
3485,7039;0,0534835
3486,6682;0,053239
3487,6323;0,0529713
3488,5967;0,0527027
3489,5608;0,0524574
3490,5251;0,0522441
3491,4893;0,0520498
3492,4536;0,0518482
3493,4177;0,0516168
3494,3821;0,051353
3495,3462;0,0510788
3496,3105;0,0508278
3497,2747;0,0506217
3498,2390;0,0504513
3499,2031;0,0502777
3500,1675;0,050053
3501,1316;0,0497502
3502,0959;0,0493881
3503,0601;0,0490274
3504,0244;0,0487318
3504,9885;0,048523
3505,9529;0,0483692
3506,9170;0,0482104
3507,8813;0,0479952
3508,8455;0,0477095
3509,8098;0,0473828
3510,7739;0,047067
3511,7383;0,0468002
3512,7024;0,0465872
3513,6667;0,0464071
3514,6309;0,0462349
3515,5952;0,0460593
3516,5593;0,0458842
3517,5237;0,0457179
3518,4878;0,045559
3519,4521;0,0453924
3520,4163;0,0451964
3521,3806;0,0449566
3522,3447;0,0446761
3523,3091;0,0443723
3524,2732;0,0440636
3525,2375;0,0437567
3526,2017;0,0434476
3527,1660;0,0431351
3528,1301;0,0428337
3529,0945;0,04257
3530,0586;0,0423642
3531,0229;0,0422126
3531,9871;0,0420868
3532,9514;0,0419468
3533,9155;0,0417612
3534,8799;0,0415226
3535,8440;0,0412518
3536,8083;0,0409886
3537,7725;0,0407699
3538,7368;0,0406122
3539,7009;0,0405046
3540,6653;0,0404143
3541,6294;0,040295
3542,5938;0,0400988
3543,5579;0,0397966
3544,5222;0,0394034
3545,4863;0,0389837
3546,4507;0,0386167
3547,4148;0,0383428
3548,3792;0,0381431
3549,3433;0,0379626
3550,3076;0,0377486
3551,2717;0,0374821
3552,2361;0,0371877
3553,2002;0,0369148
3554,1646;0,0366989
3555,1287;0,0365365
3556,0930;0,036393
3557,0571;0,0362323
3558,0215;0,0360438
3558,9856;0,0358525
3559,9500;0,0357035
3560,9141;0,0356268
3561,8784;0,0356063
3562,8425;0,0355718
3563,8069;0,0354146
3564,7710;0,0350284
3565,7354;0,0343919
3566,6995;0,0336483
3567,6638;0,0330374
3568,6279;0,0326965
3569,5923;0,0325847
3570,5564;0,0325765
3571,5208;0,0325595
3572,4849;0,0324696
3573,4492;0,0322947
3574,4133;0,0320627
3575,3777;0,0318166
3576,3418;0,0315871
3577,3062;0,0313818
3578,2703;0,0311984
3579,2346;0,0310442
3580,1987;0,0309396
3581,1631;0,0308993
3582,1272;0,0309082
3583,0916;0,0309082
3584,0557;0,030806
3585,0200;0,0305058
3585,9841;0,0299814
3586,9485;0,0293537
3587,9126;0,0288456
3588,8770;0,0285989
3589,8411;0,028581
3590,8054;0,0286608
3591,7695;0,0287079
3592,7339;0,0286398
3593,6980;0,0284407
3594,6624;0,0281601
3595,6265;0,0278727
3596,5908;0,0276192
3597,5549;0,0273866
3598,5193;0,0271417
3599,4834;0,0268787
3600,4478;0,0266361
3601,4119;0,0264653
3602,3762;0,0263838
3603,3403;0,0263562
3604,3047;0,0263133
3605,2688;0,0261869
3606,2332;0,0259433
3607,1973;0,0256069
3608,1616;0,0252491
3609,1257;0,0249363
3610,0901;0,0246877
3611,0542;0,0244836
3612,0186;0,0243049
3612,9827;0,0241537
3613,9470;0,0240398
3614,9111;0,0239498
3615,8755;0,0238328
3616,8396;0,0236188
3617,8040;0,0232717
3618,7681;0,0228487
3619,7324;0,0224969
3620,6965;0,0223518
3621,6609;0,022441
3622,6250;0,0226944
3623,5894;0,0230032
3624,5535;0,0232481
3625,5178;0,0232962
3626,4819;0,0230105
3627,4463;0,0223409
3628,4104;0,0214738
3629,3748;0,0207674
3630,3389;0,0204123
3631,3032;0,0203195
3632,2673;0,0203123
3633,2317;0,0202702
3634,1958;0,0201522
3635,1602;0,0199742
3636,1243;0,0197739
3637,0886;0,0195804
3638,0527;0,019403
3639,0171;0,0192444
3639,9812;0,0191194
3640,9456;0,0190594
3641,9097;0,0190942
3642,8740;0,019228
3643,8381;0,0194232
3644,8025;0,0195939
3645,7666;0,0195972
3646,7310;0,0192446
3647,6951;0,0184278
3648,6594;0,0173869
3649,6235;0,0166444
3650,5879;0,0164291
3651,5520;0,0165573
3652,5164;0,0167706
3653,4805;0,0168994
3654,4448;0,0168632
3655,4089;0,0166644
3656,3733;0,0163851
3657,3374;0,0161379
3658,3018;0,0159848
3659,2659;0,0159125
3660,2302;0,0158768
3661,1943;0,015856
3662,1587;0,0158672
3663,1228;0,015944
3664,0872;0,0160973
3665,0513;0,0162911
3666,0156;0,0164474
3666,9797;0,016475
3667,9441;0,0163236
3668,9082;0,0160516
3669,8726;0,0158177
3670,8367;0,0157391
3671,8010;0,0157774
3672,7651;0,015784
3673,7295;0,0156067
3674,6936;0,0151987
3675,6580;0,0146983
3676,6221;0,0143332
3677,5864;0,0142011
3678,5505;0,0142358
3679,5149;0,0143381
3680,4790;0,0144575
3681,4434;0,0145947
3682,4075;0,0147718
3683,3718;0,0149983
3684,3359;0,0152486
3685,3003;0,0154563
3686,2644;0,0155242
3687,2288;0,0153588
3688,1929;0,0149549
3689,1572;0,0144737
3690,1213;0,0141488
3691,0857;0,0140748
3692,0498;0,0141813
3693,0142;0,0143603
3693,9783;0,0145438
3694,9426;0,0147065
3695,9067;0,0148447
3696,8711;0,0149547
3697,8352;0,0150215
3698,7996;0,0150213
3699,7637;0,0149406
3700,7280;0,0148026
3701,6921;0,0146754
3702,6565;0,0146386
3703,6206;0,0147313
3704,5850;0,0149353
3705,5491;0,0151945
3706,5134;0,0154341
3707,4775;0,0155627
3708,4419;0,0154775
3709,4060;0,0151098
3710,3704;0,0145278
3711,3345;0,0139698
3712,2988;0,0136664
3713,2629;0,0136624
3714,2273;0,013864
3715,1914;0,0141578
3716,1558;0,014461
3717,1199;0,0147223
3718,0842;0,0149169
3719,0483;0,0150433
3720,0127;0,0151177
3720,9768;0,0151592
3721,9412;0,0151759
3722,9053;0,0151672
3723,8696;0,0151422
3724,8337;0,0151336
3725,7981;0,0151851
3726,7622;0,0153222
3727,7266;0,0155347
3728,6907;0,0157834
3729,6550;0,0160131
3730,6191;0,0161578
3731,5835;0,0161414
3732,5476;0,0158926
3733,5120;0,0154008
3734,4761;0,0147957
3735,4404;0,0143183
3736,4045;0,014134
3737,3689;0,0142306
3738,3330;0,0145009
3739,2974;0,014834
3740,2615;0,0151344
3741,2258;0,0153125
3742,1899;0,0152953
3743,1543;0,0150863
3744,1184;0,014824
3745,0828;0,014698
3746,0469;0,0147634
3747,0112;0,0149046
3747,9753;0,014938
3748,9397;0,0147116
3749,9038;0,0142222
3750,8682;0,0137015
3751,8323;0,013438
3752,7966;0,0134891
3753,7607;0,0137105
3754,7251;0,0139376
3755,6892;0,0140598
3756,6536;0,0140289
3757,6177;0,0138714
3758,5820;0,0136871
3759,5461;0,0135899
3760,5105;0,0136269
3761,4746;0,0137654
3762,4390;0,0139377
3763,4031;0,0140838
3764,3674;0,0141681
3765,3315;0,0141798
3766,2959;0,0141255
3767,2600;0,0140198
3768,2244;0,0138823
3769,1885;0,013742
3770,1528;0,0136397
3771,1169;0,013612
3772,0813;0,0136703
3773,0454;0,0137942
3774,0098;0,013942
3774,9739;0,0140653
3775,9382;0,0141228
3776,9023;0,0140963
3777,8667;0,0140085
3778,8308;0,0139168
3779,7952;0,0138728
3780,7593;0,0138844
3781,7236;0,0139195
3782,6877;0,0139371
3783,6521;0,0139135
3784,6162;0,0138519
3785,5806;0,0137769
3786,5447;0,0137196
3787,5090;0,0137029
3788,4731;0,0137357
3789,4375;0,0138138
3790,4016;0,0139231
3791,3660;0,0140436
3792,3301;0,014156
3793,2944;0,014251
3794,2585;0,0143369
3795,2229;0,0144345
3796,1870;0,0145553
3797,1514;0,0146794
3798,1155;0,0147517
3799,0798;0,0147125
3800,0439;0,0145504
3801,0083;0,0143367
3801,9724;0,0141767
3802,9368;0,0141099
3803,9009;0,0140821
3804,8652;0,0140081
3805,8293;0,0138485
3806,7937;0,013656
3807,7578;0,0135488
3808,7222;0,0136151
3809,6863;0,0138479
3810,6506;0,0141706
3811,6147;0,0144904
3812,5791;0,0147284
3813,5432;0,0148405
3814,5076;0,0148428
3815,4717;0,014807
3816,4360;0,014796
3817,4001;0,0147953
3818,3645;0,0147255
3819,3286;0,0145225
3820,2930;0,0142177
3821,2571;0,0139376
3822,2214;0,0137956
3823,1855;0,0138038
3824,1499;0,0139014
3825,1140;0,0140221
3826,0784;0,014128
3827,0425;0,0142111
3828,0068;0,0142822
3828,9709;0,0143576
3829,9353;0,0144496
3830,8994;0,0145655
3831,8638;0,014707
3832,8279;0,0148653
3833,7922;0,0150132
3834,7563;0,0151014
3835,7207;0,0150725
3836,6848;0,0148954
3837,6492;0,0146034
3838,6133;0,0142903
3839,5776;0,014044
3840,5417;0,0138892
3841,5061;0,0138002
3842,4702;0,0137527
3843,4346;0,0137526
3844,3987;0,0138322
3845,3630;0,0140235
3846,3271;0,0143365
3847,2915;0,0147512
3848,2556;0,0152169
3849,2200;0,015644
3850,1841;0,0158842
3851,1484;0,0157367
3852,1125;0,0150912
3853,0769;0,0142041
3854,0410;0,0135855
3855,0054;0,0134348
3855,9695;0,0136004
3856,9338;0,0138996
3857,8979;0,0142265
3858,8623;0,0145194
3859,8264;0,0147293
3860,7908;0,0148174
3861,7549;0,01478
3862,7192;0,0146734
3863,6833;0,0145934
3864,6477;0,0146055
3865,6118;0,0147012
3866,5762;0,0148174
3867,5403;0,0148791
3868,5046;0,0148326
3869,4688;0,0146691
3870,4331;0,0144349
3871,3972;0,0142117
3872,3616;0,0140719
3873,3257;0,0140477
3874,2900;0,0141308
3875,2542;0,0142859
3876,2185;0,0144651
3877,1826;0,0146191
3878,1470;0,0147118
3879,1111;0,0147356
3880,0754;0,014715
3881,0396;0,0146825
3882,0039;0,0146472
3882,9680;0,0145927
3883,9324;0,0145116
3884,8965;0,0144327
3885,8608;0,0144056
3886,8250;0,0144531
3887,7893;0,014542
3888,7534;0,0146002
3889,7178;0,0145612
3890,6819;0,0144192
3891,6462;0,0142576
3892,6104;0,0141959
3893,5747;0,0142933
3894,5388;0,0145198
3895,5032;0,0148005
3896,4673;0,0150601
3897,4316;0,0152408
3898,3958;0,0153118
3899,3601;0,01527
3900,3242;0,0151275
3901,2886;0,0148978
3902,2527;0,0146047
3903,2170;0,0143028
3904,1812;0,0140652
3905,1455;0,0139389
3906,1096;0,0139193
3907,0740;0,0139686
3908,0381;0,0140477
3909,0024;0,0141343
3909,9666;0,0142261
3910,9309;0,0143322
3911,8950;0,0144589
3912,8594;0,0145965
3913,8235;0,0147159
3914,7878;0,0147796
3915,7520;0,0147645
3916,7163;0,0146838
3917,6804;0,0145861
3918,6448;0,014522
3919,6089;0,0145087
3920,5732;0,0145249
3921,5374;0,0145324
3922,5017;0,0145032
3923,4658;0,0144408
3924,4302;0,0143798
3925,3943;0,0143611
3926,3586;0,0144008
3927,3228;0,0144797
3928,2871;0,014556
3929,2512;0,0145863
3930,2156;0,0145471
3931,1797;0,0144494
3932,1440;0,0143338
3933,1082;0,0142451
3934,0725;0,0142094
3935,0366;0,0142309
3936,0010;0,0142999
3936,9651;0,0143978
3937,9294;0,0145
3938,8936;0,0145779
3939,8579;0,0146096
3940,8220;0,0145923
3941,7864;0,0145495
3942,7505;0,0145188
3943,7148;0,0145263
3944,6790;0,0145685
3945,6433;0,0146164
3946,6074;0,014635
3947,5718;0,0146051
3948,5359;0,0145349
3949,5002;0,0144547
3950,4644;0,0143955
3951,4287;0,0143699
3952,3928;0,0143707
3953,3572;0,0143826
3954,3213;0,0143941
3955,2856;0,0144018
3956,2498;0,0144075
3957,2141;0,0144132
3958,1782;0,0144173
3959,1426;0,0144169
3960,1067;0,0144111
3961,0710;0,0144031
3962,0352;0,014399
3962,9995;0,0144037
3963,9636;0,0144178
3964,9280;0,0144384
3965,8921;0,0144611
3966,8564;0,0144823
3967,8206;0,0145008
3968,7849;0,0145168
3969,7490;0,0145309
3970,7134;0,0145421
3971,6775;0,0145477
3972,6418;0,0145444
3973,6060;0,0145311
3974,5703;0,0145108
3975,5344;0,0144902
3976,4988;0,0144768
3977,4629;0,0144747
3978,4272;0,014482
3979,3914;0,0144917
3980,3557;0,0144953
3981,3198;0,0144877
3982,2842;0,0144708
3983,2483;0,0144526
3984,2126;0,014443
3985,1768;0,0144483
3986,1411;0,014468
3987,1052;0,0144952
3988,0696;0,0145206
3989,0337;0,0145365
3989,9980;0,0145403
3990,9622;0,0145343
3991,9265;0,0145239
3992,8906;0,0145143
3993,8550;0,0145089
3994,8191;0,0145089
3995,7834;0,0145136
3996,7476;0,0145213
3997,7119;0,0145299
3998,6760;0,0145377
3999,6404;0,0145443
4000,6045;0,014485

##### Extended Information
[Comments]
Sample name
Comment
Username
Division
Organization;UNIVERSIDAD INDUSTRIAL DE SANTANDER

[Detailed Information]
Creation date;10/03/2025 8:58 p.m.

Data array type;Linear data array
Horizontal axis;Wavenumber [cm-1]
Vertical axis;Abs
Start;399,193 cm-1
End;4000,6 cm-1
Data interval;0,964233 cm-1
Data points;3736    

[Measurement Information]
Model name;FT/IR-4X1typeA
Serial No.;A035162111

Accessory;ATR PRO 4X
Accessory S/N;A021162126
Incident angle;45 deg

Measurement date;10/03/2025 8:58 p.m.

Light source;Standard
Detector;TGS
Accumulation;40
Resolution;4 cm-1
Zero filling;On
Apodization;Cosine
Gain;Auto (8)
Aperture;Auto (7 mm)
Scan speed;Auto (2 mm/sec)
Filter;Auto (12800 Hz)

