TITLE;
DATA TYPE;INFRARED SPECTRUM
ORIGIN;JASCO
OWNER;
DATE;25/03/10
TIME;21:01:24
SPECTROMETER/DATA SYSTEM;
LOCALE;9226
RESOLUTION;
DELTAX;0,964233
XUNITS;1/CM
YUNITS;ABSORBANCE
FIRSTX;  399,1927
LASTX; 4000,6047
NPOINTS;    3736
FIRSTY;     0,18353
MAXY;     0,24142
MINY;     0,01129
XYDATA
399,1927;0,18353
400,1569;0,185075
401,1211;0,186287
402,0854;0,18704
403,0496;0,187426
404,0138;0,187596
404,9781;0,187669
405,9423;0,187673
406,9065;0,187558
407,8708;0,18729
408,8350;0,186958
409,7992;0,18682
410,7635;0,187192
411,7277;0,188245
412,6919;0,189853
413,6562;0,191652
414,6204;0,193237
415,5846;0,194306
416,5489;0,194704
417,5131;0,194505
418,4773;0,194124
419,4416;0,194173
420,4058;0,194904
421,3700;0,196047
422,3343;0,197203
423,2985;0,198102
424,2627;0,198597
425,2270;0,198653
426,1912;0,198352
427,1554;0,197856
428,1197;0,197329
429,0839;0,19686
430,0481;0,196453
431,0124;0,196064
431,9766;0,195667
432,9408;0,195294
433,9051;0,19502
434,8693;0,194921
435,8335;0,195016
436,7978;0,195247
437,7620;0,195519
438,7262;0,195741
439,6905;0,195837
440,6547;0,195732
441,6189;0,195343
442,5832;0,194625
443,5474;0,193649
444,5116;0,192629
445,4759;0,19183
446,4401;0,191416
447,4043;0,191367
448,3686;0,191494
449,3328;0,191544
450,2970;0,191317
451,2613;0,190767
452,2255;0,190021
453,1897;0,189285
454,1540;0,188726
455,1182;0,188385
456,0824;0,188184
457,0467;0,187985
458,0109;0,187703
458,9751;0,187374
459,9394;0,187103
460,9036;0,186951
461,8678;0,186869
462,8321;0,186733
463,7963;0,186414
464,7605;0,185858
465,7248;0,185136
466,6890;0,184411
467,6532;0,183844
468,6175;0,183509
469,5817;0,183382
470,5459;0,183386
471,5102;0,183465
472,4744;0,183609
473,4386;0,183825
474,4029;0,184085
475,3671;0,184319
476,3313;0,184461
477,2956;0,184504
478,2598;0,184513
479,2240;0,184583
480,1883;0,184782
481,1525;0,185105
482,1167;0,185479
483,0810;0,185821
484,0452;0,186091
485,0094;0,186316
485,9737;0,186551
486,9379;0,186829
487,9021;0,187145
488,8664;0,187467
489,8306;0,187771
490,7948;0,188045
491,7591;0,188287
492,7233;0,188501
493,6875;0,188691
494,6518;0,188871
495,6160;0,189058
496,5802;0,189262
497,5445;0,189467
498,5087;0,18964
499,4729;0,189752
500,4372;0,189818
501,4014;0,189911
502,3656;0,19013
503,3299;0,190535
504,2941;0,191093
505,2583;0,191696
506,2226;0,192222
507,1868;0,1926
508,1510;0,192845
509,1153;0,193045
510,0795;0,193314
511,0437;0,193731
512,0080;0,194308
512,9722;0,194997
513,9365;0,195716
514,9007;0,196382
515,8649;0,196939
516,8292;0,197369
517,7934;0,197695
518,7576;0,197957
519,7219;0,19818
520,6861;0,198358
521,6503;0,198466
522,6146;0,19849
523,5788;0,198447
524,5430;0,198385
525,5073;0,198364
526,4715;0,198412
527,4357;0,198501
528,4000;0,198567
529,3642;0,198559
530,3284;0,198476
531,2927;0,198363
532,2569;0,198283
533,2211;0,198264
534,1854;0,198274
535,1496;0,198225
536,1138;0,198023
537,0781;0,197622
538,0423;0,197053
539,0065;0,196403
539,9708;0,195785
540,9350;0,195297
541,8992;0,195006
542,8635;0,19495
543,8277;0,195135
544,7919;0,19552
545,7562;0,196013
546,7204;0,196489
547,6846;0,196844
548,6489;0,197047
549,6131;0,197151
550,5773;0,197261
551,5416;0,197467
552,5058;0,197802
553,4700;0,198242
554,4343;0,19873
555,3985;0,199207
556,3627;0,199625
557,3270;0,199926
558,2912;0,200038
559,2554;0,199892
560,2197;0,199452
561,1839;0,198746
562,1481;0,197862
563,1124;0,196911
564,0766;0,195983
565,0408;0,195129
566,0051;0,194372
566,9693;0,193732
567,9335;0,193237
568,8978;0,192905
569,8620;0,192718
570,8262;0,192622
571,7905;0,192552
572,7547;0,192464
573,7189;0,192345
574,6832;0,192207
575,6474;0,192056
576,6116;0,191887
577,5759;0,191683
578,5401;0,191438
579,5043;0,191171
580,4686;0,190912
581,4328;0,190689
582,3970;0,190503
583,3613;0,19034
584,3255;0,190183
585,2897;0,190033
586,2540;0,189902
587,2182;0,189801
588,1824;0,189719
589,1467;0,18963
590,1109;0,189501
591,0751;0,189315
592,0394;0,189076
593,0036;0,188805
593,9678;0,188513
594,9321;0,188194
595,8963;0,187826
596,8605;0,187388
597,8248;0,186874
598,7890;0,186305
599,7532;0,185724
600,7175;0,185182
601,6817;0,184715
602,6459;0,184335
603,6102;0,184024
604,5744;0,183743
605,5386;0,183448
606,5029;0,183097
607,4671;0,182661
608,4313;0,182127
609,3956;0,181495
610,3598;0,180783
611,3240;0,180037
612,2883;0,17932
613,2525;0,178698
614,2167;0,178201
615,1810;0,177793
616,1452;0,177366
617,1094;0,176773
618,0737;0,175905
619,0379;0,174755
620,0021;0,173415
620,9664;0,172019
621,9306;0,170675
622,8948;0,16944
623,8591;0,168325
624,8233;0,167305
625,7875;0,166399
626,7518;0,165609
627,7160;0,164929
628,6802;0,16433
629,6445;0,163764
630,6087;0,163179
631,5729;0,162546
632,5372;0,161878
633,5014;0,161217
634,4656;0,160619
635,4299;0,160119
636,3941;0,159723
637,3583;0,159405
638,3226;0,159133
639,2868;0,158876
640,2510;0,158611
641,2153;0,158323
642,1795;0,158005
643,1437;0,157655
644,1080;0,157289
645,0722;0,156929
646,0364;0,156599
647,0007;0,156309
647,9649;0,156056
648,9291;0,155825
649,8934;0,155607
650,8576;0,155405
651,8218;0,155237
652,7861;0,15512
653,7503;0,155059
654,7145;0,15505
655,6788;0,155086
656,6430;0,155156
657,6072;0,155248
658,5715;0,155326
659,5357;0,155327
660,4999;0,155176
661,4642;0,15483
662,4284;0,154305
663,3926;0,153655
664,3569;0,152952
665,3211;0,15229
666,2853;0,151783
667,2496;0,15143
668,2138;0,150938
669,1780;0,150002
670,1423;0,148798
671,1065;0,147615
672,0707;0,146451
673,0350;0,145166
673,9992;0,143674
674,9634;0,142004
675,9277;0,140267
676,8919;0,138598
677,8561;0,137078
678,8204;0,135708
679,7846;0,13445
680,7488;0,133269
681,7131;0,132165
682,6773;0,131162
683,6415;0,130293
684,6058;0,129579
685,5700;0,129016
686,5342;0,128567
687,4985;0,128164
688,4627;0,127736
689,4269;0,12723
690,3912;0,126639
691,3554;0,126
692,3196;0,125375
693,2839;0,124819
694,2481;0,124363
695,2123;0,124006
696,1766;0,123717
697,1408;0,123447
698,1050;0,123144
699,0693;0,122766
700,0335;0,122296
700,9977;0,121743
701,9620;0,121133
702,9262;0,120505
703,8904;0,119892
704,8547;0,119319
705,8189;0,118793
706,7831;0,118304
707,7474;0,117828
708,7116;0,117341
709,6758;0,116828
710,6401;0,116284
711,6043;0,115717
712,5685;0,115141
713,5328;0,114573
714,4970;0,11403
715,4612;0,113247
716,4255;0,112834
717,3897;0,112447
718,3539;0,112013
719,3182;0,111443
720,2824;0,110678
721,2466;0,109728
722,2109;0,108676
723,1751;0,107629
724,1393;0,106663
725,1036;0,105804
726,0678;0,105031
727,0320;0,104304
727,9963;0,103586
728,9605;0,10286
729,9247;0,102126
730,8890;0,101398
731,8532;0,100696
732,8174;0,100038
733,7817;0,0994376
734,7459;0,0988971
735,7101;0,0984044
736,6744;0,0979391
737,6386;0,0974827
738,6028;0,0970268
739,5671;0,096573
740,5313;0,0961251
741,4955;0,0956804
742,4598;0,0952272
743,4240;0,0947517
744,3882;0,0942476
745,3525;0,0937209
746,3167;0,0931861
747,2809;0,0926568
748,2452;0,0921387
749,2094;0,0916293
750,1736;0,0911231
751,1379;0,0906181
752,1021;0,0901173
753,0663;0,0896269
754,0306;0,0891525
754,9948;0,0886975
755,9590;0,088264
756,9233;0,0878525
757,8875;0,0874607
758,8517;0,0870809
759,8160;0,0867018
760,7802;0,0863142
761,7444;0,0859169
762,7087;0,0855189
763,6729;0,0851324
764,6371;0,0847632
765,6014;0,084404
766,5656;0,0840391
767,5298;0,0836563
768,4941;0,083258
769,4583;0,0828623
770,4225;0,0824922
771,3868;0,0821589
772,3510;0,0818542
773,3152;0,0815556
774,2795;0,0812424
775,2437;0,0809105
776,2079;0,0805761
777,1722;0,0802638
778,1364;0,0799892
779,1006;0,0797454
780,0649;0,0795044
781,0291;0,0792313
781,9933;0,0789022
782,9576;0,0785168
783,9218;0,0780978
784,8860;0,0776801
785,8503;0,0772967
786,8145;0,0769676
787,7787;0,0766967
788,7430;0,0764738
789,7072;0,076281
790,6714;0,0760993
791,6357;0,0759143
792,5999;0,0757195
793,5641;0,075516
794,5284;0,0753076
795,4926;0,0750963
796,4568;0,0748796
797,4211;0,0746543
798,3853;0,0744224
799,3495;0,0741954
800,3138;0,0739918
801,2780;0,0738271
802,2422;0,0737044
803,2065;0,0736101
804,1707;0,0735197
805,1349;0,0734091
806,0992;0,0732657
807,0634;0,0730915
808,0276;0,0729
808,9919;0,0727081
809,9561;0,0725289
810,9203;0,0723678
811,8846;0,0722221
812,8488;0,0720839
813,8130;0,0719436
814,7773;0,0717929
815,7415;0,0716277
816,7057;0,0714474
817,6700;0,0712546
818,6342;0,0710538
819,5984;0,0708507
820,5627;0,0706523
821,5269;0,0704656
822,4911;0,0702954
823,4554;0,0701409
824,4196;0,0699958
825,3839;0,0698508
826,3481;0,0696988
827,3123;0,069539
828,2766;0,069376
829,2408;0,0692162
830,2050;0,0690627
831,1693;0,0689116
832,1335;0,0687529
833,0977;0,0685733
834,0620;0,0683605
835,0262;0,0681072
835,9904;0,0678142
836,9547;0,0674915
837,9189;0,0671565
838,8831;0,066828
839,8474;0,0665194
840,8116;0,066235
841,7758;0,0659706
842,7401;0,0657205
843,7043;0,0654841
844,6685;0,0652684
845,6328;0,0650848
846,5970;0,0649409
847,5612;0,0648348
848,5255;0,0647551
849,4897;0,064686
850,4539;0,0646141
851,4182;0,064533
852,3824;0,0644426
853,3466;0,0643465
854,3109;0,0642482
855,2751;0,0641504
856,2393;0,064055
857,2036;0,0639643
858,1678;0,0638807
859,1320;0,0638065
860,0963;0,0637427
861,0605;0,0636906
862,0247;0,0636529
862,9890;0,0636346
863,9532;0,0636422
864,9174;0,0636806
865,8817;0,0637498
866,8459;0,0638432
867,8101;0,06395
868,7744;0,0640601
869,7386;0,0641688
870,7028;0,0642786
871,6671;0,0643963
872,6313;0,0645272
873,5955;0,06467
874,5598;0,064817
875,5240;0,0649584
876,4882;0,0650893
877,4525;0,0652146
878,4167;0,0653488
879,3809;0,0655121
880,3452;0,0657247
881,3094;0,0660039
882,2736;0,066364
883,2379;0,0668172
884,2021;0,0673738
885,1663;0,0680388
886,1306;0,0688085
887,0948;0,0696687
888,0590;0,0705965
889,0233;0,0715646
889,9875;0,0725462
890,9517;0,0735163
891,9160;0,0744498
892,8802;0,0753187
893,8444;0,0760902
894,8087;0,0767284
895,7729;0,0771978
896,7371;0,0774686
897,7014;0,077519
898,6656;0,0773392
899,6298;0,0769334
900,5941;0,0763229
901,5583;0,0755468
902,5225;0,0746579
903,4868;0,0737147
904,4510;0,0727709
905,4152;0,0718685
906,3795;0,0710368
907,3437;0,0702964
908,3079;0,0696635
909,2722;0,0691506
910,2364;0,0687613
911,2007;0,0684871
912,1649;0,0683082
913,1292;0,068201
914,0934;0,0681484
915,0576;0,0681449
916,0219;0,0681925
916,9861;0,0682922
917,9503;0,0684363
918,9146;0,0686087
919,8788;0,068793
920,8430;0,0689813
921,8073;0,0691767
922,7715;0,0693893
923,7357;0,0696267
924,7000;0,0698887
925,6642;0,0701663
926,6284;0,0704466
927,5927;0,0707177
928,5569;0,0709728
929,5211;0,0712122
930,4854;0,0714433
931,4496;0,0716795
932,4138;0,0719357
933,3781;0,0722228
934,3423;0,0725439
935,3065;0,0728959
936,2708;0,0732768
937,2350;0,073693
938,1992;0,0741616
939,1635;0,0747041
940,1277;0,0753354
941,0919;0,0760554
942,0562;0,0768502
943,0204;0,0777005
943,9846;0,0785936
944,9489;0,0795299
945,9131;0,0805219
946,8773;0,081588
947,8416;0,0827436
948,8058;0,083996
949,7700;0,0853413
950,7343;0,0867668
951,6985;0,0882534
952,6627;0,0897826
953,6270;0,091342
954,5912;0,0929303
955,5554;0,0945576
956,5197;0,0962402
957,4839;0,0979918
958,4481;0,0998153
959,4124;0,101698
960,3766;0,103613
961,3408;0,105527
962,3051;0,107412
963,2693;0,109252
964,2335;0,111049
965,1978;0,112824
966,1620;0,114604
967,1262;0,116418
968,0905;0,118288
969,0547;0,120231
970,0189;0,12226
970,9832;0,12439
971,9474;0,126645
972,9116;0,129055
973,8759;0,131655
974,8401;0,134474
975,8043;0,137526
976,7686;0,140808
977,7328;0,144294
978,6970;0,147935
979,6613;0,151664
980,6255;0,155398
981,5897;0,15904
982,5540;0,162491
983,5182;0,165663
984,4824;0,168496
985,4467;0,17097
986,4109;0,173105
987,3751;0,17495
988,3394;0,176566
989,3036;0,178001
990,2678;0,179282
991,2321;0,180421
992,1963;0,181423
993,1605;0,182303
994,1248;0,183097
995,0890;0,183853
996,0532;0,184626
997,0175;0,185455
997,9817;0,186355
998,9459;0,18732
999,9102;0,188329
1000,8744;0,189371
1001,8386;0,190454
1002,8029;0,19161
1003,7671;0,192882
1004,7313;0,194312
1005,6956;0,195928
1006,6598;0,197742
1007,6240;0,199757
1008,5883;0,201972
1009,5525;0,204384
1010,5167;0,206978
1011,4810;0,209721
1012,4452;0,212558
1013,4094;0,215413
1014,3737;0,218204
1015,3379;0,220858
1016,3021;0,223325
1017,2664;0,225576
1018,2306;0,227607
1019,1948;0,229429
1020,1591;0,231066
1021,1233;0,23255
1022,0875;0,233919
1023,0518;0,235202
1024,0160;0,23642
1024,9802;0,237575
1025,9445;0,23865
1026,9087;0,239615
1027,8729;0,240431
1028,8372;0,241045
1029,8014;0,241396
1030,7656;0,241417
1031,7299;0,241036
1032,6941;0,240202
1033,6583;0,238895
1034,6226;0,237149
1035,5868;0,235058
1036,5510;0,23276
1037,5153;0,23042
1038,4795;0,228197
1039,4437;0,226217
1040,4080;0,224557
1041,3722;0,223238
1042,3364;0,22223
1043,3007;0,221463
1044,2649;0,220843
1045,2291;0,220265
1046,1934;0,219634
1047,1576;0,218874
1048,1218;0,217942
1049,0861;0,216821
1050,0503;0,215509
1051,0145;0,214008
1051,9788;0,212317
1052,9430;0,210439
1053,9072;0,208389
1054,8715;0,206187
1055,8357;0,203854
1056,7999;0,201383
1057,7642;0,198736
1058,7284;0,195854
1059,6926;0,19269
1060,6569;0,189245
1061,6211;0,185587
1062,5853;0,18184
1063,5496;0,178154
1064,5138;0,174656
1065,4780;0,171432
1066,4423;0,168509
1067,4065;0,165874
1068,3707;0,163486
1069,3350;0,161294
1070,2992;0,159248
1071,2634;0,157296
1072,2277;0,155391
1073,1919;0,153492
1074,1561;0,151563
1075,1204;0,149589
1076,0846;0,147571
1077,0488;0,145534
1078,0131;0,143524
1078,9773;0,141591
1079,9415;0,139785
1080,9058;0,138144
1081,8700;0,13669
1082,8342;0,135428
1083,7985;0,134349
1084,7627;0,133433
1085,7269;0,132652
1086,6912;0,131978
1087,6554;0,131386
1088,6196;0,130861
1089,5839;0,130401
1090,5481;0,130009
1091,5123;0,129689
1092,4766;0,129442
1093,4408;0,129264
1094,4050;0,129151
1095,3693;0,129103
1096,3335;0,12912
1097,2977;0,129202
1098,2620;0,129343
1099,2262;0,129525
1100,1904;0,129723
1101,1547;0,12991
1102,1189;0,130062
1103,0831;0,130159
1104,0474;0,130187
1105,0116;0,130131
1105,9758;0,129981
1106,9401;0,129733
1107,9043;0,129386
1108,8685;0,128934
1109,8328;0,128362
1110,7970;0,127639
1111,7612;0,126733
1112,7255;0,125627
1113,6897;0,124341
1114,6539;0,122936
1115,6182;0,121499
1116,5824;0,120115
1117,5466;0,118835
1118,5109;0,117664
1119,4751;0,116568
1120,4393;0,115488
1121,4036;0,114365
1122,3678;0,113143
1123,3320;0,111776
1124,2963;0,11023
1125,2605;0,108482
1126,2247;0,106533
1127,1890;0,104413
1128,1532;0,102174
1129,1174;0,0998779
1130,0817;0,0975833
1131,0459;0,0953356
1132,0101;0,0931673
1132,9744;0,0911059
1133,9386;0,0891807
1134,9028;0,0874262
1135,8671;0,0858775
1136,8313;0,0845643
1137,7955;0,083504
1138,7598;0,0826988
1139,7240;0,0821355
1140,6882;0,0817888
1141,6525;0,0816264
1142,6167;0,0816158
1143,5809;0,0817306
1144,5452;0,0819539
1145,5094;0,0822772
1146,4736;0,0826958
1147,4379;0,0832035
1148,4021;0,0837904
1149,3663;0,0844433
1150,3306;0,0851478
1151,2948;0,0858882
1152,2590;0,0866444
1153,2233;0,0873875
1154,1875;0,0880772
1155,1517;0,0886623
1156,1160;0,0890851
1157,0802;0,0892858
1158,0444;0,0892058
1159,0087;0,0887892
1159,9729;0,0879848
1160,9371;0,0867527
1161,9014;0,0850744
1162,8656;0,0829638
1163,8298;0,0804741
1164,7941;0,077695
1165,7583;0,0747399
1166,7225;0,0717275
1167,6868;0,0687646
1168,6510;0,0659349
1169,6152;0,0632957
1170,5795;0,0608809
1171,5437;0,0587064
1172,5079;0,0567736
1173,4722;0,0550724
1174,4364;0,053583
1175,4006;0,0522812
1176,3649;0,0511454
1177,3291;0,0501622
1178,2933;0,0493265
1179,2576;0,0486363
1180,2218;0,0480834
1181,1860;0,0476498
1182,1503;0,04731
1183,1145;0,0470406
1184,0787;0,0468292
1185,0430;0,0466772
1186,0072;0,0465953
1186,9714;0,0465949
1187,9357;0,0466817
1188,8999;0,0468544
1189,8641;0,0471084
1190,8284;0,04744
1191,7926;0,0478481
1192,7568;0,048333
1193,7211;0,0488938
1194,6853;0,0495263
1195,6495;0,0502225
1196,6138;0,0509703
1197,5780;0,0517538
1198,5422;0,0525552
1199,5065;0,0532844
1200,4707;0,0540831
1201,4349;0,0548636
1202,3992;0,0556243
1203,3634;0,0563661
1204,3276;0,0570883
1205,2919;0,0577876
1206,2561;0,0584614
1207,2203;0,0591128
1208,1846;0,0597546
1209,1488;0,0604097
1210,1130;0,0611051
1211,0773;0,0618646
1212,0415;0,0627003
1213,0057;0,06361
1213,9700;0,0645791
1214,9342;0,0655873
1215,8984;0,0666147
1216,8627;0,0676446
1217,8269;0,0686632
1218,7911;0,0696587
1219,7554;0,0706198
1220,7196;0,0715364
1221,6838;0,0724016
1222,6481;0,0732125
1223,6123;0,0739695
1224,5765;0,0746743
1225,5408;0,0753291
1226,5050;0,0759356
1227,4692;0,0764967
1228,4335;0,077016
1229,3977;0,0774976
1230,3619;0,0779432
1231,3262;0,0783514
1232,2904;0,0787171
1233,2546;0,0790345
1234,2189;0,0792999
1235,1831;0,0795146
1236,1473;0,0796854
1237,1116;0,0798228
1238,0758;0,0799371
1239,0400;0,0800341
1240,0043;0,0801126
1240,9685;0,0801637
1241,9327;0,0801747
1242,8970;0,0801339
1243,8612;0,0800356
1244,8254;0,0798809
1245,7897;0,0796758
1246,7539;0,0794273
1247,7181;0,0791409
1248,6824;0,0788209
1249,6466;0,0784741
1250,6108;0,0781111
1251,5751;0,0777462
1252,5393;0,0773925
1253,5035;0,0770571
1254,4678;0,0767384
1255,4320;0,0764268
1256,3962;0,0761096
1257,3605;0,0757748
1258,3247;0,0754142
1259,2889;0,0750225
1260,2532;0,0745955
1261,2174;0,0741287
1262,1816;0,0736174
1263,1459;0,073058
1264,1101;0,07245
1265,0743;0,0717955
1266,0386;0,0710973
1267,0028;0,0703564
1267,9670;0,0695716
1268,9313;0,0687418
1269,8955;0,0678705
1270,8597;0,0669679
1271,8240;0,0660506
1272,7882;0,0651359
1273,7524;0,0642374
1274,7167;0,0633626
1275,6809;0,062514
1276,6451;0,0616916
1277,6094;0,0608939
1278,5736;0,0601178
1279,5378;0,0593587
1280,5021;0,0586125
1281,4663;0,0578787
1282,4305;0,0571622
1283,3948;0,0564725
1284,3590;0,0558205
1285,3232;0,055217
1286,2875;0,0546712
1287,2517;0,0541921
1288,2159;0,0537876
1289,1802;0,0534628
1290,1444;0,0532177
1291,1086;0,0530473
1292,0729;0,0529441
1293,0371;0,0529021
1294,0013;0,0529198
1294,9656;0,0529993
1295,9298;0,0531444
1296,8940;0,0533576
1297,8583;0,0536392
1298,8225;0,0539878
1299,7867;0,0544005
1300,7510;0,0548724
1301,7152;0,0553982
1302,6794;0,055972
1303,6437;0,0565901
1304,6079;0,0572507
1305,5721;0,0579517
1306,5364;0,0586866
1307,5006;0,0594434
1308,4648;0,0602072
1309,4291;0,060965
1310,3933;0,0617077
1311,3575;0,0624273
1312,3218;0,0631115
1313,2860;0,0637401
1314,2502;0,0642858
1315,2145;0,0647202
1316,1787;0,0650195
1317,1429;0,0651708
1318,1072;0,0651779
1319,0714;0,0650644
1320,0356;0,0648699
1320,9999;0,0646369
1321,9641;0,0643973
1322,9283;0,064167
1323,8926;0,0639498
1324,8568;0,063745
1325,8210;0,0635523
1326,7853;0,0633725
1327,7495;0,0632054
1328,7137;0,0630475
1329,6780;0,0628905
1330,6422;0,0627238
1331,6064;0,0625362
1332,5707;0,062317
1333,5349;0,062054
1334,4991;0,0617298
1335,4634;0,0613196
1336,4276;0,0607976
1337,3918;0,0601535
1338,3561;0,0594186
1339,3203;0,0586759
1340,2845;0,0580264
1341,2488;0,0575275
1342,2130;0,0571672
1343,1772;0,056893
1344,1415;0,0566543
1345,1057;0,056428
1346,0699;0,0562221
1347,0342;0,056066
1347,9984;0,0559935
1348,9626;0,0560266
1349,9269;0,0561655
1350,8911;0,0563908
1351,8553;0,0566738
1352,8196;0,0569901
1353,7838;0,0573307
1354,7480;0,0577033
1355,7123;0,0581217
1356,6765;0,0585902
1357,6407;0,0590958
1358,6050;0,0596146
1359,5692;0,0601238
1360,5334;0,0606106
1361,4977;0,0610741
1362,4619;0,0615229
1363,4261;0,061969
1364,3904;0,0624159
1365,3546;0,0628525
1366,3188;0,0632581
1367,2831;0,0636127
1368,2473;0,0639003
1369,2115;0,0641075
1370,1758;0,064218
1371,1400;0,0642091
1372,1042;0,0640564
1373,0685;0,0637501
1374,0327;0,063318
1374,9969;0,0628249
1375,9612;0,062329
1376,9254;0,0618313
1377,8896;0,0612759
1378,8539;0,0605992
1379,8181;0,0597839
1380,7823;0,0588792
1381,7466;0,0579681
1382,7108;0,0571055
1383,6750;0,0562794
1384,6393;0,0554271
1385,6035;0,0544943
1386,5677;0,0535085
1387,5320;0,0525995
1388,4962;0,0519113
1389,4604;0,0514842
1390,4247;0,0512458
1391,3889;0,0510875
1392,3531;0,0509304
1393,3174;0,0507474
1394,2816;0,0505576
1395,2458;0,0504036
1396,2101;0,0503228
1397,1743;0,0503304
1398,1385;0,0504245
1399,1028;0,0505974
1400,0670;0,0508373
1401,0313;0,0511254
1401,9955;0,0514387
1402,9597;0,0517622
1403,9240;0,0520987
1404,8882;0,0524689
1405,8524;0,0528963
1406,8167;0,0533875
1407,7809;0,0539283
1408,7451;0,0544995
1409,7094;0,0550952
1410,6736;0,0557267
1411,6378;0,0564067
1412,6021;0,0571291
1413,5663;0,0578623
1414,5305;0,0585625
1415,4948;0,0591908
1416,4590;0,0597219
1417,4232;0,0601473
1418,3875;0,0604852
1419,3517;0,0607819
1420,3159;0,0610679
1421,2802;0,0613123
1422,2444;0,0614425
1423,2086;0,0614021
1424,1729;0,0611867
1425,1371;0,0608329
1426,1013;0,0603734
1427,0656;0,0597967
1428,0298;0,0590592
1428,9940;0,0581476
1429,9583;0,0571391
1430,9225;0,0561747
1431,8867;0,0553488
1432,8510;0,05463
1433,8152;0,0538844
1434,7794;0,0529683
1435,7437;0,051858
1436,7079;0,050749
1437,6721;0,0499442
1438,6364;0,0495788
1439,6006;0,0495549
1440,5648;0,0497043
1441,5291;0,0499165
1442,4933;0,0501583
1443,4575;0,0504411
1444,4218;0,0507808
1445,3860;0,0511747
1446,3502;0,0516017
1447,3145;0,0520396
1448,2787;0,0524825
1449,2429;0,0529413
1450,2072;0,0534232
1451,1714;0,0539128
1452,1356;0,0543706
1453,0999;0,0547418
1454,0641;0,0549551
1455,0283;0,0549068
1455,9926;0,0544874
1456,9568;0,0537898
1457,9210;0,0532669
1458,8853;0,0532485
1459,8495;0,0535974
1460,8137;0,0540154
1461,7780;0,0542631
1462,7422;0,0541631
1463,7064;0,0535999
1464,6707;0,0526098
1465,6349;0,051441
1466,5991;0,0503817
1467,5634;0,0495244
1468,5276;0,0487545
1469,4918;0,0478642
1470,4561;0,0466221
1471,4203;0,0448299
1472,3845;0,0424944
1473,3488;0,0400217
1474,3130;0,0379738
1475,2772;0,0365563
1476,2415;0,0356112
1477,2057;0,0349197
1478,1699;0,0343454
1479,1342;0,0338289
1480,0984;0,033357
1481,0626;0,0329462
1482,0269;0,0326304
1482,9911;0,0324388
1483,9553;0,032372
1484,9196;0,0323945
1485,8838;0,0324475
1486,8480;0,0324742
1487,8123;0,0324582
1488,7765;0,0324681
1489,7407;0,0326408
1490,7050;0,0330533
1491,6692;0,0336549
1492,6334;0,0343453
1493,5977;0,0350557
1494,5619;0,0357688
1495,5261;0,0365074
1496,4904;0,0373161
1497,4546;0,0382333
1498,4188;0,039262
1499,3831;0,0403579
1500,3473;0,0414481
1501,3115;0,0424593
1502,2758;0,0433334
1503,2400;0,0440291
1504,2042;0,0445049
1505,1685;0,0446769
1506,1327;0,0443961
1507,0969;0,0436743
1508,0612;0,0429691
1509,0254;0,042641
1509,9896;0,0425804
1510,9539;0,0425636
1511,9181;0,0424479
1512,8823;0,0421537
1513,8466;0,041633
1514,8108;0,0408722
1515,7750;0,039918
1516,7393;0,038873
1517,7035;0,0378342
1518,6677;0,0368284
1519,6320;0,035821
1520,5962;0,0347994
1521,5604;0,033841
1522,5247;0,0330661
1523,4889;0,0325244
1524,4531;0,032168
1525,4174;0,0319283
1526,3816;0,0317815
1527,3458;0,0317445
1528,3101;0,0318262
1529,2743;0,0319978
1530,2385;0,0322054
1531,2028;0,0324001
1532,1670;0,0325679
1533,1312;0,0327464
1534,0955;0,0329989
1535,0597;0,0333523
1536,0239;0,0337714
1536,9882;0,0341887
1537,9524;0,0345266
1538,9166;0,0346722
1539,8809;0,0344676
1540,8451;0,0339187
1541,8093;0,0334164
1542,7736;0,0332694
1543,7378;0,033401
1544,7020;0,0336418
1545,6663;0,0338996
1546,6305;0,0341411
1547,5947;0,0343488
1548,5590;0,0345021
1549,5232;0,0345848
1550,4874;0,0346066
1551,4517;0,034614
1552,4159;0,0346686
1553,3801;0,0348037
1554,3444;0,0349967
1555,3086;0,0351666
1556,2728;0,0351666
1557,2371;0,0347822
1558,2013;0,0339498
1559,1655;0,0331792
1560,1298;0,0330453
1561,0940;0,0334616
1562,0582;0,0341013
1563,0225;0,0347643
1563,9867;0,0353696
1564,9509;0,0358879
1565,9152;0,0363072
1566,8794;0,0366318
1567,8436;0,0369003
1568,8079;0,0371959
1569,7721;0,0376037
1570,7363;0,0381416
1571,7006;0,0387545
1572,6648;0,0393704
1573,6290;0,0399463
1574,5933;0,0404791
1575,5575;0,041002
1576,5217;0,0415692
1577,4860;0,0422205
1578,4502;0,042952
1579,4144;0,04373
1580,3787;0,0445251
1581,3429;0,0453242
1582,3071;0,0461261
1583,2714;0,0469354
1584,2356;0,0477587
1585,1998;0,0486013
1586,1641;0,0494609
1587,1283;0,0503216
1588,0925;0,0511538
1589,0568;0,0519217
1590,0210;0,0525917
1590,9852;0,0531359
1591,9495;0,053529
1592,9137;0,0537488
1593,8779;0,0537873
1594,8422;0,0536645
1595,8064;0,0534281
1596,7706;0,0531327
1597,7349;0,0528156
1598,6991;0,0524887
1599,6633;0,05215
1600,6276;0,0518004
1601,5918;0,0514556
1602,5560;0,0511441
1603,5203;0,0508903
1604,4845;0,0506966
1605,4487;0,0505368
1606,4130;0,0503701
1607,3772;0,0501698
1608,3414;0,0499532
1609,3057;0,0497856
1610,2699;0,0497376
1611,2341;0,049829
1612,1984;0,0500149
1613,1626;0,0502105
1614,1268;0,0503242
1615,0911;0,0502996
1616,0553;0,0501793
1617,0195;0,0501179
1617,9838;0,0502471
1618,9480;0,0505529
1619,9122;0,0509293
1620,8765;0,0512743
1621,8407;0,0515297
1622,8049;0,0516903
1623,7692;0,0517977
1624,7334;0,0519065
1625,6976;0,0520426
1626,6619;0,0522024
1627,6261;0,0523845
1628,5903;0,052607
1629,5546;0,0528902
1630,5188;0,0532287
1631,4830;0,0535817
1632,4473;0,053877
1633,4115;0,0540138
1634,3757;0,0538836
1635,3400;0,0534814
1636,3042;0,0530384
1637,2684;0,0528393
1638,2327;0,0529258
1639,1969;0,0531722
1640,1611;0,0534671
1641,1254;0,0537578
1642,0896;0,054019
1643,0538;0,0542142
1644,0181;0,0542683
1644,9823;0,0540828
1645,9465;0,0536457
1646,9108;0,0531644
1647,8750;0,0529192
1648,8392;0,0529661
1649,8035;0,053129
1650,7677;0,0531182
1651,7319;0,0525604
1652,6962;0,0512077
1653,6604;0,0495508
1654,6246;0,0485135
1655,5889;0,0482332
1656,5531;0,0482988
1657,5173;0,0483841
1658,4816;0,048324
1659,4458;0,0480265
1660,4100;0,047439
1661,3743;0,0465958
1662,3385;0,0456759
1663,3027;0,0449193
1664,2670;0,0444395
1665,2312;0,0441678
1666,1954;0,0439327
1667,1597;0,0435385
1668,1239;0,0428356
1669,0881;0,0418352
1670,0524;0,0407739
1671,0166;0,0399253
1671,9808;0,0393403
1672,9451;0,0388626
1673,9093;0,0383157
1674,8735;0,0376438
1675,8378;0,0369509
1676,8020;0,0364074
1677,7662;0,0361013
1678,7305;0,0359906
1679,6947;0,0359552
1680,6589;0,0358363
1681,6232;0,0354355
1682,5874;0,0345606
1683,5516;0,0332582
1684,5159;0,0319841
1685,4801;0,0311624
1686,4443;0,0307719
1687,4086;0,0305807
1688,3728;0,0304217
1689,3370;0,0302436
1690,3013;0,0300665
1691,2655;0,0299271
1692,2297;0,0298417
1693,1940;0,029794
1694,1582;0,0297427
1695,1224;0,0296354
1696,0867;0,0294241
1697,0509;0,0290837
1698,0151;0,0286359
1698,9794;0,0281672
1699,9436;0,027804
1700,9078;0,0276369
1701,8721;0,0276676
1702,8363;0,0278295
1703,8005;0,0280415
1704,7648;0,0282498
1705,7290;0,0284485
1706,6932;0,0286753
1707,6575;0,0289788
1708,6217;0,029382
1709,5859;0,0298748
1710,5502;0,0304295
1711,5144;0,0310141
1712,4786;0,0315937
1713,4429;0,0321239
1714,4071;0,0325445
1715,3713;0,0327936
1716,3356;0,0328729
1717,2998;0,0329159
1718,2640;0,0330931
1719,2283;0,0334503
1720,1925;0,0339266
1721,1567;0,0344483
1722,1210;0,0349651
1723,0852;0,0354485
1724,0494;0,0358877
1725,0137;0,0362894
1725,9779;0,0366743
1726,9421;0,0370657
1727,9064;0,037475
1728,8706;0,0378901
1729,8348;0,0382646
1730,7991;0,0385104
1731,7633;0,0385078
1732,7275;0,0381837
1733,6918;0,0376411
1734,6560;0,0371293
1735,6202;0,0368007
1736,5845;0,0366075
1737,5487;0,0364106
1738,5129;0,0360853
1739,4772;0,0355714
1740,4414;0,0348956
1741,4056;0,0341535
1742,3699;0,033442
1743,3341;0,0327984
1744,2983;0,032202
1745,2626;0,0316067
1746,2268;0,0309519
1747,1910;0,0301523
1748,1553;0,0291156
1749,1195;0,0278315
1750,0837;0,0264596
1751,0480;0,0252463
1752,0122;0,0243278
1752,9764;0,0236656
1753,9407;0,0231316
1754,9049;0,0226069
1755,8691;0,0220339
1756,8334;0,0214241
1757,7976;0,0208225
1758,7618;0,0202542
1759,7261;0,0197008
1760,6903;0,0191333
1761,6545;0,0185623
1762,6188;0,018048
1763,5830;0,0176514
1764,5472;0,0173854
1765,5115;0,0172144
1766,4757;0,0170847
1767,4399;0,0169513
1768,4042;0,0167822
1769,3684;0,0165488
1770,3326;0,0162214
1771,2969;0,0157979
1772,2611;0,0153461
1773,2253;0,0149862
1774,1896;0,0147971
1775,1538;0,0147653
1776,1180;0,0148174
1777,0823;0,0148714
1778,0465;0,0148677
1779,0107;0,0147853
1779,9750;0,0146454
1780,9392;0,0144933
1781,9034;0,0143661
1782,8677;0,0142758
1783,8319;0,0142215
1784,7961;0,0142078
1785,7604;0,0142476
1786,7246;0,014346
1787,6888;0,0144852
1788,6531;0,0146204
1789,6173;0,0146869
1790,5815;0,0146244
1791,5458;0,0144249
1792,5100;0,0141702
1793,4742;0,0139807
1794,4385;0,013915
1795,4027;0,0139481
1796,3669;0,0140202
1797,3312;0,0140767
1798,2954;0,0140833
1799,2596;0,0140327
1800,2239;0,0139456
1801,1881;0,0138595
1802,1523;0,0138062
1803,1166;0,0137985
1804,0808;0,0138313
1805,0450;0,0138901
1806,0093;0,0139553
1806,9735;0,0140035
1807,9377;0,014012
1808,9020;0,0139681
1809,8662;0,0138795
1810,8304;0,0137759
1811,7947;0,013693
1812,7589;0,0136503
1813,7231;0,0136433
1814,6874;0,013653
1815,6516;0,0136613
1816,6158;0,0136626
1817,5801;0,0136675
1818,5443;0,0136931
1819,5085;0,0137475
1820,4728;0,013821
1821,4370;0,0138903
1822,4012;0,0139321
1823,3655;0,0139374
1824,3297;0,0139163
1825,2939;0,013888
1826,2582;0,0138607
1827,2224;0,013823
1828,1866;0,0137556
1829,1509;0,0136572
1830,1151;0,0135583
1831,0793;0,0135018
1832,0436;0,013506
1833,0078;0,0135528
1833,9720;0,0136064
1834,9363;0,0136376
1835,9005;0,0136414
1836,8647;0,0136414
1837,8290;0,0136736
1838,7932;0,0137571
1839,7574;0,0138775
1840,7217;0,0139924
1841,6859;0,0140489
1842,6501;0,0140086
1843,6144;0,0138784
1844,5786;0,0137201
1845,5428;0,013605
1846,5071;0,0135563
1847,4713;0,0135475
1848,4355;0,0135393
1849,3998;0,0135077
1850,3640;0,0134524
1851,3282;0,0133922
1852,2925;0,013352
1853,2567;0,0133502
1854,2209;0,0133906
1855,1852;0,0134635
1856,1494;0,0135513
1857,1136;0,0136341
1858,0779;0,0136948
1859,0421;0,0137243
1860,0063;0,0137253
1860,9706;0,0137129
1861,9348;0,0137085
1862,8990;0,0137289
1863,8633;0,0137769
1864,8275;0,0138377
1865,7917;0,0138826
1866,7560;0,0138815
1867,7202;0,0138242
1868,6844;0,0137364
1869,6487;0,0136627
1870,6129;0,0136302
1871,5771;0,0136337
1872,5414;0,01365
1873,5056;0,0136556
1874,4698;0,013637
1875,4341;0,0135962
1876,3983;0,0135506
1877,3625;0,0135235
1878,3268;0,0135314
1879,2910;0,0135758
1880,2552;0,0136453
1881,2195;0,0137244
1882,1837;0,0138023
1883,1479;0,013876
1884,1122;0,0139455
1885,0764;0,0140069
1886,0406;0,014047
1887,0049;0,014047
1887,9691;0,0139942
1888,9333;0,0138957
1889,8976;0,0137818
1890,8618;0,0136897
1891,8260;0,013641
1892,7903;0,0136327
1893,7545;0,0136438
1894,7188;0,0136502
1895,6830;0,0136391
1896,6472;0,0136148
1897,6115;0,0135926
1898,5757;0,0135869
1899,5399;0,0136015
1900,5042;0,0136295
1901,4684;0,0136602
1902,4326;0,013687
1903,3969;0,0137129
1904,3611;0,0137486
1905,3253;0,0138047
1906,2896;0,013882
1907,2538;0,0139659
1908,2180;0,014028
1909,1823;0,0140389
1910,1465;0,0139874
1911,1107;0,0138915
1912,0750;0,013792
1913,0392;0,0137336
1914,0034;0,0137457
1914,9677;0,0138331
1915,9319;0,0139725
1916,8961;0,0141199
1917,8604;0,0142297
1918,8246;0,0142767
1919,7888;0,014264
1920,7531;0,0142104
1921,7173;0,0141324
1922,6815;0,0140373
1923,6458;0,0139282
1924,6100;0,013814
1925,5742;0,0137127
1926,5385;0,0136459
1927,5027;0,0136295
1928,4669;0,013668
1929,4312;0,013752
1930,3954;0,0138622
1931,3596;0,0139749
1932,3239;0,0140684
1933,2881;0,0141278
1934,2523;0,0141474
1935,2166;0,0141326
1936,1808;0,0140991
1937,1450;0,0140662
1938,1093;0,0140467
1939,0735;0,0140402
1940,0377;0,0140335
1941,0020;0,0140122
1941,9662;0,0139733
1942,9304;0,0139313
1943,8947;0,0139072
1944,8589;0,0139134
1945,8231;0,0139492
1946,7874;0,0140079
1947,7516;0,0140824
1948,7158;0,0141621
1949,6801;0,0142234
1950,6443;0,0142273
1951,6085;0,0141336
1952,5728;0,0139299
1953,5370;0,0136531
1954,5012;0,0133853
1955,4655;0,0132181
1956,4297;0,0132072
1957,3939;0,0133484
1958,3582;0,013589
1959,3224;0,0138621
1960,2866;0,0141183
1961,2509;0,0143317
1962,2151;0,0144859
1963,1793;0,0145601
1964,1436;0,0145333
1965,1078;0,0144067
1966,0720;0,0142229
1967,0363;0,0140584
1968,0005;0,0139823
1968,9647;0,0140114
1969,9290;0,0140995
1970,8932;0,0141683
1971,8574;0,0141541
1972,8217;0,014044
1973,7859;0,0138891
1974,7501;0,0137856
1975,7144;0,013826
1976,6786;0,0140397
1977,6428;0,0143624
1978,6071;0,0146654
1979,5713;0,0148298
1980,5355;0,0148106
1981,4998;0,0146486
1982,4640;0,0144344
1983,4282;0,0142556
1984,3925;0,0141575
1985,3567;0,014137
1986,3209;0,014168
1987,2852;0,0142374
1988,2494;0,0143614
1989,2136;0,0145685
1990,1779;0,0148592
1991,1421;0,0151754
1992,1063;0,0154124
1993,0706;0,0154736
1994,0348;0,0153292
1994,9990;0,0150344
1995,9633;0,0147016
1996,9275;0,0144529
1997,8917;0,0143764
1998,8560;0,0144972
1999,8202;0,0147718
2000,7844;0,0151076
2001,7487;0,0154001
2002,7129;0,0155686
2003,6771;0,0155769
2004,6414;0,01544
2005,6056;0,0152182
2006,5698;0,0149965
2007,5341;0,0148529
2008,4983;0,0148264
2009,4625;0,0149037
2010,4268;0,0150345
2011,3910;0,0151643
2012,3552;0,0152638
2013,3195;0,0153388
2014,2837;0,015415
2015,2479;0,0155098
2016,2122;0,0156106
2017,1764;0,0156814
2018,1406;0,0156966
2019,1049;0,0156731
2020,0691;0,0156692
2021,0333;0,0157469
2021,9976;0,0159266
2022,9618;0,0161674
2023,9260;0,0163902
2024,8903;0,0165273
2025,8545;0,0165628
2026,8187;0,0165307
2027,7830;0,0164745
2028,7472;0,0164038
2029,7114;0,0162886
2030,6757;0,0160972
2031,6399;0,015849
2032,6041;0,0156342
2033,5684;0,0155752
2034,5326;0,0157514
2035,4968;0,0161394
2036,4611;0,0166163
2037,4253;0,0170174
2038,3895;0,0172113
2039,3538;0,0171498
2040,3180;0,0168785
2041,2822;0,0165106
2042,2465;0,0161779
2043,2107;0,0159825
2044,1749;0,0159677
2045,1392;0,0161153
2046,1034;0,0163598
2047,0676;0,0166143
2048,0320;0,0168038
2048,9961;0,0168948
2049,9604;0,0169033
2050,9246;0,016876
2051,8889;0,0168589
2052,8530;0,0168724
2053,8174;0,0169044
2054,7815;0,0169223
2055,7458;0,0168974
2056,7100;0,0168275
2057,6743;0,0167403
2058,6384;0,0166767
2059,6028;0,0166638
2060,5669;0,0166979
2061,5313;0,0167468
2062,4954;0,0167689
2063,4597;0,0167352
2064,4238;0,0166411
2065,3882;0,0165037
2066,3523;0,0163508
2067,3167;0,0162129
2068,2808;0,0161212
2069,2451;0,0161057
2070,2092;0,0161862
2071,1736;0,0163568
2072,1377;0,0165772
2073,1021;0,0167809
2074,0662;0,0169044
2075,0305;0,0169202
2075,9946;0,0168512
2076,9590;0,0167564
2077,9231;0,0166951
2078,8875;0,0166947
2079,8516;0,0167407
2080,8159;0,0167947
2081,7800;0,0168244
2082,7444;0,0168241
2083,7085;0,0168129
2084,6729;0,0168155
2085,6370;0,0168405
2086,6013;0,0168723
2087,5654;0,0168792
2088,5298;0,0168321
2089,4939;0,0167211
2090,4583;0,016562
2091,4224;0,0163912
2092,3867;0,0162545
2093,3508;0,0161929
2094,3152;0,0162293
2095,2793;0,0163575
2096,2437;0,0165393
2097,2078;0,016715
2098,1721;0,0168255
2099,1362;0,0168374
2100,1006;0,0167554
2101,0647;0,0166204
2102,0291;0,0164867
2102,9932;0,0164013
2103,9575;0,0163865
2104,9216;0,016438
2105,8860;0,0165344
2106,8501;0,0166498
2107,8145;0,0167619
2108,7786;0,0168541
2109,7429;0,0169146
2110,7070;0,0169366
2111,6714;0,0169215
2112,6355;0,0168799
2113,5999;0,0168285
2114,5640;0,0167827
2115,5283;0,0167495
2116,4924;0,016727
2117,4568;0,0167102
2118,4209;0,0167002
2119,3853;0,0167083
2120,3494;0,0167506
2121,3137;0,0168364
2122,2778;0,0169572
2123,2422;0,0170865
2124,2063;0,0171895
2125,1707;0,0172393
2126,1348;0,0172287
2127,0991;0,017172
2128,0632;0,0170986
2129,0276;0,0170432
2129,9917;0,0170378
2130,9561;0,0171069
2131,9202;0,0172609
2132,8845;0,0174874
2133,8486;0,0177464
2134,8130;0,0179769
2135,7771;0,0181202
2136,7415;0,0181472
2137,7056;0,0180723
2138,6699;0,017943
2139,6340;0,0178136
2140,5984;0,0177218
2141,5625;0,0176812
2142,5269;0,0176896
2143,4910;0,0177414
2144,4553;0,0178313
2145,4194;0,0179499
2146,3838;0,0180804
2147,3479;0,0182077
2148,3123;0,0183344
2149,2764;0,0184882
2150,2407;0,0187059
2151,2048;0,0189991
2152,1692;0,0193249
2153,1333;0,0195872
2154,0977;0,0196756
2155,0618;0,0195237
2156,0261;0,0191593
2156,9902;0,0187135
2157,9546;0,0183668
2158,9187;0,0182414
2159,8831;0,0183207
2160,8472;0,0184736
2161,8115;0,0185595
2162,7756;0,0185176
2163,7400;0,018387
2164,7041;0,0182699
2165,6685;0,0182668
2166,6326;0,0184172
2167,5969;0,018677
2168,5610;0,0189431
2169,5254;0,0191111
2170,4895;0,0191308
2171,4539;0,0190295
2172,4180;0,018892
2173,3823;0,0188077
2174,3464;0,018815
2175,3108;0,018881
2176,2749;0,0189291
2177,2393;0,0188956
2178,2034;0,018774
2179,1677;0,0186157
2180,1318;0,0184908
2181,0962;0,0184367
2182,0603;0,0184336
2183,0247;0,018425
2183,9888;0,0183696
2184,9531;0,0182816
2185,9172;0,0182271
2186,8816;0,0182784
2187,8457;0,018459
2188,8101;0,0187191
2189,7742;0,0189589
2190,7385;0,0190835
2191,7026;0,0190525
2192,6670;0,018893
2193,6311;0,018673
2194,5955;0,0184575
2195,5596;0,0182793
2196,5239;0,0181385
2197,4880;0,0180229
2198,4524;0,0179279
2199,4165;0,0178591
2200,3809;0,017823
2201,3450;0,0178168
2202,3093;0,0178317
2203,2734;0,017864
2204,2378;0,0179212
2205,2019;0,0180138
2206,1663;0,0181379
2207,1304;0,0182645
2208,0947;0,0183482
2209,0588;0,0183517
2210,0232;0,0182691
2210,9873;0,0181292
2211,9517;0,0179765
2212,9158;0,0178423
2213,8801;0,0177276
2214,8442;0,0176108
2215,8086;0,0174723
2216,7727;0,0173196
2217,7371;0,0171919
2218,7012;0,0171413
2219,6655;0,0172023
2220,6296;0,0173668
2221,5940;0,0175814
2222,5581;0,0177672
2223,5225;0,0178518
2224,4866;0,0177987
2225,4509;0,0176201
2226,4150;0,0173693
2227,3794;0,0171182
2228,3435;0,0169303
2229,3079;0,0168386
2230,2720;0,0168395
2231,2363;0,0169012
2232,2004;0,0169833
2233,1648;0,0170563
2234,1289;0,0171119
2235,0933;0,0171594
2236,0574;0,0172121
2237,0217;0,0172732
2237,9858;0,0173315
2238,9502;0,0173689
2239,9143;0,0173761
2240,8787;0,0173617
2241,8428;0,0173487
2242,8071;0,0173594
2243,7712;0,0173985
2244,7356;0,0174479
2245,6997;0,017478
2246,6641;0,0174686
2247,6282;0,0174234
2248,5925;0,017369
2249,5566;0,017338
2250,5210;0,0173482
2251,4851;0,017393
2252,4495;0,0174484
2253,4136;0,017489
2254,3779;0,017504
2255,3420;0,0175002
2256,3064;0,0174939
2257,2705;0,0174983
2258,2349;0,0175159
2259,1990;0,0175397
2260,1633;0,01756
2261,1274;0,0175714
2262,0918;0,0175749
2263,0559;0,0175752
2264,0203;0,0175754
2264,9844;0,0175717
2265,9487;0,017554
2266,9128;0,0175114
2267,8772;0,017442
2268,8413;0,0173589
2269,8057;0,0172889
2270,7698;0,0172599
2271,7341;0,0172836
2272,6982;0,0173451
2273,6626;0,0174057
2274,6267;0,0174227
2275,5911;0,0173717
2276,5552;0,017261
2277,5195;0,0171269
2278,4836;0,0170149
2279,4480;0,0169579
2280,4121;0,0169652
2281,3765;0,0170251
2282,3406;0,0171164
2283,3049;0,0172196
2284,2690;0,0173222
2285,2334;0,0174172
2286,1975;0,0175017
2287,1619;0,0175758
2288,1260;0,0176419
2289,0903;0,0177036
2290,0544;0,0177611
2291,0188;0,0178098
2291,9829;0,0178416
2292,9473;0,0178523
2293,9114;0,0178489
2294,8757;0,0178493
2295,8398;0,0178734
2296,8042;0,0179288
2297,7683;0,0180019
2298,7327;0,0180614
2299,6968;0,0180758
2300,6611;0,0180329
2301,6252;0,0179508
2302,5896;0,0178715
2303,5537;0,0178414
2304,5181;0,017889
2305,4822;0,0180096
2306,4465;0,0181651
2307,4106;0,0182965
2308,3750;0,0183475
2309,3391;0,0182881
2310,3035;0,0181294
2311,2676;0,0179204
2312,2319;0,017726
2313,1960;0,0175964
2314,1604;0,0175436
2315,1245;0,0175403
2316,0889;0,0175403
2317,0530;0,0175077
2318,0173;0,0174392
2318,9814;0,0173681
2319,9458;0,0173466
2320,9099;0,0174152
2321,8743;0,0175771
2322,8384;0,0177937
2323,8027;0,0180015
2324,7668;0,0181376
2325,7312;0,0181613
2326,6953;0,0180675
2327,6597;0,0178921
2328,6238;0,0177028
2329,5881;0,0175762
2330,5522;0,017566
2331,5166;0,0176775
2332,4807;0,0178643
2333,4451;0,0180517
2334,4092;0,0181729
2335,3735;0,0182019
2336,3376;0,0181657
2337,3020;0,0181317
2338,2661;0,0181708
2339,2305;0,0183102
2340,1946;0,0184969
2341,1589;0,0185984
2342,1230;0,0184601
2343,0874;0,0180371
2344,0515;0,0175244
2345,0159;0,017271
2345,9800;0,0174787
2346,9443;0,0180434
2347,9084;0,0186837
2348,8728;0,0191441
2349,8369;0,0193084
2350,8013;0,0192167
2351,7654;0,0190176
2352,7297;0,0188779
2353,6938;0,0188914
2354,6582;0,0190551
2355,6223;0,0193151
2356,5867;0,0196023
2357,5508;0,0198284
2358,5151;0,0198969
2359,4792;0,0197575
2360,4436;0,0194464
2361,4077;0,0190559
2362,3721;0,0186629
2363,3362;0,0182884
2364,3005;0,0179139
2365,2646;0,0175181
2366,2290;0,0170978
2367,1931;0,0166665
2368,1575;0,016246
2369,1216;0,0158606
2370,0859;0,0155331
2371,0500;0,0152809
2372,0144;0,0151138
2372,9785;0,0150366
2373,9429;0,0150517
2374,9070;0,0151593
2375,8713;0,0153538
2376,8354;0,0156198
2377,7998;0,0159319
2378,7639;0,0162591
2379,7283;0,0165716
2380,6924;0,0168464
2381,6567;0,0170705
2382,6208;0,0172413
2383,5852;0,0173639
2384,5493;0,0174486
2385,5137;0,0175058
2386,4778;0,0175434
2387,4421;0,0175654
2388,4063;0,0175729
2389,3706;0,0175673
2390,3347;0,0175532
2391,2991;0,0175385
2392,2632;0,0175326
2393,2275;0,0175416
2394,1917;0,017566
2395,1560;0,0175998
2396,1201;0,0176331
2397,0845;0,0176571
2398,0486;0,0176688
2399,0129;0,0176714
2399,9771;0,0176738
2400,9414;0,0176855
2401,9055;0,0177108
2402,8699;0,0177455
2403,8340;0,0177789
2404,7983;0,0177998
2405,7625;0,0178047
2406,7268;0,017801
2407,6909;0,0178033
2408,6553;0,0178241
2409,6194;0,0178645
2410,5837;0,0179135
2411,5479;0,0179547
2412,5122;0,0179775
2413,4763;0,017984
2414,4407;0,0179864
2415,4048;0,0179984
2416,3691;0,0180252
2417,3333;0,0180606
2418,2976;0,0180921
2419,2617;0,0181101
2420,2261;0,0181148
2421,1902;0,0181157
2422,1545;0,0181263
2423,1187;0,0181558
2424,0830;0,0182033
2425,0471;0,0182581
2426,0115;0,0183048
2426,9756;0,0183311
2427,9399;0,0183345
2428,9041;0,0183243
2429,8684;0,018317
2430,8325;0,0183281
2431,7969;0,0183642
2432,7610;0,0184201
2433,7253;0,0184822
2434,6895;0,0185362
2435,6538;0,0185741
2436,6179;0,0185956
2437,5823;0,0186058
2438,5464;0,0186103
2439,5107;0,0186125
2440,4749;0,018613
2441,4392;0,0186124
2442,4033;0,0186118
2443,3677;0,0186133
2444,3318;0,0186187
2445,2961;0,0186292
2446,2603;0,0186458
2447,2246;0,0186694
2448,1887;0,0187011
2449,1531;0,018741
2450,1172;0,0187867
2451,0815;0,0188341
2452,0457;0,0188773
2453,0100;0,0189117
2453,9741;0,0189347
2454,9385;0,0189466
2455,9026;0,0189505
2456,8669;0,0189501
2457,8311;0,0189488
2458,7954;0,0189481
2459,7595;0,0189481
2460,7239;0,0189485
2461,6880;0,0189501
2462,6523;0,0189552
2463,6165;0,0189665
2464,5808;0,0189846
2465,5449;0,0190071
2466,5093;0,0190293
2467,4734;0,0190476
2468,4377;0,0190617
2469,4019;0,0190752
2470,3662;0,0190924
2471,3303;0,0191149
2472,2947;0,0191391
2473,2588;0,0191582
2474,2231;0,0191669
2475,1873;0,0191656
2476,1516;0,0191613
2477,1157;0,0191644
2478,0801;0,0191833
2479,0442;0,01922
2480,0085;0,0192689
2480,9727;0,0193191
2481,9370;0,0193597
2482,9011;0,0193843
2483,8655;0,0193925
2484,8296;0,0193895
2485,7939;0,0193824
2486,7581;0,0193766
2487,7224;0,0193757
2488,6865;0,0193818
2489,6509;0,0193988
2490,6150;0,0194325
2491,5793;0,019487
2492,5435;0,0195594
2493,5078;0,0196368
2494,4719;0,0196991
2495,4363;0,019728
2496,4004;0,0197167
2497,3647;0,0196738
2498,3289;0,019619
2499,2932;0,0195728
2500,2573;0,0195474
2501,2217;0,0195442
2502,1858;0,0195585
2503,1501;0,0195854
2504,1143;0,0196224
2505,0786;0,0196676
2506,0427;0,0197163
2507,0071;0,0197607
2507,9712;0,0197948
2508,9355;0,0198186
2509,8997;0,0198385
2510,8640;0,019862
2511,8281;0,0198904
2512,7925;0,0199167
2513,7566;0,0199297
2514,7209;0,0199226
2515,6851;0,0198986
2516,6494;0,0198698
2517,6135;0,0198495
2518,5779;0,0198454
2519,5420;0,0198573
2520,5063;0,019881
2521,4705;0,0199133
2522,4348;0,0199538
2523,3989;0,020002
2524,3633;0,0200523
2525,3274;0,0200935
2526,2917;0,0201126
2527,2559;0,0201024
2528,2202;0,0200671
2529,1843;0,0200218
2530,1487;0,0199862
2531,1128;0,0199759
2532,0771;0,019995
2533,0413;0,0200356
2534,0056;0,0200826
2534,9697;0,0201214
2535,9341;0,0201449
2536,8982;0,0201563
2537,8625;0,0201653
2538,8267;0,0201815
2539,7910;0,0202081
2540,7551;0,0202405
2541,7195;0,02027
2542,6836;0,02029
2543,6479;0,0202999
2544,6121;0,0203044
2545,5764;0,0203084
2546,5405;0,0203128
2547,5049;0,0203143
2548,4690;0,0203095
2549,4333;0,0202996
2550,3975;0,0202906
2551,3618;0,0202896
2552,3259;0,0202986
2553,2903;0,0203124
2554,2544;0,0203217
2555,2188;0,0203195
2556,1829;0,0203063
2557,1472;0,0202904
2558,1113;0,0202824
2559,0757;0,0202899
2560,0398;0,0203136
2561,0042;0,0203481
2561,9683;0,020385
2562,9326;0,0204163
2563,8967;0,0204364
2564,8611;0,0204421
2565,8252;0,0204334
2566,7896;0,0204139
2567,7537;0,0203904
2568,7180;0,0203708
2569,6821;0,0203613
2570,6465;0,0203626
2571,6106;0,0203707
2572,5750;0,0203793
2573,5391;0,0203849
2574,5034;0,0203903
2575,4675;0,0204036
2576,4319;0,0204328
2577,3960;0,02048
2578,3604;0,0205391
2579,3245;0,0205978
2580,2888;0,0206442
2581,2529;0,0206722
2582,2173;0,0206835
2583,1814;0,0206843
2584,1458;0,0206814
2585,1099;0,0206786
2586,0742;0,0206768
2587,0383;0,0206764
2588,0027;0,0206787
2588,9668;0,0206861
2589,9312;0,0207003
2590,8953;0,0207217
2591,8596;0,0207489
2592,8237;0,0207791
2593,7881;0,0208093
2594,7522;0,0208356
2595,7166;0,0208543
2596,6807;0,0208638
2597,6450;0,0208666
2598,6091;0,0208695
2599,5735;0,0208821
2600,5376;0,0209114
2601,5020;0,0209576
2602,4661;0,021013
2603,4304;0,0210652
2604,3945;0,0211031
2605,3589;0,0211222
2606,3230;0,0211262
2607,2874;0,021124
2608,2515;0,0211242
2609,2158;0,0211313
2610,1799;0,021144
2611,1443;0,0211578
2612,1084;0,0211689
2613,0728;0,021178
2614,0369;0,0211903
2615,0012;0,0212125
2615,9653;0,0212484
2616,9297;0,0212954
2617,8938;0,0213453
2618,8582;0,021388
2619,8223;0,0214168
2620,7866;0,0214313
2621,7507;0,0214376
2622,7151;0,0214442
2623,6792;0,0214577
2624,6436;0,0214808
2625,6077;0,0215116
2626,5720;0,0215458
2627,5361;0,0215789
2628,5005;0,021608
2629,4646;0,021633
2630,4290;0,0216559
2631,3931;0,0216794
2632,3574;0,0217055
2633,3215;0,0217334
2634,2859;0,0217592
2635,2500;0,0217782
2636,2144;0,0217874
2637,1785;0,021788
2638,1428;0,0217857
2639,1069;0,0217887
2640,0713;0,0218047
2641,0354;0,0218377
2641,9998;0,0218871
2642,9639;0,0219474
2643,9282;0,0220104
2644,8923;0,022067
2645,8567;0,0221099
2646,8208;0,0221365
2647,7852;0,0221497
2648,7493;0,0221568
2649,7136;0,0221664
2650,6777;0,0221846
2651,6421;0,0222125
2652,6062;0,0222466
2653,5706;0,022281
2654,5347;0,0223107
2655,4990;0,0223339
2656,4631;0,0223523
2657,4275;0,0223697
2658,3916;0,0223899
2659,3560;0,022415
2660,3201;0,0224443
2661,2844;0,0224745
2662,2485;0,022502
2663,2129;0,0225241
2664,1770;0,0225406
2665,1414;0,0225541
2666,1055;0,0225678
2667,0698;0,0225844
2668,0339;0,0226047
2668,9983;0,0226277
2669,9624;0,0226521
2670,9268;0,0226774
2671,8909;0,0227033
2672,8552;0,0227289
2673,8193;0,0227524
2674,7837;0,0227716
2675,7478;0,0227853
2676,7122;0,0227948
2677,6763;0,0228048
2678,6406;0,0228209
2679,6047;0,0228478
2680,5691;0,0228871
2681,5332;0,0229361
2682,4976;0,0229892
2683,4617;0,02304
2684,4260;0,023084
2685,3901;0,0231197
2686,3545;0,0231488
2687,3186;0,0231748
2688,2830;0,0232011
2689,2471;0,0232299
2690,2114;0,0232616
2691,1755;0,023295
2692,1399;0,0233284
2693,1040;0,0233596
2694,0684;0,0233879
2695,0325;0,0234137
2695,9968;0,0234392
2696,9609;0,0234669
2697,9253;0,0234985
2698,8894;0,0235336
2699,8538;0,0235702
2700,8179;0,0236063
2701,7822;0,0236415
2702,7463;0,0236779
2703,7107;0,0237175
2704,6748;0,0237608
2705,6392;0,0238049
2706,6033;0,0238457
2707,5676;0,0238811
2708,5317;0,0239124
2709,4961;0,0239439
2710,4602;0,0239793
2711,4246;0,0240189
2712,3887;0,0240594
2713,3530;0,0240963
2714,3171;0,0241274
2715,2815;0,0241541
2716,2456;0,0241806
2717,2100;0,0242111
2718,1741;0,0242476
2719,1384;0,0242892
2720,1025;0,0243329
2721,0669;0,0243749
2722,0310;0,0244115
2722,9954;0,0244401
2723,9595;0,0244605
2724,9238;0,0244757
2725,8879;0,0244906
2726,8523;0,0245104
2727,8164;0,0245383
2728,7808;0,0245748
2729,7449;0,0246184
2730,7092;0,024667
2731,6733;0,0247186
2732,6377;0,0247696
2733,6018;0,0248148
2734,5662;0,024848
2735,5303;0,0248657
2736,4946;0,0248698
2737,4587;0,0248688
2738,4231;0,024874
2739,3872;0,0248948
2740,3516;0,0249339
2741,3157;0,0249866
2742,2800;0,0250435
2743,2441;0,025094
2744,2085;0,0251307
2745,1726;0,0251508
2746,1370;0,0251572
2747,1011;0,0251569
2748,0654;0,0251593
2749,0295;0,0251722
2749,9939;0,0251991
2750,9580;0,0252372
2751,9224;0,0252798
2752,8865;0,02532
2753,8508;0,0253546
2754,8149;0,0253849
2755,7793;0,025415
2756,7434;0,0254483
2757,7078;0,025485
2758,6719;0,0255223
2759,6362;0,0255567
2760,6003;0,0255865
2761,5647;0,0256131
2762,5288;0,0256398
2763,4932;0,0256699
2764,4573;0,0257046
2765,4216;0,0257433
2766,3857;0,025784
2767,3501;0,0258257
2768,3142;0,0258685
2769,2786;0,0259128
2770,2427;0,0259586
2771,2070;0,0260035
2772,1711;0,0260445
2773,1355;0,0260802
2774,0996;0,0261135
2775,0640;0,0261516
2776,0281;0,026203
2776,9924;0,0262728
2777,9565;0,026359
2778,9209;0,0264526
2779,8850;0,0265415
2780,8494;0,0266166
2781,8135;0,0266748
2782,7778;0,0267201
2783,7419;0,02676
2784,7063;0,0268021
2785,6704;0,0268507
2786,6348;0,0269062
2787,5989;0,0269661
2788,5632;0,027027
2789,5273;0,0270872
2790,4917;0,0271481
2791,4558;0,0272139
2792,4202;0,0272893
2793,3843;0,0273759
2794,3486;0,02747
2795,3127;0,0275635
2796,2771;0,0276477
2797,2412;0,0277193
2798,2056;0,0277829
2799,1697;0,0278494
2800,1340;0,0279304
2801,0981;0,0280314
2802,0625;0,0281497
2803,0266;0,0282759
2803,9910;0,0283997
2804,9551;0,028515
2805,9194;0,0286212
2806,8835;0,0287224
2807,8479;0,0288236
2808,8120;0,0289288
2809,7764;0,02904
2810,7405;0,0291573
2811,7048;0,0292794
2812,6689;0,0294043
2813,6333;0,0295308
2814,5974;0,0296594
2815,5618;0,0297935
2816,5259;0,0299383
2817,4902;0,030098
2818,4543;0,0302727
2819,4187;0,0304571
2820,3828;0,0306422
2821,3472;0,0308207
2822,3113;0,0309908
2823,2756;0,0311587
2824,2397;0,0313352
2825,2041;0,0315316
2826,1682;0,0317542
2827,1326;0,0320026
2828,0967;0,032271
2829,0610;0,0325519
2830,0251;0,0328401
2830,9895;0,0331347
2831,9536;0,0334385
2832,9180;0,0337562
2833,8821;0,034092
2834,8464;0,0344495
2835,8105;0,0348322
2836,7749;0,0352458
2837,7390;0,0356999
2838,7034;0,0362079
2839,6675;0,036787
2840,6318;0,0374564
2841,5959;0,0382355
2842,5603;0,0391395
2843,5244;0,0401696
2844,4888;0,0413018
2845,4529;0,0424756
2846,4172;0,0435939
2847,3813;0,0445374
2848,3457;0,0451944
2849,3098;0,0454951
2850,2742;0,0454346
2851,2383;0,045074
2852,2026;0,044518
2853,1667;0,04388
2854,1311;0,0432521
2855,0952;0,0426896
2856,0596;0,0422132
2857,0237;0,0418218
2857,9880;0,0415076
2858,9521;0,0412647
2859,9165;0,041091
2860,8806;0,040985
2861,8450;0,040943
2862,8091;0,0409578
2863,7734;0,0410196
2864,7375;0,0411185
2865,7019;0,0412452
2866,6660;0,0413912
2867,6304;0,0415472
2868,5945;0,041703
2869,5588;0,0418476
2870,5229;0,0419728
2871,4873;0,0420751
2872,4514;0,0421582
2873,4158;0,0422312
2874,3799;0,0423051
2875,3442;0,0423886
2876,3083;0,0424856
2877,2727;0,0425949
2878,2368;0,0427133
2879,2012;0,0428379
2880,1653;0,0429675
2881,1296;0,0431025
2882,0938;0,043243
2883,0581;0,0433879
2884,0222;0,0435357
2884,9866;0,0436852
2885,9507;0,0438365
2886,9150;0,0439913
2887,8792;0,0441514
2888,8435;0,0443171
2889,8076;0,0444866
2890,7720;0,0446564
2891,7361;0,0448232
2892,7004;0,0449859
2893,6646;0,0451462
2894,6289;0,0453084
2895,5930;0,0454767
2896,5574;0,0456532
2897,5215;0,0458368
2898,4858;0,0460239
2899,4500;0,0462114
2900,4143;0,0463996
2901,3784;0,0465933
2902,3428;0,0468008
2903,3069;0,0470308
2904,2712;0,0472903
2905,2354;0,0475847
2906,1997;0,0479206
2907,1638;0,0483103
2908,1282;0,0487733
2909,0923;0,0493338
2910,0566;0,0500116
2911,0208;0,050809
2911,9851;0,0517002
2912,9492;0,0526271
2913,9136;0,0535061
2914,8777;0,0542453
2915,8420;0,0547663
2916,8062;0,0550227
2917,7705;0,0550075
2918,7346;0,0547492
2919,6990;0,0542982
2920,6631;0,0537117
2921,6274;0,0530419
2922,5916;0,0523303
2923,5559;0,0516066
2924,5200;0,0508899
2925,4844;0,050191
2926,4485;0,0495151
2927,4128;0,0488657
2928,3770;0,0482472
2929,3413;0,0476654
2930,3054;0,0471245
2931,2698;0,0466237
2932,2339;0,0461548
2933,1982;0,0457059
2934,1624;0,0452661
2935,1267;0,044831
2936,0908;0,0444031
2937,0552;0,0439879
2938,0193;0,0435886
2938,9836;0,0432028
2939,9478;0,0428241
2940,9121;0,042446
2941,8762;0,0420666
2942,8406;0,0416902
2943,8047;0,0413252
2944,7690;0,0409806
2945,7332;0,0406624
2946,6975;0,0403729
2947,6616;0,0401105
2948,6260;0,0398725
2949,5901;0,0396557
2950,5544;0,0394574
2951,5186;0,0392746
2952,4829;0,0391033
2953,4470;0,0389383
2954,4114;0,0387733
2955,3755;0,0386027
2956,3398;0,0384227
2957,3040;0,0382316
2958,2683;0,0380294
2959,2324;0,0378175
2960,1968;0,0375976
2961,1609;0,0373722
2962,1252;0,0371431
2963,0894;0,0369114
2964,0537;0,0366767
2965,0178;0,0364374
2965,9822;0,0361927
2966,9463;0,035944
2967,9106;0,0356954
2968,8748;0,0354517
2969,8391;0,0352158
2970,8032;0,034987
2971,7676;0,0347621
2972,7317;0,0345386
2973,6960;0,0343181
2974,6602;0,0341061
2975,6245;0,0339093
2976,5886;0,0337318
2977,5530;0,033573
2978,5171;0,0334286
2979,4814;0,0332942
2980,4456;0,0331682
2981,4099;0,0330516
2982,3740;0,0329466
2983,3384;0,0328533
2984,3025;0,0327691
2985,2668;0,0326903
2986,2310;0,0326136
2987,1953;0,0325386
2988,1594;0,0324672
2989,1238;0,0324017
2990,0879;0,0323442
2991,0522;0,0322951
2992,0164;0,0322547
2992,9807;0,0322237
2993,9448;0,0322037
2994,9092;0,0321972
2995,8733;0,032206
2996,8376;0,0322303
2997,8018;0,0322677
2998,7661;0,0323131
2999,7302;0,032361
3000,6946;0,0324064
3001,6587;0,0324475
3002,6230;0,0324856
3003,5872;0,0325244
3004,5515;0,0325668
3005,5156;0,032613
3006,4800;0,0326595
3007,4441;0,0327003
3008,4084;0,03273
3009,3726;0,0327468
3010,3369;0,0327544
3011,3010;0,0327618
3012,2654;0,0327792
3013,2295;0,0328139
3014,1938;0,0328661
3015,1580;0,0329298
3016,1223;0,0329964
3017,0864;0,0330601
3018,0508;0,0331205
3019,0149;0,0331822
3019,9792;0,0332508
3020,9434;0,0333287
3021,9077;0,0334144
3022,8718;0,0335049
3023,8362;0,0335984
3024,8003;0,0336957
3025,7646;0,0337979
3026,7288;0,0339031
3027,6931;0,0340058
3028,6572;0,0340991
3029,6216;0,0341789
3030,5857;0,0342478
3031,5500;0,0343136
3032,5142;0,0343857
3033,4785;0,0344704
3034,4426;0,0345689
3035,4070;0,0346792
3036,3711;0,0347981
3037,3354;0,034923
3038,2996;0,0350511
3039,2639;0,0351794
3040,2280;0,0353043
3041,1924;0,0354234
3042,1565;0,0355369
3043,1208;0,0356474
3044,0850;0,0357585
3045,0493;0,0358727
3046,0134;0,0359912
3046,9778;0,0361143
3047,9419;0,0362427
3048,9063;0,0363775
3049,8704;0,036518
3050,8347;0,0366608
3051,7988;0,0367998
3052,7632;0,0369292
3053,7273;0,0370477
3054,6917;0,0371608
3055,6558;0,0372793
3056,6201;0,0374136
3057,5842;0,0375684
3058,5486;0,0377395
3059,5127;0,0379164
3060,4771;0,0380872
3061,4412;0,0382433
3062,4055;0,0383809
3063,3696;0,038501
3064,3340;0,0386073
3065,2981;0,0387054
3066,2625;0,0388026
3067,2266;0,0389066
3068,1909;0,039024
3069,1550;0,0391585
3070,1194;0,0393094
3071,0835;0,0394728
3072,0479;0,0396425
3073,0120;0,0398121
3073,9763;0,0399746
3074,9404;0,0401234
3075,9048;0,0402537
3076,8689;0,0403647
3077,8333;0,0404625
3078,7974;0,0405585
3079,7617;0,0406651
3080,7258;0,0407899
3081,6902;0,0409316
3082,6543;0,0410815
3083,6187;0,0412283
3084,5828;0,0413641
3085,5471;0,0414883
3086,5112;0,0416069
3087,4756;0,0417292
3088,4397;0,0418628
3089,4041;0,0420099
3090,3682;0,0421662
3091,3325;0,0423231
3092,2966;0,0424719
3093,2610;0,0426093
3094,2251;0,0427392
3095,1895;0,0428714
3096,1536;0,0430155
3097,1179;0,0431751
3098,0820;0,0433454
3099,0464;0,0435158
3100,0105;0,0436763
3100,9749;0,0438233
3101,9390;0,043961
3102,9033;0,0440975
3103,8674;0,0442402
3104,8318;0,0443922
3105,7959;0,0445521
3106,7603;0,0447169
3107,7244;0,0448842
3108,6887;0,0450523
3109,6528;0,0452197
3110,6172;0,0453845
3111,5813;0,045545
3112,5457;0,0457016
3113,5098;0,0458565
3114,4741;0,0460131
3115,4382;0,0461729
3116,4026;0,0463343
3117,3667;0,0464935
3118,3311;0,0466469
3119,2952;0,0467943
3120,2595;0,0469393
3121,2236;0,0470874
3122,1880;0,0472434
3123,1521;0,0474095
3124,1165;0,0475851
3125,0806;0,0477691
3126,0449;0,0479596
3127,0090;0,048155
3127,9734;0,0483523
3128,9375;0,0485483
3129,9019;0,0487411
3130,8660;0,0489314
3131,8303;0,0491234
3132,7944;0,0493213
3133,7588;0,0495257
3134,7229;0,0497322
3135,6873;0,0499328
3136,6514;0,0501211
3137,6157;0,0502963
3138,5798;0,0504639
3139,5442;0,0506327
3140,5083;0,0508095
3141,4727;0,0509962
3142,4368;0,0511907
3143,4011;0,0513902
3144,3652;0,0515939
3145,3296;0,0518035
3146,2937;0,05202
3147,2581;0,0522407
3148,2222;0,0524588
3149,1865;0,0526662
3150,1506;0,0528585
3151,1150;0,0530381
3152,0791;0,0532135
3153,0435;0,0533944
3154,0076;0,0535866
3154,9719;0,0537897
3155,9360;0,0539989
3156,9004;0,0542092
3157,8645;0,0544187
3158,8289;0,054629
3159,7930;0,0548427
3160,7573;0,05506
3161,7214;0,0552784
3162,6858;0,0554938
3163,6499;0,0557037
3164,6143;0,0559078
3165,5784;0,0561082
3166,5427;0,0563066
3167,5068;0,0565038
3168,4712;0,0567001
3169,4353;0,056887
3170,3997;0,0570892
3171,3638;0,057301
3172,3281;0,0575241
3173,2922;0,0577546
3174,2566;0,057983
3175,2207;0,0581986
3176,1851;0,0583951
3177,1492;0,0585751
3178,1135;0,0587505
3179,0776;0,0589374
3180,0420;0,0591476
3181,0061;0,0593825
3181,9705;0,0596315
3182,9346;0,0598777
3183,8989;0,0601057
3184,8630;0,0603096
3185,8274;0,0604947
3186,7915;0,0606743
3187,7559;0,0608616
3188,7200;0,0610638
3189,6843;0,0612795
3190,6484;0,0615017
3191,6128;0,0617221
3192,5769;0,0619343
3193,5413;0,0621355
3194,5054;0,0623256
3195,4697;0,0625068
3196,4338;0,062683
3197,3982;0,0628595
3198,3623;0,0630416
3199,3267;0,0632324
3200,2908;0,0634311
3201,2551;0,0636325
3202,2192;0,0638302
3203,1836;0,0640193
3204,1477;0,0642001
3205,1121;0,0643779
3206,0762;0,0645604
3207,0405;0,0647531
3208,0046;0,0649555
3208,9690;0,0651611
3209,9331;0,0653604
3210,8975;0,0655463
3211,8616;0,0657182
3212,8259;0,0658825
3213,7900;0,0660482
3214,7544;0,0662213
3215,7185;0,0664013
3216,6829;0,0665821
3217,6470;0,0667566
3218,6113;0,0669227
3219,5754;0,0670857
3220,5398;0,0672556
3221,5039;0,0674402
3222,4683;0,0676402
3223,4324;0,0678472
3224,3967;0,0680488
3225,3608;0,068235
3226,3252;0,0684035
3227,2893;0,0685606
3228,2537;0,0687167
3229,2178;0,068881
3230,1821;0,0690579
3231,1462;0,0692465
3232,1106;0,0694435
3233,0747;0,0696451
3234,0391;0,0698481
3235,0032;0,0700488
3235,9675;0,0702435
3236,9316;0,0704294
3237,8960;0,070607
3238,8601;0,0707806
3239,8245;0,0709558
3240,7886;0,0711357
3241,7529;0,071318
3242,7170;0,0714964
3243,6814;0,0716652
3244,6455;0,0718253
3245,6099;0,0719859
3246,5740;0,0721603
3247,5383;0,0723574
3248,5024;0,0725765
3249,4668;0,0728063
3250,4309;0,0730319
3251,3953;0,0732423
3252,3594;0,0734358
3253,3237;0,0736203
3254,2878;0,073807
3255,2522;0,0740049
3256,2163;0,074216
3257,1807;0,0744367
3258,1448;0,0746601
3259,1091;0,0748789
3260,0732;0,0750877
3261,0376;0,0752829
3262,0017;0,0754646
3262,9661;0,0756367
3263,9302;0,0758064
3264,8945;0,0759823
3265,8586;0,0761697
3266,8230;0,0763673
3267,7871;0,0765666
3268,7515;0,0767549
3269,7156;0,0769201
3270,6799;0,0770554
3271,6440;0,0771622
3272,6084;0,0772491
3273,5725;0,0773292
3274,5369;0,0774147
3275,5010;0,077513
3276,4653;0,0776234
3277,4294;0,077739
3278,3938;0,0778501
3279,3579;0,0779492
3280,3223;0,078034
3281,2864;0,0781078
3282,2507;0,0781761
3283,2148;0,0782433
3284,1792;0,0783096
3285,1433;0,0783715
3286,1077;0,0784247
3287,0718;0,0784672
3288,0361;0,0785009
3289,0002;0,0785316
3289,9646;0,0785656
3290,9287;0,0786063
3291,8931;0,0786521
3292,8572;0,0786963
3293,8215;0,0787305
3294,7856;0,0787486
3295,7500;0,0787499
3296,7141;0,0787392
3297,6785;0,0787248
3298,6426;0,0787147
3299,6069;0,0787139
3300,5710;0,0787238
3301,5354;0,0787435
3302,4995;0,0787707
3303,4639;0,0788013
3304,4280;0,0788295
3305,3923;0,0788475
3306,3564;0,0788485
3307,3208;0,0788304
3308,2849;0,0787982
3309,2493;0,0787635
3310,2134;0,07874
3311,1777;0,078737
3312,1418;0,0787559
3313,1062;0,0787909
3314,0703;0,0788336
3315,0347;0,0788787
3315,9988;0,0789279
3316,9631;0,0789875
3317,9272;0,0790642
3318,8916;0,0791589
3319,8557;0,0792655
3320,8201;0,0793729
3321,7842;0,0794713
3322,7485;0,0795567
3323,7126;0,0796317
3324,6770;0,079702
3325,6411;0,0797727
3326,6055;0,0798452
3327,5696;0,0799189
3328,5339;0,0799936
3329,4980;0,0800703
3330,4624;0,0801491
3331,4265;0,0802261
3332,3909;0,0802927
3333,3550;0,0803375
3334,3193;0,0803526
3335,2834;0,0803372
3336,2478;0,0802981
3337,2119;0,0802454
3338,1763;0,0801864
3339,1404;0,0801219
3340,1047;0,0800476
3341,0688;0,0799587
3342,0332;0,0798542
3342,9973;0,0797383
3343,9617;0,079618
3344,9258;0,0794989
3345,8901;0,0793824
3346,8542;0,079265
3347,8186;0,0791413
3348,7827;0,0790065
3349,7471;0,0788587
3350,7112;0,0786991
3351,6755;0,0785314
3352,6396;0,0783606
3353,6040;0,0781923
3354,5681;0,0780317
3355,5325;0,0778815
3356,4966;0,0777411
3357,4609;0,0776069
3358,4250;0,0774747
3359,3894;0,0773422
3360,3535;0,0772101
3361,3179;0,0770798
3362,2820;0,0769503
3363,2463;0,0768173
3364,2104;0,0766744
3365,1748;0,0765187
3366,1389;0,0763528
3367,1033;0,0761838
3368,0674;0,0760179
3369,0317;0,0758556
3369,9958;0,0756915
3370,9602;0,0755196
3371,9243;0,0753388
3372,8887;0,0751554
3373,8528;0,0749791
3374,8171;0,0748173
3375,7813;0,0746699
3376,7456;0,0745303
3377,7097;0,0743902
3378,6741;0,0742439
3379,6382;0,0740903
3380,6025;0,0739303
3381,5667;0,0737651
3382,5310;0,0735961
3383,4951;0,0734272
3384,4595;0,0732661
3385,4236;0,073122
3386,3879;0,0729998
3387,3521;0,0728949
3388,3164;0,0727934
3389,2805;0,0726772
3390,2449;0,0725332
3391,2090;0,0723596
3392,1733;0,0721673
3393,1375;0,0719737
3394,1018;0,0717942
3395,0659;0,0716351
3396,0303;0,0714934
3396,9944;0,0713597
3397,9587;0,0712228
3398,9229;0,0710732
3399,8872;0,070905
3400,8513;0,0707175
3401,8157;0,0705156
3402,7798;0,0703089
3403,7441;0,0701075
3404,7083;0,0699181
3405,6726;0,0697405
3406,6367;0,0695692
3407,6011;0,069397
3408,5652;0,0692192
3409,5295;0,0690346
3410,4937;0,0688446
3411,4580;0,0686509
3412,4221;0,0684554
3413,3865;0,0682603
3414,3506;0,0680672
3415,3149;0,0678744
3416,2791;0,0676735
3417,2434;0,0674508
3418,2075;0,0671943
3419,1719;0,0669034
3420,1360;0,0665939
3421,1003;0,0662938
3422,0645;0,0660277
3423,0288;0,0658037
3423,9929;0,0656107
3424,9573;0,065427
3425,9214;0,0652346
3426,8857;0,065027
3427,8499;0,0648095
3428,8142;0,0645917
3429,7783;0,0643783
3430,7427;0,0641651
3431,7068;0,0639429
3432,6711;0,0637049
3433,6353;0,0634519
3434,5996;0,063192
3435,5637;0,0629349
3436,5281;0,0626862
3437,4922;0,0624469
3438,4565;0,0622165
3439,4207;0,0619972
3440,3850;0,0617929
3441,3491;0,0616021
3442,3135;0,0614112
3443,2776;0,0611936
3444,2419;0,0609219
3445,2061;0,0605857
3446,1704;0,0602053
3447,1345;0,0598272
3448,0989;0,0594999
3449,0630;0,0592458
3450,0273;0,0590515
3450,9915;0,0588811
3451,9558;0,0586983
3452,9199;0,0584849
3453,8843;0,0582445
3454,8484;0,0579945
3455,8127;0,0577499
3456,7769;0,0575134
3457,7412;0,057275
3458,7053;0,0570214
3459,6697;0,0567466
3460,6338;0,0564567
3461,5981;0,0561673
3462,5623;0,0558936
3463,5266;0,0556415
3464,4907;0,0554056
3465,4551;0,0551735
3466,4192;0,0549351
3467,3835;0,0546882
3468,3477;0,0544389
3469,3120;0,0541937
3470,2761;0,053953
3471,2405;0,0537097
3472,2046;0,0534559
3473,1689;0,0531934
3474,1331;0,0529367
3475,0974;0,0527046
3476,0615;0,0525048
3477,0259;0,052323
3477,9900;0,0521281
3478,9543;0,0518887
3479,9185;0,0515947
3480,8828;0,0512663
3481,8469;0,0509441
3482,8113;0,0506616
3483,7754;0,0504248
3484,7397;0,0502107
3485,7039;0,0499866
3486,6682;0,0497315
3487,6323;0,0494501
3488,5967;0,0491684
3489,5608;0,0489158
3490,5251;0,0487051
3491,4893;0,0485241
3492,4536;0,0483438
3493,4177;0,0481362
3494,3821;0,0478935
3495,3462;0,0476361
3496,3105;0,047401
3497,2747;0,0472149
3498,2390;0,0470715
3499,2031;0,0469294
3500,1675;0,0467333
3501,1316;0,0464483
3502,0959;0,0460902
3503,0601;0,0457241
3504,0244;0,0454212
3504,9885;0,0452081
3505,9529;0,0450519
3506,9170;0,0448881
3507,8813;0,0446625
3508,8455;0,0443639
3509,8098;0,0440294
3510,7739;0,043717
3511,7383;0,0434647
3512,7024;0,0432711
3513,6667;0,0431081
3514,6309;0,0429488
3515,5952;0,0427854
3516,5593;0,0426283
3517,5237;0,042489
3518,4878;0,0423628
3519,4521;0,0422256
3520,4163;0,0420471
3521,3806;0,0418101
3522,3447;0,0415228
3523,3091;0,0412116
3524,2732;0,0409004
3525,2375;0,0405933
3526,2017;0,040278
3527,1660;0,0399471
3528,1301;0,0396176
3529,0945;0,0393272
3530,0586;0,0391087
3531,0229;0,0389643
3531,9871;0,0388601
3532,9514;0,038744
3533,9155;0,0385725
3534,8799;0,0383333
3535,8440;0,0380545
3536,8083;0,0377909
3537,7725;0,0375936
3538,7368;0,0374827
3539,7009;0,0374394
3540,6653;0,0374139
3541,6294;0,0373413
3542,5938;0,0371597
3543,5579;0,0368383
3544,5222;0,0364072
3545,4863;0,0359576
3546,4507;0,0355895
3547,4148;0,0353447
3548,3792;0,0351868
3549,3433;0,0350365
3550,3076;0,0348233
3551,2717;0,0345253
3552,2361;0,0341832
3553,2002;0,0338736
3554,1646;0,0336536
3555,1287;0,0335243
3556,0930;0,0334405
3557,0571;0,0333496
3558,0215;0,0332286
3558,9856;0,0330997
3559,9500;0,0330136
3560,9141;0,0330077
3561,8784;0,033066
3562,8425;0,0331055
3563,8069;0,0329904
3564,7710;0,032582
3565,7354;0,0318439
3566,6995;0,0309493
3567,6638;0,030203
3568,6279;0,0297902
3569,5923;0,0296753
3570,5564;0,0297121
3571,5208;0,0297628
3572,4849;0,0297432
3573,4492;0,0296281
3574,4133;0,0294413
3575,3777;0,0292281
3576,3418;0,0290226
3577,3062;0,0288342
3578,2703;0,0286629
3579,2346;0,0285247
3580,1987;0,0284551
3581,1631;0,0284829
3582,1272;0,028595
3583,0916;0,0287159
3584,0557;0,0287166
3585,0200;0,0284582
3585,9841;0,0278928
3586,9485;0,0271732
3587,9126;0,0265964
3588,8770;0,0263568
3589,8411;0,0264173
3590,8054;0,0266077
3591,7695;0,0267542
3592,7339;0,0267438
3593,6980;0,0265532
3594,6624;0,026249
3595,6265;0,0259336
3596,5908;0,0256635
3597,5549;0,025422
3598,5193;0,0251653
3599,4834;0,0248875
3600,4478;0,0246419
3601,4119;0,0244992
3602,3762;0,0244821
3603,3403;0,0245408
3604,3047;0,0245786
3605,2688;0,0244967
3606,2332;0,024241
3607,1973;0,0238367
3608,1616;0,0233787
3609,1257;0,0229663
3610,0901;0,0226426
3611,0542;0,0224
3612,0186;0,0222252
3612,9827;0,0221223
3613,9470;0,0220925
3614,9111;0,0220986
3615,8755;0,0220546
3616,8396;0,0218578
3617,8040;0,0214633
3618,7681;0,0209609
3619,7324;0,0205613
3620,6965;0,0204501
3621,6609;0,0206614
3622,6250;0,0210996
3623,5894;0,0216207
3624,5535;0,0220665
3625,5178;0,0222532
3626,4819;0,0219817
3627,4463;0,0211621
3628,4104;0,0200293
3629,3748;0,0190731
3630,3389;0,0185755
3631,3032;0,0184405
3632,2673;0,0184407
3633,2317;0,0184125
3634,1958;0,018293
3635,1602;0,018095
3636,1243;0,0178658
3637,0886;0,0176472
3638,0527;0,0174575
3639,0171;0,0173043
3639,9812;0,0172077
3640,9456;0,017206
3641,9097;0,0173368
3642,8740;0,0176061
3643,8381;0,0179656
3644,8025;0,0182989
3645,7666;0,0184044
3646,7310;0,0180079
3647,6951;0,0169437
3648,6594;0,0155421
3649,6235;0,0145408
3650,5879;0,0142694
3651,5520;0,0144765
3652,5164;0,0148024
3653,4805;0,0150057
3654,4448;0,0149674
3655,4089;0,0146893
3656,3733;0,0142955
3657,3374;0,0139594
3658,3018;0,0137791
3659,2659;0,013736
3660,2302;0,0137609
3661,1943;0,0138122
3662,1587;0,0139042
3663,1228;0,0140786
3664,0872;0,0143509
3665,0513;0,0146739
3666,0156;0,0149418
3666,9797;0,0150291
3667,9441;0,0148673
3668,9082;0,0145409
3669,8726;0,014272
3670,8367;0,0142172
3671,8010;0,0143143
3672,7651;0,0143496
3673,7295;0,0141109
3674,6936;0,0135429
3675,6580;0,012856
3676,6221;0,0123785
3677,5864;0,0122413
3678,5505;0,0123438
3679,5149;0,0125445
3680,4790;0,0127735
3681,4434;0,0130312
3682,4075;0,0133457
3683,3718;0,0137258
3684,3359;0,0141326
3685,3003;0,0144727
3686,2644;0,0146132
3687,2288;0,0144316
3688,1929;0,0139299
3689,1572;0,0133307
3690,1213;0,0129382
3691,0857;0,0128619
3692,0498;0,0130013
3693,0142;0,0132203
3693,9783;0,0134431
3694,9426;0,0136509
3695,9067;0,0138472
3696,8711;0,0140258
3697,8352;0,0141547
3698,7996;0,0141854
3699,7637;0,0140872
3700,7280;0,0138923
3701,6921;0,0137084
3702,6565;0,0136622
3703,6206;0,013816
3704,5850;0,0141403
3705,5491;0,0145457
3706,5134;0,0149146
3707,4775;0,015105
3708,4419;0,0149577
3709,4060;0,0143674
3710,3704;0,0134401
3711,3345;0,0125434
3712,2988;0,0120324
3713,2629;0,0119785
3714,2273;0,012243
3715,1914;0,012659
3716,1558;0,0131065
3717,1199;0,0135141
3718,0842;0,0138485
3719,0483;0,0141069
3720,0127;0,0143046
3720,9768;0,0144544
3721,9412;0,014551
3722,9053;0,0145814
3723,8696;0,0145557
3724,8337;0,0145277
3725,7981;0,0145735
3726,7622;0,0147431
3727,7266;0,0150326
3728,6907;0,0153923
3729,6550;0,0157471
3730,6191;0,0160035
3731,5835;0,0160453
3732,5476;0,0157485
3733,5120;0,0150603
3734,4761;0,0141359
3735,4404;0,013334
3736,4045;0,0129447
3737,3689;0,0129953
3738,3330;0,0133429
3739,2974;0,0138166
3740,2615;0,0142598
3741,2258;0,0145228
3742,1899;0,0144816
3743,1543;0,0141329
3744,1184;0,0136901
3745,0828;0,0134558
3746,0469;0,0135288
3747,0112;0,0137389
3747,9753;0,0138031
3748,9397;0,0134789
3749,9038;0,0127425
3750,8682;0,0119298
3751,8323;0,0114825
3752,7966;0,0115098
3753,7607;0,0118126
3754,7251;0,0121499
3755,6892;0,0123556
3756,6536;0,0123524
3757,6177;0,0121684
3758,5820;0,0119357
3759,5461;0,0118099
3760,5105;0,0118594
3761,4746;0,0120423
3762,4390;0,0122674
3763,4031;0,0124529
3764,3674;0,0125498
3765,3315;0,0125424
3766,2959;0,0124381
3767,2600;0,0122553
3768,2244;0,012022
3769,1885;0,0117873
3770,1528;0,0116223
3771,1169;0,0115909
3772,0813;0,0117101
3773,0454;0,0119403
3774,0098;0,0122049
3774,9739;0,0124176
3775,9382;0,0125058
3776,9023;0,0124405
3777,8667;0,0122647
3778,8308;0,0120831
3779,7952;0,0119901
3780,7593;0,0120015
3781,7236;0,012061
3782,6877;0,0120963
3783,6521;0,0120656
3784,6162;0,0119742
3785,5806;0,0118639
3786,5447;0,0117858
3787,5090;0,0117752
3788,4731;0,0118431
3789,4375;0,0119799
3790,4016;0,012162
3791,3660;0,0123578
3792,3301;0,012537
3793,2944;0,0126844
3794,2585;0,0128111
3795,2229;0,0129482
3796,1870;0,013115
3797,1514;0,013283
3798,1155;0,0133702
3799,0798;0,0132854
3800,0439;0,0130121
3801,0083;0,0126636
3801,9724;0,0124084
3802,9368;0,0123118
3803,9009;0,0122894
3804,8652;0,0122022
3805,8293;0,0119791
3806,7937;0,0116907
3807,7578;0,0115156
3808,7222;0,0115952
3809,6863;0,0119285
3810,6506;0,0124047
3811,6147;0,012885
3812,5791;0,0132509
3813,5432;0,0134367
3814,5076;0,0134637
3815,4717;0,0134328
3816,4360;0,0134298
3817,4001;0,0134277
3818,3645;0,013307
3819,3286;0,0129751
3820,2930;0,0124868
3821,2571;0,0120417
3822,2214;0,0118163
3823,1855;0,0118276
3824,1499;0,0119777
3825,1140;0,0121612
3826,0784;0,0123188
3827,0425;0,01244
3828,0068;0,0125441
3828,9709;0,0126568
3829,9353;0,0127948
3830,8994;0,0129649
3831,8638;0,0131667
3832,8279;0,0133878
3833,7922;0,0135921
3834,7563;0,0137124
3835,7207;0,013667
3836,6848;0,0134079
3837,6492;0,0129786
3838,6133;0,0125133
3839,5776;0,012144
3840,5417;0,0119135
3841,5061;0,0117898
3842,4702;0,0117379
3843,4346;0,0117637
3844,3987;0,011908
3845,3630;0,0122102
3846,3271;0,0126774
3847,2915;0,0132756
3848,2556;0,0139307
3849,2200;0,0145182
3850,1841;0,0148354
3851,1484;0,0146074
3852,1125;0,01368
3853,0769;0,0124077
3854,0410;0,0115108
3855,0054;0,0112859
3855,9695;0,0115267
3856,9338;0,0119691
3857,8979;0,0124513
3858,8623;0,0128759
3859,8264;0,0131667
3860,7908;0,0132698
3861,7549;0,0131901
3862,7192;0,0130248
3863,6833;0,0129229
3864,6477;0,0129755
3865,6118;0,0131538
3866,5762;0,0133474
3867,5403;0,0134349
3868,5046;0,013335
3869,4688;0,0130426
3870,4331;0,0126428
3871,3972;0,0122737
3872,3616;0,0120525
3873,3257;0,0120258
3874,2900;0,0121717
3875,2542;0,0124282
3876,2185;0,0127162
3877,1826;0,0129579
3878,1470;0,0130969
3879,1111;0,0131202
3880,0754;0,0130634
3881,0396;0,0129773
3882,0039;0,012882
3882,9680;0,0127636
3883,9324;0,0126209
3884,8965;0,0125034
3885,8608;0,0124834
3886,8250;0,0125853
3887,7893;0,0127485
3888,7534;0,0128561
3889,7178;0,0128062
3890,6819;0,0125933
3891,6462;0,0123476
3892,6104;0,0122526
3893,5747;0,0123968
3894,5388;0,0127299
3895,5032;0,0131346
3896,4673;0,0134968
3897,4316;0,0137359
3898,3958;0,0138163
3899,3601;0,013743
3900,3242;0,0135353
3901,2886;0,013204
3902,2527;0,0127716
3903,2170;0,0123139
3904,1812;0,0119486
3905,1455;0,0117607
3906,1096;0,0117519
3907,0740;0,0118627
3908,0381;0,0120238
3909,0024;0,0121896
3909,9666;0,0123467
3910,9309;0,0125047
3911,8950;0,0126749
3912,8594;0,0128487
3913,8235;0,01299
3914,7878;0,0130485
3915,7520;0,0129939
3916,7163;0,0128498
3917,6804;0,0126925
3918,6448;0,0126005
3919,6089;0,0125989
3920,5732;0,0126516
3921,5374;0,012696
3922,5017;0,0126861
3923,4658;0,0126241
3924,4302;0,0125594
3925,3943;0,0125505
3926,3586;0,0126175
3927,3228;0,0127279
3928,2871;0,0128178
3929,2512;0,012827
3930,2156;0,0127321
3931,1797;0,0125647
3932,1440;0,0123955
3933,1082;0,0122888
3934,0725;0,0122696
3935,0366;0,0123272
3936,0010;0,0124354
3936,9651;0,0125648
3937,9294;0,0126854
3938,8936;0,012768
3939,8579;0,0127935
3940,8220;0,0127661
3941,7864;0,0127187
3942,7505;0,0126962
3943,7148;0,0127228
3944,6790;0,0127841
3945,6433;0,0128362
3946,6074;0,0128347
3947,5718;0,0127625
3948,5359;0,0126429
3949,5002;0,0125255
3950,4644;0,0124529
3951,4287;0,0124359
3952,3928;0,0124561
3953,3572;0,0124873
3954,3213;0,0125133
3955,2856;0,0125316
3956,2498;0,0125468
3957,2141;0,01256
3958,1782;0,0125654
3959,1426;0,0125551
3960,1067;0,0125274
3961,0710;0,0124919
3962,0352;0,0124649
3962,9995;0,0124607
3963,9636;0,0124845
3964,9280;0,0125307
3965,8921;0,0125881
3966,8564;0,0126445
3967,8206;0,0126899
3968,7849;0,0127175
3969,7490;0,0127233
3970,7134;0,0127066
3971,6775;0,0126708
3972,6418;0,0126242
3973,6060;0,0125792
3974,5703;0,0125489
3975,5344;0,0125413
3976,4988;0,0125558
3977,4629;0,0125825
3978,4272;0,0126073
3979,3914;0,0126177
3980,3557;0,0126089
3981,3198;0,0125857
3982,2842;0,0125598
3983,2483;0,0125437
3984,2126;0,0125445
3985,1768;0,0125615
3986,1411;0,0125875
3987,1052;0,0126135
3988,0696;0,0126332
3989,0337;0,012645
3989,9980;0,0126505
3990,9622;0,0126519
3991,9265;0,0126503
3992,8906;0,0126456
3993,8550;0,0126386
3994,8191;0,0126325
3995,7834;0,0126306
3996,7476;0,0126342
3997,7119;0,0126406
3998,6760;0,0126449
3999,6404;0,0126435
4000,6045;0,0125715

##### Extended Information
[Comments]
Sample name
Comment
Username
Division
Organization;UNIVERSIDAD INDUSTRIAL DE SANTANDER

[Detailed Information]
Creation date;10/03/2025 9:01 p.m.

Data array type;Linear data array
Horizontal axis;Wavenumber [cm-1]
Vertical axis;Abs
Start;399,193 cm-1
End;4000,6 cm-1
Data interval;0,964233 cm-1
Data points;3736    

[Measurement Information]
Model name;FT/IR-4X1typeA
Serial No.;A035162111

Accessory;ATR PRO 4X
Accessory S/N;A021162126
Incident angle;45 deg

Measurement date;10/03/2025 9:00 p.m.

Light source;Standard
Detector;TGS
Accumulation;40
Resolution;4 cm-1
Zero filling;On
Apodization;Cosine
Gain;Auto (8)
Aperture;Auto (7 mm)
Scan speed;Auto (2 mm/sec)
Filter;Auto (12800 Hz)

