TITLE;
DATA TYPE;INFRARED SPECTRUM
ORIGIN;JASCO
OWNER;
DATE;25/03/10
TIME;20:50:54
SPECTROMETER/DATA SYSTEM;
LOCALE;9226
RESOLUTION;
DELTAX;0,964233
XUNITS;1/CM
YUNITS;ABSORBANCE
FIRSTX;  399,1927
LASTX; 4000,6047
NPOINTS;    3736
FIRSTY;     0,19727
MAXY;     0,24154
MINY;     0,01136
XYDATA
399,1927;0,197274
400,1569;0,199332
401,1211;0,20158
402,0854;0,203244
403,0496;0,203978
404,0138;0,203748
404,9781;0,202744
405,9423;0,201318
406,9065;0,199883
407,8708;0,198782
408,8350;0,198229
409,7992;0,198317
410,7635;0,199028
411,7277;0,200198
412,6919;0,201517
413,6562;0,202626
414,6204;0,203242
415,5846;0,203232
416,5489;0,202658
417,5131;0,201876
418,4773;0,201522
419,4416;0,202053
420,4058;0,203216
421,3700;0,204402
422,3343;0,205271
423,2985;0,205823
424,2627;0,206192
425,2270;0,206482
426,1912;0,206694
427,1554;0,206757
428,1197;0,206612
429,0839;0,206295
430,0481;0,205935
431,0124;0,205691
431,9766;0,205654
432,9408;0,205781
433,9051;0,205925
434,8693;0,205922
435,8335;0,205696
436,7978;0,205286
437,7620;0,204789
438,7262;0,20428
439,6905;0,203779
440,6547;0,203267
441,6189;0,202743
442,5832;0,202249
443,5474;0,201859
444,5116;0,201636
445,4759;0,201583
446,4401;0,201647
447,4043;0,201741
448,3686;0,201777
449,3328;0,201686
450,2970;0,201449
451,2613;0,201107
452,2255;0,20075
453,1897;0,200473
454,1540;0,200321
455,1182;0,200248
456,0824;0,200134
457,0467;0,199834
458,0109;0,199288
458,9751;0,198586
459,9394;0,197918
460,9036;0,197439
461,8678;0,197195
462,8321;0,197132
463,7963;0,197135
464,7605;0,197068
465,7248;0,196826
466,6890;0,196372
467,6532;0,195749
468,6175;0,195053
469,5817;0,194385
470,5459;0,193829
471,5102;0,193429
472,4744;0,193185
473,4386;0,193064
474,4029;0,193028
475,3671;0,193055
476,3313;0,193146
477,2956;0,193303
478,2598;0,193511
479,2240;0,19373
480,1883;0,19391
481,1525;0,194013
482,1167;0,194037
483,0810;0,194017
484,0452;0,194015
485,0094;0,194077
485,9737;0,194221
486,9379;0,194436
487,9021;0,1947
488,8664;0,194987
489,8306;0,195257
490,7948;0,195444
491,7591;0,195477
492,7233;0,195323
493,6875;0,195033
494,6518;0,194732
495,6160;0,194561
496,5802;0,194608
497,5445;0,194875
498,5087;0,195294
499,4729;0,19577
500,4372;0,196227
501,4014;0,196638
502,3656;0,197013
503,3299;0,197372
504,2941;0,19771
505,2583;0,197989
506,2226;0,198158
507,1868;0,198193
508,1510;0,198123
509,1153;0,198035
510,0795;0,198046
511,0437;0,198251
512,0080;0,19868
512,9722;0,199287
513,9365;0,199977
514,9007;0,200652
515,8649;0,201245
516,8292;0,201743
517,7934;0,202164
518,7576;0,202522
519,7219;0,202799
520,6861;0,202964
521,6503;0,203002
522,6146;0,202937
523,5788;0,202822
524,5430;0,202717
525,5073;0,202661
526,4715;0,202657
527,4357;0,202679
528,4000;0,202699
529,3642;0,202705
530,3284;0,202693
531,2927;0,202641
532,2569;0,202508
533,2211;0,20224
534,1854;0,20181
535,1496;0,201242
536,1138;0,200612
537,0781;0,20002
538,0423;0,199539
539,0065;0,199187
539,9708;0,198931
540,9350;0,198723
541,8992;0,198542
542,8635;0,198415
543,8277;0,198398
544,7919;0,19853
545,7562;0,19879
546,7204;0,199087
547,6846;0,199311
548,6489;0,199396
549,6131;0,199367
550,5773;0,199325
551,5416;0,199385
552,5058;0,199609
553,4700;0,199979
554,4343;0,200406
555,3985;0,200779
556,3627;0,201015
557,3270;0,201078
558,2912;0,200975
559,2554;0,20073
560,2197;0,200363
561,1839;0,199883
562,1481;0,199297
563,1124;0,198624
564,0766;0,197901
565,0408;0,197185
566,0051;0,196542
566,9693;0,196027
567,9335;0,19566
568,8978;0,195414
569,8620;0,195227
570,8262;0,195035
571,7905;0,194806
572,7547;0,194548
573,7189;0,194294
574,6832;0,194077
575,6474;0,193909
576,6116;0,193777
577,5759;0,193654
578,5401;0,193518
579,5043;0,193348
580,4686;0,193123
581,4328;0,192827
582,3970;0,19246
583,3613;0,192054
584,3255;0,191669
585,2897;0,191367
586,2540;0,191185
587,2182;0,19111
588,1824;0,191096
589,1467;0,191092
590,1109;0,191062
591,0751;0,190994
592,0394;0,190883
593,0036;0,190721
593,9678;0,190491
594,9321;0,190179
595,8963;0,189792
596,8605;0,18935
597,8248;0,188886
598,7890;0,188423
599,7532;0,187976
600,7175;0,187549
601,6817;0,187143
602,6459;0,186762
603,6102;0,186405
604,5744;0,186059
605,5386;0,185694
606,5029;0,18527
607,4671;0,184756
608,4313;0,18414
609,3956;0,183441
610,3598;0,182695
611,3240;0,181946
612,2883;0,18122
613,2525;0,18052
614,2167;0,17982
615,1810;0,179083
616,1452;0,178275
617,1094;0,177386
618,0737;0,176436
619,0379;0,175463
620,0021;0,1745
620,9664;0,173556
621,9306;0,172625
622,8948;0,171697
623,8591;0,170779
624,8233;0,169902
625,7875;0,169088
626,7518;0,168357
627,7160;0,167704
628,6802;0,167103
629,6445;0,16652
630,6087;0,165933
631,5729;0,165339
632,5372;0,164744
633,5014;0,164157
634,4656;0,163582
635,4299;0,163021
636,3941;0,162483
637,3583;0,161984
638,3226;0,161537
639,2868;0,161142
640,2510;0,160776
641,2153;0,160398
642,1795;0,15997
643,1437;0,159481
644,1080;0,158952
645,0722;0,158428
646,0364;0,157954
647,0007;0,157555
647,9649;0,157224
648,9291;0,156935
649,8934;0,156658
650,8576;0,156379
651,8218;0,156104
652,7861;0,155855
653,7503;0,155656
654,7145;0,155527
655,6788;0,155478
656,6430;0,15551
657,6072;0,155609
658,5715;0,155744
659,5357;0,155867
660,4999;0,15593
661,4642;0,155913
662,4284;0,155842
663,3926;0,155772
664,3569;0,155749
665,3211;0,155749
666,2853;0,155635
667,2496;0,155162
668,2138;0,154153
669,1780;0,152765
670,1423;0,151331
671,1065;0,149993
672,0707;0,148702
673,0350;0,147361
673,9992;0,145901
674,9634;0,144321
675,9277;0,142699
676,8919;0,141146
677,8561;0,139734
678,8204;0,138467
679,7846;0,13732
680,7488;0,136276
681,7131;0,135336
682,6773;0,134509
683,6415;0,133793
684,6058;0,133182
685,5700;0,132668
686,5342;0,132239
687,4985;0,131867
688,4627;0,13151
689,4269;0,131127
690,3912;0,130697
691,3554;0,130235
692,3196;0,129772
693,2839;0,129345
694,2481;0,128966
695,2123;0,128628
696,1766;0,128309
697,1408;0,127988
698,1050;0,12765
699,0693;0,127284
700,0335;0,126886
700,9977;0,126451
701,9620;0,125981
702,9262;0,125486
703,8904;0,124984
704,8547;0,124493
705,8189;0,124022
706,7831;0,123567
707,7474;0,123112
708,7116;0,122641
709,6758;0,122142
710,6401;0,121618
711,6043;0,121078
712,5685;0,120538
713,5328;0,120011
714,4970;0,1195
715,4612;0,119108
716,4255;0,118568
717,3897;0,117984
718,3539;0,117337
719,3182;0,116626
720,2824;0,115864
721,2466;0,115075
722,2109;0,114282
723,1751;0,113498
724,1393;0,112727
725,1036;0,111971
726,0678;0,111235
727,0320;0,110524
727,9963;0,109839
728,9605;0,10917
729,9247;0,108499
730,8890;0,107812
731,8532;0,107111
732,8174;0,106417
733,7817;0,105763
734,7459;0,105178
735,7101;0,104679
736,6744;0,104263
737,6386;0,10391
738,6028;0,10359
739,5671;0,10327
740,5313;0,102921
741,4955;0,102525
742,4598;0,102079
743,4240;0,101593
744,3882;0,101089
745,3525;0,10059
746,3167;0,100112
747,2809;0,0996627
748,2452;0,0992386
749,2094;0,0988303
750,1736;0,098426
751,1379;0,0980147
752,1021;0,0975884
753,0663;0,097144
754,0306;0,0966852
754,9948;0,0962237
755,9590;0,0957763
756,9233;0,0953576
757,8875;0,0949718
758,8517;0,0946074
759,8160;0,0942409
760,7802;0,0938493
761,7444;0,0934228
762,7087;0,0929715
763,6729;0,0925196
764,6371;0,0920906
765,6014;0,0916934
766,5656;0,0913176
767,5298;0,0909423
768,4941;0,0905515
769,4583;0,0901447
770,4225;0,0897368
771,3868;0,0893469
772,3510;0,0889849
773,3152;0,0886452
774,2795;0,0883125
775,2437;0,0879746
776,2079;0,0876327
777,1722;0,0873014
778,1364;0,0869966
779,1006;0,0867209
780,0649;0,0864551
781,0291;0,0861642
781,9933;0,0858135
782,9576;0,0853872
783,9218;0,0848971
784,8860;0,0843786
785,8503;0,0838768
786,8145;0,0834311
787,7787;0,0830642
788,7430;0,0827792
789,7072;0,0825621
790,6714;0,0823887
791,6357;0,0822317
792,5999;0,0820689
793,5641;0,0818883
794,5284;0,0816891
795,4926;0,081478
796,4568;0,0812639
797,4211;0,0810545
798,3853;0,0808553
799,3495;0,0806702
800,3138;0,0804995
801,2780;0,0803379
802,2422;0,0801733
803,2065;0,0799921
804,1707;0,0797874
805,1349;0,0795664
806,0992;0,0793487
807,0634;0,0791559
808,0276;0,0789985
808,9919;0,0788694
809,9561;0,0787492
810,9203;0,0786176
811,8846;0,0784644
812,8488;0,0782903
813,8130;0,0781016
814,7773;0,0779023
815,7415;0,0776926
816,7057;0,077473
817,6700;0,0772505
818,6342;0,0770412
819,5984;0,076865
820,5627;0,0767369
821,5269;0,0766591
822,4911;0,0766179
823,4554;0,076589
824,4196;0,076546
825,3839;0,0764719
826,3481;0,0763655
827,3123;0,0762419
828,2766;0,0761232
829,2408;0,0760255
830,2050;0,0759472
831,1693;0,0758667
832,1335;0,0757511
833,0977;0,0755719
834,0620;0,0753185
835,0262;0,0750025
835,9904;0,0746505
836,9547;0,0742908
837,9189;0,0739438
838,8831;0,0736187
839,8474;0,0733183
840,8116;0,0730448
841,7758;0,0728025
842,7401;0,0725961
843,7043;0,0724265
844,6685;0,072289
845,6328;0,0721755
846,5970;0,0720777
847,5612;0,0719901
848,5255;0,0719093
849,4897;0,0718323
850,4539;0,0717558
851,4182;0,0716771
852,3824;0,0715963
853,3466;0,0715172
854,3109;0,0714455
855,2751;0,0713854
856,2393;0,0713377
857,2036;0,0713
858,1678;0,0712687
859,1320;0,0712406
860,0963;0,0712131
861,0605;0,0711838
862,0247;0,0711513
862,9890;0,0711189
863,9532;0,0710965
864,9174;0,0711002
865,8817;0,0711458
866,8459;0,0712413
867,8101;0,0713804
868,7744;0,071544
869,7386;0,0717062
870,7028;0,0718431
871,6671;0,0719394
872,6313;0,0719899
873,5955;0,0719968
874,5598;0,0719656
875,5240;0,0719028
876,4882;0,0718152
877,4525;0,0717122
878,4167;0,0716102
879,3809;0,0715333
880,3452;0,0715123
881,3094;0,0715775
882,2736;0,0717501
883,2379;0,0720358
884,2021;0,0724253
885,1663;0,0729019
886,1306;0,0734517
887,0948;0,0740686
888,0590;0,0747533
889,0233;0,0755042
889,9875;0,0763098
890,9517;0,0771458
891,9160;0,0779787
892,8802;0,0787735
893,8444;0,079498
894,8087;0,0801238
895,7729;0,0806236
896,7371;0,0809695
897,7014;0,0811359
898,6656;0,0811064
899,6298;0,0808817
900,5941;0,0804841
901,5583;0,0799563
902,5225;0,0793528
903,4868;0,078729
904,4510;0,0781308
905,4152;0,0775903
906,3795;0,0771273
907,3437;0,0767541
908,3079;0,07648
909,2722;0,0763105
910,2364;0,0762442
911,2007;0,0762703
912,1649;0,0763705
913,1292;0,0765255
914,0934;0,0767217
915,0576;0,0769538
916,0219;0,0772211
916,9861;0,0775218
917,9503;0,0778489
918,9146;0,0781925
919,8788;0,0785441
920,8430;0,0788997
921,8073;0,0792563
922,7715;0,079607
923,7357;0,0799369
924,7000;0,0802266
925,6642;0,080461
926,6284;0,0806373
927,5927;0,0807673
928,5569;0,080872
929,5211;0,0809728
930,4854;0,0810846
931,4496;0,0812139
932,4138;0,0813602
933,3781;0,0815188
934,3423;0,0816831
935,3065;0,0818485
936,2708;0,0820169
937,2350;0,0822015
938,1992;0,0824258
939,1635;0,082717
940,1277;0,0830945
941,0919;0,0835613
942,0562;0,0841048
943,0204;0,0847065
943,9846;0,0853548
944,9489;0,0860523
945,9131;0,0868125
946,8773;0,0876503
947,8416;0,0885723
948,8058;0,0895752
949,7700;0,0906505
950,7343;0,0917923
951,6985;0,0930019
952,6627;0,0942859
953,6270;0,0956507
954,5912;0,0970983
955,5554;0,0986246
956,5197;0,100221
957,4839;0,101878
958,4481;0,103585
959,4124;0,105331
960,3766;0,107109
961,3408;0,10891
962,3051;0,110733
963,2693;0,11258
964,2335;0,114456
965,1978;0,116365
966,1620;0,118309
967,1262;0,12029
968,0905;0,122311
969,0547;0,124385
970,0189;0,126537
970,9832;0,128801
971,9474;0,131218
972,9116;0,133821
973,8759;0,136641
974,8401;0,13969
975,8043;0,142972
976,7686;0,146471
977,7328;0,15016
978,6970;0,153987
979,6613;0,157889
980,6255;0,161784
981,5897;0,165586
982,5540;0,169207
983,5182;0,172568
984,4824;0,175609
985,4467;0,178295
986,4109;0,180618
987,3751;0,182601
988,3394;0,184287
989,3036;0,185723
990,2678;0,186957
991,2321;0,188024
992,1963;0,188952
993,1605;0,189766
994,1248;0,190495
995,0890;0,191171
996,0532;0,19183
997,0175;0,192498
997,9817;0,193191
998,9459;0,19391
999,9102;0,19465
1000,8744;0,195408
1001,8386;0,196199
1002,8029;0,197058
1003,7671;0,198036
1004,7313;0,199188
1005,6956;0,200561
1006,6598;0,202181
1007,6240;0,204055
1008,5883;0,206171
1009,5525;0,208507
1010,5167;0,211024
1011,4810;0,213672
1012,4452;0,216388
1013,4094;0,219096
1014,3737;0,221719
1015,3379;0,224185
1016,3021;0,226436
1017,2664;0,228438
1018,2306;0,230179
1019,1948;0,231675
1020,1591;0,232965
1021,1233;0,234105
1022,0875;0,235152
1023,0518;0,236151
1024,0160;0,237125
1024,9802;0,238073
1025,9445;0,238978
1026,9087;0,239809
1027,8729;0,240529
1028,8372;0,241094
1029,8014;0,241453
1030,7656;0,241542
1031,7299;0,241297
1032,6941;0,240663
1033,6583;0,239614
1034,6226;0,238174
1035,5868;0,236414
1036,5510;0,234456
1037,5153;0,232438
1038,4795;0,230497
1039,4437;0,228737
1040,4080;0,227217
1041,3722;0,225953
1042,3364;0,224922
1043,3007;0,224072
1044,2649;0,223329
1045,2291;0,222609
1046,1934;0,221825
1047,1576;0,220909
1048,1218;0,219817
1049,0861;0,218535
1050,0503;0,217065
1051,0145;0,21542
1051,9788;0,213609
1052,9430;0,211638
1053,9072;0,209519
1054,8715;0,207268
1055,8357;0,204892
1056,7999;0,20238
1057,7642;0,199695
1058,7284;0,196788
1059,6926;0,193626
1060,6569;0,190228
1061,6211;0,186671
1062,5853;0,183079
1063,5496;0,179588
1064,5138;0,17631
1065,4780;0,173305
1066,4423;0,170588
1067,4065;0,168143
1068,3707;0,165942
1069,3350;0,163952
1070,2992;0,162137
1071,2634;0,160451
1072,2277;0,158837
1073,1919;0,157236
1074,1561;0,155595
1075,1204;0,153878
1076,0846;0,152073
1077,0488;0,150191
1078,0131;0,148262
1078,9773;0,146331
1079,9415;0,144454
1080,9058;0,14268
1081,8700;0,141046
1082,8342;0,139568
1083,7985;0,138237
1084,7627;0,137031
1085,7269;0,135928
1086,6912;0,134916
1087,6554;0,133997
1088,6196;0,133186
1089,5839;0,132504
1090,5481;0,131967
1091,5123;0,131582
1092,4766;0,131342
1093,4408;0,131232
1094,4050;0,131234
1095,3693;0,131326
1096,3335;0,13149
1097,2977;0,131712
1098,2620;0,131976
1099,2262;0,132266
1100,1904;0,132565
1101,1547;0,132855
1102,1189;0,133117
1103,0831;0,133332
1104,0474;0,133475
1105,0116;0,133525
1105,9758;0,133462
1106,9401;0,133275
1107,9043;0,132963
1108,8685;0,132528
1109,8328;0,131964
1110,7970;0,131255
1111,7612;0,130378
1112,7255;0,129326
1113,6897;0,128122
1114,6539;0,126829
1115,6182;0,12553
1116,5824;0,124305
1117,5466;0,123206
1118,5109;0,122236
1119,4751;0,121358
1120,4393;0,120507
1121,4036;0,119613
1122,3678;0,118612
1123,3320;0,117453
1124,2963;0,1161
1125,2605;0,11454
1126,2247;0,112783
1127,1890;0,110862
1128,1532;0,108829
1129,1174;0,106738
1130,0817;0,104638
1131,0459;0,102565
1132,0101;0,100547
1132,9744;0,09861
1133,9386;0,0967866
1134,9028;0,0951137
1135,8671;0,0936287
1136,8313;0,0923601
1137,7955;0,0913221
1138,7598;0,0905114
1139,7240;0,0899094
1140,6882;0,0894862
1141,6525;0,0892067
1142,6167;0,0890376
1143,5809;0,0889528
1144,5452;0,0889374
1145,5094;0,0889864
1146,4736;0,0891004
1147,4379;0,0892805
1148,4021;0,0895251
1149,3663;0,0898298
1150,3306;0,090188
1151,2948;0,09059
1152,2590;0,09102
1153,2233;0,091453
1154,1875;0,0918533
1155,1517;0,0921761
1156,1160;0,0923698
1157,0802;0,0923791
1158,0444;0,0921454
1159,0087;0,0916098
1159,9729;0,0907181
1160,9371;0,0894306
1161,9014;0,087733
1162,8656;0,0856454
1163,8298;0,0832237
1164,7941;0,0805535
1165,7583;0,077738
1166,7225;0,0748841
1167,6868;0,0720889
1168,6510;0,0694304
1169,6152;0,0669627
1170,5795;0,0647166
1171,5437;0,0627039
1172,5079;0,0609226
1173,4722;0,0593616
1174,4364;0,0580028
1175,4006;0,0568238
1176,3649;0,0558018
1177,3291;0,0549179
1178,2933;0,0541614
1179,2576;0,0535277
1180,2218;0,0530136
1181,1860;0,0526108
1182,1503;0,0523037
1183,1145;0,0520729
1184,0787;0,0519028
1185,0430;0,0517873
1186,0072;0,0517306
1186,9714;0,0517435
1187,9357;0,051837
1188,8999;0,0520172
1189,8641;0,0522848
1190,8284;0,0526363
1191,7926;0,0530676
1192,7568;0,0535754
1193,7211;0,0541582
1194,6853;0,0548151
1195,6495;0,0555435
1196,6138;0,0563369
1197,5780;0,0571835
1198,5422;0,0580673
1199,5065;0,0589604
1200,4707;0,0598736
1201,4349;0,0607894
1202,3992;0,0617094
1203,3634;0,0626369
1204,3276;0,0635722
1205,2919;0,0645094
1206,2561;0,0654391
1207,2203;0,066356
1208,1846;0,0672652
1209,1488;0,0681847
1210,1130;0,0691401
1211,0773;0,0701542
1212,0415;0,0712375
1213,0057;0,0723832
1213,9700;0,0735717
1214,9342;0,0747793
1215,8984;0,0759866
1216,8627;0,0771817
1217,8269;0,0783575
1218,7911;0,079507
1219,7554;0,0806204
1220,7196;0,0816862
1221,6838;0,0826946
1222,6481;0,0836411
1223,6123;0,0845272
1224,5765;0,0853568
1225,5408;0,0861332
1226,5050;0,0868572
1227,4692;0,0875279
1228,4335;0,0881453
1229,3977;0,0887124
1230,3619;0,0892338
1231,3262;0,0897135
1232,2904;0,0901517
1233,2546;0,0905444
1234,2189;0,0908849
1235,1831;0,0911677
1236,1473;0,0913916
1237,1116;0,0915601
1238,0758;0,09168
1239,0400;0,0917586
1240,0043;0,0918005
1240,9685;0,0918054
1241,9327;0,0917683
1242,8970;0,091681
1243,8612;0,0915352
1244,8254;0,0913254
1245,7897;0,091052
1246,7539;0,0907207
1247,7181;0,0903413
1248,6824;0,0899238
1249,6466;0,0894768
1250,6108;0,0890065
1251,5751;0,0885184
1252,5393;0,0880188
1253,5035;0,0875147
1254,4678;0,0870109
1255,4320;0,0865069
1256,3962;0,0859957
1257,3605;0,0854653
1258,3247;0,0849033
1259,2889;0,0843008
1260,2532;0,0836528
1261,2174;0,0829568
1262,1816;0,08221
1263,1459;0,0814094
1264,1101;0,0805543
1265,0743;0,0796479
1266,0386;0,0786966
1267,0028;0,077706
1267,9670;0,0766784
1268,9313;0,0756141
1269,8955;0,0745163
1270,8597;0,0733965
1271,8240;0,0722737
1272,7882;0,0711686
1273,7524;0,0700952
1274,7167;0,069057
1275,6809;0,0680494
1276,6451;0,0670657
1277,6094;0,0661018
1278,5736;0,0651578
1279,5378;0,0642359
1280,5021;0,0633389
1281,4663;0,0624693
1282,4305;0,061631
1283,3948;0,0608304
1284,3590;0,0600766
1285,3232;0,05938
1286,2875;0,0587506
1287,2517;0,0581953
1288,2159;0,0577164
1289,1802;0,0573114
1290,1444;0,0569743
1291,1086;0,0566992
1292,0729;0,0564848
1293,0371;0,056335
1294,0013;0,0562583
1294,9656;0,0562627
1295,9298;0,0563526
1296,8940;0,0565267
1297,8583;0,0567799
1298,8225;0,0571057
1299,7867;0,0574969
1300,7510;0,0579458
1301,7152;0,0584431
1302,6794;0,0589805
1303,6437;0,0595533
1304,6079;0,060162
1305,5721;0,0608102
1306,5364;0,061499
1307,5006;0,0622235
1308,4648;0,0629725
1309,4291;0,0637326
1310,3933;0,0644914
1311,3575;0,0652371
1312,3218;0,0659549
1313,2860;0,0666237
1314,2502;0,0672166
1315,2145;0,0677047
1316,1787;0,0680623
1317,1429;0,0682731
1318,1072;0,0683372
1319,0714;0,0682757
1320,0356;0,0681278
1320,9999;0,0679382
1321,9641;0,0677426
1322,9283;0,0675604
1323,8926;0,0673976
1324,8568;0,0672526
1325,8210;0,0671222
1326,7853;0,0670024
1327,7495;0,0668883
1328,7137;0,0667723
1329,6780;0,0666438
1330,6422;0,0664915
1331,6064;0,0663062
1332,5707;0,0660811
1333,5349;0,0658088
1334,4991;0,0654762
1335,4634;0,0650616
1336,4276;0,0645402
1337,3918;0,0639036
1338,3561;0,0631865
1339,3203;0,0624745
1340,2845;0,0618646
1341,2488;0,0614064
1342,2130;0,0610834
1343,1772;0,0608446
1344,1415;0,0606438
1345,1057;0,0604604
1346,0699;0,0603017
1347,0342;0,0601943
1347,9984;0,0601688
1348,9626;0,0602441
1349,9269;0,0604198
1350,8911;0,0606793
1351,8553;0,0609999
1352,8196;0,0613657
1353,7838;0,0617741
1354,7480;0,062233
1355,7123;0,0627495
1356,6765;0,0633182
1357,6407;0,0639214
1358,6050;0,0645384
1359,5692;0,0651559
1360,5334;0,0657705
1361,4977;0,0663823
1362,4619;0,0669846
1363,4261;0,0675616
1364,3904;0,0680968
1365,3546;0,0685807
1366,3188;0,06901
1367,2831;0,0693828
1368,2473;0,0696944
1369,2115;0,0699368
1370,1758;0,0700973
1371,1400;0,070157
1372,1042;0,0700916
1373,0685;0,0698826
1374,0327;0,0695366
1374,9969;0,0690917
1375,9612;0,0685891
1376,9254;0,0680344
1377,8896;0,0673902
1378,8539;0,0666111
1379,8181;0,065689
1380,7823;0,0646742
1381,7466;0,0636498
1382,7108;0,0626743
1383,6750;0,0617413
1384,6393;0,060791
1385,6035;0,0597681
1386,5677;0,0586967
1387,5320;0,0577027
1388,4962;0,056927
1389,4604;0,0564126
1390,4247;0,0560976
1391,3889;0,0558843
1392,3531;0,0556954
1393,3174;0,0554961
1394,2816;0,0552949
1395,2458;0,0551298
1396,2101;0,0550409
1397,1743;0,0550475
1398,1385;0,0551468
1399,1028;0,0553248
1400,0670;0,0555635
1401,0313;0,0558428
1401,9955;0,0561452
1402,9597;0,0564625
1403,9240;0,0568008
1404,8882;0,0571776
1405,8524;0,0576091
1406,8167;0,0580972
1407,7809;0,0586318
1408,7451;0,0592038
1409,7094;0,0598148
1410,6736;0,0604713
1411,6378;0,0611708
1412,6021;0,0618935
1413,5663;0,0626099
1414,5305;0,0632946
1415,4948;0,0639337
1416,4590;0,0645202
1417,4232;0,0650469
1418,3875;0,0655031
1419,3517;0,0658781
1420,3159;0,0661594
1421,2802;0,0663258
1422,2444;0,0663505
1423,2086;0,0662199
1424,1729;0,0659485
1425,1371;0,0655708
1426,1013;0,0651076
1427,0656;0,0645382
1428,0298;0,0638139
1428,9940;0,0629175
1429,9583;0,0619198
1430,9225;0,0609578
1431,8867;0,0601321
1432,8510;0,059429
1433,8152;0,0587342
1434,7794;0,0579114
1435,7437;0,0569211
1436,7079;0,0559139
1437,6721;0,0551389
1438,6364;0,0547146
1439,6006;0,0545759
1440,5648;0,054603
1441,5291;0,0547176
1442,4933;0,054896
1443,4575;0,0551451
1444,4218;0,055475
1445,3860;0,0558825
1446,3502;0,0563491
1447,3145;0,0568478
1448,2787;0,0573526
1449,2429;0,0578449
1450,2072;0,0583145
1451,1714;0,058754
1452,1356;0,0591506
1453,0999;0,059476
1454,0641;0,0596729
1455,0283;0,0596453
1455,9926;0,0593096
1456,9568;0,0587828
1457,9210;0,0584311
1458,8853;0,0584492
1459,8495;0,0587013
1460,8137;0,0589816
1461,7780;0,059125
1462,7422;0,0589802
1463,7064;0,058418
1464,6707;0,0574355
1465,6349;0,0562377
1466,5991;0,0550963
1467,5634;0,0541255
1468,5276;0,053247
1469,4918;0,0522755
1470,4561;0,0509793
1471,4203;0,0491515
1472,3845;0,0468009
1473,3488;0,0443353
1474,3130;0,0422861
1475,2772;0,0408216
1476,2415;0,0397793
1477,2057;0,0389601
1478,1699;0,038248
1479,1342;0,0375961
1480,0984;0,0369957
1481,0626;0,0364627
1482,0269;0,0360279
1482,9911;0,0357186
1483,9553;0,0355379
1484,9196;0,0354571
1485,8838;0,0354264
1486,8480;0,0354001
1487,8123;0,0353758
1488,7765;0,0354276
1489,7407;0,0356586
1490,7050;0,0360894
1491,6692;0,036651
1492,6334;0,037274
1493,5977;0,0379315
1494,5619;0,0386325
1495,5261;0,0394063
1496,4904;0,040285
1497,4546;0,0412727
1498,4188;0,0423239
1499,3831;0,0433701
1500,3473;0,0443646
1501,3115;0,0452861
1502,2758;0,0461204
1503,2400;0,0468426
1504,2042;0,047396
1505,1685;0,0476568
1506,1327;0,0474448
1507,0969;0,0467736
1508,0612;0,0460675
1509,0254;0,0456376
1509,9896;0,0454058
1510,9539;0,0452107
1511,9181;0,0449434
1512,8823;0,044527
1513,8466;0,0439004
1514,8108;0,0430383
1515,7750;0,041988
1516,7393;0,0408635
1517,7035;0,0397733
1518,6677;0,0387454
1519,6320;0,0377337
1520,5962;0,0367065
1521,5604;0,0357236
1522,5247;0,0348997
1523,4889;0,0342958
1524,4531;0,0338852
1525,4174;0,0336119
1526,3816;0,0334466
1527,3458;0,0333892
1528,3101;0,0334381
1529,2743;0,0335715
1530,2385;0,0337558
1531,2028;0,0339672
1532,1670;0,034212
1533,1312;0,0345265
1534,0955;0,0349436
1535,0597;0,0354552
1536,0239;0,0360202
1536,9882;0,0365865
1537,9524;0,0370831
1538,9166;0,0373785
1539,8809;0,0372815
1540,8451;0,0367714
1541,8093;0,0362184
1542,7736;0,0359397
1543,7378;0,0359059
1544,7020;0,0359911
1545,6663;0,0361206
1546,6305;0,0362624
1547,5947;0,036397
1548,5590;0,0365043
1549,5232;0,0365712
1550,4874;0,0366067
1551,4517;0,0366499
1552,4159;0,0367514
1553,3801;0,0369389
1554,3444;0,0371969
1555,3086;0,0374629
1556,2728;0,0376206
1557,2371;0,0375074
1558,2013;0,0370845
1559,1655;0,0366982
1560,1298;0,0366982
1561,0940;0,0370229
1562,0582;0,0374977
1563,0225;0,0380266
1563,9867;0,038566
1564,9509;0,039086
1565,9152;0,0395616
1566,8794;0,0399882
1567,8436;0,0404036
1568,8079;0,0408817
1569,7721;0,0414728
1570,7363;0,0421537
1571,7006;0,0428591
1572,6648;0,0435424
1573,6290;0,0441958
1574,5933;0,0448403
1575,5575;0,0455035
1576,5217;0,0461899
1577,4860;0,0468733
1578,4502;0,0475325
1579,4144;0,048175
1580,3787;0,0488219
1581,3429;0,0494899
1582,3071;0,0501862
1583,2714;0,0509126
1584,2356;0,051671
1585,1998;0,0524647
1586,1641;0,0532913
1587,1283;0,0541336
1588,0925;0,0549578
1589,0568;0,0557214
1590,0210;0,0563861
1590,9852;0,0569234
1591,9495;0,0573115
1592,9137;0,0575323
1593,8779;0,0575782
1594,8422;0,057465
1595,8064;0,0572333
1596,7706;0,0569334
1597,7349;0,0566038
1598,6991;0,0562631
1599,6633;0,0559167
1600,6276;0,0555692
1601,5918;0,0552323
1602,5560;0,0549236
1603,5203;0,0546568
1604,4845;0,0544315
1605,4487;0,054232
1606,4130;0,0540368
1607,3772;0,053837
1608,3414;0,0536541
1609,3057;0,0535366
1610,2699;0,0535278
1611,2341;0,0536321
1612,1984;0,0538113
1613,1626;0,0540039
1614,1268;0,054146
1615,0911;0,0542016
1616,0553;0,054204
1617,0195;0,0542534
1617,9838;0,0544216
1618,9480;0,0546888
1619,9122;0,0549894
1620,8765;0,0552666
1621,8407;0,0554901
1622,8049;0,0556598
1623,7692;0,0558026
1624,7334;0,0559501
1625,6976;0,0561147
1626,6619;0,0562928
1627,6261;0,0564829
1628,5903;0,0566949
1629,5546;0,0569393
1630,5188;0,0572124
1631,4830;0,0574865
1632,4473;0,0577065
1633,4115;0,0577861
1634,3757;0,0576337
1635,3400;0,0572603
1636,3042;0,056876
1637,2684;0,0567037
1638,2327;0,0567535
1639,1969;0,0569181
1640,1611;0,0571153
1641,1254;0,0573103
1642,0896;0,0574852
1643,0538;0,0576057
1644,0181;0,0576011
1644,9823;0,0573841
1645,9465;0,0569563
1646,9108;0,056511
1647,8750;0,0562843
1648,8392;0,0563114
1649,8035;0,0564399
1650,7677;0,0564275
1651,7319;0,0559679
1652,6962;0,0548773
1653,6604;0,0535672
1654,6246;0,0527345
1655,5889;0,0524474
1656,5531;0,0523952
1657,5173;0,0523501
1658,4816;0,0521961
1659,4458;0,0518579
1660,4100;0,0512825
1661,3743;0,050489
1662,3385;0,0496237
1663,3027;0,0488883
1664,2670;0,0483813
1665,2312;0,0480472
1666,1954;0,04774
1667,1597;0,0472877
1668,1239;0,0465578
1669,0881;0,0455666
1670,0524;0,0445329
1671,0166;0,0436991
1671,9808;0,0431014
1672,9451;0,0425928
1673,9093;0,0420103
1674,8735;0,0412989
1675,8378;0,0405474
1676,8020;0,0399103
1677,7662;0,0394773
1678,7305;0,0392257
1679,6947;0,0390602
1680,6589;0,0388436
1681,6232;0,0383951
1682,5874;0,037539
1683,5516;0,0363146
1684,5159;0,0351164
1685,4801;0,0343007
1686,4443;0,0338457
1687,4086;0,0335619
1688,3728;0,0333187
1689,3370;0,0330789
1690,3013;0,0328598
1691,2655;0,0326874
1692,2297;0,0325658
1693,1940;0,0324693
1694,1582;0,032353
1695,1224;0,0321733
1696,0867;0,0319113
1697,0509;0,0315877
1698,0151;0,0312581
1698,9794;0,0309902
1699,9436;0,0308364
1700,9078;0,030815
1701,8721;0,0309115
1702,8363;0,0310971
1703,8005;0,0313476
1704,7648;0,0316521
1705,7290;0,0320124
1706,6932;0,0324353
1707,6575;0,0329223
1708,6217;0,0334674
1709,5859;0,0340621
1710,5502;0,0346952
1711,5144;0,0353492
1712,4786;0,0359968
1713,4429;0,0366048
1714,4071;0,0371494
1715,3713;0,0376433
1716,3356;0,0381532
1717,2998;0,0387522
1718,2640;0,0394341
1719,2283;0,040138
1720,1925;0,0408292
1721,1567;0,0415088
1722,1210;0,0421845
1723,0852;0,0428527
1724,0494;0,0434983
1725,0137;0,0441059
1725,9779;0,044671
1726,9421;0,0452
1727,9064;0,0456987
1728,8706;0,0461593
1729,8348;0,046549
1730,7991;0,0468044
1731,7633;0,0468428
1732,7275;0,0466222
1733,6918;0,0462292
1734,6560;0,0458401
1735,6202;0,0455447
1736,5845;0,0452886
1737,5487;0,044956
1738,5129;0,0444458
1739,4772;0,0437134
1740,4414;0,0427963
1741,4056;0,0417972
1742,3699;0,0408131
1743,3341;0,0398769
1744,2983;0,0389659
1745,2626;0,0380407
1746,2268;0,0370561
1747,1910;0,0359473
1748,1553;0,0346411
1749,1195;0,0331337
1750,0837;0,0315703
1751,0480;0,0301699
1752,0122;0,029046
1752,9764;0,0281512
1753,9407;0,0273588
1754,9049;0,0265582
1755,8691;0,0257081
1756,8334;0,0248417
1757,7976;0,0240215
1758,7618;0,0232749
1759,7261;0,0225702
1760,6903;0,0218581
1761,6545;0,0211359
1762,6188;0,0204606
1763,5830;0,0198963
1764,5472;0,0194574
1765,5115;0,0191057
1766,4757;0,0187853
1767,4399;0,0184533
1768,4042;0,0180889
1769,3684;0,017683
1770,3326;0,017229
1771,2969;0,0167384
1772,2611;0,0162698
1773,2253;0,015911
1774,1896;0,0157102
1775,1538;0,0156424
1776,1180;0,0156407
1777,0823;0,0156359
1778,0465;0,0155804
1779,0107;0,0154609
1779,9750;0,0153001
1780,9392;0,0151388
1781,9034;0,0150077
1782,8677;0,0149143
1783,8319;0,0148538
1784,7961;0,0148253
1785,7604;0,0148338
1786,7246;0,014879
1787,6888;0,0149451
1788,6531;0,0149994
1789,6173;0,0149975
1790,5815;0,0149027
1791,5458;0,0147189
1792,5100;0,014511
1793,4742;0,0143618
1794,4385;0,0143045
1795,4027;0,0143163
1796,3669;0,0143544
1797,3312;0,0143809
1798,2954;0,0143703
1799,2596;0,014316
1800,2239;0,0142344
1801,1881;0,0141575
1802,1523;0,014115
1803,1166;0,0141187
1804,0808;0,0141617
1805,0450;0,0142259
1806,0093;0,0142881
1806,9735;0,0143248
1807,9377;0,0143175
1808,9020;0,0142605
1809,8662;0,0141672
1810,8304;0,014067
1811,7947;0,0139884
1812,7589;0,0139431
1813,7231;0,0139233
1814,6874;0,0139125
1815,6516;0,0138988
1816,6158;0,0138827
1817,5801;0,0138768
1818,5443;0,0138949
1819,5085;0,0139385
1820,4728;0,0139925
1821,4370;0,0140328
1822,4012;0,0140398
1823,3655;0,0140097
1824,3297;0,0139568
1825,2939;0,0139019
1826,2582;0,0138553
1827,2224;0,0138105
1828,1866;0,0137557
1829,1509;0,0136924
1830,1151;0,0136407
1831,0793;0,0136227
1832,0436;0,0136411
1833,0078;0,0136781
1833,9720;0,0137111
1834,9363;0,0137268
1835,9005;0,0137287
1836,8647;0,0137345
1837,8290;0,0137627
1838,7932;0,0138177
1839,7574;0,0138843
1840,7217;0,0139356
1841,6859;0,0139434
1842,6501;0,0138914
1843,6144;0,0137914
1844,5786;0,0136839
1845,5428;0,0136098
1846,5071;0,0135803
1847,4713;0,0135803
1848,4355;0,01359
1849,3998;0,013598
1850,3640;0,0136028
1851,3282;0,0136103
1852,2925;0,0136278
1853,2567;0,0136584
1854,2209;0,0136992
1855,1852;0,0137422
1856,1494;0,0137782
1857,1136;0,0138002
1858,0779;0,0138061
1859,0421;0,0137992
1860,0063;0,0137867
1860,9706;0,013776
1861,9348;0,0137709
1862,8990;0,0137695
1863,8633;0,0137651
1864,8275;0,0137502
1865,7917;0,0137213
1866,7560;0,0136845
1867,7202;0,0136565
1868,6844;0,0136536
1869,6487;0,0136747
1870,6129;0,013702
1871,5771;0,013718
1872,5414;0,0137166
1873,5056;0,0137011
1874,4698;0,0136786
1875,4341;0,0136571
1876,3983;0,0136437
1877,3625;0,0136443
1878,3268;0,0136628
1879,2910;0,0136997
1880,2552;0,0137521
1881,2195;0,0138135
1882,1837;0,0138765
1883,1479;0,0139347
1884,1122;0,0139839
1885,0764;0,0140195
1886,0406;0,0140348
1887,0049;0,0140201
1887,9691;0,0139697
1888,9333;0,0138895
1889,8976;0,0138002
1890,8618;0,0137284
1891,8260;0,0136931
1892,7903;0,0136978
1893,7545;0,0137321
1894,7188;0,0137775
1895,6830;0,0138143
1896,6472;0,0138279
1897,6115;0,0138137
1898,5757;0,0137773
1899,5399;0,0137319
1900,5042;0,0136928
1901,4684;0,0136734
1902,4326;0,01368
1903,3969;0,01371
1904,3611;0,0137543
1905,3253;0,0138035
1906,2896;0,0138525
1907,2538;0,0139012
1908,2180;0,0139502
1909,1823;0,0139956
1910,1465;0,0140286
1911,1107;0,0140414
1912,0750;0,0140354
1913,0392;0,0140238
1914,0034;0,014026
1914,9677;0,0140575
1915,9319;0,0141193
1916,8961;0,0141916
1917,8604;0,0142414
1918,8246;0,0142436
1919,7888;0,0142008
1920,7531;0,0141416
1921,7173;0,0141015
1922,6815;0,0140992
1923,6458;0,0141241
1924,6100;0,0141439
1925,5742;0,0141299
1926,5385;0,014079
1927,5027;0,0140157
1928,4669;0,0139768
1929,4312;0,0139901
1930,3954;0,0140599
1931,3596;0,0141664
1932,3239;0,0142782
1933,2881;0,0143676
1934,2523;0,0144168
1935,2166;0,0144175
1936,1808;0,0143703
1937,1450;0,0142862
1938,1093;0,0141888
1939,0735;0,0141096
1940,0377;0,0140759
1941,0020;0,0140952
1941,9662;0,0141457
1942,9304;0,0141844
1943,8947;0,0141769
1944,8589;0,0141228
1945,8231;0,0140549
1946,7874;0,0140164
1947,7516;0,0140356
1948,7158;0,0141109
1949,6801;0,0142095
1950,6443;0,0142805
1951,6085;0,0142765
1952,5728;0,0141743
1953,5370;0,0139884
1954,5012;0,0137702
1955,4655;0,013594
1956,4297;0,0135321
1957,3939;0,0136293
1958,3582;0,0138841
1959,3224;0,0142459
1960,2866;0,0146295
1961,2509;0,0149446
1962,2151;0,0151282
1963,1793;0,015162
1964,1436;0,0150685
1965,1078;0,0148925
1966,0720;0,0146809
1967,0363;0,0144671
1968,0005;0,0142681
1968,9647;0,0140948
1969,9290;0,0139669
1970,8932;0,0139178
1971,8574;0,0139829
1972,8217;0,0141791
1973,7859;0,0144875
1974,7501;0,0148539
1975,7144;0,0152089
1976,6786;0,0154973
1977,6428;0,0156951
1978,6071;0,0158047
1979,5713;0,0158386
1980,5355;0,0158081
1981,4998;0,0157231
1982,4640;0,0155974
1983,4282;0,01545
1984,3925;0,0153025
1985,3567;0,0151759
1986,3209;0,0150909
1987,2852;0,0150693
1988,2494;0,0151317
1989,2136;0,0152861
1990,1779;0,0155112
1991,1421;0,0157476
1992,1063;0,0159138
1993,0706;0,0159438
1994,0348;0,0158219
1994,9990;0,015589
1995,9633;0,0153218
1996,9275;0,0151032
1997,8917;0,0149958
1998,8560;0,0150248
1999,8202;0,0151725
2000,7844;0,0153879
2001,7487;0,0156089
2002,7129;0,015785
2003,6771;0,0158926
2004,6414;0,0159384
2005,6056;0,01595
2006,5698;0,0159571
2007,5341;0,01597
2008,4983;0,0159729
2009,4625;0,0159371
2010,4268;0,0158484
2011,3910;0,0157276
2012,3552;0,0156291
2013,3195;0,0156167
2014,2837;0,0157261
2015,2479;0,0159364
2016,2122;0,0161711
2017,1764;0,0163388
2018,1406;0,0163918
2019,1049;0,0163572
2020,0691;0,0163147
2021,0333;0,0163391
2021,9976;0,0164518
2022,9618;0,0166122
2023,9260;0,0167519
2024,8903;0,0168255
2025,8545;0,0168364
2026,8187;0,0168204
2027,7830;0,0168019
2028,7472;0,0167653
2029,7114;0,0166703
2030,6757;0,0165021
2031,6399;0,0163119
2032,6041;0,0162078
2033,5684;0,0162911
2034,5326;0,0165815
2035,4968;0,0169931
2036,4611;0,01738
2037,4253;0,0176189
2038,3895;0,0176672
2039,3538;0,017569
2040,3180;0,0174126
2041,2822;0,0172753
2042,2465;0,0171879
2043,2107;0,0171395
2044,1749;0,0171093
2045,1392;0,0170958
2046,1034;0,0171191
2047,0676;0,017198
2048,0320;0,0173219
2048,9961;0,0174472
2049,9604;0,0175237
2050,9246;0,0175268
2051,8889;0,0174721
2052,8530;0,0174032
2053,8174;0,0173648
2054,7815;0,0173766
2055,7458;0,0174227
2056,7100;0,0174628
2057,6743;0,0174569
2058,6384;0,0173879
2059,6028;0,0172678
2060,5669;0,017128
2061,5313;0,0170033
2062,4954;0,016917
2063,4597;0,0168739
2064,4238;0,0168593
2065,3882;0,0168461
2066,3523;0,0168077
2067,3167;0,0167343
2068,2808;0,0166447
2069,2451;0,0165829
2070,2092;0,0165987
2071,1736;0,0167177
2072,1377;0,0169197
2073,1021;0,0171408
2074,0662;0,0173023
2075,0305;0,0173512
2075,9946;0,0172857
2076,9590;0,0171501
2077,9231;0,0170057
2078,8875;0,0168971
2079,8516;0,0168377
2080,8159;0,0168169
2081,7800;0,0168214
2082,7444;0,0168478
2083,7085;0,0168999
2084,6729;0,016974
2085,6370;0,0170465
2086,6013;0,0170771
2087,5654;0,0170293
2088,5298;0,0168938
2089,4939;0,0167031
2090,4583;0,016523
2091,4224;0,0164263
2092,3867;0,0164616
2093,3508;0,0166315
2094,3152;0,01689
2095,2793;0,0171603
2096,2437;0,017365
2097,2078;0,0174551
2098,1721;0,0174236
2099,1362;0,0173003
2100,1006;0,0171344
2101,0647;0,0169747
2102,0291;0,0168539
2102,9932;0,016785
2103,9575;0,0167638
2104,9216;0,0167774
2105,8860;0,0168138
2106,8501;0,0168654
2107,8145;0,0169279
2108,7786;0,0169951
2109,7429;0,0170555
2110,7070;0,0170945
2111,6714;0,0171015
2112,6355;0,0170776
2113,5999;0,0170367
2114,5640;0,0169999
2115,5283;0,0169847
2116,4924;0,0169963
2117,4568;0,0170263
2118,4209;0,0170601
2119,3853;0,017086
2120,3494;0,017103
2121,3137;0,0171195
2122,2778;0,0171457
2123,2422;0,0171847
2124,2063;0,0172266
2125,1707;0,0172521
2126,1348;0,0172431
2127,0991;0,0171941
2128,0632;0,0171207
2129,0276;0,0170572
2129,9917;0,0170462
2130,9561;0,0171219
2131,9202;0,0172946
2132,8845;0,0175416
2133,8486;0,017811
2134,8130;0,018039
2135,7771;0,0181772
2136,7415;0,0182144
2137,7056;0,0181819
2138,6699;0,0181365
2139,6340;0,0181342
2140,5984;0,0182069
2141,5625;0,0183534
2142,5269;0,0185485
2143,4910;0,0187591
2144,4553;0,0189585
2145,4194;0,0191299
2146,3838;0,019263
2147,3479;0,0193529
2148,3123;0,0194054
2149,2764;0,0194441
2150,2407;0,0195056
2151,2048;0,0196192
2152,1692;0,0197812
2153,1333;0,0199445
2154,0977;0,0200388
2155,0618;0,0200166
2156,0261;0,0198986
2156,9902;0,0197808
2157,9546;0,0197762
2158,9187;0,0199168
2159,8831;0,020106
2160,8472;0,0201889
2161,8115;0,0200766
2162,7756;0,0198109
2163,7400;0,0195325
2164,7041;0,0193894
2165,6685;0,0194457
2166,6326;0,0196433
2167,5969;0,0198394
2168,5610;0,0198941
2169,5254;0,0197519
2170,4895;0,0194688
2171,4539;0,0191773
2172,4180;0,0190118
2173,3823;0,0190368
2174,3464;0,0192149
2175,3108;0,0194332
2176,2749;0,0195719
2177,2393;0,0195705
2178,2034;0,0194537
2179,1677;0,0193059
2180,1318;0,0192162
2181,0962;0,0192253
2182,0603;0,0193045
2183,0247;0,0193766
2183,9888;0,0193679
2184,9531;0,0192538
2185,9172;0,0190725
2186,8816;0,0188996
2187,8457;0,0188031
2188,8101;0,0188069
2189,7742;0,0188818
2190,7385;0,0189667
2191,7026;0,0190048
2192,6670;0,0189697
2193,6311;0,0188705
2194,5955;0,0187353
2195,5596;0,0185909
2196,5239;0,0184503
2197,4880;0,0183171
2198,4524;0,0181954
2199,4165;0,0180977
2200,3809;0,0180419
2201,3450;0,0180424
2202,3093;0,0181025
2203,2734;0,0182126
2204,2378;0,0183548
2205,2019;0,0185057
2206,1663;0,0186381
2207,1304;0,0187222
2208,0947;0,018732
2209,0588;0,0186565
2210,0232;0,0185093
2210,9873;0,0183273
2211,9517;0,0181563
2212,9158;0,018029
2213,8801;0,0179499
2214,8442;0,0178976
2215,8086;0,0178444
2216,7727;0,0177796
2217,7371;0,0177217
2218,7012;0,0177083
2219,6655;0,0177718
2220,6296;0,0179138
2221,5940;0,0180968
2222,5581;0,018257
2223,5225;0,0183319
2224,4866;0,0182882
2225,4509;0,0181346
2226,4150;0,0179166
2227,3794;0,017695
2228,3435;0,0175204
2229,3079;0,0174136
2230,2720;0,0173616
2231,2363;0,0173284
2232,2004;0,017277
2233,1648;0,0171909
2234,1289;0,0170846
2235,0933;0,0169973
2236,0574;0,0169722
2237,0217;0,0170334
2237,9858;0,0171721
2238,9502;0,0173498
2239,9143;0,0175157
2240,8787;0,0176278
2241,8428;0,0176666
2242,8071;0,0176362
2243,7712;0,0175551
2244,7356;0,017446
2245,6997;0,0173295
2246,6641;0,0172237
2247,6282;0,0171457
2248,5925;0,0171102
2249,5566;0,0171251
2250,5210;0,0171867
2251,4851;0,0172786
2252,4495;0,0173773
2253,4136;0,0174596
2254,3779;0,0175094
2255,3420;0,0175211
2256,3064;0,0174968
2257,2705;0,0174435
2258,2349;0,0173707
2259,1990;0,0172896
2260,1633;0,0172137
2261,1274;0,0171567
2262,0918;0,0171288
2263,0559;0,0171326
2264,0203;0,0171608
2264,9844;0,0171975
2265,9487;0,017224
2266,9128;0,017225
2267,8772;0,0171938
2268,8413;0,0171337
2269,8057;0,0170554
2270,7698;0,0169717
2271,7341;0,0168928
2272,6982;0,0168248
2273,6626;0,0167695
2274,6267;0,016728
2275,5911;0,0167019
2276,5552;0,0166934
2277,5195;0,0167036
2278,4836;0,0167295
2279,4480;0,0167644
2280,4121;0,0167997
2281,3765;0,0168282
2282,3406;0,0168465
2283,3049;0,0168549
2284,2690;0,0168558
2285,2334;0,0168519
2286,1975;0,0168455
2287,1619;0,0168386
2288,1260;0,0168326
2289,0903;0,0168268
2290,0544;0,0168172
2291,0188;0,0167972
2291,9829;0,0167612
2292,9473;0,0167098
2293,9114;0,0166535
2294,8757;0,01661
2295,8398;0,016597
2296,8042;0,0166222
2297,7683;0,0166779
2298,7327;0,0167439
2299,6968;0,0167974
2300,6611;0,0168242
2301,6252;0,0168242
2302,5896;0,0168092
2303,5537;0,0167945
2304,5181;0,0167906
2305,4822;0,0167986
2306,4465;0,0168107
2307,4106;0,0168149
2308,3750;0,0168013
2309,3391;0,0167676
2310,3035;0,0167231
2311,2676;0,0166863
2312,2319;0,0166767
2313,1960;0,016704
2314,1604;0,0167608
2315,1245;0,0168264
2316,0889;0,0168787
2317,0530;0,0169079
2318,0173;0,0169237
2318,9814;0,0169483
2319,9458;0,0169981
2320,9099;0,0170639
2321,8743;0,0171068
2322,8384;0,0170802
2323,8027;0,0169603
2324,7668;0,0167633
2325,7312;0,0165384
2326,6953;0,0163481
2327,6597;0,0162463
2328,6238;0,0162574
2329,5881;0,0163632
2330,5522;0,0165073
2331,5166;0,0166211
2332,4807;0,0166585
2333,4451;0,016613
2334,4092;0,0165104
2335,3735;0,0163876
2336,3376;0,0162734
2337,3020;0,0161794
2338,2661;0,0161005
2339,2305;0,0160227
2340,1946;0,0159322
2341,1589;0,0158231
2342,1230;0,0157054
2343,0874;0,0156106
2344,0515;0,0155827
2345,0159;0,0156502
2345,9800;0,0158036
2346,9443;0,0160041
2347,9084;0,016208
2348,8728;0,0163833
2349,8369;0,0165142
2350,8013;0,0166003
2351,7654;0,0166542
2352,7297;0,0166967
2353,6938;0,0167463
2354,6582;0,0168078
2355,6223;0,0168696
2356,5867;0,0169133
2357,5508;0,0169261
2358,5151;0,0169045
2359,4792;0,0168474
2360,4436;0,0167499
2361,4077;0,0166051
2362,3721;0,0164151
2363,3362;0,0161996
2364,3005;0,0159912
2365,2646;0,0158201
2366,2290;0,0156994
2367,1931;0,0156231
2368,1575;0,0155776
2369,1216;0,0155524
2370,0859;0,0155449
2371,0500;0,0155571
2372,0144;0,0155908
2372,9785;0,0156443
2373,9429;0,0157121
2374,9070;0,0157864
2375,8713;0,0158589
2376,8354;0,0159235
2377,7998;0,0159787
2378,7639;0,0160283
2379,7283;0,0160803
2380,6924;0,0161435
2381,6567;0,0162238
2382,6208;0,0163221
2383,5852;0,0164336
2384,5493;0,0165495
2385,5137;0,0166586
2386,4778;0,0167506
2387,4421;0,0168178
2388,4063;0,0168583
2389,3706;0,0168768
2390,3347;0,0168839
2391,2991;0,0168925
2392,2632;0,0169123
2393,2275;0,0169454
2394,1917;0,0169859
2395,1560;0,017024
2396,1201;0,0170517
2397,0845;0,0170685
2398,0486;0,0170809
2399,0129;0,0170981
2399,9771;0,0171259
2400,9414;0,017163
2401,9055;0,0172014
2402,8699;0,0172315
2403,8340;0,017248
2404,7983;0,0172536
2405,7625;0,0172577
2406,7268;0,0172712
2407,6909;0,0173003
2408,6553;0,0173424
2409,6194;0,0173868
2410,5837;0,0174207
2411,5479;0,0174359
2412,5122;0,0174339
2413,4763;0,0174256
2414,4407;0,0174258
2415,4048;0,0174462
2416,3691;0,0174895
2417,3333;0,0175488
2418,2976;0,0176109
2419,2617;0,0176618
2420,2261;0,0176926
2421,1902;0,0177029
2422,1545;0,0177004
2423,1187;0,0176972
2424,0830;0,017703
2425,0471;0,017719
2426,0115;0,0177374
2426,9756;0,0177461
2427,9399;0,0177383
2428,9041;0,0177199
2429,8684;0,0177092
2430,8325;0,017727
2431,7969;0,017784
2432,7610;0,0178724
2433,7253;0,0179692
2434,6895;0,0180481
2435,6538;0,018093
2436,6179;0,0181049
2437,5823;0,0180985
2438,5464;0,0180921
2439,5107;0,018098
2440,4749;0,018118
2441,4392;0,0181454
2442,4033;0,0181712
2443,3677;0,0181885
2444,3318;0,0181954
2445,2961;0,0181947
2446,2603;0,0181922
2447,2246;0,018194
2448,1887;0,0182048
2449,1531;0,0182266
2450,1172;0,0182593
2451,0815;0,018301
2452,0457;0,0183491
2453,0100;0,0184002
2453,9741;0,01845
2454,9385;0,0184932
2455,9026;0,0185252
2456,8669;0,0185435
2457,8311;0,0185492
2458,7954;0,0185463
2459,7595;0,0185406
2460,7239;0,0185378
2461,6880;0,0185424
2462,6523;0,0185565
2463,6165;0,0185804
2464,5808;0,0186115
2465,5449;0,0186451
2466,5093;0,0186755
2467,4734;0,018698
2468,4377;0,01871
2469,4019;0,0187112
2470,3662;0,0187031
2471,3303;0,0186877
2472,2947;0,0186682
2473,2588;0,0186499
2474,2231;0,0186403
2475,1873;0,0186473
2476,1516;0,0186757
2477,1157;0,0187247
2478,0801;0,0187867
2479,0442;0,0188504
2480,0085;0,018905
2480,9727;0,0189441
2481,9370;0,0189669
2482,9011;0,018978
2483,8655;0,0189845
2484,8296;0,0189925
2485,7939;0,0190053
2486,7581;0,0190216
2487,7224;0,0190375
2488,6865;0,0190501
2489,6509;0,0190602
2490,6150;0,0190738
2491,5793;0,0190977
2492,5435;0,0191343
2493,5078;0,0191771
2494,4719;0,0192119
2495,4363;0,0192244
2496,4004;0,0192089
2497,3647;0,0191732
2498,3289;0,0191354
2499,2932;0,0191146
2500,2573;0,0191217
2501,2217;0,0191546
2502,1858;0,0192014
2503,1501;0,0192475
2504,1143;0,0192825
2505,0786;0,019303
2506,0427;0,0193123
2507,0071;0,019317
2507,9712;0,019325
2508,9355;0,0193427
2509,8997;0,0193737
2510,8640;0,0194157
2511,8281;0,0194605
2512,7925;0,0194954
2513,7566;0,0195089
2514,7209;0,0194955
2515,6851;0,0194584
2516,6494;0,0194082
2517,6135;0,0193581
2518,5779;0,0193193
2519,5420;0,0192993
2520,5063;0,0193019
2521,4705;0,0193284
2522,4348;0,0193775
2523,3989;0,019443
2524,3633;0,0195124
2525,3274;0,0195686
2526,2917;0,019596
2527,2559;0,0195876
2528,2202;0,0195506
2529,1843;0,0195057
2530,1487;0,0194787
2531,1128;0,0194882
2532,0771;0,019536
2533,0413;0,0196056
2534,0056;0,0196703
2534,9697;0,0197078
2535,9341;0,0197123
2536,8982;0,0196968
2537,8625;0,0196844
2538,8267;0,0196942
2539,7910;0,0197303
2540,7551;0,0197812
2541,7195;0,0198283
2542,6836;0,0198579
2543,6479;0,0198673
2544,6121;0,0198633
2545,5764;0,0198551
2546,5405;0,0198481
2547,5049;0,0198425
2548,4690;0,0198378
2549,4333;0,0198361
2550,3975;0,0198427
2551,3618;0,0198616
2552,3259;0,019891
2553,2903;0,0199216
2554,2544;0,0199414
2555,2188;0,0199415
2556,1829;0,0199215
2557,1472;0,0198903
2558,1113;0,0198615
2559,0757;0,0198483
2560,0398;0,0198581
2561,0042;0,0198903
2561,9683;0,0199371
2562,9326;0,019986
2563,8967;0,0200241
2564,8611;0,0200431
2565,8252;0,0200415
2566,7896;0,0200254
2567,7537;0,0200042
2568,7180;0,0199863
2569,6821;0,019975
2570,6465;0,0199685
2571,6106;0,0199634
2572,5750;0,0199588
2573,5391;0,0199582
2574,5034;0,019968
2575,4675;0,019993
2576,4319;0,0200338
2577,3960;0,0200858
2578,3604;0,0201425
2579,3245;0,0201975
2580,2888;0,0202464
2581,2529;0,0202865
2582,2173;0,0203159
2583,1814;0,0203338
2584,1458;0,0203419
2585,1099;0,0203439
2586,0742;0,0203439
2587,0383;0,0203437
2588,0027;0,0203425
2588,9668;0,0203385
2589,9312;0,0203327
2590,8953;0,0203306
2591,8596;0,0203392
2592,8237;0,0203623
2593,7881;0,0203962
2594,7522;0,0204307
2595,7166;0,0204547
2596,6807;0,0204632
2597,6450;0,0204598
2598,6091;0,0204551
2599,5735;0,0204608
2600,5376;0,0204846
2601,5020;0,0205285
2602,4661;0,0205887
2603,4304;0,020657
2604,3945;0,0207222
2605,3589;0,0207731
2606,3230;0,0208019
2607,2874;0,0208085
2608,2515;0,0208012
2609,2158;0,0207931
2610,1799;0,0207949
2611,1443;0,0208099
2612,1084;0,0208338
2613,0728;0,0208595
2614,0369;0,0208832
2615,0012;0,0209073
2615,9653;0,0209369
2616,9297;0,0209753
2617,8938;0,0210205
2618,8582;0,0210663
2619,8223;0,0211065
2620,7866;0,0211385
2621,7507;0,0211633
2622,7151;0,0211846
2623,6792;0,0212055
2624,6436;0,0212281
2625,6077;0,0212534
2626,5720;0,0212816
2627,5361;0,0213118
2628,5005;0,0213418
2629,4646;0,0213692
2630,4290;0,0213932
2631,3931;0,0214158
2632,3574;0,0214408
2633,3215;0,0214714
2634,2859;0,0215072
2635,2500;0,0215439
2636,2144;0,0215756
2637,1785;0,021598
2638,1428;0,0216112
2639,1069;0,0216194
2640,0713;0,0216293
2641,0354;0,0216467
2641,9998;0,0216754
2642,9639;0,021716
2643,9282;0,0217658
2644,8923;0,0218196
2645,8567;0,0218706
2646,8208;0,0219128
2647,7852;0,0219429
2648,7493;0,0219617
2649,7136;0,0219741
2650,6777;0,021987
2651,6421;0,0220064
2652,6062;0,0220346
2653,5706;0,0220701
2654,5347;0,0221081
2655,4990;0,0221431
2656,4631;0,0221714
2657,4275;0,0221925
2658,3916;0,0222086
2659,3560;0,0222239
2660,3201;0,0222416
2661,2844;0,0222632
2662,2485;0,0222877
2663,2129;0,0223126
2664,1770;0,0223355
2665,1414;0,0223552
2666,1055;0,0223718
2667,0698;0,0223868
2668,0339;0,0224023
2668,9983;0,0224204
2669,9624;0,0224426
2670,9268;0,0224695
2671,8909;0,0225001
2672,8552;0,022532
2673,8193;0,0225618
2674,7837;0,022587
2675,7478;0,0226063
2676,7122;0,0226211
2677,6763;0,022635
2678,6406;0,0226528
2679,6047;0,0226786
2680,5691;0,0227146
2681,5332;0,0227597
2682,4976;0,0228097
2683,4617;0,022859
2684,4260;0,0229028
2685,3901;0,0229394
2686,3545;0,02297
2687,3186;0,022998
2688,2830;0,0230265
2689,2471;0,0230572
2690,2114;0,0230898
2691,1755;0,0231235
2692,1399;0,0231571
2693,1040;0,0231901
2694,0684;0,0232219
2695,0325;0,023252
2695,9968;0,0232806
2696,9609;0,0233087
2697,9253;0,0233386
2698,8894;0,0233727
2699,8538;0,0234122
2700,8179;0,0234574
2701,7822;0,0235069
2702,7463;0,0235586
2703,7107;0,0236105
2704,6748;0,02366
2705,6392;0,0237053
2706,6033;0,0237456
2707,5676;0,0237822
2708,5317;0,0238186
2709,4961;0,0238588
2710,4602;0,0239049
2711,4246;0,0239551
2712,3887;0,0240049
2713,3530;0,0240492
2714,3171;0,0240853
2715,2815;0,0241149
2716,2456;0,0241423
2717,2100;0,0241721
2718,1741;0,0242073
2719,1384;0,0242475
2720,1025;0,0242899
2721,0669;0,0243306
2722,0310;0,0243658
2722,9954;0,0243932
2723,9595;0,0244133
2724,9238;0,0244294
2725,8879;0,0244469
2726,8523;0,0244716
2727,8164;0,0245072
2728,7808;0,024554
2729,7449;0,0246092
2730,7092;0,024668
2731,6733;0,0247251
2732,6377;0,0247756
2733,6018;0,0248154
2734,5662;0,024842
2735,5303;0,0248553
2736,4946;0,024859
2737,4587;0,0248603
2738,4231;0,0248686
2739,3872;0,0248915
2740,3516;0,0249317
2741,3157;0,024985
2742,2800;0,0250417
2743,2441;0,0250907
2744,2085;0,0251242
2745,1726;0,0251406
2746,1370;0,0251452
2747,1011;0,025147
2748,0654;0,0251546
2749,0295;0,0251733
2749,9939;0,0252038
2750,9580;0,0252432
2751,9224;0,0252872
2752,8865;0,0253318
2753,8508;0,025374
2754,8149;0,0254128
2755,7793;0,0254487
2756,7434;0,0254835
2757,7078;0,0255203
2758,6719;0,0255616
2759,6362;0,0256082
2760,6003;0,0256576
2761,5647;0,0257054
2762,5288;0,025747
2763,4932;0,0257803
2764,4573;0,0258067
2765,4216;0,0258311
2766,3857;0,0258589
2767,3501;0,0258942
2768,3142;0,0259378
2769,2786;0,0259875
2770,2427;0,0260389
2771,2070;0,026088
2772,1711;0,0261326
2773,1355;0,0261736
2774,0996;0,026214
2775,0640;0,0262584
2776,0281;0,0263105
2776,9924;0,0263719
2777,9565;0,0264411
2778,9209;0,0265146
2779,8850;0,0265887
2780,8494;0,0266608
2781,8135;0,0267304
2782,7778;0,0267979
2783,7419;0,0268636
2784,7063;0,0269262
2785,6704;0,026983
2786,6348;0,0270314
2787,5989;0,0270719
2788,5632;0,0271095
2789,5273;0,0271535
2790,4917;0,0272145
2791,4558;0,027299
2792,4202;0,0274058
2793,3843;0,0275249
2794,3486;0,0276411
2795,3127;0,0277414
2796,2771;0,0278206
2797,2412;0,0278836
2798,2056;0,0279425
2799,1697;0,0280105
2800,1340;0,0280958
2801,0981;0,0281998
2802,0625;0,028318
2803,0266;0,0284438
2803,9910;0,0285706
2804,9551;0,0286936
2805,9194;0,0288095
2806,8835;0,0289175
2807,8479;0,0290197
2808,8120;0,0291211
2809,7764;0,0292289
2810,7405;0,0293491
2811,7048;0,0294839
2812,6689;0,0296311
2813,6333;0,0297859
2814,5974;0,0299438
2815,5618;0,0301025
2816,5259;0,0302623
2817,4902;0,0304246
2818,4543;0,0305904
2819,4187;0,0307599
2820,3828;0,0309337
2821,3472;0,0311135
2822,3113;0,0313025
2823,2756;0,0315045
2824,2397;0,0317232
2825,2041;0,0319602
2826,1682;0,0322149
2827,1326;0,0324847
2828,0967;0,0327656
2829,0610;0,0330548
2830,0251;0,0333519
2830,9895;0,0336599
2831,9536;0,0339838
2832,9180;0,0343282
2833,8821;0,0346949
2834,8464;0,0350838
2835,8105;0,035495
2836,7749;0,035933
2837,7390;0,0364094
2838,7034;0,0369419
2839,6675;0,0375522
2840,6318;0,0382621
2841,5959;0,0390916
2842,5603;0,0400536
2843,5244;0,0411461
2844,4888;0,0423409
2845,4529;0,0435732
2846,4172;0,0447415
2847,3813;0,0457242
2848,3457;0,0464112
2849,3098;0,0467379
2850,2742;0,0467073
2851,2383;0,0463861
2852,2026;0,0458797
2853,1667;0,0452967
2854,1311;0,0447209
2855,0952;0,0442001
2856,0596;0,0437514
2857,0237;0,0433751
2857,9880;0,0430672
2858,9521;0,0428251
2859,9165;0,0426486
2860,8806;0,0425363
2861,8450;0,0424852
2862,8091;0,0424898
2863,7734;0,0425436
2864,7375;0,0426397
2865,7019;0,04277
2866,6660;0,042925
2867,6304;0,0430933
2868,5945;0,0432631
2869,5588;0,0434233
2870,5229;0,0435656
2871,4873;0,0436854
2872,4514;0,0437829
2873,4158;0,0438621
2874,3799;0,0439305
2875,3442;0,0439971
2876,3083;0,044071
2877,2727;0,0441598
2878,2368;0,0442676
2879,2012;0,0443947
2880,1653;0,0445382
2881,1296;0,0446929
2882,0938;0,0448538
2883,0581;0,0450172
2884,0222;0,0451814
2884,9866;0,0453464
2885,9507;0,0455133
2886,9150;0,0456839
2887,8792;0,0458598
2888,8435;0,0460417
2889,8076;0,0462289
2890,7720;0,0464187
2891,7361;0,0466077
2892,7004;0,0467942
2893,6646;0,046979
2894,6289;0,0471664
2895,5930;0,047361
2896,5574;0,0475646
2897,5215;0,0477748
2898,4858;0,047986
2899,4500;0,0481936
2900,4143;0,0483975
2901,3784;0,0486043
2902,3428;0,048825
2903,3069;0,0490711
2904,2712;0,0493518
2905,2354;0,0496737
2906,1997;0,0500449
2907,1638;0,0504789
2908,1282;0,0509972
2909,0923;0,0516248
2910,0566;0,0523807
2911,0208;0,0532634
2911,9851;0,0542402
2912,9492;0,0552446
2913,9136;0,0561854
2914,8777;0,0569681
2915,8420;0,0575178
2916,8062;0,0577969
2917,7705;0,0578093
2918,7346;0,0575909
2919,6990;0,0571924
2920,6631;0,0566639
2921,6274;0,0560475
2922,5916;0,0553772
2923,5559;0,0546826
2924,5200;0,0539901
2925,4844;0,0533206
2926,4485;0,0526855
2927,4128;0,0520848
2928,3770;0,0515111
2929,3413;0,0509552
2930,3054;0,0504123
2931,2698;0,0498832
2932,2339;0,0493722
2933,1982;0,0488834
2934,1624;0,0484177
2935,1267;0,0479725
2936,0908;0,0475433
2937,0552;0,0471253
2938,0193;0,0467141
2938,9836;0,0463062
2939,9478;0,0458985
2940,9121;0,0454891
2941,8762;0,0450784
2942,8406;0,0446696
2943,8047;0,0442694
2944,7690;0,0438868
2945,7332;0,0435313
2946,6975;0,0432102
2947,6616;0,0429267
2948,6260;0,0426789
2949,5901;0,0424602
2950,5544;0,0422613
2951,5186;0,0420729
2952,4829;0,0418877
2953,4470;0,0417006
2954,4114;0,0415083
2955,3755;0,041307
2956,3398;0,0410922
2957,3040;0,0408584
2958,2683;0,0406017
2959,2324;0,0403221
2960,1968;0,0400252
2961,1609;0,03972
2962,1252;0,0394159
2963,0894;0,0391183
2964,0537;0,0388272
2965,0178;0,0385388
2965,9822;0,0382498
2966,9463;0,03796
2967,9106;0,037673
2968,8748;0,037393
2969,8391;0,0371214
2970,8032;0,0368554
2971,7676;0,0365906
2972,7317;0,0363248
2973,6960;0,0360604
2974,6602;0,0358039
2975,6245;0,0355621
2976,5886;0,0353385
2977,5530;0,0351326
2978,5171;0,034942
2979,4814;0,0347649
2980,4456;0,0346021
2981,4099;0,0344554
2982,3740;0,0343258
2983,3384;0,0342117
2984,3025;0,0341097
2985,2668;0,0340159
2986,2310;0,0339282
2987,1953;0,0338457
2988,1594;0,033769
2989,1238;0,0336987
2990,0879;0,0336353
2991,0522;0,0335798
2992,0164;0,0335334
2992,9807;0,0334981
2993,9448;0,0334756
2994,9092;0,0334669
2995,8733;0,0334717
2996,8376;0,0334886
2997,8018;0,0335151
2998,7661;0,0335477
2999,7302;0,0335832
3000,6946;0,0336192
3001,6587;0,0336549
3002,6230;0,0336912
3003,5872;0,0337296
3004,5515;0,0337711
3005,5156;0,0338149
3006,4800;0,0338591
3007,4441;0,0339003
3008,4084;0,0339356
3009,3726;0,0339638
3010,3369;0,0339862
3011,3010;0,034007
3012,2654;0,0340324
3013,2295;0,0340683
3014,1938;0,0341184
3015,1580;0,0341832
3016,1223;0,0342608
3017,0864;0,0343481
3018,0508;0,0344417
3019,0149;0,0345377
3019,9792;0,0346316
3020,9434;0,0347194
3021,9077;0,0347992
3022,8718;0,0348739
3023,8362;0,0349512
3024,8003;0,0350392
3025,7646;0,0351422
3026,7288;0,0352564
3027,6931;0,0353721
3028,6572;0,0354787
3029,6216;0,0355707
3030,5857;0,0356502
3031,5500;0,0357257
3032,5142;0,0358063
3033,4785;0,0358981
3034,4426;0,0360027
3035,4070;0,036119
3036,3711;0,036245
3037,3354;0,0363779
3038,2996;0,0365134
3039,2639;0,0366463
3040,2280;0,036772
3041,1924;0,0368905
3042,1565;0,0370065
3043,1208;0,037128
3044,0850;0,0372615
3045,0493;0,0374081
3046,0134;0,0375635
3046,9778;0,0377207
3047,9419;0,0378749
3048,9063;0,0380251
3049,8704;0,0381737
3050,8347;0,0383224
3051,7988;0,0384704
3052,7632;0,0386148
3053,7273;0,0387534
3054,6917;0,0388877
3055,6558;0,0390235
3056,6201;0,0391686
3057,5842;0,039328
3058,5486;0,039502
3059,5127;0,0396852
3060,4771;0,0398697
3061,4412;0,0400477
3062,4055;0,0402137
3063,3696;0,0403648
3064,3340;0,0405013
3065,2981;0,0406264
3066,2625;0,0407454
3067,2266;0,0408651
3068,1909;0,0409924
3069,1550;0,0411323
3070,1194;0,0412874
3071,0835;0,0414574
3072,0479;0,0416389
3073,0120;0,0418258
3073,9763;0,0420104
3074,9404;0,0421848
3075,9048;0,042344
3076,8689;0,0424879
3077,8333;0,0426214
3078,7974;0,0427526
3079,7617;0,0428886
3080,7258;0,0430331
3081,6902;0,0431852
3082,6543;0,0433416
3083,6187;0,043499
3084,5828;0,0436554
3085,5471;0,043811
3086,5112;0,0439667
3087,4756;0,0441241
3088,4397;0,044285
3089,4041;0,0444505
3090,3682;0,0446205
3091,3325;0,044793
3092,2966;0,0449646
3093,2610;0,0451326
3094,2251;0,0452962
3095,1895;0,0454576
3096,1536;0,0456201
3097,1179;0,0457863
3098,0820;0,0459559
3099,0464;0,0461266
3100,0105;0,0462963
3100,9749;0,0464647
3101,9390;0,0466336
3102,9033;0,0468053
3103,8674;0,0469811
3104,8318;0,0471611
3105,7959;0,0473447
3106,7603;0,0475318
3107,7244;0,0477232
3108,6887;0,0479189
3109,6528;0,0481168
3110,6172;0,048313
3111,5813;0,0485037
3112,5457;0,0486873
3113,5098;0,0488662
3114,4741;0,049045
3115,4382;0,0492278
3116,4026;0,0494157
3117,3667;0,0496063
3118,3311;0,0497956
3119,2952;0,0499811
3120,2595;0,0501634
3121,2236;0,0503454
3122,1880;0,0505302
3123,1521;0,0507193
3124,1165;0,0509122
3125,0806;0,0511073
3126,0449;0,0513035
3127,0090;0,0515007
3127,9734;0,0516997
3128,9375;0,0519018
3129,9019;0,0521083
3130,8660;0,0523203
3131,8303;0,052538
3132,7944;0,0527604
3133,7588;0,0529849
3134,7229;0,0532083
3135,6873;0,0534284
3136,6514;0,0536452
3137,6157;0,0538603
3138,5798;0,0540759
3139,5442;0,0542926
3140,5083;0,054509
3141,4727;0,0547221
3142,4368;0,0549302
3143,4011;0,055134
3144,3652;0,0553378
3145,3296;0,0555475
3146,2937;0,0557682
3147,2581;0,0560011
3148,2222;0,0562427
3149,1865;0,056485
3150,1506;0,0567185
3151,1150;0,0569365
3152,0791;0,0571387
3153,0435;0,0573312
3154,0076;0,0575246
3154,9719;0,057729
3155,9360;0,0579501
3156,9004;0,0581874
3157,8645;0,0584355
3158,8289;0,0586879
3159,7930;0,0589397
3160,7573;0,0591883
3161,7214;0,0594324
3162,6858;0,0596708
3163,6499;0,0599013
3164,6143;0,0601219
3165,5784;0,0603323
3166,5427;0,0605356
3167,5068;0,0607383
3168,4712;0,0609479
3169,4353;0,0611668
3170,3997;0,0614035
3171,3638;0,0616508
3172,3281;0,0619015
3173,2922;0,0621472
3174,2566;0,0623818
3175,2207;0,0626025
3176,1851;0,0628106
3177,1492;0,0630115
3178,1135;0,0632126
3179,0776;0,0634224
3180,0420;0,0636467
3181,0061;0,0638865
3181,9705;0,0641361
3182,9346;0,0643856
3183,8989;0,0646242
3184,8630;0,0648464
3185,8274;0,065054
3186,7915;0,0652558
3187,7559;0,0654614
3188,7200;0,0656765
3189,6843;0,0658996
3190,6484;0,066123
3191,6128;0,0663372
3192,5769;0,0665356
3193,5413;0,0667176
3194,5054;0,0668893
3195,4697;0,0670621
3196,4338;0,0672483
3197,3982;0,0674575
3198,3623;0,0676919
3199,3267;0,0679453
3200,2908;0,0682046
3201,2551;0,0684546
3202,2192;0,068683
3203,1836;0,0688846
3204,1477;0,0690623
3205,1121;0,0692254
3206,0762;0,0693867
3207,0405;0,0695579
3208,0046;0,0697452
3208,9690;0,0699473
3209,9331;0,070155
3210,8975;0,0703557
3211,8616;0,0705399
3212,8259;0,0707068
3213,7900;0,0708661
3214,7544;0,0710321
3215,7185;0,0712151
3216,6829;0,071414
3217,6470;0,0716162
3218,6113;0,0718069
3219,5754;0,0719792
3220,5398;0,0721413
3221,5039;0,0723116
3222,4683;0,0725065
3223,4324;0,0727279
3224,3967;0,072961
3225,3608;0,0731822
3226,3252;0,0733735
3227,2893;0,0735334
3228,2537;0,073677
3229,2178;0,0738261
3230,1821;0,0739966
3231,1462;0,0741908
3232,1106;0,0743999
3233,0747;0,0746112
3234,0391;0,0748154
3235,0032;0,075009
3235,9675;0,0751919
3236,9316;0,0753658
3237,8960;0,0755326
3238,8601;0,0756963
3239,8245;0,0758627
3240,7886;0,0760373
3241,7529;0,0762215
3242,7170;0,076412
3243,6814;0,0766032
3244,6455;0,0767921
3245,6099;0,0769814
3246,5740;0,0771776
3247,5383;0,0773843
3248,5024;0,0775981
3249,4668;0,0778078
3250,4309;0,0780013
3251,3953;0,0781731
3252,3594;0,0783286
3253,3237;0,0784826
3254,2878;0,0786504
3255,2522;0,0788401
3256,2163;0,079049
3257,1807;0,0792665
3258,1448;0,0794811
3259,1091;0,0796857
3260,0732;0,0798795
3261,0376;0,0800656
3262,0017;0,0802481
3262,9661;0,0804297
3263,9302;0,0806116
3264,8945;0,0807951
3265,8586;0,0809814
3266,8230;0,0811711
3267,7871;0,0813625
3268,7515;0,08155
3269,7156;0,0817247
3270,6799;0,0818771
3271,6440;0,0820011
3272,6084;0,0820983
3273,5725;0,0821787
3274,5369;0,0822575
3275,5010;0,0823489
3276,4653;0,0824594
3277,4294;0,0825851
3278,3938;0,0827146
3279,3579;0,0828349
3280,3223;0,0829377
3281,2864;0,0830219
3282,2507;0,0830922
3283,2148;0,0831548
3284,1792;0,0832139
3285,1433;0,0832705
3286,1077;0,0833245
3287,0718;0,0833762
3288,0361;0,0834267
3289,0002;0,0834769
3289,9646;0,0835259
3290,9287;0,0835704
3291,8931;0,0836069
3292,8572;0,083634
3293,8215;0,0836536
3294,7856;0,0836694
3295,7500;0,0836849
3296,7141;0,0837018
3297,6785;0,0837203
3298,6426;0,0837407
3299,6069;0,0837648
3300,5710;0,0837944
3301,5354;0,0838293
3302,4995;0,0838654
3303,4639;0,0838956
3304,4280;0,0839136
3305,3923;0,0839182
3306,3564;0,0839145
3307,3208;0,0839115
3308,2849;0,0839165
3309,2493;0,0839312
3310,2134;0,0839513
3311,1777;0,0839712
3312,1418;0,0839889
3313,1062;0,0840088
3314,0703;0,0840401
3315,0347;0,0840923
3315,9988;0,0841702
3316,9631;0,0842719
3317,9272;0,0843892
3318,8916;0,0845111
3319,8557;0,0846277
3320,8201;0,0847332
3321,7842;0,0848259
3322,7485;0,084908
3323,7126;0,0849827
3324,6770;0,0850529
3325,6411;0,0851208
3326,6055;0,0851895
3327,5696;0,0852633
3328,5339;0,0853465
3329,4980;0,0854404
3330,4624;0,0855404
3331,4265;0,085636
3332,3909;0,0857144
3333,3550;0,0857656
3334,3193;0,0857866
3335,2834;0,0857812
3336,2478;0,0857569
3337,2119;0,0857197
3338,1763;0,0856719
3339,1404;0,0856129
3340,1047;0,0855423
3341,0688;0,0854618
3342,0332;0,0853752
3342,9973;0,0852862
3343,9617;0,0851966
3344,9258;0,0851043
3345,8901;0,0850053
3346,8542;0,0848947
3347,8186;0,0847691
3348,7827;0,0846277
3349,7471;0,084472
3350,7112;0,0843059
3351,6755;0,0841349
3352,6396;0,0839654
3353,6040;0,0838038
3354,5681;0,0836539
3355,5325;0,0835151
3356,4966;0,083382
3357,4609;0,0832465
3358,4250;0,0831032
3359,3894;0,0829532
3360,3535;0,0828046
3361,3179;0,0826674
3362,2820;0,0825461
3363,2463;0,082435
3364,2104;0,0823194
3365,1748;0,0821842
3366,1389;0,0820223
3367,1033;0,0818389
3368,0674;0,0816477
3369,0317;0,0814625
3369,9958;0,0812901
3370,9602;0,0811296
3371,9243;0,0809769
3372,8887;0,0808287
3373,8528;0,0806845
3374,8171;0,0805435
3375,7813;0,0804021
3376,7456;0,0802538
3377,7097;0,0800925
3378,6741;0,0799174
3379,6382;0,0797335
3380,6025;0,0795495
3381,5667;0,0793728
3382,5310;0,0792065
3383,4951;0,0790501
3384,4595;0,0789025
3385,4236;0,078763
3386,3879;0,0786306
3387,3521;0,0785014
3388,3164;0,0783672
3389,2805;0,0782186
3390,2449;0,0780493
3391,2090;0,0778611
3392,1733;0,0776635
3393,1375;0,0774693
3394,1018;0,0772884
3395,0659;0,0771241
3396,0303;0,0769738
3396,9944;0,0768317
3397,9587;0,0766915
3398,9229;0,0765468
3399,8872;0,0763911
3400,8513;0,0762191
3401,8157;0,0760284
3402,7798;0,0758213
3403,7441;0,075604
3404,7083;0,075384
3405,6726;0,0751678
3406,6367;0,074959
3407,6011;0,0747583
3408,5652;0,0745636
3409,5295;0,0743711
3410,4937;0,0741755
3411,4580;0,0739727
3412,4221;0,0737629
3413,3865;0,0735505
3414,3506;0,0733413
3415,3149;0,0731363
3416,2791;0,0729276
3417,2434;0,0727008
3418,2075;0,0724429
3419,1719;0,0721525
3420,1360;0,0718447
3421,1003;0,0715458
3422,0645;0,0712799
3423,0288;0,0710563
3423,9929;0,0708662
3424,9573;0,0706889
3425,9214;0,0705024
3426,8857;0,0702924
3427,8499;0,0700571
3428,8142;0,0698062
3429,7783;0,0695545
3430,7427;0,069313
3431,7068;0,0690836
3432,6711;0,0688583
3433,6353;0,0686252
3434,5996;0,0683756
3435,5637;0,0681087
3436,5281;0,0678306
3437,4922;0,0675509
3438,4565;0,0672789
3439,4207;0,0670211
3440,3850;0,0667801
3441,3491;0,0665526
3442,3135;0,0663271
3443,2776;0,0660853
3444,2419;0,0658085
3445,2061;0,0654893
3446,1704;0,0651404
3447,1345;0,0647926
3448,0989;0,0644791
3449,0630;0,0642158
3450,0273;0,0639951
3450,9915;0,0637936
3451,9558;0,0635878
3452,9199;0,0633658
3453,8843;0,0631294
3454,8484;0,0628875
3455,8127;0,0626464
3456,7769;0,0624036
3457,7412;0,0621508
3458,7053;0,0618809
3459,6697;0,0615945
3460,6338;0,0613014
3461,5981;0,0610144
3462,5623;0,0607414
3463,5266;0,0604801
3464,4907;0,0602202
3465,4551;0,0599508
3466,4192;0,059669
3467,3835;0,0593824
3468,3477;0,0591044
3469,3120;0,0588444
3470,2761;0,0586004
3471,2405;0,05836
3472,2046;0,0581098
3473,1689;0,0578465
3474,1331;0,0575811
3475,0974;0,0573306
3476,0615;0,0571036
3477,0259;0,0568914
3477,9900;0,0566709
3478,9543;0,0564186
3479,9185;0,0561272
3480,8828;0,055812
3481,8469;0,0555029
3482,8113;0,055224
3483,7754;0,0549793
3484,7397;0,0547525
3485,7039;0,0545204
3486,6682;0,0542677
3487,6323;0,0539957
3488,5967;0,0537189
3489,5608;0,0534545
3490,5251;0,0532094
3491,4893;0,052976
3492,4536;0,0527377
3493,4177;0,0524808
3494,3821;0,0522066
3495,3462;0,0519346
3496,3105;0,0516911
3497,2747;0,0514893
3498,2390;0,0513149
3499,2031;0,0511291
3500,1675;0,0508877
3501,1316;0,0505696
3502,0959;0,0501972
3503,0601;0,0498299
3504,0244;0,0495247
3504,9885;0,0492968
3505,9529;0,0491138
3506,9170;0,0489222
3507,8813;0,048681
3508,8455;0,0483854
3509,8098;0,0480669
3510,7739;0,0477699
3511,7383;0,0475213
3512,7024;0,0473183
3513,6667;0,0471392
3514,6309;0,0469631
3515,5952;0,046782
3516,5593;0,0465985
3517,5237;0,046416
3518,4878;0,046228
3519,4521;0,0460189
3520,4163;0,045772
3521,3806;0,0454822
3522,3447;0,0451617
3523,3091;0,044833
3524,2732;0,0445144
3525,2375;0,0442082
3526,2017;0,0439049
3527,1660;0,0435977
3528,1301;0,0432955
3529,0945;0,0430203
3530,0586;0,0427908
3531,0229;0,0426064
3531,9871;0,0424449
3532,9514;0,0422732
3533,9155;0,0420645
3534,8799;0,0418128
3535,8440;0,0415377
3536,8083;0,0412765
3537,7725;0,0410635
3538,7368;0,0409122
3539,7009;0,0408078
3540,6653;0,040712
3541,6294;0,0405722
3542,5938;0,0403374
3543,5579;0,0399835
3544,5222;0,0395407
3545,4863;0,0390922
3546,4507;0,0387257
3547,4148;0,0384739
3548,3792;0,0382998
3549,3433;0,0381307
3550,3076;0,0379031
3551,2717;0,0375978
3552,2361;0,0372507
3553,2002;0,0369285
3554,1646;0,0366804
3555,1287;0,0365062
3556,0930;0,0363661
3557,0571;0,0362144
3558,0215;0,0360319
3558,9856;0,0358389
3559,9500;0,03568
3560,9141;0,035587
3561,8784;0,0355445
3562,8425;0,0354805
3563,8069;0,0352824
3564,7710;0,0348446
3565,7354;0,0341585
3566,6995;0,0333851
3567,6638;0,0327676
3568,6279;0,0324274
3569,5923;0,0323106
3570,5564;0,0322929
3571,5208;0,032269
3572,4849;0,0321788
3573,4492;0,032006
3574,4133;0,0317693
3575,3777;0,0315017
3576,3418;0,0312293
3577,3062;0,0309627
3578,2703;0,0307096
3579,2346;0,0304901
3580,1987;0,0303359
3581,1631;0,0302673
3582,1272;0,0302674
3583,0916;0,0302702
3584,0557;0,0301706
3585,0200;0,0298619
3585,9841;0,0293166
3586,9485;0,028665
3587,9126;0,0281368
3588,8770;0,027867
3589,8411;0,0278115
3590,8054;0,0278355
3591,7695;0,0278115
3592,7339;0,0276643
3593,6980;0,0273915
3594,6624;0,0270574
3595,6265;0,0267432
3596,5908;0,0264819
3597,5549;0,0262454
3598,5193;0,0259892
3599,4834;0,0257065
3600,4478;0,0254438
3601,4119;0,0252633
3602,3762;0,0251891
3603,3403;0,0251859
3604,3047;0,0251808
3605,2688;0,0250989
3606,2332;0,0249011
3607,1973;0,0246082
3608,1616;0,0242888
3609,1257;0,0240043
3610,0901;0,0237663
3611,0542;0,02355
3612,0186;0,0233366
3612,9827;0,0231362
3613,9470;0,0229708
3614,9111;0,0228384
3615,8755;0,0226923
3616,8396;0,0224579
3617,8040;0,0220868
3618,7681;0,0216211
3619,7324;0,0211988
3620,6965;0,0209585
3621,6609;0,0209443
3622,6250;0,0211089
3623,5894;0,0213624
3624,5535;0,0215929
3625,5178;0,0216587
3626,4819;0,0214015
3627,4463;0,0207502
3628,4104;0,0198855
3629,3748;0,0191725
3630,3389;0,0188079
3631,3032;0,0187101
3632,2673;0,0187103
3633,2317;0,0186899
3634,1958;0,0186014
3635,1602;0,0184509
3636,1243;0,0182707
3637,0886;0,0180915
3638,0527;0,0179289
3639,0171;0,0177902
3639,9812;0,0176902
3640,9456;0,0176553
3641,9097;0,0177108
3642,8740;0,0178594
3643,8381;0,0180648
3644,8025;0,018241
3645,7666;0,0182409
3646,7310;0,0178753
3647,6951;0,0170573
3648,6594;0,0160617
3649,6235;0,0153965
3650,5879;0,0152304
3651,5520;0,0153544
3652,5164;0,0155262
3653,4805;0,0155949
3654,4448;0,0154872
3655,4089;0,0152091
3656,3733;0,0148536
3657,3374;0,0145504
3658,3018;0,0143736
3659,2659;0,0143096
3660,2302;0,0143049
3661,1943;0,0143229
3662,1587;0,0143665
3663,1228;0,0144615
3664,0872;0,0146194
3665,0513;0,0148077
3666,0156;0,0149485
3666,9797;0,0149452
3667,9441;0,0147482
3668,9082;0,0144366
3669,8726;0,014201
3670,8367;0,0141692
3671,8010;0,0142832
3672,7651;0,0143589
3673,7295;0,0142065
3674,6936;0,0137543
3675,6580;0,0131514
3676,6221;0,0126672
3677,5864;0,0124346
3678,5505;0,0123994
3679,5149;0,0124601
3680,4790;0,0125582
3681,4434;0,0126859
3682,4075;0,0128605
3683,3718;0,0130922
3684,3359;0,0133581
3685,3003;0,0135903
3686,2644;0,0136797
3687,2288;0,0135142
3688,1929;0,0130763
3689,1572;0,012535
3690,1213;0,0121415
3691,0857;0,011999
3692,0498;0,0120382
3693,0142;0,0121529
3693,9783;0,0122787
3694,9426;0,0123948
3695,9067;0,012502
3696,8711;0,0125992
3697,8352;0,0126679
3698,7996;0,0126743
3699,7637;0,0125915
3700,7280;0,0124332
3701,6921;0,0122693
3702,6565;0,0121909
3703,6206;0,012251
3704,5850;0,0124409
3705,5491;0,0127071
3706,5134;0,0129707
3707,4775;0,0131315
3708,4419;0,0130782
3709,4060;0,0127443
3710,3704;0,0122134
3711,3345;0,0117304
3712,2988;0,0115036
3713,2629;0,0115466
3714,2273;0,0117526
3715,1914;0,0120124
3716,1558;0,0122521
3717,1199;0,0124294
3718,0842;0,0125293
3719,0483;0,0125625
3720,0127;0,0125552
3720,9768;0,0125277
3721,9412;0,0124796
3722,9053;0,0123996
3723,8696;0,012296
3724,8337;0,012214
3725,7981;0,0122152
3726,7622;0,0123363
3727,7266;0,0125683
3728,6907;0,0128666
3729,6550;0,0131671
3730,6191;0,0133924
3731,5835;0,0134521
3732,5476;0,0132617
3733,5120;0,0128091
3734,4761;0,0122397
3735,4404;0,011811
3736,4045;0,0116872
3737,3689;0,0118459
3738,3330;0,0121804
3739,2974;0,012589
3740,2615;0,0129829
3741,2258;0,0132674
3742,1899;0,0133518
3743,1543;0,0132175
3744,1184;0,0129912
3745,0828;0,0128675
3746,0469;0,0129161
3747,0112;0,0130364
3747,9753;0,0130536
3748,9397;0,0128184
3749,9038;0,0123309
3750,8682;0,011824
3751,8323;0,0115717
3752,7966;0,0116134
3753,7607;0,011806
3754,7251;0,0119998
3755,6892;0,012097
3756,6536;0,0120547
3757,6177;0,0118991
3758,5820;0,0117259
3759,5461;0,0116413
3760,5105;0,0116857
3761,4746;0,0118247
3762,4390;0,0119949
3763,4031;0,0121407
3764,3674;0,0122278
3765,3315;0,0122421
3766,2959;0,0121835
3767,2600;0,0120602
3768,2244;0,0118898
3769,1885;0,011707
3770,1528;0,011564
3771,1169;0,0115085
3772,0813;0,0115571
3773,0454;0,0116894
3774,0098;0,0118594
3774,9739;0,0120114
3775,9382;0,0120939
3776,9023;0,0120788
3777,8667;0,0119849
3778,8308;0,0118743
3779,7952;0,011808
3780,7593;0,0118012
3781,7236;0,0118245
3782,6877;0,0118372
3783,6521;0,0118151
3784,6162;0,0117598
3785,5806;0,0116933
3786,5447;0,0116441
3787,5090;0,0116344
3788,4731;0,0116762
3789,4375;0,0117711
3790,4016;0,0119099
3791,3660;0,0120713
3792,3301;0,0122276
3793,2944;0,0123569
3794,2585;0,0124573
3795,2229;0,0125496
3796,1870;0,0126569
3797,1514;0,0127725
3798,1155;0,0128461
3799,0798;0,0128095
3800,0439;0,0126376
3801,0083;0,0123952
3801,9724;0,0121953
3802,9368;0,012091
3803,9009;0,0120371
3804,8652;0,0119489
3805,8293;0,0117813
3806,7937;0,0115807
3807,7578;0,0114631
3808,7222;0,0115195
3809,6863;0,0117493
3810,6506;0,0120825
3811,6147;0,0124283
3812,5791;0,0127018
3813,5432;0,0128483
3814,5076;0,012875
3815,4717;0,0128521
3816,4360;0,012844
3817,4001;0,0128345
3818,3645;0,0127398
3819,3286;0,0124946
3820,2930;0,0121391
3821,2571;0,0118145
3822,2214;0,0116424
3823,1855;0,0116335
3824,1499;0,0117235
3825,1140;0,011846
3826,0784;0,0119643
3827,0425;0,0120709
3828,0068;0,0121749
3828,9709;0,0122878
3829,9353;0,0124162
3830,8994;0,0125626
3831,8638;0,0127278
3832,8279;0,0129053
3833,7922;0,0130703
3834,7563;0,0131725
3835,7207;0,0131487
3836,6848;0,0129607
3837,6492;0,0126408
3838,6133;0,0122902
3839,5776;0,0120074
3840,5417;0,0118228
3841,5061;0,0117124
3842,4702;0,0116511
3843,4346;0,0116445
3844,3987;0,0117251
3845,3630;0,0119261
3846,3271;0,0122596
3847,2915;0,0127074
3848,2556;0,0132184
3849,2200;0,013696
3850,1841;0,0139747
3851,1484;0,0138305
3852,1125;0,0131455
3853,0769;0,0122042
3854,0410;0,0115442
3855,0054;0,0113593
3855,9695;0,0114914
3856,9338;0,011766
3857,8979;0,0120844
3858,8623;0,0123816
3859,8264;0,0125959
3860,7908;0,0126748
3861,7549;0,0126118
3862,7192;0,0124785
3863,6833;0,0123948
3864,6477;0,0124373
3865,6118;0,0125873
3866,5762;0,0127588
3867,5403;0,012853
3868,5046;0,0127996
3869,4688;0,012589
3870,4331;0,0122859
3871,3972;0,012
3872,3616;0,0118248
3873,3257;0,0117972
3874,2900;0,0119008
3875,2542;0,0120894
3876,2185;0,012304
3877,1826;0,012486
3878,1470;0,0125924
3879,1111;0,0126144
3880,0754;0,0125821
3881,0396;0,0125373
3882,0039;0,0124952
3882,9680;0,0124406
3883,9324;0,0123633
3884,8965;0,0122894
3885,8608;0,0122669
3886,8250;0,0123166
3887,7893;0,0124031
3888,7534;0,012451
3889,7178;0,0123914
3890,6819;0,0122211
3891,6462;0,0120333
3892,6104;0,0119583
3893,5747;0,0120594
3894,5388;0,0123041
3895,5032;0,0126129
3896,4673;0,0129038
3897,4316;0,0131107
3898,3958;0,0131936
3899,3601;0,0131433
3900,3242;0,0129703
3901,2886;0,0126926
3902,2527;0,0123457
3903,2170;0,0120008
3904,1812;0,0117435
3905,1455;0,0116214
3906,1096;0,0116214
3907,0740;0,011696
3908,0381;0,0117999
3909,0024;0,0119083
3909,9666;0,0120182
3910,9309;0,0121385
3911,8950;0,0122745
3912,8594;0,0124131
3913,8235;0,0125211
3914,7878;0,0125586
3915,7520;0,0125066
3916,7163;0,0123909
3917,6804;0,0122743
3918,6448;0,0122137
3919,6089;0,0122202
3920,5732;0,0122605
3921,5374;0,0122862
3922,5017;0,0122659
3923,4658;0,0122071
3924,4302;0,0121522
3925,3943;0,0121469
3926,3586;0,0122043
3927,3228;0,0122969
3928,2871;0,0123739
3929,2512;0,0123874
3930,2156;0,0123187
3931,1797;0,0121926
3932,1440;0,0120649
3933,1082;0,0119862
3934,0725;0,0119762
3935,0366;0,0120262
3936,0010;0,0121145
3936,9651;0,0122157
3937,9294;0,012304
3938,8936;0,0123559
3939,8579;0,0123585
3940,8220;0,0123198
3941,7864;0,0122703
3942,7505;0,0122474
3943,7148;0,0122696
3944,6790;0,012323
3945,6433;0,0123722
3946,6074;0,0123824
3947,5718;0,0123412
3948,5359;0,0122665
3949,5002;0,0121952
3950,4644;0,0121577
3951,4287;0,0121595
3952,3928;0,0121857
3953,3572;0,012216
3954,3213;0,0122381
3955,2856;0,0122499
3956,2498;0,0122547
3957,2141;0,0122544
3958,1782;0,0122477
3959,1426;0,012233
3960,1067;0,0122138
3961,0710;0,012199
3962,0352;0,0121976
3962,9995;0,012212
3963,9636;0,0122366
3964,9280;0,0122619
3965,8921;0,0122806
3966,8564;0,0122913
3967,8206;0,0122972
3968,7849;0,0123024
3969,7490;0,0123084
3970,7134;0,0123128
3971,6775;0,012312
3972,6418;0,0123043
3973,6060;0,0122916
3974,5703;0,012278
3975,5344;0,0122673
3976,4988;0,0122615
3977,4629;0,0122599
3978,4272;0,0122608
3979,3914;0,0122626
3980,3557;0,0122642
3981,3198;0,0122656
3982,2842;0,0122669
3983,2483;0,0122691
3984,2126;0,0122727
3985,1768;0,0122786
3986,1411;0,012287
3987,1052;0,012298
3988,0696;0,0123112
3989,0337;0,0123251
3989,9980;0,0123374
3990,9622;0,0123446
3991,9265;0,0123439
3992,8906;0,0123348
3993,8550;0,0123212
3994,8191;0,0123095
3995,7834;0,0123065
3996,7476;0,0123146
3997,7119;0,0123309
3998,6760;0,0123497
3999,6404;0,0123662
4000,6045;0,0122936

##### Extended Information
[Comments]
Sample name
Comment
Username
Division
Organization;UNIVERSIDAD INDUSTRIAL DE SANTANDER

[Detailed Information]
Creation date;10/03/2025 8:50 p.m.

Data array type;Linear data array
Horizontal axis;Wavenumber [cm-1]
Vertical axis;Abs
Start;399,193 cm-1
End;4000,6 cm-1
Data interval;0,964233 cm-1
Data points;3736    

[Measurement Information]
Model name;FT/IR-4X1typeA
Serial No.;A035162111

Accessory;ATR PRO 4X
Accessory S/N;A021162126
Incident angle;45 deg

Measurement date;10/03/2025 8:49 p.m.

Light source;Standard
Detector;TGS
Accumulation;40
Resolution;4 cm-1
Zero filling;On
Apodization;Cosine
Gain;Auto (8)
Aperture;Auto (7 mm)
Scan speed;Auto (2 mm/sec)
Filter;Auto (12800 Hz)

