TITLE;
DATA TYPE;INFRARED SPECTRUM
ORIGIN;JASCO
OWNER;
DATE;25/03/28
TIME;11:25:08
SPECTROMETER/DATA SYSTEM;
LOCALE;9226
RESOLUTION;
DELTAX;0,964233
XUNITS;1/CM
YUNITS;ABSORBANCE
FIRSTX;  399,1927
LASTX; 4000,6047
NPOINTS;    3736
FIRSTY;     0,34758
MAXY;     0,41786
MINY;    -0,01786
XYDATA
399,1927;0,347581
400,1569;0,346511
401,1211;0,348084
402,0854;0,351262
403,0496;0,354789
404,0138;0,357632
404,9781;0,359158
405,9423;0,359257
406,9065;0,358338
407,8708;0,357071
408,8350;0,35604
409,7992;0,355564
410,7635;0,35576
411,7277;0,356684
412,6919;0,358355
413,6562;0,360675
414,6204;0,363327
415,5846;0,365728
416,5489;0,367036
417,5131;0,366403
418,4773;0,363797
419,4416;0,360777
420,4058;0,359473
421,3700;0,360634
422,3343;0,363538
423,2985;0,367063
424,2627;0,370313
425,2270;0,372752
426,1912;0,374202
427,1554;0,374751
428,1197;0,374593
429,0839;0,373896
430,0481;0,372793
431,0124;0,371434
431,9766;0,370016
432,9408;0,368726
433,9051;0,367661
434,8693;0,366804
435,8335;0,366077
436,7978;0,365424
437,7620;0,364826
438,7262;0,364251
439,6905;0,363584
440,6547;0,362645
441,6189;0,361298
442,5832;0,3596
443,5474;0,357881
444,5116;0,356605
445,4759;0,356087
446,4401;0,356301
447,4043;0,356916
448,3686;0,3575
449,3328;0,357754
450,2970;0,357649
451,2613;0,357389
452,2255;0,357227
453,1897;0,357253
454,1540;0,357309
455,1182;0,357084
456,0824;0,356341
457,0467;0,355157
458,0109;0,353993
458,9751;0,35342
459,9394;0,35366
460,9036;0,354429
461,8678;0,35517
462,8321;0,355394
463,7963;0,354903
464,7605;0,353864
465,7248;0,352709
466,6890;0,351893
467,6532;0,351623
468,6175;0,351767
469,5817;0,351974
470,5459;0,351896
471,5102;0,351415
472,4744;0,350721
473,4386;0,350163
474,4029;0,349963
475,3671;0,350055
476,3313;0,350174
477,2956;0,350063
478,2598;0,349625
479,2240;0,34895
480,1883;0,348241
481,1525;0,347682
482,1167;0,347352
483,0810;0,347234
484,0452;0,347287
485,0094;0,347506
485,9737;0,347925
486,9379;0,348559
487,9021;0,34935
488,8664;0,350174
489,8306;0,350876
490,7948;0,351331
491,7591;0,351479
492,7233;0,351335
493,6875;0,350966
494,6518;0,350463
495,6160;0,349924
496,5802;0,349462
497,5445;0,349195
498,5087;0,34923
499,4729;0,34963
500,4372;0,350378
501,4014;0,351363
502,3656;0,352398
503,3299;0,353298
504,2941;0,353945
505,2583;0,354329
506,2226;0,354526
507,1868;0,354658
508,1510;0,354841
509,1153;0,355144
510,0795;0,355573
511,0437;0,356076
512,0080;0,356579
512,9722;0,357025
513,9365;0,357388
514,9007;0,357676
515,8649;0,357911
516,8292;0,358115
517,7934;0,358294
518,7576;0,358436
519,7219;0,358519
520,6861;0,358513
521,6503;0,358379
522,6146;0,358081
523,5788;0,35761
524,5430;0,357014
525,5073;0,35641
526,4715;0,355942
527,4357;0,355695
528,4000;0,355627
529,3642;0,355589
530,3284;0,355395
531,2927;0,354918
532,2569;0,354135
533,2211;0,353138
534,1854;0,352073
535,1496;0,351071
536,1138;0,350196
537,0781;0,349446
538,0423;0,348794
539,0065;0,348222
539,9708;0,347733
540,9350;0,347329
541,8992;0,347001
542,8635;0,346731
543,8277;0,346518
544,7919;0,346398
545,7562;0,346429
546,7204;0,34665
547,6846;0,347035
548,6489;0,34748
549,6131;0,347844
550,5773;0,348016
551,5416;0,347965
552,5058;0,347743
553,4700;0,347442
554,4343;0,347129
555,3985;0,346801
556,3627;0,346384
557,3270;0,345764
558,2912;0,344849
559,2554;0,343613
560,2197;0,342112
561,1839;0,340466
562,1481;0,33882
563,1124;0,337287
564,0766;0,335922
565,0408;0,334717
566,0051;0,333629
566,9693;0,332626
567,9335;0,331709
568,8978;0,330907
569,8620;0,330236
570,8262;0,32967
571,7905;0,329135
572,7547;0,328546
573,7189;0,327861
574,6832;0,327101
575,6474;0,326346
576,6116;0,325682
577,5759;0,325148
578,5401;0,324709
579,5043;0,324289
580,4686;0,323814
581,4328;0,323254
582,3970;0,322629
583,3613;0,321978
584,3255;0,321334
585,2897;0,320711
586,2540;0,320109
587,2182;0,319528
588,1824;0,31897
589,1467;0,318417
590,1109;0,317823
591,0751;0,31712
592,0394;0,316258
593,0036;0,315244
593,9678;0,314155
594,9321;0,313099
595,8963;0,312161
596,8605;0,311366
597,8248;0,310672
598,7890;0,310008
599,7532;0,309312
600,7175;0,308558
601,6817;0,307759
602,6459;0,306943
603,6102;0,306136
604,5744;0,30535
605,5386;0,304581
606,5029;0,303817
607,4671;0,303036
608,4313;0,302213
609,3956;0,301328
610,3598;0,300386
611,3240;0,299415
612,2883;0,298463
613,2525;0,297564
614,2167;0,296707
615,1810;0,295824
616,1452;0,294809
617,1094;0,293562
618,0737;0,292048
619,0379;0,290314
620,0021;0,288463
620,9664;0,286598
621,9306;0,284791
622,8948;0,28308
623,8591;0,281483
624,8233;0,27997
625,7875;0,278626
626,7518;0,27744
627,7160;0,276383
628,6802;0,275401
629,6445;0,274442
630,6087;0,273457
631,5729;0,272411
632,5372;0,271288
633,5014;0,2701
634,4656;0,268888
635,4299;0,26772
636,3941;0,266666
637,3583;0,265763
638,3226;0,264996
639,2868;0,264301
640,2510;0,263598
641,2153;0,262829
642,1795;0,261992
643,1437;0,261138
644,1080;0,260338
645,0722;0,259645
646,0364;0,259062
647,0007;0,258551
647,9649;0,258057
648,9291;0,257543
649,8934;0,257002
650,8576;0,256455
651,8218;0,255934
652,7861;0,255471
653,7503;0,255098
654,7145;0,254838
655,6788;0,254695
656,6430;0,254632
657,6072;0,25459
658,5715;0,254504
659,5357;0,254327
660,4999;0,254026
661,4642;0,253546
662,4284;0,252762
663,3926;0,251481
664,3569;0,24951
665,3211;0,246818
666,2853;0,243679
667,2496;0,240676
668,2138;0,238444
669,1780;0,2373
670,1423;0,237062
671,1065;0,237062
672,0707;0,236573
673,0350;0,235217
673,9992;0,233047
674,9634;0,230412
675,9277;0,227738
676,8919;0,225303
677,8561;0,223143
678,8204;0,221145
679,7846;0,219223
680,7488;0,217394
681,7131;0,215744
682,6773;0,21434
683,6415;0,213181
684,6058;0,212216
685,5700;0,211378
686,5342;0,210617
687,4985;0,209896
688,4627;0,209203
689,4269;0,208532
690,3912;0,207904
691,3554;0,207348
692,3196;0,20687
693,2839;0,20644
694,2481;0,205999
695,2123;0,205496
696,1766;0,204914
697,1408;0,204276
698,1050;0,203624
699,0693;0,202988
700,0335;0,202372
700,9977;0,201752
701,9620;0,201099
702,9262;0,200385
703,8904;0,199578
704,8547;0,198674
705,8189;0,19767
706,7831;0,196575
707,7474;0,195405
708,7116;0,194191
709,6758;0,192969
710,6401;0,191777
711,6043;0,190636
712,5685;0,189549
713,5328;0,188498
714,4970;0,18745
715,4612;0,185523
716,4255;0,184589
717,3897;0,183684
718,3539;0,182774
719,3182;0,181812
720,2824;0,180765
721,2466;0,179634
722,2109;0,178459
723,1751;0,177297
724,1393;0,176193
725,1036;0,175167
726,0678;0,174217
727,0320;0,173326
727,9963;0,172473
728,9605;0,171639
729,9247;0,170812
730,8890;0,169992
731,8532;0,169191
732,8174;0,168435
733,7817;0,167744
734,7459;0,167129
735,7101;0,166585
736,6744;0,16609
737,6386;0,165619
738,6028;0,165145
739,5671;0,164649
740,5313;0,164116
741,4955;0,163538
742,4598;0,162916
743,4240;0,16226
744,3882;0,161591
745,3525;0,160935
746,3167;0,160309
747,2809;0,159719
748,2452;0,159154
749,2094;0,158592
750,1736;0,158016
751,1379;0,15742
752,1021;0,156816
753,0663;0,15622
754,0306;0,155644
754,9948;0,155085
755,9590;0,154526
756,9233;0,153949
757,8875;0,153354
758,8517;0,152759
759,8160;0,152191
760,7802;0,151666
761,7444;0,151186
762,7087;0,150732
763,6729;0,150285
764,6371;0,149838
765,6014;0,149392
766,5656;0,148953
767,5298;0,148512
768,4941;0,148044
769,4583;0,147517
770,4225;0,146907
771,3868;0,146216
772,3510;0,145472
773,3152;0,144725
774,2795;0,144022
775,2437;0,143394
776,2079;0,142843
777,1722;0,142341
778,1364;0,141836
779,1006;0,141276
780,0649;0,140622
781,0291;0,139866
781,9933;0,139031
782,9576;0,138161
783,9218;0,137302
784,8860;0,136489
785,8503;0,135742
786,8145;0,135068
787,7787;0,134477
788,7430;0,133974
789,7072;0,13356
790,6714;0,133222
791,6357;0,13294
792,5999;0,132693
793,5641;0,132472
794,5284;0,132291
795,4926;0,132172
796,4568;0,132138
797,4211;0,132194
798,3853;0,132323
799,3495;0,132495
800,3138;0,132677
801,2780;0,132843
802,2422;0,132976
803,2065;0,133059
804,1707;0,133076
805,1349;0,133013
806,0992;0,132858
807,0634;0,132612
808,0276;0,132285
808,9919;0,131891
809,9561;0,13144
810,9203;0,130929
811,8846;0,130343
812,8488;0,129664
813,8130;0,128884
814,7773;0,12801
815,7415;0,127065
816,7057;0,126078
817,6700;0,125074
818,6342;0,124068
819,5984;0,123067
820,5627;0,122083
821,5269;0,121132
822,4911;0,120242
823,4554;0,119435
824,4196;0,11873
825,3839;0,118125
826,3481;0,117608
827,3123;0,117154
828,2766;0,116737
829,2408;0,116334
830,2050;0,115929
831,1693;0,115509
832,1335;0,115067
833,0977;0,114599
834,0620;0,114106
835,0262;0,113589
835,9904;0,113053
836,9547;0,112503
837,9189;0,111948
838,8831;0,111396
839,8474;0,11086
840,8116;0,110357
841,7758;0,109905
842,7401;0,109522
843,7043;0,109221
844,6685;0,109013
845,6328;0,108903
846,5970;0,108893
847,5612;0,108985
848,5255;0,109175
849,4897;0,109456
850,4539;0,109815
851,4182;0,110232
852,3824;0,110683
853,3466;0,111143
854,3109;0,111587
855,2751;0,111989
856,2393;0,112328
857,2036;0,11259
858,1678;0,112775
859,1320;0,112898
860,0963;0,112984
861,0605;0,113054
862,0247;0,113115
862,9890;0,113155
863,9532;0,113154
864,9174;0,1131
865,8817;0,112998
866,8459;0,112875
867,8101;0,112767
868,7744;0,112708
869,7386;0,112715
870,7028;0,112793
871,6671;0,112931
872,6313;0,113115
873,5955;0,11333
874,5598;0,113566
875,5240;0,113824
876,4882;0,114111
877,4525;0,114439
878,4167;0,114822
879,3809;0,115265
880,3452;0,115768
881,3094;0,116327
882,2736;0,116941
883,2379;0,117612
884,2021;0,118344
885,1663;0,119137
886,1306;0,119981
887,0948;0,12086
888,0590;0,121752
889,0233;0,122635
889,9875;0,123487
890,9517;0,124284
891,9160;0,124998
892,8802;0,125596
893,8444;0,126042
894,8087;0,126303
895,7729;0,126353
896,7371;0,126178
897,7014;0,125779
898,6656;0,125168
899,6298;0,12437
900,5941;0,123418
901,5583;0,122348
902,5225;0,121199
903,4868;0,120015
904,4510;0,118838
905,4152;0,117707
906,3795;0,116657
907,3437;0,115707
908,3079;0,114871
909,2722;0,114155
910,2364;0,11356
911,2007;0,113087
912,1649;0,112727
913,1292;0,11247
914,0934;0,112303
915,0576;0,112217
916,0219;0,112216
916,9861;0,112311
917,9503;0,112517
918,9146;0,112838
919,8788;0,113262
920,8430;0,113765
921,8073;0,114318
922,7715;0,114899
923,7357;0,115497
924,7000;0,11612
925,6642;0,116781
926,6284;0,117495
927,5927;0,118271
928,5569;0,119108
929,5211;0,119999
930,4854;0,120934
931,4496;0,12191
932,4138;0,122932
933,3781;0,124013
934,3423;0,12516
935,3065;0,126373
936,2708;0,127641
937,2350;0,128944
938,1992;0,130266
939,1635;0,131601
940,1277;0,13295
941,0919;0,134318
942,0562;0,135713
943,0204;0,137136
943,9846;0,138591
944,9489;0,140079
945,9131;0,141604
946,8773;0,143171
947,8416;0,144785
948,8058;0,146451
949,7700;0,148174
950,7343;0,149962
951,6985;0,151821
952,6627;0,153755
953,6270;0,155769
954,5912;0,157864
955,5554;0,160045
956,5197;0,162314
957,4839;0,164668
958,4481;0,167095
959,4124;0,169574
960,3766;0,172074
961,3408;0,174565
962,3051;0,17703
963,2693;0,179464
964,2335;0,181881
965,1978;0,184304
966,1620;0,18676
967,1262;0,189267
968,0905;0,191836
969,0547;0,194474
970,0189;0,197189
970,9832;0,200008
971,9474;0,202973
972,9116;0,20614
973,8759;0,209569
974,8401;0,213306
975,8043;0,21738
976,7686;0,221804
977,7328;0,226574
978,6970;0,231675
979,6613;0,237075
980,6255;0,242719
981,5897;0,248526
982,5540;0,254394
983,5182;0,260219
984,4824;0,265916
985,4467;0,271435
986,4109;0,276764
987,3751;0,281919
988,3394;0,286924
989,3036;0,291795
990,2678;0,296527
991,2321;0,301102
992,1963;0,305494
993,1605;0,309689
994,1248;0,313697
995,0890;0,317547
996,0532;0,321289
997,0175;0,32497
997,9817;0,328624
998,9459;0,332263
999,9102;0,335882
1000,8744;0,339479
1001,8386;0,34306
1002,8029;0,34665
1003,7671;0,350282
1004,7313;0,35399
1005,6956;0,357793
1006,6598;0,361704
1007,6240;0,365726
1008,5883;0,369867
1009,5525;0,374136
1010,5167;0,378536
1011,4810;0,383045
1012,4452;0,38761
1013,4094;0,392139
1014,3737;0,396515
1015,3379;0,40062
1016,3021;0,404355
1017,2664;0,407659
1018,2306;0,410501
1019,1948;0,412879
1020,1591;0,414798
1021,1233;0,416259
1022,0875;0,417259
1023,0518;0,417793
1024,0160;0,41786
1024,9802;0,417469
1025,9445;0,416627
1026,9087;0,415339
1027,8729;0,413597
1028,8372;0,411381
1029,8014;0,408662
1030,7656;0,405411
1031,7299;0,401617
1032,6941;0,397299
1033,6583;0,39253
1034,6226;0,387437
1035,5868;0,382201
1036,5510;0,37703
1037,5153;0,372132
1038,4795;0,367679
1039,4437;0,363784
1040,4080;0,360493
1041,3722;0,357784
1042,3364;0,355584
1043,3007;0,353782
1044,2649;0,352245
1045,2291;0,350843
1046,1934;0,349459
1047,1576;0,348008
1048,1218;0,346434
1049,0861;0,344703
1050,0503;0,342787
1051,0145;0,340651
1051,9788;0,338262
1052,9430;0,335597
1053,9072;0,332662
1054,8715;0,329484
1055,8357;0,326093
1056,7999;0,322499
1057,7642;0,318682
1058,7284;0,314601
1059,6926;0,310236
1060,6569;0,305613
1061,6211;0,30082
1062,5853;0,29598
1063,5496;0,291219
1064,5138;0,286622
1065,4780;0,282222
1066,4423;0,278005
1067,4065;0,273934
1068,3707;0,269967
1069,3350;0,266067
1070,2992;0,262205
1071,2634;0,258354
1072,2277;0,254492
1073,1919;0,250608
1074,1561;0,246702
1075,1204;0,242792
1076,0846;0,238916
1077,0488;0,235125
1078,0131;0,231483
1078,9773;0,228062
1079,9415;0,224928
1080,9058;0,222135
1081,8700;0,219708
1082,8342;0,217639
1083,7985;0,215883
1084,7627;0,214369
1085,7269;0,213011
1086,6912;0,211718
1087,6554;0,210416
1088,6196;0,209049
1089,5839;0,20759
1090,5481;0,20604
1091,5123;0,204414
1092,4766;0,202737
1093,4408;0,201029
1094,4050;0,199307
1095,3693;0,197584
1096,3335;0,195879
1097,2977;0,194216
1098,2620;0,192617
1099,2262;0,191099
1100,1904;0,189667
1101,1547;0,188311
1102,1189;0,187007
1103,0831;0,185725
1104,0474;0,184434
1105,0116;0,183105
1105,9758;0,181722
1106,9401;0,180277
1107,9043;0,178767
1108,8685;0,177184
1109,8328;0,175501
1110,7970;0,17368
1111,7612;0,171679
1112,7255;0,169482
1113,6897;0,167117
1114,6539;0,164656
1115,6182;0,162199
1116,5824;0,159842
1117,5466;0,157647
1118,5109;0,155629
1119,4751;0,153765
1120,4393;0,152008
1121,4036;0,150309
1122,3678;0,148623
1123,3320;0,146917
1124,2963;0,145167
1125,2605;0,143372
1126,2247;0,141551
1127,1890;0,139753
1128,1532;0,138037
1129,1174;0,136466
1130,0817;0,135077
1131,0459;0,133883
1132,0101;0,13287
1132,9744;0,132019
1133,9386;0,131315
1134,9028;0,130756
1135,8671;0,130346
1136,8313;0,130075
1137,7955;0,129918
1138,7598;0,129832
1139,7240;0,129767
1140,6882;0,129681
1141,6525;0,129549
1142,6167;0,129362
1143,5809;0,129126
1144,5452;0,128863
1145,5094;0,128607
1146,4736;0,128403
1147,4379;0,128298
1148,4021;0,128336
1149,3663;0,128536
1150,3306;0,128888
1151,2948;0,129352
1152,2590;0,129865
1153,2233;0,130352
1154,1875;0,130735
1155,1517;0,130938
1156,1160;0,130883
1157,0802;0,130491
1158,0444;0,129682
1159,0087;0,128381
1159,9729;0,126531
1160,9371;0,124103
1161,9014;0,121111
1162,8656;0,11761
1163,8298;0,113694
1164,7941;0,109482
1165,7583;0,105104
1166,7225;0,100691
1167,6868;0,096361
1168,6510;0,0922172
1169,6152;0,0883353
1170,5795;0,0847596
1171,5437;0,0815013
1172,5079;0,0785456
1173,4722;0,0758654
1174,4364;0,0734354
1175,4006;0,0712405
1176,3649;0,069276
1177,3291;0,0675418
1178,2933;0,066036
1179,2576;0,0647533
1180,2218;0,0636879
1181,1860;0,0628364
1182,1503;0,0621993
1183,1145;0,0617775
1184,0787;0,0615684
1185,0430;0,0615629
1186,0072;0,061746
1186,9714;0,0621009
1187,9357;0,0626137
1188,8999;0,0632766
1189,8641;0,064087
1190,8284;0,0650439
1191,7926;0,066144
1192,7568;0,0673781
1193,7211;0,0687303
1194,6853;0,0701792
1195,6495;0,0717012
1196,6138;0,073273
1197,5780;0,0748739
1198,5422;0,0764875
1199,5065;0,0780027
1200,4707;0,0796176
1201,4349;0,0812139
1202,3992;0,0827804
1203,3634;0,0843018
1204,3276;0,0857595
1205,2919;0,0871338
1206,2561;0,0884108
1207,2203;0,0895888
1208,1846;0,0906814
1209,1488;0,0917154
1210,1130;0,0927206
1211,0773;0,093719
1212,0415;0,0947171
1213,0057;0,0957059
1213,9700;0,0966692
1214,9342;0,0975938
1215,8984;0,0984766
1216,8627;0,099323
1217,8269;0,100141
1218,7911;0,100936
1219,7554;0,101703
1220,7196;0,102433
1221,6838;0,103108
1222,6481;0,103713
1223,6123;0,104231
1224,5765;0,104652
1225,5408;0,104969
1226,5050;0,105179
1227,4692;0,105283
1228,4335;0,105279
1229,3977;0,10517
1230,3619;0,104959
1231,3262;0,104657
1232,2904;0,104286
1233,2546;0,103873
1234,2189;0,103449
1235,1831;0,103044
1236,1473;0,102679
1237,1116;0,102374
1238,0758;0,102146
1239,0400;0,102013
1240,0043;0,101991
1240,9685;0,102091
1241,9327;0,102315
1242,8970;0,102654
1243,8612;0,103092
1244,8254;0,10361
1245,7897;0,104193
1246,7539;0,104837
1247,7181;0,105543
1248,6824;0,106319
1249,6466;0,107168
1250,6108;0,108092
1251,5751;0,109085
1252,5393;0,110135
1253,5035;0,111226
1254,4678;0,112338
1255,4320;0,113443
1256,3962;0,114513
1257,3605;0,115514
1258,3247;0,116411
1259,2889;0,117173
1260,2532;0,117769
1261,2174;0,118173
1262,1816;0,118362
1263,1459;0,118319
1264,1101;0,118032
1265,0743;0,117493
1266,0386;0,116704
1267,0028;0,115671
1267,9670;0,114404
1268,9313;0,112916
1269,8955;0,111222
1270,8597;0,109345
1271,8240;0,107316
1272,7882;0,105175
1273,7524;0,102966
1274,7167;0,100728
1275,6809;0,098495
1276,6451;0,0962935
1277,6094;0,094143
1278,5736;0,0920567
1279,5378;0,0900426
1280,5021;0,0881068
1281,4663;0,0862557
1282,4305;0,0844983
1283,3948;0,0828447
1284,3590;0,0813055
1285,3232;0,0798902
1286,2875;0,0786077
1287,2517;0,0774663
1288,2159;0,0764714
1289,1802;0,0756236
1290,1444;0,0749174
1291,1086;0,0743433
1292,0729;0,0738913
1293,0371;0,0735531
1294,0013;0,0733212
1294,9656;0,0731865
1295,9298;0,0731376
1296,8940;0,0731635
1297,8583;0,0732577
1298,8225;0,0734208
1299,7867;0,0736571
1300,7510;0,0739683
1301,7152;0,0743504
1302,6794;0,0747922
1303,6437;0,0752805
1304,6079;0,0758064
1305,5721;0,0763668
1306,5364;0,0769605
1307,5006;0,0775838
1308,4648;0,0782271
1309,4291;0,0788758
1310,3933;0,0795122
1311,3575;0,0801176
1312,3218;0,0806715
1313,2860;0,081151
1314,2502;0,0815292
1315,2145;0,0817757
1316,1787;0,0818603
1317,1429;0,0817617
1318,1072;0,0814798
1319,0714;0,0810448
1320,0356;0,0805129
1320,9999;0,079948
1321,9641;0,0794004
1322,9283;0,0788981
1323,8926;0,0784514
1324,8568;0,078064
1325,8210;0,0777398
1326,7853;0,0774837
1327,7495;0,0772971
1328,7137;0,0771756
1329,6780;0,0771083
1330,6422;0,0770811
1331,6064;0,077079
1332,5707;0,0770864
1333,5349;0,0770864
1334,4991;0,0770576
1335,4634;0,0769726
1336,4276;0,0767988
1337,3918;0,0765075
1338,3561;0,076092
1339,3203;0,0755888
1340,2845;0,0750735
1341,2488;0,0746228
1342,2130;0,0742758
1343,1772;0,0740283
1344,1415;0,0738563
1345,1057;0,0737386
1346,0699;0,0736686
1347,0342;0,073655
1347,9984;0,0737152
1348,9626;0,0738653
1349,9269;0,0741096
1350,8911;0,0744358
1351,8553;0,0748195
1352,8196;0,0752375
1353,7838;0,0756813
1354,7480;0,0761615
1355,7123;0,0766979
1356,6765;0,0773019
1357,6407;0,0779638
1358,6050;0,0786569
1359,5692;0,0793488
1360,5334;0,0800104
1361,4977;0,080621
1362,4619;0,0811773
1363,4261;0,0816975
1364,3904;0,0822051
1365,3546;0,0827045
1366,3188;0,0831755
1367,2831;0,0835855
1368,2473;0,0839027
1369,2115;0,0841013
1370,1758;0,084157
1371,1400;0,0840384
1372,1042;0,0837053
1373,0685;0,0831263
1374,0327;0,0823145
1374,9969;0,0813457
1375,9612;0,0803171
1376,9254;0,0792753
1377,8896;0,0781929
1378,8539;0,0770158
1379,8181;0,0757302
1380,7823;0,074392
1381,7466;0,0730918
1382,7108;0,0718835
1383,6750;0,0707417
1384,6393;0,0695819
1385,6035;0,0683318
1386,5677;0,0670168
1387,5320;0,0657865
1388,4962;0,0648204
1389,4604;0,0641883
1390,4247;0,0638222
1391,3889;0,0635983
1392,3531;0,0634191
1393,3174;0,0632444
1394,2816;0,0630825
1395,2458;0,0629638
1396,2101;0,0629164
1397,1743;0,0629571
1398,1385;0,0630981
1399,1028;0,0633516
1400,0670;0,0637217
1401,0313;0,064194
1401,9955;0,0647389
1402,9597;0,065327
1403,9240;0,0659448
1404,8882;0,0666004
1405,8524;0,0673143
1406,8167;0,0681011
1407,7809;0,0689597
1408,7451;0,0698795
1409,7094;0,070856
1410,6736;0,0718942
1411,6378;0,0729949
1412,6021;0,0741368
1413,5663;0,0752726
1414,5305;0,0763426
1415,4948;0,0772903
1416,4590;0,0780679
1417,4232;0,0786388
1418,3875;0,0790049
1419,3517;0,0792381
1420,3159;0,079427
1421,2802;0,0795745
1422,2444;0,0795956
1423,2086;0,0794057
1424,1729;0,0789904
1425,1371;0,0784025
1426,1013;0,0777006
1427,0656;0,0768899
1428,0298;0,0759263
1428,9940;0,074789
1429,9583;0,0735526
1430,9225;0,0723627
1431,8867;0,0713148
1432,8510;0,0703631
1433,8152;0,0693448
1434,7794;0,0680881
1435,7437;0,0665667
1436,7079;0,0650214
1437,6721;0,0638425
1438,6364;0,0632408
1439,6006;0,0631291
1440,5648;0,063303
1441,5291;0,0636177
1442,4933;0,0640302
1443,4575;0,0645585
1444,4218;0,0652243
1445,3860;0,0660165
1446,3502;0,0668874
1447,3145;0,067772
1448,2787;0,0686128
1449,2429;0,0693773
1450,2072;0,0700507
1451,1714;0,0706138
1452,1356;0,0710276
1453,0999;0,0712341
1454,0641;0,0711517
1455,0283;0,0706546
1455,9926;0,069604
1456,9568;0,0681195
1457,9210;0,0668234
1458,8853;0,066262
1459,8495;0,0663383
1460,8137;0,0666349
1461,7780;0,066789
1462,7422;0,0665569
1463,7064;0,0658055
1464,6707;0,0645771
1465,6349;0,0631334
1466,5991;0,0617758
1467,5634;0,0605949
1468,5276;0,0594508
1469,4918;0,058105
1470,4561;0,0563182
1471,4203;0,0539302
1472,3845;0,0510224
1473,3488;0,0480512
1474,3130;0,0455803
1475,2772;0,0438176
1476,2415;0,0426051
1477,2057;0,0417078
1478,1699;0,040972
1479,1342;0,0403306
1480,0984;0,0397705
1481,0626;0,0393099
1482,0269;0,0389858
1482,9911;0,0388319
1483,9553;0,0388526
1484,9196;0,0390135
1485,8838;0,0392519
1486,8480;0,0394956
1487,8123;0,0396829
1488,7765;0,0398103
1489,7407;0,0399855
1490,7050;0,0403641
1491,6692;0,0410067
1492,6334;0,0418629
1493,5977;0,0428647
1494,5619;0,0439924
1495,5261;0,0452817
1496,4904;0,0467918
1497,4546;0,0485602
1498,4188;0,050573
1499,3831;0,0527548
1500,3473;0,0549794
1501,3115;0,0571099
1502,2758;0,0590512
1503,2400;0,0607921
1504,2042;0,0624261
1505,1685;0,0640891
1506,1327;0,0656951
1507,0969;0,0667175
1508,0612;0,0668226
1509,0254;0,0663746
1509,9896;0,0657443
1510,9539;0,0649739
1511,9181;0,0639536
1512,8823;0,0625419
1513,8466;0,0606083
1514,8108;0,0580953
1515,7750;0,0550969
1516,7393;0,0518459
1517,7035;0,0485594
1518,6677;0,0452799
1519,6320;0,0419001
1520,5962;0,0383826
1521,5604;0,0349535
1522,5247;0,0319883
1523,4889;0,0296836
1524,4531;0,0279358
1525,4174;0,0265187
1526,3816;0,0252989
1527,3458;0,0242884
1528,3101;0,023543
1529,2743;0,0230499
1530,2385;0,0227103
1531,2028;0,0223981
1532,1670;0,0220413
1533,1312;0,0216871
1534,0955;0,0214741
1535,0597;0,0214941
1536,0239;0,021706
1536,9882;0,0219959
1537,9524;0,0222617
1538,9166;0,0224087
1539,8809;0,022283
1540,8451;0,0217987
1541,8093;0,0212376
1542,7736;0,0209546
1543,7378;0,0209708
1544,7020;0,0211491
1545,6663;0,0214001
1546,6305;0,0216922
1547,5947;0,0220031
1548,5590;0,0223
1549,5232;0,0225586
1550,4874;0,0227931
1551,4517;0,0230598
1552,4159;0,0234159
1553,3801;0,0238639
1554,3444;0,0243355
1555,3086;0,0247152
1556,2728;0,024853
1557,2371;0,0245501
1558,2013;0,0237246
1559,1655;0,0228895
1560,1298;0,0228084
1561,0940;0,0235213
1562,0582;0,0246006
1563,0225;0,0257064
1563,9867;0,0266841
1564,9509;0,0274929
1565,9152;0,0281486
1566,8794;0,0287045
1567,8436;0,0292508
1568,8079;0,0298976
1569,7721;0,0307193
1570,7363;0,0316994
1571,7006;0,0327499
1572,6648;0,0337887
1573,6290;0,0347989
1574,5933;0,0358308
1575,5575;0,0369449
1576,5217;0,0381482
1577,4860;0,0394075
1578,4502;0,0406996
1579,4144;0,04201
1580,3787;0,0433207
1581,3429;0,0446145
1582,3071;0,0458739
1583,2714;0,0470794
1584,2356;0,0482185
1585,1998;0,0492945
1586,1641;0,050319
1587,1283;0,051295
1588,0925;0,0522118
1589,0568;0,0530535
1590,0210;0,0538102
1590,9852;0,0544778
1591,9495;0,0550492
1592,9137;0,05551
1593,8779;0,0558487
1594,8422;0,0560736
1595,8064;0,0562179
1596,7706;0,0563251
1597,7349;0,0564254
1598,6991;0,0565245
1599,6633;0,056609
1600,6276;0,0566619
1601,5918;0,0566778
1602,5560;0,0566684
1603,5203;0,0566539
1604,4845;0,0566456
1605,4487;0,0566315
1606,4130;0,056582
1607,3772;0,0564755
1608,3414;0,0563321
1609,3057;0,0562231
1610,2699;0,0562278
1611,2341;0,0563665
1612,1984;0,0565749
1613,1626;0,0567331
1614,1268;0,0567113
1615,0911;0,05643
1616,0553;0,0559547
1617,0195;0,0555361
1617,9838;0,0554207
1618,9480;0,0556236
1619,9122;0,0559724
1620,8765;0,0562814
1621,8407;0,056449
1622,8049;0,0564772
1623,7692;0,0564491
1624,7334;0,0564632
1625,6976;0,0565628
1626,6619;0,0567358
1627,6261;0,0569675
1628,5903;0,0572698
1629,5546;0,0576557
1630,5188;0,058099
1631,4830;0,0585299
1632,4473;0,0588604
1633,4115;0,059002
1634,3757;0,0588718
1635,3400;0,0584618
1636,3042;0,0579731
1637,2684;0,0577103
1638,2327;0,0577689
1639,1969;0,058028
1640,1611;0,0583427
1641,1254;0,0586306
1642,0896;0,0588557
1643,0538;0,0589904
1644,0181;0,0589904
1644,9823;0,0587994
1645,9465;0,0584237
1646,9108;0,0580318
1647,8750;0,0578424
1648,8392;0,0578691
1649,8035;0,0579021
1650,7677;0,0576368
1651,7319;0,0567368
1652,6962;0,0550432
1653,6604;0,0531416
1654,6246;0,0520507
1655,5889;0,05193
1656,5531;0,0522387
1657,5173;0,0525015
1658,4816;0,0524806
1659,4458;0,0520802
1660,4100;0,0512783
1661,3743;0,0501462
1662,3385;0,0489009
1663,3027;0,0478261
1664,2670;0,0470689
1665,2312;0,0465564
1666,1954;0,0460809
1667,1597;0,0454068
1668,1239;0,0443599
1669,0881;0,0429493
1670,0524;0,0414318
1671,0166;0,0401173
1671,9808;0,0390773
1672,9451;0,0381396
1673,9093;0,0371077
1674,8735;0,0359533
1675,8378;0,0348623
1676,8020;0,0340825
1677,7662;0,033701
1678,7305;0,0335925
1679,6947;0,0335278
1680,6589;0,0332662
1681,6232;0,0325672
1682,5874;0,0312323
1683,5516;0,0293494
1684,5159;0,0275045
1685,4801;0,0262897
1686,4443;0,0257195
1687,4086;0,025454
1688,3728;0,0252074
1689,3370;0,0248729
1690,3013;0,0244749
1691,2655;0,0240845
1692,2297;0,023756
1693,1940;0,0235038
1694,1582;0,0233051
1695,1224;0,0231045
1696,0867;0,0228136
1697,0509;0,0223281
1698,0151;0,0215944
1698,9794;0,0207067
1699,9436;0,0199183
1700,9078;0,0194769
1701,8721;0,0194343
1702,8363;0,0196373
1703,8005;0,0198625
1704,7648;0,019946
1705,7290;0,0198553
1706,6932;0,0196944
1707,6575;0,0196249
1708,6217;0,0197512
1709,5859;0,0200739
1710,5502;0,0205294
1711,5144;0,0210469
1712,4786;0,0215684
1713,4429;0,0220322
1714,4071;0,0223383
1715,3713;0,0223372
1716,3356;0,0219311
1717,2998;0,0212838
1718,2640;0,0207891
1719,2283;0,0206878
1720,1925;0,020908
1721,1567;0,0212472
1722,1210;0,0215429
1723,0852;0,0217256
1724,0494;0,021811
1725,0137;0,0218676
1725,9779;0,021972
1726,9421;0,0221672
1727,9064;0,0224433
1728,8706;0,0227406
1729,8348;0,0229623
1730,7991;0,0229854
1731,7633;0,0226865
1732,7275;0,022032
1733,6918;0,0212121
1734,6560;0,020578
1735,6202;0,0203215
1736,5845;0,0203382
1737,5487;0,0203943
1738,5129;0,0203035
1739,4772;0,0199959
1740,4414;0,0195239
1741,4056;0,0190176
1742,3699;0,0185947
1743,3341;0,0182895
1744,2983;0,0180572
1745,2626;0,0178176
1746,2268;0,0174765
1747,1910;0,0169227
1748,1553;0,016048
1749,1195;0,0148384
1750,0837;0,013471
1751,0480;0,0122403
1752,0122;0,0113358
1752,9764;0,0107365
1753,9407;0,010294
1754,9049;0,00985905
1755,8691;0,00935329
1756,8334;0,00877827
1757,7976;0,00817519
1758,7618;0,00756969
1759,7261;0,00695123
1760,6903;0,00630647
1761,6545;0,00566806
1762,6188;0,00511606
1763,5830;0,0047198
1764,5472;0,00448344
1765,5115;0,00435091
1766,4757;0,00425023
1767,4399;0,00412853
1768,4042;0,00395548
1769,3684;0,00370272
1770,3326;0,00332895
1771,2969;0,00280977
1772,2611;0,00220752
1773,2253;0,00168017
1774,1896;0,00136672
1775,1538;0,00128121
1776,1180;0,0013316
1777,0823;0,00140013
1778,0465;0,00140125
1779,0107;0,00130275
1779,9750;0,00112135
1780,9392;0,000898544
1781,9034;0,000670823
1782,8677;0,000459895
1783,8319;0,000288162
1784,7961;0,000191766
1785,7604;0,000205792
1786,7246;0,000332253
1787,6888;0,000523929
1788,6531;0,000696895
1789,6173;0,000757135
1790,5815;0,000633649
1791,5458;0,000329001
1792,5100;-3,95884E-05
1793,4742;-0,000299148
1794,4385;-0,000360276
1795,4027;-0,00026758
1796,3669;-0,000131612
1797,3312;-5,34054E-05
1798,2954;-9,12918E-05
1799,2596;-0,000252233
1800,2239;-0,000492655
1801,1881;-0,000736386
1802,1523;-0,000912616
1803,1166;-0,000988376
1804,0808;-0,000971742
1805,0450;-0,000894915
1806,0093;-0,000798353
1806,9735;-0,000723384
1807,9377;-0,000708199
1808,9020;-0,000779657
1809,8662;-0,000939358
1810,8304;-0,00115481
1811,7947;-0,00137184
1812,7589;-0,001545
1813,7231;-0,0016596
1814,6874;-0,00172812
1815,6516;-0,00177078
1816,6158;-0,00179747
1817,5801;-0,0018015
1818,5443;-0,00176799
1819,5085;-0,00169034
1820,4728;-0,00158032
1821,4370;-0,0014623
1822,4012;-0,00135794
1823,3655;-0,00127398
1824,3297;-0,00120277
1825,2939;-0,00113837
1826,2582;-0,00109749
1827,2224;-0,0011243
1828,1866;-0,00126557
1829,1509;-0,00152382
1830,1151;-0,00182463
1831,0793;-0,0020487
1832,0436;-0,00211806
1833,0078;-0,00204693
1833,9720;-0,00191396
1834,9363;-0,00180208
1835,9005;-0,00175282
1836,8647;-0,00175005
1837,8290;-0,00174026
1838,7932;-0,00168
1839,7574;-0,0015714
1840,7217;-0,00145876
1841,6859;-0,00140134
1842,6501;-0,0014446
1843,6144;-0,00159294
1844,5786;-0,00179365
1845,5428;-0,0019664
1846,5071;-0,002067
1847,4713;-0,00211119
1848,4355;-0,00214093
1849,3998;-0,00218463
1850,3640;-0,00224425
1851,3282;-0,00230492
1852,2925;-0,00235119
1853,2567;-0,00237555
1854,2209;-0,00237618
1855,1852;-0,0023517
1856,1494;-0,002302
1857,1136;-0,00223403
1858,0779;-0,00216515
1859,0421;-0,00211494
1860,0063;-0,00208914
1860,9706;-0,00206981
1861,9348;-0,0020242
1862,8990;-0,00192913
1863,8633;-0,00179219
1864,8275;-0,00165573
1865,7917;-0,00158314
1866,7560;-0,00163187
1867,7202;-0,00181407
1868,6844;-0,00206633
1869,6487;-0,00227749
1870,6129;-0,00237172
1871,5771;-0,00235712
1872,5414;-0,00229772
1873,5056;-0,00225946
1874,4698;-0,00227685
1875,4341;-0,00234699
1876,3983;-0,0024416
1877,3625;-0,00252826
1878,3268;-0,00258697
1879,2910;-0,00261353
1880,2552;-0,0026107
1881,2195;-0,00257914
1882,1837;-0,00251704
1883,1479;-0,00242747
1884,1122;-0,00232527
1885,0764;-0,0022361
1886,0406;-0,00218734
1887,0049;-0,00219621
1887,9691;-0,00226062
1888,9333;-0,00235747
1889,8976;-0,00245243
1890,8618;-0,0025191
1891,8260;-0,00255392
1892,7903;-0,00257472
1893,7545;-0,00260569
1894,7188;-0,00266067
1895,6830;-0,00273379
1896,6472;-0,00280237
1897,6115;-0,00284065
1898,5757;-0,00283502
1899,5399;-0,00279008
1900,5042;-0,00272345
1901,4684;-0,0026551
1902,4326;-0,00259774
1903,3969;-0,00255273
1904,3611;-0,00251357
1905,3253;-0,00247396
1906,2896;-0,00243451
1907,2538;-0,00240347
1908,2180;-0,00239106
1909,1823;-0,00240102
1910,1465;-0,00242619
1911,1107;-0,00245353
1912,0750;-0,00247537
1913,0392;-0,00249569
1914,0034;-0,00252532
1914,9677;-0,00257018
1915,9319;-0,00262176
1916,8961;-0,00265754
1917,8604;-0,00265467
1918,8246;-0,00261039
1919,7888;-0,0025524
1920,7531;-0,00252864
1921,7173;-0,00258251
1922,6815;-0,00272845
1923,6458;-0,00294111
1924,6100;-0,00316724
1925,5742;-0,00335574
1926,5385;-0,00348433
1927,5027;-0,00356464
1928,4669;-0,00362833
1929,4312;-0,0037078
1930,3954;-0,00382093
1931,3596;-0,00396361
1932,3239;-0,00411267
1933,2881;-0,00423619
1934,2523;-0,00430733
1935,2166;-0,00431716
1936,1808;-0,00428144
1937,1450;-0,00423673
1938,1093;-0,00422628
1939,0735;-0,00428313
1940,0377;-0,00441815
1941,0020;-0,00461665
1941,9662;-0,00484369
1942,9304;-0,00505687
1943,8947;-0,00522183
1944,8589;-0,0053217
1945,8231;-0,00535601
1946,7874;-0,0053341
1947,7516;-0,00527037
1948,7158;-0,00518262
1949,6801;-0,00509031
1950,6443;-0,00501183
1951,6085;-0,00496413
1952,5728;-0,00496611
1953,5370;-0,00504036
1954,5012;-0,00520407
1955,4655;-0,0054489
1956,4297;-0,00572427
1957,3939;-0,0059451
1958,3582;-0,00603247
1959,3224;-0,00596905
1960,2866;-0,00582865
1961,2509;-0,00574446
1962,2151;-0,00582545
1963,1793;-0,00607933
1964,1436;-0,00640024
1965,1078;-0,00663194
1966,0720;-0,00666939
1967,0363;-0,00653436
1968,0005;-0,00636785
1968,9647;-0,00634056
1969,9290;-0,00655304
1970,8932;-0,00699516
1971,8574;-0,0075664
1972,8217;-0,00811502
1973,7859;-0,00846903
1974,7501;-0,00846853
1975,7144;-0,00801886
1976,6786;-0,00715854
1977,6428;-0,00608659
1978,6071;-0,00509519
1979,5713;-0,00443091
1980,5355;-0,00418276
1981,4998;-0,00427021
1982,4640;-0,00451651
1983,4282;-0,0047452
1984,3925;-0,00484806
1985,3567;-0,00480333
1986,3209;-0,00465071
1987,2852;-0,00444974
1988,2494;-0,00425066
1989,2136;-0,00408808
1990,1779;-0,00398598
1991,1421;-0,00395804
1992,1063;-0,00400138
1993,0706;-0,00409548
1994,0348;-0,00421417
1994,9990;-0,00434125
1995,9633;-0,00447439
1996,9275;-0,00461543
1997,8917;-0,004759
1998,8560;-0,00489267
1999,8202;-0,00500941
2000,7844;-0,00511832
2001,7487;-0,00523699
2002,7129;-0,00536575
2003,6771;-0,00546488
2004,6414;-0,00546107
2005,6056;-0,00529143
2006,5698;-0,00495991
2007,5341;-0,00455893
2008,4983;-0,00422694
2009,4625;-0,00406859
2010,4268;-0,0041008
2011,3910;-0,00426277
2012,3552;-0,00447187
2013,3195;-0,00467537
2014,2837;-0,00486197
2015,2479;-0,00503412
2016,2122;-0,00517398
2017,1764;-0,0052394
2018,1406;-0,00519707
2019,1049;-0,0050607
2020,0691;-0,00489292
2021,0333;-0,00476462
2021,9976;-0,00470436
2022,9618;-0,004679
2023,9260;-0,00462286
2024,8903;-0,0044957
2025,8545;-0,00432469
2026,8187;-0,0041931
2027,7830;-0,00417958
2028,7472;-0,00429209
2029,7114;-0,00444781
2030,6757;-0,00451788
2031,6399;-0,00440982
2032,6041;-0,00413072
2033,5684;-0,00378357
2034,5326;-0,00349631
2035,4968;-0,00333531
2036,4611;-0,00326767
2037,4253;-0,00319607
2038,3895;-0,00303631
2039,3538;-0,00278157
2040,3180;-0,00251113
2041,2822;-0,00233672
2042,2465;-0,00231939
2043,2107;-0,0024143
2044,1749;-0,00248546
2045,1392;-0,00238557
2046,1034;-0,00205438
2047,0676;-0,0015728
2048,0320;-0,00112702
2048,9961;-0,000895797
2049,9604;-0,000942815
2050,9246;-0,0011935
2051,8889;-0,00149768
2052,8530;-0,00171902
2053,8174;-0,00179662
2054,7815;-0,00175614
2055,7458;-0,00167444
2056,7100;-0,00162444
2057,6743;-0,00163507
2058,6384;-0,00168771
2059,6028;-0,00174093
2060,5669;-0,00175849
2061,5313;-0,00172192
2062,4954;-0,0016275
2063,4597;-0,00147911
2064,4238;-0,00128638
2065,3882;-0,00106774
2066,3523;-0,000850739
2067,3167;-0,000665213
2068,2808;-0,000533057
2069,2451;-0,0004618
2070,2092;-0,000445048
2071,1736;-0,0004669
2072,1377;-0,000506226
2073,1021;-0,000538997
2074,0662;-0,000541761
2075,0305;-0,000498205
2075,9946;-0,000407158
2076,9590;-0,000286382
2077,9231;-0,000167686
2078,8875;-8,40789E-05
2079,8516;-5,54387E-05
2080,8159;-8,04499E-05
2081,7800;-0,000138634
2082,7444;-0,000200669
2083,7085;-0,00024151
2084,6729;-0,000250678
2085,6370;-0,000235639
2086,6013;-0,00021785
2087,5654;-0,000223112
2088,5298;-0,000270249
2089,4939;-0,000362674
2090,4583;-0,000486328
2091,4224;-0,000614448
2092,3867;-0,000716501
2093,3508;-0,000767505
2094,3152;-0,000755101
2095,2793;-0,000683032
2096,2437;-0,00057009
2097,2078;-0,000444183
2098,1721;-0,000332641
2099,1362;-0,000252579
2100,1006;-0,000205301
2101,0647;-0,000180711
2102,0291;-0,000163143
2102,9932;-0,000144779
2103,9575;-0,000131289
2104,9216;-0,000138603
2105,8860;-0,000181492
2106,8501;-0,000260926
2107,8145;-0,000358509
2108,7786;-0,000442055
2109,7429;-0,000479481
2110,7070;-0,000453335
2111,6714;-0,00036859
2112,6355;-0,000250787
2113,5999;-0,000136539
2114,5640;-6,10021E-05
2115,5283;-4,67779E-05
2116,4924;-9,74223E-05
2117,4568;-0,000197377
2118,4209;-0,0003187
2119,3853;-0,000432702
2120,3494;-0,000521741
2121,3137;-0,000585132
2122,2778;-0,00063573
2123,2422;-0,000689859
2124,2063;-0,000758449
2125,1707;-0,000846337
2126,1348;-0,000959235
2127,0991;-0,0011096
2128,0632;-0,00131133
2129,0276;-0,00156175
2129,9917;-0,00182209
2130,9561;-0,00201399
2131,9202;-0,00204325
2132,8845;-0,00184562
2133,8486;-0,00143084
2134,8130;-0,000894433
2135,7771;-0,000382024
2136,7415;-2,41038E-05
2137,7056;0,00011689
2138,6699;5,65594E-05
2139,6340;-0,000140167
2140,5984;-0,000397906
2141,5625;-0,000654769
2142,5269;-0,000866116
2143,4910;-0,000999003
2144,4553;-0,00103004
2145,4194;-0,000949882
2146,3838;-0,000768736
2147,3479;-0,000517481
2148,3123;-0,000246265
2149,2764;-2,5238E-05
2150,2407;5,46106E-05
2151,2048;-0,000108259
2152,1692;-0,00059518
2153,1333;-0,00142234
2154,0977;-0,00250379
2155,0618;-0,00364603
2156,0261;-0,00458704
2156,9902;-0,00508048
2157,9546;-0,0050031
2158,9187;-0,00442148
2159,8831;-0,00354642
2160,8472;-0,00259878
2161,8115;-0,0017104
2162,7756;-0,000930753
2163,7400;-0,000292286
2164,7041;0,000142294
2165,6685;0,000284035
2166,6326;6,14315E-05
2167,5969;-0,000529899
2168,5610;-0,00140323
2169,5254;-0,00239424
2170,4895;-0,00330367
2171,4539;-0,00395308
2172,4180;-0,00423832
2173,3823;-0,00416445
2174,3464;-0,00384462
2175,3108;-0,0034537
2176,2749;-0,00315217
2177,2393;-0,00301913
2178,2034;-0,00303108
2179,1677;-0,00309315
2180,1318;-0,00309949
2181,0962;-0,00298878
2182,0603;-0,00276931
2183,0247;-0,00250547
2183,9888;-0,00227805
2184,9531;-0,00214338
2185,9172;-0,00211191
2186,8816;-0,00215086
2187,8457;-0,0022035
2188,8101;-0,00221474
2189,7742;-0,00215393
2190,7385;-0,00202699
2191,7026;-0,00187205
2192,6670;-0,00173977
2193,6311;-0,00166756
2194,5955;-0,00166157
2195,5596;-0,00169678
2196,5239;-0,00173438
2197,4880;-0,00174462
2198,4524;-0,00172053
2199,4165;-0,00167509
2200,3809;-0,00162696
2201,3450;-0,00158687
2202,3093;-0,00155425
2203,2734;-0,00152382
2204,2378;-0,00149398
2205,2019;-0,00146835
2206,1663;-0,00144895
2207,1304;-0,00142798
2208,0947;-0,00138679
2209,0588;-0,00130556
2210,0232;-0,00117797
2210,9873;-0,00102076
2211,9517;-0,000870531
2212,9158;-0,000768253
2213,8801;-0,000740011
2214,8442;-0,000784693
2215,8086;-0,00087518
2216,7727;-0,000972066
2217,7371;-0,00104247
2218,7012;-0,00107422
2219,6655;-0,00107847
2220,6296;-0,00107968
2221,5940;-0,00109843
2222,5581;-0,00113664
2223,5225;-0,00117388
2224,4866;-0,00117822
2225,4509;-0,00112618
2226,4150;-0,00102018
2227,3794;-0,000892353
2228,3435;-0,000788967
2229,3079;-0,000746934
2230,2720;-0,000774896
2231,2363;-0,000851127
2232,2004;-0,000938477
2233,1648;-0,00100496
2234,1289;-0,00103608
2235,0933;-0,00103274
2236,0574;-0,00099981
2237,0217;-0,000937014
2237,9858;-0,000839823
2238,9502;-0,000708969
2239,9143;-0,0005596
2240,8787;-0,000421684
2241,8428;-0,000330139
2242,8071;-0,000310715
2243,7712;-0,000370057
2244,7356;-0,000494925
2245,6997;-0,000659492
2246,6641;-0,000835657
2247,6282;-0,00100102
2248,5925;-0,00114167
2249,5566;-0,00125002
2250,5210;-0,0013202
2251,4851;-0,00134495
2252,4495;-0,00131678
2253,4136;-0,00123389
2254,3779;-0,00110687
2255,3420;-0,000960239
2256,3064;-0,000825176
2257,2705;-0,000726279
2258,2349;-0,000670537
2259,1990;-0,000646099
2260,1633;-0,000631706
2261,1274;-0,000610122
2262,0918;-0,000576407
2263,0559;-0,000536179
2264,0203;-0,000496693
2264,9844;-0,000458943
2265,9487;-0,000417252
2266,9128;-0,00036591
2267,8772;-0,000306173
2268,8413;-0,000246901
2269,8057;-0,00019785
2270,7698;-0,000161075
2271,7341;-0,000127402
2272,6982;-8,10183E-05
2273,6626;-9,29194E-06
2274,6267;8,87955E-05
2275,5911;0,000201027
2276,5552;0,000308313
2277,5195;0,000395432
2278,4836;0,000460139
2279,4480;0,000515543
2280,4121;0,000584134
2281,3765;0,000686286
2282,3406;0,000829378
2283,3049;0,00100349
2284,2690;0,00118609
2285,2334;0,00135311
2286,1975;0,00149021
2287,1619;0,00159782
2288,1260;0,00168734
2289,0903;0,00177105
2290,0544;0,00185267
2291,0188;0,0019247
2291,9829;0,00197453
2292,9473;0,00199478
2293,9114;0,00199077
2294,8757;0,00197934
2295,8398;0,00197943
2296,8042;0,00200029
2297,7683;0,00203554
2298,7327;0,00206744
2299,6968;0,00207915
2300,6611;0,00206726
2301,6252;0,00204643
2302,5896;0,00204233
2303,5537;0,00207801
2304,5181;0,00216042
2305,4822;0,00227458
2306,4465;0,00238759
2307,4106;0,0024606
2308,3750;0,00246331
2309,3391;0,00238509
2310,3035;0,00223859
2311,2676;0,00205539
2312,2319;0,00187535
2313,1960;0,00173355
2314,1604;0,00164996
2315,1245;0,00162699
2316,0889;0,00165608
2317,0530;0,00172849
2318,0173;0,00184211
2318,9814;0,00199796
2319,9458;0,0021883
2320,9099;0,00238692
2321,8743;0,00255338
2322,8384;0,00264892
2323,8027;0,00264892
2324,7668;0,00254438
2325,7312;0,00234093
2326,6953;0,00206277
2327,6597;0,00175634
2328,6238;0,00148448
2329,5881;0,00130891
2330,5522;0,00126831
2331,5166;0,00136173
2332,4807;0,00154532
2333,4451;0,00174591
2334,4092;0,0018892
2335,3735;0,00193156
2336,3376;0,00188046
2337,3020;0,00179102
2338,2661;0,00173484
2339,2305;0,00175122
2340,1946;0,00180699
2341,1589;0,0017951
2342,1230;0,00159579
2343,0874;0,00120529
2344,0515;0,000846385
2345,0159;0,000861862
2345,9800;0,00140699
2346,9443;0,00230002
2347,9084;0,00317625
2348,8728;0,00372263
2349,8369;0,0038124
2350,8013;0,00352717
2351,7654;0,00309733
2352,7297;0,00278003
2353,6938;0,00272433
2354,6582;0,00291949
2355,6223;0,00325688
2356,5867;0,00360767
2357,5508;0,00384656
2358,5151;0,00386617
2359,4792;0,00362328
2360,4436;0,00317366
2361,4077;0,00263604
2362,3721;0,0021093
2363,3362;0,00162095
2364,3005;0,00113944
2365,2646;0,00062171
2366,2290;5,32609E-05
2367,1931;-0,000540532
2368,1575;-0,00110787
2369,1216;-0,00159429
2370,0859;-0,00196332
2371,0500;-0,0022042
2372,0144;-0,00232395
2372,9785;-0,00233265
2373,9429;-0,00223496
2374,9070;-0,002034
2375,8713;-0,00174191
2376,8354;-0,00138569
2377,7998;-0,00100279
2378,7639;-0,000630075
2379,7283;-0,000294669
2380,6924;-1,1833E-05
2381,6567;0,000211388
2382,6208;0,000371981
2383,5852;0,000469942
2384,5493;0,00051012
2385,5137;0,000503976
2386,4778;0,000468632
2387,4421;0,000422923
2388,4063;0,000382524
2389,3706;0,00035663
2390,3347;0,000347527
2391,2991;0,000352518
2392,2632;0,000366578
2393,2275;0,000384482
2394,1917;0,000402039
2395,1560;0,000416794
2396,1201;0,000428439
2397,0845;0,00043874
2398,0486;0,000451759
2399,0129;0,00047058
2399,9771;0,000497011
2400,9414;0,000532161
2401,9055;0,000576296
2402,8699;0,000630061
2403,8340;0,000693531
2404,7983;0,00076471
2405,7625;0,00083834
2406,7268;0,000906362
2407,6909;0,000961543
2408,6553;0,00100139
2409,6194;0,0010294
2410,5837;0,00105381
2411,5479;0,0010826
2412,5122;0,00111878
2413,4763;0,00115885
2414,4407;0,0011958
2415,4048;0,00122448
2416,3691;0,00124614
2417,3333;0,00126885
2418,2976;0,00130317
2419,2617;0,00135586
2420,2261;0,00142496
2421,1902;0,00149918
2422,1545;0,00156309
2423,1187;0,00160402
2424,0830;0,00161806
2425,0471;0,00161152
2426,0115;0,00159737
2426,9756;0,0015889
2427,9399;0,00159435
2428,9041;0,00161542
2429,8684;0,00165013
2430,8325;0,00169713
2431,7969;0,00175764
2432,7610;0,00183329
2433,7253;0,00192132
2434,6895;0,00201127
2435,6538;0,0020869
2436,6179;0,00213311
2437,5823;0,00214404
2438,5464;0,00212729
2439,5107;0,00210128
2440,4749;0,00208737
2441,4392;0,00210112
2442,4033;0,00214722
2443,3677;0,00221957
2444,3318;0,00230546
2445,2961;0,00239077
2446,2603;0,00246454
2447,2246;0,00252169
2448,1887;0,0025639
2449,1531;0,00259843
2450,1172;0,00263461
2451,0815;0,00267924
2452,0457;0,00273267
2453,0100;0,00278806
2453,9741;0,00283454
2454,9385;0,00286278
2455,9026;0,00286979
2456,8669;0,00286051
2457,8311;0,0028453
2458,7954;0,00283532
2459,7595;0,00283831
2460,7239;0,00285669
2461,6880;0,00288825
2462,6523;0,00292817
2463,6165;0,00297114
2464,5808;0,0030126
2465,5449;0,00304926
2466,5093;0,00307907
2467,4734;0,0031013
2468,4377;0,00311652
2469,4019;0,00312664
2470,3662;0,0031348
2471,3303;0,00314507
2472,2947;0,00316201
2473,2588;0,00318972
2474,2231;0,00323052
2475,1873;0,00328337
2476,1516;0,00334293
2477,1157;0,0034001
2478,0801;0,00344466
2479,0442;0,00346951
2480,0085;0,00347459
2480,9727;0,00346805
2481,9370;0,0034633
2482,9011;0,00347265
2483,8655;0,00350117
2484,8296;0,00354426
2485,7939;0,00359094
2486,7581;0,0036309
2487,7224;0,00366075
2488,6865;0,00368556
2489,6509;0,00371455
2490,6150;0,00375442
2491,5793;0,00380469
2492,5435;0,00385821
2493,5078;0,00390588
2494,4719;0,00394183
2495,4363;0,00396563
2496,4004;0,00398045
2497,3647;0,00398928
2498,3289;0,00399216
2499,2932;0,00398649
2500,2573;0,00396972
2501,2217;0,00394267
2502,1858;0,00391117
2503,1501;0,00388523
2504,1143;0,00387606
2505,0786;0,00389227
2506,0427;0,00393645
2507,0071;0,00400348
2507,9712;0,00408114
2508,9355;0,00415308
2509,8997;0,00420382
2510,8640;0,00422402
2511,8281;0,0042144
2512,7925;0,00418622
2513,7566;0,00415762
2514,7209;0,00414677
2515,6851;0,00416458
2516,6494;0,00421016
2517,6135;0,00427145
2518,5779;0,00433056
2519,5420;0,00437118
2520,5063;0,00438459
2521,4705;0,00437191
2522,4348;0,0043426
2523,3989;0,00431098
2524,3633;0,00429233
2525,3274;0,0042994
2526,2917;0,00433918
2527,2559;0,00441035
2528,2202;0,00450266
2529,1843;0,00459953
2530,1487;0,00468386
2531,1128;0,00474461
2532,0771;0,00478088
2533,0413;0,00480124
2534,0056;0,00481873
2534,9697;0,0048445
2535,9341;0,0048837
2536,8982;0,00493537
2537,8625;0,00499581
2538,8267;0,00506266
2539,7910;0,00513661
2540,7551;0,00521959
2541,7195;0,00531027
2542,6836;0,00540026
2543,6479;0,00547454
2544,6121;0,00551717
2545,5764;0,00551999
2546,5405;0,00548872
2547,5049;0,00544194
2548,4690;0,00540227
2549,4333;0,00538484
2550,3975;0,00539054
2551,3618;0,00540844
2552,3259;0,00542557
2553,2903;0,00543646
2554,2544;0,00544536
2555,2188;0,00545979
2556,1829;0,00548114
2557,1472;0,00550049
2558,1113;0,00550351
2559,0757;0,00548107
2560,0398;0,00543744
2561,0042;0,00538979
2561,9683;0,00535922
2562,9326;0,00535967
2563,8967;0,00539181
2564,8611;0,00544476
2565,8252;0,00550312
2566,7896;0,00555398
2567,7537;0,00559026
2568,7180;0,00561054
2569,6821;0,00561732
2570,6465;0,00561557
2571,6106;0,00561145
2572,5750;0,00561073
2573,5391;0,00561686
2574,5034;0,00563006
2575,4675;0,00564827
2576,4319;0,00566937
2577,3960;0,00569308
2578,3604;0,00572097
2579,3245;0,00575509
2580,2888;0,00579653
2581,2529;0,0058454
2582,2173;0,00590158
2583,1814;0,00596495
2584,1458;0,00603427
2585,1099;0,00610566
2586,0742;0,00617242
2587,0383;0,00622741
2588,0027;0,00626672
2588,9668;0,00629219
2589,9312;0,00631098
2590,8953;0,00633229
2591,8596;0,00636321
2592,8237;0,00640593
2593,7881;0,00645724
2594,7522;0,00650991
2595,7166;0,0065552
2596,6807;0,00658549
2597,6450;0,00659687
2598,6091;0,00659066
2599,5735;0,00657336
2600,5376;0,00655476
2601,5020;0,00654496
2602,4661;0,00655171
2603,4304;0,00657907
2604,3945;0,00662728
2605,3589;0,00669312
2606,3230;0,00677014
2607,2874;0,00684921
2608,2515;0,00692012
2609,2158;0,00697437
2610,1799;0,007008
2611,1443;0,00702305
2612,1084;0,00702663
2613,0728;0,00702837
2614,0369;0,00703769
2615,0012;0,00706199
2615,9653;0,00710564
2616,9297;0,00716919
2617,8938;0,00724851
2618,8582;0,00733467
2619,8223;0,00741581
2620,7866;0,00748088
2621,7507;0,00752397
2622,7151;0,00754679
2623,6792;0,00755779
2624,6436;0,00756852
2625,6077;0,00758913
2626,5720;0,00762519
2627,5361;0,00767694
2628,5005;0,00774036
2629,4646;0,00780886
2630,4290;0,0078749
2631,3931;0,00793147
2632,3574;0,00797365
2633,3215;0,00800021
2634,2859;0,0080144
2635,2500;0,00802329
2636,2144;0,00803568
2637,1785;0,00805955
2638,1428;0,00810008
2639,1069;0,00815886
2640,0713;0,00823405
2641,0354;0,00832078
2641,9998;0,00841151
2642,9639;0,00849686
2643,9282;0,00856737
2644,8923;0,00861646
2645,8567;0,00864324
2646,8208;0,00865348
2647,7852;0,00865783
2648,7493;0,00866747
2649,7136;0,00868977
2650,6777;0,00872605
2651,6421;0,0087727
2652,6062;0,0088245
2653,5706;0,00887768
2654,5347;0,00893066
2655,4990;0,00898225
2656,4631;0,00902918
2657,4275;0,00906549
2658,3916;0,00908476
2659,3560;0,00908391
2660,3201;0,00906606
2661,2844;0,00904034
2662,2485;0,00901859
2663,2129;0,00901107
2664,1770;0,0090234
2665,1414;0,00905616
2666,1055;0,00910641
2667,0698;0,00916958
2668,0339;0,00924058
2668,9983;0,00931413
2669,9624;0,00938492
2670,9268;0,0094483
2671,8909;0,00950108
2672,8552;0,0095419
2673,8193;0,00957099
2674,7837;0,00958963
2675,7478;0,00960015
2676,7122;0,00960657
2677,6763;0,00961514
2678,6406;0,00963405
2679,6047;0,00967153
2680,5691;0,00973306
2681,5332;0,00981885
2682,4976;0,00992273
2683,4617;0,0100331
2684,4260;0,0101359
2685,3901;0,0102188
2686,3545;0,010275
2687,3186;0,0103058
2688,2830;0,0103199
2689,2471;0,0103304
2690,2114;0,0103503
2691,1755;0,0103883
2692,1399;0,0104476
2693,1040;0,010526
2694,0684;0,0106181
2695,0325;0,0107166
2695,9968;0,0108132
2696,9609;0,0108991
2697,9253;0,0109668
2698,8894;0,011013
2699,8538;0,0110409
2700,8179;0,01106
2701,7822;0,011083
2702,7463;0,0111204
2703,7107;0,0111762
2704,6748;0,0112463
2705,6392;0,0113217
2706,6033;0,0113927
2707,5676;0,0114544
2708,5317;0,0115074
2709,4961;0,0115564
2710,4602;0,0116063
2711,4246;0,0116596
2712,3887;0,0117153
2713,3530;0,0117707
2714,3171;0,0118241
2715,2815;0,0118754
2716,2456;0,0119266
2717,2100;0,0119801
2718,1741;0,0120372
2719,1384;0,0120976
2720,1025;0,012159
2721,0669;0,0122173
2722,0310;0,0122678
2722,9954;0,0123067
2723,9595;0,0123343
2724,9238;0,0123561
2725,8879;0,0123824
2726,8523;0,0124243
2727,8164;0,0124881
2728,7808;0,0125715
2729,7449;0,0126638
2730,7092;0,0127509
2731,6733;0,0128213
2732,6377;0,0128703
2733,6018;0,0129004
2734,5662;0,0129179
2735,5303;0,0129293
2736,4946;0,0129397
2737,4587;0,0129537
2738,4231;0,0129766
2739,3872;0,0130147
2740,3516;0,0130728
2741,3157;0,0131513
2742,2800;0,0132433
2743,2441;0,0133358
2744,2085;0,0134137
2745,1726;0,0134653
2746,1370;0,0134877
2747,1011;0,0134879
2748,0654;0,0134814
2749,0295;0,0134858
2749,9939;0,0135138
2750,9580;0,0135689
2751,9224;0,0136447
2752,8865;0,0137291
2753,8508;0,0138106
2754,8149;0,013883
2755,7793;0,0139464
2756,7434;0,0140049
2757,7078;0,0140622
2758,6719;0,0141195
2759,6362;0,0141756
2760,6003;0,0142294
2761,5647;0,0142813
2762,5288;0,0143339
2763,4932;0,0143901
2764,4573;0,0144518
2765,4216;0,0145199
2766,3857;0,014595
2767,3501;0,0146775
2768,3142;0,0147667
2769,2786;0,0148587
2770,2427;0,0149466
2771,2070;0,0150227
2772,1711;0,0150838
2773,1355;0,0151342
2774,0996;0,0151851
2775,0640;0,0152486
2776,0281;0,0153311
2776,9924;0,0154296
2777,9565;0,0155347
2778,9209;0,0156367
2779,8850;0,0157324
2780,8494;0,0158262
2781,8135;0,0159259
2782,7778;0,016036
2783,7419;0,0161539
2784,7063;0,0162701
2785,6704;0,016375
2786,6348;0,0164648
2787,5989;0,0165452
2788,5632;0,0166305
2789,5273;0,0167369
2790,4917;0,0168754
2791,4558;0,0170453
2792,4202;0,0172339
2793,3843;0,0174209
2794,3486;0,0175866
2795,3127;0,0177208
2796,2771;0,0178264
2797,2412;0,0179184
2798,2056;0,0180166
2799,1697;0,0181372
2800,1340;0,0182878
2801,0981;0,0184667
2802,0625;0,0186658
2803,0266;0,0188748
2803,9910;0,0190844
2804,9551;0,019287
2805,9194;0,019477
2806,8835;0,0196517
2807,8479;0,0198129
2808,8120;0,0199668
2809,7764;0,0201224
2810,7405;0,0202888
2811,7048;0,0204719
2812,6689;0,0206739
2813,6333;0,0208943
2814,5974;0,0211314
2815,5618;0,0213828
2816,5259;0,0216454
2817,4902;0,021915
2818,4543;0,0221872
2819,4187;0,0224588
2820,3828;0,0227291
2821,3472;0,0230006
2822,3113;0,0232773
2823,2756;0,0235638
2824,2397;0,0238642
2825,2041;0,0241821
2826,1682;0,0245203
2827,1326;0,0248799
2828,0967;0,0252594
2829,0610;0,0256547
2830,0251;0,0260608
2830,9895;0,0264735
2831,9536;0,0268909
2832,9180;0,0273125
2833,8821;0,0277373
2834,8464;0,028163
2835,8105;0,0285875
2836,7749;0,0290126
2837,7390;0,0294463
2838,7034;0,0299022
2839,6675;0,0303952
2840,6318;0,0309357
2841,5959;0,0315272
2842,5603;0,0321674
2843,5244;0,0328503
2844,4888;0,0335672
2845,4529;0,0343043
2846,4172;0,0350389
2847,3813;0,0357387
2848,3457;0,0363676
2849,3098;0,0368953
2850,2742;0,0373078
2851,2383;0,0376113
2852,2026;0,0378279
2853,1667;0,037986
2854,1311;0,0381103
2855,0952;0,0382171
2856,0596;0,0383148
2857,0237;0,0384095
2857,9880;0,038509
2858,9521;0,0386244
2859,9165;0,0387672
2860,8806;0,0389452
2861,8450;0,0391599
2862,8091;0,0394068
2863,7734;0,0396796
2864,7375;0,0399739
2865,7019;0,0402881
2866,6660;0,0406195
2867,6304;0,0409592
2868,5945;0,0412894
2869,5588;0,0415866
2870,5229;0,0418313
2871,4873;0,0420177
2872,4514;0,0421575
2873,4158;0,0422746
2874,3799;0,0423928
2875,3442;0,0425248
2876,3083;0,0426681
2877,2727;0,0428099
2878,2368;0,0429373
2879,2012;0,0430444
2880,1653;0,0431338
2881,1296;0,0432127
2882,0938;0,0432871
2883,0581;0,0433593
2884,0222;0,0434286
2884,9866;0,0434944
2885,9507;0,0435581
2886,9150;0,0436232
2887,8792;0,0436935
2888,8435;0,0437703
2889,8076;0,0438519
2890,7720;0,0439329
2891,7361;0,0440066
2892,7004;0,0440673
2893,6646;0,0441132
2894,6289;0,044148
2895,5930;0,0441805
2896,5574;0,0442205
2897,5215;0,0442739
2898,4858;0,0443387
2899,4500;0,0444063
2900,4143;0,0444658
2901,3784;0,0445111
2902,3428;0,0445459
2903,3069;0,044583
2904,2712;0,0446384
2905,2354;0,0447249
2906,1997;0,044847
2907,1638;0,0450022
2908,1282;0,0451857
2909,0923;0,0453967
2910,0566;0,0456394
2911,0208;0,0459207
2911,9851;0,0462429
2912,9492;0,0465984
2913,9136;0,0469685
2914,8777;0,0473271
2915,8420;0,0476472
2916,8062;0,0479069
2917,7705;0,0480918
2918,7346;0,0481949
2919,6990;0,0482157
2920,6631;0,0481589
2921,6274;0,0480346
2922,5916;0,0478565
2923,5559;0,0476391
2924,5200;0,0473931
2925,4844;0,0471237
2926,4485;0,046831
2927,4128;0,0465151
2928,3770;0,0461799
2929,3413;0,0458339
2930,3054;0,0454864
2931,2698;0,0451425
2932,2339;0,0447997
2933,1982;0,0444501
2934,1624;0,0440855
2935,1267;0,0437024
2936,0908;0,0433035
2937,0552;0,042894
2938,0193;0,0424766
2938,9836;0,0420484
2939,9478;0,0416023
2940,9121;0,0411308
2941,8762;0,0406314
2942,8406;0,0401096
2943,8047;0,0395783
2944,7690;0,039055
2945,7332;0,0385565
2946,6975;0,0380933
2947,6616;0,0376671
2948,6260;0,03727
2949,5901;0,0368889
2950,5544;0,0365112
2951,5186;0,03613
2952,4829;0,0357462
2953,4470;0,0353667
2954,4114;0,034999
2955,3755;0,034647
2956,3398;0,034308
2957,3040;0,0339748
2958,2683;0,0336388
2959,2324;0,0332944
2960,1968;0,032941
2961,1609;0,0325826
2962,1252;0,0322255
2963,0894;0,0318745
2964,0537;0,0315312
2965,0178;0,031194
2965,9822;0,0308596
2966,9463;0,0305249
2967,9106;0,0301882
2968,8748;0,0298489
2969,8391;0,0295066
2970,8032;0,0291625
2971,7676;0,0288207
2972,7317;0,0284888
2973,6960;0,0281758
2974,6602;0,0278876
2975,6245;0,0276226
2976,5886;0,0273723
2977,5530;0,0271265
2978,5171;0,02688
2979,4814;0,026637
2980,4456;0,0264087
2981,4099;0,0262067
2982,3740;0,0260361
2983,3384;0,0258941
2984,3025;0,025773
2985,2668;0,0256657
2986,2310;0,0255688
2987,1953;0,0254824
2988,1594;0,0254073
2989,1238;0,0253432
2990,0879;0,0252893
2991,0522;0,0252455
2992,0164;0,0252133
2992,9807;0,0251951
2993,9448;0,025193
2994,9092;0,0252087
2995,8733;0,0252438
2996,8376;0,0252994
2997,8018;0,0253749
2998,7661;0,0254672
2999,7302;0,0255698
3000,6946;0,0256751
3001,6587;0,0257781
3002,6230;0,0258788
3003,5872;0,0259813
3004,5515;0,0260905
3005,5156;0,0262075
3006,4800;0,0263274
3007,4441;0,0264409
3008,4084;0,0265387
3009,3726;0,0266164
3010,3369;0,026678
3011,3010;0,0267354
3012,2654;0,0268039
3013,2295;0,0268963
3014,1938;0,0270177
3015,1580;0,0271643
3016,1223;0,0273262
3017,0864;0,0274927
3018,0508;0,0276565
3019,0149;0,0278148
3019,9792;0,0279678
3020,9434;0,0281165
3021,9077;0,0282615
3022,8718;0,0284035
3023,8362;0,0285452
3024,8003;0,0286916
3025,7646;0,0288484
3026,7288;0,0290184
3027,6931;0,0291992
3028,6572;0,0293831
3029,6216;0,0295594
3030,5857;0,0297196
3031,5500;0,0298621
3032,5142;0,0299951
3033,4785;0,0301345
3034,4426;0,0302974
3035,4070;0,0304943
3036,3711;0,0307233
3037,3354;0,0309703
3038,2996;0,0312143
3039,2639;0,0314378
3040,2280;0,0316347
3041,1924;0,0318123
3042,1565;0,0319872
3043,1208;0,0321766
3044,0850;0,0323903
3045,0493;0,032628
3046,0134;0,0328816
3046,9778;0,0331405
3047,9419;0,0333966
3048,9063;0,0336466
3049,8704;0,033891
3050,8347;0,0341319
3051,7988;0,0343714
3052,7632;0,0346107
3053,7273;0,0348503
3054,6917;0,0350902
3055,6558;0,0353306
3056,6201;0,035572
3057,5842;0,0358162
3058,5486;0,0360662
3059,5127;0,0363251
3060,4771;0,0365943
3061,4412;0,0368708
3062,4055;0,0371464
3063,3696;0,0374099
3064,3340;0,0376524
3065,2981;0,0378726
3066,2625;0,0380787
3067,2266;0,0382853
3068,1909;0,0385067
3069,1550;0,038751
3070,1194;0,0390171
3071,0835;0,0392978
3072,0479;0,039584
3073,0120;0,0398691
3073,9763;0,0401508
3074,9404;0,0404299
3075,9048;0,0407077
3076,8689;0,0409838
3077,8333;0,0412547
3078,7974;0,0415152
3079,7617;0,0417606
3080,7258;0,0419899
3081,6902;0,0422072
3082,6543;0,0424212
3083,6187;0,0426419
3084,5828;0,0428764
3085,5471;0,0431259
3086,5112;0,0433858
3087,4756;0,0436487
3088,4397;0,0439086
3089,4041;0,0441641
3090,3682;0,0444179
3091,3325;0,0446746
3092,2966;0,0449377
3093,2610;0,0452081
3094,2251;0,0454842
3095,1895;0,0457636
3096,1536;0,0460445
3097,1179;0,0463252
3098,0820;0,0466047
3099,0464;0,046882
3100,0105;0,047157
3100,9749;0,0474315
3101,9390;0,0477087
3102,9033;0,0479921
3103,8674;0,0482839
3104,8318;0,0485836
3105,7959;0,0488884
3106,7603;0,0491951
3107,7244;0,0495026
3108,6887;0,0498126
3109,6528;0,0501287
3110,6172;0,0504538
3111,5813;0,0507877
3112,5457;0,0511254
3113,5098;0,0514595
3114,4741;0,0517827
3115,4382;0,0520913
3116,4026;0,052386
3117,3667;0,0526714
3118,3311;0,0529528
3119,2952;0,0532344
3120,2595;0,0535185
3121,2236;0,0538057
3122,1880;0,0540965
3123,1521;0,0543915
3124,1165;0,0546919
3125,0806;0,0549991
3126,0449;0,0553141
3127,0090;0,0556373
3127,9734;0,0559679
3128,9375;0,0563037
3129,9019;0,0566411
3130,8660;0,0569759
3131,8303;0,057305
3132,7944;0,0576271
3133,7588;0,0579437
3134,7229;0,0582583
3135,6873;0,0585753
3136,6514;0,0588977
3137,6157;0,0592259
3138,5798;0,0595573
3139,5442;0,0598874
3140,5083;0,0602122
3141,4727;0,0605308
3142,4368;0,0608475
3143,4011;0,0611707
3144,3652;0,0615087
3145,3296;0,0618649
3146,2937;0,0622345
3147,2581;0,0626049
3148,2222;0,0629615
3149,1865;0,0632946
3150,1506;0,0636047
3151,1150;0,0639024
3152,0791;0,0642029
3153,0435;0,0645193
3154,0076;0,0648561
3154,9719;0,0652083
3155,9360;0,0655647
3156,9004;0,065914
3157,8645;0,0662496
3158,8289;0,0665727
3159,7930;0,06689
3160,7573;0,0672103
3161,7214;0,0675396
3162,6858;0,0678789
3163,6499;0,0682238
3164,6143;0,0685684
3165,5784;0,0689084
3166,5427;0,0692435
3167,5068;0,0695765
3168,4712;0,069911
3169,4353;0,0702306
3170,3997;0,0705709
3171,3638;0,0709126
3172,3281;0,0712555
3173,2922;0,0716009
3174,2566;0,0719499
3175,2207;0,0723005
3176,1851;0,0726469
3177,1492;0,0729818
3178,1135;0,0733006
3179,0776;0,073605
3180,0420;0,0739024
3181,0061;0,0742018
3181,9705;0,0745088
3182,9346;0,0748236
3183,8989;0,0751416
3184,8630;0,0754571
3185,8274;0,0757654
3186,7915;0,0760644
3187,7559;0,0763536
3188,7200;0,0766339
3189,6843;0,0769089
3190,6484;0,0771858
3191,6128;0,077474
3192,5769;0,077781
3193,5413;0,0781079
3194,5054;0,0784464
3195,4697;0,0787815
3196,4338;0,0790978
3197,3982;0,0793869
3198,3623;0,0796505
3199,3267;0,0798994
3200,2908;0,0801476
3201,2551;0,0804072
3202,2192;0,0806848
3203,1836;0,0809806
3204,1477;0,0812896
3205,1121;0,0816035
3206,0762;0,0819135
3207,0405;0,0822125
3208,0046;0,0824978
3208,9690;0,0827704
3209,9331;0,083034
3210,8975;0,0832923
3211,8616;0,0835469
3212,8259;0,0837976
3213,7900;0,0840439
3214,7544;0,084286
3215,7185;0,0845252
3216,6829;0,0847628
3217,6470;0,0849995
3218,6113;0,0852354
3219,5754;0,0854706
3220,5398;0,085706
3221,5039;0,0859428
3222,4683;0,0861815
3223,4324;0,0864211
3224,3967;0,0866596
3225,3608;0,0868953
3226,3252;0,0871283
3227,2893;0,0873597
3228,2537;0,0875905
3229,2178;0,0878196
3230,1821;0,0880437
3231,1462;0,0882592
3232,1106;0,0884648
3233,0747;0,088663
3234,0391;0,0888598
3235,0032;0,0890621
3235,9675;0,0892748
3236,9316;0,0894983
3237,8960;0,089728
3238,8601;0,0899554
3239,8245;0,0901722
3240,7886;0,0903726
3241,7529;0,0905557
3242,7170;0,0907257
3243,6814;0,090889
3244,6455;0,0910516
3245,6099;0,0912174
3246,5740;0,091389
3247,5383;0,0915693
3248,5024;0,0917631
3249,4668;0,0919747
3250,4309;0,0922041
3251,3953;0,0924428
3252,3594;0,0926748
3253,3237;0,0928832
3254,2878;0,0930599
3255,2522;0,093211
3256,2163;0,093355
3257,1807;0,0935125
3258,1448;0,0936944
3259,1091;0,0938967
3260,0732;0,0941035
3261,0376;0,0942978
3262,0017;0,0944718
3262,9661;0,0946308
3263,9302;0,0947891
3264,8945;0,0949611
3265,8586;0,0951526
3266,8230;0,0953581
3267,7871;0,0955642
3268,7515;0,0957554
3269,7156;0,0959206
3270,6799;0,0960548
3271,6440;0,0961588
3272,6084;0,0962365
3273,5725;0,0962939
3274,5369;0,0963378
3275,5010;0,096377
3276,4653;0,0964219
3277,4294;0,0964817
3278,3938;0,096561
3279,3579;0,0966562
3280,3223;0,096756
3281,2864;0,0968455
3282,2507;0,0969142
3283,2148;0,0969619
3284,1792;0,0969994
3285,1433;0,0970431
3286,1077;0,0971053
3287,0718;0,0971878
3288,0361;0,0972807
3289,0002;0,0973676
3289,9646;0,0974334
3290,9287;0,0974701
3291,8931;0,097479
3292,8572;0,0974679
3293,8215;0,0974487
3294,7856;0,0974336
3295,7500;0,0974327
3296,7141;0,0974517
3297,6785;0,09749
3298,6426;0,0975404
3299,6069;0,0975919
3300,5710;0,0976343
3301,5354;0,097662
3302,4995;0,0976753
3303,4639;0,0976783
3304,4280;0,0976757
3305,3923;0,0976702
3306,3564;0,0976625
3307,3208;0,0976528
3308,2849;0,0976422
3309,2493;0,0976331
3310,2134;0,0976291
3311,1777;0,097633
3312,1418;0,097646
3313,1062;0,0976674
3314,0703;0,0976953
3315,0347;0,0977289
3315,9988;0,0977712
3316,9631;0,0978292
3317,9272;0,0979118
3318,8916;0,0980231
3319,8557;0,0981573
3320,8201;0,0982965
3321,7842;0,0984166
3322,7485;0,0984975
3323,7126;0,0985329
3324,6770;0,0985341
3325,6411;0,0985244
3326,6055;0,0985279
3327,5696;0,0985593
3328,5339;0,0986192
3329,4980;0,0986969
3330,4624;0,0987771
3331,4265;0,0988471
3332,3909;0,0988987
3333,3550;0,0989289
3334,3193;0,0989368
3335,2834;0,0989221
3336,2478;0,0988847
3337,2119;0,0988243
3338,1763;0,0987415
3339,1404;0,0986382
3340,1047;0,0985188
3341,0688;0,0983906
3342,0332;0,0982629
3342,9973;0,0981446
3343,9617;0,0980394
3344,9258;0,0979432
3345,8901;0,0978442
3346,8542;0,0977276
3347,8186;0,0975837
3348,7827;0,0974131
3349,7471;0,0972273
3350,7112;0,0970431
3351,6755;0,0968736
3352,6396;0,096722
3353,6040;0,0965814
3354,5681;0,0964405
3355,5325;0,0962906
3356,4966;0,0961303
3357,4609;0,0959645
3358,4250;0,095801
3359,3894;0,0956468
3360,3535;0,0955058
3361,3179;0,0953786
3362,2820;0,0952615
3363,2463;0,0951455
3364,2104;0,0950161
3365,1748;0,094856
3366,1389;0,0946527
3367,1033;0,0944052
3368,0674;0,094127
3369,0317;0,0938416
3369,9958;0,0935721
3370,9602;0,0933322
3371,9243;0,0931214
3372,8887;0,0929283
3373,8528;0,092738
3374,8171;0,0925398
3375,7813;0,0923308
3376,7456;0,0921144
3377,7097;0,0918966
3378,6741;0,0916815
3379,6382;0,091469
3380,6025;0,0912564
3381,5667;0,0910408
3382,5310;0,0908225
3383,4951;0,0906065
3384,4595;0,0904012
3385,4236;0,090213
3386,3879;0,0900421
3387,3521;0,0898798
3388,3164;0,0897115
3389,2805;0,0895237
3390,2449;0,0893106
3391,2090;0,0890767
3392,1733;0,0888329
3393,1375;0,088589
3394,1018;0,0883481
3395,0659;0,0881059
3396,0303;0,087856
3396,9944;0,0875937
3397,9587;0,0873178
3398,9229;0,087027
3399,8872;0,0867188
3400,8513;0,0863904
3401,8157;0,0860446
3402,7798;0,0856926
3403,7441;0,0853517
3404,7083;0,0850359
3405,6726;0,0847474
3406,6367;0,0844733
3407,6011;0,0841926
3408,5652;0,0838866
3409,5295;0,083548
3410,4937;0,0831831
3411,4580;0,082808
3412,4221;0,0824406
3413,3865;0,0820942
3414,3506;0,0817724
3415,3149;0,0814675
3416,2791;0,0811627
3417,2434;0,0808378
3418,2075;0,0804783
3419,1719;0,0800839
3420,1360;0,0796717
3421,1003;0,0792688
3422,0645;0,078898
3423,0288;0,0785656
3423,9929;0,0782584
3424,9573;0,0779532
3425,9214;0,0776293
3426,8857;0,0772788
3427,8499;0,076908
3428,8142;0,076531
3429,7783;0,07616
3430,7427;0,0757977
3431,7068;0,0754369
3432,6711;0,0750668
3433,6353;0,0746804
3434,5996;0,0742795
3435,5637;0,0738735
3436,5281;0,0734735
3437,4922;0,0730866
3438,4565;0,0727141
3439,4207;0,0723529
3440,3850;0,0719977
3441,3491;0,0716414
3442,3135;0,0712736
3443,2776;0,0708797
3444,2419;0,0704457
3445,2061;0,0699665
3446,1704;0,0694542
3447,1345;0,0689368
3448,0989;0,0684461
3449,0630;0,0680003
3450,0273;0,0675963
3450,9915;0,0672158
3451,9558;0,0668394
3452,9199;0,0664579
3453,8843;0,066075
3454,8484;0,0656998
3455,8127;0,0653367
3456,7769;0,0649788
3457,7412;0,0646114
3458,7053;0,0642201
3459,6697;0,0638003
3460,6338;0,0633596
3461,5981;0,0629137
3462,5623;0,0624776
3463,5266;0,0620577
3464,4907;0,0616499
3465,4551;0,0612437
3466,4192;0,0608297
3467,3835;0,0604051
3468,3477;0,059974
3469,3120;0,0595423
3470,2761;0,0591122
3471,2405;0,0586805
3472,2046;0,0582431
3473,1689;0,0578031
3474,1331;0,0573744
3475,0974;0,0569757
3476,0615;0,0566176
3477,0259;0,0562909
3477,9900;0,055967
3478,9543;0,055611
3479,9185;0,0552005
3480,8828;0,0547406
3481,8469;0,0542616
3482,8113;0,0537993
3483,7754;0,0533712
3484,7397;0,0529673
3485,7039;0,0525602
3486,6682;0,0521267
3487,6323;0,0516656
3488,5967;0,0512001
3489,5608;0,0507631
3490,5251;0,0503744
3491,4893;0,0500276
3492,4536;0,0496951
3493,4177;0,0493468
3494,3821;0,048971
3495,3462;0,0485843
3496,3105;0,0482207
3497,2747;0,0479048
3498,2390;0,0476283
3499,2031;0,0473476
3500,1675;0,0470038
3501,1316;0,0465574
3502,0959;0,0460191
3503,0601;0,0454519
3504,0244;0,0449345
3504,9885;0,0445097
3505,9529;0,0441606
3506,9170;0,0438285
3507,8813;0,0434513
3508,8455;0,0430001
3509,8098;0,0424937
3510,7739;0,0419835
3511,7383;0,0415181
3512,7024;0,0411159
3513,6667;0,0407644
3514,6309;0,0404391
3515,5952;0,0401227
3516,5593;0,0398127
3517,5237;0,0395136
3518,4878;0,0392249
3519,4521;0,0389338
3520,4163;0,038621
3521,3806;0,038272
3522,3447;0,0378866
3523,3091;0,0374765
3524,2732;0,0370531
3525,2375;0,0366154
3526,2017;0,0361519
3527,1660;0,0356558
3528,1301;0,0351398
3529,0945;0,0346357
3530,0586;0,0341758
3531,0229;0,0337699
3531,9871;0,0333993
3532,9514;0,0330285
3533,9155;0,0326273
3534,8799;0,0321887
3535,8440;0,0317359
3536,8083;0,0313116
3537,7725;0,030957
3538,7368;0,0306906
3539,7009;0,0304992
3540,6653;0,0303405
3541,6294;0,0301518
3542,5938;0,029866
3543,5579;0,0294372
3544,5222;0,028873
3545,4863;0,0282465
3546,4507;0,0276609
3547,4148;0,0271828
3548,3792;0,0268043
3549,3433;0,0264594
3550,3076;0,0260712
3551,2717;0,0256002
3552,2361;0,0250683
3553,2002;0,0245447
3554,1646;0,0240968
3555,1287;0,023747
3556,0930;0,023469
3557,0571;0,0232189
3558,0215;0,0229733
3558,9856;0,0227471
3559,9500;0,0225802
3560,9141;0,022498
3561,8784;0,022473
3562,8425;0,0224122
3563,8069;0,022173
3564,7710;0,0216116
3565,7354;0,0206797
3566,6995;0,0195279
3567,6638;0,0184621
3568,6279;0,0177172
3569,5923;0,0173103
3570,5564;0,0171071
3571,5208;0,0169534
3572,4849;0,0167484
3573,4492;0,0164609
3574,4133;0,0161131
3575,3777;0,0157472
3576,3418;0,0153926
3577,3062;0,0150565
3578,2703;0,0147415
3579,2346;0,014467
3580,1987;0,01427
3581,1631;0,0141766
3582,1272;0,0141685
3583,0916;0,0141686
3584,0557;0,0140529
3585,0200;0,0136923
3585,9841;0,0130336
3586,9485;0,0121941
3587,9126;0,0114375
3588,8770;0,0109775
3589,8411;0,0108248
3590,8054;0,0108326
3591,7695;0,0108222
3592,7339;0,0106701
3593,6980;0,0103482
3594,6624;0,00992226
3595,6265;0,00949531
3596,5908;0,0091242
3597,5549;0,00878684
3598,5193;0,00842649
3599,4834;0,00802337
3600,4478;0,00762768
3601,4119;0,00732239
3602,3762;0,00714877
3603,3403;0,00706555
3604,3047;0,00696974
3605,2688;0,00675088
3606,2332;0,00634788
3607,1973;0,00578818
3608,1616;0,00517898
3609,1257;0,00463937
3610,0901;0,00422988
3611,0542;0,0039456
3612,0186;0,00375889
3612,9827;0,00365096
3613,9470;0,00360328
3614,9111;0,00356873
3615,8755;0,00345999
3616,8396;0,00317756
3617,8040;0,00267783
3618,7681;0,00204894
3619,7324;0,00150806
3620,6965;0,00126549
3621,6609;0,00137631
3622,6250;0,00173158
3623,5894;0,00214605
3624,5535;0,00242421
3625,5178;0,00237582
3626,4819;0,00183258
3627,4463;0,000749161
3628,4104;-0,000627367
3629,3748;-0,00181788
3630,3389;-0,00251879
3631,3032;-0,00280537
3632,2673;-0,00292526
3633,2317;-0,00307391
3634,1958;-0,00332654
3635,1602;-0,00366287
3636,1243;-0,0040234
3637,0886;-0,00436136
3638,0527;-0,0046607
3639,0171;-0,00491649
3639,9812;-0,00510658
3640,9456;-0,00518776
3641,9097;-0,00512306
3642,8740;-0,00491663
3643,8381;-0,0046304
3644,8025;-0,00438382
3645,7666;-0,00435664
3646,7310;-0,00478366
3647,6951;-0,00583749
3648,6594;-0,00732265
3649,6235;-0,00861717
3650,5879;-0,00926823
3651,5520;-0,00936369
3652,5164;-0,00924692
3653,4805;-0,00921359
3654,4448;-0,00941765
3655,4089;-0,0098563
3656,3733;-0,0103886
3657,3374;-0,0108297
3658,3018;-0,0110852
3659,2659;-0,0111916
3660,2302;-0,0112393
3661,1943;-0,0112776
3662,1587;-0,0112832
3663,1228;-0,0111989
3664,0872;-0,0110021
3665,0513;-0,0107423
3666,0156;-0,0105253
3666,9797;-0,0104629
3667,9441;-0,0106071
3668,9082;-0,0108902
3669,8726;-0,0111433
3670,8367;-0,0112449
3671,8010;-0,0112452
3672,7651;-0,011325
3673,7295;-0,0116654
3674,6936;-0,0123114
3675,6580;-0,0130781
3676,6221;-0,0136587
3677,5864;-0,0138975
3678,5505;-0,0138677
3679,5149;-0,0137129
3680,4790;-0,0135142
3681,4434;-0,013274
3682,4075;-0,0129666
3683,3718;-0,0125936
3684,3359;-0,012208
3685,3003;-0,0119007
3686,2644;-0,0117691
3687,2288;-0,0118784
3688,1929;-0,0122044
3689,1572;-0,0125903
3690,1213;-0,0128241
3691,0857;-0,0128095
3692,0498;-0,012606
3693,0142;-0,0123259
3693,9783;-0,0120496
3694,9426;-0,0118122
3695,9067;-0,0116252
3696,8711;-0,0115008
3697,8352;-0,0114623
3698,7996;-0,0115369
3699,7637;-0,0117317
3700,7280;-0,0120051
3701,6921;-0,0122603
3702,6565;-0,012386
3703,6206;-0,0123239
3704,5850;-0,0120984
3705,5491;-0,0117952
3706,5134;-0,0115301
3707,4775;-0,0114373
3708,4419;-0,0116645
3709,4060;-0,0123205
3710,3704;-0,0133401
3711,3345;-0,0144015
3712,2988;-0,0151219
3713,2629;-0,0153498
3714,2273;-0,0151868
3715,1914;-0,0148208
3716,1558;-0,0144039
3717,1199;-0,0140195
3718,0842;-0,0136919
3719,0483;-0,0134116
3720,0127;-0,0131654
3720,9768;-0,0129612
3721,9412;-0,0128313
3722,9053;-0,0128064
3723,8696;-0,0128788
3724,8337;-0,0129856
3725,7981;-0,013037
3726,7622;-0,0129734
3727,7266;-0,0127993
3728,6907;-0,0125714
3729,6550;-0,0123684
3730,6191;-0,0122725
3731,5835;-0,0123714
3732,5476;-0,0127548
3733,5120;-0,0134605
3734,4761;-0,0143615
3735,4404;-0,0151395
3736,4045;-0,015493
3737,3689;-0,0153665
3738,3330;-0,0149332
3739,2974;-0,0144415
3740,2615;-0,0141109
3741,2258;-0,0140927
3742,1899;-0,0144326
3743,1543;-0,0149993
3744,1184;-0,015468
3745,0828;-0,0155275
3746,0469;-0,0151632
3747,0112;-0,014647
3747,9753;-0,0143248
3748,9397;-0,0144565
3749,9038;-0,0150834
3750,8682;-0,0159048
3751,8323;-0,0164449
3752,7966;-0,0164821
3753,7607;-0,0161593
3754,7251;-0,0157475
3755,6892;-0,015459
3756,6536;-0,0153952
3757,6177;-0,0155396
3758,5820;-0,0157702
3759,5461;-0,0159296
3760,5105;-0,0159266
3761,4746;-0,0157773
3762,4390;-0,0155617
3763,4031;-0,0153631
3764,3674;-0,0152371
3765,3315;-0,0152098
3766,2959;-0,0152887
3767,2600;-0,0154726
3768,2244;-0,0157451
3769,1885;-0,0160571
3770,1528;-0,0163206
3771,1169;-0,0164426
3772,0813;-0,0163803
3773,0454;-0,0161674
3774,0098;-0,015893
3774,9739;-0,015659
3775,9382;-0,0155446
3776,9023;-0,0155792
3777,8667;-0,0157246
3778,8308;-0,0158876
3779,7952;-0,0159772
3780,7593;-0,0159656
3781,7236;-0,0158961
3782,6877;-0,0158398
3783,6521;-0,0158493
3784,6162;-0,0159356
3785,5806;-0,016068
3786,5447;-0,0161935
3787,5090;-0,0162615
3788,4731;-0,0162427
3789,4375;-0,0161357
3790,4016;-0,0159628
3791,3660;-0,0157571
3792,3301;-0,0155462
3793,2944;-0,0153389
3794,2585;-0,0151238
3795,2229;-0,0148865
3796,1870;-0,0146379
3797,1514;-0,0144326
3798,1155;-0,014355
3799,0798;-0,0144753
3800,0439;-0,0147867
3801,0083;-0,0151742
3801,9724;-0,015482
3802,9368;-0,015651
3803,9009;-0,0157642
3804,8652;-0,0159539
3805,8293;-0,0162727
3806,7937;-0,0166206
3807,7578;-0,0167964
3808,7222;-0,0166601
3809,6863;-0,0162478
3810,6506;-0,0157227
3811,6147;-0,0152576
3812,5791;-0,014958
3813,5432;-0,014835
3814,5076;-0,0148114
3815,4717;-0,0147762
3816,4360;-0,0146819
3817,4001;-0,0146024
3818,3645;-0,0146821
3819,3286;-0,0150155
3820,2930;-0,0155407
3821,2571;-0,016042
3822,2214;-0,0163113
3823,1855;-0,0163084
3824,1499;-0,0161424
3825,1140;-0,0159491
3826,0784;-0,015806
3827,0425;-0,0157173
3828,0068;-0,0156409
3828,9709;-0,0155296
3829,9353;-0,0153618
3830,8994;-0,0151481
3831,8638;-0,0149206
3832,8279;-0,0147201
3833,7922;-0,0145896
3834,7563;-0,0145711
3835,7207;-0,0146956
3836,6848;-0,0149627
3837,6492;-0,0153194
3838,6133;-0,0156713
3839,5776;-0,0159409
3840,5417;-0,0161169
3841,5061;-0,0162355
3842,4702;-0,0163198
3843,4346;-0,0163401
3844,3987;-0,0162273
3845,3630;-0,0159245
3846,3271;-0,0154366
3847,2915;-0,014842
3848,2556;-0,0142722
3849,2200;-0,0138915
3850,1841;-0,0138915
3851,1484;-0,0144643
3852,1125;-0,0156414
3853,0769;-0,0170059
3854,0410;-0,0178433
3855,0054;-0,0178614
3855,9695;-0,0173333
3856,9338;-0,016643
3857,8979;-0,0160293
3858,8623;-0,0155874
3859,8264;-0,0153295
3860,7908;-0,0152265
3861,7549;-0,015228
3862,7192;-0,0152701
3863,6833;-0,0152916
3864,6477;-0,0152633
3865,6118;-0,0152049
3866,5762;-0,0151709
3867,5403;-0,01522
3868,5046;-0,0153888
3869,4688;-0,0156722
3870,4331;-0,0160132
3871,3972;-0,0163166
3872,3616;-0,0164916
3873,3257;-0,0164957
3874,2900;-0,0163483
3875,2542;-0,0161139
3876,2185;-0,0158723
3877,1826;-0,0156908
3878,1470;-0,0156018
3879,1111;-0,0155947
3880,0754;-0,0156293
3881,0396;-0,015674
3882,0039;-0,0157371
3882,9680;-0,015852
3883,9324;-0,0160249
3884,8965;-0,0161995
3885,8608;-0,016288
3886,8250;-0,0162504
3887,7893;-0,0161389
3888,7534;-0,0160648
3889,7178;-0,0161178
3890,6819;-0,0162911
3891,6462;-0,016461
3892,6104;-0,0164688
3893,5747;-0,0162502
3894,5388;-0,015874
3895,5032;-0,0154704
3896,4673;-0,0151502
3897,4316;-0,014972
3898,3958;-0,0149461
3899,3601;-0,0150558
3900,3242;-0,0152842
3901,2886;-0,0156235
3902,2527;-0,0160533
3903,2170;-0,0165065
3904,1812;-0,0168782
3905,1455;-0,0170855
3906,1096;-0,0171195
3907,0740;-0,0170337
3908,0381;-0,0168955
3909,0024;-0,0167472
3909,9666;-0,0165983
3910,9309;-0,0164404
3911,8950;-0,0162714
3912,8594;-0,0161115
3913,8235;-0,0160009
3914,7878;-0,0159786
3915,7520;-0,0160544
3916,7163;-0,016189
3917,6804;-0,0163062
3918,6448;-0,0163417
3919,6089;-0,0162878
3920,5732;-0,0161951
3921,5374;-0,0161326
3922,5017;-0,016142
3923,4658;-0,01621
3924,4302;-0,0162761
3925,3943;-0,0162759
3926,3586;-0,0161913
3927,3228;-0,0160645
3928,2871;-0,0159716
3929,2512;-0,0159796
3930,2156;-0,0161107
3931,1797;-0,016325
3932,1440;-0,0165387
3933,1082;-0,0166732
3934,0725;-0,0166967
3935,0366;-0,0166268
3936,0010;-0,0165047
3936,9651;-0,016372
3937,9294;-0,0162608
3938,8936;-0,0161934
3939,8579;-0,0161807
3940,8220;-0,0162164
3941,7864;-0,0162732
3942,7505;-0,0163116
3943,7148;-0,0163026
3944,6790;-0,0162483
3945,6433;-0,0161822
3946,6074;-0,0161495
3947,5718;-0,0161813
3948,5359;-0,0162752
3949,5002;-0,0163962
3950,4644;-0,0164981
3951,4287;-0,0165519
3952,3928;-0,016558
3953,3572;-0,0165369
3954,3213;-0,0165119
3955,2856;-0,0164973
3956,2498;-0,0164967
3957,2141;-0,0165074
3958,1782;-0,0165256
3959,1426;-0,0165478
3960,1067;-0,0165694
3961,0710;-0,0165843
3962,0352;-0,0165873
3962,9995;-0,0165783
3963,9636;-0,0165639
3964,9280;-0,0165531
3965,8921;-0,0165518
3966,8564;-0,0165588
3967,8206;-0,0165672
3968,7849;-0,0165707
3969,7490;-0,0165697
3970,7134;-0,016572
3971,6775;-0,0165876
3972,6418;-0,0166202
3973,6060;-0,0166626
3974,5703;-0,0166992
3975,5344;-0,0167152
3976,4988;-0,0167054
3977,4629;-0,0166774
3978,4272;-0,0166473
3979,3914;-0,0166304
3980,3557;-0,0166339
3981,3198;-0,0166543
3982,2842;-0,0166799
3983,2483;-0,016698
3984,2126;-0,0167006
3985,1768;-0,0166879
3986,1411;-0,0166665
3987,1052;-0,0166457
3988,0696;-0,0166336
3989,0337;-0,0166338
3989,9980;-0,0166458
3990,9622;-0,0166658
3991,9265;-0,0166891
3992,8906;-0,0167115
3993,8550;-0,0167298
3994,8191;-0,0167425
3995,7834;-0,0167504
3996,7476;-0,0167571
3997,7119;-0,0167671
3998,6760;-0,0167834
3999,6404;-0,0168035
4000,6045;-0,0167193

##### Extended Information
[Comments]
Sample name
Comment
Username
Division
Organization;UNIVERSIDAD INDUSTRIAL DE SANTANDER

[Detailed Information]
Creation date;28/03/2025 11:25 a.m.

Data array type;Linear data array
Horizontal axis;Wavenumber [cm-1]
Vertical axis;Abs
Start;399,193 cm-1
End;4000,6 cm-1
Data interval;0,964233 cm-1
Data points;3736    

[Measurement Information]
Model name;FT/IR-4X1typeA
Serial No.;A035162111

Accessory;ATR PRO 4X
Accessory S/N;A021162126
Incident angle;45 deg

Measurement date;28/03/2025 11:24 a.m.

Light source;Standard
Detector;TGS
Accumulation;40
Resolution;4 cm-1
Zero filling;On
Apodization;Cosine
Gain;Auto (8)
Aperture;Auto (7 mm)
Scan speed;Auto (2 mm/sec)
Filter;Auto (12800 Hz)

