TITLE;
DATA TYPE;INFRARED SPECTRUM
ORIGIN;JASCO
OWNER;
DATE;25/03/28
TIME;16:23:50
SPECTROMETER/DATA SYSTEM;
LOCALE;9226
RESOLUTION;
DELTAX;0,964233
XUNITS;1/CM
YUNITS;ABSORBANCE
FIRSTX;  399,1927
LASTX; 4000,6047
NPOINTS;    3736
FIRSTY;     0,24537
MAXY;     0,24537
MINY;    -0,00920
XYDATA
399,1927;0,245366
400,1569;0,242244
401,1211;0,239982
402,0854;0,238686
403,0496;0,237883
404,0138;0,236967
404,9781;0,235519
405,9423;0,233516
406,9065;0,231328
407,8708;0,229469
408,8350;0,228273
409,7992;0,227762
410,7635;0,227749
411,7277;0,22806
412,6919;0,228674
413,6562;0,229683
414,6204;0,231157
415,5846;0,233024
416,5489;0,234988
417,5131;0,236511
418,4773;0,237022
419,4416;0,236464
420,4058;0,23544
421,3700;0,23455
422,3343;0,23392
423,2985;0,233396
424,2627;0,232861
425,2270;0,23237
426,1912;0,232089
427,1554;0,232113
428,1197;0,232321
429,0839;0,232406
430,0481;0,232049
431,0124;0,231132
431,9766;0,229835
432,9408;0,228558
433,9051;0,227705
434,8693;0,22746
435,8335;0,227715
436,7978;0,228161
437,7620;0,228495
438,7262;0,228564
439,6905;0,228375
440,6547;0,227991
441,6189;0,22743
442,5832;0,226637
443,5474;0,225566
444,5116;0,224285
445,4759;0,223011
446,4401;0,222009
447,4043;0,221456
448,3686;0,221353
449,3328;0,22154
450,2970;0,221794
451,2613;0,221952
452,2255;0,221998
453,1897;0,222031
454,1540;0,222161
455,1182;0,222394
456,0824;0,222588
457,0467;0,222511
458,0109;0,221997
458,9751;0,221112
459,9394;0,220129
460,9036;0,219348
461,8678;0,218952
462,8321;0,21898
463,7963;0,219364
464,7605;0,219958
465,7248;0,22057
466,6890;0,221015
467,6532;0,221175
468,6175;0,221017
469,5817;0,220578
470,5459;0,21993
471,5102;0,219158
472,4744;0,218339
473,4386;0,217531
474,4029;0,216759
475,3671;0,216032
476,3313;0,215379
477,2956;0,21486
478,2598;0,214556
479,2240;0,214523
480,1883;0,214724
481,1525;0,215005
482,1167;0,215131
483,0810;0,214894
484,0452;0,214242
485,0094;0,213334
485,9737;0,212452
486,9379;0,211835
487,9021;0,211551
488,8664;0,211494
489,8306;0,211475
490,7948;0,211323
491,7591;0,210968
492,7233;0,210462
493,6875;0,209935
494,6518;0,20952
495,6160;0,209296
496,5802;0,209281
497,5445;0,209441
498,5087;0,209715
499,4729;0,210024
500,4372;0,210279
501,4014;0,210399
502,3656;0,210334
503,3299;0,210092
504,2941;0,209749
505,2583;0,209414
506,2226;0,209204
507,1868;0,209192
508,1510;0,209379
509,1153;0,209692
510,0795;0,21002
511,0437;0,210277
512,0080;0,210449
512,9722;0,210593
513,9365;0,210796
514,9007;0,211115
515,8649;0,211536
516,8292;0,211967
517,7934;0,212286
518,7576;0,212409
519,7219;0,21234
520,6861;0,212151
521,6503;0,211928
522,6146;0,211728
523,5788;0,211567
524,5430;0,211428
525,5073;0,211267
526,4715;0,211033
527,4357;0,210682
528,4000;0,210202
529,3642;0,209616
530,3284;0,208982
531,2927;0,208371
532,2569;0,207844
533,2211;0,207416
534,1854;0,20705
535,1496;0,206668
536,1138;0,2062
537,0781;0,205623
538,0423;0,204979
539,0065;0,204357
539,9708;0,203848
540,9350;0,203504
541,8992;0,203318
542,8635;0,203224
543,8277;0,203123
544,7919;0,202918
545,7562;0,202557
546,7204;0,202058
547,6846;0,201517
548,6489;0,201064
549,6131;0,200807
550,5773;0,200772
551,5416;0,200888
552,5058;0,201022
553,4700;0,201036
554,4343;0,200838
555,3985;0,200399
556,3627;0,19974
557,3270;0,198897
558,2912;0,197895
559,2554;0,196752
560,2197;0,195505
561,1839;0,194221
562,1481;0,192997
563,1124;0,191928
564,0766;0,191075
565,0408;0,190438
566,0051;0,189953
566,9693;0,18952
567,9335;0,189044
568,8978;0,188479
569,8620;0,187852
570,8262;0,187234
571,7905;0,186698
572,7547;0,186272
573,7189;0,185925
574,6832;0,185594
575,6474;0,185224
576,6116;0,184808
577,5759;0,184387
578,5401;0,184016
579,5043;0,183712
580,4686;0,183444
581,4328;0,183153
582,3970;0,182791
583,3613;0,182355
584,3255;0,181884
585,2897;0,181432
586,2540;0,181033
587,2182;0,180696
588,1824;0,180409
589,1467;0,180158
590,1109;0,179922
591,0751;0,179665
592,0394;0,179338
593,0036;0,178895
593,9678;0,178325
594,9321;0,177667
595,8963;0,176991
596,8605;0,176359
597,8248;0,175801
598,7890;0,175302
599,7532;0,17483
600,7175;0,174358
601,6817;0,17389
602,6459;0,173451
603,6102;0,173061
604,5744;0,172727
605,5386;0,172433
606,5029;0,172148
607,4671;0,171834
608,4313;0,171449
609,3956;0,170958
610,3598;0,170355
611,3240;0,169691
612,2883;0,169066
613,2525;0,168587
614,2167;0,168306
615,1810;0,168157
616,1452;0,167957
617,1094;0,16748
618,0737;0,166589
619,0379;0,165318
620,0021;0,163854
620,9664;0,162427
621,9306;0,161203
622,8948;0,160237
623,8591;0,159484
624,8233;0,158805
625,7875;0,158211
626,7518;0,157653
627,7160;0,157119
628,6802;0,15661
629,6445;0,156136
630,6087;0,155697
631,5729;0,155285
632,5372;0,15488
633,5014;0,154461
634,4656;0,15401
635,4299;0,153536
636,3941;0,153068
637,3583;0,152644
638,3226;0,152288
639,2868;0,151998
640,2510;0,151747
641,2153;0,151509
642,1795;0,151277
643,1437;0,151063
644,1080;0,150883
645,0722;0,150732
646,0364;0,150578
647,0007;0,150379
647,9649;0,150108
648,9291;0,149778
649,8934;0,149434
650,8576;0,149133
651,8218;0,148912
652,7861;0,148777
653,7503;0,148707
654,7145;0,148661
655,6788;0,148594
656,6430;0,148461
657,6072;0,148241
658,5715;0,147932
659,5357;0,14755
660,4999;0,147091
661,4642;0,146497
662,4284;0,145648
663,3926;0,144396
664,3569;0,142694
665,3211;0,140788
666,2853;0,139324
667,2496;0,139012
668,2138;0,139694
669,1780;0,140283
670,1423;0,140283
671,1065;0,139903
672,0707;0,139203
673,0350;0,138133
673,9992;0,136782
674,9634;0,135369
675,9277;0,134083
676,8919;0,132969
677,8561;0,131951
678,8204;0,130943
679,7846;0,12992
680,7488;0,128913
681,7131;0,12797
682,6773;0,127109
683,6415;0,126328
684,6058;0,125617
685,5700;0,124977
686,5342;0,124406
687,4985;0,123891
688,4627;0,123419
689,4269;0,122974
690,3912;0,122561
691,3554;0,122199
692,3196;0,121894
693,2839;0,121623
694,2481;0,121334
695,2123;0,120973
696,1766;0,12051
697,1408;0,119945
698,1050;0,119304
699,0693;0,118618
700,0335;0,11792
700,9977;0,117235
701,9620;0,116582
702,9262;0,115971
703,8904;0,115382
704,8547;0,114803
705,8189;0,11421
706,7831;0,113581
707,7474;0,112904
708,7116;0,112177
709,6758;0,111408
710,6401;0,110602
711,6043;0,109764
712,5685;0,108909
713,5328;0,10807
714,4970;0,107308
715,4612;0,105639
716,4255;0,105432
717,3897;0,105467
718,3539;0,105568
719,3182;0,105478
720,2824;0,104979
721,2466;0,104028
722,2109;0,102783
723,1751;0,101512
724,1393;0,100452
725,1036;0,0997008
726,0678;0,0992121
727,0320;0,0988501
727,9963;0,0984772
728,9605;0,0980214
729,9247;0,0974907
730,8890;0,09694
731,8532;0,0964233
732,8174;0,095964
733,7817;0,0955561
734,7459;0,095184
735,7101;0,0948404
736,6744;0,0945294
737,6386;0,0942558
738,6028;0,0940124
739,5671;0,0937772
740,5313;0,093523
741,4955;0,0932326
742,4598;0,0929075
743,4240;0,0925647
744,3882;0,0922229
745,3525;0,0918884
746,3167;0,0915522
747,2809;0,0911987
748,2452;0,0908203
749,2094;0,0904269
750,1736;0,0900421
751,1379;0,0896902
752,1021;0,0893808
753,0663;0,0891031
754,0306;0,0888322
754,9948;0,0885432
755,9590;0,0882237
756,9233;0,0878781
757,8875;0,0875219
758,8517;0,087172
759,8160;0,0868396
760,7802;0,0865298
761,7444;0,0862449
762,7087;0,0859882
763,6729;0,085762
764,6371;0,0855625
765,6014;0,0853743
766,5656;0,0851729
767,5298;0,0849341
768,4941;0,0846473
769,4583;0,0843231
770,4225;0,0839886
771,3868;0,083674
772,3510;0,0833958
773,3152;0,0831484
774,2795;0,0829074
775,2437;0,0826419
776,2079;0,0823283
777,1722;0,0819574
778,1364;0,0815347
779,1006;0,0810744
780,0649;0,0805938
781,0291;0,0801091
781,9933;0,0796341
782,9576;0,0791791
783,9218;0,0787492
784,8860;0,0783441
785,8503;0,0779594
786,8145;0,0775906
787,7787;0,0772372
788,7430;0,0769062
789,7072;0,076611
790,6714;0,0763662
791,6357;0,0761809
792,5999;0,0760531
793,5641;0,0759702
794,5284;0,0759142
795,4926;0,0758691
796,4568;0,0758266
797,4211;0,075785
798,3853;0,0757443
799,3495;0,0757018
800,3138;0,075652
801,2780;0,0755918
802,2422;0,0755249
803,2065;0,0754608
804,1707;0,0754059
805,1349;0,0753553
806,0992;0,075291
807,0634;0,0751906
808,0276;0,0750405
808,9919;0,0748435
809,9561;0,074613
810,9203;0,0743594
811,8846;0,0740772
812,8488;0,0737452
813,8130;0,0733395
814,7773;0,0728515
815,7415;0,0722968
816,7057;0,0717101
817,6700;0,0711297
818,6342;0,070582
819,5984;0,0700747
820,5627;0,069601
821,5269;0,0691485
822,4911;0,0687074
823,4554;0,0682742
824,4196;0,0678519
825,3839;0,0674486
826,3481;0,0670759
827,3123;0,0667463
828,2766;0,0664683
829,2408;0,0662418
830,2050;0,0660559
831,1693;0,0658916
832,1335;0,0657289
833,0977;0,0655549
834,0620;0,0653668
835,0262;0,0651689
835,9904;0,0649661
836,9547;0,0647568
837,9189;0,0645333
838,8831;0,064288
839,8474;0,0640236
840,8116;0,0637593
841,7758;0,0635275
842,7401;0,0633628
843,7043;0,0632883
844,6685;0,063308
845,6328;0,0634084
846,5970;0,0635694
847,5612;0,0637752
848,5255;0,0640189
849,4897;0,0642994
850,4539;0,0646121
851,4182;0,0649425
852,3824;0,0652659
853,3466;0,0655535
854,3109;0,0657821
855,2751;0,0659408
856,2393;0,0660327
857,2036;0,0660722
858,1678;0,0660785
859,1320;0,0660695
860,0963;0,0660571
861,0605;0,0660453
862,0247;0,0660314
862,9890;0,0660105
863,9532;0,0659783
864,9174;0,0659336
865,8817;0,0658771
866,8459;0,06581
867,8101;0,065734
868,7744;0,0656539
869,7386;0,0655801
870,7028;0,0655277
871,6671;0,0655115
872,6313;0,0655388
873,5955;0,065606
874,5598;0,0657018
875,5240;0,0658149
876,4882;0,0659415
877,4525;0,0660857
878,4167;0,0662529
879,3809;0,066442
880,3452;0,0666437
881,3094;0,0668471
882,2736;0,0670507
883,2379;0,0672698
884,2021;0,0675324
885,1663;0,0678667
886,1306;0,0682846
887,0948;0,0687737
888,0590;0,0693004
889,0233;0,0698227
889,9875;0,0703044
890,9517;0,0707245
891,9160;0,0710759
892,8802;0,0713571
893,8444;0,0715636
894,8087;0,0716837
895,7729;0,0717017
896,7371;0,0716073
897,7014;0,0714033
898,6656;0,0711075
899,6298;0,0707475
900,5941;0,0703502
901,5583;0,0699341
902,5225;0,0695062
903,4868;0,0690665
904,4510;0,0686159
905,4152;0,0681624
906,3795;0,0677229
907,3437;0,0673209
908,3079;0,0669805
909,2722;0,0667194
910,2364;0,0665425
911,2007;0,0664397
912,1649;0,0663883
913,1292;0,0663616
914,0934;0,0663413
915,0576;0,0663262
916,0219;0,0663331
916,9861;0,0663862
917,9503;0,0665024
918,9146;0,0666794
919,8788;0,0668962
920,8430;0,0671249
921,8073;0,067347
922,7715;0,0675641
923,7357;0,0677951
924,7000;0,0680641
925,6642;0,0683858
926,6284;0,0687577
927,5927;0,0691637
928,5569;0,0695842
929,5211;0,0700069
930,4854;0,0704316
931,4496;0,0708681
932,4138;0,071329
933,3781;0,0718233
934,3423;0,0723521
935,3065;0,072909
936,2708;0,0734832
937,2350;0,0740649
938,1992;0,0746497
939,1635;0,0752417
940,1277;0,0758513
941,0919;0,0764902
942,0562;0,0771636
943,0204;0,0778665
943,9846;0,0785844
944,9489;0,0793017
945,9131;0,0800103
946,8773;0,080716
947,8416;0,0814367
948,8058;0,0821935
949,7700;0,0830013
950,7343;0,0838631
951,6985;0,0847723
952,6627;0,0857206
953,6270;0,0867063
954,5912;0,0877373
955,5554;0,0888269
956,5197;0,089984
957,4839;0,0912051
958,4481;0,0924715
959,4124;0,0937541
960,3766;0,0950235
961,3408;0,0962603
962,3051;0,0974601
963,2693;0,0986315
964,2335;0,0997907
965,1978;0,100954
966,1620;0,102135
967,1262;0,103341
968,0905;0,104577
969,0547;0,105845
970,0189;0,107152
970,9832;0,108507
971,9474;0,10993
972,9116;0,111445
973,8759;0,113079
974,8401;0,114852
975,8043;0,116777
976,7686;0,118851
977,7328;0,121068
978,6970;0,123413
979,6613;0,12587
980,6255;0,128414
981,5897;0,131009
982,5540;0,133607
983,5182;0,136162
984,4824;0,138638
985,4467;0,141021
986,4109;0,143313
987,3751;0,14553
988,3394;0,147684
989,3036;0,149778
990,2678;0,151808
991,2321;0,153768
992,1963;0,155658
993,1605;0,15748
994,1248;0,159247
995,0890;0,160966
996,0532;0,162647
997,0175;0,164291
997,9817;0,165903
998,9459;0,167487
999,9102;0,169052
1000,8744;0,170608
1001,8386;0,172162
1002,8029;0,173714
1003,7671;0,175253
1004,7313;0,176764
1005,6956;0,178235
1006,6598;0,179667
1007,6240;0,181077
1008,5883;0,182495
1009,5525;0,183952
1010,5167;0,18547
1011,4810;0,187046
1012,4452;0,188654
1013,4094;0,19025
1014,3737;0,19178
1015,3379;0,193202
1016,3021;0,194488
1017,2664;0,195629
1018,2306;0,196625
1019,1948;0,197479
1020,1591;0,198189
1021,1233;0,19875
1022,0875;0,199155
1023,0518;0,199405
1024,0160;0,199505
1024,9802;0,199465
1025,9445;0,199289
1026,9087;0,198968
1027,8729;0,198487
1028,8372;0,197817
1029,8014;0,196931
1030,7656;0,195801
1031,7299;0,194407
1032,6941;0,192747
1033,6583;0,190842
1034,6226;0,188742
1035,5868;0,186527
1036,5510;0,184293
1037,5153;0,182142
1038,4795;0,180157
1039,4437;0,178396
1040,4080;0,176886
1041,3722;0,175622
1042,3364;0,174578
1043,3007;0,173708
1044,2649;0,172957
1045,2291;0,172265
1046,1934;0,171576
1047,1576;0,170847
1048,1218;0,170048
1049,0861;0,169162
1050,0503;0,168184
1051,0145;0,167112
1051,9788;0,165949
1052,9430;0,164703
1053,9072;0,163385
1054,8715;0,162004
1055,8357;0,16056
1056,7999;0,15904
1057,7642;0,157418
1058,7284;0,155668
1059,6926;0,153781
1060,6569;0,151772
1061,6211;0,149682
1062,5853;0,147566
1063,5496;0,145477
1064,5138;0,143453
1065,4780;0,141509
1066,4423;0,139641
1067,4065;0,137835
1068,3707;0,136069
1069,3350;0,134326
1070,2992;0,132591
1071,2634;0,130854
1072,2277;0,129113
1073,1919;0,127367
1074,1561;0,125615
1075,1204;0,123861
1076,0846;0,12211
1077,0488;0,120381
1078,0131;0,118706
1078,9773;0,117128
1079,9415;0,115694
1080,9058;0,114439
1081,8700;0,113376
1082,8342;0,112488
1083,7985;0,111736
1084,7627;0,111068
1085,7269;0,110432
1086,6912;0,109792
1087,6554;0,109131
1088,6196;0,108448
1089,5839;0,10775
1090,5481;0,107042
1091,5123;0,106316
1092,4766;0,105555
1093,4408;0,104745
1094,4050;0,103886
1095,3693;0,102998
1096,3335;0,102117
1097,2977;0,10128
1098,2620;0,10051
1099,2262;0,0998084
1100,1904;0,0991585
1101,1547;0,0985372
1102,1189;0,0979267
1103,0831;0,0973193
1104,0474;0,0967139
1105,0116;0,0961095
1105,9758;0,0955004
1106,9401;0,0948754
1107,9043;0,0942212
1108,8685;0,0935253
1109,8328;0,0927765
1110,7970;0,0919646
1111,7612;0,0910808
1112,7255;0,0901215
1113,6897;0,0890916
1114,6539;0,0880076
1115,6182;0,0868955
1116,5824;0,0857853
1117,5466;0,0847041
1118,5109;0,0836705
1119,4751;0,0826912
1120,4393;0,0817599
1121,4036;0,0808592
1122,3678;0,0799647
1123,3320;0,0790528
1124,2963;0,0781083
1125,2605;0,0771303
1126,2247;0,0761328
1127,1890;0,0751391
1128,1532;0,0741748
1129,1174;0,0732618
1130,0817;0,072416
1131,0459;0,0716477
1132,0101;0,0709636
1132,9744;0,0703666
1133,9386;0,0698561
1134,9028;0,069429
1135,8671;0,0690809
1136,8313;0,0688072
1137,7955;0,0686017
1138,7598;0,068453
1139,7240;0,0683418
1140,6882;0,0682426
1141,6525;0,0681302
1142,6167;0,0679884
1143,5809;0,0678167
1144,5452;0,0676315
1145,5094;0,0674599
1146,4736;0,0673313
1147,4379;0,0672695
1148,4021;0,0672872
1149,3663;0,0673846
1150,3306;0,0675511
1151,2948;0,0677686
1152,2590;0,0680143
1153,2233;0,0682626
1154,1875;0,0684833
1155,1517;0,0686394
1156,1160;0,0686852
1157,0802;0,0685688
1158,0444;0,068239
1159,0087;0,0676533
1159,9729;0,0667856
1160,9371;0,0656288
1161,9014;0,064195
1162,8656;0,0625137
1163,8298;0,0606293
1164,7941;0,0585979
1165,7583;0,0564834
1166,7225;0,05435
1167,6868;0,0522561
1168,6510;0,0502482
1169,6152;0,0483593
1170,5795;0,0466101
1171,5437;0,0450108
1172,5079;0,0435638
1173,4722;0,0422653
1174,4364;0,0411067
1175,4006;0,0400772
1176,3649;0,0391667
1177,3291;0,0383681
1178,2933;0,0376788
1179,2576;0,0370988
1180,2218;0,0366283
1181,1860;0,0362659
1182,1503;0,0360073
1183,1145;0,0358468
1184,0787;0,0357789
1185,0430;0,0357995
1186,0072;0,0359058
1186,9714;0,0360948
1187,9357;0,0363624
1188,8999;0,0367032
1189,8641;0,0371105
1190,8284;0,0375778
1191,7926;0,0380985
1192,7568;0,0386672
1193,7211;0,0392797
1194,6853;0,0399338
1195,6495;0,0406288
1196,6138;0,0413628
1197,5780;0,0421295
1198,5422;0,0429158
1199,5065;0,0435049
1200,4707;0,0442963
1201,4349;0,0450556
1202,3992;0,0457767
1203,3634;0,0464623
1204,3276;0,0471183
1205,2919;0,0477481
1206,2561;0,0483506
1207,2203;0,0489225
1208,1846;0,0494631
1209,1488;0,0499766
1210,1130;0,0504701
1211,0773;0,0509497
1212,0415;0,0514175
1213,0057;0,0518717
1213,9700;0,0523106
1214,9342;0,0527349
1215,8984;0,0531482
1216,8627;0,0535522
1217,8269;0,0539436
1218,7911;0,0543162
1219,7554;0,0546624
1220,7196;0,0549765
1221,6838;0,0552562
1222,6481;0,0555007
1223,6123;0,0557076
1224,5765;0,0558714
1225,5408;0,0559845
1226,5050;0,0560407
1227,4692;0,0560382
1228,4335;0,0559818
1229,3977;0,0558813
1230,3619;0,0557485
1231,3262;0,055594
1232,2904;0,0554254
1233,2546;0,0552476
1234,2189;0,0550662
1235,1831;0,0548898
1236,1473;0,0547315
1237,1116;0,0546064
1238,0758;0,0545282
1239,0400;0,0545048
1240,0043;0,0545377
1240,9685;0,054624
1241,9327;0,0547597
1242,8970;0,0549418
1243,8612;0,0551675
1244,8254;0,0554324
1245,7897;0,0557294
1246,7539;0,0560515
1247,7181;0,0563947
1248,6824;0,0567605
1249,6466;0,057155
1250,6108;0,0575847
1251,5751;0,0580516
1252,5393;0,0585511
1253,5035;0,0590738
1254,4678;0,0596086
1255,4320;0,0601443
1256,3962;0,0606684
1257,3605;0,0611631
1258,3247;0,0616043
1259,2889;0,0619646
1260,2532;0,0622208
1261,2174;0,0623609
1262,1816;0,0623858
1263,1459;0,062305
1264,1101;0,0621295
1265,0743;0,0618656
1266,0386;0,0615133
1267,0028;0,0610662
1267,9670;0,0605145
1268,9313;0,0598479
1269,8955;0,059062
1270,8597;0,0581636
1271,8240;0,0571739
1272,7882;0,0561253
1273,7524;0,0550535
1274,7167;0,053988
1275,6809;0,052947
1276,6451;0,0519371
1277,6094;0,0509572
1278,5736;0,0500042
1279,5378;0,0490775
1280,5021;0,048182
1281,4663;0,047328
1282,4305;0,0465285
1283,3948;0,0457946
1284,3590;0,0451308
1285,3232;0,0445339
1286,2875;0,0439949
1287,2517;0,0435052
1288,2159;0,0430611
1289,1802;0,0426664
1290,1444;0,0423293
1291,1086;0,0420573
1292,0729;0,0418533
1293,0371;0,0417152
1294,0013;0,0416379
1294,9656;0,0416163
1295,9298;0,0416452
1296,8940;0,0417184
1297,8583;0,0418274
1298,8225;0,041962
1299,7867;0,0421134
1300,7510;0,042277
1301,7152;0,0424572
1302,6794;0,0426608
1303,6437;0,0428937
1304,6079;0,0431578
1305,5721;0,0434491
1306,5364;0,0437607
1307,5006;0,0440863
1308,4648;0,0444231
1309,4291;0,0447684
1310,3933;0,0451161
1311,3575;0,0454537
1312,3218;0,0457644
1313,2860;0,0460307
1314,2502;0,0462381
1315,2145;0,0463726
1316,1787;0,0464166
1317,1429;0,046349
1318,1072;0,0461554
1319,0714;0,045842
1320,0356;0,0454436
1320,9999;0,0450132
1321,9641;0,0446013
1322,9283;0,0442392
1323,8926;0,0439366
1324,8568;0,0436902
1325,8210;0,043493
1326,7853;0,04334
1327,7495;0,0432281
1328,7137;0,0431536
1329,6780;0,0431112
1330,6422;0,0430978
1331,6064;0,0431167
1332,5707;0,0431781
1333,5349;0,0432973
1334,4991;0,0434836
1335,4634;0,043727
1336,4276;0,0439851
1337,3918;0,0441756
1338,3561;0,0441957
1339,3203;0,0439827
1340,2845;0,0435726
1341,2488;0,0430853
1342,2130;0,0426445
1343,1772;0,0423178
1344,1415;0,0421145
1345,1057;0,0420128
1346,0699;0,0419838
1347,0342;0,042004
1347,9984;0,0420632
1348,9626;0,0421633
1349,9269;0,0423111
1350,8911;0,0425077
1351,8553;0,0427426
1352,8196;0,0429957
1353,7838;0,0432478
1354,7480;0,0434921
1355,7123;0,0437408
1356,6765;0,0440194
1357,6407;0,0443521
1358,6050;0,0447487
1359,5692;0,0451961
1360,5334;0,0456481
1361,4977;0,0460291
1362,4619;0,0462775
1363,4261;0,0464032
1364,3904;0,0464805
1365,3546;0,0465784
1366,3188;0,0467168
1367,2831;0,046877
1368,2473;0,0470292
1369,2115;0,047151
1370,1758;0,0472303
1371,1400;0,0472559
1372,1042;0,047205
1373,0685;0,0470413
1374,0327;0,0467363
1374,9969;0,0463022
1375,9612;0,045792
1376,9254;0,0452524
1377,8896;0,0446865
1378,8539;0,0440723
1379,8181;0,043407
1380,7823;0,0427304
1381,7466;0,0421047
1382,7108;0,0415705
1383,6750;0,0411199
1384,6393;0,0407058
1385,6035;0,0402717
1386,5677;0,0397897
1387,5320;0,0392972
1388,4962;0,0388833
1389,4604;0,0386121
1390,4247;0,0384764
1391,3889;0,0384344
1392,3531;0,0384641
1393,3174;0,0385703
1394,2816;0,0387462
1395,2458;0,0389386
1396,2101;0,0390666
1397,1743;0,0390813
1398,1385;0,0390085
1399,1028;0,0389348
1400,0670;0,0389513
1401,0313;0,0391025
1401,9955;0,039373
1402,9597;0,0397102
1403,9240;0,0400585
1404,8882;0,0403891
1405,8524;0,0407142
1406,8167;0,0410713
1407,7809;0,0414863
1408,7451;0,0419533
1409,7094;0,04245
1410,6736;0,042964
1411,6378;0,0435018
1412,6021;0,0440731
1413,5663;0,0446655
1414,5305;0,0452363
1415,4948;0,0457261
1416,4590;0,0460704
1417,4232;0,0462026
1418,3875;0,0461024
1419,3517;0,0458803
1420,3159;0,0457208
1421,2802;0,0456916
1422,2444;0,0456951
1423,2086;0,045591
1424,1729;0,0453106
1425,1371;0,0448794
1426,1013;0,0443679
1427,0656;0,0438297
1428,0298;0,0432794
1428,9940;0,0427156
1429,9583;0,0421539
1430,9225;0,0416234
1431,8867;0,0411229
1432,8510;0,0405928
1433,8152;0,0399457
1434,7794;0,0391252
1435,7437;0,0381662
1436,7079;0,0372407
1437,6721;0,0365979
1438,6364;0,0363652
1439,6006;0,0364524
1440,5648;0,0366785
1441,5291;0,0369226
1442,4933;0,0371656
1443,4575;0,0374491
1444,4218;0,0378129
1445,3860;0,0382565
1446,3502;0,0387414
1447,3145;0,0392238
1448,2787;0,039688
1449,2429;0,0401495
1450,2072;0,0406166
1451,1714;0,0410481
1452,1356;0,0413632
1453,0999;0,041496
1454,0641;0,0414408
1455,0283;0,041225
1455,9926;0,0407841
1456,9568;0,0399871
1457,9210;0,0390698
1458,8853;0,0385606
1459,8495;0,0385605
1460,8137;0,0387567
1461,7780;0,0388383
1462,7422;0,0386571
1463,7064;0,0382019
1464,6707;0,0375577
1465,6349;0,0368807
1466,5991;0,0363039
1467,5634;0,0358205
1468,5276;0,0353095
1469,4918;0,0346543
1470,4561;0,033803
1471,4203;0,032736
1472,3845;0,0314324
1473,3488;0,0299665
1474,3130;0,0285894
1475,2772;0,027531
1476,2415;0,0268157
1477,2057;0,0263397
1478,1699;0,0259979
1479,1342;0,0257257
1480,0984;0,0254925
1481,0626;0,0252938
1482,0269;0,0251495
1482,9911;0,0250939
1483,9553;0,025157
1484,9196;0,0253532
1485,8838;0,0256829
1486,8480;0,0261162
1487,8123;0,0265408
1488,7765;0,0267691
1489,7407;0,0267324
1490,7050;0,0266149
1491,6692;0,0266338
1492,6334;0,0268369
1493,5977;0,0271709
1494,5619;0,0276088
1495,5261;0,0281814
1496,4904;0,0289243
1497,4546;0,0298319
1498,4188;0,0308848
1499,3831;0,032057
1500,3473;0,0332495
1501,3115;0,034298
1502,2758;0,0350771
1503,2400;0,0356134
1504,2042;0,0361575
1505,1685;0,0371184
1506,1327;0,0386019
1507,0969;0,0398474
1508,0612;0,0401126
1509,0254;0,0397566
1509,9896;0,0392985
1510,9539;0,0388306
1511,9181;0,0382824
1512,8823;0,0376071
1513,8466;0,0367886
1514,8108;0,0358078
1515,7750;0,0346432
1516,7393;0,0333038
1517,7035;0,0318402
1518,6677;0,030315
1519,6320;0,0287791
1520,5962;0,0272937
1521,5604;0,0259606
1522,5247;0,0248844
1523,4889;0,0240758
1524,4531;0,0234357
1525,4174;0,0228516
1526,3816;0,0222939
1527,3458;0,0218155
1528,3101;0,0214717
1529,2743;0,0212624
1530,2385;0,0211517
1531,2028;0,0211163
1532,1670;0,0211547
1533,1312;0,0212603
1534,0955;0,021404
1535,0597;0,0215287
1536,0239;0,0215638
1536,9882;0,0214963
1537,9524;0,0214605
1538,9166;0,0217083
1539,8809;0,0222939
1540,8451;0,0227718
1541,8093;0,0227903
1542,7736;0,0226027
1543,7378;0,0224732
1544,7020;0,0224323
1545,6663;0,0224643
1546,6305;0,0225775
1547,5947;0,0227687
1548,5590;0,0230013
1549,5232;0,0232296
1550,4874;0,0234361
1551,4517;0,0236413
1552,4159;0,023867
1553,3801;0,024087
1554,3444;0,024224
1555,3086;0,0242052
1556,2728;0,0240064
1557,2371;0,0235818
1558,2013;0,0228028
1559,1655;0,0219476
1560,1298;0,0218189
1561,0940;0,0225972
1562,0582;0,0237838
1563,0225;0,0249075
1563,9867;0,0257573
1564,9509;0,026318
1565,9152;0,0266781
1566,8794;0,0269646
1567,8436;0,0272935
1568,8079;0,0277341
1569,7721;0,028298
1570,7363;0,0289417
1571,7006;0,0295775
1572,6648;0,0301251
1573,6290;0,0305763
1574,5933;0,0310041
1575,5575;0,0314848
1576,5217;0,0320302
1577,4860;0,0326375
1578,4502;0,033315
1579,4144;0,0340193
1580,3787;0,0346739
1581,3429;0,035239
1582,3071;0,0357281
1583,2714;0,036178
1584,2356;0,0366165
1585,1998;0,0370502
1586,1641;0,0374696
1587,1283;0,0378581
1588,0925;0,0382017
1589,0568;0,0384929
1590,0210;0,0387306
1590,9852;0,0389156
1591,9495;0,0390439
1592,9137;0,0391044
1593,8779;0,0390845
1594,8422;0,0389833
1595,8064;0,038821
1596,7706;0,0386341
1597,7349;0,0384583
1598,6991;0,0383113
1599,6633;0,0381881
1600,6276;0,0380684
1601,5918;0,0379329
1602,5560;0,0377785
1603,5203;0,0376206
1604,4845;0,037476
1605,4487;0,0373425
1606,4130;0,0371952
1607,3772;0,0370064
1608,3414;0,0367764
1609,3057;0,0365486
1610,2699;0,0363775
1611,2341;0,0362711
1612,1984;0,0361726
1613,1626;0,036005
1614,1268;0,0357299
1615,0911;0,0353731
1616,0553;0,0350278
1617,0195;0,0348455
1617,9838;0,0349398
1618,9480;0,0352543
1619,9122;0,0356045
1620,8765;0,0358307
1621,8407;0,0358804
1622,8049;0,0357992
1623,7692;0,0356822
1624,7334;0,0356141
1625,6976;0,035625
1626,6619;0,0356979
1627,6261;0,0358164
1628,5903;0,0359829
1629,5546;0,0361876
1630,5188;0,0363761
1631,4830;0,0364723
1632,4473;0,0364447
1633,4115;0,036345
1634,3757;0,036253
1635,3400;0,0361633
1636,3042;0,0360486
1637,2684;0,036021
1638,2327;0,0361803
1639,1969;0,0364609
1640,1611;0,0367324
1641,1254;0,0369066
1642,0896;0,0369596
1643,0538;0,0369296
1644,0181;0,0369068
1644,9823;0,0369776
1645,9465;0,0371252
1646,9108;0,0372388
1647,8750;0,0372432
1648,8392;0,0370822
1649,8035;0,0366603
1650,7677;0,0359136
1651,7319;0,0348568
1652,6962;0,0335626
1653,6604;0,0323633
1654,6246;0,0318716
1655,5889;0,0321736
1656,5531;0,0327641
1657,5173;0,0331765
1658,4816;0,0332168
1659,4458;0,032897
1660,4100;0,0323224
1661,3743;0,0316189
1662,3385;0,0309196
1663,3027;0,0303544
1664,2670;0,0299776
1665,2312;0,0297288
1666,1954;0,0294932
1667,1597;0,0291723
1668,1239;0,0287011
1669,0881;0,0280551
1670,0524;0,0272914
1671,0166;0,0265301
1671,9808;0,025824
1672,9451;0,0251181
1673,9093;0,024365
1674,8735;0,023641
1675,8378;0,0231361
1676,8020;0,0230002
1677,7662;0,0231868
1678,7305;0,0234722
1679,6947;0,0236043
1680,6589;0,0234154
1681,6232;0,022835
1682,5874;0,0218514
1683,5516;0,0205712
1684,5159;0,0193859
1685,4801;0,0187369
1686,4443;0,0186332
1687,4086;0,0187453
1688,3728;0,01877
1689,3370;0,0185803
1690,3013;0,0181985
1691,2655;0,0177218
1692,2297;0,0172642
1693,1940;0,0169276
1694,1582;0,0167792
1695,1224;0,0168072
1696,0867;0,0168732
1697,0509;0,0167414
1698,0151;0,0162392
1698,9794;0,0154567
1699,9436;0,0147535
1700,9078;0,0144776
1701,8721;0,0146837
1702,8363;0,0151462
1703,8005;0,0155666
1704,7648;0,0157476
1705,7290;0,0156659
1706,6932;0,0154564
1707,6575;0,015311
1708,6217;0,0153487
1709,5859;0,0155649
1710,5502;0,0158837
1711,5144;0,0162307
1712,4786;0,0165638
1713,4429;0,016857
1714,4071;0,0170508
1715,3713;0,0169934
1716,3356;0,0164956
1717,2998;0,0156206
1718,2640;0,0148094
1719,2283;0,0144325
1720,1925;0,0144588
1721,1567;0,014638
1722,1210;0,0147542
1723,0852;0,0147234
1724,0494;0,0145853
1725,0137;0,0144542
1725,9779;0,0144471
1726,9421;0,0146187
1727,9064;0,0149333
1728,8706;0,0152835
1729,8348;0,0155365
1730,7991;0,0155755
1731,7633;0,0153254
1732,7275;0,0147922
1733,6918;0,0141466
1734,6560;0,0136928
1735,6202;0,0136
1736,5845;0,0137576
1737,5487;0,0139425
1738,5129;0,014014
1739,4772;0,0139695
1740,4414;0,0138985
1741,4056;0,0138974
1742,3699;0,0139982
1743,3341;0,0141573
1744,2983;0,014298
1745,2626;0,0143553
1746,2268;0,0142821
1747,1910;0,0140224
1748,1553;0,0134949
1749,1195;0,0126523
1750,0837;0,0115989
1751,0480;0,0105894
1752,0122;0,00983797
1752,9764;0,00937647
1753,9407;0,00910205
1754,9049;0,00889259
1755,8691;0,00867277
1756,8334;0,00841999
1757,7976;0,00813898
1758,7618;0,00783377
1759,7261;0,00749925
1760,6903;0,00713776
1761,6545;0,00678161
1762,6188;0,00648994
1763,5830;0,00631067
1764,5472;0,0062445
1765,5115;0,00624976
1766,4757;0,00627594
1767,4399;0,00628895
1768,4042;0,00627153
1769,3684;0,00620698
1770,3326;0,00606573
1771,2969;0,00582225
1772,2611;0,00551005
1773,2253;0,00524239
1774,1896;0,00512509
1775,1538;0,00515973
1776,1180;0,00526088
1777,0823;0,00533809
1778,0465;0,00534779
1779,0107;0,00529298
1779,9750;0,00519546
1780,9392;0,00507053
1781,9034;0,00492151
1782,8677;0,00475425
1783,8319;0,00459602
1784,7961;0,00449586
1785,7604;0,00449687
1786,7246;0,00460216
1787,6888;0,00476963
1788,6531;0,0049411
1789,6173;0,00507261
1790,5815;0,0051372
1791,5458;0,00511747
1792,5100;0,00503235
1793,4742;0,00495744
1794,4385;0,00495683
1795,4027;0,00501368
1796,3669;0,00506078
1797,3312;0,00504683
1798,2954;0,00496196
1799,2596;0,00482226
1800,2239;0,00464853
1801,1881;0,00446306
1802,1523;0,00429468
1803,1166;0,00417326
1804,0808;0,00411858
1805,0450;0,00413543
1806,0093;0,00421379
1806,9735;0,00432875
1807,9377;0,00444096
1808,9020;0,00450304
1809,8662;0,00447784
1810,8304;0,00436179
1811,7947;0,00419001
1812,7589;0,00401115
1813,7231;0,00385663
1814,6874;0,00373409
1815,6516;0,00364152
1816,6158;0,00358172
1817,5801;0,00356576
1818,5443;0,00360578
1819,5085;0,00370326
1820,4728;0,00384254
1821,4370;0,00399596
1822,4012;0,00413539
1823,3655;0,00424205
1824,3297;0,00431226
1825,2939;0,00435593
1826,2582;0,00438255
1827,2224;0,00438347
1828,1866;0,00432966
1829,1509;0,00419595
1830,1151;0,00400043
1831,0793;0,00381398
1832,0436;0,00370792
1833,0078;0,00369564
1833,9720;0,00373633
1834,9363;0,00378102
1835,9005;0,00380698
1836,8647;0,00382357
1837,8290;0,00385461
1838,7932;0,00391193
1839,7574;0,00398279
1840,7217;0,00404473
1841,6859;0,00408699
1842,6501;0,00411008
1843,6144;0,00411022
1844,5786;0,00408411
1845,5428;0,00404579
1846,5071;0,00400779
1847,4713;0,00395328
1848,4355;0,00385212
1849,3998;0,00369675
1850,3640;0,00351551
1851,3282;0,00335689
1852,2925;0,00326151
1853,2567;0,00324381
1854,2209;0,00329234
1855,1852;0,0033817
1856,1494;0,00348382
1857,1136;0,00357487
1858,0779;0,00363795
1859,0421;0,00366788
1860,0063;0,0036766
1860,9706;0,00369254
1861,9348;0,00374857
1862,8990;0,00386463
1863,8633;0,00403741
1864,8275;0,00424214
1865,7917;0,00443664
1866,7560;0,00455923
1867,7202;0,00453927
1868,6844;0,00434824
1869,6487;0,00404831
1870,6129;0,00375164
1871,5771;0,00352958
1872,5414;0,00338526
1873,5056;0,00329128
1874,4698;0,00322759
1875,4341;0,0031897
1876,3983;0,00317956
1877,3625;0,00319428
1878,3268;0,00322475
1879,2910;0,00326017
1880,2552;0,00329497
1881,2195;0,00333155
1882,1837;0,00337712
1883,1479;0,00343764
1884,1122;0,0035134
1885,0764;0,00359921
1886,0406;0,00368775
1887,0049;0,0037714
1887,9691;0,00384105
1888,9333;0,00388702
1889,8976;0,00390557
1890,8618;0,003903
1891,8260;0,00388862
1892,7903;0,00386392
1893,7545;0,00382029
1894,7188;0,00374671
1895,6830;0,00364248
1896,6472;0,00352648
1897,6115;0,00343328
1898,5757;0,00339485
1899,5399;0,00342138
1900,5042;0,0034948
1901,4684;0,00357883
1902,4326;0,00364013
1903,3969;0,00366811
1904,3611;0,00367841
1905,3253;0,00369623
1906,2896;0,00373259
1907,2538;0,00377232
1908,2180;0,0037839
1909,1823;0,00374649
1910,1465;0,00367282
1911,1107;0,00360323
1912,0750;0,00357307
1913,0392;0,0035853
1914,0034;0,00361268
1914,9677;0,00362303
1915,9319;0,00360664
1916,8961;0,00358929
1917,8604;0,00362026
1918,8246;0,00373594
1919,7888;0,00392278
1920,7531;0,00411194
1921,7173;0,0042108
1922,6815;0,00415034
1923,6458;0,00392327
1924,6100;0,00359056
1925,5742;0,00324845
1926,5385;0,00298079
1927,5027;0,00283308
1928,4669;0,00281531
1929,4312;0,00291337
1930,3954;0,00309522
1931,3596;0,00331354
1932,3239;0,00351068
1933,2881;0,00363246
1934,2523;0,00364688
1935,2166;0,00355845
1936,1808;0,00340736
1937,1450;0,00325066
1938,1093;0,00313703
1939,0735;0,00309141
1940,0377;0,00311426
1941,0020;0,00318865
1941,9662;0,00328893
1942,9304;0,00338937
1943,8947;0,00346922
1944,8589;0,0035114
1945,8231;0,00350192
1946,7874;0,0034377
1947,7516;0,00333797
1948,7158;0,00324584
1949,6801;0,00321215
1950,6443;0,00326704
1951,6085;0,00339663
1952,5728;0,00354246
1953,5370;0,00362768
1954,5012;0,0035973
1955,4655;0,00345049
1956,4297;0,00324618
1957,3939;0,00307837
1958,3582;0,00303409
1959,3224;0,0031546
1960,2866;0,00341758
1961,2509;0,00374824
1962,2151;0,0040523
1963,1793;0,00425171
1964,1436;0,00430772
1965,1078;0,00422822
1966,0720;0,00406082
1967,0363;0,00386955
1968,0005;0,00369724
1968,9647;0,00353514
1969,9290;0,00332894
1970,8932;0,00302766
1971,8574;0,00264603
1972,8217;0,00229704
1973,7859;0,00216083
1974,7501;0,00238759
1975,7144;0,00298698
1976,6786;0,00378444
1977,6428;0,00450123
1978,6071;0,00491227
1979,5713;0,00495835
1980,5355;0,00473367
1981,4998;0,00438697
1982,4640;0,00403001
1983,4282;0,00370813
1984,3925;0,00342834
1985,3567;0,00320673
1986,3209;0,00309313
1987,2852;0,00315306
1988,2494;0,00342014
1989,2136;0,00385382
1990,1779;0,00433445
1991,1421;0,00470893
1992,1063;0,00486827
1993,0706;0,00480502
1994,0348;0,00460422
1994,9990;0,00437749
1995,9633;0,00419518
1996,9275;0,0040598
1997,8917;0,0039267
1998,8560;0,00375233
1999,8202;0,00353916
2000,7844;0,00334793
2001,7487;0,00326909
2002,7129;0,00337313
2003,6771;0,00366902
2004,6414;0,00408989
2005,6056;0,00451012
2006,5698;0,00479019
2007,5341;0,00483195
2008,4983;0,0046204
2009,4625;0,00423197
2010,4268;0,00380712
2011,3910;0,00350058
2012,3552;0,00342659
2013,3195;0,00361536
2014,2837;0,00399592
2015,2479;0,00441872
2016,2122;0,00472136
2017,1764;0,0048127
2018,1406;0,00472371
2019,1049;0,00458365
2020,0691;0,00453448
2021,0333;0,00464216
2021,9976;0,00485927
2022,9618;0,00505706
2023,9260;0,00510671
2024,8903;0,00496232
2025,8545;0,00469294
2026,8187;0,00444054
2027,7830;0,00433088
2028,7472;0,00439804
2029,7114;0,00457233
2030,6757;0,00473693
2031,6399;0,00481109
2032,6041;0,00479953
2033,5684;0,00477535
2034,5326;0,0048126
2035,4968;0,00492518
2036,4611;0,00505746
2037,4253;0,00512942
2038,3895;0,00509266
2039,3538;0,00495887
2040,3180;0,0047877
2041,2822;0,00464842
2042,2465;0,00458297
2043,2107;0,00459233
2044,1749;0,00464969
2045,1392;0,00472482
2046,1034;0,00480144
2047,0676;0,00487884
2048,0320;0,00496003
2048,9961;0,0050371
2049,9604;0,00508527
2050,9246;0,00507034
2051,8889;0,00496574
2052,8530;0,00477109
2053,8174;0,0045238
2054,7815;0,00429358
2055,7458;0,00415763
2056,7100;0,00416354
2057,6743;0,00430276
2058,6384;0,00451348
2059,6028;0,00471241
2060,5669;0,00483509
2061,5313;0,00486068
2062,4954;0,0048088
2063,4597;0,00471506
2064,4238;0,0046054
2065,3882;0,00448759
2066,3523;0,00436261
2067,3167;0,00424161
2068,2808;0,00415074
2069,2451;0,00411871
2070,2092;0,00415698
2071,1736;0,00424846
2072,1377;0,00435306
2073,1021;0,00442842
2074,0662;0,00445057
2075,0305;0,00442264
2075,9946;0,00436807
2076,9590;0,00431578
2077,9231;0,00428679
2078,8875;0,00428811
2079,8516;0,00431368
2080,8159;0,00434942
2081,7800;0,00437962
2082,7444;0,00439337
2083,7085;0,00438949
2084,6729;0,00437654
2085,6370;0,00436756
2086,6013;0,00437036
2087,5654;0,00438072
2088,5298;0,00438422
2089,4939;0,00436736
2090,4583;0,00433069
2091,4224;0,00429304
2092,3867;0,00428118
2093,3508;0,00431027
2094,3152;0,00436852
2095,2793;0,00441927
2096,2437;0,00442231
2097,2078;0,00436026
2098,1721;0,00425041
2099,1362;0,00413283
2100,1006;0,00404664
2101,0647;0,00400482
2102,0291;0,00400293
2102,9932;0,00402591
2103,9575;0,0040644
2104,9216;0,00411753
2105,8860;0,0041831
2106,8501;0,00424659
2107,8145;0,00428168
2108,7786;0,00426489
2109,7429;0,00419401
2110,7070;0,00409549
2111,6714;0,00401385
2112,6355;0,00398891
2113,5999;0,00403547
2114,5640;0,0041371
2115,5283;0,0042562
2116,4924;0,00435243
2117,4568;0,0043993
2118,4209;0,00439192
2119,3853;0,00434518
2120,3494;0,00428531
2121,3137;0,00423894
2122,2778;0,00422312
2123,2422;0,00423932
2124,2063;0,00427342
2125,1707;0,00430213
2126,1348;0,00430446
2127,0991;0,00427393
2128,0632;0,00422664
2129,0276;0,00420046
2129,9917;0,00424386
2130,9561;0,00439571
2131,9202;0,0046618
2132,8845;0,00499782
2133,8486;0,00531147
2134,8130;0,00549205
2135,7771;0,00546092
2136,7415;0,00521716
2137,7056;0,00484906
2138,6699;0,00450048
2139,6340;0,00430905
2140,5984;0,00434808
2141,5625;0,00459958
2142,5269;0,00496897
2143,4910;0,00533089
2144,4553;0,00558194
2145,4194;0,00567569
2146,3838;0,00562821
2147,3479;0,0054987
2148,3123;0,00535971
2149,2764;0,00527147
2150,2407;0,00526717
2151,2048;0,00534933
2152,1692;0,00549533
2153,1333;0,00567042
2154,0977;0,00584554
2155,0618;0,00601316
2156,0261;0,00619241
2156,9902;0,00641515
2157,9546;0,00669449
2158,9187;0,00699617
2159,8831;0,00724376
2160,8472;0,0073601
2161,8115;0,00730736
2162,7756;0,00709594
2163,7400;0,00676889
2164,7041;0,00638172
2165,6685;0,00598787
2166,6326;0,00563085
2167,5969;0,00534193
2168,5610;0,00514227
2169,5254;0,00504745
2170,4895;0,0050708
2171,4539;0,00522152
2172,4180;0,00549548
2173,3823;0,00586187
2174,3464;0,0062554
2175,3108;0,00658572
2176,2749;0,00676617
2177,2393;0,00674902
2178,2034;0,00654615
2179,1677;0,0062229
2180,1318;0,00586936
2181,0962;0,00556506
2182,0603;0,00535501
2183,0247;0,00524699
2183,9888;0,00522513
2184,9531;0,00526467
2185,9172;0,0053368
2186,8816;0,00540664
2187,8457;0,00543585
2188,8101;0,00539544
2189,7742;0,00528131
2190,7385;0,00511864
2191,7026;0,00494848
2192,6670;0,00480448
2193,6311;0,00469646
2194,5955;0,00461175
2195,5596;0,00453147
2196,5239;0,00444776
2197,4880;0,0043699
2198,4524;0,0043182
2199,4165;0,00431403
2200,3809;0,00437313
2201,3450;0,00450159
2202,3093;0,00468896
2203,2734;0,00489881
2204,2378;0,00506705
2205,2019;0,00512046
2206,1663;0,00501453
2207,1304;0,00476954
2208,0947;0,00447613
2209,0588;0,00425682
2210,0232;0,00420087
2210,9873;0,00431275
2211,9517;0,00450924
2212,9158;0,00466875
2213,8801;0,00470087
2214,8442;0,00459141
2215,8086;0,00439789
2216,7727;0,00420594
2217,7371;0,00408095
2218,7012;0,00404536
2219,6655;0,00408726
2220,6296;0,00418274
2221,5940;0,00431025
2222,5581;0,00444957
2223,5225;0,00457486
2224,4866;0,00465496
2225,4509;0,00466502
2226,4150;0,00460018
2227,3794;0,00447913
2228,3435;0,00433778
2229,3079;0,00421242
2230,2720;0,0041273
2231,2363;0,00409028
2232,2004;0,004095
2233,1648;0,00412536
2234,1289;0,00416071
2235,0933;0,00418271
2236,0574;0,00418293
2237,0217;0,00416749
2237,9858;0,004154
2238,9502;0,00416128
2239,9143;0,00419816
2240,8787;0,00425895
2241,8428;0,00432828
2242,8071;0,00439052
2243,7712;0,00443644
2244,7356;0,00446333
2245,6997;0,00447167
2246,6641;0,0044635
2247,6282;0,00444469
2248,5925;0,004427
2249,5566;0,00442525
2250,5210;0,00444909
2251,4851;0,00449533
2252,4495;0,0045482
2253,4136;0,00458916
2254,3779;0,00460996
2255,3420;0,00461865
2256,3064;0,00463342
2257,2705;0,00466862
2258,2349;0,0047238
2259,1990;0,00478409
2260,1633;0,00483063
2261,1274;0,00485318
2262,0918;0,00485562
2263,0559;0,00485153
2264,0203;0,0048544
2264,9844;0,00487028
2265,9487;0,00489774
2266,9128;0,00493303
2267,8772;0,00497399
2268,8413;0,0050184
2269,8057;0,00505853
2270,7698;0,00507858
2271,7341;0,00506028
2272,6982;0,00499488
2273,6626;0,00489284
2274,6267;0,00478238
2275,5911;0,00469524
2276,5552;0,00464853
2277,5195;0,00463582
2278,4836;0,00463481
2279,4480;0,00462682
2280,4121;0,00461379
2281,3765;0,00461998
2282,3406;0,00467692
2283,3049;0,00480262
2284,2690;0,00498935
2285,2334;0,00520805
2286,1975;0,00542571
2287,1619;0,00562419
2288,1260;0,0058089
2289,0903;0,00600255
2290,0544;0,00622903
2291,0188;0,00649815
2291,9829;0,00680041
2292,9473;0,00711368
2293,9114;0,00741583
2294,8757;0,0076945
2295,8398;0,00794799
2296,8042;0,00817795
2297,7683;0,00838037
2298,7327;0,00854259
2299,6968;0,00864979
2300,6611;0,00869768
2301,6252;0,00870328
2302,5896;0,00870513
2303,5537;0,00875233
2304,5181;0,00888465
2305,4822;0,00911212
2306,4465;0,0094027
2307,4106;0,00968523
2308,3750;0,00986977
2309,3391;0,00988
2310,3035;0,00968493
2311,2676;0,00931503
2312,2319;0,00885217
2313,1960;0,00839493
2314,1604;0,00801648
2315,1245;0,00773894
2316,0889;0,00753793
2317,0530;0,00737119
2318,0173;0,00721228
2318,9814;0,00707136
2319,9458;0,0069938
2320,9099;0,00703789
2321,8743;0,00724178
2322,8384;0,00759355
2323,8027;0,00801871
2324,7668;0,00839569
2325,7312;0,0085969
2326,6953;0,00853729
2327,6597;0,00820833
2328,6238;0,00768495
2329,5881;0,00710437
2330,5522;0,00662174
2331,5166;0,00635212
2332,4807;0,00632276
2333,4451;0,00646725
2334,4092;0,00667063
2335,3735;0,00683743
2336,3376;0,00694151
2337,3020;0,00703249
2338,2661;0,00719662
2339,2305;0,00748814
2340,1946;0,00786277
2341,1589;0,00815203
2342,1230;0,00812722
2343,0874;0,00770763
2344,0515;0,00720536
2345,0159;0,0072055
2345,9800;0,00801764
2346,9443;0,00936419
2347,9084;0,0106345
2348,8728;0,0113079
2349,8369;0,0112003
2350,8013;0,0104993
2351,7654;0,0096395
2352,7297;0,00905402
2353,6938;0,00892711
2354,6582;0,0091586
2355,6223;0,00956212
2356,5867;0,0100174
2357,5508;0,0104313
2358,5151;0,0106744
2359,4792;0,01063
2360,4436;0,010285
2361,4077;0,00972333
2362,3721;0,00903706
2363,3362;0,00827396
2364,3005;0,00746242
2365,2646;0,00664653
2366,2290;0,00587624
2367,1931;0,00517579
2368,1575;0,00454034
2369,1216;0,00396589
2370,0859;0,0034745
2371,0500;0,00310816
2372,0144;0,00290165
2372,9785;0,00286309
2373,9429;0,0029764
2374,9070;0,00321722
2375,8713;0,00356514
2376,8354;0,00400296
2377,7998;0,00450579
2378,7639;0,0050302
2379,7283;0,00551325
2380,6924;0,00588434
2381,6567;0,00608518
2382,6208;0,00608869
2383,5852;0,00590822
2384,5493;0,00559307
2385,5137;0,00521296
2386,4778;0,00483782
2387,4421;0,00452038
2388,4063;0,00428713
2389,3706;0,00413882
2390,3347;0,00405812
2391,2991;0,00402049
2392,2632;0,00400405
2393,2275;0,003996
2394,1917;0,00399404
2395,1560;0,00400288
2396,1201;0,00402766
2397,0845;0,00406759
2398,0486;0,00411537
2399,0129;0,00415656
2399,9771;0,00417825
2400,9414;0,00417759
2401,9055;0,00416263
2402,8699;0,00414943
2403,8340;0,0041525
2404,7983;0,0041767
2405,7625;0,00421488
2406,7268;0,00425235
2407,6909;0,00427718
2408,6553;0,00428783
2409,6194;0,00429264
2410,5837;0,0043044
2411,5479;0,00433071
2412,5122;0,00436882
2413,4763;0,00440774
2414,4407;0,00443677
2415,4048;0,00445396
2416,3691;0,00446883
2417,3333;0,00449666
2418,2976;0,00454774
2419,2617;0,00461873
2420,2261;0,00469191
2421,1902;0,00474294
2422,1545;0,00475477
2423,1187;0,00472667
2424,0830;0,00467499
2425,0471;0,00462473
2426,0115;0,0045975
2426,9756;0,00460261
2427,9399;0,00463582
2428,9041;0,00468457
2429,8684;0,00473571
2430,8325;0,00478089
2431,7969;0,00481784
2432,7610;0,00484835
2433,7253;0,00487528
2434,6895;0,00490018
2435,6538;0,00492229
2436,6179;0,00493864
2437,5823;0,00494562
2438,5464;0,00494163
2439,5107;0,00492999
2440,4749;0,00491981
2441,4392;0,00492329
2442,4033;0,00494978
2443,3677;0,00499973
2444,3318;0,00506286
2445,2961;0,00512241
2446,2603;0,00516369
2447,2246;0,00518174
2448,1887;0,00518297
2449,1531;0,00517997
2450,1172;0,00518284
2451,0815;0,00519314
2452,0457;0,00520421
2453,0100;0,00520736
2453,9741;0,00519916
2454,9385;0,00518467
2455,9026;0,00517465
2456,8669;0,00517886
2457,8311;0,00520027
2458,7954;0,00523379
2459,7595;0,00526992
2460,7239;0,00530048
2461,6880;0,00532245
2462,6523;0,00533788
2463,6165;0,00535068
2464,5808;0,00536302
2465,5449;0,00537407
2466,5093;0,00538144
2467,4734;0,00538388
2468,4377;0,00538289
2469,4019;0,00538217
2470,3662;0,00538564
2471,3303;0,00539577
2472,2947;0,00541309
2473,2588;0,00543691
2474,2231;0,0054658
2475,1873;0,00549745
2476,1516;0,0055282
2477,1157;0,00555368
2478,0801;0,00557064
2479,0442;0,00557912
2480,0085;0,00558284
2480,9727;0,00558703
2481,9370;0,00559467
2482,9011;0,00560409
2483,8655;0,00560985
2484,8296;0,00560668
2485,7939;0,00559376
2486,7581;0,00557597
2487,7224;0,00556127
2488,6865;0,00555608
2489,6509;0,00556219
2490,6150;0,00557753
2491,5793;0,00559967
2492,5435;0,00562877
2493,5078;0,00566715
2494,4719;0,00571553
2495,4363;0,00576919
2496,4004;0,00581783
2497,3647;0,00585014
2498,3289;0,00586023
2499,2932;0,00585115
2500,2573;0,00583286
2501,2217;0,0058159
2502,1858;0,00580585
2503,1501;0,00580248
2504,1143;0,00580382
2505,0786;0,005811
2506,0427;0,0058291
2507,0071;0,00586272
2507,9712;0,00590986
2508,9355;0,00595976
2509,8997;0,00599727
2510,8640;0,0060112
2511,8281;0,00600071
2512,7925;0,00597529
2513,7566;0,00594869
2514,7209;0,00593167
2515,6851;0,00592863
2516,6494;0,0059391
2517,6135;0,00596131
2518,5779;0,00599397
2519,5420;0,00603501
2520,5063;0,00607954
2521,4705;0,00612014
2522,4348;0,00615004
2523,3989;0,00616686
2524,3633;0,00617336
2525,3274;0,00617466
2526,2917;0,00617397
2527,2559;0,00617084
2528,2202;0,00616312
2529,1843;0,00615091
2530,1487;0,00613866
2531,1128;0,00613345
2532,0771;0,00614061
2533,0413;0,00616019
2534,0056;0,00618694
2534,9697;0,00621355
2535,9341;0,00623457
2536,8982;0,00624796
2537,8625;0,00625392
2538,8267;0,00625261
2539,7910;0,00624339
2540,7551;0,00622619
2541,7195;0,0062038
2542,6836;0,00618249
2543,6479;0,00616994
2544,6121;0,00617148
2545,5764;0,00618717
2546,5405;0,00621176
2547,5049;0,00623752
2548,4690;0,006258
2549,4333;0,00627024
2550,3975;0,0062744
2551,3618;0,00627183
2552,3259;0,00626354
2553,2903;0,00625047
2554,2544;0,00623521
2555,2188;0,00622286
2556,1829;0,00621956
2557,1472;0,00622871
2558,1113;0,00624768
2559,0757;0,00626782
2560,0398;0,0062792
2561,0042;0,00627718
2561,9683;0,00626644
2562,9326;0,0062586
2563,8967;0,00626451
2564,8611;0,00628599
2565,8252;0,00631357
2566,7896;0,00633214
2567,7537;0,00633113
2568,7180;0,00631184
2569,6821;0,00628645
2570,6465;0,00626935
2571,6106;0,0062673
2572,5750;0,00627551
2573,5391;0,00628237
2574,5034;0,0062786
2575,4675;0,00626396
2576,4319;0,00624679
2577,3960;0,00623776
2578,3604;0,00624305
2579,3245;0,00626197
2580,2888;0,00628966
2581,2529;0,00632171
2582,2173;0,00635657
2583,1814;0,00639446
2584,1458;0,00643442
2585,1099;0,00647229
2586,0742;0,00650135
2587,0383;0,00651484
2588,0027;0,00650906
2588,9668;0,00648548
2589,9312;0,00645118
2590,8953;0,0064173
2591,8596;0,00639556
2592,8237;0,00639378
2593,7881;0,00641241
2594,7522;0,00644456
2595,7166;0,00647978
2596,6807;0,00650971
2597,6450;0,00653189
2598,6091;0,00654919
2599,5735;0,00656553
2600,5376;0,00658161
2601,5020;0,00659393
2602,4661;0,00659783
2603,4304;0,00659168
2604,3945;0,00657882
2605,3589;0,00656564
2606,3230;0,0065576
2607,2874;0,0065566
2608,2515;0,00656145
2609,2158;0,00657064
2610,1799;0,00658453
2611,1443;0,00660498
2612,1084;0,00663273
2613,0728;0,00666505
2614,0369;0,00669581
2615,0012;0,00671842
2615,9653;0,00672965
2616,9297;0,00673175
2617,8938;0,00673138
2618,8582;0,00673592
2619,8223;0,00674943
2620,7866;0,00677054
2621,7507;0,0067934
2622,7151;0,00681111
2623,6792;0,00681964
2624,6436;0,00682005
2625,6077;0,00681789
2626,5720;0,00682012
2627,5361;0,00683147
2628,5005;0,00685247
2629,4646;0,00688023
2630,4290;0,00691109
2631,3931;0,00694314
2632,3574;0,00697652
2633,3215;0,00701123
2634,2859;0,00704449
2635,2500;0,00707001
2636,2144;0,00708061
2637,1785;0,00707295
2638,1428;0,0070511
2639,1069;0,00702617
2640,0713;0,00701165
2641,0354;0,00701684
2641,9998;0,00704255
2642,9639;0,00708152
2643,9282;0,00712296
2644,8923;0,00715837
2645,8567;0,00718481
2646,8208;0,00720422
2647,7852;0,00722006
2648,7493;0,00723401
2649,7136;0,00724512
2650,6777;0,00725159
2651,6421;0,0072533
2652,6062;0,00725318
2653,5706;0,00725614
2654,5347;0,00726655
2655,4990;0,00728586
2656,4631;0,00731202
2657,4275;0,00734071
2658,3916;0,0073675
2659,3560;0,00738957
2660,3201;0,00740622
2661,2844;0,00741818
2662,2485;0,00742673
2663,2129;0,0074331
2664,1770;0,00743858
2665,1414;0,007445
2666,1055;0,00745481
2667,0698;0,00747051
2668,0339;0,00749346
2668,9983;0,00752294
2669,9624;0,00755615
2670,9268;0,00758948
2671,8909;0,00762019
2672,8552;0,00764767
2673,8193;0,00767322
2674,7837;0,00769864
2675,7478;0,00772471
2676,7122;0,00775059
2677,6763;0,00777461
2678,6406;0,00779552
2679,6047;0,00781341
2680,5691;0,00782958
2681,5332;0,00784576
2682,4976;0,00786344
2683,4617;0,00788367
2684,4260;0,0079071
2685,3901;0,00793358
2686,3545;0,00796163
2687,3186;0,00798822
2688,2830;0,0080099
2689,2471;0,00802493
2690,2114;0,00803505
2691,1755;0,00804526
2692,1399;0,00806146
2693,1040;0,00808691
2694,0684;0,00812022
2695,0325;0,00815592
2695,9968;0,00818753
2696,9609;0,008211
2697,9253;0,00822649
2698,8894;0,00823776
2699,8538;0,00824999
2700,8179;0,0082674
2701,7822;0,008292
2702,7463;0,0083234
2703,7107;0,00835941
2704,6748;0,00839681
2705,6392;0,00843239
2706,6033;0,00846384
2707,5676;0,00849061
2708,5317;0,008514
2709,4961;0,00853652
2710,4602;0,00856052
2711,4246;0,00858689
2712,3887;0,00861453
2713,3530;0,00864079
2714,3171;0,00866288
2715,2815;0,00867958
2716,2456;0,0086923
2717,2100;0,00870506
2718,1741;0,0087229
2719,1384;0,00874939
2720,1025;0,00878418
2721,0669;0,00882234
2722,0310;0,00885602
2722,9954;0,00887837
2723,9595;0,00888752
2724,9238;0,00888848
2725,8879;0,00889126
2726,8523;0,00890595
2727,8164;0,00893738
2728,7808;0,00898241
2729,7449;0,00903159
2730,7092;0,00907403
2731,6733;0,00910271
2732,6377;0,00911688
2733,6018;0,00912075
2734,5662;0,00911999
2735,5303;0,00911872
2736,4946;0,00911907
2737,4587;0,00912274
2738,4231;0,00913265
2739,3872;0,00915253
2740,3516;0,00918446
2741,3157;0,00922635
2742,2800;0,00927156
2743,2441;0,00931144
2744,2085;0,00933925
2745,1726;0,00935305
2746,1370;0,00935592
2747,1011;0,00935394
2748,0654;0,00935362
2749,0295;0,00936007
2749,9939;0,00937643
2750,9580;0,00940373
2751,9224;0,0094407
2752,8865;0,0094838
2753,8508;0,00952809
2754,8149;0,00956892
2755,7793;0,00960374
2756,7434;0,00963268
2757,7078;0,00965751
2758,6719;0,00967994
2759,6362;0,00970055
2760,6003;0,00971915
2761,5647;0,00973611
2762,5288;0,00975308
2763,4932;0,00977264
2764,4573;0,00979707
2765,4216;0,00982747
2766,3857;0,00986387
2767,3501;0,00990588
2768,3142;0,00995281
2769,2786;0,0100028
2770,2427;0,010052
2771,2070;0,0100951
2772,1711;0,0101278
2773,1355;0,0101501
2774,0996;0,0101679
2775,0640;0,0101908
2776,0281;0,0102271
2776,9924;0,0102801
2777,9565;0,0103455
2778,9209;0,0104148
2779,8850;0,01048
2780,8494;0,0105376
2781,8135;0,0105888
2782,7778;0,0106378
2783,7419;0,0106873
2784,7063;0,0107372
2785,6704;0,0107847
2786,6348;0,0108271
2787,5989;0,0108637
2788,5632;0,0108973
2789,5273;0,0109335
2790,4917;0,0109788
2791,4558;0,0110378
2792,4202;0,0111117
2793,3843;0,0111975
2794,3486;0,0112885
2795,3127;0,0113768
2796,2771;0,0114561
2797,2412;0,0115241
2798,2056;0,0115827
2799,1697;0,0116374
2800,1340;0,0116944
2801,0981;0,0117587
2802,0625;0,0118319
2803,0266;0,011912
2803,9910;0,0119947
2804,9551;0,012075
2805,9194;0,0121503
2806,8835;0,0122219
2807,8479;0,0122954
2808,8120;0,012378
2809,7764;0,0124747
2810,7405;0,0125848
2811,7048;0,012702
2812,6689;0,0128179
2813,6333;0,0129262
2814,5974;0,0130268
2815,5618;0,0131247
2816,5259;0,0132267
2817,4902;0,0133371
2818,4543;0,0134557
2819,4187;0,0135795
2820,3828;0,0137055
2821,3472;0,0138336
2822,3113;0,0139668
2823,2756;0,0141092
2824,2397;0,014263
2825,2041;0,0144273
2826,1682;0,0145991
2827,1326;0,0147745
2828,0967;0,0149519
2829,0610;0,0151322
2830,0251;0,0153188
2830,9895;0,0155157
2831,9536;0,0157254
2832,9180;0,0159469
2833,8821;0,016176
2834,8464;0,0164072
2835,8105;0,0166374
2836,7749;0,0168692
2837,7390;0,0171117
2838,7034;0,0173789
2839,6675;0,0176851
2840,6318;0,0180414
2841,5959;0,0184534
2842,5603;0,0189218
2843,5244;0,019443
2844,4888;0,0200086
2845,4529;0,0206024
2846,4172;0,0211983
2847,3813;0,0217605
2848,3457;0,0222494
2849,3098;0,0226309
2850,2742;0,0228852
2851,2383;0,0230113
2852,2026;0,0230245
2853,1667;0,0229493
2854,1311;0,0228121
2855,0952;0,0226363
2856,0596;0,0224418
2857,0237;0,0222461
2857,9880;0,0220651
2858,9521;0,0219122
2859,9165;0,0217954
2860,8806;0,0217159
2861,8450;0,0216689
2862,8091;0,021648
2863,7734;0,0216497
2864,7375;0,0216751
2865,7019;0,021728
2866,6660;0,0218095
2867,6304;0,0219124
2868,5945;0,0220208
2869,5588;0,0221148
2870,5229;0,0221786
2871,4873;0,0222079
2872,4514;0,0222111
2873,4158;0,0222043
2874,3799;0,0222031
2875,3442;0,0222157
2876,3083;0,0222414
2877,2727;0,022274
2878,2368;0,022308
2879,2012;0,0223418
2880,1653;0,0223786
2881,1296;0,022423
2882,0938;0,0224779
2883,0581;0,0225426
2884,0222;0,0226136
2884,9866;0,022686
2885,9507;0,0227558
2886,9150;0,0228215
2887,8792;0,0228847
2888,8435;0,0229486
2889,8076;0,0230166
2890,7720;0,0230901
2891,7361;0,0231672
2892,7004;0,0232441
2893,6646;0,023318
2894,6289;0,0233902
2895,5930;0,0234664
2896,5574;0,0235545
2897,5215;0,0236593
2898,4858;0,023779
2899,4500;0,0239052
2900,4143;0,0240271
2901,3784;0,0241378
2902,3428;0,0242391
2903,3069;0,0243416
2904,2712;0,0244611
2905,2354;0,0246125
2906,1997;0,0248046
2907,1638;0,0250392
2908,1282;0,0253133
2909,0923;0,0256224
2910,0566;0,0259636
2911,0208;0,0263359
2911,9851;0,0267364
2912,9492;0,0271572
2913,9136;0,0275826
2914,8777;0,027989
2915,8420;0,0283499
2916,8062;0,0286415
2917,7705;0,0288487
2918,7346;0,0289678
2919,6990;0,0290052
2920,6631;0,0289734
2921,6274;0,0288851
2922,5916;0,0287497
2923,5559;0,0285712
2924,5200;0,0283507
2925,4844;0,0280887
2926,4485;0,0277884
2927,4128;0,0274572
2928,3770;0,0271045
2929,3413;0,0267393
2930,3054;0,0263672
2931,2698;0,0259898
2932,2339;0,0256069
2933,1982;0,02522
2934,1624;0,0248348
2935,1267;0,0244598
2936,0908;0,0241033
2937,0552;0,0237681
2938,0193;0,0234503
2938,9836;0,0231402
2939,9478;0,0228273
2940,9121;0,0225058
2941,8762;0,0221774
2942,8406;0,0218517
2943,8047;0,021542
2944,7690;0,0212611
2945,7332;0,0210163
2946,6975;0,0208083
2947,6616;0,0206311
2948,6260;0,0204755
2949,5901;0,0203325
2950,5544;0,020196
2951,5186;0,0200631
2952,4829;0,019933
2953,4470;0,0198042
2954,4114;0,0196734
2955,3755;0,0195351
2956,3398;0,0193839
2957,3040;0,0192169
2958,2683;0,0190348
2959,2324;0,0188424
2960,1968;0,0186456
2961,1609;0,01845
2962,1252;0,0182579
2963,0894;0,0180691
2964,0537;0,0178826
2965,0178;0,0176984
2965,9822;0,0175179
2966,9463;0,0173425
2967,9106;0,0171711
2968,8748;0,0169984
2969,8391;0,016818
2970,8032;0,0166267
2971,7676;0,0164285
2972,7317;0,016235
2973,6960;0,0160597
2974,6602;0,0159107
2975,6245;0,0157853
2976,5886;0,0156717
2977,5530;0,0155558
2978,5171;0,0154294
2979,4814;0,0152944
2980,4456;0,0151621
2981,4099;0,015046
2982,3740;0,0149559
2983,3384;0,0148934
2984,3025;0,0148523
2985,2668;0,014821
2986,2310;0,0147869
2987,1953;0,0147411
2988,1594;0,0146819
2989,1238;0,0146164
2990,0879;0,0145573
2991,0522;0,0145174
2992,0164;0,0145024
2992,9807;0,0145075
2993,9448;0,0145199
2994,9092;0,0145268
2995,8733;0,0145224
2996,8376;0,0145117
2997,8018;0,0145065
2998,7661;0,0145186
2999,7302;0,0145539
3000,6946;0,0146101
3001,6587;0,01468
3002,6230;0,0147553
3003,5872;0,0148301
3004,5515;0,0149014
3005,5156;0,0149681
3006,4800;0,0150294
3007,4441;0,015084
3008,4084;0,0151308
3009,3726;0,0151687
3010,3369;0,0151979
3011,3010;0,0152198
3012,2654;0,0152372
3013,2295;0,0152542
3014,1938;0,0152749
3015,1580;0,0153029
3016,1223;0,0153404
3017,0864;0,0153881
3018,0508;0,0154452
3019,0149;0,015509
3019,9792;0,0155754
3020,9434;0,0156392
3021,9077;0,0156969
3022,8718;0,0157487
3023,8362;0,0158014
3024,8003;0,0158663
3025,7646;0,0159553
3026,7288;0,0160738
3027,6931;0,0162156
3028,6572;0,0163626
3029,6216;0,016491
3030,5857;0,0165816
3031,5500;0,0166289
3032,5142;0,0166449
3033,4785;0,0166535
3034,4426;0,0166791
3035,4070;0,0167362
3036,3711;0,0168239
3037,3354;0,0169291
3038,2996;0,0170336
3039,2639;0,0171235
3040,2280;0,0171948
3041,1924;0,0172542
3042,1565;0,017316
3043,1208;0,0173945
3044,0850;0,0174973
3045,0493;0,0176207
3046,0134;0,0177509
3046,9778;0,0178709
3047,9419;0,01797
3048,9063;0,0180501
3049,8704;0,0181247
3050,8347;0,0182113
3051,7988;0,0183194
3052,7632;0,0184455
3053,7273;0,0185749
3054,6917;0,0186913
3055,6558;0,0187873
3056,6201;0,0188693
3057,5842;0,0189534
3058,5486;0,0190572
3059,5127;0,0191896
3060,4771;0,0193478
3061,4412;0,0195183
3062,4055;0,019682
3063,3696;0,0198207
3064,3340;0,0199219
3065,2981;0,0199835
3066,2625;0,0200144
3067,2266;0,0200326
3068,1909;0,0200588
3069,1550;0,0201094
3070,1194;0,0201915
3071,0835;0,0203012
3072,0479;0,0204274
3073,0120;0,0205575
3073,9763;0,0206836
3074,9404;0,0208043
3075,9048;0,0209227
3076,8689;0,0210418
3077,8333;0,0211598
3078,7974;0,0212695
3079,7617;0,0213622
3080,7258;0,0214331
3081,6902;0,0214854
3082,6543;0,0215298
3083,6187;0,0215785
3084,5828;0,02164
3085,5471;0,0217148
3086,5112;0,0217971
3087,4756;0,0218797
3088,4397;0,0219593
3089,4041;0,0220388
3090,3682;0,0221257
3091,3325;0,0222275
3092,2966;0,0223482
3093,2610;0,0224858
3094,2251;0,0226339
3095,1895;0,0227833
3096,1536;0,0229253
3097,1179;0,0230534
3098,0820;0,0231643
3099,0464;0,0232575
3100,0105;0,023336
3100,9749;0,0234046
3101,9390;0,0234699
3102,9033;0,0235378
3103,8674;0,0236125
3104,8318;0,0236962
3105,7959;0,0237894
3106,7603;0,0238925
3107,7244;0,0240069
3108,6887;0,024135
3109,6528;0,0242779
3110,6172;0,0244338
3111,5813;0,0245965
3112,5457;0,0247563
3113,5098;0,0249029
3114,4741;0,0250291
3115,4382;0,0251334
3116,4026;0,0252198
3117,3667;0,0252967
3118,3311;0,025373
3119,2952;0,0254564
3120,2595;0,025552
3121,2236;0,0256611
3122,1880;0,0257815
3123,1521;0,0259068
3124,1165;0,026029
3125,0806;0,0261403
3126,0449;0,0262372
3127,0090;0,0263212
3127,9734;0,0263993
3128,9375;0,0264808
3129,9019;0,0265739
3130,8660;0,0266835
3131,8303;0,0268088
3132,7944;0,0269441
3133,7588;0,0270809
3134,7229;0,0272107
3135,6873;0,0273287
3136,6514;0,0274348
3137,6157;0,0275332
3138,5798;0,0276298
3139,5442;0,0277293
3140,5083;0,0278336
3141,4727;0,027943
3142,4368;0,028058
3143,4011;0,0281803
3144,3652;0,028312
3145,3296;0,0284528
3146,2937;0,0285983
3147,2581;0,0287402
3148,2222;0,0288706
3149,1865;0,0289851
3150,1506;0,0290858
3151,1150;0,0291794
3152,0791;0,0292742
3153,0435;0,029376
3154,0076;0,0294865
3154,9719;0,0296042
3155,9360;0,0297265
3156,9004;0,0298513
3157,8645;0,0299784
3158,8289;0,0301079
3159,7930;0,0302398
3160,7573;0,0303728
3161,7214;0,0305043
3162,6858;0,0306321
3163,6499;0,0307554
3164,6143;0,0308751
3165,5784;0,0309937
3166,5427;0,0311136
3167,5068;0,0312358
3168,4712;0,0313603
3169,4353;0,0313487
3170,3997;0,031478
3171,3638;0,0316111
3172,3281;0,0317464
3173,2922;0,03188
3174,2566;0,0320071
3175,2207;0,0321239
3176,1851;0,03223
3177,1492;0,0323283
3178,1135;0,0324232
3179,0776;0,0325184
3180,0420;0,0326155
3181,0061;0,0327152
3181,9705;0,0328183
3182,9346;0,0329259
3183,8989;0,0330382
3184,8630;0,0331529
3185,8274;0,0332654
3186,7915;0,0333714
3187,7559;0,0334698
3188,7200;0,0335637
3189,6843;0,0336581
3190,6484;0,0337566
3191,6128;0,0338586
3192,5769;0,0339601
3193,5413;0,0340569
3194,5054;0,0341481
3195,4697;0,0342366
3196,4338;0,0343279
3197,3982;0,0344258
3198,3623;0,0345297
3199,3267;0,0346352
3200,2908;0,0347363
3201,2551;0,0348297
3202,2192;0,0349169
3203,1836;0,0350036
3204,1477;0,0350962
3205,1121;0,035198
3206,0762;0,0353068
3207,0405;0,0354161
3208,0046;0,0355182
3208,9690;0,035609
3209,9331;0,0356892
3210,8975;0,0357635
3211,8616;0,0358371
3212,8259;0,035913
3213,7900;0,0359903
3214,7544;0,0360659
3215,7185;0,0361364
3216,6829;0,0362007
3217,6470;0,03626
3218,6113;0,0363175
3219,5754;0,0363768
3220,5398;0,0364404
3221,5039;0,036509
3222,4683;0,0365815
3223,4324;0,0366565
3224,3967;0,0367346
3225,3608;0,0368182
3226,3252;0,0369103
3227,2893;0,0370101
3228,2537;0,0371109
3229,2178;0,0372012
3230,1821;0,0372703
3231,1462;0,0373151
3232,1106;0,037343
3233,0747;0,0373691
3234,0391;0,0374078
3235,0032;0,0374654
3235,9675;0,0375384
3236,9316;0,0376181
3237,8960;0,0376979
3238,8601;0,0377775
3239,8245;0,0378612
3240,7886;0,0379518
3241,7529;0,0380454
3242,7170;0,0381323
3243,6814;0,038202
3244,6455;0,0382507
3245,6099;0,0382845
3246,5740;0,0383165
3247,5383;0,0383596
3248,5024;0,0384198
3249,4668;0,0384956
3250,4309;0,0385803
3251,3953;0,0386667
3252,3594;0,03875
3253,3237;0,0388276
3254,2878;0,0388983
3255,2522;0,0389608
3256,2163;0,0390151
3257,1807;0,0390634
3258,1448;0,0391112
3259,1091;0,0391659
3260,0732;0,0392337
3261,0376;0,0393161
3262,0017;0,0394077
3262,9661;0,0394973
3263,9302;0,0395729
3264,8945;0,0396269
3265,8586;0,0396605
3266,8230;0,0396835
3267,7871;0,0397096
3268,7515;0,0397492
3269,7156;0,0398042
3270,6799;0,0398678
3271,6440;0,0399281
3272,6084;0,0399748
3273,5725;0,0400031
3274,5369;0,0400139
3275,5010;0,0400113
3276,4653;0,0399991
3277,4294;0,0399809
3278,3938;0,0399606
3279,3579;0,0399437
3280,3223;0,039936
3281,2864;0,0399415
3282,2507;0,0399602
3283,2148;0,0399888
3284,1792;0,0400227
3285,1433;0,0400583
3286,1077;0,0400935
3287,0718;0,0401259
3288,0361;0,0401506
3289,0002;0,0401607
3289,9646;0,0401496
3290,9287;0,040115
3291,8931;0,0400619
3292,8572;0,0400016
3293,8215;0,0399483
3294,7856;0,0399134
3295,7500;0,0399007
3296,7141;0,0399045
3297,6785;0,0399129
3298,6426;0,0399129
3299,6069;0,0398973
3300,5710;0,0398676
3301,5354;0,0398328
3302,4995;0,0398032
3303,4639;0,0397845
3304,4280;0,0397752
3305,3923;0,0397684
3306,3564;0,0397568
3307,3208;0,0397366
3308,2849;0,0397081
3309,2493;0,0396734
3310,2134;0,0396332
3311,1777;0,0395876
3312,1418;0,0395378
3313,1062;0,0394889
3314,0703;0,0394499
3315,0347;0,0394294
3315,9988;0,0394316
3316,9631;0,0394524
3317,9272;0,0394811
3318,8916;0,0395052
3319,8557;0,0395164
3320,8201;0,0395134
3321,7842;0,0395017
3322,7485;0,0394896
3323,7126;0,0394833
3324,6770;0,0394838
3325,6411;0,0394875
3326,6055;0,0394905
3327,5696;0,0394919
3328,5339;0,0394959
3329,4980;0,0395082
3330,4624;0,0395307
3331,4265;0,0395566
3332,3909;0,0395723
3333,3550;0,0395631
3334,3193;0,039522
3335,2834;0,0394543
3336,2478;0,0393745
3337,2119;0,0392974
3338,1763;0,0392292
3339,1404;0,0391652
3340,1047;0,0390962
3341,0688;0,0390174
3342,0332;0,0389341
3342,9973;0,038858
3343,9617;0,0387984
3344,9258;0,0387544
3345,8901;0,038714
3346,8542;0,0386613
3347,8186;0,038586
3348,7827;0,0384891
3349,7471;0,0383809
3350,7112;0,0382749
3351,6755;0,0381812
3352,6396;0,0381036
3353,6040;0,0380403
3354,5681;0,0379868
3355,5325;0,0379372
3356,4966;0,0378859
3357,4609;0,0378281
3358,4250;0,037762
3359,3894;0,0376898
3360,3535;0,0376164
3361,3179;0,0375459
3362,2820;0,0374773
3363,2463;0,0374036
3364,2104;0,0373139
3365,1748;0,0371999
3366,1389;0,0370614
3367,1033;0,0369071
3368,0674;0,0367524
3369,0317;0,0366127
3369,9958;0,0364972
3370,9602;0,0364065
3371,9243;0,0363327
3372,8887;0,0362641
3373,8528;0,0361893
3374,8171;0,0361021
3375,7813;0,0360022
3376,7456;0,0358942
3377,7097;0,0357839
3378,6741;0,035676
3379,6382;0,0355725
3380,6025;0,0354743
3381,5667;0,0353827
3382,5310;0,0352991
3383,4951;0,0352239
3384,4595;0,0351546
3385,4236;0,0350852
3386,3879;0,0350086
3387,3521;0,0349197
3388,3164;0,034818
3389,2805;0,0347083
3390,2449;0,034598
3391,2090;0,0344934
3392,1733;0,0343955
3393,1375;0,0342992
3394,1018;0,0341945
3395,0659;0,0340717
3396,0303;0,0339269
3396,9944;0,0337657
3397,9587;0,0336018
3398,9229;0,0334516
3399,8872;0,0333251
3400,8513;0,0332217
3401,8157;0,0331305
3402,7798;0,0330363
3403,7441;0,0329271
3404,7083;0,0327987
3405,6726;0,0326539
3406,6367;0,0324993
3407,6011;0,0323415
3408,5652;0,0321855
3409,5295;0,0320348
3410,4937;0,0318918
3411,4580;0,0317581
3412,4221;0,0316342
3413,3865;0,0315199
3414,3506;0,0314137
3415,3149;0,0313136
3416,2791;0,0312168
3417,2434;0,031118
3418,2075;0,031009
3419,1719;0,0308809
3420,1360;0,0307281
3421,1003;0,0305518
3422,0645;0,0303602
3423,0288;0,0301641
3423,9929;0,0299721
3424,9573;0,0297885
3425,9214;0,029615
3426,8857;0,0294523
3427,8499;0,0293003
3428,8142;0,0291567
3429,7783;0,0290157
3430,7427;0,0288691
3431,7068;0,0287098
3432,6711;0,0285359
3433,6353;0,0283523
3434,5996;0,0281686
3435,5637;0,0279941
3436,5281;0,0278334
3437,4922;0,0276863
3438,4565;0,0275507
3439,4207;0,0274269
3440,3850;0,0273181
3441,3491;0,0272268
3442,3135;0,027148
3443,2776;0,0270656
3444,2419;0,0269551
3445,2061;0,0267931
3446,1704;0,02657
3447,1345;0,0262987
3448,0989;0,0260107
3449,0630;0,0257399
3450,0273;0,0255067
3450,9915;0,0253124
3451,9558;0,0251458
3452,9199;0,0249933
3453,8843;0,0248464
3454,8484;0,0247028
3455,8127;0,0245644
3456,7769;0,0244328
3457,7412;0,0243068
3458,7053;0,024183
3459,6697;0,0240563
3460,6338;0,0239217
3461,5981;0,0237748
3462,5623;0,0236121
3463,5266;0,0234316
3464,4907;0,0232341
3465,4551;0,0230234
3466,4192;0,0228071
3467,3835;0,0225944
3468,3477;0,0223939
3469,3120;0,0222108
3470,2761;0,0220449
3471,2405;0,0218914
3472,2046;0,0217433
3473,1689;0,0215952
3474,1331;0,021447
3475,0974;0,0213047
3476,0615;0,0211767
3477,0259;0,0210686
3477,9900;0,0209775
3478,9543;0,020891
3479,9185;0,0207904
3480,8828;0,0206592
3481,8469;0,0204928
3482,8113;0,0203018
3483,7754;0,0201044
3484,7397;0,0199149
3485,7039;0,0197365
3486,6682;0,0195614
3487,6323;0,0193788
3488,5967;0,0191835
3489,5608;0,0189813
3490,5251;0,0187859
3491,4893;0,0186107
3492,4536;0,0184614
3493,4177;0,0183346
3494,3821;0,0182218
3495,3462;0,0181169
3496,3105;0,0180222
3497,2747;0,0179465
3498,2390;0,0178959
3499,2031;0,017864
3500,1675;0,0178284
3501,1316;0,0177544
3502,0959;0,0176118
3503,0601;0,0173958
3504,0244;0,0171359
3504,9885;0,0168773
3505,9529;0,0166524
3506,9170;0,0164665
3507,8813;0,0163017
3508,8455;0,0161308
3509,8098;0,0159336
3510,7739;0,0157088
3511,7383;0,0154731
3512,7024;0,0152479
3513,6667;0,0150473
3514,6309;0,0148761
3515,5952;0,0147336
3516,5593;0,0146198
3517,5237;0,0145385
3518,4878;0,014496
3519,4521;0,0144953
3520,4163;0,0145297
3521,3806;0,0145784
3522,3447;0,0146082
3523,3091;0,0145843
3524,2732;0,014484
3525,2375;0,0143033
3526,2017;0,0140533
3527,1660;0,0137526
3528,1301;0,0134223
3529,0945;0,0130859
3530,0586;0,0127685
3531,0229;0,0124906
3531,9871;0,012262
3532,9514;0,0120795
3533,9155;0,0119281
3534,8799;0,0117855
3535,8440;0,0116333
3536,8083;0,0114705
3537,7725;0,0113184
3538,7368;0,01121
3539,7009;0,0111711
3540,6653;0,0112073
3541,6294;0,0113002
3542,5938;0,0114082
3543,5579;0,0114694
3544,5222;0,0114209
3545,4863;0,0112342
3546,4507;0,0109382
3547,4148;0,0106004
3548,3792;0,0102797
3549,3433;0,0100005
3550,3076;0,00975722
3551,2717;0,00953138
3552,2361;0,00930747
3553,2002;0,00908525
3554,1646;0,00888051
3555,1287;0,00871334
3556,0930;0,00859729
3557,0571;0,0085395
3558,0215;0,00854493
3558,9856;0,00861591
3559,9500;0,00874785
3560,9141;0,008926
3561,8784;0,00912577
3562,8425;0,00931459
3563,8069;0,00944609
3564,7710;0,00944136
3565,7354;0,00919202
3566,6995;0,00864998
3567,6638;0,00793892
3568,6279;0,00728429
3569,5923;0,00681918
3570,5564;0,00652718
3571,5208;0,00632914
3572,4849;0,00616598
3573,4492;0,0060202
3574,4133;0,00589833
3575,3777;0,0058079
3576,3418;0,00574794
3577,3062;0,00571382
3578,2703;0,00570619
3579,2346;0,00573237
3580,1987;0,00579709
3581,1631;0,00589049
3582,1272;0,0059862
3583,0916;0,00605355
3584,0557;0,00607139
3585,0200;0,00602544
3585,9841;0,00589634
3586,9485;0,00568275
3587,9126;0,00545466
3588,8770;0,00532477
3589,8411;0,00533968
3590,8054;0,0054483
3591,7695;0,00556517
3592,7339;0,00562871
3593,6980;0,00561671
3594,6624;0,00554134
3595,6265;0,00543634
3596,5908;0,00533009
3597,5549;0,00522024
3598,5193;0,00507788
3599,4834;0,00487866
3600,4478;0,00463262
3601,4119;0,00438398
3602,3762;0,00417704
3603,3403;0,00402213
3604,3047;0,0038931
3605,2688;0,00374527
3606,2332;0,00353211
3607,1973;0,00322577
3608,1616;0,0028486
3609,1257;0,00248358
3610,0901;0,00223172
3611,0542;0,00215081
3612,0186;0,00222732
3612,9827;0,00238909
3613,9470;0,00254132
3614,9111;0,00260706
3615,8755;0,00255457
3616,8396;0,00240321
3617,8040;0,00221214
3618,7681;0,00206353
3619,7324;0,0020417
3620,6965;0,00219143
3621,6609;0,00246973
3622,6250;0,0027503
3623,5894;0,00288929
3624,5535;0,00279645
3625,5178;0,00246901
3626,4819;0,00197556
3627,4463;0,00140336
3628,4104;0,000840516
3629,3748;0,000412152
3630,3389;0,000208879
3631,3032;0,000162226
3632,2673;0,000103365
3633,2317;-9,01705E-05
3634,1958;-0,000428646
3635,1602;-0,00083508
3636,1243;-0,00121125
3637,0886;-0,00149559
3638,0527;-0,00167844
3639,0171;-0,00177731
3639,9812;-0,0018067
3640,9456;-0,00177189
3641,9097;-0,00168544
3642,8740;-0,00158089
3643,8381;-0,00150107
3644,8025;-0,00146684
3645,7666;-0,00146263
3646,7310;-0,00149172
3647,6951;-0,00168847
3648,6594;-0,002241
3649,6235;-0,00301845
3650,5879;-0,00362864
3651,5520;-0,00393156
3652,5164;-0,00409295
3653,4805;-0,00430794
3654,4448;-0,00464244
3655,4089;-0,00502891
3656,3733;-0,00533926
3657,3374;-0,00548246
3658,3018;-0,00546718
3659,2659;-0,00537905
3660,2302;-0,00530035
3661,1943;-0,00525262
3662,1587;-0,00520509
3663,1228;-0,00512784
3664,0872;-0,00503452
3665,0513;-0,00496783
3666,0156;-0,00494792
3666,9797;-0,00493596
3667,9441;-0,00486678
3668,9082;-0,00473264
3669,8726;-0,00461046
3670,8367;-0,00458991
3671,8010;-0,00471301
3672,7651;-0,00496421
3673,7295;-0,00527212
3674,6936;-0,00554011
3675,6580;-0,00569329
3676,6221;-0,0056933
3677,5864;-0,00555568
3678,5505;-0,00535987
3679,5149;-0,00518835
3680,4790;-0,00506259
3681,4434;-0,00495082
3682,4075;-0,00482511
3683,3718;-0,00470352
3684,3359;-0,00463499
3685,3003;-0,00464059
3686,2644;-0,00466516
3687,2288;-0,00459749
3688,1929;-0,00437191
3689,1572;-0,00404631
3690,1213;-0,00372519
3691,0857;-0,00345139
3692,0498;-0,00322668
3693,0142;-0,00305541
3693,9783;-0,00293986
3694,9426;-0,00287419
3695,9067;-0,00285401
3696,8711;-0,00288258
3697,8352;-0,00296113
3698,7996;-0,00307284
3699,7637;-0,00317837
3700,7280;-0,00323139
3701,6921;-0,00320263
3702,6565;-0,00309488
3703,6206;-0,00294439
3704,5850;-0,0028096
3705,5491;-0,00274723
3706,5134;-0,00278774
3707,4775;-0,00293155
3708,4419;-0,0031793
3709,4060;-0,00357418
3710,3704;-0,00416971
3711,3345;-0,00488587
3712,2988;-0,00547959
3713,2629;-0,00576128
3714,2273;-0,00573978
3715,1914;-0,00553905
3716,1558;-0,00526813
3717,1199;-0,00496592
3718,0842;-0,00461445
3719,0483;-0,004184
3720,0127;-0,00367522
3720,9768;-0,00313258
3721,9412;-0,0026261
3722,9053;-0,00222182
3723,8696;-0,0019607
3724,8337;-0,00184899
3725,7981;-0,00186177
3726,7622;-0,00196359
3727,7266;-0,00213097
3728,6907;-0,00235135
3729,6550;-0,00260045
3730,6191;-0,00282686
3731,5835;-0,00297138
3732,5476;-0,0030263
3733,5120;-0,00308899
3734,4761;-0,00329754
3735,4404;-0,00364196
3736,4045;-0,0039328
3737,3689;-0,00404279
3738,3330;-0,00406193
3739,2974;-0,00420138
3740,2615;-0,00462733
3741,2258;-0,00535424
3742,1899;-0,00620944
3743,1543;-0,00688936
3744,1184;-0,007134
3745,0828;-0,00692269
3746,0469;-0,0064881
3747,0112;-0,00613423
3747,9753;-0,00605816
3748,9397;-0,00629489
3749,9038;-0,00674386
3750,8682;-0,00719653
3751,8323;-0,00741003
3752,7966;-0,00729778
3753,7607;-0,00700168
3754,7251;-0,00673543
3755,6892;-0,00662974
3756,6536;-0,00670003
3757,6177;-0,00688559
3758,5820;-0,00709697
3759,5461;-0,00725179
3760,5105;-0,00730782
3761,4746;-0,00727835
3762,4390;-0,00721047
3763,4031;-0,00714951
3764,3674;-0,00712204
3765,3315;-0,0071393
3766,2959;-0,00720522
3767,2600;-0,00731828
3768,2244;-0,00746716
3769,1885;-0,00762482
3770,1528;-0,00774849
3771,1169;-0,00779698
3772,0813;-0,00775972
3773,0454;-0,00766976
3774,0098;-0,00758285
3774,9739;-0,00754086
3775,9382;-0,0075492
3776,9023;-0,00758276
3777,8667;-0,00760932
3778,8308;-0,0076045
3779,7952;-0,00755363
3780,7593;-0,00745762
3781,7236;-0,00734189
3782,6877;-0,00725088
3783,6521;-0,0072295
3784,6162;-0,00730191
3785,5806;-0,0074548
3786,5447;-0,00763786
3787,5090;-0,00778784
3788,4731;-0,00786318
3789,4375;-0,00786285
3790,4016;-0,00781535
3791,3660;-0,00774742
3792,3301;-0,00765606
3793,2944;-0,00750687
3794,2585;-0,00726575
3795,2229;-0,00694313
3796,1870;-0,00660985
3797,1514;-0,00636325
3798,1155;-0,00627025
3799,0798;-0,00633482
3800,0439;-0,00650915
3801,0083;-0,00672912
3801,9724;-0,00694935
3802,9368;-0,00717186
3803,9009;-0,00744109
3804,8652;-0,00778548
3805,8293;-0,00815223
3806,7937;-0,00840687
3807,7578;-0,00842063
3808,7222;-0,0081847
3809,6863;-0,00783486
3810,6506;-0,00755409
3811,6147;-0,00744838
3812,5791;-0,00748568
3813,5432;-0,00752286
3814,5076;-0,00741047
3815,4717;-0,007114
3816,4360;-0,0067439
3817,4001;-0,0064692
3818,3645;-0,00641332
3819,3286;-0,0066024
3820,2930;-0,00695192
3821,2571;-0,00729126
3822,2214;-0,00746207
3823,1855;-0,00743285
3824,1499;-0,00729891
3825,1140;-0,00718326
3826,0784;-0,00715392
3827,0425;-0,00720432
3828,0068;-0,00727833
3828,9709;-0,00731122
3829,9353;-0,00726469
3830,8994;-0,00714246
3831,8638;-0,00698426
3832,8279;-0,00684376
3833,7922;-0,00676062
3834,7563;-0,00674095
3835,7207;-0,00676056
3836,6848;-0,00679264
3837,6492;-0,00683601
3838,6133;-0,0069099
3839,5776;-0,00702613
3840,5417;-0,00717908
3841,5061;-0,00735038
3842,4702;-0,00750163
3843,4346;-0,00756955
3844,3987;-0,00749115
3845,3630;-0,00725212
3846,3271;-0,0069188
3847,2915;-0,00662296
3848,2556;-0,00650808
3849,2200;-0,0066691
3850,1841;-0,00711198
3851,1484;-0,00775331
3852,1125;-0,00845854
3853,0769;-0,00903311
3854,0410;-0,00920234
3855,0054;-0,00885257
3855,9695;-0,00820416
3856,9338;-0,007584
3857,8979;-0,00719181
3858,8623;-0,00705482
3859,8264;-0,00707787
3860,7908;-0,00712118
3861,7549;-0,00708552
3862,7192;-0,00696905
3863,6833;-0,00684591
3864,6477;-0,00678731
3865,6118;-0,00681237
3866,5762;-0,00689522
3867,5403;-0,00699041
3868,5046;-0,00705955
3869,4688;-0,00709666
3870,4331;-0,00713168
3871,3972;-0,0071992
3872,3616;-0,00730554
3873,3257;-0,00743135
3874,2900;-0,00755473
3875,2542;-0,00766109
3876,2185;-0,00773295
3877,1826;-0,00773995
3878,1470;-0,00764896
3879,1111;-0,00745856
3880,0754;-0,00722858
3881,0396;-0,00706278
3882,0039;-0,00704849
3882,9680;-0,00720519
3883,9324;-0,00747623
3884,8965;-0,00775924
3885,8608;-0,00796125
3886,8250;-0,00804937
3887,7893;-0,00805574
3888,7534;-0,00803137
3889,7178;-0,00799616
3890,6819;-0,0079301
3891,6462;-0,0078025
3892,6104;-0,00760587
3893,5747;-0,00737314
3894,5388;-0,00716696
3895,5032;-0,0070397
3896,4673;-0,00699644
3897,4316;-0,00699645
3898,3958;-0,00699307
3899,3601;-0,00697467
3900,3242;-0,00696935
3901,2886;-0,00701635
3902,2527;-0,00714057
3903,2170;-0,00734058
3904,1812;-0,00758407
3905,1455;-0,0078229
3906,1096;-0,0080249
3907,0740;-0,00818704
3908,0381;-0,00831768
3909,0024;-0,00841482
3909,9666;-0,00846289
3910,9309;-0,00844651
3911,8950;-0,00836484
3912,8594;-0,0082345
3913,8235;-0,00808194
3914,7878;-0,00793525
3915,7520;-0,00782003
3916,7163;-0,00775216
3917,6804;-0,00772415
3918,6448;-0,00770398
3919,6089;-0,00765986
3920,5732;-0,00758798
3921,5374;-0,00751388
3922,5017;-0,00747327
3923,4658;-0,00748879
3924,4302;-0,00755224
3925,3943;-0,00762551
3926,3586;-0,00766637
3927,3228;-0,00765779
3928,2871;-0,00761543
3929,2512;-0,00757628
3930,2156;-0,00758223
3931,1797;-0,00765953
3932,1440;-0,00779879
3933,1082;-0,00795719
3934,0725;-0,00808894
3935,0366;-0,00817246
3936,0010;-0,00821032
3936,9651;-0,00821295
3937,9294;-0,00818607
3938,8936;-0,00812996
3939,8579;-0,008047
3940,8220;-0,00794891
3941,7864;-0,00785497
3942,7505;-0,00778059
3943,7148;-0,00772763
3944,6790;-0,00768909
3945,6433;-0,00766097
3946,6074;-0,00765026
3947,5718;-0,00767393
3948,5359;-0,00774939
3949,5002;-0,00787971
3950,4644;-0,0080456
3951,4287;-0,0082138
3952,3928;-0,0083538
3953,3572;-0,00844787
3954,3213;-0,00849149
3955,2856;-0,00849012
3956,2498;-0,00845559
3957,2141;-0,00840238
3958,1782;-0,00834489
3959,1426;-0,00829645
3960,1067;-0,00826919
3961,0710;-0,00827206
3962,0352;-0,00830644
3962,9995;-0,00836262
3963,9636;-0,00842194
3964,9280;-0,00846402
3965,8921;-0,00847664
3966,8564;-0,00846124
3967,8206;-0,00843176
3968,7849;-0,00840669
3969,7490;-0,00839854
3970,7134;-0,0084079
3971,6775;-0,00842613
3972,6418;-0,008444
3973,6060;-0,00845921
3974,5703;-0,00847685
3975,5344;-0,00850335
3976,4988;-0,00853959
3977,4629;-0,00857928
3978,4272;-0,00861374
3979,3914;-0,00863873
3980,3557;-0,00865801
3981,3198;-0,00868081
3982,2842;-0,0087148
3983,2483;-0,00875957
3984,2126;-0,00880524
3985,1768;-0,00883713
3986,1411;-0,00884288
3987,1052;-0,008818
3988,0696;-0,00876767
3989,0337;-0,00870421
3989,9980;-0,00864332
3990,9622;-0,00859937
3991,9265;-0,00858193
3992,8906;-0,00859394
3993,8550;-0,0086313
3994,8191;-0,00868387
3995,7834;-0,00873819
3996,7476;-0,00878179
3997,7119;-0,0088075
3998,6760;-0,00881568
3999,6404;-0,00881285
4000,6045;-0,00852065

##### Extended Information
[Comments]
Sample name
Comment
Username
Division
Organization;UNIVERSIDAD INDUSTRIAL DE SANTANDER

[Detailed Information]
Creation date;28/03/2025 4:23 p.m.

Data array type;Linear data array
Horizontal axis;Wavenumber [cm-1]
Vertical axis;Abs
Start;399,193 cm-1
End;4000,6 cm-1
Data interval;0,964233 cm-1
Data points;3736    

[Measurement Information]
Model name;FT/IR-4X1typeA
Serial No.;A035162111

Accessory;ATR PRO 4X
Accessory S/N;A021162126
Incident angle;45 deg

Measurement date;28/03/2025 4:14 p.m.

Light source;Standard
Detector;TGS
Accumulation;40
Resolution;4 cm-1
Zero filling;On
Apodization;Cosine
Gain;Auto (8)
Aperture;Auto (7 mm)
Scan speed;Auto (2 mm/sec)
Filter;Auto (12800 Hz)

