TITLE;
DATA TYPE;INFRARED SPECTRUM
ORIGIN;JASCO
OWNER;
DATE;25/02/26
TIME;18:18:47
SPECTROMETER/DATA SYSTEM;
LOCALE;9226
RESOLUTION;
DELTAX;0,964233
XUNITS;1/CM
YUNITS;ABSORBANCE
FIRSTX;  399,1927
LASTX; 4000,6047
NPOINTS;    3736
FIRSTY;     0,15721
MAXY;     0,22962
MINY;     0,00977
XYDATA
399,1927;0,157211
400,1569;0,159115
401,1211;0,160898
402,0854;0,162236
403,0496;0,163077
404,0138;0,163548
404,9781;0,163878
405,9423;0,164283
406,9065;0,164833
407,8708;0,165393
408,8350;0,165715
409,7992;0,165638
410,7635;0,165252
411,7277;0,164876
412,6919;0,164838
413,6562;0,165241
414,6204;0,165926
415,5846;0,166587
416,5489;0,166932
417,5131;0,166858
418,4773;0,166608
419,4416;0,166687
420,4058;0,16737
421,3700;0,168467
422,3343;0,169643
423,2985;0,170708
424,2627;0,171647
425,2270;0,172551
426,1912;0,173503
427,1554;0,174504
428,1197;0,175451
429,0839;0,17619
430,0481;0,176615
431,0124;0,17675
431,9766;0,176764
432,9408;0,176887
433,9051;0,177267
434,8693;0,177867
435,8335;0,178481
436,7978;0,178872
437,7620;0,178937
438,7262;0,178747
439,6905;0,178467
440,6547;0,178217
441,6189;0,177996
442,5832;0,177704
443,5474;0,177256
444,5116;0,17669
445,4759;0,176163
446,4401;0,175839
447,4043;0,175778
448,3686;0,175912
449,3328;0,1761
450,2970;0,176216
451,2613;0,176195
452,2255;0,17603
453,1897;0,17574
454,1540;0,175346
455,1182;0,174877
456,0824;0,174415
457,0467;0,1741
458,0109;0,174059
458,9751;0,174296
459,9394;0,174668
460,9036;0,174985
461,8678;0,175138
462,8321;0,175132
463,7963;0,175049
464,7605;0,17498
465,7248;0,174961
466,6890;0,174953
467,6532;0,174875
468,6175;0,174666
469,5817;0,174334
470,5459;0,173966
471,5102;0,173699
472,4744;0,17366
473,4386;0,173889
474,4029;0,174312
475,3671;0,174789
476,3313;0,175189
477,2956;0,175425
478,2598;0,175477
479,2240;0,175384
480,1883;0,175237
481,1525;0,175161
482,1167;0,175274
483,0810;0,175645
484,0452;0,176253
485,0094;0,176972
485,9737;0,177614
486,9379;0,178021
487,9021;0,178125
488,8664;0,17796
489,8306;0,177638
490,7948;0,177294
491,7591;0,177044
492,7233;0,176945
493,6875;0,176995
494,6518;0,177156
495,6160;0,177386
496,5802;0,177645
497,5445;0,177897
498,5087;0,178093
499,4729;0,178186
500,4372;0,178148
501,4014;0,178007
502,3656;0,177855
503,3299;0,177814
504,2941;0,177973
505,2583;0,178341
506,2226;0,178846
507,1868;0,179374
508,1510;0,179822
509,1153;0,18015
510,0795;0,180394
511,0437;0,18063
512,0080;0,180926
512,9722;0,181307
513,9365;0,181754
514,9007;0,182221
515,8649;0,182662
516,8292;0,183036
517,7934;0,183313
518,7576;0,183475
519,7219;0,18353
520,6861;0,183513
521,6503;0,183485
522,6146;0,183509
523,5788;0,183628
524,5430;0,183846
525,5073;0,184112
526,4715;0,184334
527,4357;0,184414
528,4000;0,184297
529,3642;0,183983
530,3284;0,183517
531,2927;0,182976
532,2569;0,182448
533,2211;0,18201
534,1854;0,181703
535,1496;0,181516
536,1138;0,181396
537,0781;0,181279
538,0423;0,181117
539,0065;0,1809
539,9708;0,180654
540,9350;0,180429
541,8992;0,180283
542,8635;0,180267
543,8277;0,180416
544,7919;0,180728
545,7562;0,181164
546,7204;0,181645
547,6846;0,182086
548,6489;0,182424
549,6131;0,182647
550,5773;0,182799
551,5416;0,182955
552,5058;0,183191
553,4700;0,183552
554,4343;0,184024
555,3985;0,18453
556,3627;0,184936
557,3270;0,18509
558,2912;0,184866
559,2554;0,184222
560,2197;0,183215
561,1839;0,181991
562,1481;0,180722
563,1124;0,179548
564,0766;0,178531
565,0408;0,177662
566,0051;0,176902
566,9693;0,176222
567,9335;0,175629
568,8978;0,175146
569,8620;0,174786
570,8262;0,174531
571,7905;0,174337
572,7547;0,174161
573,7189;0,173974
574,6832;0,173768
575,6474;0,173546
576,6116;0,173311
577,5759;0,173065
578,5401;0,172808
579,5043;0,172548
580,4686;0,172302
581,4328;0,172092
582,3970;0,171934
583,3613;0,171839
584,3255;0,171803
585,2897;0,17181
586,2540;0,171834
587,2182;0,171845
588,1824;0,171818
589,1467;0,171738
590,1109;0,171608
591,0751;0,171446
592,0394;0,171279
593,0036;0,171125
593,9678;0,170981
594,9321;0,170821
595,8963;0,170612
596,8605;0,170329
597,8248;0,169977
598,7890;0,169586
599,7532;0,169201
600,7175;0,168853
601,6817;0,168543
602,6459;0,168244
603,6102;0,167921
604,5744;0,167546
605,5386;0,167114
606,5029;0,166625
607,4671;0,166084
608,4313;0,165492
609,3956;0,164856
610,3598;0,164194
611,3240;0,163539
612,2883;0,162919
613,2525;0,162339
614,2167;0,161777
615,1810;0,16118
616,1452;0,160488
617,1094;0,159658
618,0737;0,158686
619,0379;0,157608
620,0021;0,156482
620,9664;0,155364
621,9306;0,154293
622,8948;0,15329
623,8591;0,152364
624,8233;0,151526
625,7875;0,15076
626,7518;0,150061
627,7160;0,149413
628,6802;0,148794
629,6445;0,148175
630,6087;0,147532
631,5729;0,146856
632,5372;0,146157
633,5014;0,145463
634,4656;0,144807
635,4299;0,144212
636,3941;0,143687
637,3583;0,143228
638,3226;0,142819
639,2868;0,142442
640,2510;0,142072
641,2153;0,141682
642,1795;0,14125
643,1437;0,140772
644,1080;0,140263
645,0722;0,139755
646,0364;0,139275
647,0007;0,138837
647,9649;0,138434
648,9291;0,138052
649,8934;0,137686
650,8576;0,137348
651,8218;0,137059
652,7861;0,136843
653,7503;0,136716
654,7145;0,136688
655,6788;0,136767
656,6430;0,136951
657,6072;0,137211
658,5715;0,137477
659,5357;0,137652
660,4999;0,137657
661,4642;0,13749
662,4284;0,13724
663,3926;0,137034
664,3569;0,136952
665,3211;0,136952
666,2853;0,136828
667,2496;0,136249
668,2138;0,135025
669,1780;0,133421
670,1423;0,131866
671,1065;0,130501
672,0707;0,129251
673,0350;0,128007
673,9992;0,126702
674,9634;0,125336
675,9277;0,12397
676,8919;0,122676
677,8561;0,12148
678,8204;0,120358
679,7846;0,119287
680,7488;0,118282
681,7131;0,117389
682,6773;0,116642
683,6415;0,116046
684,6058;0,115578
685,5700;0,115216
686,5342;0,114947
687,4985;0,114757
688,4627;0,114614
689,4269;0,114468
690,3912;0,114267
691,3554;0,113981
692,3196;0,113614
693,2839;0,113196
694,2481;0,112764
695,2123;0,112349
696,1766;0,111966
697,1408;0,111616
698,1050;0,111295
699,0693;0,110998
700,0335;0,110718
700,9977;0,110441
701,9620;0,110148
702,9262;0,109818
703,8904;0,109441
704,8547;0,109015
705,8189;0,108552
706,7831;0,108075
707,7474;0,107603
708,7116;0,107144
709,6758;0,10669
710,6401;0,106222
711,6043;0,105716
712,5685;0,105161
713,5328;0,104562
714,4970;0,103938
715,4612;0,103478
716,4255;0,102825
717,3897;0,102163
718,3539;0,101486
719,3182;0,100789
720,2824;0,100081
721,2466;0,0993778
722,2109;0,0986945
723,1751;0,0980308
724,1393;0,0973746
725,1036;0,0967123
726,0678;0,0960407
727,0320;0,0953719
727,9963;0,0947263
728,9605;0,0941186
729,9247;0,0935493
730,8890;0,0930058
731,8532;0,0924734
732,8174;0,0919469
733,7817;0,0914334
734,7459;0,0909471
735,7101;0,0904995
736,6744;0,0900928
737,6386;0,0897178
738,6028;0,0893582
739,5671;0,0889957
740,5313;0,0886153
741,4955;0,0882101
742,4598;0,0877831
743,4240;0,0873468
744,3882;0,0869178
745,3525;0,0865101
746,3167;0,0861287
747,2809;0,0857667
748,2452;0,085409
749,2094;0,0850374
750,1736;0,0846375
751,1379;0,0842022
752,1021;0,0837316
753,0663;0,083232
754,0306;0,0827137
754,9948;0,08219
755,9590;0,081675
756,9233;0,081182
757,8875;0,0807204
758,8517;0,0802944
759,8160;0,0799023
760,7802;0,0795385
761,7444;0,0791968
762,7087;0,0788725
763,6729;0,0785628
764,6371;0,0782659
765,6014;0,0779781
766,5656;0,0776929
767,5298;0,0774012
768,4941;0,0770937
769,4583;0,0767642
770,4225;0,0764125
771,3868;0,0760457
772,3510;0,0756765
773,3152;0,0753205
774,2795;0,0749907
775,2437;0,0746937
776,2079;0,0744273
777,1722;0,0741815
778,1364;0,0739427
779,1006;0,0736983
780,0649;0,0734401
781,0291;0,0731646
781,9933;0,0728715
782,9576;0,0725625
783,9218;0,0722424
784,8860;0,0719216
785,8503;0,0716164
786,8145;0,0713435
787,7787;0,0711115
788,7430;0,0709126
789,7072;0,0707244
790,6714;0,0705203
791,6357;0,0702869
792,5999;0,0700338
793,5641;0,0697905
794,5284;0,0695904
795,4926;0,069451
796,4568;0,069365
797,4211;0,069305
798,3853;0,0692395
799,3495;0,0691473
800,3138;0,0690232
801,2780;0,0688729
802,2422;0,0687052
803,2065;0,0685275
804,1707;0,0683462
805,1349;0,0681702
806,0992;0,0680108
807,0634;0,0678782
808,0276;0,0677765
808,9919;0,0677016
809,9561;0,0676437
810,9203;0,067592
811,8846;0,0675395
812,8488;0,0674854
813,8130;0,0674337
814,7773;0,0673897
815,7415;0,0673539
816,7057;0,0673194
817,6700;0,0672724
818,6342;0,0671988
819,5984;0,0670945
820,5627;0,0669725
821,5269;0,0668612
822,4911;0,066793
823,4554;0,0667884
824,4196;0,0668454
825,3839;0,06694
826,3481;0,0670388
827,3123;0,0671131
828,2766;0,0671474
829,2408;0,067137
830,2050;0,0670811
831,1693;0,0669769
832,1335;0,0668206
833,0977;0,0666134
834,0620;0,0663654
835,0262;0,0660948
835,9904;0,0658214
836,9547;0,06556
837,9189;0,0653177
838,8831;0,0650954
839,8474;0,0648913
840,8116;0,0647024
841,7758;0,0645245
842,7401;0,0643527
843,7043;0,064183
844,6685;0,0640149
845,6328;0,0638524
846,5970;0,0637014
847,5612;0,0635665
848,5255;0,0634495
849,4897;0,0633514
850,4539;0,0632757
851,4182;0,0632281
852,3824;0,0632129
853,3466;0,0632261
854,3109;0,0632521
855,2751;0,0632673
856,2393;0,0632506
857,2036;0,0631943
858,1678;0,0631087
859,1320;0,0630178
860,0963;0,0629484
861,0605;0,0629187
862,0247;0,0629334
862,9890;0,0629864
863,9532;0,0630684
864,9174;0,0631745
865,8817;0,0633049
866,8459;0,0634606
867,8101;0,063637
868,7744;0,0638207
869,7386;0,0639938
870,7028;0,064142
871,6671;0,0642619
872,6313;0,0643617
873,5955;0,0644555
874,5598;0,0645551
875,5240;0,0646646
876,4882;0,0647818
877,4525;0,0649041
878,4167;0,0650345
879,3809;0,0651837
880,3452;0,0653677
881,3094;0,0656042
882,2736;0,0659096
883,2379;0,0662977
884,2021;0,066779
885,1663;0,0673588
886,1306;0,0680358
887,0948;0,0688011
888,0590;0,0696387
889,0233;0,0705274
889,9875;0,0714412
890,9517;0,0723496
891,9160;0,0732185
892,8802;0,074014
893,8444;0,0747072
894,8087;0,0752778
895,7729;0,0757138
896,7371;0,0760079
897,7014;0,076153
898,6656;0,0761436
899,6298;0,0759811
900,5941;0,0756809
901,5583;0,0752742
902,5225;0,0748022
903,4868;0,0743051
904,4510;0,0738127
905,4152;0,0733414
906,3795;0,0728996
907,3437;0,0724953
908,3079;0,0721418
909,2722;0,0718585
910,2364;0,0716658
911,2007;0,0715788
912,1649;0,0716032
913,1292;0,0717329
914,0934;0,071952
915,0576;0,0722381
916,0219;0,0725678
916,9861;0,0729222
917,9503;0,0732901
918,9146;0,0736687
919,8788;0,0740591
920,8430;0,074461
921,8073;0,0748675
922,7715;0,0752635
923,7357;0,0756291
924,7000;0,075945
925,6642;0,0761992
926,6284;0,0763914
927,5927;0,0765339
928,5569;0,0766484
929,5211;0,0767594
930,4854;0,0768863
931,4496;0,0770386
932,4138;0,0772169
933,3781;0,0774178
934,3423;0,0776415
935,3065;0,0778955
936,2708;0,0781928
937,2350;0,0785455
938,1992;0,0789586
939,1635;0,0794294
940,1277;0,079951
941,0919;0,0805186
942,0562;0,0811324
943,0204;0,081797
943,9846;0,082518
944,9489;0,0833002
945,9131;0,0841482
946,8773;0,0850679
947,8416;0,0860672
948,8058;0,0871529
949,7700;0,0883268
950,7343;0,0895844
951,6985;0,0909169
952,6627;0,0923153
953,6270;0,093774
954,5912;0,0952915
955,5554;0,0968689
956,5197;0,0985087
957,4839;0,100215
958,4481;0,101993
959,4124;0,103844
960,3766;0,105765
961,3408;0,107739
962,3051;0,109737
963,2693;0,111731
964,2335;0,113699
965,1978;0,115638
966,1620;0,117567
967,1262;0,119522
968,0905;0,12154
969,0547;0,123656
970,0189;0,125896
970,9832;0,128278
971,9474;0,130817
972,9116;0,133525
973,8759;0,136418
974,8401;0,139508
975,8043;0,142808
976,7686;0,146317
977,7328;0,150018
978,6970;0,153866
979,6613;0,157785
980,6255;0,161667
981,5897;0,165394
982,5540;0,16885
983,5182;0,171949
984,4824;0,17465
985,4467;0,176956
986,4109;0,178912
987,3751;0,180576
988,3394;0,182008
989,3036;0,183251
990,2678;0,18433
991,2321;0,185256
992,1963;0,186037
993,1605;0,186689
994,1248;0,187238
995,0890;0,187714
996,0532;0,188142
997,0175;0,188535
997,9817;0,188896
998,9459;0,189233
999,9102;0,189562
1000,8744;0,189922
1001,8386;0,190359
1002,8029;0,190917
1003,7671;0,191631
1004,7313;0,19252
1005,6956;0,193599
1006,6598;0,194878
1007,6240;0,196368
1008,5883;0,198063
1009,5525;0,199941
1010,5167;0,201955
1011,4810;0,204048
1012,4452;0,206169
1013,4094;0,208279
1014,3737;0,210353
1015,3379;0,212372
1016,3021;0,214312
1017,2664;0,216146
1018,2306;0,217848
1019,1948;0,219401
1020,1591;0,220809
1021,1233;0,222091
1022,0875;0,223272
1023,0518;0,224377
1024,0160;0,225417
1024,9802;0,226389
1025,9445;0,227278
1026,9087;0,228064
1027,8729;0,228725
1028,8372;0,229232
1029,8014;0,229547
1030,7656;0,229617
1031,7299;0,229377
1032,6941;0,228769
1033,6583;0,22776
1034,6226;0,226369
1035,5868;0,224674
1036,5510;0,222803
1037,5153;0,220908
1038,4795;0,219131
1039,4437;0,217582
1040,4080;0,216318
1041,3722;0,215351
1042,3364;0,214648
1043,3007;0,214151
1044,2649;0,213785
1045,2291;0,213473
1046,1934;0,213142
1047,1576;0,212727
1048,1218;0,212178
1049,0861;0,211454
1050,0503;0,210526
1051,0145;0,209372
1051,9788;0,207989
1052,9430;0,206388
1053,9072;0,204597
1054,8715;0,202647
1055,8357;0,200557
1056,7999;0,198318
1057,7642;0,195894
1058,7284;0,193237
1059,6926;0,190317
1060,6569;0,187152
1061,6211;0,183815
1062,5853;0,180429
1063,5496;0,177128
1064,5138;0,174025
1065,4780;0,171185
1066,4423;0,168618
1067,4065;0,166296
1068,3707;0,164173
1069,3350;0,162201
1070,2992;0,160338
1071,2634;0,158544
1072,2277;0,156774
1073,1919;0,15498
1074,1561;0,153118
1075,1204;0,15116
1076,0846;0,149102
1077,0488;0,146971
1078,0131;0,144818
1078,9773;0,142705
1079,9415;0,140691
1080,9058;0,138825
1081,8700;0,137133
1082,8342;0,135628
1083,7985;0,134308
1084,7627;0,133167
1085,7269;0,132189
1086,6912;0,131356
1087,6554;0,130643
1088,6196;0,130028
1089,5839;0,129498
1090,5481;0,129055
1091,5123;0,128713
1092,4766;0,128491
1093,4408;0,128396
1094,4050;0,128419
1095,3693;0,128537
1096,3335;0,128719
1097,2977;0,128941
1098,2620;0,129183
1099,2262;0,129425
1100,1904;0,129646
1101,1547;0,12982
1102,1189;0,129923
1103,0831;0,12994
1104,0474;0,129869
1105,0116;0,129718
1105,9758;0,129497
1106,9401;0,129212
1107,9043;0,128856
1108,8685;0,128412
1109,8328;0,127852
1110,7970;0,127145
1111,7612;0,126268
1112,7255;0,125216
1113,6897;0,124015
1114,6539;0,122718
1115,6182;0,121396
1116,5824;0,12012
1117,5466;0,118939
1118,5109;0,117869
1119,4751;0,116887
1120,4393;0,11594
1121,4036;0,114957
1122,3678;0,113861
1123,3320;0,112587
1124,2963;0,111096
1125,2605;0,109381
1126,2247;0,107469
1127,1890;0,105409
1128,1532;0,10326
1129,1174;0,101075
1130,0817;0,0988931
1131,0459;0,0967418
1132,0101;0,0946437
1132,9744;0,0926236
1133,9386;0,0907128
1134,9028;0,0889475
1135,8671;0,0873639
1136,8313;0,0859916
1137,7955;0,0848491
1138,7598;0,0839417
1139,7240;0,0832614
1140,6882;0,0827894
1141,6525;0,0824989
1142,6167;0,0823595
1143,5809;0,0823418
1144,5452;0,0824222
1145,5094;0,0825858
1146,4736;0,0828264
1147,4379;0,0831431
1148,4021;0,0835355
1149,3663;0,0839976
1150,3306;0,084515
1151,2948;0,0850639
1152,2590;0,0856126
1153,2233;0,086125
1154,1875;0,086562
1155,1517;0,0868838
1156,1160;0,0870485
1157,0802;0,0870114
1158,0444;0,0867244
1159,0087;0,0861377
1159,9729;0,0852047
1160,9371;0,0838905
1161,9014;0,0821814
1162,8656;0,0800937
1163,8298;0,0776768
1164,7941;0,0750106
1165,7583;0,0721945
1166,7225;0,0693344
1167,6868;0,0665283
1168,6510;0,0638563
1169,6152;0,0613749
1170,5795;0,0591177
1171,5437;0,0570993
1172,5079;0,0553196
1173,4722;0,0537686
1174,4364;0,0524285
1175,4006;0,0512769
1176,3649;0,0502899
1177,3291;0,0494464
1178,2933;0,0487304
1179,2576;0,0481321
1180,2218;0,0476449
1181,1860;0,0472615
1182,1503;0,0469708
1183,1145;0,0467584
1184,0787;0,0466094
1185,0430;0,0465139
1186,0072;0,0464701
1186,9714;0,0464846
1187,9357;0,046569
1188,8999;0,0467345
1189,8641;0,046987
1190,8284;0,0473256
1191,7926;0,047744
1192,7568;0,0482346
1193,7211;0,0487909
1194,6853;0,0494082
1195,6495;0,0500813
1196,6138;0,0508022
1197,5780;0,0515584
1198,5422;0,0523352
1199,5065;0,0531233
1200,4707;0,0539015
1201,4349;0,054668
1202,3992;0,0554177
1203,3634;0,0561461
1204,3276;0,0568491
1205,2919;0,0575247
1206,2561;0,0581763
1207,2203;0,0588148
1208,1846;0,0594577
1209,1488;0,0601262
1210,1130;0,0608404
1211,0773;0,0616147
1212,0415;0,0624555
1213,0057;0,063361
1213,9700;0,0643231
1214,9342;0,065329
1215,8984;0,0663627
1216,8627;0,0674056
1217,8269;0,0684377
1218,7911;0,0694401
1219,7554;0,0703989
1220,7196;0,0713071
1221,6838;0,072164
1222,6481;0,0729718
1223,6123;0,0737308
1224,5765;0,074438
1225,5408;0,0750886
1226,5050;0,0756796
1227,4692;0,0762126
1228,4335;0,0766937
1229,3977;0,07713
1230,3619;0,0775253
1231,3262;0,0778782
1232,2904;0,0781824
1233,2546;0,0784305
1234,2189;0,0786177
1235,1831;0,0787454
1236,1473;0,0788218
1237,1116;0,0788598
1238,0758;0,0788734
1239,0400;0,0788714
1240,0043;0,0788548
1240,9685;0,0788158
1241,9327;0,0787413
1242,8970;0,0786188
1243,8612;0,0784414
1244,8254;0,0782097
1245,7897;0,0779306
1246,7539;0,0776142
1247,7181;0,0772706
1248,6824;0,0769078
1249,6466;0,0765319
1250,6108;0,076147
1251,5751;0,0757568
1252,5393;0,0753649
1253,5035;0,0749753
1254,4678;0,0745909
1255,4320;0,0742125
1256,3962;0,0738367
1257,3605;0,073456
1258,3247;0,0730599
1259,2889;0,0726384
1260,2532;0,0721835
1261,2174;0,0716903
1262,1816;0,0711556
1263,1459;0,0705771
1264,1101;0,0699534
1265,0743;0,0692854
1266,0386;0,0685769
1267,0028;0,0678337
1267,9670;0,0670623
1268,9313;0,0662678
1269,8955;0,0654536
1270,8597;0,0646227
1271,8240;0,0637791
1272,7882;0,0629281
1273,7524;0,0620766
1274,7167;0,0612333
1275,6809;0,0604082
1276,6451;0,0596113
1277,6094;0,0588496
1278,5736;0,0581239
1279,5378;0,0574275
1280,5021;0,0567492
1281,4663;0,0560791
1282,4305;0,0554149
1283,3948;0,054764
1284,3590;0,0541402
1285,3232;0,0535591
1286,2875;0,0530328
1287,2517;0,0525684
1288,2159;0,0521688
1289,1802;0,0518347
1290,1444;0,0515657
1291,1086;0,0513607
1292,0729;0,0512172
1293,0371;0,051132
1294,0013;0,0511024
1294,9656;0,0511271
1295,9298;0,0512074
1296,8940;0,0513464
1297,8583;0,0515479
1298,8225;0,0518139
1299,7867;0,0521435
1300,7510;0,0525318
1301,7152;0,0529714
1302,6794;0,0534554
1303,6437;0,05398
1304,6079;0,0545436
1305,5721;0,0551451
1306,5364;0,0557792
1307,5006;0,0564359
1308,4648;0,0571016
1309,4291;0,0577639
1310,3933;0,0584134
1311,3575;0,0590419
1312,3218;0,059639
1313,2860;0,0601884
1314,2502;0,0606683
1315,2145;0,0610555
1316,1787;0,0613319
1317,1429;0,0614898
1318,1072;0,0615365
1319,0714;0,0614946
1320,0356;0,0613956
1320,9999;0,0612692
1321,9641;0,0611349
1322,9283;0,0610004
1323,8926;0,0608669
1324,8568;0,0607353
1325,8210;0,0606092
1326,7853;0,0604932
1327,7495;0,060388
1328,7137;0,0602868
1329,6780;0,0601754
1330,6422;0,0600373
1331,6064;0,0598594
1332,5707;0,0596359
1333,5349;0,059366
1334,4991;0,0590467
1335,4634;0,0586675
1336,4276;0,0582108
1337,3918;0,0576652
1338,3561;0,0570452
1339,3203;0,0564013
1340,2845;0,0558016
1341,2488;0,0552951
1342,2130;0,0548924
1343,1772;0,0545752
1344,1415;0,0543179
1345,1057;0,0541033
1346,0699;0,0539288
1347,0342;0,0538056
1347,9984;0,0537533
1348,9626;0,0537905
1349,9269;0,0539254
1350,8911;0,0541506
1351,8553;0,054446
1352,8196;0,0547887
1353,7838;0,0551641
1354,7480;0,0555711
1355,7123;0,0560171
1356,6765;0,056507
1357,6407;0,057035
1358,6050;0,0575854
1359,5692;0,0581387
1360,5334;0,0586775
1361,4977;0,0591885
1362,4619;0,0596635
1363,4261;0,0600983
1364,3904;0,0604919
1365,3546;0,0608459
1366,3188;0,0611622
1367,2831;0,0614398
1368,2473;0,0616725
1369,2115;0,0618474
1370,1758;0,0619449
1371,1400;0,0619396
1372,1042;0,0618061
1373,0685;0,061533
1374,0327;0,0611384
1374,9969;0,0606674
1375,9612;0,0601603
1376,9254;0,0596189
1377,8896;0,0590066
1378,8539;0,0582814
1379,8181;0,0574355
1380,7823;0,0565132
1381,7466;0,0555892
1382,7108;0,0547199
1383,6750;0,0539085
1384,6393;0,0531115
1385,6035;0,0522825
1386,5677;0,0514292
1387,5320;0,0506313
1388,4962;0,049985
1389,4604;0,0495273
1390,4247;0,0492244
1391,3889;0,0490109
1392,3531;0,048828
1393,3174;0,0486426
1394,2816;0,0484541
1395,2458;0,048289
1396,2101;0,0481818
1397,1743;0,0481565
1398,1385;0,0482192
1399,1028;0,0483622
1400,0670;0,0485679
1401,0313;0,0488135
1401,9955;0,0490771
1402,9597;0,0493456
1403,9240;0,0496209
1404,8882;0,0499196
1405,8524;0,0502616
1406,8167;0,0506563
1407,7809;0,0510988
1408,7451;0,0515804
1409,7094;0,0520986
1410,6736;0,052658
1411,6378;0,0532605
1412,6021;0,0538969
1413,5663;0,0545471
1414,5305;0,0551888
1415,4948;0,0558014
1416,4590;0,0563658
1417,4232;0,0568649
1418,3875;0,057288
1419,3517;0,0576293
1420,3159;0,0578776
1421,2802;0,0580122
1422,2444;0,0580123
1423,2086;0,0578707
1424,1729;0,0576044
1425,1371;0,0572454
1426,1013;0,0568129
1427,0656;0,0562895
1428,0298;0,0556331
1428,9940;0,054828
1429,9583;0,053934
1430,9225;0,0530687
1431,8867;0,0523226
1432,8510;0,0516903
1433,8152;0,0510752
1434,7794;0,0503551
1435,7437;0,0494852
1436,7079;0,0485823
1437,6721;0,0478552
1438,6364;0,0474202
1439,6006;0,0472451
1440,5648;0,0472408
1441,5291;0,0473392
1442,4933;0,047509
1443,4575;0,047742
1444,4218;0,048035
1445,3860;0,048379
1446,3502;0,048758
1447,3145;0,0491533
1448,2787;0,0495496
1449,2429;0,049938
1450,2072;0,0503161
1451,1714;0,0506837
1452,1356;0,051035
1453,0999;0,0513438
1454,0641;0,0515459
1455,0283;0,0515319
1455,9926;0,0512087
1456,9568;0,0506712
1457,9210;0,0502284
1458,8853;0,0500629
1459,8495;0,0500963
1460,8137;0,050176
1461,7780;0,0501655
1462,7422;0,0499338
1463,7064;0,0493753
1464,6707;0,0484948
1465,6349;0,0474559
1466,5991;0,0464618
1467,5634;0,045591
1468,5276;0,0447738
1469,4918;0,0438543
1470,4561;0,0426475
1471,4203;0,0410247
1472,3845;0,0390677
1473,3488;0,0371343
1474,3130;0,0355858
1475,2772;0,0344859
1476,2415;0,0336854
1477,2057;0,0330344
1478,1699;0,0324563
1479,1342;0,0319277
1480,0984;0,0314505
1481,0626;0,0310377
1482,0269;0,0307065
1482,9911;0,0304707
1483,9553;0,03033
1484,9196;0,0302644
1485,8838;0,0302373
1486,8480;0,0302127
1487,8123;0,030187
1488,7765;0,0302164
1489,7407;0,0303811
1490,7050;0,0307025
1491,6692;0,0311361
1492,6334;0,0316332
1493,5977;0,0321697
1494,5619;0,0327394
1495,5261;0,0333462
1496,4904;0,0340046
1497,4546;0,0347302
1498,4188;0,0355119
1499,3831;0,0363075
1500,3473;0,0370757
1501,3115;0,0377952
1502,2758;0,0384496
1503,2400;0,0390032
1504,2042;0,0393743
1505,1685;0,0394246
1506,1327;0,039042
1507,0969;0,038364
1508,0612;0,0377454
1509,0254;0,0373248
1509,9896;0,0370041
1510,9539;0,0366806
1511,9181;0,0362955
1512,8823;0,0358049
1513,8466;0,0351723
1514,8108;0,0343902
1515,7750;0,0335024
1516,7393;0,032589
1517,7035;0,0317106
1518,6677;0,0308653
1519,6320;0,0300094
1520,5962;0,0291308
1521,5604;0,0282988
1522,5247;0,0276187
1523,4889;0,0271407
1524,4531;0,0268345
1525,4174;0,0266386
1526,3816;0,0265119
1527,3458;0,0264458
1528,3101;0,0264444
1529,2743;0,0265
1530,2385;0,0265844
1531,2028;0,0266612
1532,1670;0,0267143
1533,1312;0,0267738
1534,0955;0,0269
1535,0597;0,0271294
1536,0239;0,0274454
1536,9882;0,0277846
1537,9524;0,0280394
1538,9166;0,0280691
1539,8809;0,027807
1540,8451;0,0274528
1541,8093;0,0273344
1542,7736;0,0274986
1543,7378;0,0277872
1544,7020;0,028083
1545,6663;0,0283451
1546,6305;0,0285706
1547,5947;0,0287665
1548,5590;0,0289392
1549,5232;0,0290941
1550,4874;0,0292423
1551,4517;0,029406
1552,4159;0,0296096
1553,3801;0,0298632
1554,3444;0,0301473
1555,3086;0,0304025
1556,2728;0,0305223
1557,2371;0,0303962
1558,2013;0,0300912
1559,1655;0,0299354
1560,1298;0,0300962
1561,0940;0,0304395
1562,0582;0,0308447
1563,0225;0,0312798
1563,9867;0,0317342
1564,9509;0,0321831
1565,9152;0,0325895
1566,8794;0,0329295
1567,8436;0,0332258
1568,8079;0,0335513
1569,7721;0,0339729
1570,7363;0,0344888
1571,7006;0,0350454
1572,6648;0,0355933
1573,6290;0,0361133
1574,5933;0,0366195
1575,5575;0,0371564
1576,5217;0,0377671
1577,4860;0,0384405
1578,4502;0,0391277
1579,4144;0,0398065
1580,3787;0,0404905
1581,3429;0,0411987
1582,3071;0,0419363
1583,2714;0,0426952
1584,2356;0,0434646
1585,1998;0,0442385
1586,1641;0,0450134
1587,1283;0,0457782
1588,0925;0,0465088
1589,0568;0,0471718
1590,0210;0,0477348
1590,9852;0,0481719
1591,9495;0,0484633
1592,9137;0,0485955
1593,8779;0,0485685
1594,8422;0,0484031
1595,8064;0,0481378
1596,7706;0,047812
1597,7349;0,0474502
1598,6991;0,04706
1599,6633;0,0466423
1600,6276;0,0462046
1601,5918;0,0457663
1602,5560;0,0453531
1603,5203;0,0449837
1604,4845;0,044658
1605,4487;0,0443564
1606,4130;0,0440525
1607,3772;0,0437323
1608,3414;0,0434131
1609,3057;0,0431421
1610,2699;0,0429665
1611,2341;0,042898
1612,1984;0,0429028
1613,1626;0,0429144
1614,1268;0,0428561
1615,0911;0,0426857
1616,0553;0,0424544
1617,0195;0,0422942
1617,9838;0,0422908
1618,9480;0,0424154
1619,9122;0,0425863
1620,8765;0,0427327
1621,8407;0,0428152
1622,8049;0,0428356
1623,7692;0,0428339
1624,7334;0,0428546
1625,6976;0,0429125
1626,6619;0,0429978
1627,6261;0,0431033
1628,5903;0,0432383
1629,5546;0,0434184
1630,5188;0,0436468
1631,4830;0,0438996
1632,4473;0,044117
1633,4115;0,0442028
1634,3757;0,044065
1635,3400;0,0437306
1636,3042;0,0433994
1637,2684;0,0432507
1638,2327;0,0432834
1639,1969;0,043415
1640,1611;0,0435869
1641,1254;0,043773
1642,0896;0,0439519
1643,0538;0,0440799
1644,0181;0,0440808
1644,9823;0,0438812
1645,9465;0,043514
1646,9108;0,0431707
1647,8750;0,0430408
1648,8392;0,0431395
1649,8035;0,0433404
1650,7677;0,0434417
1651,7319;0,0431934
1652,6962;0,0424745
1653,6604;0,041603
1654,6246;0,0410379
1655,5889;0,0408153
1656,5531;0,040753
1657,5173;0,0407208
1658,4816;0,0406392
1659,4458;0,040436
1660,4100;0,040051
1661,3743;0,0394898
1662,3385;0,0388653
1663,3027;0,0383327
1664,2670;0,0379687
1665,2312;0,0377351
1666,1954;0,0375227
1667,1597;0,0372
1668,1239;0,0366716
1669,0881;0,035962
1670,0524;0,0352365
1671,0166;0,0346611
1671,9808;0,0342533
1672,9451;0,033906
1673,9093;0,0335004
1674,8735;0,0329933
1675,8378;0,0324495
1676,8020;0,03199
1677,7662;0,0316945
1678,7305;0,0315602
1679,6947;0,0315179
1680,6589;0,031447
1681,6232;0,0311783
1682,5874;0,0305594
1683,5516;0,0296424
1684,5159;0,0287557
1685,4801;0,028169
1686,4443;0,027861
1687,4086;0,0276938
1688,3728;0,0275766
1689,3370;0,0274848
1690,3013;0,0274296
1691,2655;0,0274239
1692,2297;0,0274595
1693,1940;0,0275014
1694,1582;0,0275003
1695,1224;0,0274181
1696,0867;0,027253
1697,0509;0,0270457
1698,0151;0,0268565
1698,9794;0,0267322
1699,9436;0,0266892
1700,9078;0,0267209
1701,8721;0,0268164
1702,8363;0,0269716
1703,8005;0,0271883
1704,7648;0,0274677
1705,7290;0,0278063
1706,6932;0,0281964
1707,6575;0,0286301
1708,6217;0,029106
1709,5859;0,0296304
1710,5502;0,0302097
1711,5144;0,0308367
1712,4786;0,0314827
1713,4429;0,0320987
1714,4071;0,0326303
1715,3713;0,0330546
1716,3356;0,0334252
1717,2998;0,0338494
1718,2640;0,0343761
1719,2283;0,0349639
1720,1925;0,0355643
1721,1567;0,0361609
1722,1210;0,0367489
1723,0852;0,0373155
1724,0494;0,0378414
1725,0137;0,0383135
1725,9779;0,0387353
1726,9421;0,0391245
1727,9064;0,0394989
1728,8706;0,0398592
1729,8348;0,0401732
1730,7991;0,0403671
1731,7633;0,0403414
1732,7275;0,0400444
1733,6918;0,0395656
1734,6560;0,0390933
1735,6202;0,0387383
1736,5845;0,0384718
1737,5487;0,0381988
1738,5129;0,0378273
1739,4772;0,0373079
1740,4414;0,0366562
1741,4056;0,0359405
1742,3699;0,0352257
1743,3341;0,0345299
1744,2983;0,0338326
1745,2626;0,0331044
1746,2268;0,0323165
1747,1910;0,0314328
1748,1553;0,0304178
1749,1195;0,0292824
1750,0837;0,0281255
1751,0480;0,0270858
1752,0122;0,026239
1752,9764;0,0255599
1753,9407;0,0249655
1754,9049;0,0243731
1755,8691;0,0237397
1756,8334;0,0230719
1757,7976;0,022402
1758,7618;0,0217473
1759,7261;0,0210954
1760,6903;0,0204317
1761,6545;0,0197802
1762,6188;0,0192046
1763,5830;0,0187618
1764,5472;0,0184596
1765,5115;0,0182572
1766,4757;0,0180941
1767,4399;0,017915
1768,4042;0,0176789
1769,3684;0,0173579
1770,3326;0,0169425
1771,2969;0,0164625
1772,2611;0,0160028
1773,2253;0,0156631
1774,1896;0,0154881
1775,1538;0,0154496
1776,1180;0,0154817
1777,0823;0,0155178
1778,0465;0,01551
1779,0107;0,0154429
1779,9750;0,0153369
1780,9392;0,0152295
1781,9034;0,015146
1782,8677;0,0150854
1783,8319;0,0150359
1784,7961;0,0149966
1785,7604;0,0149839
1786,7246;0,0150159
1787,6888;0,0150908
1788,6531;0,0151749
1789,6173;0,0152073
1790,5815;0,0151276
1791,5458;0,0149282
1792,5100;0,0146843
1793,4742;0,0145012
1794,4385;0,0144298
1795,4027;0,0144517
1796,3669;0,0145176
1797,3312;0,0145766
1798,2954;0,014592
1799,2596;0,014552
1800,2239;0,0144748
1801,1881;0,014396
1802,1523;0,0143448
1803,1166;0,0143316
1804,0808;0,0143516
1805,0450;0,0143925
1806,0093;0,0144374
1806,9735;0,0144658
1807,9377;0,014457
1808,9020;0,0144
1809,8662;0,014304
1810,8304;0,0141997
1811,7947;0,0141238
1812,7589;0,0140975
1813,7231;0,0141171
1814,6874;0,0141601
1815,6516;0,0141995
1816,6158;0,0142191
1817,5801;0,0142221
1818,5443;0,0142266
1819,5085;0,0142489
1820,4728;0,0142881
1821,4370;0,0143256
1822,4012;0,0143387
1823,3655;0,0143174
1824,3297;0,0142737
1825,2939;0,0142298
1826,2582;0,0141951
1827,2224;0,0141561
1828,1866;0,0140898
1829,1509;0,0139929
1830,1151;0,0138973
1831,0793;0,0138494
1832,0436;0,0138705
1833,0078;0,0139434
1833,9720;0,0140283
1834,9363;0,0140866
1835,9005;0,0141019
1836,8647;0,0140906
1837,8290;0,0140902
1838,7932;0,0141296
1839,7574;0,0142062
1840,7217;0,0142848
1841,6859;0,0143144
1842,6501;0,0142584
1843,6144;0,0141272
1844,5786;0,0139815
1845,5428;0,0138842
1846,5071;0,0138532
1847,4713;0,013867
1848,4355;0,0138956
1849,3998;0,013919
1850,3640;0,013929
1851,3282;0,013925
1852,2925;0,0139092
1853,2567;0,0138854
1854,2209;0,0138606
1855,1852;0,0138471
1856,1494;0,0138582
1857,1136;0,0138995
1858,0779;0,0139607
1859,0421;0,0140183
1860,0063;0,0140488
1860,9706;0,0140448
1861,9348;0,0140213
1862,8990;0,0140053
1863,8633;0,0140162
1864,8275;0,0140514
1865,7917;0,0140838
1866,7560;0,014076
1867,7202;0,014006
1868,6844;0,013888
1869,6487;0,0137624
1870,6129;0,0136645
1871,5771;0,0136084
1872,5414;0,0135921
1873,5056;0,0136073
1874,4698;0,0136447
1875,4341;0,0136956
1876,3983;0,0137516
1877,3625;0,013804
1878,3268;0,0138427
1879,2910;0,0138589
1880,2552;0,0138477
1881,2195;0,0138135
1882,1837;0,0137717
1883,1479;0,0137446
1884,1122;0,0137502
1885,0764;0,013791
1886,0406;0,0138486
1887,0049;0,013891
1887,9691;0,013889
1888,9333;0,0138355
1889,8976;0,0137525
1890,8618;0,0136768
1891,8260;0,0136362
1892,7903;0,0136364
1893,7545;0,0136656
1894,7188;0,0137079
1895,6830;0,0137541
1896,6472;0,0138023
1897,6115;0,0138497
1898,5757;0,0138852
1899,5399;0,0138907
1900,5042;0,0138516
1901,4684;0,0137689
1902,4326;0,0136644
1903,3969;0,0135717
1904,3611;0,0135186
1905,3253;0,0135128
1906,2896;0,0135406
1907,2538;0,0135766
1908,2180;0,0135998
1909,1823;0,0136034
1910,1465;0,0135957
1911,1107;0,0135893
1912,0750;0,0135917
1913,0392;0,0136025
1914,0034;0,0136169
1914,9677;0,0136315
1915,9319;0,0136473
1916,8961;0,0136672
1917,8604;0,0136889
1918,8246;0,0137017
1919,7888;0,0136917
1920,7531;0,0136538
1921,7173;0,0135969
1922,6815;0,0135397
1923,6458;0,0135001
1924,6100;0,013485
1925,5742;0,0134896
1926,5385;0,013505
1927,5027;0,0135261
1928,4669;0,0135517
1929,4312;0,0135793
1930,3954;0,0135999
1931,3596;0,0136003
1932,3239;0,0135703
1933,2881;0,0135096
1934,2523;0,0134278
1935,2166;0,0133399
1936,1808;0,0132602
1937,1450;0,0132002
1938,1093;0,013169
1939,0735;0,0131699
1940,0377;0,0131951
1941,0020;0,0132221
1941,9662;0,0132219
1942,9304;0,0131792
1943,8947;0,0131091
1944,8589;0,0130509
1945,8231;0,0130391
1946,7874;0,0130756
1947,7516;0,0131233
1948,7158;0,0131262
1949,6801;0,0130432
1950,6443;0,0128765
1951,6085;0,0126733
1952,5728;0,0125025
1953,5370;0,0124213
1954,5012;0,012452
1955,4655;0,0125773
1956,4297;0,0127492
1957,3939;0,0129045
1958,3582;0,0129819
1959,3224;0,0129405
1960,2866;0,0127762
1961,2509;0,0125251
1962,2151;0,0122458
1963,1793;0,0119903
1964,1436;0,0117835
1965,1078;0,011627
1966,0720;0,0115207
1967,0363;0,0114801
1968,0005;0,0115298
1968,9647;0,0116735
1969,9290;0,0118691
1970,8932;0,0120337
1971,8574;0,0120818
1972,8217;0,0119744
1973,7859;0,0117508
1974,7501;0,0115191
1975,7144;0,0113995
1976,6786;0,0114515
1977,6428;0,0116351
1978,6071;0,0118442
1979,5713;0,0119844
1980,5355;0,0120333
1981,4998;0,0120412
1982,4640;0,012086
1983,4282;0,0122162
1984,3925;0,012419
1985,3567;0,0126262
1986,3209;0,0127586
1987,2852;0,0127776
1988,2494;0,0127123
1989,2136;0,012642
1990,1779;0,0126457
1991,1421;0,012748
1992,1063;0,0128971
1993,0706;0,0129951
1994,0348;0,0129602
1994,9990;0,0127773
1995,9633;0,0125041
1996,9275;0,0122428
1997,8917;0,0120954
1998,8560;0,0121216
1999,8202;0,012316
2000,7844;0,0126151
2001,7487;0,0129279
2002,7129;0,0131714
2003,6771;0,0132917
2004,6414;0,0132686
2005,6056;0,0131122
2006,5698;0,0128591
2007,5341;0,0125694
2008,4983;0,0123177
2009,4625;0,0121713
2010,4268;0,0121628
2011,3910;0,0122722
2012,3552;0,0124333
2013,3195;0,0125682
2014,2837;0,0126319
2015,2479;0,012644
2016,2122;0,0126799
2017,1764;0,0128184
2018,1406;0,0130774
2019,1049;0,0133852
2020,0691;0,0136119
2021,0333;0,0136382
2021,9976;0,0134189
2022,9618;0,0130058
2023,9260;0,0125233
2024,8903;0,0121099
2025,8545;0,0118597
2026,8187;0,0117953
2027,7830;0,0118812
2028,7472;0,0120595
2029,7114;0,012283
2030,6757;0,0125257
2031,6399;0,012773
2032,6041;0,0130079
2033,5684;0,0132065
2034,5326;0,0133475
2035,4968;0,0134236
2036,4611;0,0134444
2037,4253;0,0134286
2038,3895;0,0133934
2039,3538;0,0133529
2040,3180;0,0133231
2041,2822;0,0133285
2042,2465;0,0133995
2043,2107;0,0135592
2044,1749;0,0138067
2045,1392;0,0141076
2046,1034;0,0143985
2047,0676;0,0146083
2048,0320;0,0146886
2048,9961;0,0146368
2049,9604;0,0144937
2050,9246;0,0143205
2051,8889;0,0141721
2052,8530;0,0140804
2053,8174;0,0140518
2054,7815;0,0140724
2055,7458;0,0141178
2056,7100;0,0141644
2057,6743;0,0141975
2058,6384;0,0142151
2059,6028;0,0142269
2060,5669;0,0142496
2061,5313;0,0142989
2062,4954;0,0143807
2063,4597;0,0144863
2064,4238;0,0145938
2065,3882;0,0146784
2066,3523;0,0147248
2067,3167;0,014734
2068,2808;0,0147207
2069,2451;0,0147043
2070,2092;0,0147
2071,1736;0,0147159
2072,1377;0,0147532
2073,1021;0,0148084
2074,0662;0,0148719
2075,0305;0,0149282
2075,9946;0,01496
2076,9590;0,0149579
2077,9231;0,0149283
2078,8875;0,0148942
2079,8516;0,0148826
2080,8159;0,0149085
2081,7800;0,0149647
2082,7444;0,0150255
2083,7085;0,0150634
2084,6729;0,0150648
2085,6370;0,0150352
2086,6013;0,0149907
2087,5654;0,0149434
2088,5298;0,014893
2089,4939;0,0148313
2090,4583;0,0147555
2091,4224;0,0146792
2092,3867;0,0146308
2093,3508;0,0146396
2094,3152;0,0147185
2095,2793;0,0148544
2096,2437;0,015015
2097,2078;0,0151652
2098,1721;0,0152811
2099,1362;0,0153525
2100,1006;0,0153741
2101,0647;0,0153421
2102,0291;0,0152531
2102,9932;0,0151165
2103,9575;0,0149614
2104,9216;0,0148308
2105,8860;0,014766
2106,8501;0,0147904
2107,8145;0,0149026
2108,7786;0,015082
2109,7429;0,0152991
2110,7070;0,0155195
2111,6714;0,0157029
2112,6355;0,0158033
2113,5999;0,0157805
2114,5640;0,0156213
2115,5283;0,0153575
2116,4924;0,0150638
2117,4568;0,014832
2118,4209;0,0147322
2119,3853;0,0147835
2120,3494;0,0149513
2121,3137;0,0151701
2122,2778;0,015377
2123,2422;0,0155348
2124,2063;0,0156347
2125,1707;0,0156838
2126,1348;0,0156909
2127,0991;0,0156615
2128,0632;0,0156019
2129,0276;0,0155228
2129,9917;0,015438
2130,9561;0,0153573
2131,9202;0,0152828
2132,8845;0,0152114
2133,8486;0,0151443
2134,8130;0,0150932
2135,7771;0,0150763
2136,7415;0,0151059
2137,7056;0,0151778
2138,6699;0,015271
2139,6340;0,0153579
2140,5984;0,0154142
2141,5625;0,0154234
2142,5269;0,0153751
2143,4910;0,0152656
2144,4553;0,0151037
2145,4194;0,0149176
2146,3838;0,014753
2147,3479;0,0146559
2148,3123;0,0146487
2149,2764;0,014716
2150,2407;0,0148122
2151,2048;0,0148871
2152,1692;0,0149097
2153,1333;0,0148772
2154,0977;0,014805
2155,0618;0,0147146
2156,0261;0,0146323
2156,9902;0,0145982
2157,9546;0,014665
2158,9187;0,0148662
2159,8831;0,0151714
2160,8472;0,0154813
2161,8115;0,0156771
2162,7756;0,0156867
2163,7400;0,0155182
2164,7041;0,0152483
2165,6685;0,0149779
2166,6326;0,0147814
2167,5969;0,0146808
2168,5610;0,0146559
2169,5254;0,0146733
2170,4895;0,0147102
2171,4539;0,014756
2172,4180;0,0148024
2173,3823;0,0148354
2174,3464;0,0148428
2175,3108;0,0148282
2176,2749;0,0148155
2177,2393;0,0148347
2178,2034;0,0148974
2179,1677;0,0149838
2180,1318;0,0150529
2181,0962;0,0150709
2182,0603;0,0150369
2183,0247;0,0149843
2183,9888;0,0149571
2184,9531;0,01498
2185,9172;0,0150478
2186,8816;0,0151384
2187,8457;0,0152355
2188,8101;0,0153388
2189,7742;0,0154531
2190,7385;0,0155663
2191,7026;0,0156374
2192,6670;0,0156083
2193,6311;0,0154382
2194,5955;0,0151378
2195,5596;0,0147806
2196,5239;0,0144801
2197,4880;0,014343
2198,4524;0,0144217
2199,4165;0,0146935
2200,3809;0,0150716
2201,3450;0,015442
2202,3093;0,0157051
2203,2734;0,0158034
2204,2378;0,0157294
2205,2019;0,0155176
2206,1663;0,0152293
2207,1304;0,0149364
2208,0947;0,0147059
2209,0588;0,0145852
2210,0232;0,014591
2210,9873;0,0147073
2211,9517;0,0148942
2212,9158;0,015105
2213,8801;0,0153036
2214,8442;0,0154722
2215,8086;0,0156092
2216,7727;0,0157211
2217,7371;0,0158128
2218,7012;0,0158823
2219,6655;0,0159189
2220,6296;0,0159059
2221,5940;0,0158269
2222,5581;0,0156779
2223,5225;0,0154787
2224,4866;0,0152758
2225,4509;0,0151301
2226,4150;0,0150917
2227,3794;0,0151747
2228,3435;0,0153463
2229,3079;0,015541
2230,2720;0,0156907
2231,2363;0,0157543
2232,2004;0,0157314
2233,1648;0,0156529
2234,1289;0,0155598
2235,0933;0,0154828
2236,0574;0,015433
2237,0217;0,0154051
2237,9858;0,0153884
2238,9502;0,0153755
2239,9143;0,0153669
2240,8787;0,0153689
2241,8428;0,0153882
2242,8071;0,015426
2243,7712;0,0154751
2244,7356;0,0155206
2245,6997;0,0155457
2246,6641;0,0155378
2247,6282;0,0154951
2248,5925;0,0154283
2249,5566;0,0153588
2250,5210;0,015312
2251,4851;0,0153083
2252,4495;0,0153543
2253,4136;0,0154382
2254,3779;0,015533
2255,3420;0,0156071
2256,3064;0,0156377
2257,2705;0,0156201
2258,2349;0,0155668
2259,1990;0,0154997
2260,1633;0,0154394
2261,1274;0,0153984
2262,0918;0,0153806
2263,0559;0,0153826
2264,0203;0,0153974
2264,9844;0,015415
2265,9487;0,0154254
2266,9128;0,0154225
2267,8772;0,0154066
2268,8413;0,0153851
2269,8057;0,0153669
2270,7698;0,0153569
2271,7341;0,0153538
2272,6982;0,0153537
2273,6626;0,0153557
2274,6267;0,0153641
2275,5911;0,0153851
2276,5552;0,0154201
2277,5195;0,0154641
2278,4836;0,0155105
2279,4480;0,0155581
2280,4121;0,0156138
2281,3765;0,0156864
2282,3406;0,0157763
2283,3049;0,015871
2284,2690;0,0159492
2285,2334;0,0159938
2286,1975;0,0160025
2287,1619;0,015989
2288,1260;0,0159739
2289,0903;0,0159725
2290,0544;0,0159884
2291,0188;0,0160161
2291,9829;0,0160497
2292,9473;0,0160891
2293,9114;0,0161393
2294,8757;0,0162043
2295,8398;0,0162823
2296,8042;0,0163658
2297,7683;0,0164484
2298,7327;0,0165298
2299,6968;0,0166163
2300,6611;0,0167149
2301,6252;0,016825
2302,5896;0,0169363
2303,5537;0,017033
2304,5181;0,0171037
2305,4822;0,0171486
2306,4465;0,0171811
2307,4106;0,017221
2308,3750;0,0172844
2309,3391;0,0173748
2310,3035;0,017481
2311,2676;0,0175828
2312,2319;0,0176608
2313,1960;0,0177049
2314,1604;0,0177189
2315,1245;0,017718
2316,0889;0,0177235
2317,0530;0,0177557
2318,0173;0,0178263
2318,9814;0,0179316
2319,9458;0,0180494
2320,9099;0,0181429
2321,8743;0,0181749
2322,8384;0,0181278
2323,8027;0,0180137
2324,7668;0,0178693
2325,7312;0,0177373
2326,6953;0,0176468
2327,6597;0,0176008
2328,6238;0,0175751
2329,5881;0,0175304
2330,5522;0,0174356
2331,5166;0,0172881
2332,4807;0,0171163
2333,4451;0,0169605
2334,4092;0,0168465
2335,3735;0,0167708
2336,3376;0,0167066
2337,3020;0,0166239
2338,2661;0,0165108
2339,2305;0,0163787
2340,1946;0,0162506
2341,1589;0,0161461
2342,1230;0,0160807
2343,0874;0,0160707
2344,0515;0,0161228
2345,0159;0,0162204
2345,9800;0,0163405
2346,9443;0,0164813
2347,9084;0,0166583
2348,8728;0,0168778
2349,8369;0,017118
2350,8013;0,0173303
2351,7654;0,0174642
2352,7297;0,0175065
2353,6938;0,0174994
2354,6582;0,0174986
2355,6223;0,0174997
2356,5867;0,017429
2357,5508;0,0172139
2358,5151;0,0168577
2359,4792;0,0164483
2360,4436;0,0160994
2361,4077;0,0158837
2362,3721;0,0158114
2363,3362;0,0158531
2364,3005;0,0159706
2365,2646;0,0161323
2366,2290;0,0163161
2367,1931;0,0165065
2368,1575;0,0166908
2369,1216;0,0168564
2370,0859;0,0169913
2371,0500;0,0170874
2372,0144;0,0171441
2372,9785;0,017168
2373,9429;0,017168
2374,9070;0,0171489
2375,8713;0,0171084
2376,8354;0,0170408
2377,7998;0,0169436
2378,7639;0,0168245
2379,7283;0,0167009
2380,6924;0,0165943
2381,6567;0,0165206
2382,6208;0,0164838
2383,5852;0,0164751
2384,5493;0,0164791
2385,5137;0,016481
2386,4778;0,0164739
2387,4421;0,0164599
2388,4063;0,0164462
2389,3706;0,0164395
2390,3347;0,0164405
2391,2991;0,0164445
2392,2632;0,0164442
2393,2275;0,0164357
2394,1917;0,0164211
2395,1560;0,0164071
2396,1201;0,0164007
2397,0845;0,0164043
2398,0486;0,0164144
2399,0129;0,0164253
2399,9771;0,0164345
2400,9414;0,016446
2401,9055;0,0164689
2402,8699;0,0165113
2403,8340;0,0165735
2404,7983;0,0166445
2405,7625;0,0167059
2406,7268;0,0167413
2407,6909;0,016745
2408,6553;0,016725
2409,6194;0,0166987
2410,5837;0,0166827
2411,5479;0,0166845
2412,5122;0,0166997
2413,4763;0,0167178
2414,4407;0,0167298
2415,4048;0,016735
2416,3691;0,0167404
2417,3333;0,0167546
2418,2976;0,0167797
2419,2617;0,0168085
2420,2261;0,0168278
2421,1902;0,0168284
2422,1545;0,0168126
2423,1187;0,0167956
2424,0830;0,0167973
2425,0471;0,0168305
2426,0115;0,0168919
2426,9756;0,0169622
2427,9399;0,0170156
2428,9041;0,0170331
2429,8684;0,0170122
2430,8325;0,0169677
2431,7969;0,0169238
2432,7610;0,0169035
2433,7253;0,0169185
2434,6895;0,0169662
2435,6538;0,0170315
2436,6179;0,0170943
2437,5823;0,0171374
2438,5464;0,0171539
2439,5107;0,0171495
2440,4749;0,0171394
2441,4392;0,0171402
2442,4033;0,0171613
2443,3677;0,017201
2444,3318;0,0172489
2445,2961;0,017293
2446,2603;0,0173265
2447,2246;0,01735
2448,1887;0,0173683
2449,1531;0,0173855
2450,1172;0,0174017
2451,0815;0,0174144
2452,0457;0,0174217
2453,0100;0,0174239
2453,9741;0,0174235
2454,9385;0,017423
2455,9026;0,0174241
2456,8669;0,017428
2457,8311;0,0174377
2458,7954;0,017457
2459,7595;0,0174876
2460,7239;0,0175263
2461,6880;0,0175635
2462,6523;0,0175877
2463,6165;0,0175907
2464,5808;0,0175729
2465,5449;0,0175423
2466,5093;0,0175109
2467,4734;0,017488
2468,4377;0,0174778
2469,4019;0,0174803
2470,3662;0,0174942
2471,3303;0,0175189
2472,2947;0,0175537
2473,2588;0,0175943
2474,2231;0,0176325
2475,1873;0,0176584
2476,1516;0,0176668
2477,1157;0,0176618
2478,0801;0,0176556
2479,0442;0,0176626
2480,0085;0,0176897
2480,9727;0,0177322
2481,9370;0,0177759
2482,9011;0,0178064
2483,8655;0,0178179
2484,8296;0,0178163
2485,7939;0,0178148
2486,7581;0,0178248
2487,7224;0,0178484
2488,6865;0,0178783
2489,6509;0,0179025
2490,6150;0,0179125
2491,5793;0,017908
2492,5435;0,0178964
2493,5078;0,0178886
2494,4719;0,0178944
2495,4363;0,0179185
2496,4004;0,0179596
2497,3647;0,0180105
2498,3289;0,0180601
2499,2932;0,0180957
2500,2573;0,0181079
2501,2217;0,0180946
2502,1858;0,0180622
2503,1501;0,0180237
2504,1143;0,0179927
2505,0786;0,0179785
2506,0427;0,0179825
2507,0071;0,0179997
2507,9712;0,0180224
2508,9355;0,0180438
2509,8997;0,0180596
2510,8640;0,0180682
2511,8281;0,0180704
2512,7925;0,0180685
2513,7566;0,018066
2514,7209;0,0180661
2515,6851;0,0180696
2516,6494;0,0180753
2517,6135;0,0180814
2518,5779;0,0180882
2519,5420;0,0180988
2520,5063;0,0181174
2521,4705;0,0181453
2522,4348;0,0181775
2523,3989;0,0182049
2524,3633;0,0182186
2525,3274;0,0182157
2526,2917;0,0182009
2527,2559;0,0181833
2528,2202;0,0181719
2529,1843;0,0181718
2530,1487;0,0181835
2531,1128;0,0182046
2532,0771;0,0182312
2533,0413;0,0182585
2534,0056;0,0182805
2534,9697;0,0182917
2535,9341;0,0182891
2536,8982;0,0182746
2537,8625;0,0182552
2538,8267;0,0182397
2539,7910;0,018236
2540,7551;0,0182485
2541,7195;0,0182773
2542,6836;0,0183192
2543,6479;0,018368
2544,6121;0,0184153
2545,5764;0,0184513
2546,5405;0,0184683
2547,5049;0,0184632
2548,4690;0,01844
2549,4333;0,0184075
2550,3975;0,0183762
2551,3618;0,0183533
2552,3259;0,0183412
2553,2903;0,0183376
2554,2544;0,0183391
2555,2188;0,0183437
2556,1829;0,0183521
2557,1472;0,0183667
2558,1113;0,0183897
2559,0757;0,0184206
2560,0398;0,0184555
2561,0042;0,0184869
2561,9683;0,0185064
2562,9326;0,0185082
2563,8967;0,0184921
2564,8611;0,0184651
2565,8252;0,0184385
2566,7896;0,0184238
2567,7537;0,0184279
2568,7180;0,0184505
2569,6821;0,0184846
2570,6465;0,0185199
2571,6106;0,0185477
2572,5750;0,0185638
2573,5391;0,0185696
2574,5034;0,01857
2575,4675;0,0185699
2576,4319;0,0185714
2577,3960;0,0185734
2578,3604;0,0185727
2579,3245;0,0185685
2580,2888;0,0185645
2581,2529;0,018569
2582,2173;0,0185902
2583,1814;0,0186307
2584,1458;0,0186838
2585,1099;0,0187356
2586,0742;0,0187711
2587,0383;0,0187819
2588,0027;0,0187695
2588,9668;0,0187449
2589,9312;0,0187216
2590,8953;0,0187101
2591,8596;0,018714
2592,8237;0,0187306
2593,7881;0,0187538
2594,7522;0,0187772
2595,7166;0,0187965
2596,6807;0,0188103
2597,6450;0,0188211
2598,6091;0,0188335
2599,5735;0,0188528
2600,5376;0,0188818
2601,5020;0,018919
2602,4661;0,0189591
2603,4304;0,0189961
2604,3945;0,0190266
2605,3589;0,0190512
2606,3230;0,0190729
2607,2874;0,0190931
2608,2515;0,0191101
2609,2158;0,0191195
2610,1799;0,0191192
2611,1443;0,0191121
2612,1084;0,0191064
2613,0728;0,0191119
2614,0369;0,0191341
2615,0012;0,0191715
2615,9653;0,0192162
2616,9297;0,0192584
2617,8938;0,0192913
2618,8582;0,0193134
2619,8223;0,0193276
2620,7866;0,0193388
2621,7507;0,0193504
2622,7151;0,019364
2623,6792;0,0193798
2624,6436;0,0193975
2625,6077;0,0194171
2626,5720;0,0194379
2627,5361;0,0194585
2628,5005;0,019477
2629,4646;0,0194927
2630,4290;0,0195073
2631,3931;0,019525
2632,3574;0,0195509
2633,3215;0,0195876
2634,2859;0,0196334
2635,2500;0,0196817
2636,2144;0,0197238
2637,1785;0,0197536
2638,1428;0,0197702
2639,1069;0,0197787
2640,0713;0,0197874
2641,0354;0,0198029
2641,9998;0,0198273
2642,9639;0,0198578
2643,9282;0,0198891
2644,8923;0,0199178
2645,8567;0,0199438
2646,8208;0,0199702
2647,7852;0,0199996
2648,7493;0,0200319
2649,7136;0,0200632
2650,6777;0,0200885
2651,6421;0,0201057
2652,6062;0,0201175
2653,5706;0,0201309
2654,5347;0,0201527
2655,4990;0,0201857
2656,4631;0,0202263
2657,4275;0,020267
2658,3916;0,0203001
2659,3560;0,0203227
2660,3201;0,0203373
2661,2844;0,0203501
2662,2485;0,0203667
2663,2129;0,0203897
2664,1770;0,0204174
2665,1414;0,0204462
2666,1055;0,0204725
2667,0698;0,0204946
2668,0339;0,0205128
2668,9983;0,0205278
2669,9624;0,0205403
2670,9268;0,0205509
2671,8909;0,0205607
2672,8552;0,0205716
2673,8193;0,020586
2674,7837;0,0206057
2675,7478;0,020631
2676,7122;0,0206609
2677,6763;0,0206934
2678,6406;0,0207274
2679,6047;0,0207623
2680,5691;0,020798
2681,5332;0,0208338
2682,4976;0,0208683
2683,4617;0,0208996
2684,4260;0,0209263
2685,3901;0,0209487
2686,3545;0,0209683
2687,3186;0,0209875
2688,2830;0,0210086
2689,2471;0,0210337
2690,2114;0,0210643
2691,1755;0,0211009
2692,1399;0,0211427
2693,1040;0,021187
2694,0684;0,0212294
2695,0325;0,0212661
2695,9968;0,0212952
2696,9609;0,0213178
2697,9253;0,0213371
2698,8894;0,0213562
2699,8538;0,0213768
2700,8179;0,0213987
2701,7822;0,021422
2702,7463;0,0214478
2703,7107;0,0214781
2704,6748;0,0215141
2705,6392;0,0215546
2706,6033;0,0215955
2707,5676;0,021632
2708,5317;0,0216615
2709,4961;0,0216852
2710,4602;0,0217067
2711,4246;0,0217305
2712,3887;0,0217591
2713,3530;0,0217925
2714,3171;0,0218294
2715,2815;0,0218681
2716,2456;0,0219068
2717,2100;0,0219434
2718,1741;0,0219752
2719,1384;0,0219996
2720,1025;0,0220157
2721,0669;0,0220252
2722,0310;0,0220323
2722,9954;0,0220423
2723,9595;0,0220596
2724,9238;0,0220867
2725,8879;0,0221232
2726,8523;0,0221671
2727,8164;0,0222147
2728,7808;0,0222613
2729,7449;0,0223023
2730,7092;0,0223341
2731,6733;0,0223548
2732,6377;0,0223657
2733,6018;0,02237
2734,5662;0,0223723
2735,5303;0,0223769
2736,4946;0,0223869
2737,4587;0,022404
2738,4231;0,0224289
2739,3872;0,0224619
2740,3516;0,022502
2741,3157;0,0225466
2742,2800;0,0225913
2743,2441;0,0226304
2744,2085;0,0226595
2745,1726;0,0226767
2746,1370;0,0226843
2747,1011;0,022687
2748,0654;0,0226904
2749,0295;0,0226984
2749,9939;0,0227125
2750,9580;0,0227323
2751,9224;0,0227572
2752,8865;0,0227868
2753,8508;0,0228209
2754,8149;0,0228585
2755,7793;0,0228971
2756,7434;0,0229338
2757,7078;0,0229667
2758,6719;0,0229961
2759,6362;0,023024
2760,6003;0,023052
2761,5647;0,0230804
2762,5288;0,023107
2763,4932;0,0231292
2764,4573;0,0231462
2765,4216;0,0231609
2766,3857;0,0231791
2767,3501;0,0232078
2768,3142;0,0232508
2769,2786;0,0233074
2770,2427;0,0233711
2771,2070;0,0234331
2772,1711;0,0234855
2773,1355;0,0235255
2774,0996;0,0235563
2775,0640;0,0235861
2776,0281;0,0236231
2776,9924;0,0236718
2777,9565;0,0237303
2778,9209;0,0237914
2779,8850;0,0238469
2780,8494;0,0238911
2781,8135;0,0239243
2782,7778;0,0239518
2783,7419;0,0239812
2784,7063;0,0240183
2785,6704;0,0240648
2786,6348;0,0241174
2787,5989;0,0241706
2788,5632;0,0242202
2789,5273;0,024266
2790,4917;0,0243129
2791,4558;0,0243686
2792,4202;0,0244393
2793,3843;0,0245257
2794,3486;0,0246215
2795,3127;0,0247161
2796,2771;0,0247991
2797,2412;0,0248665
2798,2056;0,0249224
2799,1697;0,0249768
2800,1340;0,025041
2801,0981;0,0251218
2802,0625;0,0252189
2803,0266;0,0253263
2803,9910;0,0254358
2804,9551;0,0255406
2805,9194;0,0256372
2806,8835;0,0257254
2807,8479;0,0258074
2808,8120;0,0258869
2809,7764;0,0259684
2810,7405;0,0260564
2811,7048;0,0261538
2812,6689;0,0262614
2813,6333;0,0263775
2814,5974;0,0264994
2815,5618;0,0266254
2816,5259;0,0267557
2817,4902;0,0268917
2818,4543;0,0270342
2819,4187;0,0271815
2820,3828;0,0273299
2821,3472;0,0274756
2822,3113;0,0276173
2823,2756;0,0277575
2824,2397;0,0279018
2825,2041;0,0280567
2826,1682;0,0282271
2827,1326;0,0284157
2828,0967;0,0286223
2829,0610;0,0288446
2830,0251;0,0290792
2830,9895;0,0293224
2831,9536;0,0295715
2832,9180;0,0298254
2833,8821;0,0300854
2834,8464;0,030354
2835,8105;0,0306334
2836,7749;0,0309246
2837,7390;0,0312272
2838,7034;0,0315416
2839,6675;0,0318711
2840,6318;0,0322228
2841,5959;0,0326068
2842,5603;0,0330313
2843,5244;0,0334987
2844,4888;0,0340007
2845,4529;0,0345187
2846,4172;0,0350255
2847,3813;0,0354905
2848,3457;0,0358862
2849,3098;0,0361936
2850,2742;0,0364054
2851,2383;0,0365274
2852,2026;0,0365758
2853,1667;0,0365719
2854,1311;0,0365369
2855,0952;0,0364866
2856,0596;0,0364306
2857,0237;0,0363744
2857,9880;0,0363234
2858,9521;0,0362865
2859,9165;0,0362749
2860,8806;0,0362982
2861,8450;0,0363598
2862,8091;0,0364551
2863,7734;0,0365746
2864,7375;0,0367087
2865,7019;0,0368517
2866,6660;0,0370011
2867,6304;0,037154
2868,5945;0,0373035
2869,5588;0,0374394
2870,5229;0,0375528
2871,4873;0,0376417
2872,4514;0,0377131
2873,4158;0,0377791
2874,3799;0,0378499
2875,3442;0,0379283
2876,3083;0,0380097
2877,2727;0,0380869
2878,2368;0,0381566
2879,2012;0,038221
2880,1653;0,0382865
2881,1296;0,0383577
2882,0938;0,0384349
2883,0581;0,0385142
2884,0222;0,038592
2884,9866;0,0386682
2885,9507;0,0387471
2886,9150;0,0388342
2887,8792;0,0389325
2888,8435;0,0390407
2889,8076;0,0391537
2890,7720;0,0392657
2891,7361;0,0393723
2892,7004;0,0394722
2893,6646;0,0395656
2894,6289;0,0396539
2895,5930;0,039739
2896,5574;0,0398231
2897,5215;0,0399084
2898,4858;0,0399959
2899,4500;0,0400852
2900,4143;0,0401746
2901,3784;0,0402628
2902,3428;0,0403512
2903,3069;0,0404439
2904,2712;0,0405461
2905,2354;0,0406617
2906,1997;0,0407915
2907,1638;0,0409349
2908,1282;0,0410934
2909,0923;0,0412733
2910,0566;0,0414844
2911,0208;0,0417351
2911,9851;0,0420244
2912,9492;0,0423376
2913,9136;0,0426484
2914,8777;0,0429259
2915,8420;0,0431458
2916,8062;0,0432967
2917,7705;0,0433815
2918,7346;0,043411
2919,6990;0,0433958
2920,6631;0,0433409
2921,6274;0,0432456
2922,5916;0,0431081
2923,5559;0,0429307
2924,5200;0,0427209
2925,4844;0,0424898
2926,4485;0,0422461
2927,4128;0,0419939
2928,3770;0,0417329
2929,3413;0,0414626
2930,3054;0,0411859
2931,2698;0,040909
2932,2339;0,0406383
2933,1982;0,0403754
2934,1624;0,0401153
2935,1267;0,0398492
2936,0908;0,0395692
2937,0552;0,0392733
2938,0193;0,0389663
2938,9836;0,0386563
2939,9478;0,0383501
2940,9121;0,0380497
2941,8762;0,0377529
2942,8406;0,0374571
2943,8047;0,0371629
2944,7690;0,0368756
2945,7332;0,0366031
2946,6975;0,0363516
2947,6616;0,0361217
2948,6260;0,0359079
2949,5901;0,0357022
2950,5544;0,0354987
2951,5186;0,0352968
2952,4829;0,0351012
2953,4470;0,034918
2954,4114;0,0347493
2955,3755;0,0345912
2956,3398;0,0344339
2957,3040;0,0342668
2958,2683;0,0340829
2959,2324;0,0338816
2960,1968;0,0336685
2961,1609;0,0334513
2962,1252;0,0332371
2963,0894;0,0330286
2964,0537;0,0328242
2965,0178;0,0326197
2965,9822;0,0324109
2966,9463;0,0321961
2967,9106;0,0319763
2968,8748;0,0317543
2969,8391;0,0315327
2970,8032;0,0313125
2971,7676;0,0310936
2972,7317;0,0308766
2973,6960;0,0306643
2974,6602;0,0304618
2975,6245;0,0302738
2976,5886;0,0301021
2977,5530;0,0299441
2978,5171;0,0297946
2979,4814;0,0296494
2980,4456;0,0295081
2981,4099;0,0293743
2982,3740;0,0292535
2983,3384;0,0291486
2984,3025;0,029058
2985,2668;0,0289759
2986,2310;0,0288953
2987,1953;0,0288116
2988,1594;0,0287253
2989,1238;0,0286417
2990,0879;0,0285682
2991,0522;0,0285118
2992,0164;0,0284755
2992,9807;0,0284578
2993,9448;0,0284536
2994,9092;0,0284569
2995,8733;0,0284638
2996,8376;0,0284735
2997,8018;0,0284878
2998,7661;0,028509
2999,7302;0,0285373
3000,6946;0,0285705
3001,6587;0,0286051
3002,6230;0,0286385
3003,5872;0,0286707
3004,5515;0,0287031
3005,5156;0,0287361
3006,4800;0,0287676
3007,4441;0,0287932
3008,4084;0,0288094
3009,3726;0,0288163
3010,3369;0,0288196
3011,3010;0,0288279
3012,2654;0,0288479
3013,2295;0,0288804
3014,1938;0,0289199
3015,1580;0,0289587
3016,1223;0,0289925
3017,0864;0,0290231
3018,0508;0,0290571
3019,0149;0,0291009
3019,9792;0,0291564
3020,9434;0,0292195
3021,9077;0,0292832
3022,8718;0,0293422
3023,8362;0,0293959
3024,8003;0,0294484
3025,7646;0,0295043
3026,7288;0,0295657
3027,6931;0,029631
3028,6572;0,0296968
3029,6216;0,0297614
3030,5857;0,029827
3031,5500;0,0298988
3032,5142;0,0299812
3033,4785;0,0300749
3034,4426;0,0301754
3035,4070;0,0302761
3036,3711;0,0303715
3037,3354;0,0304608
3038,2996;0,0305474
3039,2639;0,0306366
3040,2280;0,0307312
3041,1924;0,0308304
3042,1565;0,0309302
3043,1208;0,0310269
3044,0850;0,0311198
3045,0493;0,0312119
3046,0134;0,0313081
3046,9778;0,0314118
3047,9419;0,0315231
3048,9063;0,0316391
3049,8704;0,0317549
3050,8347;0,0318661
3051,7988;0,0319703
3052,7632;0,0320678
3053,7273;0,0321621
3054,6917;0,0322599
3055,6558;0,0323686
3056,6201;0,0324938
3057,5842;0,0326357
3058,5486;0,0327878
3059,5127;0,0329398
3060,4771;0,0330815
3061,4412;0,0332076
3062,4055;0,0333194
3063,3696;0,0334231
3064,3340;0,0335265
3065,2981;0,0336349
3066,2625;0,0337498
3067,2266;0,0338695
3068,1909;0,0339918
3069,1550;0,0341154
3070,1194;0,0342412
3071,0835;0,0343708
3072,0479;0,0345049
3073,0120;0,034642
3073,9763;0,0347778
3074,9404;0,0349074
3075,9048;0,0350271
3076,8689;0,0351373
3077,8333;0,0352423
3078,7974;0,0353485
3079,7617;0,0354607
3080,7258;0,0355794
3081,6902;0,0357008
3082,6543;0,0358195
3083,6187;0,0359316
3084,5828;0,0360375
3085,5471;0,0361413
3086,5112;0,0362487
3087,4756;0,0363643
3088,4397;0,036489
3089,4041;0,0366198
3090,3682;0,0367512
3091,3325;0,0368779
3092,2966;0,0369979
3093,2610;0,0371138
3094,2251;0,0372323
3095,1895;0,0373604
3096,1536;0,0375005
3097,1179;0,0376474
3098,0820;0,0377911
3099,0464;0,0379225
3100,0105;0,038041
3100,9749;0,0381562
3101,9390;0,0382831
3102,9033;0,0384321
3103,8674;0,0386017
3104,8318;0,0387786
3105,7959;0,0389459
3106,7603;0,0390941
3107,7244;0,0392259
3108,6887;0,0393538
3109,6528;0,0394906
3110,6172;0,0396401
3111,5813;0,0397963
3112,5457;0,0399485
3113,5098;0,0400902
3114,4741;0,0402223
3115,4382;0,0403517
3116,4026;0,0404842
3117,3667;0,0406207
3118,3311;0,0407577
3119,2952;0,0408919
3120,2595;0,0410243
3121,2236;0,0411602
3122,1880;0,0413057
3123,1521;0,0414638
3124,1165;0,0416333
3125,0806;0,0418118
3126,0449;0,0419968
3127,0090;0,0421864
3127,9734;0,0423764
3128,9375;0,042559
3129,9019;0,0427242
3130,8660;0,0428649
3131,8303;0,0429828
3132,7944;0,0430897
3133,7588;0,0432033
3134,7229;0,0433391
3135,6873;0,0435035
3136,6514;0,0436913
3137,6157;0,0438896
3138,5798;0,0440847
3139,5442;0,0442676
3140,5083;0,0444369
3141,4727;0,0445975
3142,4368;0,044756
3143,4011;0,0449162
3144,3652;0,0450777
3145,3296;0,0452369
3146,2937;0,0453909
3147,2581;0,045541
3148,2222;0,045693
3149,1865;0,0458543
3150,1506;0,0460285
3151,1150;0,0462126
3152,0791;0,0463982
3153,0435;0,0465768
3154,0076;0,0467455
3154,9719;0,0469087
3155,9360;0,047075
3156,9004;0,0472512
3157,8645;0,047438
3158,8289;0,0476297
3159,7930;0,0478184
3160,7573;0,0479995
3161,7214;0,0481731
3162,6858;0,0483432
3163,6499;0,0485136
3164,6143;0,0486856
3165,5784;0,0488579
3166,5427;0,0490285
3167,5068;0,0491974
3168,4712;0,0493673
3169,4353;0,0495638
3170,3997;0,0497473
3171,3638;0,0499399
3172,3281;0,0501386
3173,2922;0,0503373
3174,2566;0,0505289
3175,2207;0,0507081
3176,1851;0,0508746
3177,1492;0,0510335
3178,1135;0,051193
3179,0776;0,0513602
3180,0420;0,051537
3181,0061;0,0517194
3181,9705;0,0519007
3182,9346;0,052076
3183,8989;0,0522449
3184,8630;0,0524113
3185,8274;0,0525809
3186,7915;0,0527572
3187,7559;0,0529401
3188,7200;0,0531263
3189,6843;0,0533109
3190,6484;0,0534888
3191,6128;0,0536557
3192,5769;0,0538092
3193,5413;0,053951
3194,5054;0,0540871
3195,4697;0,0542275
3196,4338;0,0543819
3197,3982;0,0545549
3198,3623;0,0547426
3199,3267;0,0549348
3200,2908;0,0551196
3201,2551;0,0552897
3202,2192;0,0554449
3203,1836;0,0555904
3204,1477;0,0557326
3205,1121;0,0558757
3206,0762;0,0560209
3207,0405;0,0561673
3208,0046;0,0563145
3208,9690;0,0564631
3209,9331;0,0566147
3210,8975;0,0567707
3211,8616;0,0569316
3212,8259;0,0570971
3213,7900;0,0572655
3214,7544;0,0574344
3215,7185;0,0576007
3216,6829;0,0577624
3217,6470;0,05792
3218,6113;0,0580763
3219,5754;0,0582353
3220,5398;0,0583988
3221,5039;0,0585649
3222,4683;0,0587288
3223,4324;0,058886
3224,3967;0,0590354
3225,3608;0,0591803
3226,3252;0,0593254
3227,2893;0,0594733
3228,2537;0,0596227
3229,2178;0,0597697
3230,1821;0,059912
3231,1462;0,0600505
3232,1106;0,0601885
3233,0747;0,0603287
3234,0391;0,0604702
3235,0032;0,0606103
3235,9675;0,060748
3236,9316;0,0608868
3237,8960;0,0610333
3238,8601;0,0611923
3239,8245;0,0613621
3240,7886;0,061534
3241,7529;0,0616974
3242,7170;0,061846
3243,6814;0,0619813
3244,6455;0,0621103
3245,6099;0,0622406
3246,5740;0,0623761
3247,5383;0,0625178
3248,5024;0,0626664
3249,4668;0,0628249
3250,4309;0,0629958
3251,3953;0,0631778
3252,3594;0,0633629
3253,3237;0,0635396
3254,2878;0,063699
3255,2522;0,0638409
3256,2163;0,0639737
3257,1807;0,0641095
3258,1448;0,0642557
3259,1091;0,0644122
3260,0732;0,0645724
3261,0376;0,064729
3262,0017;0,0648791
3262,9661;0,0650252
3263,9302;0,0651738
3264,8945;0,0653305
3265,8586;0,0654975
3266,8230;0,0656718
3267,7871;0,0658452
3268,7515;0,0660058
3269,7156;0,0661415
3270,6799;0,0662441
3271,6440;0,0663135
3272,6084;0,0663594
3273,5725;0,0663987
3274,5369;0,0664489
3275,5010;0,0665198
3276,4653;0,0666098
3277,4294;0,0667075
3278,3938;0,0667985
3279,3579;0,0668727
3280,3223;0,0669279
3281,2864;0,0669691
3282,2507;0,0670042
3283,2148;0,0670387
3284,1792;0,0670742
3285,1433;0,0671093
3286,1077;0,0671423
3287,0718;0,0671741
3288,0361;0,0672074
3289,0002;0,0672455
3289,9646;0,0672897
3290,9287;0,0673383
3291,8931;0,0673874
3292,8572;0,0674333
3293,8215;0,0674744
3294,7856;0,0675114
3295,7500;0,0675468
3296,7141;0,0675832
3297,6785;0,0676214
3298,6426;0,0676605
3299,6069;0,0676977
3300,5710;0,0677294
3301,5354;0,0677521
3302,4995;0,0677635
3303,4639;0,0677632
3304,4280;0,0677533
3305,3923;0,0677384
3306,3564;0,0677246
3307,3208;0,0677181
3308,2849;0,0677232
3309,2493;0,0677409
3310,2134;0,0677695
3311,1777;0,0678056
3312,1418;0,0678459
3313,1062;0,0678876
3314,0703;0,0679287
3315,0347;0,0679685
3315,9988;0,0680079
3316,9631;0,0680498
3317,9272;0,0680986
3318,8916;0,0681594
3319,8557;0,0682356
3320,8201;0,0683267
3321,7842;0,068429
3322,7485;0,0685359
3323,7126;0,0686406
3324,6770;0,0687378
3325,6411;0,0688244
3326,6055;0,0688992
3327,5696;0,0689631
3328,5339;0,0690178
3329,4980;0,0690644
3330,4624;0,0691034
3331,4265;0,069134
3332,3909;0,0691551
3333,3550;0,0691667
3334,3193;0,0691708
3335,2834;0,0691702
3336,2478;0,0691662
3337,2119;0,0691564
3338,1763;0,0691346
3339,1404;0,0690941
3340,1047;0,0690309
3341,0688;0,0689466
3342,0332;0,0688473
3342,9973;0,0687411
3343,9617;0,0686345
3344,9258;0,0685316
3345,8901;0,0684344
3346,8542;0,0683438
3347,8186;0,0682591
3348,7827;0,068176
3349,7471;0,0680863
3350,7112;0,0679799
3351,6755;0,0678501
3352,6396;0,0676983
3353,6040;0,0675349
3354,5681;0,0673753
3355,5325;0,0672332
3356,4966;0,0671141
3357,4609;0,0670149
3358,4250;0,0669278
3359,3894;0,0668445
3360,3535;0,0667603
3361,3179;0,0666728
3362,2820;0,0665801
3363,2463;0,0664792
3364,2104;0,0663677
3365,1748;0,0662447
3366,1389;0,0661123
3367,1033;0,0659739
3368,0674;0,065832
3369,0317;0,065688
3369,9958;0,0655434
3370,9602;0,0654024
3371,9243;0,0652705
3372,8887;0,0651518
3373,8528;0,0650453
3374,8171;0,0649433
3375,7813;0,0648358
3376,7456;0,064716
3377,7097;0,064584
3378,6741;0,064446
3379,6382;0,0643086
3380,6025;0,0641739
3381,5667;0,0640391
3382,5310;0,0639011
3383,4951;0,0637623
3384,4595;0,0636318
3385,4236;0,0635209
3386,3879;0,0634339
3387,3521;0,0633634
3388,3164;0,0632915
3389,2805;0,0631984
3390,2449;0,0630722
3391,2090;0,0629148
3392,1733;0,0627411
3393,1375;0,0625712
3394,1018;0,0624219
3395,0659;0,0623
3396,0303;0,0622021
3396,9944;0,0621166
3397,9587;0,062028
3398,9229;0,0619215
3399,8872;0,0617871
3400,8513;0,0616228
3401,8157;0,061435
3402,7798;0,0612362
3403,7441;0,061041
3404,7083;0,0608607
3405,6726;0,0607013
3406,6367;0,060562
3407,6011;0,0604365
3408,5652;0,0603141
3409,5295;0,0601828
3410,4937;0,0600331
3411,4580;0,059863
3412,4221;0,0596801
3413,3865;0,0594979
3414,3506;0,059328
3415,3149;0,0591717
3416,2791;0,0590176
3417,2434;0,0588474
3418,2075;0,0586476
3419,1719;0,0584189
3420,1360;0,0581773
3421,1003;0,0579458
3422,0645;0,0577419
3423,0288;0,057569
3423,9929;0,0574175
3424,9573;0,0572714
3425,9214;0,0571152
3426,8857;0,0569386
3427,8499;0,056738
3428,8142;0,0565172
3429,7783;0,0562856
3430,7427;0,0560555
3431,7068;0,0558379
3432,6711;0,0556383
3433,6353;0,0554552
3434,5996;0,0552814
3435,5637;0,0551079
3436,5281;0,0549272
3437,4922;0,0547361
3438,4565;0,0545356
3439,4207;0,0543306
3440,3850;0,0541264
3441,3491;0,053926
3442,3135;0,0537268
3443,2776;0,0535204
3444,2419;0,0532975
3445,2061;0,0530551
3446,1704;0,0528012
3447,1345;0,0525529
3448,0989;0,0523264
3449,0630;0,0521266
3450,0273;0,051944
3450,9915;0,0517619
3451,9558;0,0515658
3452,9199;0,0513511
3453,8843;0,0511238
3454,8484;0,0508956
3455,8127;0,0506763
3456,7769;0,0504687
3457,7412;0,0502688
3458,7053;0,0500687
3459,6697;0,0498607
3460,6338;0,0496404
3461,5981;0,0494072
3462,5623;0,0491653
3463,5266;0,0489211
3464,4907;0,0486814
3465,4551;0,0484506
3466,4192;0,0482302
3467,3835;0,0480189
3468,3477;0,0478139
3469,3120;0,0476109
3470,2761;0,0474042
3471,2405;0,0471875
3472,2046;0,0469574
3473,1689;0,0467177
3474,1331;0,0464799
3475,0974;0,0462583
3476,0615;0,0460603
3477,0259;0,0458796
3477,9900;0,0456978
3478,9543;0,0454951
3479,9185;0,0452627
3480,8828;0,0450093
3481,8469;0,0447562
3482,8113;0,0445218
3483,7754;0,0443104
3484,7397;0,044112
3485,7039;0,0439116
3486,6682;0,0437013
3487,6323;0,0434845
3488,5967;0,0432712
3489,5608;0,0430684
3490,5251;0,0428724
3491,4893;0,0426708
3492,4536;0,042451
3493,4177;0,0422107
3494,3821;0,0419642
3495,3462;0,0417372
3496,3105;0,0415526
3497,2747;0,0414137
3498,2390;0,0412969
3499,2031;0,0411607
3500,1675;0,0409647
3501,1316;0,0406928
3502,0959;0,0403672
3503,0601;0,04004
3504,0244;0,0397604
3504,9885;0,0395444
3505,9529;0,0393706
3506,9170;0,0391997
3507,8813;0,0390011
3508,8455;0,0387705
3509,8098;0,0385291
3510,7739;0,0383059
3511,7383;0,0381155
3512,7024;0,0379507
3513,6667;0,0377919
3514,6309;0,0376226
3515,5952;0,0374391
3516,5593;0,0372506
3517,5237;0,0370692
3518,4878;0,0369002
3519,4521;0,036738
3520,4163;0,0365704
3521,3806;0,0363854
3522,3447;0,0361777
3523,3091;0,0359482
3524,2732;0,0356997
3525,2375;0,0354339
3526,2017;0,0351538
3527,1660;0,0348698
3528,1301;0,0346022
3529,0945;0,0343736
3530,0586;0,0341963
3531,0229;0,0340629
3531,9871;0,0339483
3532,9514;0,0338207
3533,9155;0,033655
3534,8799;0,0334437
3535,8440;0,0332013
3536,8083;0,0329568
3537,7725;0,0327388
3538,7368;0,0325621
3539,7009;0,032422
3540,6653;0,0322977
3541,6294;0,0321585
3542,5938;0,0319744
3543,5579;0,0317307
3544,5222;0,0314412
3545,4863;0,0311457
3546,4507;0,0308856
3547,4148;0,0306766
3548,3792;0,0305005
3549,3433;0,0303211
3550,3076;0,0301055
3551,2717;0,0298448
3552,2361;0,0295621
3553,2002;0,0293008
3554,1646;0,0290961
3555,1287;0,028953
3556,0930;0,0288468
3557,0571;0,0287417
3558,0215;0,0286143
3558,9856;0,0284704
3559,9500;0,0283422
3560,9141;0,028264
3561,8784;0,0282393
3562,8425;0,0282208
3563,8069;0,0281149
3564,7710;0,0278207
3565,7354;0,0273079
3566,6995;0,0266825
3567,6638;0,0261342
3568,6279;0,0257852
3569,5923;0,0256267
3570,5564;0,025577
3571,5208;0,0255512
3572,4849;0,0254919
3573,4492;0,0253771
3574,4133;0,025216
3575,3777;0,0250316
3576,3418;0,0248395
3577,3062;0,0246421
3578,2703;0,0244415
3579,2346;0,024258
3580,1987;0,0241297
3581,1631;0,0240893
3582,1272;0,0241326
3583,0916;0,0242016
3584,0557;0,02419
3585,0200;0,0239816
3585,9841;0,0235299
3586,9485;0,0229355
3587,9126;0,0224056
3588,8770;0,0220899
3589,8411;0,0219874
3590,8054;0,021998
3591,7695;0,0220049
3592,7339;0,0219241
3593,6980;0,0217314
3594,6624;0,0214662
3595,6265;0,0211928
3596,5908;0,0209453
3597,5549;0,0207116
3598,5193;0,0204659
3599,4834;0,020213
3600,4478;0,0199996
3601,4119;0,0198813
3602,3762;0,0198747
3603,3403;0,0199413
3604,3047;0,0200083
3605,2688;0,0200042
3606,2332;0,0198945
3607,1973;0,0197011
3608,1616;0,019483
3609,1257;0,0192854
3610,0901;0,0191079
3611,0542;0,018925
3612,0186;0,0187276
3612,9827;0,0185393
3613,9470;0,0183942
3614,9111;0,0182969
3615,8755;0,0182009
3616,8396;0,0180252
3617,8040;0,0177094
3618,7681;0,0172805
3619,7324;0,0168652
3620,6965;0,01661
3621,6609;0,0165874
3622,6250;0,0167801
3623,5894;0,0171134
3624,5535;0,0174705
3625,5178;0,0176874
3626,4819;0,0175742
3627,4463;0,0170302
3628,4104;0,0162103
3629,3748;0,015469
3630,3389;0,0150374
3631,3032;0,0148899
3632,2673;0,0148907
3633,2317;0,0149243
3634,1958;0,0149284
3635,1602;0,0148886
3636,1243;0,0148202
3637,0886;0,0147458
3638,0527;0,0146788
3639,0171;0,0146256
3639,9812;0,014598
3640,9456;0,0146227
3641,9097;0,0147321
3642,8740;0,0149436
3643,8381;0,0152337
3644,8025;0,0155148
3645,7666;0,0156179
3646,7310;0,015322
3647,6951;0,0145196
3648,6594;0,0134729
3649,6235;0,0126989
3650,5879;0,0124378
3651,5520;0,0125454
3652,5164;0,0127851
3653,4805;0,0129785
3654,4448;0,0130167
3655,4089;0,0128716
3656,3733;0,0126141
3657,3374;0,0123706
3658,3018;0,0122286
3659,2659;0,0121893
3660,2302;0,012204
3661,1943;0,012233
3662,1587;0,0122795
3663,1228;0,0123798
3664,0872;0,0125623
3665,0513;0,0128036
3666,0156;0,0130167
3666,9797;0,0130801
3667,9441;0,0129175
3668,9082;0,0125983
3669,8726;0,0123263
3670,8367;0,0122549
3671,8010;0,0123416
3672,7651;0,0123925
3673,7295;0,0121952
3674,6936;0,011675
3675,6580;0,0110079
3676,6221;0,0104972
3677,5864;0,0102937
3678,5505;0,010338
3679,5149;0,0105061
3680,4790;0,0107146
3681,4434;0,0109399
3682,4075;0,011199
3683,3718;0,0115128
3684,3359;0,0118657
3685,3003;0,0121785
3686,2644;0,0123078
3687,2288;0,0121
3688,1929;0,0115242
3689,1572;0,0107873
3690,1213;0,010214
3691,0857;0,00997109
3692,0498;0,0100083
3693,0142;0,0102002
3693,9783;0,0104498
3694,9426;0,0107076
3695,9067;0,0109516
3696,8711;0,0111626
3697,8352;0,0113055
3698,7996;0,0113309
3699,7637;0,0112027
3700,7280;0,0109426
3701,6921;0,0106496
3702,6565;0,0104552
3703,6206;0,0104445
3704,5850;0,010619
3705,5491;0,0109154
3706,5134;0,0112348
3707,4775;0,0114567
3708,4419;0,0114597
3709,4060;0,0111828
3710,3704;0,0107135
3711,3345;0,0102751
3712,2988;0,0100515
3713,2629;0,0100638
3714,2273;0,0102308
3715,1914;0,0104624
3716,1558;0,0106899
3717,1199;0,0108656
3718,0842;0,0109647
3719,0483;0,0109917
3720,0127;0,010974
3720,9768;0,0109379
3721,9412;0,0108849
3722,9053;0,0107944
3723,8696;0,0106566
3724,8337;0,0105023
3725,7981;0,0103989
3726,7622;0,0104107
3727,7266;0,0105651
3728,6907;0,0108458
3729,6550;0,0112015
3730,6191;0,0115519
3731,5835;0,0117878
3732,5476;0,0117858
3733,5120;0,0114702
3734,4761;0,010912
3735,4404;0,0103464
3736,4045;0,0100156
3737,3689;0,0100164
3738,3330;0,010312
3739,2974;0,010805
3740,2615;0,0113655
3741,2258;0,0118274
3742,1899;0,0120141
3743,1543;0,0118479
3744,1184;0,01148
3745,0828;0,0112084
3746,0469;0,0111953
3747,0112;0,0113562
3747,9753;0,0114679
3748,9397;0,0113069
3749,9038;0,0108086
3750,8682;0,0101934
3751,8323;0,00980177
3752,7966;0,00976628
3753,7607;0,00998295
3754,7251;0,0102834
3755,6892;0,0105255
3756,6536;0,0106162
3757,6177;0,0105409
3758,5820;0,0103817
3759,5461;0,0102666
3760,5105;0,0102766
3761,4746;0,0104057
3762,4390;0,0105929
3763,4031;0,0107675
3764,3674;0,0108772
3765,3315;0,0108982
3766,2959;0,0108311
3767,2600;0,0106905
3768,2244;0,0104985
3769,1885;0,0102919
3770,1528;0,0101283
3771,1169;0,0100686
3772,0813;0,0101462
3773,0454;0,0103475
3774,0098;0,0106164
3774,9739;0,0108703
3775,9382;0,0110219
3776,9023;0,0110141
3777,8667;0,0108606
3778,8308;0,0106506
3779,7952;0,0104877
3780,7593;0,0104163
3781,7236;0,0104101
3782,6877;0,0104146
3783,6521;0,0103914
3784,6162;0,0103383
3785,5806;0,0102818
3786,5447;0,0102553
3787,5090;0,0102806
3788,4731;0,0103636
3789,4375;0,0104981
3790,4016;0,0106669
3791,3660;0,0108409
3792,3301;0,0109836
3793,2944;0,0110667
3794,2585;0,0110921
3795,2229;0,0110976
3796,1870;0,0111283
3797,1514;0,01119
3798,1155;0,0112253
3799,0798;0,0111463
3800,0439;0,0109175
3801,0083;0,0106206
3801,9724;0,0104054
3802,9368;0,0103522
3803,9009;0,010409
3804,8652;0,0104526
3805,8293;0,0103873
3806,7937;0,0102237
3807,7578;0,0100834
3808,7222;0,0101025
3809,6863;0,0103276
3810,6506;0,0107033
3811,6147;0,0111148
3812,5791;0,0114292
3813,5432;0,0115449
3814,5076;0,0114584
3815,4717;0,0112847
3816,4360;0,0111617
3817,4001;0,0111204
3818,3645;0,0110716
3819,3286;0,0109061
3820,2930;0,0106113
3821,2571;0,0102996
3822,2214;0,0101063
3823,1855;0,0100789
3824,1499;0,0101784
3825,1140;0,0103403
3826,0784;0,0105131
3827,0425;0,0106688
3828,0068;0,0107992
3828,9709;0,0109071
3829,9353;0,0110006
3830,8994;0,0110916
3831,8638;0,0111944
3832,8279;0,0113159
3833,7922;0,0114389
3834,7563;0,0115131
3835,7207;0,0114709
3836,6848;0,011273
3837,6492;0,0109579
3838,6133;0,0106343
3839,5776;0,0104033
3840,5417;0,0102902
3841,5061;0,0102567
3842,4702;0,0102567
3843,4346;0,0102779
3844,3987;0,0103492
3845,3630;0,0105212
3846,3271;0,0108358
3847,2915;0,011304
3848,2556;0,0118883
3849,2200;0,0124825
3850,1841;0,0128851
3851,1484;0,0128186
3852,1125;0,0121187
3853,0769;0,0110542
3854,0410;0,0102055
3855,0054;0,00985749
3855,9695;0,0099081
3856,9338;0,0101827
3857,8979;0,0105611
3858,8623;0,0109523
3859,8264;0,0112663
3860,7908;0,0114233
3861,7549;0,0113963
3862,7192;0,0112499
3863,6833;0,0111143
3864,6477;0,011092
3865,6118;0,0111917
3866,5762;0,0113406
3867,5403;0,0114354
3868,5046;0,0113923
3869,4688;0,0111884
3870,4331;0,0108808
3871,3972;0,0105802
3872,3616;0,0103898
3873,3257;0,0103614
3874,2900;0,0104898
3875,2542;0,0107285
3876,2185;0,0110069
3877,1826;0,0112461
3878,1470;0,0113822
3879,1111;0,0113953
3880,0754;0,0113208
3881,0396;0,0112195
3882,0039;0,0111256
3882,9680;0,0110309
3883,9324;0,010922
3884,8965;0,0108229
3885,8608;0,0107896
3886,8250;0,0108562
3887,7893;0,0109916
3888,7534;0,0111065
3889,7178;0,0111042
3890,6819;0,010954
3891,6462;0,0107396
3892,6104;0,0106112
3893,5747;0,0106697
3894,5388;0,0109085
3895,5032;0,0112479
3896,4673;0,0115872
3897,4316;0,0118399
3898,3958;0,0119581
3899,3601;0,011939
3900,3242;0,0118007
3901,2886;0,0115528
3902,2527;0,0112064
3903,2170;0,0108126
3904,1812;0,0104648
3905,1455;0,010246
3906,1096;0,0101805
3907,0740;0,0102367
3908,0381;0,0103613
3909,0024;0,0105097
3909,9666;0,0106613
3910,9309;0,010818
3911,8950;0,0109881
3912,8594;0,0111654
3913,8235;0,011317
3914,7878;0,0113935
3915,7520;0,0113596
3916,7163;0,0112279
3917,6804;0,011063
3918,6448;0,0109394
3919,6089;0,0108919
3920,5732;0,0109015
3921,5374;0,0109201
3922,5017;0,010908
3923,4658;0,0108626
3924,4302;0,0108218
3925,3943;0,0108329
3926,3586;0,0109136
3927,3228;0,011036
3928,2871;0,0111414
3929,2512;0,0111702
3930,2156;0,0110941
3931,1797;0,0109365
3932,1440;0,0107628
3933,1082;0,0106404
3934,0725;0,0106055
3935,0366;0,0106585
3936,0010;0,0107783
3936,9651;0,0109333
3937,9294;0,0110863
3938,8936;0,011199
3939,8579;0,0112424
3940,8220;0,0112128
3941,7864;0,0111401
3942,7505;0,011074
3943,7148;0,0110532
3944,6790;0,01108
3945,6433;0,0111212
3946,6074;0,0111313
3947,5718;0,0110816
3948,5359;0,0109803
3949,5002;0,0108684
3950,4644;0,0107921
3951,4287;0,0107736
3952,3928;0,0108038
3953,3572;0,0108562
3954,3213;0,0109053
3955,2856;0,0109382
3956,2498;0,0109551
3957,2141;0,0109613
3958,1782;0,0109596
3959,1426;0,0109485
3960,1067;0,0109272
3961,0710;0,0109004
3962,0352;0,0108783
3962,9995;0,0108711
3963,9636;0,0108825
3964,9280;0,0109075
3965,8921;0,0109355
3966,8564;0,010957
3967,8206;0,0109676
3968,7849;0,0109696
3969,7490;0,0109693
3970,7134;0,0109722
3971,6775;0,0109801
3972,6418;0,0109914
3973,6060;0,011003
3974,5703;0,0110129
3975,5344;0,0110207
3976,4988;0,011026
3977,4629;0,011027
3978,4272;0,011021
3979,3914;0,0110054
3980,3557;0,0109811
3981,3198;0,0109536
3982,2842;0,0109319
3983,2483;0,0109239
3984,2126;0,0109322
3985,1768;0,0109525
3986,1411;0,0109755
3987,1052;0,0109921
3988,0696;0,010998
3989,0337;0,0109953
3989,9980;0,01099
3990,9622;0,0109871
3991,9265;0,0109874
3992,8906;0,0109873
3993,8550;0,0109832
3994,8191;0,0109752
3995,7834;0,0109677
3996,7476;0,0109663
3997,7119;0,010973
3998,6760;0,0109849
3999,6404;0,0109966
4000,6045;0,010879

##### Extended Information
[Comments]
Sample name
Comment
Username
Division
Organization;UNIVERSIDAD INDUSTRIAL DE SANTANDER

[Detailed Information]
Creation date;26/02/2025 6:18 p.m.

Data array type;Linear data array
Horizontal axis;Wavenumber [cm-1]
Vertical axis;Abs
Start;399,193 cm-1
End;4000,6 cm-1
Data interval;0,964233 cm-1
Data points;3736    

[Measurement Information]
Model name;FT/IR-4X1typeA
Serial No.;A035162111

Accessory;ATR PRO 4X
Accessory S/N;A021162126
Incident angle;45 deg

Measurement date;26/02/2025 6:18 p.m.

Light source;Standard
Detector;TGS
Accumulation;40
Resolution;4 cm-1
Zero filling;On
Apodization;Cosine
Gain;Auto (8)
Aperture;Auto (7 mm)
Scan speed;Auto (2 mm/sec)
Filter;Auto (12800 Hz)

