TITLE;
DATA TYPE;INFRARED SPECTRUM
ORIGIN;JASCO
OWNER;
DATE;25/02/26
TIME;19:00:49
SPECTROMETER/DATA SYSTEM;
LOCALE;9226
RESOLUTION;
DELTAX;0,964233
XUNITS;1/CM
YUNITS;ABSORBANCE
FIRSTX;  399,1927
LASTX; 4000,6047
NPOINTS;    3736
FIRSTY;     0,16981
MAXY;     0,26044
MINY;     0,01072
XYDATA
399,1927;0,169809
400,1569;0,172037
401,1211;0,174343
402,0854;0,176139
403,0496;0,177259
404,0138;0,177773
404,9781;0,177844
405,9423;0,177627
406,9065;0,177225
407,8708;0,176694
408,8350;0,176136
409,7992;0,175787
410,7635;0,175998
411,7277;0,177041
412,6919;0,178863
413,6562;0,181022
414,6204;0,182845
415,5846;0,183636
416,5489;0,182869
417,5131;0,180534
418,4773;0,17764
419,4416;0,175971
420,4058;0,176567
421,3700;0,178943
422,3343;0,182021
423,2985;0,185038
424,2627;0,187651
425,2270;0,189749
426,1912;0,191276
427,1554;0,192162
428,1197;0,192344
429,0839;0,191848
430,0481;0,190864
431,0124;0,189744
431,9766;0,188886
432,9408;0,188565
433,9051;0,188819
434,8693;0,189454
435,8335;0,190189
436,7978;0,190805
437,7620;0,191215
438,7262;0,191428
439,6905;0,191455
440,6547;0,191276
441,6189;0,190868
442,5832;0,190274
443,5474;0,189631
444,5116;0,189109
445,4759;0,188801
446,4401;0,188669
447,4043;0,188589
448,3686;0,188451
449,3328;0,18823
450,2970;0,188004
451,2613;0,187903
452,2255;0,188019
453,1897;0,188338
454,1540;0,188731
455,1182;0,189004
456,0824;0,188973
457,0467;0,188553
458,0109;0,187831
458,9751;0,187043
459,9394;0,186441
460,9036;0,186163
461,8678;0,186214
462,8321;0,186512
463,7963;0,186934
464,7605;0,187342
465,7248;0,187618
466,6890;0,1877
467,6532;0,187608
468,6175;0,187418
469,5817;0,187223
470,5459;0,187094
471,5102;0,187072
472,4744;0,187165
473,4386;0,187351
474,4029;0,187585
475,3671;0,187804
476,3313;0,187945
477,2956;0,187975
478,2598;0,187914
479,2240;0,187845
480,1883;0,187885
481,1525;0,188125
482,1167;0,188574
483,0810;0,189153
484,0452;0,189728
485,0094;0,1902
485,9737;0,190552
486,9379;0,190845
487,9021;0,191144
488,8664;0,191462
489,8306;0,191744
490,7948;0,191913
491,7591;0,191935
492,7233;0,191859
493,6875;0,191802
494,6518;0,19187
495,6160;0,192087
496,5802;0,192378
497,5445;0,192616
498,5087;0,192691
499,4729;0,192565
500,4372;0,192305
501,4014;0,192052
502,3656;0,191961
503,3299;0,192118
504,2941;0,192509
505,2583;0,193047
506,2226;0,193633
507,1868;0,194207
508,1510;0,194766
509,1153;0,19535
510,0795;0,195999
511,0437;0,196718
512,0080;0,197455
512,9722;0,198126
513,9365;0,198654
514,9007;0,199013
515,8649;0,199249
516,8292;0,199456
517,7934;0,199716
518,7576;0,200038
519,7219;0,200341
520,6861;0,200522
521,6503;0,200519
522,6146;0,200352
523,5788;0,200103
524,5430;0,199883
525,5073;0,199778
526,4715;0,199805
527,4357;0,199905
528,4000;0,199984
529,3642;0,19997
530,3284;0,199837
531,2927;0,199604
532,2569;0,199319
533,2211;0,199037
534,1854;0,198802
535,1496;0,198632
536,1138;0,198505
537,0781;0,198374
538,0423;0,198184
539,0065;0,197908
539,9708;0,197569
540,9350;0,197243
541,8992;0,197031
542,8635;0,197011
543,8277;0,197203
544,7919;0,197559
545,7562;0,19799
546,7204;0,198407
547,6846;0,198763
548,6489;0,199056
549,6131;0,199314
550,5773;0,199561
551,5416;0,199813
552,5058;0,200079
553,4700;0,200373
554,4343;0,200705
555,3985;0,201056
556,3627;0,20136
557,3270;0,201504
558,2912;0,201367
559,2554;0,200877
560,2197;0,200055
561,1839;0,199017
562,1481;0,19793
563,1124;0,196942
564,0766;0,19612
565,0408;0,19544
566,0051;0,194824
566,9693;0,194195
567,9335;0,193531
568,8978;0,192868
569,8620;0,192272
570,8262;0,191791
571,7905;0,191432
572,7547;0,191169
573,7189;0,190969
574,6832;0,190808
575,6474;0,190679
576,6116;0,190576
577,5759;0,190492
578,5401;0,190414
579,5043;0,190329
580,4686;0,190234
581,4328;0,190133
582,3970;0,190032
583,3613;0,189944
584,3255;0,189886
585,2897;0,189878
586,2540;0,189932
587,2182;0,190041
588,1824;0,19017
589,1467;0,190272
590,1109;0,190311
591,0751;0,190286
592,0394;0,190234
593,0036;0,190201
593,9678;0,190204
594,9321;0,190215
595,8963;0,190169
596,8605;0,190013
597,8248;0,189741
598,7890;0,189397
599,7532;0,189048
600,7175;0,188741
601,6817;0,188468
602,6459;0,188173
603,6102;0,187786
604,5744;0,187259
605,5386;0,186592
606,5029;0,185815
607,4671;0,184968
608,4313;0,184083
609,3956;0,183168
610,3598;0,182226
611,3240;0,181258
612,2883;0,180272
613,2525;0,179285
614,2167;0,178311
615,1810;0,177361
616,1452;0,176435
617,1094;0,175516
618,0737;0,174575
619,0379;0,17358
620,0021;0,172514
620,9664;0,171385
621,9306;0,170232
622,8948;0,169115
623,8591;0,168099
624,8233;0,167231
625,7875;0,166489
626,7518;0,165832
627,7160;0,165201
628,6802;0,164559
629,6445;0,163898
630,6087;0,163231
631,5729;0,162572
632,5372;0,161916
633,5014;0,16124
634,4656;0,160518
635,4299;0,159745
636,3941;0,158942
637,3583;0,158157
638,3226;0,157435
639,2868;0,15681
640,2510;0,156287
641,2153;0,15585
642,1795;0,155467
643,1437;0,155099
644,1080;0,154715
645,0722;0,154295
646,0364;0,153832
647,0007;0,153337
647,9649;0,152826
648,9291;0,152325
649,8934;0,151857
650,8576;0,15144
651,8218;0,15109
652,7861;0,150818
653,7503;0,15064
654,7145;0,150575
655,6788;0,15063
656,6430;0,15079
657,6072;0,151002
658,5715;0,151186
659,5357;0,151258
660,4999;0,151176
661,4642;0,150977
662,4284;0,150763
663,3926;0,150633
664,3569;0,150617
665,3211;0,150615
666,2853;0,150363
667,2496;0,149502
668,2138;0,147935
669,1780;0,146117
670,1423;0,144566
671,1065;0,143332
672,0707;0,142218
673,0350;0,141039
673,9992;0,139692
674,9634;0,138169
675,9277;0,136558
676,8919;0,13498
677,8561;0,133509
678,8204;0,132148
679,7846;0,130873
680,7488;0,129689
681,7131;0,128629
682,6773;0,127726
683,6415;0,126979
684,6058;0,126361
685,5700;0,125844
686,5342;0,125411
687,4985;0,125056
688,4627;0,124763
689,4269;0,124505
690,3912;0,124239
691,3554;0,123931
692,3196;0,123567
693,2839;0,123158
694,2481;0,122733
695,2123;0,122321
696,1766;0,121938
697,1408;0,121577
698,1050;0,121223
699,0693;0,120858
700,0335;0,12048
700,9977;0,120097
701,9620;0,119721
702,9262;0,119348
703,8904;0,118967
704,8547;0,118556
705,8189;0,118101
706,7831;0,117606
707,7474;0,117087
708,7116;0,116562
709,6758;0,116042
710,6401;0,115523
711,6043;0,114994
712,5685;0,114446
713,5328;0,113878
714,4970;0,113297
715,4612;0,11288
716,4255;0,112269
717,3897;0,111647
718,3539;0,111008
719,3182;0,110352
720,2824;0,10968
721,2466;0,108997
722,2109;0,108299
723,1751;0,107577
724,1393;0,106824
725,1036;0,106047
726,0678;0,105277
727,0320;0,104559
727,9963;0,103935
728,9605;0,103416
729,9247;0,102978
730,8890;0,10257
731,8532;0,102146
732,8174;0,10168
733,7817;0,101176
734,7459;0,100655
735,7101;0,10014
736,6744;0,0996473
737,6386;0,099182
738,6028;0,0987443
739,5671;0,0983287
740,5313;0,097924
741,4955;0,097515
742,4598;0,0970886
743,4240;0,0966414
744,3882;0,0961815
745,3525;0,0957211
746,3167;0,0952651
747,2809;0,0948044
748,2452;0,0943209
749,2094;0,0937998
750,1736;0,0932405
751,1379;0,0926571
752,1021;0,0920681
753,0663;0,0914852
754,0306;0,0909087
754,9948;0,0903334
755,9590;0,0897596
756,9233;0,0891993
757,8875;0,0886717
758,8517;0,0881932
759,8160;0,0877678
760,7802;0,087386
761,7444;0,0870319
762,7087;0,0866927
763,6729;0,0863638
764,6371;0,0860466
765,6014;0,0857416
766,5656;0,0854426
767,5298;0,0851367
768,4941;0,0848109
769,4583;0,0844609
770,4225;0,0840956
771,3868;0,0837357
772,3510;0,0834038
773,3152;0,0831149
774,2795;0,0828701
775,2437;0,0826591
776,2079;0,0824688
777,1722;0,0822907
778,1364;0,0821223
779,1006;0,0819597
780,0649;0,0817882
781,0291;0,0815803
781,9933;0,0813044
782,9576;0,0809431
783,9218;0,080509
784,8860;0,080046
785,8503;0,079614
786,8145;0,0792631
787,7787;0,0790115
788,7430;0,0788398
789,7072;0,0787047
790,6714;0,078563
791,6357;0,0783926
792,5999;0,0781989
793,5641;0,0780065
794,5284;0,0778406
795,4926;0,0777126
796,4568;0,0776137
797,4211;0,077521
798,3853;0,0774084
799,3495;0,0772567
800,3138;0,0770598
801,2780;0,076825
802,2422;0,0765707
803,2065;0,0763213
804,1707;0,076101
805,1349;0,0759264
806,0992;0,0758007
807,0634;0,0757132
808,0276;0,075644
808,9919;0,0755738
809,9561;0,0754913
810,9203;0,0753961
811,8846;0,0752941
812,8488;0,0751907
813,8130;0,0750857
814,7773;0,0749745
815,7415;0,0748525
816,7057;0,0747206
817,6700;0,0745853
818,6342;0,0744555
819,5984;0,0743378
820,5627;0,0742352
821,5269;0,0741488
822,4911;0,0740818
823,4554;0,0740411
824,4196;0,0740336
825,3839;0,0740608
826,3481;0,0741133
827,3123;0,0741711
828,2766;0,0742085
829,2408;0,0742028
830,2050;0,0741417
831,1693;0,0740266
832,1335;0,0738706
833,0977;0,0736918
834,0620;0,0735046
835,0262;0,073314
835,9904;0,0731156
836,9547;0,0729022
837,9189;0,072672
838,8831;0,0724334
839,8474;0,0722023
840,8116;0,0719931
841,7758;0,07181
842,7401;0,0716458
843,7043;0,0714882
844,6685;0,0713299
845,6328;0,0711737
846,5970;0,0710307
847,5612;0,0709126
848,5255;0,070826
849,4897;0,0707711
850,4539;0,070745
851,4182;0,0707431
852,3824;0,0707579
853,3466;0,070776
854,3109;0,070779
855,2751;0,0707501
856,2393;0,0706839
857,2036;0,0705903
858,1678;0,0704913
859,1320;0,0704093
860,0963;0,0703569
861,0605;0,0703327
862,0247;0,0703269
862,9890;0,0703313
863,9532;0,0703471
864,9174;0,0703853
865,8817;0,0704608
866,8459;0,0705834
867,8101;0,0707506
868,7744;0,0709473
869,7386;0,0711505
870,7028;0,071338
871,6671;0,0714949
872,6313;0,0716163
873,5955;0,0717043
874,5598;0,0717635
875,5240;0,0717978
876,4882;0,071813
877,4525;0,0718212
878,4167;0,0718441
879,3809;0,0719106
880,3452;0,0720491
881,3094;0,0722795
882,2736;0,0726084
883,2379;0,0730311
884,2021;0,0735376
885,1663;0,0741195
886,1306;0,0747724
887,0948;0,075495
888,0590;0,0762856
889,0233;0,0771383
889,9875;0,0780412
890,9517;0,078975
891,9160;0,0799125
892,8802;0,0808189
893,8444;0,0816532
894,8087;0,0823711
895,7729;0,0829319
896,7371;0,0833063
897,7014;0,0834837
898,6656;0,0834745
899,6298;0,0833064
900,5941;0,0830155
901,5583;0,0826355
902,5225;0,0821923
903,4868;0,0817043
904,4510;0,081189
905,4152;0,0806699
906,3795;0,080178
907,3437;0,0797484
908,3079;0,0794123
909,2722;0,0791912
910,2364;0,0790938
911,2007;0,0791186
912,1649;0,0792565
913,1292;0,079494
914,0934;0,0798146
915,0576;0,0802003
916,0219;0,0806328
916,9861;0,0810957
917,9503;0,0815761
918,9146;0,0820646
919,8788;0,0825551
920,8430;0,0830436
921,8073;0,0835265
922,7715;0,0839987
923,7357;0,0844521
924,7000;0,0848757
925,6642;0,0852575
926,6284;0,0855888
927,5927;0,0858688
928,5569;0,0861067
929,5211;0,0863203
930,4854;0,0865314
931,4496;0,0867602
932,4138;0,0870211
933,3781;0,087322
934,3423;0,0876662
935,3065;0,088055
936,2708;0,0884896
937,2350;0,0889721
938,1992;0,0895047
939,1635;0,0900889
940,1277;0,090724
941,0919;0,0914067
942,0562;0,0921298
943,0204;0,092883
943,9846;0,0936546
944,9489;0,0944359
945,9131;0,0952253
946,8773;0,096031
947,8416;0,0968696
948,8058;0,0977611
949,7700;0,0987226
950,7343;0,0997645
951,6985;0,10089
952,6627;0,102102
953,6270;0,103403
954,5912;0,104799
955,5554;0,106298
956,5197;0,107902
957,4839;0,109605
958,4481;0,111393
959,4124;0,113251
960,3766;0,115162
961,3408;0,117114
962,3051;0,119097
963,2693;0,121104
964,2335;0,123132
965,1978;0,125183
966,1620;0,127271
967,1262;0,129421
968,0905;0,131663
969,0547;0,134031
970,0189;0,13655
970,9832;0,139237
971,9474;0,142103
972,9116;0,145164
973,8759;0,148441
974,8401;0,151957
975,8043;0,155731
976,7686;0,159759
977,7328;0,164009
978,6970;0,168416
979,6613;0,172891
980,6255;0,177328
981,5897;0,18162
982,5540;0,185662
983,5182;0,189366
984,4824;0,192661
985,4467;0,195506
986,4109;0,197899
987,3751;0,199874
988,3394;0,201493
989,3036;0,202832
990,2678;0,203962
991,2321;0,204937
992,1963;0,205791
993,1605;0,206545
994,1248;0,207214
995,0890;0,207809
996,0532;0,208349
997,0175;0,20885
997,9817;0,20933
998,9459;0,20981
999,9102;0,210315
1000,8744;0,21088
1001,8386;0,211544
1002,8029;0,212347
1003,7671;0,213324
1004,7313;0,214504
1005,6956;0,215914
1006,6598;0,217576
1007,6240;0,219508
1008,5883;0,221712
1009,5525;0,224162
1010,5167;0,226803
1011,4810;0,22956
1012,4452;0,232357
1013,4094;0,23513
1014,3737;0,237838
1015,3379;0,240449
1016,3021;0,242936
1017,2664;0,245269
1018,2306;0,247416
1019,1948;0,249361
1020,1591;0,251102
1021,1233;0,252656
1022,0875;0,254049
1023,0518;0,255299
1024,0160;0,256421
1024,9802;0,257418
1025,9445;0,258291
1026,9087;0,259041
1027,8729;0,259659
1028,8372;0,260127
1029,8014;0,260407
1030,7656;0,26044
1031,7299;0,260152
1032,6941;0,259475
1033,6583;0,258369
1034,6226;0,256848
1035,5868;0,254992
1036,5510;0,252933
1037,5153;0,25083
1038,4795;0,248833
1039,4437;0,247056
1040,4080;0,245564
1041,3722;0,244374
1042,3364;0,243464
1043,3007;0,242775
1044,2649;0,242226
1045,2291;0,24172
1046,1934;0,241165
1047,1576;0,240487
1048,1218;0,239639
1049,0861;0,238599
1050,0503;0,237356
1051,0145;0,235898
1051,9788;0,234214
1052,9430;0,232299
1053,9072;0,230166
1054,8715;0,227841
1055,8357;0,22535
1056,7999;0,222698
1057,7642;0,219864
1058,7284;0,216814
1059,6926;0,21353
1060,6569;0,210035
1061,6211;0,206402
1062,5853;0,202743
1063,5496;0,199176
1064,5138;0,195796
1065,4780;0,192658
1066,4423;0,189776
1067,4065;0,187132
1068,3707;0,184692
1069,3350;0,182415
1070,2992;0,180257
1071,2634;0,178171
1072,2277;0,176112
1073,1919;0,174031
1074,1561;0,171889
1075,1204;0,16966
1076,0846;0,167341
1077,0488;0,164957
1078,0131;0,162555
1078,9773;0,160196
1079,9415;0,157945
1080,9058;0,155853
1081,8700;0,153955
1082,8342;0,152269
1083,7985;0,1508
1084,7627;0,149545
1085,7269;0,148493
1086,6912;0,147624
1087,6554;0,14691
1088,6196;0,146322
1089,5839;0,145832
1090,5481;0,145426
1091,5123;0,145104
1092,4766;0,144875
1093,4408;0,144746
1094,4050;0,144715
1095,3693;0,14477
1096,3335;0,144889
1097,2977;0,14505
1098,2620;0,145234
1099,2262;0,145423
1100,1904;0,145597
1101,1547;0,145731
1102,1189;0,1458
1103,0831;0,145776
1104,0474;0,145647
1105,0116;0,145407
1105,9758;0,145066
1106,9401;0,144632
1107,9043;0,144112
1108,8685;0,1435
1109,8328;0,142776
1110,7970;0,141915
1111,7612;0,140894
1112,7255;0,139713
1113,6897;0,138398
1114,6539;0,137008
1115,6182;0,135614
1116,5824;0,134286
1117,5466;0,133064
1118,5109;0,131949
1119,4751;0,130906
1120,4393;0,129871
1121,4036;0,128768
1122,3678;0,12753
1123,3320;0,126104
1124,2963;0,124461
1125,2605;0,122598
1126,2247;0,120537
1127,1890;0,118322
1128,1532;0,116009
1129,1174;0,113657
1130,0817;0,111315
1131,0459;0,10902
1132,0101;0,106796
1132,9744;0,104665
1133,9386;0,102651
1134,9028;0,100784
1135,8671;0,0990985
1136,8313;0,0976223
1137,7955;0,0963712
1138,7598;0,0953433
1139,7240;0,0945201
1140,6882;0,0938705
1141,6525;0,0933577
1142,6167;0,0929475
1143,5809;0,0926172
1144,5452;0,0923599
1145,5094;0,0921853
1146,4736;0,0921123
1147,4379;0,0921578
1148,4021;0,0923262
1149,3663;0,0926047
1150,3306;0,0929665
1151,2948;0,0933786
1152,2590;0,0938081
1153,2233;0,0942238
1154,1875;0,0945912
1155,1517;0,094868
1156,1160;0,0950029
1157,0802;0,0949396
1158,0444;0,0946235
1159,0087;0,0940055
1159,9729;0,0930436
1160,9371;0,0917042
1161,9014;0,0899671
1162,8656;0,0878362
1163,8298;0,08535
1164,7941;0,0825851
1165,7583;0,0796483
1166,7225;0,0766593
1167,6868;0,0737296
1168,6510;0,0709476
1169,6152;0,0683719
1170,5795;0,0660341
1171,5437;0,0639454
1172,5079;0,0621031
1173,4722;0,060495
1174,4364;0,0591031
1175,4006;0,0579069
1176,3649;0,0568873
1177,3291;0,0560301
1178,2933;0,0553257
1179,2576;0,0547657
1180,2218;0,0543384
1181,1860;0,0540257
1182,1503;0,0538051
1183,1145;0,0536549
1184,0787;0,0535613
1185,0430;0,053521
1186,0072;0,0535413
1186,9714;0,0536345
1187,9357;0,0538134
1188,8999;0,054087
1189,8641;0,0544595
1190,8284;0,0549309
1191,7926;0,0554982
1192,7568;0,0561568
1193,7211;0,0569002
1194,6853;0,0577192
1195,6495;0,0586016
1196,6138;0,0595317
1197,5780;0,0604917
1198,5422;0,0614653
1199,5065;0,0624602
1200,4707;0,0634297
1201,4349;0,064396
1202,3992;0,0653614
1203,3634;0,0663266
1204,3276;0,0672889
1205,2919;0,0682451
1206,2561;0,0691965
1207,2203;0,0701536
1208,1846;0,0711366
1209,1488;0,0721717
1210,1130;0,0732839
1211,0773;0,0744901
1212,0415;0,0757945
1213,0057;0,0771881
1213,9700;0,0786517
1214,9342;0,0801606
1215,8984;0,0816892
1216,8627;0,0832145
1217,8269;0,0847171
1218,7911;0,0861815
1219,7554;0,0875952
1220,7196;0,088948
1221,6838;0,0902307
1222,6481;0,0914348
1223,6123;0,092553
1224,5765;0,09358
1225,5408;0,0945137
1226,5050;0,095355
1227,4692;0,0961073
1228,4335;0,0967749
1229,3977;0,0973617
1230,3619;0,0978695
1231,3262;0,0982981
1232,2904;0,0986458
1233,2546;0,0989104
1234,2189;0,0990914
1235,1831;0,0991919
1236,1473;0,0992192
1237,1116;0,0991843
1238,0758;0,0990985
1239,0400;0,0989703
1240,0043;0,098803
1240,9685;0,0985954
1241,9327;0,0983437
1242,8970;0,0980438
1243,8612;0,0976923
1244,8254;0,0972862
1245,7897;0,0968236
1246,7539;0,0963046
1247,7181;0,0957341
1248,6824;0,0951231
1249,6466;0,0944871
1250,6108;0,0938422
1251,5751;0,0932008
1252,5393;0,0925701
1253,5035;0,0919514
1254,4678;0,091342
1255,4320;0,090735
1256,3962;0,0901201
1257,3605;0,0894844
1258,3247;0,0888154
1259,2889;0,0881044
1260,2532;0,0873479
1261,2174;0,0865457
1262,1816;0,085697
1263,1459;0,0847983
1264,1101;0,0838447
1265,0743;0,0828337
1266,0386;0,0817686
1267,0028;0,0806575
1267,9670;0,0795106
1268,9313;0,0783379
1269,8955;0,0771489
1270,8597;0,0759531
1271,8240;0,0747606
1272,7882;0,0735793
1273,7524;0,0724141
1274,7167;0,0712673
1275,6809;0,0701432
1276,6451;0,0690504
1277,6094;0,0680009
1278,5736;0,0670032
1279,5378;0,0660571
1280,5021;0,0651525
1281,4663;0,0642763
1282,4305;0,063422
1283,3948;0,0625951
1284,3590;0,0618112
1285,3232;0,0610876
1286,2875;0,0604352
1287,2517;0,059856
1288,2159;0,0593455
1289,1802;0,058899
1290,1444;0,0585145
1291,1086;0,0581928
1292,0729;0,0579347
1293,0371;0,0577389
1294,0013;0,0576034
1294,9656;0,0575276
1295,9298;0,0575141
1296,8940;0,0575691
1297,8583;0,0576998
1298,8225;0,0579118
1299,7867;0,0582062
1300,7510;0,0585779
1301,7152;0,0590162
1302,6794;0,0595083
1303,6437;0,0600422
1304,6079;0,0606098
1305,5721;0,0612071
1306,5364;0,0618314
1307,5006;0,0624785
1308,4648;0,0631418
1309,4291;0,0638131
1310,3933;0,0644845
1311,3575;0,0651476
1312,3218;0,0657912
1313,2860;0,0663971
1314,2502;0,0669385
1315,2145;0,0673834
1316,1787;0,0677012
1317,1429;0,0678728
1318,1072;0,0678997
1319,0714;0,0678068
1320,0356;0,0676353
1320,9999;0,0674272
1321,9641;0,0672123
1322,9283;0,0670047
1323,8926;0,0668091
1324,8568;0,0666275
1325,8210;0,0664622
1326,7853;0,0663131
1327,7495;0,0661739
1328,7137;0,0660307
1329,6780;0,0658674
1330,6422;0,0656719
1331,6064;0,0654422
1332,5707;0,0651854
1333,5349;0,0649097
1334,4991;0,0646137
1335,4634;0,0642804
1336,4276;0,0638804
1337,3918;0,0633891
1338,3561;0,0628119
1339,3203;0,0621987
1340,2845;0,0616253
1341,2488;0,0611526
1342,2130;0,0608002
1343,1772;0,0605548
1344,1415;0,0603915
1345,1057;0,0602912
1346,0699;0,0602488
1347,0342;0,0602739
1347,9984;0,0603864
1348,9626;0,0606064
1349,9269;0,0609439
1350,8911;0,0613916
1351,8553;0,0619286
1352,8196;0,06253
1353,7838;0,0631787
1354,7480;0,0638706
1355,7123;0,064609
1356,6765;0,0653944
1357,6407;0,0662188
1358,6050;0,0670662
1359,5692;0,0679169
1360,5334;0,0687485
1361,4977;0,0695376
1362,4619;0,0702628
1363,4261;0,0709142
1364,3904;0,0714981
1365,3546;0,0720317
1366,3188;0,0725302
1367,2831;0,0729962
1368,2473;0,073415
1369,2115;0,0737568
1370,1758;0,073981
1371,1400;0,0740415
1372,1042;0,073894
1373,0685;0,0735148
1374,0327;0,0729263
1374,9969;0,0721991
1375,9612;0,0714085
1376,9254;0,070579
1377,8896;0,069675
1378,8539;0,068644
1379,8181;0,067473
1380,7823;0,0662173
1381,7466;0,0649749
1382,7108;0,0638215
1383,6750;0,0627611
1384,6393;0,0617321
1385,6035;0,0606642
1386,5677;0,0595549
1387,5320;0,0585006
1388,4962;0,0576289
1389,4604;0,056998
1390,4247;0,0565735
1391,3889;0,0562743
1392,3531;0,0560212
1393,3174;0,0557635
1394,2816;0,0554907
1395,2458;0,0552275
1396,2101;0,0550125
1397,1743;0,0548748
1398,1385;0,0548282
1399,1028;0,0548752
1400,0670;0,0550092
1401,0313;0,0552129
1401,9955;0,0554607
1402,9597;0,0557281
1403,9240;0,0560037
1404,8882;0,0562971
1405,8524;0,0566333
1406,8167;0,057034
1407,7809;0,0575051
1408,7451;0,05804
1409,7094;0,0586306
1410,6736;0,0592736
1411,6378;0,0599662
1412,6021;0,0607006
1413,5663;0,0614604
1414,5305;0,0622221
1415,4948;0,0629535
1416,4590;0,0636102
1417,4232;0,0641455
1418,3875;0,0645383
1419,3517;0,0648093
1420,3159;0,0649918
1421,2802;0,0650935
1422,2444;0,0650962
1423,2086;0,0649819
1424,1729;0,0647533
1425,1371;0,0644305
1426,1013;0,0640225
1427,0656;0,0635029
1428,0298;0,0628228
1428,9940;0,061969
1429,9583;0,0610167
1430,9225;0,0601056
1431,8867;0,0593389
1432,8510;0,0587026
1433,8152;0,058071
1434,7794;0,0572818
1435,7437;0,0562654
1436,7079;0,0551583
1437,6721;0,0542273
1438,6364;0,0536358
1439,6006;0,053359
1440,5648;0,0532916
1441,5291;0,0533482
1442,4933;0,0534879
1443,4575;0,0536996
1444,4218;0,053979
1445,3860;0,0543118
1446,3502;0,0546723
1447,3145;0,0550335
1448,2787;0,0553817
1449,2429;0,0557224
1450,2072;0,0560727
1451,1714;0,0564465
1452,1356;0,0568403
1453,0999;0,0572166
1454,0641;0,0574827
1455,0283;0,0574826
1455,9926;0,0570788
1456,9568;0,0563862
1457,9210;0,0558128
1458,8853;0,0556092
1459,8495;0,0556829
1460,8137;0,0558407
1461,7780;0,0559072
1462,7422;0,0557101
1463,7064;0,0551013
1464,6707;0,0540682
1465,6349;0,0528059
1466,5991;0,0515769
1467,5634;0,0504996
1468,5276;0,0495065
1469,4918;0,0484152
1470,4561;0,0470005
1471,4203;0,0450976
1472,3845;0,0427916
1473,3488;0,0405016
1474,3130;0,0386613
1475,2772;0,0373563
1476,2415;0,0364167
1477,2057;0,0356656
1478,1699;0,0350079
1479,1342;0,03441
1480,0984;0,0338689
1481,0626;0,0333971
1482,0269;0,0330165
1482,9911;0,0327473
1483,9553;0,0325932
1484,9196;0,0325319
1485,8838;0,0325148
1486,8480;0,0324831
1487,8123;0,0324079
1488,7765;0,0323373
1489,7407;0,0323772
1490,7050;0,0325894
1491,6692;0,0329521
1492,6334;0,0334161
1493,5977;0,0339454
1494,5619;0,0345165
1495,5261;0,0351149
1496,4904;0,0357436
1497,4546;0,036425
1498,4188;0,0371708
1499,3831;0,0379593
1500,3473;0,0387571
1501,3115;0,0395428
1502,2758;0,0402966
1503,2400;0,0409733
1504,2042;0,0414683
1505,1685;0,0415984
1506,1327;0,041196
1507,0969;0,0403936
1508,0612;0,0396237
1509,0254;0,0390916
1509,9896;0,0387033
1510,9539;0,0383368
1511,9181;0,0379107
1512,8823;0,0373567
1513,8466;0,0366162
1514,8108;0,0356715
1515,7750;0,0345781
1516,7393;0,0334454
1517,7035;0,0323604
1518,6677;0,0313277
1519,6320;0,0302941
1520,5962;0,0292403
1521,5604;0,0282462
1522,5247;0,0274384
1523,4889;0,0268803
1524,4531;0,0265407
1525,4174;0,0263493
1526,3816;0,0262556
1527,3458;0,026244
1528,3101;0,0263159
1529,2743;0,0264672
1530,2385;0,0266841
1531,2028;0,026955
1532,1670;0,0272891
1533,1312;0,0277176
1534,0955;0,0282599
1535,0597;0,0288943
1536,0239;0,0295682
1536,9882;0,030207
1537,9524;0,03069
1538,9166;0,0308391
1539,8809;0,0305381
1540,8451;0,0299957
1541,8093;0,0296355
1542,7736;0,029578
1543,7378;0,0296711
1544,7020;0,029792
1545,6663;0,0299093
1546,6305;0,0300355
1547,5947;0,0301863
1548,5590;0,0303631
1549,5232;0,0305581
1550,4874;0,0307711
1551,4517;0,0310198
1552,4159;0,0313306
1553,3801;0,0317134
1554,3444;0,0321433
1555,3086;0,0325521
1556,2728;0,0328302
1557,2371;0,0328861
1558,2013;0,0328332
1559,1655;0,0330017
1560,1298;0,0334785
1561,0940;0,0340857
1562,0582;0,034729
1563,0225;0,0354116
1563,9867;0,0361375
1564,9509;0,0368768
1565,9152;0,0375768
1566,8794;0,0382
1567,8436;0,0387669
1568,8079;0,0393592
1569,7721;0,0400487
1570,7363;0,0408266
1571,7006;0,0416299
1572,6648;0,0424071
1573,6290;0,0431431
1574,5933;0,0438551
1575,5575;0,0445865
1576,5217;0,0453766
1577,4860;0,0462126
1578,4502;0,0470502
1579,4144;0,0478741
1580,3787;0,0486975
1581,3429;0,0495276
1582,3071;0,0503518
1583,2714;0,0511489
1584,2356;0,0519099
1585,1998;0,0526432
1586,1641;0,0533605
1587,1283;0,0540574
1588,0925;0,0547097
1589,0568;0,0552835
1590,0210;0,0557498
1590,9852;0,0560886
1591,9495;0,0562844
1592,9137;0,0563243
1593,8779;0,0562075
1594,8422;0,0559554
1595,8064;0,0556087
1596,7706;0,0552088
1597,7349;0,0547795
1598,6991;0,0543247
1599,6633;0,0538397
1600,6276;0,0533266
1601,5918;0,0528017
1602,5560;0,0522914
1603,5203;0,051819
1604,4845;0,0513895
1605,4487;0,0509846
1606,4130;0,050572
1607,3772;0,0501283
1608,3414;0,0496672
1609,3057;0,0492466
1610,2699;0,0489368
1611,2341;0,0487685
1612,1984;0,0487075
1613,1626;0,0486605
1614,1268;0,048501
1615,0911;0,0481336
1616,0553;0,0476021
1617,0195;0,0471106
1617,9838;0,0468393
1618,9480;0,0467879
1619,9122;0,0468331
1620,8765;0,0468362
1621,8407;0,0466995
1622,8049;0,0464061
1623,7692;0,0460314
1624,7334;0,0456801
1625,6976;0,0453999
1626,6619;0,045173
1627,6261;0,0449766
1628,5903;0,0448278
1629,5546;0,0447698
1630,5188;0,0448238
1631,4830;0,0449507
1632,4473;0,0450381
1633,4115;0,0449088
1634,3757;0,0443989
1635,3400;0,0435595
1636,3042;0,042753
1637,2684;0,0423057
1638,2327;0,0422103
1639,1969;0,042303
1640,1611;0,042467
1641,1254;0,0426527
1642,0896;0,0428281
1643,0538;0,0429283
1644,0181;0,0428328
1644,9823;0,0424193
1645,9465;0,0417302
1646,9108;0,0410725
1647,8750;0,0407701
1648,8392;0,0408706
1649,8035;0,0411899
1650,7677;0,0414355
1651,7319;0,0412547
1652,6962;0,0404573
1653,6604;0,0394345
1654,6246;0,0388052
1655,5889;0,03865
1656,5531;0,0387383
1657,5173;0,0388921
1658,4816;0,0390008
1659,4458;0,0389689
1660,4100;0,0387192
1661,3743;0,0382563
1662,3385;0,0377132
1663,3027;0,0372726
1664,2670;0,0370232
1665,2312;0,0369195
1666,1954;0,0368339
1667,1597;0,0366136
1668,1239;0,036149
1669,0881;0,035473
1670,0524;0,0347867
1671,0166;0,0342923
1671,9808;0,0340157
1672,9451;0,0338336
1673,9093;0,0336031
1674,8735;0,0332627
1675,8378;0,0328711
1676,8020;0,0325549
1677,7662;0,0324027
1678,7305;0,0324147
1679,6947;0,0325169
1680,6589;0,0325758
1681,6232;0,0324065
1682,5874;0,0318519
1683,5516;0,0309896
1684,5159;0,0301906
1685,4801;0,0297364
1686,4443;0,0295885
1687,4086;0,0295957
1688,3728;0,0296652
1689,3370;0,0297729
1690,3013;0,0299273
1691,2655;0,0301365
1692,2297;0,0303875
1693,1940;0,0306412
1694,1582;0,0308425
1695,1224;0,0309434
1696,0867;0,0309344
1697,0509;0,0308626
1698,0151;0,0308191
1698,9794;0,0308902
1699,9436;0,0311057
1700,9078;0,0314333
1701,8721;0,0318279
1702,8363;0,0322762
1703,8005;0,0327964
1704,7648;0,0334113
1705,7290;0,0341228
1706,6932;0,0349039
1707,6575;0,0357168
1708,6217;0,0365444
1709,5859;0,0373998
1710,5502;0,0383038
1711,5144;0,0392564
1712,4786;0,0402229
1713,4429;0,0411438
1714,4071;0,0419675
1715,3713;0,0427017
1716,3356;0,0434488
1717,2998;0,0443294
1718,2640;0,0453422
1719,2283;0,0463918
1720,1925;0,047425
1721,1567;0,0484529
1722,1210;0,0494962
1723,0852;0,0505475
1724,0494;0,051571
1725,0137;0,0525263
1725,9779;0,0533935
1726,9421;0,0541817
1727,9064;0,054913
1728,8706;0,0555963
1729,8348;0,0562014
1730,7991;0,0566418
1731,7633;0,0567853
1732,7275;0,0565378
1733,6918;0,0559767
1734,6560;0,0553341
1735,6202;0,0547803
1736,5845;0,0543068
1737,5487;0,0537972
1738,5129;0,0531234
1739,4772;0,0522109
1740,4414;0,0510805
1741,4056;0,0498331
1742,3699;0,0485682
1743,3341;0,0473162
1744,2983;0,0460487
1745,2626;0,0447239
1746,2268;0,0432996
1747,1910;0,041719
1748,1553;0,0399211
1749,1195;0,037917
1750,0837;0,0358646
1751,0480;0,0339998
1752,0122;0,0324616
1752,9764;0,0312209
1753,9407;0,0301488
1754,9049;0,0291163
1755,8691;0,0280608
1756,8334;0,0270005
1757,7976;0,025993
1758,7618;0,0250678
1759,7261;0,0241989
1760,6903;0,0233448
1761,6545;0,0225129
1762,6188;0,0217705
1763,5830;0,0211891
1764,5472;0,020783
1765,5115;0,0205043
1766,4757;0,0202771
1767,4399;0,020032
1768,4042;0,0197203
1769,3684;0,0193135
1770,3326;0,0188061
1771,2969;0,0182371
1772,2611;0,017704
1773,2253;0,0173182
1774,1896;0,0171274
1775,1538;0,0170966
1776,1180;0,0171483
1777,0823;0,0172035
1778,0465;0,0172053
1779,0107;0,0171352
1779,9750;0,017018
1780,9392;0,0169005
1781,9034;0,0168146
1782,8677;0,0167597
1783,8319;0,0167191
1784,7961;0,0166877
1785,7604;0,0166816
1786,7246;0,0167213
1787,6888;0,0168064
1788,6531;0,0168997
1789,6173;0,0169313
1790,5815;0,0168314
1791,5458;0,0165916
1792,5100;0,0163009
1793,4742;0,0160842
1794,4385;0,0160019
1795,4027;0,0160328
1796,3669;0,0161193
1797,3312;0,0162033
1798,2954;0,0162424
1799,2596;0,0162203
1800,2239;0,0161509
1801,1881;0,0160667
1802,1523;0,0159978
1803,1166;0,0159603
1804,0808;0,0159579
1805,0450;0,0159854
1806,0093;0,0160293
1806,9735;0,0160668
1807,9377;0,0160714
1808,9020;0,0160244
1809,8662;0,0159305
1810,8304;0,0158202
1811,7947;0,0157343
1812,7589;0,0156993
1813,7231;0,0157154
1814,6874;0,0157622
1815,6516;0,015813
1816,6158;0,0158499
1817,5801;0,015873
1818,5443;0,015896
1819,5085;0,0159309
1820,4728;0,0159749
1821,4370;0,01601
1822,4012;0,0160158
1823,3655;0,0159855
1824,3297;0,0159339
1825,2939;0,015884
1826,2582;0,0158447
1827,2224;0,0158009
1828,1866;0,0157295
1829,1509;0,0156287
1830,1151;0,0155329
1831,0793;0,0154888
1832,0436;0,0155159
1833,0078;0,0155931
1833,9720;0,015677
1834,9363;0,0157277
1835,9005;0,0157302
1836,8647;0,0157068
1837,8290;0,0157032
1838,7932;0,0157552
1839,7574;0,0158615
1840,7217;0,0159825
1841,6859;0,0160579
1842,6501;0,0160378
1843,6144;0,015921
1844,5786;0,0157661
1845,5428;0,0156458
1846,5071;0,0155919
1847,4713;0,0155919
1848,4355;0,0156181
1849,3998;0,0156483
1850,3640;0,0156715
1851,3282;0,0156859
1852,2925;0,0156935
1853,2567;0,015697
1854,2209;0,0156993
1855,1852;0,0157047
1856,1494;0,015718
1857,1136;0,0157397
1858,0779;0,0157638
1859,0421;0,0157799
1860,0063;0,0157824
1860,9706;0,0157774
1861,9348;0,0157812
1862,8990;0,0158089
1863,8633;0,0158614
1864,8275;0,0159193
1865,7917;0,015948
1866,7560;0,0159158
1867,7202;0,0158191
1868,6844;0,0156928
1869,6487;0,0155853
1870,6129;0,0155219
1871,5771;0,0154991
1872,5414;0,0155014
1873,5056;0,0155143
1874,4698;0,0155279
1875,4341;0,0155384
1876,3983;0,015547
1877,3625;0,0155569
1878,3268;0,0155689
1879,2910;0,015579
1880,2552;0,0155801
1881,2195;0,0155681
1882,1837;0,0155475
1883,1479;0,0155332
1884,1122;0,0155418
1885,0764;0,0155802
1886,0406;0,0156369
1887,0049;0,0156846
1887,9691;0,0156945
1888,9333;0,015655
1889,8976;0,015581
1890,8618;0,0155036
1891,8260;0,0154493
1892,7903;0,0154283
1893,7545;0,015437
1894,7188;0,0154688
1895,6830;0,0155195
1896,6472;0,0155857
1897,6115;0,0156571
1898,5757;0,015715
1899,5399;0,01574
1900,5042;0,0157229
1901,4684;0,0156729
1902,4326;0,0156147
1903,3969;0,0155753
1904,3611;0,0155692
1905,3253;0,0155908
1906,2896;0,0156186
1907,2538;0,0156268
1908,2180;0,0155983
1909,1823;0,0155352
1910,1465;0,0154595
1911,1107;0,0154041
1912,0750;0,0153962
1913,0392;0,015445
1914,0034;0,0155373
1914,9677;0,0156411
1915,9319;0,0157182
1916,8961;0,0157422
1917,8604;0,0157125
1918,8246;0,0156524
1919,7888;0,0155916
1920,7531;0,015549
1921,7173;0,0155283
1922,6815;0,0155229
1923,6458;0,0155234
1924,6100;0,0155209
1925,5742;0,0155072
1926,5385;0,0154756
1927,5027;0,0154233
1928,4669;0,0153538
1929,4312;0,0152783
1930,3954;0,0152118
1931,3596;0,0151671
1932,3239;0,0151494
1933,2881;0,0151564
1934,2523;0,0151832
1935,2166;0,0152261
1936,1808;0,0152838
1937,1450;0,0153544
1938,1093;0,0154301
1939,0735;0,0154908
1940,0377;0,0155029
1941,0020;0,0154296
1941,9662;0,0152568
1942,9304;0,0150184
1943,8947;0,0147948
1944,8589;0,014673
1945,8231;0,0146948
1946,7874;0,0148302
1947,7516;0,0149906
1948,7158;0,0150746
1949,6801;0,0150256
1950,6443;0,0148654
1951,6085;0,0146787
1952,5728;0,0145568
1953,5370;0,0145399
1954,5012;0,0145996
1955,4655;0,0146695
1956,4297;0,0146965
1957,3939;0,0146711
1958,3582;0,014618
1959,3224;0,0145596
1960,2866;0,0144903
1961,2509;0,0143834
1962,2151;0,0142236
1963,1793;0,0140319
1964,1436;0,01386
1965,1078;0,0137588
1966,0720;0,0137454
1967,0363;0,013796
1968,0005;0,0138672
1968,9647;0,0139291
1969,9290;0,0139779
1970,8932;0,0140192
1971,8574;0,0140439
1972,8217;0,014022
1973,7859;0,013926
1974,7501;0,0137674
1975,7144;0,0136147
1976,6786;0,0135663
1977,6428;0,0136882
1978,6071;0,0139632
1979,5713;0,0142988
1980,5355;0,0145871
1981,4998;0,0147664
1982,4640;0,0148449
1983,4282;0,0148796
1984,3925;0,0149318
1985,3567;0,0150268
1986,3209;0,0151424
1987,2852;0,0152333
1988,2494;0,0152713
1989,2136;0,0152714
1990,1779;0,0152824
1991,1421;0,0153454
1992,1063;0,015451
1993,0706;0,0155328
1994,0348;0,0155106
1994,9990;0,0153491
1995,9633;0,0150894
1996,9275;0,014834
1997,8917;0,014696
1998,8560;0,0147384
1999,8202;0,0149384
2000,7844;0,0152013
2001,7487;0,0154156
2002,7129;0,015511
2003,6771;0,0154822
2004,6414;0,01537
2005,6056;0,015222
2006,5698;0,0150604
2007,5341;0,0148808
2008,4983;0,0146752
2009,4625;0,014454
2010,4268;0,0142458
2011,3910;0,014079
2012,3552;0,0139692
2013,3195;0,0139236
2014,2837;0,0139572
2015,2479;0,0140985
2016,2122;0,0143721
2017,1764;0,014765
2018,1406;0,0152074
2019,1049;0,0155904
2020,0691;0,015814
2021,0333;0,0158328
2021,9976;0,0156734
2022,9618;0,015417
2023,9260;0,0151591
2024,8903;0,014966
2025,8545;0,0148516
2026,8187;0,0147829
2027,7830;0,014712
2028,7472;0,0146148
2029,7114;0,0145144
2030,6757;0,0144769
2031,6399;0,0145784
2032,6041;0,0148603
2033,5684;0,0152971
2034,5326;0,0157963
2035,4968;0,0162342
2036,4611;0,0165055
2037,4253;0,016561
2038,3895;0,0164175
2039,3538;0,0161464
2040,3180;0,0158484
2041,2822;0,0156253
2042,2465;0,0155531
2043,2107;0,0156652
2044,1749;0,01595
2045,1392;0,0163583
2046,1034;0,0168127
2047,0676;0,017217
2048,0320;0,017475
2048,9961;0,017519
2049,9604;0,017337
2050,9246;0,0169824
2051,8889;0,0165605
2052,8530;0,0161986
2053,8174;0,0160067
2054,7815;0,0160381
2055,7458;0,0162672
2056,7100;0,016601
2057,6743;0,0169226
2058,6384;0,0171443
2059,6028;0,017239
2060,5669;0,0172372
2061,5313;0,017197
2062,4954;0,0171678
2063,4597;0,0171681
2064,4238;0,017185
2065,3882;0,0171925
2066,3523;0,0171731
2067,3167;0,0171311
2068,2808;0,017089
2069,2451;0,0170739
2070,2092;0,017102
2071,1736;0,0171692
2072,1377;0,0172538
2073,1021;0,0173287
2074,0662;0,017376
2075,0305;0,0173956
2075,9946;0,0174013
2076,9590;0,0174077
2077,9231;0,0174175
2078,8875;0,017419
2079,8516;0,0173965
2080,8159;0,0173472
2081,7800;0,0172904
2082,7444;0,0172605
2083,7085;0,0172866
2084,6729;0,0173716
2085,6370;0,0174859
2086,6013;0,0175826
2087,5654;0,0176238
2088,5298;0,0176021
2089,4939;0,0175427
2090,4583;0,017485
2091,4224;0,0174589
2092,3867;0,0174696
2093,3508;0,0175019
2094,3152;0,0175353
2095,2793;0,0175588
2096,2437;0,0175749
2097,2078;0,0175913
2098,1721;0,0176115
2099,1362;0,0176312
2100,1006;0,0176424
2101,0647;0,0176407
2102,0291;0,017623
2102,9932;0,0175881
2103,9575;0,0175357
2104,9216;0,0174712
2105,8860;0,0174124
2106,8501;0,0173896
2107,8145;0,0174354
2108,7786;0,0175656
2109,7429;0,0177632
2110,7070;0,0179765
2111,6714;0,0181365
2112,6355;0,0181847
2113,5999;0,0181005
2114,5640;0,0179116
2115,5283;0,0176849
2116,4924;0,0175004
2117,4568;0,0174199
2118,4209;0,0174654
2119,3853;0,0176129
2120,3494;0,0178062
2121,3137;0,0179813
2122,2778;0,0180913
2123,2422;0,0181207
2124,2063;0,0180848
2125,1707;0,018018
2126,1348;0,0179568
2127,0991;0,0179271
2128,0632;0,0179377
2129,0276;0,017981
2129,9917;0,0180378
2130,9561;0,0180852
2131,9202;0,0181046
2132,8845;0,0180882
2133,8486;0,0180413
2134,8130;0,0179769
2135,7771;0,0179073
2136,7415;0,0178365
2137,7056;0,0177624
2138,6699;0,0176864
2139,6340;0,0176236
2140,5984;0,0176012
2141,5625;0,0176438
2142,5269;0,017752
2143,4910;0,0178903
2144,4553;0,017995
2145,4194;0,0180011
2146,3838;0,0178747
2147,3479;0,0176304
2148,3123;0,0173254
2149,2764;0,0170353
2150,2407;0,0168281
2151,2048;0,0167468
2152,1692;0,0168054
2153,1333;0,0169897
2154,0977;0,0172608
2155,0618;0,0175617
2156,0261;0,0178311
2156,9902;0,0180242
2157,9546;0,0181325
2158,9187;0,0181826
2159,8831;0,018209
2160,8472;0,0182245
2161,8115;0,0182185
2162,7756;0,0181787
2163,7400;0,0181088
2164,7041;0,018025
2165,6685;0,0179394
2166,6326;0,0178498
2167,5969;0,0177467
2168,5610;0,0176332
2169,5254;0,0175369
2170,4895;0,0174992
2171,4539;0,0175472
2172,4180;0,017669
2173,3823;0,0178133
2174,3464;0,0179166
2175,3108;0,0179404
2176,2749;0,0178892
2177,2393;0,0177983
2178,2034;0,0177045
2179,1677;0,0176257
2180,1318;0,0175635
2181,0962;0,0175211
2182,0603;0,0175171
2183,0247;0,0175777
2183,9888;0,0177144
2184,9531;0,017906
2185,9172;0,0181028
2186,8816;0,0182517
2187,8457;0,0183248
2188,8101;0,0183341
2189,7742;0,0183195
2190,7385;0,0183202
2191,7026;0,018346
2192,6670;0,0183689
2193,6311;0,0183412
2194,5955;0,0182316
2195,5596;0,0180546
2196,5239;0,0178726
2197,4880;0,0177655
2198,4524;0,017786
2199,4165;0,0179293
2200,3809;0,0181365
2201,3450;0,0183294
2202,3093;0,0184512
2203,2734;0,0184868
2204,2378;0,0184527
2205,2019;0,0183714
2206,1663;0,0182542
2207,1304;0,0181051
2208,0947;0,0179386
2209,0588;0,0177903
2210,0232;0,0177064
2210,9873;0,0177174
2211,9517;0,0178161
2212,9158;0,0179581
2213,8801;0,0180867
2214,8442;0,0181651
2215,8086;0,0181952
2216,7727;0,0182108
2217,7371;0,0182528
2218,7012;0,0183414
2219,6655;0,0184627
2220,6296;0,0185738
2221,5940;0,0186238
2222,5581;0,0185784
2223,5225;0,0184387
2224,4866;0,0182449
2225,4509;0,0180624
2226,4150;0,0179541
2227,3794;0,0179514
2228,3435;0,0180375
2229,3079;0,0181543
2230,2720;0,0182317
2231,2363;0,0182237
2232,2004;0,0181322
2233,1648;0,0180043
2234,1289;0,0179046
2235,0933;0,0178792
2236,0574;0,0179332
2237,0217;0,0180327
2237,9858;0,01813
2238,9502;0,0181916
2239,9143;0,0182134
2240,8787;0,0182144
2241,8428;0,0182171
2242,8071;0,0182301
2243,7712;0,0182458
2244,7356;0,0182512
2245,6997;0,0182424
2246,6641;0,0182303
2247,6282;0,0182342
2248,5925;0,0182692
2249,5566;0,0183371
2250,5210;0,0184255
2251,4851;0,0185135
2252,4495;0,018579
2253,4136;0,0186042
2254,3779;0,0185794
2255,3420;0,0185067
2256,3064;0,0184016
2257,2705;0,0182901
2258,2349;0,0181993
2259,1990;0,0181457
2260,1633;0,0181282
2261,1274;0,0181306
2262,0918;0,0181329
2263,0559;0,0181241
2264,0203;0,0181079
2264,9844;0,0180992
2265,9487;0,0181129
2266,9128;0,0181543
2267,8772;0,0182153
2268,8413;0,0182784
2269,8057;0,0183243
2270,7698;0,0183397
2271,7341;0,0183222
2272,6982;0,0182817
2273,6626;0,0182376
2274,6267;0,0182129
2275,5911;0,0182254
2276,5552;0,0182809
2277,5195;0,0183708
2278,4836;0,0184772
2279,4480;0,0185814
2280,4121;0,0186721
2281,3765;0,0187471
2282,3406;0,0188092
2283,3049;0,0188594
2284,2690;0,0188935
2285,2334;0,0189048
2286,1975;0,0188914
2287,1619;0,0188625
2288,1260;0,0188382
2289,0903;0,018842
2290,0544;0,0188903
2291,0188;0,0189847
2291,9829;0,0191125
2292,9473;0,0192537
2293,9114;0,0193908
2294,8757;0,0195139
2295,8398;0,0196214
2296,8042;0,019716
2297,7683;0,0198011
2298,7327;0,01988
2299,6968;0,0199572
2300,6611;0,0200393
2301,6252;0,0201345
2302,5896;0,020249
2303,5537;0,0203844
2304,5181;0,0205371
2305,4822;0,0206997
2306,4465;0,0208629
2307,4106;0,0210177
2308,3750;0,0211562
2309,3391;0,0212716
2310,3035;0,0213596
2311,2676;0,0214197
2312,2319;0,0214557
2313,1960;0,0214752
2314,1604;0,0214873
2315,1245;0,0215007
2316,0889;0,0215229
2317,0530;0,0215593
2318,0173;0,0216119
2318,9814;0,0216763
2319,9458;0,0217385
2320,9099;0,0217753
2321,8743;0,021762
2322,8384;0,0216854
2323,8027;0,0215533
2324,7668;0,0213921
2325,7312;0,0212343
2326,6953;0,0211031
2327,6597;0,0210024
2328,6238;0,0209149
2329,5881;0,0208124
2330,5522;0,0206737
2331,5166;0,0205
2332,4807;0,0203146
2333,4451;0,0201455
2334,4092;0,0200046
2335,3735;0,0198798
2336,3376;0,0197458
2337,3020;0,0195868
2338,2661;0,0194144
2339,2305;0,0192635
2340,1946;0,01917
2341,1589;0,0191503
2342,1230;0,0192013
2343,0874;0,0193134
2344,0515;0,0194755
2345,0159;0,0196702
2345,9800;0,0198822
2346,9443;0,0201114
2347,9084;0,0203647
2348,8728;0,0206356
2349,8369;0,02089
2350,8013;0,0210705
2351,7654;0,0211238
2352,7297;0,0210446
2353,6938;0,0209011
2354,6582;0,0207908
2355,6223;0,020749
2356,5867;0,0207152
2357,5508;0,0205968
2358,5151;0,0203556
2359,4792;0,0200397
2360,4436;0,0197443
2361,4077;0,0195473
2362,3721;0,0194756
2363,3362;0,0195143
2364,3005;0,019633
2365,2646;0,0198035
2366,2290;0,0200064
2367,1931;0,0202257
2368,1575;0,0204423
2369,1216;0,0206308
2370,0859;0,0207655
2371,0500;0,0208311
2372,0144;0,0208311
2372,9785;0,020787
2373,9429;0,0207275
2374,9070;0,0206743
2375,8713;0,0206333
2376,8354;0,0205942
2377,7998;0,0205396
2378,7639;0,0204554
2379,7283;0,0203381
2380,6924;0,0201962
2381,6567;0,0200454
2382,6208;0,0199028
2383,5852;0,0197815
2384,5493;0,0196893
2385,5137;0,0196283
2386,4778;0,019596
2387,4421;0,0195866
2388,4063;0,0195916
2389,3706;0,0196019
2390,3347;0,0196089
2391,2991;0,0196074
2392,2632;0,0195956
2393,2275;0,0195757
2394,1917;0,0195523
2395,1560;0,0195308
2396,1201;0,0195159
2397,0845;0,019511
2398,0486;0,0195175
2399,0129;0,0195365
2399,9771;0,0195686
2400,9414;0,0196146
2401,9055;0,0196734
2402,8699;0,0197408
2403,8340;0,019807
2404,7983;0,0198588
2405,7625;0,0198841
2406,7268;0,0198786
2407,6909;0,0198497
2408,6553;0,0198149
2409,6194;0,019793
2410,5837;0,0197949
2411,5479;0,0198177
2412,5122;0,0198478
2413,4763;0,0198707
2414,4407;0,0198807
2415,4048;0,0198848
2416,3691;0,0198979
2417,3333;0,0199327
2418,2976;0,0199904
2419,2617;0,0200594
2420,2261;0,0201205
2421,1902;0,0201578
2422,1545;0,020166
2423,1187;0,0201528
2424,0830;0,0201341
2425,0471;0,0201261
2426,0115;0,020138
2426,9756;0,0201683
2427,9399;0,0202066
2428,9041;0,02024
2429,8684;0,0202595
2430,8325;0,0202647
2431,7969;0,0202641
2432,7610;0,0202707
2433,7253;0,0202951
2434,6895;0,0203402
2435,6538;0,0203992
2436,6179;0,020458
2437,5823;0,0205017
2438,5464;0,0205206
2439,5107;0,0205152
2440,4749;0,0204957
2441,4392;0,0204778
2442,4033;0,0204752
2443,3677;0,0204932
2444,3318;0,020527
2445,2961;0,0205652
2446,2603;0,0205968
2447,2246;0,0206176
2448,1887;0,0206328
2449,1531;0,0206527
2450,1172;0,0206856
2451,0815;0,0207316
2452,0457;0,0207823
2453,0100;0,0208241
2453,9741;0,0208461
2454,9385;0,0208457
2455,9026;0,0208295
2456,8669;0,0208103
2457,8311;0,0208006
2458,7954;0,0208071
2459,7595;0,0208286
2460,7239;0,0208577
2461,6880;0,0208858
2462,6523;0,0209073
2463,6165;0,0209221
2464,5808;0,0209347
2465,5449;0,0209503
2466,5093;0,0209712
2467,4734;0,0209951
2468,4377;0,0210164
2469,4019;0,0210299
2470,3662;0,0210346
2471,3303;0,0210345
2472,2947;0,0210368
2473,2588;0,0210479
2474,2231;0,0210697
2475,1873;0,0210992
2476,1516;0,0211316
2477,1157;0,0211639
2478,0801;0,0211977
2479,0442;0,0212365
2480,0085;0,0212807
2480,9727;0,0213242
2481,9370;0,0213546
2482,9011;0,0213604
2483,8655;0,0213393
2484,8296;0,0213019
2485,7939;0,0212685
2486,7581;0,0212589
2487,7224;0,0212818
2488,6865;0,0213312
2489,6509;0,0213907
2490,6150;0,021443
2491,5793;0,0214782
2492,5435;0,0214969
2493,5078;0,0215068
2494,4719;0,021518
2495,4363;0,0215388
2496,4004;0,0215729
2497,3647;0,0216184
2498,3289;0,0216667
2499,2932;0,0217037
2500,2573;0,0217146
2501,2217;0,0216915
2502,1858;0,0216395
2503,1501;0,0215766
2504,1143;0,0215265
2505,0786;0,0215076
2506,0427;0,0215242
2507,0071;0,0215662
2507,9712;0,0216161
2508,9355;0,0216577
2509,8997;0,0216818
2510,8640;0,0216869
2511,8281;0,021677
2512,7925;0,0216591
2513,7566;0,0216423
2514,7209;0,0216365
2515,6851;0,0216489
2516,6494;0,0216797
2517,6135;0,0217202
2518,5779;0,0217559
2519,5420;0,0217742
2520,5063;0,0217711
2521,4705;0,0217542
2522,4348;0,0217381
2523,3989;0,0217361
2524,3633;0,0217533
2525,3274;0,0217843
2526,2917;0,0218174
2527,2559;0,0218408
2528,2202;0,0218488
2529,1843;0,021843
2530,1487;0,0218305
2531,1128;0,0218186
2532,0771;0,0218119
2533,0413;0,0218104
2534,0056;0,0218123
2534,9697;0,0218162
2535,9341;0,0218235
2536,8982;0,0218361
2537,8625;0,0218545
2538,8267;0,021876
2539,7910;0,0218956
2540,7551;0,0219104
2541,7195;0,0219221
2542,6836;0,0219367
2543,6479;0,0219596
2544,6121;0,0219911
2545,5764;0,0220247
2546,5405;0,0220503
2547,5049;0,02206
2548,4690;0,0220525
2549,4333;0,0220336
2550,3975;0,0220134
2551,3618;0,0220021
2552,3259;0,0220065
2553,2903;0,0220281
2554,2544;0,022063
2555,2188;0,0221025
2556,1829;0,0221357
2557,1472;0,0221542
2558,1113;0,0221551
2559,0757;0,0221428
2560,0398;0,0221264
2561,0042;0,0221144
2561,9683;0,0221102
2562,9326;0,0221122
2563,8967;0,0221164
2564,8611;0,0221208
2565,8252;0,0221274
2566,7896;0,0221412
2567,7537;0,0221661
2568,7180;0,0222026
2569,6821;0,0222453
2570,6465;0,0222857
2571,6106;0,0223148
2572,5750;0,022328
2573,5391;0,0223272
2574,5034;0,02232
2575,4675;0,0223159
2576,4319;0,0223201
2577,3960;0,0223295
2578,3604;0,0223347
2579,3245;0,0223267
2580,2888;0,0223052
2581,2529;0,0222815
2582,2173;0,022274
2583,1814;0,0222967
2584,1458;0,0223504
2585,1099;0,0224206
2586,0742;0,0224853
2587,0383;0,0225269
2588,0027;0,0225401
2588,9668;0,0225324
2589,9312;0,022517
2590,8953;0,0225042
2591,8596;0,0224978
2592,8237;0,022496
2593,7881;0,0224969
2594,7522;0,0225022
2595,7166;0,0225167
2596,6807;0,0225451
2597,6450;0,022588
2598,6091;0,0226404
2599,5735;0,0226935
2600,5376;0,0227384
2601,5020;0,0227705
2602,4661;0,0227911
2603,4304;0,0228063
2604,3945;0,0228237
2605,3589;0,0228479
2606,3230;0,0228777
2607,2874;0,0229066
2608,2515;0,0229261
2609,2158;0,0229301
2610,1799;0,022919
2611,1443;0,0229005
2612,1084;0,0228873
2613,0728;0,0228915
2614,0369;0,0229202
2615,0012;0,0229722
2615,9653;0,023038
2616,9297;0,0231035
2617,8938;0,023155
2618,8582;0,0231852
2619,8223;0,0231959
2620,7866;0,0231965
2621,7507;0,0231996
2622,7151;0,0232142
2623,6792;0,0232418
2624,6436;0,0232763
2625,6077;0,0233083
2626,5720;0,0233312
2627,5361;0,0233441
2628,5005;0,0233521
2629,4646;0,0233624
2630,4290;0,0233802
2631,3931;0,0234073
2632,3574;0,0234428
2633,3215;0,023485
2634,2859;0,0235328
2635,2500;0,0235843
2636,2144;0,023636
2637,1785;0,0236819
2638,1428;0,0237166
2639,1069;0,0237382
2640,0713;0,0237504
2641,0354;0,0237612
2641,9998;0,0237793
2642,9639;0,0238087
2643,9282;0,0238474
2644,8923;0,0238897
2645,8567;0,0239295
2646,8208;0,023965
2647,7852;0,0239981
2648,7493;0,0240319
2649,7136;0,0240673
2650,6777;0,0241016
2651,6421;0,0241308
2652,6062;0,0241536
2653,5706;0,0241728
2654,5347;0,0241946
2655,4990;0,0242242
2656,4631;0,0242625
2657,4275;0,0243047
2658,3916;0,0243442
2659,3560;0,0243764
2660,3201;0,0244019
2661,2844;0,0244257
2662,2485;0,0244533
2663,2129;0,0244867
2664,1770;0,0245229
2665,1414;0,0245562
2666,1055;0,0245817
2667,0698;0,0245986
2668,0339;0,0246108
2668,9983;0,0246245
2669,9624;0,0246445
2670,9268;0,0246724
2671,8909;0,0247061
2672,8552;0,0247417
2673,8193;0,0247753
2674,7837;0,0248052
2675,7478;0,0248316
2676,7122;0,0248562
2677,6763;0,0248816
2678,6406;0,02491
2679,6047;0,024943
2680,5691;0,0249804
2681,5332;0,0250205
2682,4976;0,0250608
2683,4617;0,0250992
2684,4260;0,0251347
2685,3901;0,025167
2686,3545;0,0251963
2687,3186;0,0252224
2688,2830;0,0252457
2689,2471;0,0252681
2690,2114;0,0252937
2691,1755;0,0253272
2692,1399;0,0253714
2693,1040;0,025424
2694,0684;0,0254779
2695,0325;0,0255245
2695,9968;0,0255584
2696,9609;0,0255804
2697,9253;0,0255965
2698,8894;0,0256144
2699,8538;0,0256386
2700,8179;0,0256696
2701,7822;0,0257046
2702,7463;0,0257408
2703,7107;0,0257776
2704,6748;0,0258156
2705,6392;0,0258553
2706,6033;0,0258962
2707,5676;0,0259366
2708,5317;0,0259758
2709,4961;0,0260136
2710,4602;0,0260509
2711,4246;0,0260876
2712,3887;0,0261229
2713,3530;0,0261561
2714,3171;0,0261877
2715,2815;0,0262197
2716,2456;0,0262546
2717,2100;0,026293
2718,1741;0,0263331
2719,1384;0,0263714
2720,1025;0,0264042
2721,0669;0,0264299
2722,0310;0,0264491
2722,9954;0,0264642
2723,9595;0,026479
2724,9238;0,0264975
2725,8879;0,0265236
2726,8523;0,02656
2727,8164;0,0266068
2728,7808;0,0266607
2729,7449;0,0267159
2730,7092;0,0267655
2731,6733;0,0268043
2732,6377;0,0268302
2733,6018;0,0268447
2734,5662;0,0268513
2735,5303;0,0268545
2736,4946;0,0268588
2737,4587;0,0268684
2738,4231;0,0268869
2739,3872;0,0269164
2740,3516;0,0269563
2741,3157;0,0270028
2742,2800;0,0270496
2743,2441;0,0270892
2744,2085;0,027116
2745,1726;0,0271289
2746,1370;0,0271319
2747,1011;0,0271332
2748,0654;0,0271416
2749,0295;0,0271636
2749,9939;0,0272002
2750,9580;0,0272479
2751,9224;0,0272998
2752,8865;0,0273497
2753,8508;0,0273939
2754,8149;0,0274324
2755,7793;0,0274677
2756,7434;0,0275022
2757,7078;0,027537
2758,6719;0,0275712
2759,6362;0,0276027
2760,6003;0,0276303
2761,5647;0,027654
2762,5288;0,0276754
2763,4932;0,0276969
2764,4573;0,0277206
2765,4216;0,0277485
2766,3857;0,0277832
2767,3501;0,0278272
2768,3142;0,0278822
2769,2786;0,0279466
2770,2427;0,0280145
2771,2070;0,0280772
2772,1711;0,0281275
2773,1355;0,0281636
2774,0996;0,0281916
2775,0640;0,028222
2776,0281;0,0282647
2776,9924;0,0283235
2777,9565;0,0283948
2778,9209;0,0284703
2779,8850;0,0285418
2780,8494;0,0286043
2781,8135;0,0286573
2782,7778;0,0287035
2783,7419;0,0287465
2784,7063;0,0287899
2785,6704;0,0288364
2786,6348;0,0288874
2787,5989;0,0289428
2788,5632;0,0290017
2789,5273;0,0290639
2790,4917;0,0291309
2791,4558;0,0292056
2792,4202;0,0292899
2793,3843;0,0293824
2794,3486;0,0294766
2795,3127;0,0295647
2796,2771;0,0296416
2797,2412;0,0297094
2798,2056;0,0297769
2799,1697;0,029855
2800,1340;0,0299505
2801,0981;0,0300618
2802,0625;0,0301805
2803,0266;0,0302965
2803,9910;0,0304035
2804,9551;0,0305016
2805,9194;0,0305961
2806,8835;0,0306931
2807,8479;0,0307964
2808,8120;0,030906
2809,7764;0,0310203
2810,7405;0,0311379
2811,7048;0,0312595
2812,6689;0,031387
2813,6333;0,0315229
2814,5974;0,0316688
2815,5618;0,0318251
2816,5259;0,0319913
2817,4902;0,0321661
2818,4543;0,0323468
2819,4187;0,0325295
2820,3828;0,0327099
2821,3472;0,0328848
2822,3113;0,0330542
2823,2756;0,0332224
2824,2397;0,0333969
2825,2041;0,0335863
2826,1682;0,0337965
2827,1326;0,0340293
2828,0967;0,0342818
2829,0610;0,0345479
2830,0251;0,0348219
2830,9895;0,0351003
2831,9536;0,0353839
2832,9180;0,0356765
2833,8821;0,0359837
2834,8464;0,03631
2835,8105;0,0366583
2836,7749;0,0370294
2837,7390;0,0374235
2838,7034;0,0378422
2839,6675;0,0382901
2840,6318;0,0387746
2841,5959;0,0393048
2842,5603;0,0398884
2843,5244;0,0405278
2844,4888;0,0412162
2845,4529;0,0419351
2846,4172;0,0426538
2847,3813;0,0433324
2848,3457;0,0439281
2849,3098;0,0444032
2850,2742;0,0447346
2851,2383;0,0449181
2852,2026;0,0449692
2853,1667;0,0449169
2854,1311;0,0447944
2855,0952;0,0446306
2856,0596;0,0444455
2857,0237;0,0442518
2857,9880;0,0440598
2858,9521;0,0438815
2859,9165;0,0437312
2860,8806;0,0436221
2861,8450;0,0435611
2862,8091;0,0435477
2863,7734;0,0435751
2864,7375;0,043636
2865,7019;0,0437245
2866,6660;0,0438365
2867,6304;0,0439657
2868,5945;0,0441012
2869,5588;0,0442287
2870,5229;0,0443349
2871,4873;0,0444136
2872,4514;0,0444681
2873,4158;0,0445086
2874,3799;0,0445464
2875,3442;0,0445887
2876,3083;0,0446371
2877,2727;0,0446893
2878,2368;0,044744
2879,2012;0,0448033
2880,1653;0,0448725
2881,1296;0,0449568
2882,0938;0,0450583
2883,0581;0,0451742
2884,0222;0,0452986
2884,9866;0,0454253
2885,9507;0,0455509
2886,9150;0,0456761
2887,8792;0,0458052
2888,8435;0,0459431
2889,8076;0,0460931
2890,7720;0,0462549
2891,7361;0,0464249
2892,7004;0,0465971
2893,6646;0,0467653
2894,6289;0,0469253
2895,5930;0,0470762
2896,5574;0,0472203
2897,5215;0,0473621
2898,4858;0,0475059
2899,4500;0,0476549
2900,4143;0,0478105
2901,3784;0,0479741
2902,3428;0,0481476
2903,3069;0,0483337
2904,2712;0,0485345
2905,2354;0,0487507
2906,1997;0,048981
2907,1638;0,0492259
2908,1282;0,0494906
2909,0923;0,0497872
2910,0566;0,0501321
2911,0208;0,0505384
2911,9851;0,0510072
2912,9492;0,0515212
2913,9136;0,0520457
2914,8777;0,0525366
2915,8420;0,0529536
2916,8062;0,0532708
2917,7705;0,053482
2918,7346;0,0535973
2919,6990;0,0536345
2920,6631;0,0536092
2921,6274;0,0535289
2922,5916;0,0533926
2923,5559;0,0531957
2924,5200;0,0529355
2925,4844;0,0526147
2926,4485;0,0522419
2927,4128;0,0518288
2928,3770;0,0513876
2929,3413;0,0509294
2930,3054;0,0504639
2931,2698;0,049999
2932,2339;0,04954
2933,1982;0,0490889
2934,1624;0,0486433
2935,1267;0,0481981
2936,0908;0,0477477
2937,0552;0,0472895
2938,0193;0,0468252
2938,9836;0,0463601
2939,9478;0,0459007
2940,9121;0,0454519
2941,8762;0,0450166
2942,8406;0,0445966
2943,8047;0,0441957
2944,7690;0,0438204
2945,7332;0,0434788
2946,6975;0,0431765
2947,6616;0,0429129
2948,6260;0,0426797
2949,5901;0,0424641
2950,5544;0,0422532
2951,5186;0,0420382
2952,4829;0,0418166
2953,4470;0,0415897
2954,4114;0,0413599
2955,3755;0,0411281
2956,3398;0,040893
2957,3040;0,0406517
2958,2683;0,0404012
2959,2324;0,0401394
2960,1968;0,0398666
2961,1609;0,0395846
2962,1252;0,0392972
2963,0894;0,0390079
2964,0537;0,0387187
2965,0178;0,0384296
2965,9822;0,038139
2966,9463;0,037846
2967,9106;0,0375513
2968,8748;0,0372573
2969,8391;0,0369667
2970,8032;0,0366815
2971,7676;0,0364032
2972,7317;0,0361344
2973,6960;0,0358796
2974,6602;0,0356432
2975,6245;0,0354263
2976,5886;0,0352249
2977,5530;0,0350311
2978,5171;0,0348378
2979,4814;0,0346436
2980,4456;0,0344549
2981,4099;0,0342822
2982,3740;0,0341347
2983,3384;0,034015
2984,3025;0,0339192
2985,2668;0,0338392
2986,2310;0,0337676
2987,1953;0,0336993
2988,1594;0,033632
2989,1238;0,033565
2990,0879;0,0334989
2991,0522;0,0334361
2992,0164;0,0333809
2992,9807;0,0333385
2993,9448;0,033313
2994,9092;0,0333054
2995,8733;0,0333137
2996,8376;0,0333334
2997,8018;0,0333604
2998,7661;0,0333911
2999,7302;0,0334233
3000,6946;0,0334556
3001,6587;0,0334878
3002,6230;0,0335209
3003,5872;0,0335567
3004,5515;0,0335954
3005,5156;0,0336347
3006,4800;0,0336691
3007,4441;0,0336922
3008,4084;0,0337007
3009,3726;0,0336974
3010,3369;0,0336907
3011,3010;0,0336908
3012,2654;0,0337045
3013,2295;0,0337312
3014,1938;0,0337639
3015,1580;0,0337937
3016,1223;0,0338161
3017,0864;0,0338339
3018,0508;0,0338559
3019,0149;0,0338912
3019,9792;0,033944
3020,9434;0,0340108
3021,9077;0,0340832
3022,8718;0,0341526
3023,8362;0,0342152
3024,8003;0,034273
3025,7646;0,0343311
3026,7288;0,0343936
3027,6931;0,0344606
3028,6572;0,0345289
3029,6216;0,0345944
3030,5857;0,0346559
3031,5500;0,0347151
3032,5142;0,0347766
3033,4785;0,0348446
3034,4426;0,0349222
3035,4070;0,0350102
3036,3711;0,0351078
3037,3354;0,0352126
3038,2996;0,0353211
3039,2639;0,0354287
3040,2280;0,035532
3041,1924;0,0356304
3042,1565;0,0357264
3043,1208;0,0358248
3044,0850;0,0359301
3045,0493;0,0360438
3046,0134;0,0361641
3046,9778;0,0362879
3047,9419;0,036413
3048,9063;0,0365392
3049,8704;0,0366668
3050,8347;0,0367948
3051,7988;0,0369193
3052,7632;0,0370355
3053,7273;0,0371408
3054,6917;0,0372382
3055,6558;0,0373363
3056,6201;0,0374451
3057,5842;0,0375713
3058,5486;0,037714
3059,5127;0,0378653
3060,4771;0,0380143
3061,4412;0,038152
3062,4055;0,038275
3063,3696;0,0383863
3064,3340;0,0384935
3065,2981;0,0386053
3066,2625;0,0387274
3067,2266;0,0388608
3068,1909;0,039002
3069,1550;0,0391462
3070,1194;0,0392907
3071,0835;0,0394368
3072,0479;0,0395877
3073,0120;0,0397441
3073,9763;0,0399009
3074,9404;0,0400472
3075,9048;0,0401731
3076,8689;0,0402766
3077,8333;0,0403676
3078,7974;0,0404638
3079,7617;0,0405813
3080,7258;0,0407252
3081,6902;0,0408871
3082,6543;0,0410508
3083,6187;0,0412023
3084,5828;0,0413367
3085,5471;0,0414588
3086,5112;0,0415782
3087,4756;0,041703
3088,4397;0,0418361
3089,4041;0,041975
3090,3682;0,0421148
3091,3325;0,0422519
3092,2966;0,0423864
3093,2610;0,0425227
3094,2251;0,042668
3095,1895;0,0428277
3096,1536;0,0430004
3097,1179;0,0431758
3098,0820;0,0433384
3099,0464;0,0434759
3100,0105;0,0435885
3100,9749;0,0436914
3101,9390;0,0438083
3102,9033;0,0439575
3103,8674;0,0441412
3104,8318;0,0443448
3105,7959;0,0445469
3106,7603;0,0447324
3107,7244;0,0449006
3108,6887;0,0450614
3109,6528;0,0452248
3110,6172;0,0453915
3111,5813;0,0455521
3112,5457;0,0456957
3113,5098;0,0458203
3114,4741;0,0459358
3115,4382;0,0460589
3116,4026;0,0462012
3117,3667;0,0463624
3118,3311;0,0465316
3119,2952;0,0466962
3120,2595;0,0468512
3121,2236;0,0470014
3122,1880;0,0471566
3123,1521;0,0473243
3124,1165;0,0475053
3125,0806;0,0476947
3126,0449;0,047886
3127,0090;0,048074
3127,9734;0,0482554
3128,9375;0,0484272
3129,9019;0,0485867
3130,8660;0,0487335
3131,8303;0,0488715
3132,7944;0,0490091
3133,7588;0,0491562
3134,7229;0,0493191
3135,6873;0,0494979
3136,6514;0,0496867
3137,6157;0,0498775
3138,5798;0,0500639
3139,5442;0,0502436
3140,5083;0,0504175
3141,4727;0,0505886
3142,4368;0,0507593
3143,4011;0,0509301
3144,3652;0,0511001
3145,3296;0,0512672
3146,2937;0,051431
3147,2581;0,0515937
3148,2222;0,0517605
3149,1865;0,0519373
3150,1506;0,0521267
3151,1150;0,0523261
3152,0791;0,0525274
3153,0435;0,052721
3154,0076;0,0529008
3154,9719;0,0530673
3155,9360;0,0532271
3156,9004;0,0533891
3157,8645;0,0535597
3158,8289;0,0537404
3159,7930;0,0539277
3160,7573;0,0541161
3161,7214;0,0543007
3162,6858;0,0544793
3163,6499;0,0546527
3164,6143;0,0548232
3165,5784;0,0549933
3166,5427;0,0551642
3167,5068;0,0553373
3168,4712;0,0555147
3169,4353;0,0556929
3170,3997;0,0558892
3171,3638;0,0560963
3172,3281;0,0563084
3173,2922;0,0565138
3174,2566;0,0567004
3175,2207;0,0568625
3176,1851;0,057005
3177,1492;0,0571429
3178,1135;0,0572936
3179,0776;0,0574674
3180,0420;0,0576612
3181,0061;0,0578614
3181,9705;0,0580513
3182,9346;0,058221
3183,8989;0,0583715
3184,8630;0,0585131
3185,8274;0,0586586
3186,7915;0,058817
3187,7559;0,0589902
3188,7200;0,0591742
3189,6843;0,0593622
3190,6484;0,0595469
3191,6128;0,0597224
3192,5769;0,0598857
3193,5413;0,0600375
3194,5054;0,0601832
3195,4697;0,0603309
3196,4338;0,0604878
3197,3982;0,0606554
3198,3623;0,0608281
3199,3267;0,0609967
3200,2908;0,0611549
3201,2551;0,0613039
3202,2192;0,0614517
3203,1836;0,0616083
3204,1477;0,0617789
3205,1121;0,0619604
3206,0762;0,062144
3207,0405;0,0623202
3208,0046;0,062484
3208,9690;0,0626356
3209,9331;0,0627785
3210,8975;0,0629167
3211,8616;0,0630528
3212,8259;0,0631892
3213,7900;0,0633288
3214,7544;0,0634746
3215,7185;0,0636285
3216,6829;0,0637906
3217,6470;0,0639593
3218,6113;0,0641323
3219,5754;0,0643076
3220,5398;0,0644825
3221,5039;0,0646535
3222,4683;0,0648162
3223,4324;0,0649676
3224,3967;0,0651081
3225,3608;0,0652426
3226,3252;0,0653779
3227,2893;0,0655199
3228,2537;0,06567
3229,2178;0,0658252
3230,1821;0,0659802
3231,1462;0,0661295
3232,1106;0,0662698
3233,0747;0,0663995
3234,0391;0,0665196
3235,0032;0,0666341
3235,9675;0,0667505
3236,9316;0,0668785
3237,8960;0,067026
3238,8601;0,0671944
3239,8245;0,0673761
3240,7886;0,0675569
3241,7529;0,0677214
3242,7170;0,0678607
3243,6814;0,0679756
3244,6455;0,0680757
3245,6099;0,0681755
3246,5740;0,0682875
3247,5383;0,0684187
3248,5024;0,0685691
3249,4668;0,0687332
3250,4309;0,0689013
3251,3953;0,0690635
3252,3594;0,0692127
3253,3237;0,0693482
3254,2878;0,069476
3255,2522;0,0696061
3256,2163;0,0697466
3257,1807;0,0698987
3258,1448;0,0700566
3259,1091;0,0702109
3260,0732;0,0703553
3261,0376;0,0704899
3262,0017;0,0706217
3262,9661;0,0707594
3263,9302;0,0709092
3264,8945;0,0710713
3265,8586;0,0712409
3266,8230;0,0714105
3267,7871;0,0715721
3268,7515;0,0717177
3269,7156;0,0718399
3270,6799;0,0719337
3271,6440;0,0719989
3272,6084;0,0720426
3273,5725;0,0720788
3274,5369;0,0721235
3275,5010;0,0721879
3276,4653;0,0722744
3277,4294;0,0723764
3278,3938;0,0724831
3279,3579;0,0725853
3280,3223;0,0726782
3281,2864;0,0727611
3282,2507;0,0728349
3283,2148;0,0728997
3284,1792;0,0729554
3285,1433;0,0730027
3286,1077;0,0730451
3287,0718;0,0730877
3288,0361;0,0731346
3289,0002;0,0731863
3289,9646;0,0732397
3290,9287;0,0732902
3291,8931;0,0733346
3292,8572;0,0733732
3293,8215;0,0734091
3294,7856;0,0734461
3295,7500;0,0734873
3296,7141;0,073533
3297,6785;0,0735818
3298,6426;0,0736314
3299,6069;0,0736795
3300,5710;0,0737248
3301,5354;0,0737667
3302,4995;0,0738045
3303,4639;0,073837
3304,4280;0,073862
3305,3923;0,0738775
3306,3564;0,0738831
3307,3208;0,0738819
3308,2849;0,0738805
3309,2493;0,0738875
3310,2134;0,0739109
3311,1777;0,0739556
3312,1418;0,0740225
3313,1062;0,0741079
3314,0703;0,0742039
3315,0347;0,0743008
3315,9988;0,0743893
3316,9631;0,0744644
3317,9272;0,0745281
3318,8916;0,0745884
3319,8557;0,0746561
3320,8201;0,0747387
3321,7842;0,0748367
3322,7485;0,0749437
3323,7126;0,0750501
3324,6770;0,0751484
3325,6411;0,0752361
3326,6055;0,0753162
3327,5696;0,0753939
3328,5339;0,075474
3329,4980;0,0755586
3330,4624;0,0756459
3331,4265;0,0757306
3332,3909;0,0758048
3333,3550;0,0758602
3334,3193;0,0758916
3335,2834;0,0758984
3336,2478;0,0758856
3337,2119;0,0758597
3338,1763;0,0758256
3339,1404;0,0757845
3340,1047;0,0757349
3341,0688;0,0756757
3342,0332;0,0756077
3342,9973;0,0755334
3343,9617;0,0754543
3344,9258;0,0753694
3345,8901;0,0752766
3346,8542;0,0751753
3347,8186;0,0750683
3348,7827;0,0749605
3349,7471;0,0748545
3350,7112;0,0747478
3351,6755;0,0746341
3352,6396;0,0745074
3353,6040;0,074368
3354,5681;0,0742226
3355,5325;0,0740811
3356,4966;0,0739503
3357,4609;0,0738305
3358,4250;0,0737178
3359,3894;0,0736086
3360,3535;0,0735034
3361,3179;0,073405
3362,2820;0,073314
3363,2463;0,0732242
3364,2104;0,0731254
3365,1748;0,0730088
3366,1389;0,0728735
3367,1033;0,0727269
3368,0674;0,0725794
3369,0317;0,0724369
3369,9958;0,0722979
3370,9602;0,0721567
3371,9243;0,07201
3372,8887;0,0718604
3373,8528;0,071715
3374,8171;0,0715799
3375,7813;0,071456
3376,7456;0,0713394
3377,7097;0,0712247
3378,6741;0,0711075
3379,6382;0,070984
3380,6025;0,0708488
3381,5667;0,070695
3382,5310;0,0705186
3383,4951;0,070325
3384,4595;0,0701315
3385,4236;0,0699612
3386,3879;0,0698298
3387,3521;0,0697363
3388,3164;0,0696615
3389,2805;0,069578
3390,2449;0,0694642
3391,2090;0,0693147
3392,1733;0,0691409
3393,1375;0,0689617
3394,1018;0,0687927
3395,0659;0,0686396
3396,0303;0,0684988
3396,9944;0,0683625
3397,9587;0,0682233
3398,9229;0,0680752
3399,8872;0,0679137
3400,8513;0,0677356
3401,8157;0,0675413
3402,7798;0,0673363
3403,7441;0,0671314
3404,7083;0,0669382
3405,6726;0,0667644
3406,6367;0,0666101
3407,6011;0,0664672
3408,5652;0,0663222
3409,5295;0,0661623
3410,4937;0,06598
3411,4580;0,0657777
3412,4221;0,0655672
3413,3865;0,0653643
3414,3506;0,0651799
3415,3149;0,0650124
3416,2791;0,0648461
3417,2434;0,0646585
3418,2075;0,0644335
3419,1719;0,0641723
3420,1360;0,063896
3421,1003;0,063635
3422,0645;0,0634127
3423,0288;0,0632322
3423,9929;0,0630764
3424,9573;0,0629182
3425,9214;0,0627335
3426,8857;0,0625116
3427,8499;0,0622566
3428,8142;0,0619837
3429,7783;0,0617102
3430,7427;0,0614495
3431,7068;0,061208
3432,6711;0,0609864
3433,6353;0,0607835
3434,5996;0,0605965
3435,5637;0,0604197
3436,5281;0,0602432
3437,4922;0,0600536
3438,4565;0,0598407
3439,4207;0,0596031
3440,3850;0,0593503
3441,3491;0,0590959
3442,3135;0,0588462
3443,2776;0,0585943
3444,2419;0,0583245
3445,2061;0,0580274
3446,1704;0,0577126
3447,1345;0,057409
3448,0989;0,0571474
3449,0630;0,056939
3450,0273;0,0567674
3450,9915;0,0565998
3451,9558;0,056407
3452,9199;0,0561784
3453,8843;0,0559247
3454,8484;0,0556665
3455,8127;0,0554189
3456,7769;0,0551823
3457,7412;0,0549448
3458,7053;0,0546937
3459,6697;0,0544251
3460,6338;0,0541466
3461,5981;0,053872
3462,5623;0,0536113
3463,5266;0,0533644
3464,4907;0,0531218
3465,4551;0,0528721
3466,4192;0,0526104
3467,3835;0,0523424
3468,3477;0,0520804
3469,3120;0,0518336
3470,2761;0,0515997
3471,2405;0,0513657
3472,2046;0,0511172
3473,1689;0,0508522
3474,1331;0,0505851
3475,0974;0,0503386
3476,0615;0,0501253
3477,0259;0,0499356
3477,9900;0,0497411
3478,9543;0,0495117
3479,9185;0,0492372
3480,8828;0,0489359
3481,8469;0,0486433
3482,8113;0,0483863
3483,7754;0,048165
3484,7397;0,0479541
3485,7039;0,0477227
3486,6682;0,0474557
3487,6323;0,0471641
3488,5967;0,0468774
3489,5608;0,0466235
3490,5251;0,0464092
3491,4893;0,0462157
3492,4536;0,0460104
3493,4177;0,0457681
3494,3821;0,0454898
3495,3462;0,0452069
3496,3105;0,0449638
3497,2747;0,0447872
3498,2390;0,0446631
3499,2031;0,0445385
3500,1675;0,0443476
3501,1316;0,0440508
3502,0959;0,0436658
3503,0601;0,0432644
3504,0244;0,0429273
3504,9885;0,042691
3505,9529;0,0425302
3506,9170;0,0423827
3507,8813;0,0421914
3508,8455;0,0419368
3509,8098;0,0416439
3510,7739;0,0413587
3511,7383;0,0411128
3512,7024;0,0409053
3513,6667;0,0407131
3514,6309;0,0405148
3515,5952;0,0403081
3516,5593;0,0401095
3517,5237;0,0399387
3518,4878;0,0398002
3519,4521;0,0396767
3520,4163;0,039537
3521,3806;0,0393529
3522,3447;0,0391124
3523,3091;0,0388221
3524,2732;0,0384974
3525,2375;0,0381522
3526,2017;0,0377965
3527,1660;0,0374453
3528,1301;0,0371245
3529,0945;0,0368652
3530,0586;0,0366856
3531,0229;0,0365768
3531,9871;0,0365021
3532,9514;0,0364117
3533,9155;0,0362625
3534,8799;0,036037
3535,8440;0,0357521
3536,8083;0,0354525
3537,7725;0,0351891
3538,7368;0,0349961
3539,7009;0,0348767
3540,6653;0,0348034
3541,6294;0,0347255
3542,5938;0,0345832
3543,5579;0,0343327
3544,5222;0,0339733
3545,4863;0,0335592
3546,4507;0,0331708
3547,4148;0,0328645
3548,3792;0,0326434
3549,3433;0,0324672
3550,3076;0,0322835
3551,2717;0,0320603
3552,2361;0,0318051
3553,2002;0,0315574
3554,1646;0,0313562
3555,1287;0,0312099
3556,0930;0,0310913
3557,0571;0,0309591
3558,0215;0,0307896
3558,9856;0,030599
3559,9500;0,0304397
3560,9141;0,0303632
3561,8784;0,030374
3562,8425;0,0304027
3563,8069;0,0303154
3564,7710;0,0299672
3565,7354;0,0293104
3566,6995;0,0284917
3567,6638;0,0277865
3568,6279;0,0273819
3569,5923;0,0272682
3570,5564;0,0273176
3571,5208;0,0273921
3572,4849;0,0273978
3573,4492;0,0273008
3574,4133;0,0271206
3575,3777;0,0269024
3576,3418;0,0266808
3577,3062;0,0264636
3578,2703;0,0262482
3579,2346;0,0260498
3580,1987;0,0259098
3581,1631;0,0258703
3582,1272;0,0259336
3583,0916;0,0260355
3584,0557;0,0260495
3585,0200;0,0258307
3585,9841;0,0253126
3586,9485;0,0246083
3587,9126;0,0239736
3588,8770;0,0236062
3589,8411;0,0235144
3590,8054;0,0235725
3591,7695;0,0236276
3592,7339;0,0235694
3593,6980;0,0233669
3594,6624;0,0230721
3595,6265;0,0227695
3596,5908;0,0225034
3597,5549;0,0222553
3598,5193;0,0219873
3599,4834;0,0217021
3600,4478;0,0214622
3601,4119;0,0213456
3602,3762;0,0213803
3603,3403;0,0215172
3604,3047;0,0216552
3605,2688;0,0216905
3606,2332;0,0215658
3607,1973;0,0213025
3608,1616;0,020984
3609,1257;0,0206903
3610,0901;0,0204445
3611,0542;0,020227
3612,0186;0,0200243
3612,9827;0,0198543
3613,9470;0,0197442
3614,9111;0,019686
3615,8755;0,0196118
3616,8396;0,0194169
3617,8040;0,0190298
3618,7681;0,0184964
3619,7324;0,0179924
3620,6965;0,017713
3621,6609;0,0177451
3622,6250;0,0180502
3623,5894;0,0185159
3624,5535;0,018986
3625,5178;0,0192574
3626,4819;0,0191046
3627,4463;0,0184158
3628,4104;0,0173971
3629,3748;0,0165053
3630,3389;0,0160374
3631,3032;0,015951
3632,2673;0,0160526
3633,2317;0,0161762
3634,1958;0,0162348
3635,1602;0,0162151
3636,1243;0,0161502
3637,0886;0,0160813
3638,0527;0,0160294
3639,0171;0,0159952
3639,9812;0,0159813
3640,9456;0,0160107
3641,9097;0,0161221
3642,8740;0,0163417
3643,8381;0,0166474
3644,8025;0,0169354
3645,7666;0,0169999
3646,7310;0,016567
3647,6951;0,0155003
3648,6594;0,0141321
3649,6235;0,0131375
3650,5879;0,0128483
3651,5520;0,0130811
3652,5164;0,0135134
3653,4805;0,0138979
3654,4448;0,0140844
3655,4089;0,0140289
3656,3733;0,0138112
3657,3374;0,0135833
3658,3018;0,0134543
3659,2659;0,0134287
3660,2302;0,0134469
3661,1943;0,0134614
3662,1587;0,0134823
3663,1228;0,0135656
3664,0872;0,0137568
3665,0513;0,0140318
3666,0156;0,0142785
3666,9797;0,0143342
3667,9441;0,0140884
3668,9082;0,0136184
3669,8726;0,0131935
3670,8367;0,0130432
3671,8010;0,0131476
3672,7651;0,0132748
3673,7295;0,0131465
3674,6936;0,0126331
3675,6580;0,0119086
3676,6221;0,0113336
3677,5864;0,0111173
3678,5505;0,0112107
3679,5149;0,011464
3680,4790;0,011763
3681,4434;0,0120654
3682,4075;0,0123845
3683,3718;0,012746
3684,3359;0,0131382
3685,3003;0,0134745
3686,2644;0,013591
3687,2288;0,0133078
3688,1929;0,012588
3689,1572;0,0116822
3690,1213;0,0109907
3691,0857;0,0107243
3692,0498;0,0108203
3693,0142;0,0111146
3693,9783;0,0114774
3694,9426;0,0118417
3695,9067;0,012181
3696,8711;0,0124764
3697,8352;0,0126899
3698,7996;0,0127614
3699,7637;0,0126405
3700,7280;0,0123428
3701,6921;0,011982
3702,6565;0,0117236
3703,6206;0,0116855
3704,5850;0,0118819
3705,5491;0,0122396
3706,5134;0,0126344
3707,4775;0,0129114
3708,4419;0,0129115
3709,4060;0,012547
3710,3704;0,0119188
3711,3345;0,0113166
3712,2988;0,0109997
3713,2629;0,0110185
3714,2273;0,0112732
3715,1914;0,0116378
3716,1558;0,0120097
3717,1199;0,0123132
3718,0842;0,0125025
3719,0483;0,0125713
3720,0127;0,01255
3720,9768;0,0124797
3721,9412;0,0123797
3722,9053;0,0122418
3723,8696;0,0120607
3724,8337;0,0118701
3725,7981;0,0117423
3726,7622;0,0117486
3727,7266;0,0119196
3728,6907;0,0122355
3729,6550;0,0126373
3730,6191;0,0130338
3731,5835;0,0133024
3732,5476;0,0133023
3733,5120;0,0129382
3734,4761;0,0122751
3735,4404;0,0115749
3736,4045;0,0111327
3737,3689;0,01109
3738,3330;0,0114252
3739,2974;0,0120307
3740,2615;0,0127484
3741,2258;0,0133673
3742,1899;0,0136489
3743,1543;0,0134591
3744,1184;0,0129514
3745,0828;0,0125068
3746,0469;0,0123809
3747,0112;0,0125153
3747,9753;0,0126473
3748,9397;0,0124888
3749,9038;0,0119313
3750,8682;0,0112167
3751,8323;0,0107616
3752,7966;0,0107502
3753,7607;0,0110673
3754,7251;0,0115
3755,6892;0,0118589
3756,6536;0,012015
3757,6177;0,0119396
3758,5820;0,0117323
3759,5461;0,0115626
3760,5105;0,0115483
3761,4746;0,0116951
3762,4390;0,0119318
3763,4031;0,0121683
3764,3674;0,0123333
3765,3315;0,0123877
3766,2959;0,0123233
3767,2600;0,0121529
3768,2244;0,0119058
3769,1885;0,0116358
3770,1528;0,0114223
3771,1169;0,0113454
3772,0813;0,0114455
3773,0454;0,011703
3774,0098;0,0120471
3774,9739;0,0123769
3775,9382;0,0125855
3776,9023;0,0125997
3777,8667;0,0124275
3778,8308;0,0121693
3779,7952;0,0119528
3780,7593;0,0118449
3781,7236;0,0118286
3782,6877;0,011845
3783,6521;0,0118448
3784,6162;0,0118137
3785,5806;0,0117709
3786,5447;0,0117496
3787,5090;0,0117779
3788,4731;0,0118701
3789,4375;0,0120245
3790,4016;0,0122216
3791,3660;0,0124223
3792,3301;0,0125764
3793,2944;0,0126457
3794,2585;0,0126339
3795,2229;0,0125942
3796,1870;0,0125912
3797,1514;0,0126381
3798,1155;0,012664
3799,0798;0,0125535
3800,0439;0,0122537
3801,0083;0,011864
3801,9724;0,0115816
3802,9368;0,0115246
3803,9009;0,0116401
3804,8652;0,0117723
3805,8293;0,0117852
3806,7937;0,0116657
3807,7578;0,0115414
3808,7222;0,0115755
3809,6863;0,0118366
3810,6506;0,0122704
3811,6147;0,0127442
3812,5791;0,0130976
3813,5432;0,0132053
3814,5076;0,0130598
3815,4717;0,0128
3816,4360;0,0125964
3817,4001;0,0124927
3818,3645;0,0123878
3819,3286;0,0121594
3820,2930;0,0118042
3821,2571;0,0114645
3822,2214;0,0112966
3823,1855;0,0113393
3824,1499;0,0115274
3825,1140;0,0117716
3826,0784;0,0120074
3827,0425;0,0122036
3828,0068;0,0123545
3828,9709;0,0124659
3829,9353;0,012547
3830,8994;0,0126124
3831,8638;0,0126842
3832,8279;0,0127806
3833,7922;0,0128926
3834,7563;0,0129677
3835,7207;0,0129255
3836,6848;0,0127135
3837,6492;0,0123711
3838,6133;0,0120259
3839,5776;0,011799
3840,5417;0,0117182
3841,5061;0,0117279
3842,4702;0,0117593
3843,4346;0,0117867
3844,3987;0,011843
3845,3630;0,0119988
3846,3271;0,0123219
3847,2915;0,0128429
3848,2556;0,0135311
3849,2200;0,0142676
3850,1841;0,0148108
3851,1484;0,0148108
3852,1125;0,0140249
3853,0769;0,0127277
3854,0410;0,0116276
3855,0054;0,0111319
3855,9695;0,0111614
3856,9338;0,0115091
3857,8979;0,0120153
3858,8623;0,0125535
3859,8264;0,0129988
3860,7908;0,0132386
3861,7549;0,013226
3862,7192;0,0130352
3863,6833;0,0128351
3864,6477;0,0127722
3865,6118;0,012875
3866,5762;0,0130608
3867,5403;0,0131991
3868,5046;0,013177
3869,4688;0,0129547
3870,4331;0,0125927
3871,3972;0,0122226
3872,3616;0,0119739
3873,3257;0,0119181
3874,2900;0,0120582
3875,2542;0,0123448
3876,2185;0,0126941
3877,1826;0,0130058
3878,1470;0,0131936
3879,1111;0,013224
3880,0754;0,0131378
3881,0396;0,013016
3882,0039;0,01291
3882,9680;0,0128118
3883,9324;0,0126964
3884,8965;0,0125819
3885,8608;0,0125343
3886,8250;0,0126066
3887,7893;0,0127749
3888,7534;0,0129355
3889,7178;0,0129603
3890,6819;0,0127911
3891,6462;0,012513
3892,6104;0,0123125
3893,5747;0,0123336
3894,5388;0,0125907
3895,5032;0,0129974
3896,4673;0,0134306
3897,4316;0,013779
3898,3958;0,0139771
3899,3601;0,0140142
3900,3242;0,0139038
3901,2886;0,0136452
3902,2527;0,0132376
3903,2170;0,0127357
3904,1812;0,0122617
3905,1455;0,0119396
3906,1096;0,0118221
3907,0740;0,0118819
3908,0381;0,0120509
3909,0024;0,0122622
3909,9666;0,0124752
3910,9309;0,012681
3911,8950;0,0128878
3912,8594;0,0130947
3913,8235;0,0132723
3914,7878;0,0133671
3915,7520;0,0133349
3916,7163;0,0131828
3917,6804;0,0129815
3918,6448;0,012823
3919,6089;0,0127582
3920,5732;0,0127725
3921,5374;0,012807
3922,5017;0,0128034
3923,4658;0,0127449
3924,4302;0,0126712
3925,3943;0,0126491
3926,3586;0,01272
3927,3228;0,0128686
3928,2871;0,0130292
3929,2512;0,0131187
3930,2156;0,0130791
3931,1797;0,0129152
3932,1440;0,0126954
3933,1082;0,0125098
3934,0725;0,01242
3935,0366;0,0124417
3936,0010;0,0125559
3936,9651;0,0127254
3937,9294;0,012905
3938,8936;0,0130492
3939,8579;0,013124
3940,8220;0,0131217
3941,7864;0,0130698
3942,7505;0,0130182
3943,7148;0,0130074
3944,6790;0,0130409
3945,6433;0,0130838
3946,6074;0,0130852
3947,5718;0,0130116
3948,5359;0,0128721
3949,5002;0,0127179
3950,4644;0,0126103
3951,4287;0,0125838
3952,3928;0,0126316
3953,3572;0,0127198
3954,3213;0,0128109
3955,2856;0,0128817
3956,2498;0,0129269
3957,2141;0,0129511
3958,1782;0,0129577
3959,1426;0,0129443
3960,1067;0,0129083
3961,0710;0,0128553
3962,0352;0,0128026
3962,9995;0,0127711
3963,9636;0,0127737
3964,9280;0,0128071
3965,8921;0,0128541
3966,8564;0,0128934
3967,8206;0,0129112
3968,7849;0,0129073
3969,7490;0,0128929
3970,7134;0,0128812
3971,6775;0,012879
3972,6418;0,0128841
3973,6060;0,012889
3974,5703;0,0128886
3975,5344;0,0128836
3976,4988;0,0128796
3977,4629;0,0128808
3978,4272;0,0128862
3979,3914;0,0128893
3980,3557;0,0128833
3981,3198;0,0128671
3982,2842;0,0128475
3983,2483;0,0128365
3984,2126;0,0128432
3985,1768;0,0128682
3986,1411;0,0129021
3987,1052;0,0129316
3988,0696;0,0129472
3989,0337;0,0129484
3989,9980;0,0129427
3990,9622;0,0129387
3991,9265;0,0129385
3992,8906;0,0129364
3993,8550;0,012924
3994,8191;0,0128984
3995,7834;0,0128659
3996,7476;0,0128391
3997,7119;0,0128287
3998,6760;0,0128369
3999,6404;0,0128573
4000,6045;0,0127198

##### Extended Information
[Comments]
Sample name
Comment
Username
Division
Organization;UNIVERSIDAD INDUSTRIAL DE SANTANDER

[Detailed Information]
Creation date;26/02/2025 7:00 p.m.

Data array type;Linear data array
Horizontal axis;Wavenumber [cm-1]
Vertical axis;Abs
Start;399,193 cm-1
End;4000,6 cm-1
Data interval;0,964233 cm-1
Data points;3736    

[Measurement Information]
Model name;FT/IR-4X1typeA
Serial No.;A035162111

Accessory;ATR PRO 4X
Accessory S/N;A021162126
Incident angle;45 deg

Measurement date;26/02/2025 6:59 p.m.

Light source;Standard
Detector;TGS
Accumulation;40
Resolution;4 cm-1
Zero filling;On
Apodization;Cosine
Gain;Auto (8)
Aperture;Auto (7 mm)
Scan speed;Auto (2 mm/sec)
Filter;Auto (12800 Hz)

