TITLE;
DATA TYPE;INFRARED SPECTRUM
ORIGIN;JASCO
OWNER;
DATE;25/02/26
TIME;18:36:29
SPECTROMETER/DATA SYSTEM;
LOCALE;9226
RESOLUTION;
DELTAX;0,964233
XUNITS;1/CM
YUNITS;ABSORBANCE
FIRSTX;  399,1927
LASTX; 4000,6047
NPOINTS;    3736
FIRSTY;     0,16991
MAXY;     0,26636
MINY;     0,01187
XYDATA
399,1927;0,169909
400,1569;0,171927
401,1211;0,173287
402,0854;0,173931
403,0496;0,174075
404,0138;0,173973
404,9781;0,17384
405,9423;0,173834
406,9065;0,17407
407,8708;0,174597
408,8350;0,175389
409,7992;0,176332
410,7635;0,177241
411,7277;0,177937
412,6919;0,178343
413,6562;0,178523
414,6204;0,178642
415,5846;0,178892
416,5489;0,179443
417,5131;0,180383
418,4773;0,181594
419,4416;0,182735
420,4058;0,183534
421,3700;0,184053
422,3343;0,184555
423,2985;0,185272
424,2627;0,186299
425,2270;0,187562
426,1912;0,188846
427,1554;0,189887
428,1197;0,1905
429,0839;0,190662
430,0481;0,190509
431,0124;0,190289
431,9766;0,190264
432,9408;0,190603
433,9051;0,191314
434,8693;0,192241
435,8335;0,193141
436,7978;0,193808
437,7620;0,194155
438,7262;0,194216
439,6905;0,194076
440,6547;0,193796
441,6189;0,1934
442,5832;0,192898
443,5474;0,19233
444,5116;0,191777
445,4759;0,191314
446,4401;0,190961
447,4043;0,190674
448,3686;0,190384
449,3328;0,190057
450,2970;0,189719
451,2613;0,189442
452,2255;0,189285
453,1897;0,189241
454,1540;0,189228
455,1182;0,189134
456,0824;0,188886
457,0467;0,188521
458,0109;0,188198
458,9751;0,188107
459,9394;0,188334
460,9036;0,188806
461,8678;0,189344
462,8321;0,189757
463,7963;0,189901
464,7605;0,189732
465,7248;0,189319
466,6890;0,188818
467,6532;0,188386
468,6175;0,188107
469,5817;0,187971
470,5459;0,187908
471,5102;0,187843
472,4744;0,187751
473,4386;0,187656
474,4029;0,187601
475,3671;0,187609
476,3313;0,187678
477,2956;0,187797
478,2598;0,187959
479,2240;0,188162
480,1883;0,188397
481,1525;0,188652
482,1167;0,188912
483,0810;0,189171
484,0452;0,189433
485,0094;0,189701
485,9737;0,189981
486,9379;0,190285
487,9021;0,190638
488,8664;0,191081
489,8306;0,191639
490,7948;0,192302
491,7591;0,193009
492,7233;0,193664
493,6875;0,194186
494,6518;0,194548
495,6160;0,194773
496,5802;0,194912
497,5445;0,194999
498,5087;0,195048
499,4729;0,195053
500,4372;0,195017
501,4014;0,194968
502,3656;0,194954
503,3299;0,195019
504,2941;0,195179
505,2583;0,195416
506,2226;0,195701
507,1868;0,196017
508,1510;0,196383
509,1153;0,196845
510,0795;0,197452
511,0437;0,198219
512,0080;0,199108
512,9722;0,200039
513,9365;0,200921
514,9007;0,201699
515,8649;0,202381
516,8292;0,203023
517,7934;0,203681
518,7576;0,204347
519,7219;0,204939
520,6861;0,205361
521,6503;0,205568
522,6146;0,205601
523,5788;0,20556
524,5430;0,205557
525,5073;0,205653
526,4715;0,205818
527,4357;0,205956
528,4000;0,205975
529,3642;0,205849
530,3284;0,205627
531,2927;0,205394
532,2569;0,205222
533,2211;0,205128
534,1854;0,20507
535,1496;0,20497
536,1138;0,20476
537,0781;0,204424
538,0423;0,204007
539,0065;0,203601
539,9708;0,203307
540,9350;0,203197
541,8992;0,203295
542,8635;0,20358
543,8277;0,203995
544,7919;0,20447
545,7562;0,204933
546,7204;0,205327
547,6846;0,205623
548,6489;0,205835
549,6131;0,206022
550,5773;0,206265
551,5416;0,206631
552,5058;0,207142
553,4700;0,207757
554,4343;0,208387
555,3985;0,208936
556,3627;0,209335
557,3270;0,209545
558,2912;0,209546
559,2554;0,20931
560,2197;0,208798
561,1839;0,207985
562,1481;0,2069
563,1124;0,205632
564,0766;0,204318
565,0408;0,203091
566,0051;0,20205
566,9693;0,201232
567,9335;0,200627
568,8978;0,200187
569,8620;0,199855
570,8262;0,199575
571,7905;0,199312
572,7547;0,199052
573,7189;0,198796
574,6832;0,198558
575,6474;0,198356
576,6116;0,198199
577,5759;0,198083
578,5401;0,197993
579,5043;0,197904
580,4686;0,197789
581,4328;0,197629
582,3970;0,197423
583,3613;0,197199
584,3255;0,197005
585,2897;0,19689
586,2540;0,196878
587,2182;0,196952
588,1824;0,197055
589,1467;0,197114
590,1109;0,19707
591,0751;0,196911
592,0394;0,196674
593,0036;0,196422
593,9678;0,196196
594,9321;0,19599
595,8963;0,195745
596,8605;0,195395
597,8248;0,194902
598,7890;0,194292
599,7532;0,193644
600,7175;0,193049
601,6817;0,192558
602,6459;0,19216
603,6102;0,191799
604,5744;0,191413
605,5386;0,190962
606,5029;0,190445
607,4671;0,189877
608,4313;0,18927
609,3956;0,188625
610,3598;0,18794
611,3240;0,18723
612,2883;0,186523
613,2525;0,185858
614,2167;0,185251
615,1810;0,184679
616,1452;0,184072
617,1094;0,183338
618,0737;0,182404
619,0379;0,181256
620,0021;0,179945
620,9664;0,178559
621,9306;0,177187
622,8948;0,175901
623,8591;0,174744
624,8233;0,17374
625,7875;0,172861
626,7518;0,17208
627,7160;0,171358
628,6802;0,170657
629,6445;0,169949
630,6087;0,169221
631,5729;0,168478
632,5372;0,167733
633,5014;0,167005
634,4656;0,166301
635,4299;0,165621
636,3941;0,164966
637,3583;0,164347
638,3226;0,163785
639,2868;0,163299
640,2510;0,16289
641,2153;0,162527
642,1795;0,162165
643,1437;0,161764
644,1080;0,161313
645,0722;0,160836
646,0364;0,160368
647,0007;0,159938
647,9649;0,159549
648,9291;0,159191
649,8934;0,158857
650,8576;0,158558
651,8218;0,158316
652,7861;0,158146
653,7503;0,158044
654,7145;0,157995
655,6788;0,157991
656,6430;0,15804
657,6072;0,158151
658,5715;0,158301
659,5357;0,158425
660,4999;0,158434
661,4642;0,158291
662,4284;0,158046
663,3926;0,157816
664,3569;0,157701
665,3211;0,157701
666,2853;0,157649
667,2496;0,157218
668,2138;0,156134
669,1780;0,154526
670,1423;0,152792
671,1065;0,15116
672,0707;0,149631
673,0350;0,148125
673,9992;0,146564
674,9634;0,144927
675,9277;0,143266
676,8919;0,141665
677,8561;0,140177
678,8204;0,138803
679,7846;0,137524
680,7488;0,136345
681,7131;0,135288
682,6773;0,134372
683,6415;0,133592
684,6058;0,132927
685,5700;0,132352
686,5342;0,13185
687,4985;0,131403
688,4627;0,130985
689,4269;0,130567
690,3912;0,13013
691,3554;0,129672
692,3196;0,129204
693,2839;0,128742
694,2481;0,128295
695,2123;0,127857
696,1766;0,127418
697,1408;0,12697
698,1050;0,126516
699,0693;0,12607
700,0335;0,12565
700,9977;0,125258
701,9620;0,124879
702,9262;0,12448
703,8904;0,124028
704,8547;0,123503
705,8189;0,122909
706,7831;0,122275
707,7474;0,121639
708,7116;0,121027
709,6758;0,12045
710,6401;0,119895
711,6043;0,11934
712,5685;0,118763
713,5328;0,118158
714,4970;0,117537
715,4612;0,117099
716,4255;0,11648
717,3897;0,115875
718,3539;0,115263
719,3182;0,114608
720,2824;0,113874
721,2466;0,113049
722,2109;0,112148
723,1751;0,111209
724,1393;0,110268
725,1036;0,109357
726,0678;0,108493
727,0320;0,107688
727,9963;0,106941
728,9605;0,106241
729,9247;0,105575
730,8890;0,10493
731,8532;0,1043
732,8174;0,103694
733,7817;0,103118
734,7459;0,102573
735,7101;0,102049
736,6744;0,101532
737,6386;0,101013
738,6028;0,100493
739,5671;0,0999808
740,5313;0,0994831
741,4955;0,0989994
742,4598;0,0985237
743,4240;0,0980502
744,3882;0,0975767
745,3525;0,0971027
746,3167;0,0966242
747,2809;0,0961325
748,2452;0,0956199
749,2094;0,0950862
750,1736;0,0945405
751,1379;0,0939948
752,1021;0,0934536
753,0663;0,0929112
754,0306;0,0923579
754,9948;0,0917926
755,9590;0,0912297
756,9233;0,0906928
757,8875;0,0901995
758,8517;0,0897494
759,8160;0,0893263
760,7802;0,0889137
761,7444;0,0885104
762,7087;0,0881331
763,6729;0,087802
764,6371;0,0875194
765,6014;0,0872585
766,5656;0,0869741
767,5298;0,0866269
768,4941;0,0862073
769,4583;0,0857419
770,4225;0,0852777
771,3868;0,084857
772,3510;0,084497
773,3152;0,0841864
774,2795;0,0838975
775,2437;0,083605
776,2079;0,0832986
777,1722;0,0829857
778,1364;0,0826821
779,1006;0,0823991
780,0649;0,0821329
781,0291;0,0818629
781,9933;0,0815609
782,9576;0,0812072
783,9218;0,0808042
784,8860;0,0803797
785,8503;0,0799764
786,8145;0,0796319
787,7787;0,0793604
788,7430;0,0791477
789,7072;0,0789613
790,6714;0,0787685
791,6357;0,0785535
792,5999;0,0783211
793,5641;0,0780906
794,5284;0,0778824
795,4926;0,0777081
796,4568;0,0775664
797,4211;0,0774457
798,3853;0,0773289
799,3495;0,0771995
800,3138;0,0770469
801,2780;0,0768709
802,2422;0,0766831
803,2065;0,0765031
804,1707;0,0763488
805,1349;0,0762266
806,0992;0,0761267
807,0634;0,0760269
808,0276;0,0759043
808,9919;0,0757474
809,9561;0,075561
810,9203;0,0753625
811,8846;0,0751711
812,8488;0,074999
813,8130;0,0748471
814,7773;0,0747073
815,7415;0,0745686
816,7057;0,074422
817,6700;0,0742637
818,6342;0,0740962
819,5984;0,0739281
820,5627;0,0737728
821,5269;0,0736449
822,4911;0,0735548
823,4554;0,0735031
824,4196;0,0734798
825,3839;0,0734676
826,3481;0,0734491
827,3123;0,0734121
828,2766;0,0733512
829,2408;0,0732651
830,2050;0,0731517
831,1693;0,0730075
832,1335;0,0728286
833,0977;0,072614
834,0620;0,0723663
835,0262;0,0720906
835,9904;0,0717932
836,9547;0,0714817
837,9189;0,0711666
838,8831;0,0708619
839,8474;0,0705812
840,8116;0,0703325
841,7758;0,0701141
842,7401;0,0699169
843,7043;0,0697312
844,6685;0,0695542
845,6328;0,0693917
846,5970;0,0692526
847,5612;0,0691423
848,5255;0,0690583
849,4897;0,0689928
850,4539;0,0689388
851,4182;0,0688931
852,3824;0,0688561
853,3466;0,0688266
854,3109;0,0687991
855,2751;0,0687644
856,2393;0,0687152
857,2036;0,0686506
858,1678;0,0685774
859,1320;0,0685075
860,0963;0,0684534
861,0605;0,0684248
862,0247;0,068427
862,9890;0,0684631
863,9532;0,0685347
864,9174;0,0686434
865,8817;0,0687889
866,8459;0,0689658
867,8101;0,0691606
868,7744;0,0693526
869,7386;0,06952
870,7028;0,0696495
871,6671;0,0697433
872,6313;0,0698185
873,5955;0,0698962
874,5598;0,0699888
875,5240;0,0700913
876,4882;0,0701866
877,4525;0,0702599
878,4167;0,0703138
879,3809;0,0703729
880,3452;0,0704748
881,3094;0,0706536
882,2736;0,0709268
883,2379;0,0712934
884,2021;0,0717439
885,1663;0,0722718
886,1306;0,0728799
887,0948;0,0735761
888,0590;0,0743637
889,0233;0,0752331
889,9875;0,0761601
890,9517;0,0771102
891,9160;0,0780467
892,8802;0,0789347
893,8444;0,0797421
894,8087;0,0804379
895,7729;0,080991
896,7371;0,0813715
897,7014;0,0815559
898,6656;0,081532
899,6298;0,0813041
900,5941;0,0808949
901,5583;0,0803431
902,5225;0,0796978
903,4868;0,0790102
904,4510;0,0783253
905,4152;0,0776764
906,3795;0,077085
907,3437;0,0765653
908,3079;0,0761299
909,2722;0,0757925
910,2364;0,0755653
911,2007;0,0754535
912,1649;0,0754494
913,1292;0,0755327
914,0934;0,0756766
915,0576;0,0758579
916,0219;0,0760637
916,9861;0,0762929
917,9503;0,0765502
918,9146;0,0768387
919,8788;0,0771549
920,8430;0,0774884
921,8073;0,0778259
922,7715;0,0781541
923,7357;0,0784609
924,7000;0,0787346
925,6642;0,0789645
926,6284;0,0791444
927,5927;0,0792777
928,5569;0,0793797
929,5211;0,0794725
930,4854;0,0795764
931,4496;0,0797005
932,4138;0,0798416
933,3781;0,0799915
934,3423;0,0801491
935,3065;0,0803276
936,2708;0,0805514
937,2350;0,0808445
938,1992;0,0812188
939,1635;0,0816694
940,1277;0,0821801
941,0919;0,0827344
942,0562;0,0833231
943,0204;0,0839456
943,9846;0,0846068
944,9489;0,0853132
945,9131;0,0860739
946,8773;0,0869012
947,8416;0,0878096
948,8058;0,0888098
949,7700;0,0899025
950,7343;0,091077
951,6985;0,0923183
952,6627;0,0936181
953,6270;0,0949827
954,5912;0,0964316
955,5554;0,0979876
956,5197;0,0996641
957,4839;0,101458
958,4481;0,103351
959,4124;0,105315
960,3766;0,107325
961,3408;0,109359
962,3051;0,111404
963,2693;0,113456
964,2335;0,115517
965,1978;0,117598
966,1620;0,119715
967,1262;0,121893
968,0905;0,124157
969,0547;0,126533
970,0189;0,129044
970,9832;0,131711
971,9474;0,134555
972,9116;0,137597
973,8759;0,140861
974,8401;0,144374
975,8043;0,14816
976,7686;0,152233
977,7328;0,156586
978,6970;0,161179
979,6613;0,165932
980,6255;0,170723
981,5897;0,175402
982,5540;0,17981
983,5182;0,183808
984,4824;0,187303
985,4467;0,190266
986,4109;0,19273
987,3751;0,194771
988,3394;0,19648
989,3036;0,197938
990,2678;0,199203
991,2321;0,200309
992,1963;0,201279
993,1605;0,202138
994,1248;0,202919
995,0890;0,203657
996,0532;0,204382
997,0175;0,205106
997,9817;0,205822
998,9459;0,20652
999,9102;0,207196
1000,8744;0,207871
1001,8386;0,208588
1002,8029;0,209401
1003,7671;0,210364
1004,7313;0,211518
1005,6956;0,212896
1006,6598;0,21452
1007,6240;0,216412
1008,5883;0,21858
1009,5525;0,221013
1010,5167;0,223674
1011,4810;0,226497
1012,4452;0,22941
1013,4094;0,232346
1014,3737;0,235253
1015,3379;0,238096
1016,3021;0,240846
1017,2664;0,243475
1018,2306;0,245957
1019,1948;0,248275
1020,1591;0,25043
1021,1233;0,252443
1022,0875;0,254344
1023,0518;0,256165
1024,0160;0,257921
1024,9802;0,259611
1025,9445;0,261216
1026,9087;0,262705
1027,8729;0,264033
1028,8372;0,265141
1029,8014;0,26595
1030,7656;0,266363
1031,7299;0,266274
1032,6941;0,265594
1033,6583;0,264287
1034,6226;0,262398
1035,5868;0,260059
1036,5510;0,25747
1037,5153;0,254853
1038,4795;0,252408
1039,4437;0,25028
1040,4080;0,248543
1041,3722;0,247211
1042,3364;0,246248
1043,3007;0,245579
1044,2649;0,245104
1045,2291;0,244712
1046,1934;0,244292
1047,1576;0,243759
1048,1218;0,243056
1049,0861;0,242152
1050,0503;0,241031
1051,0145;0,239676
1051,9788;0,238074
1052,9430;0,236218
1053,9072;0,234119
1054,8715;0,231794
1055,8357;0,229256
1056,7999;0,226492
1057,7642;0,223464
1058,7284;0,22012
1059,6926;0,216437
1060,6569;0,212443
1061,6211;0,208235
1062,5853;0,203955
1063,5496;0,199761
1064,5138;0,195787
1065,4780;0,192122
1066,4423;0,1888
1067,4065;0,185812
1068,3707;0,183118
1069,3350;0,180662
1070,2992;0,178377
1071,2634;0,1762
1072,2277;0,174068
1073,1919;0,171932
1074,1561;0,16975
1075,1204;0,167498
1076,0846;0,16517
1077,0488;0,162782
1078,0131;0,16037
1078,9773;0,15799
1079,9415;0,155705
1080,9058;0,153575
1081,8700;0,151641
1082,8342;0,149925
1083,7985;0,148427
1084,7627;0,147133
1085,7269;0,146023
1086,6912;0,145074
1087,6554;0,144262
1088,6196;0,143569
1089,5839;0,142983
1090,5481;0,1425
1091,5123;0,142131
1092,4766;0,141885
1093,4408;0,141769
1094,4050;0,141776
1095,3693;0,141887
1096,3335;0,14208
1097,2977;0,142333
1098,2620;0,142634
1099,2262;0,142971
1100,1904;0,143325
1101,1547;0,143668
1102,1189;0,143956
1103,0831;0,144147
1104,0474;0,144207
1105,0116;0,144125
1105,9758;0,143911
1106,9401;0,143581
1107,9043;0,143147
1108,8685;0,142597
1109,8328;0,141896
1110,7970;0,140995
1111,7612;0,139858
1112,7255;0,138481
1113,6897;0,136906
1114,6539;0,135219
1115,6182;0,133525
1116,5824;0,13192
1117,5466;0,130465
1118,5109;0,12917
1119,4751;0,127998
1120,4393;0,126877
1121,4036;0,125721
1122,3678;0,124446
1123,3320;0,122983
1124,2963;0,121294
1125,2605;0,119373
1126,2247;0,117251
1127,1890;0,114984
1128,1532;0,112644
1129,1174;0,110296
1130,0817;0,107985
1131,0459;0,105735
1132,0101;0,103553
1132,9744;0,101448
1133,9386;0,0994416
1134,9028;0,0975727
1135,8671;0,0958905
1136,8313;0,0944391
1137,7955;0,0932448
1138,7598;0,09231
1139,7240;0,0916165
1140,6882;0,0911335
1141,6525;0,090826
1142,6167;0,0906617
1143,5809;0,0906143
1144,5452;0,0906664
1145,5094;0,0908103
1146,4736;0,0910469
1147,4379;0,0913809
1148,4021;0,091815
1149,3663;0,0923441
1150,3306;0,0929521
1151,2948;0,0936136
1152,2590;0,0942962
1153,2233;0,0949634
1154,1875;0,0955747
1155,1517;0,096086
1156,1160;0,0964484
1157,0802;0,0966097
1158,0444;0,0965158
1159,0087;0,0961123
1159,9729;0,0953464
1160,9371;0,0941719
1161,9014;0,0925583
1162,8656;0,0905029
1163,8298;0,0880421
1164,7941;0,0852544
1165,7583;0,0822527
1166,7225;0,0791656
1167,6868;0,0761164
1168,6510;0,0732037
1169,6152;0,0704929
1170,5795;0,0680171
1171,5437;0,0657856
1172,5079;0,0637927
1173,4722;0,0620259
1174,4364;0,0604693
1175,4006;0,0591058
1176,3649;0,0579188
1177,3291;0,0568933
1178,2933;0,0560177
1179,2576;0,055282
1180,2218;0,0546761
1181,1860;0,0541872
1182,1503;0,0538006
1183,1145;0,0535016
1184,0787;0,0532793
1185,0430;0,0531285
1186,0072;0,0530499
1186,9714;0,053048
1187,9357;0,0531285
1188,8999;0,0532964
1189,8641;0,0535543
1190,8284;0,0539016
1191,7926;0,0543341
1192,7568;0,0548449
1193,7211;0,0554263
1194,6853;0,0560709
1195,6495;0,0567731
1196,6138;0,0575268
1197,5780;0,0583232
1198,5422;0,0591488
1199,5065;0,0599761
1200,4707;0,0608094
1201,4349;0,0616229
1202,3992;0,0624078
1203,3634;0,0631601
1204,3276;0,0638779
1205,2919;0,0645607
1206,2561;0,06521
1207,2203;0,0658339
1208,1846;0,0664497
1209,1488;0,0670835
1210,1130;0,0677646
1211,0773;0,0685172
1212,0415;0,069352
1213,0057;0,070264
1213,9700;0,0712355
1214,9342;0,0722434
1215,8984;0,0732666
1216,8627;0,0742891
1217,8269;0,0753008
1218,7911;0,0762961
1219,7554;0,0772718
1220,7196;0,0782264
1221,6838;0,0791578
1222,6481;0,0800615
1223,6123;0,0809282
1224,5765;0,0817458
1225,5408;0,0825035
1226,5050;0,0831974
1227,4692;0,0838341
1228,4335;0,0844278
1229,3977;0,0849929
1230,3619;0,0855349
1231,3262;0,0860472
1232,2904;0,0865134
1233,2546;0,0869159
1234,2189;0,0872445
1235,1831;0,0875012
1236,1473;0,0876992
1237,1116;0,087856
1238,0758;0,0879874
1239,0400;0,0881021
1240,0043;0,0882
1240,9685;0,0882742
1241,9327;0,088313
1242,8970;0,0883038
1243,8612;0,0882358
1244,8254;0,0881028
1245,7897;0,0879049
1246,7539;0,0876481
1247,7181;0,0873422
1248,6824;0,0869983
1249,6466;0,0866268
1250,6108;0,0862363
1251,5751;0,0858342
1252,5393;0,0854279
1253,5035;0,0850234
1254,4678;0,0846239
1255,4320;0,0842269
1256,3962;0,0838249
1257,3605;0,0834069
1258,3247;0,0829623
1259,2889;0,0824835
1260,2532;0,0819664
1261,2174;0,081408
1262,1816;0,0808051
1263,1459;0,0801548
1264,1101;0,0794567
1265,0743;0,0787148
1266,0386;0,0779364
1267,0028;0,077129
1267,9670;0,0762972
1268,9313;0,0754422
1269,8955;0,0745643
1270,8597;0,0736659
1271,8240;0,0727524
1272,7882;0,0718309
1273,7524;0,0709088
1274,7167;0,0699948
1275,6809;0,0691004
1276,6451;0,0682396
1277,6094;0,0674242
1278,5736;0,0666573
1279,5378;0,0659299
1280,5021;0,0652238
1281,4663;0,0645222
1282,4305;0,0638197
1283,3948;0,0631262
1284,3590;0,0624625
1285,3232;0,0618503
1286,2875;0,0613045
1287,2517;0,0608303
1288,2159;0,0604271
1289,1802;0,0600928
1290,1444;0,0598273
1291,1086;0,0596313
1292,0729;0,0595042
1293,0371;0,0594435
1294,0013;0,0594452
1294,9656;0,059507
1295,9298;0,0596301
1296,8940;0,0598194
1297,8583;0,0600809
1298,8225;0,0604184
1299,7867;0,0608301
1300,7510;0,0613072
1301,7152;0,0618357
1302,6794;0,0624016
1303,6437;0,0629956
1304,6079;0,0636161
1305,5721;0,0642665
1306,5364;0,06495
1307,5006;0,065664
1308,4648;0,0663982
1309,4291;0,0671369
1310,3933;0,0678627
1311,3575;0,0685581
1312,3218;0,069206
1313,2860;0,0697878
1314,2502;0,0702833
1315,2145;0,0706708
1316,1787;0,0709307
1317,1429;0,0710506
1318,1072;0,0710331
1319,0714;0,0708997
1320,0356;0,0706873
1320,9999;0,0704366
1321,9641;0,0701785
1322,9283;0,0699304
1323,8926;0,0696987
1324,8568;0,0694863
1325,8210;0,0692962
1326,7853;0,0691314
1327,7495;0,0689912
1328,7137;0,0688679
1329,6780;0,0687479
1330,6422;0,0686151
1331,6064;0,0684561
1332,5707;0,0682624
1333,5349;0,0680285
1334,4991;0,0677464
1335,4634;0,0673999
1336,4276;0,0669672
1337,3918;0,0664324
1338,3561;0,0658068
1339,3203;0,0651408
1340,2845;0,0645077
1341,2488;0,063965
1342,2130;0,0635307
1343,1772;0,06319
1344,1415;0,0629175
1345,1057;0,0626938
1346,0699;0,0625134
1347,0342;0,0623851
1347,9984;0,0623277
1348,9626;0,0623615
1349,9269;0,0624973
1350,8911;0,06273
1351,8553;0,0630397
1352,8196;0,0634022
1353,7838;0,0638018
1354,7480;0,0642373
1355,7123;0,0647168
1356,6765;0,0652442
1357,6407;0,0658102
1358,6050;0,0663937
1359,5692;0,0669714
1360,5334;0,0675265
1361,4977;0,0680538
1362,4619;0,0685571
1363,4261;0,0690415
1364,3904;0,0695056
1365,3546;0,0699412
1366,3188;0,070338
1367,2831;0,0706863
1368,2473;0,0709768
1369,2115;0,0711991
1370,1758;0,0713381
1371,1400;0,0713739
1372,1042;0,0712863
1373,0685;0,0710689
1374,0327;0,070744
1374,9969;0,0703569
1375,9612;0,0699426
1376,9254;0,0694928
1377,8896;0,0689598
1378,8539;0,0682936
1379,8181;0,0674842
1380,7823;0,0665796
1381,7466;0,0656611
1382,7108;0,0647889
1383,6750;0,0639652
1384,6393;0,0631428
1385,6035;0,0622754
1386,5677;0,0613789
1387,5320;0,0605491
1388,4962;0,0598947
1389,4604;0,0594524
1390,4247;0,0591763
1391,3889;0,0589877
1392,3531;0,0588213
1393,3174;0,0586459
1394,2816;0,0584676
1395,2458;0,0583181
1396,2101;0,058232
1397,1743;0,058229
1398,1385;0,0583137
1399,1028;0,0584812
1400,0670;0,0587183
1401,0313;0,0590023
1401,9955;0,0593053
1402,9597;0,0596043
1403,9240;0,0598936
1404,8882;0,0601895
1405,8524;0,060521
1406,8167;0,0609089
1407,7809;0,0613531
1408,7451;0,0618392
1409,7094;0,062354
1410,6736;0,0628945
1411,6378;0,063465
1412,6021;0,0640668
1413,5663;0,0646897
1414,5305;0,0653109
1415,4948;0,0658977
1416,4590;0,0664111
1417,4232;0,066816
1418,3875;0,067104
1419,3517;0,0673013
1420,3159;0,0674355
1421,2802;0,0674994
1422,2444;0,0674588
1423,2086;0,0672885
1424,1729;0,0669953
1425,1371;0,0666107
1426,1013;0,066156
1427,0656;0,0656127
1428,0298;0,0649341
1428,9940;0,0641009
1429,9583;0,0631752
1430,9225;0,0622814
1431,8867;0,0615132
1432,8510;0,0608603
1433,8152;0,0602157
1434,7794;0,059449
1435,7437;0,0585197
1436,7079;0,0575649
1437,6721;0,0568191
1438,6364;0,0564063
1439,6006;0,0562781
1440,5648;0,0563223
1441,5291;0,0564548
1442,4933;0,0566404
1443,4575;0,056875
1444,4218;0,0571626
1445,3860;0,0574976
1446,3502;0,0578619
1447,3145;0,0582331
1448,2787;0,0585969
1449,2429;0,0589532
1450,2072;0,0593102
1451,1714;0,0596716
1452,1356;0,0600254
1453,0999;0,0603329
1454,0641;0,0605145
1455,0283;0,0604425
1455,9926;0,0600068
1456,9568;0,0593174
1457,9210;0,0587526
1458,8853;0,0585528
1459,8495;0,058624
1460,8137;0,0587654
1461,7780;0,0588044
1462,7422;0,0585944
1463,7064;0,0580294
1464,6707;0,0571269
1465,6349;0,0560684
1466,5991;0,055067
1467,5634;0,0541937
1468,5276;0,05336
1469,4918;0,0523895
1470,4561;0,0510806
1471,4203;0,0492964
1472,3845;0,0471333
1473,3488;0,0449954
1474,3130;0,0432965
1475,2772;0,0421163
1476,2415;0,0412862
1477,2057;0,0406301
1478,1699;0,0400538
1479,1342;0,0395263
1480,0984;0,0390487
1481,0626;0,0386367
1482,0269;0,0383119
1482,9911;0,0380908
1483,9553;0,0379725
1484,9196;0,0379332
1485,8838;0,0379334
1486,8480;0,0379386
1487,8123;0,0379532
1488,7765;0,038045
1489,7407;0,0383019
1490,7050;0,0387422
1491,6692;0,0393104
1492,6334;0,0399458
1493,5977;0,0406186
1494,5619;0,0413228
1495,5261;0,0420672
1496,4904;0,0428722
1497,4546;0,0437583
1498,4188;0,0447187
1499,3831;0,045711
1500,3473;0,0466859
1501,3115;0,0476085
1502,2758;0,0484531
1503,2400;0,0491845
1504,2042;0,0497369
1505,1685;0,0500016
1506,1327;0,0498908
1507,0969;0,0495275
1508,0612;0,0492291
1509,0254;0,0491267
1509,9896;0,0491266
1510,9539;0,0491189
1511,9181;0,0490299
1512,8823;0,0488001
1513,8466;0,0483786
1514,8108;0,0477494
1515,7750;0,0469583
1516,7393;0,0460986
1517,7035;0,0452488
1518,6677;0,0444212
1519,6320;0,0435822
1520,5962;0,042728
1521,5604;0,0419362
1522,5247;0,0413186
1523,4889;0,040929
1524,4531;0,0407421
1525,4174;0,0407031
1526,3816;0,0407715
1527,3458;0,0409261
1528,3101;0,0411473
1529,2743;0,0414044
1530,2385;0,0416583
1531,2028;0,0418772
1532,1670;0,0420607
1533,1312;0,042255
1534,0955;0,0425227
1535,0597;0,0428865
1536,0239;0,0433105
1536,9882;0,0437167
1537,9524;0,0439916
1538,9166;0,0439978
1539,8809;0,0436851
1540,8451;0,0432929
1541,8093;0,0431899
1542,7736;0,043418
1543,7378;0,0437794
1544,7020;0,0441257
1545,6663;0,0444054
1546,6305;0,0446166
1547,5947;0,0447695
1548,5590;0,0448686
1549,5232;0,0449125
1550,4874;0,0449086
1551,4517;0,0448864
1552,4159;0,0448916
1553,3801;0,0449562
1554,3444;0,0450686
1555,3086;0,0451539
1556,2728;0,0450636
1557,2371;0,0446238
1558,2013;0,0438859
1559,1655;0,0433257
1560,1298;0,0432827
1561,0940;0,0436018
1562,0582;0,0440526
1563,0225;0,0445277
1563,9867;0,0449864
1564,9509;0,0454007
1565,9152;0,045741
1566,8794;0,0459922
1567,8436;0,0461838
1568,8079;0,0463996
1569,7721;0,0467247
1570,7363;0,0471744
1571,7006;0,0476965
1572,6648;0,0482254
1573,6290;0,0487171
1574,5933;0,0491619
1575,5575;0,0495946
1576,5217;0,050081
1577,4860;0,0506552
1578,4502;0,0512909
1579,4144;0,0519485
1580,3787;0,0526092
1581,3429;0,0532681
1582,3071;0,0539236
1583,2714;0,0545758
1584,2356;0,0552297
1585,1998;0,055893
1586,1641;0,0565679
1587,1283;0,0572437
1588,0925;0,0578962
1589,0568;0,0584944
1590,0210;0,0590084
1590,9852;0,0594137
1591,9495;0,0596904
1592,9137;0,0598246
1593,8779;0,0598155
1594,8422;0,0596824
1595,8064;0,0594612
1596,7706;0,0591897
1597,7349;0,0588922
1598,6991;0,0585781
1599,6633;0,05825
1600,6276;0,0579151
1601,5918;0,0575909
1602,5560;0,0573008
1603,5203;0,0570623
1604,4845;0,0568752
1605,4487;0,0567196
1606,4130;0,0565673
1607,3772;0,0564019
1608,3414;0,0562399
1609,3057;0,056129
1610,2699;0,0561167
1611,2341;0,0562117
1612,1984;0,0563742
1613,1626;0,0565316
1614,1268;0,0566069
1615,0911;0,0565668
1616,0553;0,0564799
1617,0195;0,0564944
1617,9838;0,0566978
1618,9480;0,0570487
1619,9122;0,0574523
1620,8765;0,0578323
1621,8407;0,0581505
1622,8049;0,0584087
1623,7692;0,0586404
1624,7334;0,0588825
1625,6976;0,0591496
1626,6619;0,0594401
1627,6261;0,0597569
1628,5903;0,0601122
1629,5546;0,060514
1630,5188;0,0609505
1631,4830;0,0613815
1632,4473;0,0617331
1633,4115;0,0618979
1634,3757;0,0617827
1635,3400;0,0614407
1636,3042;0,061132
1637,2684;0,0610813
1638,2327;0,0612762
1639,1969;0,0615937
1640,1611;0,061944
1641,1254;0,0622842
1642,0896;0,0625828
1643,0538;0,0627826
1644,0181;0,0627836
1644,9823;0,0624878
1645,9465;0,0619406
1646,9108;0,0614156
1647,8750;0,0611947
1648,8392;0,0613042
1649,8035;0,0615488
1650,7677;0,0616169
1651,7319;0,0611188
1652,6962;0,0598418
1653,6604;0,0582719
1654,6246;0,057205
1655,5889;0,0567602
1656,5531;0,0566205
1657,5173;0,0565295
1658,4816;0,0563407
1659,4458;0,0559483
1660,4100;0,0552749
1661,3743;0,0543344
1662,3385;0,0532906
1663,3027;0,0523741
1664,2670;0,0517065
1665,2312;0,0512395
1666,1954;0,050816
1667,1597;0,0502468
1668,1239;0,0493958
1669,0881;0,0482972
1670,0524;0,0471868
1671,0166;0,0463044
1671,9808;0,0456776
1672,9451;0,0451532
1673,9093;0,0445597
1674,8735;0,0438315
1675,8378;0,043051
1676,8020;0,042375
1677,7662;0,0419029
1678,7305;0,0416216
1679,6947;0,041434
1680,6589;0,0411846
1681,6232;0,0406657
1682,5874;0,0396957
1683,5516;0,0383514
1684,5159;0,0370665
1685,4801;0,0362001
1686,4443;0,0357187
1687,4086;0,0354193
1688,3728;0,0351605
1689,3370;0,0348997
1690,3013;0,0346536
1691,2655;0,0344489
1692,2297;0,0342846
1693,1940;0,0341216
1694,1582;0,0338991
1695,1224;0,0335701
1696,0867;0,0331367
1697,0509;0,032656
1698,0151;0,0322054
1698,9794;0,0318405
1699,9436;0,0315845
1700,9078;0,031442
1701,8721;0,0314081
1702,8363;0,0314702
1703,8005;0,0316091
1704,7648;0,0318044
1705,7290;0,0320415
1706,6932;0,0323183
1707,6575;0,0326416
1708,6217;0,0330204
1709,5859;0,0334596
1710,5502;0,0339566
1711,5144;0,0344963
1712,4786;0,0350476
1713,4429;0,0355625
1714,4071;0,0359872
1715,3713;0,0362944
1716,3356;0,0365339
1717,2998;0,0368244
1718,2640;0,0372402
1719,2283;0,0377525
1720,1925;0,038302
1721,1567;0,0388539
1722,1210;0,0393903
1723,0852;0,0398958
1724,0494;0,0403563
1725,0137;0,0407668
1725,9779;0,0411364
1726,9421;0,041484
1727,9064;0,0418251
1728,8706;0,0421582
1729,8348;0,0424507
1730,7991;0,0426312
1731,7633;0,0426026
1732,7275;0,0423107
1733,6918;0,0418376
1734,6560;0,0413665
1735,6202;0,0410102
1736,5845;0,0407419
1737,5487;0,0404663
1738,5129;0,0400911
1739,4772;0,0395685
1740,4414;0,0389172
1741,4056;0,038208
1742,3699;0,0375069
1743,3341;0,0368306
1744,2983;0,0361558
1745,2626;0,0354504
1746,2268;0,0346843
1747,1910;0,0338225
1748,1553;0,0328314
1749,1195;0,0317223
1750,0837;0,0305914
1751,0480;0,0295737
1752,0122;0,0287425
1752,9764;0,0280731
1753,9407;0,0274845
1754,9049;0,0268984
1755,8691;0,0262773
1756,8334;0,025633
1757,7976;0,0250005
1758,7618;0,0243966
1759,7261;0,0238038
1760,6903;0,0231988
1761,6545;0,0225951
1762,6188;0,0220483
1763,5830;0,021614
1764,5472;0,0213045
1765,5115;0,0210864
1766,4757;0,0209064
1767,4399;0,0207154
1768,4042;0,0204778
1769,3684;0,02017
1770,3326;0,0197837
1771,2969;0,0193453
1772,2611;0,0189313
1773,2253;0,0186329
1774,1896;0,0184912
1775,1538;0,0184784
1776,1180;0,0185303
1777,0823;0,0185819
1778,0465;0,0185877
1779,0107;0,0185351
1779,9750;0,0184462
1780,9392;0,0183583
1781,9034;0,0182936
1782,8677;0,0182474
1783,8319;0,018205
1784,7961;0,0181661
1785,7604;0,0181509
1786,7246;0,0181818
1787,6888;0,0182599
1788,6531;0,0183514
1789,6173;0,0183936
1790,5815;0,0183236
1791,5458;0,0181314
1792,5100;0,0178922
1793,4742;0,0177149
1794,4385;0,0176541
1795,4027;0,0176921
1796,3669;0,0177772
1797,3312;0,0178561
1798,2954;0,0178889
1799,2596;0,017859
1800,2239;0,0177797
1801,1881;0,0176848
1802,1523;0,0176085
1803,1166;0,0175703
1804,0808;0,0175741
1805,0450;0,0176125
1806,0093;0,0176695
1806,9735;0,0177222
1807,9377;0,0177452
1808,9020;0,0177211
1809,8662;0,0176519
1810,8304;0,017562
1811,7947;0,0174854
1812,7589;0,0174458
1813,7231;0,0174461
1814,6874;0,0174721
1815,6516;0,0175033
1816,6158;0,0175261
1817,5801;0,0175414
1818,5443;0,0175619
1819,5085;0,0175992
1820,4728;0,0176513
1821,4370;0,0177003
1822,4012;0,017722
1823,3655;0,0177015
1824,3297;0,0176438
1825,2939;0,0175685
1826,2582;0,0174925
1827,2224;0,0174175
1828,1866;0,0173372
1829,1509;0,0172563
1830,1151;0,0171992
1831,0793;0,0171922
1832,0436;0,0172386
1833,0078;0,0173144
1833,9720;0,0173844
1834,9363;0,0174201
1835,9005;0,0174156
1836,8647;0,017393
1837,8290;0,0173894
1838,7932;0,0174301
1839,7574;0,0175099
1840,7217;0,0175961
1841,6859;0,0176433
1842,6501;0,0176185
1843,6144;0,0175266
1844,5786;0,0174141
1845,5428;0,0173319
1846,5071;0,0172982
1847,4713;0,0173021
1848,4355;0,0173254
1849,3998;0,0173551
1850,3640;0,0173839
1851,3282;0,0174067
1852,2925;0,0174193
1853,2567;0,0174186
1854,2209;0,0174058
1855,1852;0,0173884
1856,1494;0,0173778
1857,1136;0,0173821
1858,0779;0,0174012
1859,0421;0,017426
1860,0063;0,0174453
1860,9706;0,0174553
1861,9348;0,017463
1862,8990;0,0174805
1863,8633;0,0175155
1864,8275;0,0175617
1865,7917;0,0175982
1866,7560;0,0175983
1867,7202;0,0175481
1868,6844;0,0174606
1869,6487;0,0173674
1870,6129;0,0172953
1871,5771;0,0172542
1872,5414;0,0172409
1873,5056;0,0172461
1874,4698;0,0172598
1875,4341;0,0172751
1876,3983;0,0172909
1877,3625;0,0173095
1878,3268;0,0173312
1879,2910;0,017351
1880,2552;0,0173613
1881,2195;0,0173588
1882,1837;0,01735
1883,1479;0,0173496
1884,1122;0,0173702
1885,0764;0,0174109
1886,0406;0,0174536
1887,0049;0,0174714
1887,9691;0,0174454
1888,9333;0,0173803
1889,8976;0,017304
1890,8618;0,0172493
1891,8260;0,0172335
1892,7903;0,0172536
1893,7545;0,0172962
1894,7188;0,0173488
1895,6830;0,0174033
1896,6472;0,0174528
1897,6115;0,0174855
1898,5757;0,0174878
1899,5399;0,0174525
1900,5042;0,0173881
1901,4684;0,017318
1902,4326;0,01727
1903,3969;0,0172602
1904,3611;0,0172834
1905,3253;0,017318
1906,2896;0,0173404
1907,2538;0,0173373
1908,2180;0,0173107
1909,1823;0,0172727
1910,1465;0,0172365
1911,1107;0,0172106
1912,0750;0,0171977
1913,0392;0,0171977
1914,0034;0,0172092
1914,9677;0,0172298
1915,9319;0,0172574
1916,8961;0,0172928
1917,8604;0,0173386
1918,8246;0,0173941
1919,7888;0,0174504
1920,7531;0,0174915
1921,7173;0,0175006
1922,6815;0,01747
1923,6458;0,0174079
1924,6100;0,0173365
1925,5742;0,0172787
1926,5385;0,0172441
1927,5027;0,0172253
1928,4669;0,0172055
1929,4312;0,0171717
1930,3954;0,0171248
1931,3596;0,0170796
1932,3239;0,0170537
1933,2881;0,017055
1934,2523;0,0170765
1935,2166;0,0171029
1936,1808;0,0171226
1937,1450;0,0171343
1938,1093;0,0171422
1939,0735;0,0171439
1940,0377;0,0171217
1941,0020;0,0170495
1941,9662;0,0169142
1942,9304;0,0167377
1943,8947;0,0165745
1944,8589;0,0164801
1945,8231;0,0164754
1946,7874;0,0165338
1947,7516;0,0165968
1948,7158;0,0166062
1949,6801;0,0165357
1950,6443;0,0164052
1951,6085;0,016268
1952,5728;0,01618
1953,5370;0,016171
1954,5012;0,0162345
1955,4655;0,0163373
1956,4297;0,0164389
1957,3939;0,0165081
1958,3582;0,0165305
1959,3224;0,0165071
1960,2866;0,0164488
1961,2509;0,0163684
1962,2151;0,0162719
1963,1793;0,0161517
1964,1436;0,015987
1965,1078;0,0157566
1966,0720;0,0154612
1967,0363;0,0151418
1968,0005;0,0148783
1968,9647;0,0147586
1969,9290;0,0148368
1970,8932;0,0151054
1971,8574;0,0154932
1972,8217;0,015887
1973,7859;0,0161704
1974,7501;0,0162698
1975,7144;0,0161859
1976,6786;0,0159928
1977,6428;0,0157968
1978,6071;0,0156814
1979,5713;0,0156749
1980,5355;0,0157595
1981,4998;0,0159001
1982,4640;0,0160653
1983,4282;0,0162298
1984,3925;0,016366
1985,3567;0,0164419
1986,3209;0,0164352
1987,2852;0,0163554
1988,2494;0,0162575
1989,2136;0,0162265
1990,1779;0,0163341
1991,1421;0,0165846
1992,1063;0,0168896
1993,0706;0,0171051
1994,0348;0,0171134
1994,9990;0,0168931
1995,9633;0,0165309
1996,9275;0,0161767
1997,8917;0,0159713
1998,8560;0,0159802
1999,8202;0,0161688
2000,7844;0,0164332
2001,7487;0,0166653
2002,7129;0,0168079
2003,6771;0,0168667
2004,6414;0,0168819
2005,6056;0,0168872
2006,5698;0,016886
2007,5341;0,016858
2008,4983;0,0167843
2009,4625;0,0166649
2010,4268;0,0165141
2011,3910;0,016347
2012,3552;0,0161745
2013,3195;0,016015
2014,2837;0,0159088
2015,2479;0,0159148
2016,2122;0,0160825
2017,1764;0,016413
2018,1406;0,0168401
2019,1049;0,0172528
2020,0691;0,0175457
2021,0333;0,0176632
2021,9976;0,0176141
2022,9618;0,017456
2023,9260;0,0172634
2024,8903;0,0170965
2025,8545;0,0169813
2026,8187;0,0169071
2027,7830;0,0168366
2028,7472;0,0167253
2029,7114;0,0165451
2030,6757;0,0163081
2031,6399;0,0160786
2032,6041;0,0159604
2033,5684;0,0160528
2034,5326;0,0163935
2035,4968;0,0169232
2036,4611;0,0174996
2037,4253;0,0179585
2038,3895;0,0181855
2039,3538;0,01816
2040,3180;0,0179541
2041,2822;0,0176891
2042,2465;0,0174773
2043,2107;0,0173824
2044,1749;0,0174161
2045,1392;0,0175606
2046,1034;0,0177899
2047,0676;0,0180724
2048,0320;0,0183639
2048,9961;0,0186097
2049,9604;0,0187636
2050,9246;0,0188107
2051,8889;0,018775
2052,8530;0,0187061
2053,8174;0,0186549
2054,7815;0,0186507
2055,7458;0,0186901
2056,7100;0,0187457
2057,6743;0,0187856
2058,6384;0,0187932
2059,6028;0,018774
2060,5669;0,0187483
2061,5313;0,018738
2062,4954;0,0187547
2063,4597;0,0187952
2064,4238;0,0188438
2065,3882;0,0188815
2066,3523;0,0188955
2067,3167;0,018886
2068,2808;0,0188669
2069,2451;0,018859
2070,2092;0,0188791
2071,1736;0,0189305
2072,1377;0,0189989
2073,1021;0,0190587
2074,0662;0,0190864
2075,0305;0,0190742
2075,9946;0,0190352
2076,9590;0,0189966
2077,9231;0,0189829
2078,8875;0,0190009
2079,8516;0,0190355
2080,8159;0,0190604
2081,7800;0,0190571
2082,7444;0,0190293
2083,7085;0,0190022
2084,6729;0,019007
2085,6370;0,01906
2086,6013;0,01915
2087,5654;0,0192436
2088,5298;0,0193037
2089,4939;0,0193113
2090,4583;0,0192759
2091,4224;0,0192286
2092,3867;0,0192045
2093,3508;0,0192234
2094,3152;0,0192815
2095,2793;0,0193566
2096,2437;0,0194224
2097,2078;0,019464
2098,1721;0,0194831
2099,1362;0,0194923
2100,1006;0,0195022
2101,0647;0,0195142
2102,0291;0,0195168
2102,9932;0,0194964
2103,9575;0,0194472
2104,9216;0,0193783
2105,8860;0,019312
2106,8501;0,0192757
2107,8145;0,019291
2108,7786;0,0193663
2109,7429;0,0194929
2110,7070;0,019646
2111,6714;0,0197884
2112,6355;0,0198796
2113,5999;0,0198888
2114,5640;0,0198101
2115,5283;0,0196695
2116,4924;0,0195177
2117,4568;0,0194096
2118,4209;0,0193799
2119,3853;0,0194284
2120,3494;0,0195248
2121,3137;0,0196291
2122,2778;0,0197144
2123,2422;0,0197775
2124,2063;0,0198313
2125,1707;0,0198881
2126,1348;0,019947
2127,0991;0,0199942
2128,0632;0,0200146
2129,0276;0,0200039
2129,9917;0,0199714
2130,9561;0,0199316
2131,9202;0,0198919
2132,8845;0,0198453
2133,8486;0,0197745
2134,8130;0,0196661
2135,7771;0,0195264
2136,7415;0,0193877
2137,7056;0,0192986
2138,6699;0,0193026
2139,6340;0,0194145
2140,5984;0,0196067
2141,5625;0,0198144
2142,5269;0,0199612
2143,4910;0,0199933
2144,4553;0,0199047
2145,4194;0,0197362
2146,3838;0,0195486
2147,3479;0,0193865
2148,3123;0,01926
2149,2764;0,0191542
2150,2407;0,0190578
2151,2048;0,0189822
2152,1692;0,0189545
2153,1333;0,0189887
2154,0977;0,0190626
2155,0618;0,0191212
2156,0261;0,0191119
2156,9902;0,0190282
2157,9546;0,0189237
2158,9187;0,0188735
2159,8831;0,0189101
2160,8472;0,0190029
2161,8115;0,0191018
2162,7756;0,0191907
2163,7400;0,0192949
2164,7041;0,0194448
2165,6685;0,0196285
2166,6326;0,0197773
2167,5969;0,0197986
2168,5610;0,0196348
2169,5254;0,0193052
2170,4895;0,0189039
2171,4539;0,018556
2172,4180;0,0183606
2173,3823;0,0183495
2174,3464;0,0184832
2175,3108;0,0186797
2176,2749;0,0188569
2177,2393;0,0189621
2178,2034;0,0189799
2179,1677;0,0189222
2180,1318;0,0188162
2181,0962;0,0186982
2182,0603;0,0186093
2183,0247;0,0185889
2183,9888;0,0186629
2184,9531;0,0188325
2185,9172;0,0190709
2186,8816;0,0193314
2187,8457;0,0195622
2188,8101;0,0197213
2189,7742;0,0197868
2190,7385;0,0197586
2191,7026;0,0196549
2192,6670;0,0195053
2193,6311;0,0193441
2194,5955;0,0192034
2195,5596;0,0191074
2196,5239;0,0190697
2197,4880;0,0190941
2198,4524;0,0191787
2199,4165;0,0193195
2200,3809;0,0195093
2201,3450;0,0197326
2202,3093;0,0199608
2203,2734;0,0201525
2204,2378;0,0202643
2205,2019;0,0202661
2206,1663;0,0201538
2207,1304;0,0199535
2208,0947;0,0197133
2209,0588;0,0194889
2210,0232;0,019329
2210,9873;0,0192634
2211,9517;0,0192978
2212,9158;0,0194136
2213,8801;0,0195747
2214,8442;0,0197392
2215,8086;0,019874
2216,7727;0,0199663
2217,7371;0,0200254
2218,7012;0,0200748
2219,6655;0,0201368
2220,6296;0,020217
2221,5940;0,0202979
2222,5581;0,020344
2223,5225;0,0203164
2224,4866;0,0201929
2225,4509;0,0199836
2226,4150;0,0197336
2227,3794;0,01951
2228,3435;0,0193747
2229,3079;0,019356
2230,2720;0,0194355
2231,2363;0,0195579
2232,2004;0,0196623
2233,1648;0,019714
2234,1289;0,0197195
2235,0933;0,0197137
2236,0574;0,0197303
2237,0217;0,0197758
2237,9858;0,019826
2238,9502;0,0198455
2239,9143;0,0198154
2240,8787;0,0197471
2241,8428;0,019675
2242,8071;0,0196334
2243,7712;0,0196367
2244,7356;0,0196747
2245,6997;0,0197239
2246,6641;0,0197647
2247,6282;0,0197902
2248,5925;0,0198063
2249,5566;0,0198236
2250,5210;0,0198506
2251,4851;0,0198896
2252,4495;0,0199358
2253,4136;0,0199779
2254,3779;0,0200009
2255,3420;0,0199929
2256,3064;0,0199524
2257,2705;0,0198926
2258,2349;0,019835
2259,1990;0,0197976
2260,1633;0,0197827
2261,1274;0,0197769
2262,0918;0,0197622
2263,0559;0,019732
2264,0203;0,019698
2264,9844;0,0196826
2265,9487;0,0197017
2266,9128;0,0197511
2267,8772;0,0198073
2268,8413;0,0198418
2269,8057;0,0198386
2270,7698;0,0198012
2271,7341;0,0197482
2272,6982;0,0197009
2273,6626;0,0196742
2274,6267;0,0196737
2275,5911;0,0196987
2276,5552;0,0197449
2277,5195;0,0198054
2278,4836;0,0198709
2279,4480;0,019932
2280,4121;0,0199828
2281,3765;0,0200238
2282,3406;0,0200594
2283,3049;0,0200935
2284,2690;0,0201252
2285,2334;0,0201508
2286,1975;0,0201684
2287,1619;0,0201835
2288,1260;0,020208
2289,0903;0,0202537
2290,0544;0,0203252
2291,0188;0,0204167
2291,9829;0,0205168
2292,9473;0,0206157
2293,9114;0,0207104
2294,8757;0,0208031
2295,8398;0,0208957
2296,8042;0,0209856
2297,7683;0,0210671
2298,7327;0,0211364
2299,6968;0,0211973
2300,6611;0,0212604
2301,6252;0,0213368
2302,5896;0,0214315
2303,5537;0,0215407
2304,5181;0,0216545
2305,4822;0,021763
2306,4465;0,0218598
2307,4106;0,0219421
2308,3750;0,0220081
2309,3391;0,0220558
2310,3035;0,0220841
2311,2676;0,0220957
2312,2319;0,0220983
2313,1960;0,0221014
2314,1604;0,022112
2315,1245;0,0221324
2316,0889;0,0221615
2317,0530;0,0221986
2318,0173;0,0222438
2318,9814;0,0222958
2319,9458;0,0223475
2320,9099;0,0223852
2321,8743;0,0223941
2322,8384;0,0223682
2323,8027;0,0223138
2324,7668;0,0222449
2325,7312;0,0221744
2326,6953;0,022106
2327,6597;0,0220336
2328,6238;0,0219445
2329,5881;0,0218283
2330,5522;0,0216855
2331,5166;0,0215299
2332,4807;0,0213819
2333,4451;0,0212551
2334,4092;0,021148
2335,3735;0,0210455
2336,3376;0,0209308
2337,3020;0,0208003
2338,2661;0,0206721
2339,2305;0,0205783
2340,1946;0,0205441
2341,1589;0,0205703
2342,1230;0,0206366
2343,0874;0,0207233
2344,0515;0,0208348
2345,0159;0,0209931
2345,9800;0,0212101
2346,9443;0,0214704
2347,9084;0,0217383
2348,8728;0,0219701
2349,8369;0,0221226
2350,8013;0,0221623
2351,7654;0,0220841
2352,7297;0,0219348
2353,6938;0,0218155
2354,6582;0,0218269
2355,6223;0,0219847
2356,5867;0,0221908
2357,5508;0,0222945
2358,5151;0,0221897
2359,4792;0,0218792
2360,4436;0,0214676
2361,4077;0,0210916
2362,3721;0,020845
2363,3362;0,0207481
2364,3005;0,0207621
2365,2646;0,0208264
2366,2290;0,0208937
2367,1931;0,020948
2368,1575;0,020998
2369,1216;0,021058
2370,0859;0,0211311
2371,0500;0,0212046
2372,0144;0,0212601
2372,9785;0,0212863
2373,9429;0,0212864
2374,9070;0,021274
2375,8713;0,0212639
2376,8354;0,0212621
2377,7998;0,0212645
2378,7639;0,0212606
2379,7283;0,0212417
2380,6924;0,0212054
2381,6567;0,0211562
2382,6208;0,0211019
2383,5852;0,0210497
2384,5493;0,0210041
2385,5137;0,0209674
2386,4778;0,0209411
2387,4421;0,0209266
2388,4063;0,0209239
2389,3706;0,0209303
2390,3347;0,0209387
2391,2991;0,0209399
2392,2632;0,0209264
2393,2275;0,0208973
2394,1917;0,0208597
2395,1560;0,0208267
2396,1201;0,0208113
2397,0845;0,0208204
2398,0486;0,0208518
2399,0129;0,020896
2399,9771;0,0209403
2400,9414;0,0209752
2401,9055;0,0209979
2402,8699;0,0210119
2403,8340;0,0210241
2404,7983;0,0210407
2405,7625;0,0210629
2406,7268;0,0210875
2407,6909;0,021109
2408,6553;0,0211247
2409,6194;0,0211365
2410,5837;0,0211501
2411,5479;0,0211698
2412,5122;0,0211941
2413,4763;0,0212158
2414,4407;0,0212267
2415,4048;0,0212255
2416,3691;0,0212209
2417,3333;0,0212283
2418,2976;0,0212595
2419,2617;0,0213142
2420,2261;0,0213785
2421,1902;0,0214321
2422,1545;0,0214603
2423,1187;0,0214623
2424,0830;0,0214501
2425,0471;0,0214396
2426,0115;0,0214408
2426,9756;0,0214526
2427,9399;0,0214667
2428,9041;0,0214753
2429,8684;0,0214778
2430,8325;0,0214813
2431,7969;0,0214952
2432,7610;0,0215238
2433,7253;0,0215623
2434,6895;0,0215986
2435,6538;0,0216194
2436,6179;0,0216182
2437,5823;0,021599
2438,5464;0,0215759
2439,5107;0,0215661
2440,4749;0,0215822
2441,4392;0,0216263
2442,4033;0,0216899
2443,3677;0,0217582
2444,3318;0,0218166
2445,2961;0,0218558
2446,2603;0,0218736
2447,2246;0,0218736
2448,1887;0,0218636
2449,1531;0,0218531
2450,1172;0,0218519
2451,0815;0,021867
2452,0457;0,0218993
2453,0100;0,0219415
2453,9741;0,0219801
2454,9385;0,022001
2455,9026;0,0219975
2456,8669;0,0219751
2457,8311;0,0219502
2458,7954;0,021942
2459,7595;0,0219633
2460,7239;0,0220138
2461,6880;0,0220806
2462,6523;0,0221451
2463,6165;0,0221921
2464,5808;0,0222158
2465,5449;0,0222207
2466,5093;0,0222162
2467,4734;0,0222112
2468,4377;0,022209
2469,4019;0,0222087
2470,3662;0,0222079
2471,3303;0,0222067
2472,2947;0,0222081
2473,2588;0,0222161
2474,2231;0,0222324
2475,1873;0,0222547
2476,1516;0,0222794
2477,1157;0,022305
2478,0801;0,0223335
2479,0442;0,0223692
2480,0085;0,0224136
2480,9727;0,0224619
2481,9370;0,0225036
2482,9011;0,0225281
2483,8655;0,0225308
2484,8296;0,0225175
2485,7939;0,022502
2486,7581;0,0224996
2487,7224;0,02252
2488,6865;0,0225627
2489,6509;0,0226186
2490,6150;0,022674
2491,5793;0,0227168
2492,5435;0,02274
2493,5078;0,0227438
2494,4719;0,0227351
2495,4363;0,0227248
2496,4004;0,0227234
2497,3647;0,0227367
2498,3289;0,0227617
2499,2932;0,0227879
2500,2573;0,0228023
2501,2217;0,0227964
2502,1858;0,0227719
2503,1501;0,0227408
2504,1143;0,0227189
2505,0786;0,0227173
2506,0427;0,022737
2507,0071;0,0227687
2507,9712;0,0227993
2508,9355;0,0228196
2509,8997;0,0228276
2510,8640;0,0228284
2511,8281;0,022829
2512,7925;0,0228349
2513,7566;0,0228489
2514,7209;0,0228711
2515,6851;0,0229007
2516,6494;0,0229349
2517,6135;0,0229684
2518,5779;0,0229946
2519,5420;0,0230088
2520,5063;0,0230114
2521,4705;0,0230094
2522,4348;0,0230116
2523,3989;0,0230226
2524,3633;0,0230382
2525,3274;0,0230475
2526,2917;0,0230396
2527,2559;0,0230123
2528,2202;0,0229754
2529,1843;0,0229458
2530,1487;0,0229381
2531,1128;0,0229569
2532,0771;0,0229948
2533,0413;0,023038
2534,0056;0,0230753
2534,9697;0,0231032
2535,9341;0,0231247
2536,8982;0,0231438
2537,8625;0,0231602
2538,8267;0,0231682
2539,7910;0,0231617
2540,7551;0,0231406
2541,7195;0,0231133
2542,6836;0,0230942
2543,6479;0,0230966
2544,6121;0,0231253
2545,5764;0,0231741
2546,5405;0,0232281
2547,5049;0,023271
2548,4690;0,0232913
2549,4333;0,0232865
2550,3975;0,0232627
2551,3618;0,0232319
2552,3259;0,0232069
2553,2903;0,0231972
2554,2544;0,0232057
2555,2188;0,0232285
2556,1829;0,023257
2557,1472;0,0232816
2558,1113;0,0232959
2559,0757;0,0232985
2560,0398;0,0232926
2561,0042;0,0232827
2561,9683;0,0232727
2562,9326;0,0232646
2563,8967;0,0232595
2564,8611;0,0232589
2565,8252;0,0232651
2566,7896;0,0232796
2567,7537;0,0233022
2568,7180;0,0233297
2569,6821;0,0233576
2570,6465;0,0233815
2571,6106;0,0233994
2572,5750;0,0234116
2573,5391;0,0234204
2574,5034;0,0234276
2575,4675;0,0234331
2576,4319;0,0234345
2577,3960;0,023428
2578,3604;0,0234114
2579,3245;0,023387
2580,2888;0,0233634
2581,2529;0,0233526
2582,2173;0,0233655
2583,1814;0,0234058
2584,1458;0,0234668
2585,1099;0,0235335
2586,0742;0,0235892
2587,0383;0,0236226
2588,0027;0,0236319
2588,9668;0,0236241
2589,9312;0,0236103
2590,8953;0,0236001
2591,8596;0,0235979
2592,8237;0,0236038
2593,7881;0,0236158
2594,7522;0,0236323
2595,7166;0,0236537
2596,6807;0,0236812
2597,6450;0,0237157
2598,6091;0,0237556
2599,5735;0,0237974
2600,5376;0,0238366
2601,5020;0,0238693
2602,4661;0,0238943
2603,4304;0,0239128
2604,3945;0,0239279
2605,3589;0,0239432
2606,3230;0,0239605
2607,2874;0,0239795
2608,2515;0,0239979
2609,2158;0,0240121
2610,1799;0,02402
2611,1443;0,0240225
2612,1084;0,0240241
2613,0728;0,0240319
2614,0369;0,0240521
2615,0012;0,0240867
2615,9653;0,0241316
2616,9297;0,0241784
2617,8938;0,0242183
2618,8582;0,0242473
2619,8223;0,024268
2620,7866;0,0242867
2621,7507;0,0243094
2622,7151;0,0243371
2623,6792;0,0243654
2624,6436;0,0243878
2625,6077;0,0243998
2626,5720;0,0244024
2627,5361;0,0244011
2628,5005;0,0244035
2629,4646;0,0244154
2630,4290;0,0244389
2631,3931;0,0244731
2632,3574;0,0245149
2633,3215;0,0245605
2634,2859;0,0246058
2635,2500;0,0246466
2636,2144;0,0246799
2637,1785;0,0247043
2638,1428;0,0247213
2639,1069;0,0247349
2640,0713;0,0247501
2641,0354;0,0247705
2641,9998;0,024797
2642,9639;0,0248272
2643,9282;0,0248574
2644,8923;0,0248854
2645,8567;0,0249119
2646,8208;0,0249403
2647,7852;0,0249736
2648,7493;0,0250116
2649,7136;0,0250495
2650,6777;0,0250807
2651,6421;0,0251012
2652,6062;0,0251135
2653,5706;0,0251257
2654,5347;0,0251472
2655,4990;0,0251827
2656,4631;0,0252292
2657,4275;0,0252775
2658,3916;0,0253176
2659,3560;0,0253442
2660,3201;0,0253593
2661,2844;0,0253701
2662,2485;0,0253843
2663,2129;0,0254064
2664,1770;0,0254356
2665,1414;0,025468
2666,1055;0,0254987
2667,0698;0,0255245
2668,0339;0,0255453
2668,9983;0,0255631
2669,9624;0,0255813
2670,9268;0,0256026
2671,8909;0,0256276
2672,8552;0,0256546
2673,8193;0,0256803
2674,7837;0,0257017
2675,7478;0,0257187
2676,7122;0,0257339
2677,6763;0,0257522
2678,6406;0,0257776
2679,6047;0,0258111
2680,5691;0,0258505
2681,5332;0,0258919
2682,4976;0,025932
2683,4617;0,0259698
2684,4260;0,0260059
2685,3901;0,0260402
2686,3545;0,0260714
2687,3186;0,0260969
2688,2830;0,0261156
2689,2471;0,0261297
2690,2114;0,0261455
2691,1755;0,0261704
2692,1399;0,0262087
2693,1040;0,0262586
2694,0684;0,0263122
2695,0325;0,0263591
2695,9968;0,0263916
2696,9609;0,0264088
2697,9253;0,0264167
2698,8894;0,026425
2699,8538;0,0264425
2700,8179;0,0264734
2701,7822;0,0265167
2702,7463;0,026568
2703,7107;0,0266213
2704,6748;0,0266714
2705,6392;0,0267141
2706,6033;0,0267471
2707,5676;0,02677
2708,5317;0,0267855
2709,4961;0,0267987
2710,4602;0,0268159
2711,4246;0,0268421
2712,3887;0,0268795
2713,3530;0,0269261
2714,3171;0,0269773
2715,2815;0,0270279
2716,2456;0,0270743
2717,2100;0,027115
2718,1741;0,027151
2719,1384;0,0271834
2720,1025;0,0272127
2721,0669;0,0272376
2722,0310;0,0272563
2722,9954;0,027269
2723,9595;0,027279
2724,9238;0,0272937
2725,8879;0,0273212
2726,8523;0,0273663
2727,8164;0,0274273
2728,7808;0,0274957
2729,7449;0,0275597
2730,7092;0,0276099
2731,6733;0,0276423
2732,6377;0,0276594
2733,6018;0,0276663
2734,5662;0,0276681
2735,5303;0,0276676
2736,4946;0,0276668
2737,4587;0,0276689
2738,4231;0,0276794
2739,3872;0,0277046
2740,3516;0,0277482
2741,3157;0,0278084
2742,2800;0,0278766
2743,2441;0,0279407
2744,2085;0,0279888
2745,1726;0,0280146
2746,1370;0,0280192
2747,1011;0,0280106
2748,0654;0,0280004
2749,0295;0,0279993
2749,9939;0,0280136
2750,9580;0,0280438
2751,9224;0,0280854
2752,8865;0,0281322
2753,8508;0,028179
2754,8149;0,0282231
2755,7793;0,0282642
2756,7434;0,0283032
2757,7078;0,0283407
2758,6719;0,0283767
2759,6362;0,0284111
2760,6003;0,0284447
2761,5647;0,0284787
2762,5288;0,0285141
2763,4932;0,028551
2764,4573;0,0285885
2765,4216;0,0286258
2766,3857;0,0286635
2767,3501;0,0287042
2768,3142;0,0287512
2769,2786;0,0288064
2770,2427;0,028868
2771,2070;0,0289304
2772,1711;0,0289861
2773,1355;0,0290296
2774,0996;0,0290605
2775,0640;0,0290848
2776,0281;0,0291123
2776,9924;0,0291524
2777,9565;0,0292092
2778,9209;0,0292801
2779,8850;0,0293567
2780,8494;0,029429
2781,8135;0,0294899
2782,7778;0,029538
2783,7419;0,029577
2784,7063;0,0296136
2785,6704;0,0296534
2786,6348;0,0296993
2787,5989;0,0297509
2788,5632;0,0298066
2789,5273;0,029866
2790,4917;0,0299311
2791,4558;0,030005
2792,4202;0,0300896
2793,3843;0,0301828
2794,3486;0,0302781
2795,3127;0,0303673
2796,2771;0,0304445
2797,2412;0,0305097
2798,2056;0,0305691
2799,1697;0,0306323
2800,1340;0,0307073
2801,0981;0,0307971
2802,0625;0,030899
2803,0266;0,0310071
2803,9910;0,0311155
2804,9551;0,0312203
2805,9194;0,0313201
2806,8835;0,0314149
2807,8479;0,0315063
2808,8120;0,0315972
2809,7764;0,031692
2810,7405;0,0317958
2811,7048;0,0319116
2812,6689;0,0320394
2813,6333;0,0321754
2814,5974;0,0323145
2815,5618;0,0324532
2816,5259;0,0325916
2817,4902;0,032733
2818,4543;0,0328814
2819,4187;0,0330387
2820,3828;0,033203
2821,3472;0,0333694
2822,3113;0,0335332
2823,2756;0,0336923
2824,2397;0,0338493
2825,2041;0,0340107
2826,1682;0,0341844
2827,1326;0,0343767
2828,0967;0,0345904
2829,0610;0,0348243
2830,0251;0,0350744
2830,9895;0,0353365
2831,9536;0,0356072
2832,9180;0,0358853
2833,8821;0,0361717
2834,8464;0,0364688
2835,8105;0,0367802
2836,7749;0,03711
2837,7390;0,0374633
2838,7034;0,0378468
2839,6675;0,038269
2840,6318;0,0387407
2841,5959;0,039274
2842,5603;0,039879
2843,5244;0,0405579
2844,4888;0,041299
2845,4529;0,0420726
2846,4172;0,0428314
2847,3813;0,0435176
2848,3457;0,0440754
2849,3098;0,0444645
2850,2742;0,0446706
2851,2383;0,0447076
2852,2026;0,0446115
2853,1667;0,044429
2854,1311;0,0442045
2855,0952;0,043972
2856,0596;0,0437518
2857,0237;0,0435542
2857,9880;0,0433848
2858,9521;0,043249
2859,9165;0,0431529
2860,8806;0,0431012
2861,8450;0,0430944
2862,8091;0,0431278
2863,7734;0,0431938
2864,7375;0,0432849
2865,7019;0,0433963
2866,6660;0,043524
2867,6304;0,0436619
2868,5945;0,0438002
2869,5588;0,0439261
2870,5229;0,0440295
2871,4873;0,0441075
2872,4514;0,0441665
2873,4158;0,0442179
2874,3799;0,0442713
2875,3442;0,0443296
2876,3083;0,0443887
2877,2727;0,0444427
2878,2368;0,0444903
2879,2012;0,044537
2880,1653;0,0445926
2881,1296;0,0446653
2882,0938;0,0447573
2883,0581;0,0448639
2884,0222;0,0449773
2884,9866;0,0450912
2885,9507;0,0452033
2886,9150;0,0453145
2887,8792;0,0454269
2888,8435;0,045542
2889,8076;0,0456612
2890,7720;0,0457863
2891,7361;0,0459196
2892,7004;0,0460625
2893,6646;0,0462126
2894,6289;0,0463642
2895,5930;0,0465099
2896,5574;0,0466449
2897,5215;0,0467701
2898,4858;0,0468917
2899,4500;0,0470181
2900,4143;0,0471556
2901,3784;0,0473062
2902,3428;0,0474686
2903,3069;0,0476413
2904,2712;0,0478261
2905,2354;0,0480283
2906,1997;0,0482558
2907,1638;0,0485164
2908,1282;0,0488171
2909,0923;0,0491645
2910,0566;0,0495649
2911,0208;0,0500216
2911,9851;0,0505287
2912,9492;0,0510649
2913,9136;0,0515921
2914,8777;0,0520618
2915,8420;0,0524285
2916,8062;0,0526639
2917,7705;0,0527642
2918,7346;0,0527472
2919,6990;0,0526401
2920,6631;0,0524666
2921,6274;0,0522405
2922,5916;0,0519674
2923,5559;0,0516519
2924,5200;0,0513027
2925,4844;0,0509329
2926,4485;0,0505542
2927,4128;0,0501718
2928,3770;0,0497846
2929,3413;0,0493895
2930,3054;0,048987
2931,2698;0,0485834
2932,2339;0,0481866
2933,1982;0,0478012
2934,1624;0,0474245
2935,1267;0,0470491
2936,0908;0,0466681
2937,0552;0,04628
2938,0193;0,0458898
2938,9836;0,0455049
2939,9478;0,0451304
2940,9121;0,0447661
2941,8762;0,0444087
2942,8406;0,0440561
2943,8047;0,043712
2944,7690;0,0433862
2945,7332;0,0430909
2946,6975;0,0428348
2947,6616;0,0426186
2948,6260;0,0424337
2949,5901;0,0422664
2950,5544;0,0421029
2951,5186;0,0419349
2952,4829;0,0417609
2953,4470;0,0415849
2954,4114;0,0414117
2955,3755;0,0412425
2956,3398;0,0410727
2957,3040;0,0408936
2958,2683;0,0406959
2959,2324;0,0404749
2960,1968;0,0402334
2961,1609;0,0399807
2962,1252;0,0397293
2963,0894;0,0394891
2964,0537;0,0392626
2965,0178;0,0390445
2965,9822;0,0388247
2966,9463;0,0385932
2967,9106;0,0383445
2968,8748;0,038079
2969,8391;0,0378017
2970,8032;0,0375197
2971,7676;0,0372409
2972,7317;0,036973
2973,6960;0,0367235
2974,6602;0,0364977
2975,6245;0,0362962
2976,5886;0,0361138
2977,5530;0,0359412
2978,5171;0,0357701
2979,4814;0,0355982
2980,4456;0,0354303
2981,4099;0,0352761
2982,3740;0,0351436
2983,3384;0,035034
2984,3025;0,0349415
2985,2668;0,0348557
2986,2310;0,0347683
2987,1953;0,0346762
2988,1594;0,0345828
2989,1238;0,0344954
2990,0879;0,0344213
2991,0522;0,0343652
2992,0164;0,0343274
2992,9807;0,0343049
2993,9448;0,0342934
2994,9092;0,0342891
2995,8733;0,0342908
2996,8376;0,0343002
2997,8018;0,0343199
2998,7661;0,0343511
2999,7302;0,0343918
3000,6946;0,0344366
3001,6587;0,0344795
3002,6230;0,0345173
3003,5872;0,0345511
3004,5515;0,0345848
3005,5156;0,0346214
3006,4800;0,0346605
3007,4441;0,0346977
3008,4084;0,0347279
3009,3726;0,0347497
3010,3369;0,0347676
3011,3010;0,0347903
3012,2654;0,0348257
3013,2295;0,0348763
3014,1938;0,0349371
3015,1580;0,0349995
3016,1223;0,0350569
3017,0864;0,035109
3018,0508;0,0351619
3019,0149;0,0352237
3019,9792;0,0352988
3020,9434;0,0353856
3021,9077;0,0354777
3022,8718;0,035569
3023,8362;0,0356573
3024,8003;0,0357452
3025,7646;0,0358359
3026,7288;0,0359301
3027,6931;0,0360233
3028,6572;0,0361093
3029,6216;0,0361844
3030,5857;0,0362506
3031,5500;0,0363159
3032,5142;0,0363892
3033,4785;0,0364761
3034,4426;0,0365759
3035,4070;0,0366833
3036,3711;0,0367922
3037,3354;0,036899
3038,2996;0,0370037
3039,2639;0,0371083
3040,2280;0,0372149
3041,1924;0,0373242
3042,1565;0,0374358
3043,1208;0,0375484
3044,0850;0,0376612
3045,0493;0,0377735
3046,0134;0,0378858
3046,9778;0,0379998
3047,9419;0,0381182
3048,9063;0,0382437
3049,8704;0,0383769
3050,8347;0,038515
3051,7988;0,0386523
3052,7632;0,0387827
3053,7273;0,0389035
3054,6917;0,039018
3055,6558;0,0391341
3056,6201;0,0392602
3057,5842;0,0393999
3058,5486;0,0395498
3059,5127;0,039701
3060,4771;0,0398431
3061,4412;0,0399693
3062,4055;0,0400781
3063,3696;0,0401738
3064,3340;0,0402641
3065,2981;0,0403575
3066,2625;0,0404606
3067,2266;0,0405762
3068,1909;0,0407029
3069,1550;0,0408364
3070,1194;0,0409713
3071,0835;0,0411042
3072,0479;0,0412343
3073,0120;0,041362
3073,9763;0,0414872
3074,9404;0,0416073
3075,9048;0,0417193
3076,8689;0,0418219
3077,8333;0,0419181
3078,7974;0,0420149
3079,7617;0,0421192
3080,7258;0,042234
3081,6902;0,0423571
3082,6543;0,042483
3083,6187;0,0426065
3084,5828;0,0427252
3085,5471;0,042839
3086,5112;0,0429488
3087,4756;0,0430552
3088,4397;0,0431592
3089,4041;0,043263
3090,3682;0,0433693
3091,3325;0,0434807
3092,2966;0,0435978
3093,2610;0,04372
3094,2251;0,0438471
3095,1895;0,04398
3096,1536;0,0441196
3097,1179;0,0442637
3098,0820;0,0444055
3099,0464;0,0445363
3100,0105;0,0446508
3100,9749;0,0447521
3101,9390;0,0448508
3102,9033;0,0449597
3103,8674;0,0450864
3104,8318;0,0452301
3105,7959;0,0453847
3106,7603;0,0455442
3107,7244;0,0457065
3108,6887;0,0458717
3109,6528;0,0460377
3110,6172;0,0461974
3111,5813;0,0463412
3112,5457;0,0464632
3113,5098;0,046567
3114,4741;0,0466655
3115,4382;0,0467743
3116,4026;0,0469036
3117,3667;0,0470537
3118,3311;0,0472174
3119,2952;0,0473862
3120,2595;0,0475556
3121,2236;0,0477253
3122,1880;0,0478968
3123,1521;0,0480698
3124,1165;0,0482421
3125,0806;0,0484114
3126,0449;0,0485778
3127,0090;0,0487431
3127,9734;0,0489086
3128,9375;0,0490725
3129,9019;0,049231
3130,8660;0,0493811
3131,8303;0,0495247
3132,7944;0,0496694
3133,7588;0,0498255
3134,7229;0,0500008
3135,6873;0,0501961
3136,6514;0,0504049
3137,6157;0,0506158
3138,5798;0,0508173
3139,5442;0,0510021
3140,5083;0,0511695
3141,4727;0,0513255
3142,4368;0,0514793
3143,4011;0,0516389
3144,3652;0,051808
3145,3296;0,0519848
3146,2937;0,0521648
3147,2581;0,0523448
3148,2222;0,0525256
3149,1865;0,0527115
3150,1506;0,0529064
3151,1150;0,0531101
3152,0791;0,0533165
3153,0435;0,0535167
3154,0076;0,0537042
3154,9719;0,0538797
3155,9360;0,0540509
3156,9004;0,0542295
3157,8645;0,0544242
3158,8289;0,0546363
3159,7930;0,0548586
3160,7573;0,0550793
3161,7214;0,055288
3162,6858;0,0554812
3163,6499;0,055663
3164,6143;0,0558421
3165,5784;0,0560258
3166,5427;0,0562161
3167,5068;0,05641
3168,4712;0,0566041
3169,4353;0,056788
3170,3997;0,0569911
3171,3638;0,0572085
3172,3281;0,0574405
3173,2922;0,0576776
3174,2566;0,0579046
3175,2207;0,0581094
3176,1851;0,0582914
3177,1492;0,0584628
3178,1135;0,0586407
3179,0776;0,0588362
3180,0420;0,0590475
3181,0061;0,0592621
3181,9705;0,059466
3182,9346;0,0596531
3183,8989;0,0598276
3184,8630;0,0599993
3185,8274;0,0601767
3186,7915;0,0603617
3187,7559;0,0605514
3188,7200;0,0607423
3189,6843;0,0609341
3190,6484;0,0611281
3191,6128;0,0613236
3192,5769;0,0615163
3193,5413;0,0617001
3194,5054;0,0618732
3195,4697;0,062041
3196,4338;0,0622144
3197,3982;0,0624028
3198,3623;0,0626067
3199,3267;0,0628169
3200,2908;0,0630203
3201,2551;0,0632085
3202,2192;0,0633835
3203,1836;0,0635559
3204,1477;0,0637373
3205,1121;0,0639321
3206,0762;0,0641345
3207,0405;0,0643316
3208,0046;0,0645113
3208,9690;0,0646693
3209,9331;0,0648113
3210,8975;0,0649498
3211,8616;0,0650981
3212,8259;0,0652637
3213,7900;0,065446
3214,7544;0,0656372
3215,7185;0,0658265
3216,6829;0,0660052
3217,6470;0,0661713
3218,6113;0,0663295
3219,5754;0,0664889
3220,5398;0,0666576
3221,5039;0,0668388
3222,4683;0,0670292
3223,4324;0,0672211
3224,3967;0,0674075
3225,3608;0,0675851
3226,3252;0,0677556
3227,2893;0,0679233
3228,2537;0,0680921
3229,2178;0,0682635
3230,1821;0,0684359
3231,1462;0,0686071
3232,1106;0,0687757
3233,0747;0,0689418
3234,0391;0,0691068
3235,0032;0,0692727
3235,9675;0,0694425
3236,9316;0,0696188
3237,8960;0,0698036
3238,8601;0,069996
3239,8245;0,0701917
3240,7886;0,0703837
3241,7529;0,0705657
3242,7170;0,0707352
3243,6814;0,0708954
3244,6455;0,0710541
3245,6099;0,0712198
3246,5740;0,0713984
3247,5383;0,0715907
3248,5024;0,0717936
3249,4668;0,0720018
3250,4309;0,0722096
3251,3953;0,0724127
3252,3594;0,0726089
3253,3237;0,072799
3254,2878;0,0729868
3255,2522;0,0731776
3256,2163;0,0733753
3257,1807;0,0735795
3258,1448;0,0737849
3259,1091;0,073984
3260,0732;0,074171
3261,0376;0,0743458
3262,0017;0,0745142
3262,9661;0,0746847
3263,9302;0,074864
3264,8945;0,075053
3265,8586;0,0752473
3266,8230;0,0754393
3267,7871;0,075622
3268,7515;0,0757911
3269,7156;0,0759437
3270,6799;0,0760778
3271,6440;0,0761915
3272,6084;0,0762846
3273,5725;0,076361
3274,5369;0,0764291
3275,5010;0,0764992
3276,4653;0,0765789
3277,4294;0,0766691
3278,3938;0,0767636
3279,3579;0,0768527
3280,3223;0,0769277
3281,2864;0,0769849
3282,2507;0,0770266
3283,2148;0,0770588
3284,1792;0,0770879
3285,1433;0,0771174
3286,1077;0,0771476
3287,0718;0,0771761
3288,0361;0,0771996
3289,0002;0,0772156
3289,9646;0,0772238
3290,9287;0,0772257
3291,8931;0,0772238
3292,8572;0,0772199
3293,8215;0,077215
3294,7856;0,0772095
3295,7500;0,0772044
3296,7141;0,0772017
3297,6785;0,0772042
3298,6426;0,0772129
3299,6069;0,0772257
3300,5710;0,0772369
3301,5354;0,077239
3302,4995;0,0772257
3303,4639;0,0771949
3304,4280;0,07715
3305,3923;0,0770994
3306,3564;0,0770526
3307,3208;0,0770177
3308,2849;0,0769974
3309,2493;0,0769899
3310,2134;0,0769908
3311,1777;0,0769965
3312,1418;0,077007
3313,1062;0,0770246
3314,0703;0,0770514
3315,0347;0,077086
3315,9988;0,0771241
3316,9631;0,0771611
3317,9272;0,0771959
3318,8916;0,0772323
3319,8557;0,0772767
3320,8201;0,0773332
3321,7842;0,0774009
3322,7485;0,0774733
3323,7126;0,0775422
3324,6770;0,0776012
3325,6411;0,0776479
3326,6055;0,077684
3327,5696;0,0777131
3328,5339;0,0777394
3329,4980;0,0777666
3330,4624;0,0777967
3331,4265;0,0778287
3332,3909;0,0778581
3333,3550;0,0778772
3334,3193;0,0778774
3335,2834;0,0778529
3336,2478;0,0778024
3337,2119;0,077729
3338,1763;0,0776388
3339,1404;0,0775381
3340,1047;0,0774326
3341,0688;0,0773266
3342,0332;0,0772217
3342,9973;0,0771161
3343,9617;0,0770047
3344,9258;0,0768813
3345,8901;0,0767423
3346,8542;0,0765894
3347,8186;0,0764297
3348,7827;0,076271
3349,7471;0,0761174
3350,7112;0,0759667
3351,6755;0,0758127
3352,6396;0,0756502
3353,6040;0,0754795
3354,5681;0,0753066
3355,5325;0,0751394
3356,4966;0,0749828
3357,4609;0,0748358
3358,4250;0,0746931
3359,3894;0,0745483
3360,3535;0,074397
3361,3179;0,0742379
3362,2820;0,0740722
3363,2463;0,0739023
3364,2104;0,0737318
3365,1748;0,0735644
3366,1389;0,0734028
3367,1033;0,0732469
3368,0674;0,0730927
3369,0317;0,0729339
3369,9958;0,0727663
3370,9602;0,072591
3371,9243;0,0724142
3372,8887;0,0722439
3373,8528;0,0720842
3374,8171;0,0719329
3375,7813;0,0717831
3376,7456;0,0716277
3377,7097;0,0714645
3378,6741;0,0712958
3379,6382;0,0711261
3380,6025;0,0709574
3381,5667;0,0707886
3382,5310;0,0706183
3383,4951;0,0704482
3384,4595;0,0702855
3385,4236;0,0701385
3386,3879;0,0700113
3387,3521;0,069899
3388,3164;0,0697888
3389,2805;0,0696657
3390,2449;0,0695204
3391,2090;0,0693534
3392,1733;0,0691746
3393,1375;0,0689976
3394,1018;0,068833
3395,0659;0,0686846
3396,0303;0,0685494
3396,9944;0,0684195
3397,9587;0,0682844
3398,9229;0,0681334
3399,8872;0,0679581
3400,8513;0,0677552
3401,8157;0,0675297
3402,7798;0,067294
3403,7441;0,0670644
3404,7083;0,0668544
3405,6726;0,0666697
3406,6367;0,0665067
3407,6011;0,0663549
3408,5652;0,0662018
3409,5295;0,0660367
3410,4937;0,0658537
3411,4580;0,0656537
3412,4221;0,0654442
3413,3865;0,065237
3414,3506;0,0650423
3415,3149;0,0648624
3416,2791;0,0646878
3417,2434;0,0645003
3418,2075;0,0642824
3419,1719;0,0640276
3420,1360;0,0637471
3421,1003;0,0634651
3422,0645;0,0632064
3423,0288;0,0629834
3423,9929;0,0627914
3424,9573;0,0626136
3425,9214;0,0624308
3426,8857;0,0622306
3427,8499;0,0620107
3428,8142;0,0617774
3429,7783;0,0615397
3430,7427;0,061304
3431,7068;0,061072
3432,6711;0,0608425
3433,6353;0,060615
3434,5996;0,0603917
3435,5637;0,0601759
3436,5281;0,0599675
3437,4922;0,059762
3438,4565;0,0595512
3439,4207;0,0593295
3440,3850;0,0590972
3441,3491;0,0588591
3442,3135;0,0586184
3443,2776;0,0583716
3444,2419;0,0581096
3445,2061;0,057828
3446,1704;0,0575362
3447,1345;0,0572575
3448,0989;0,0570165
3449,0630;0,0568208
3450,0273;0,0566543
3450,9915;0,0564857
3451,9558;0,0562864
3452,9199;0,0560456
3453,8843;0,055775
3454,8484;0,0554996
3455,8127;0,0552413
3456,7769;0,0550071
3457,7412;0,0547871
3458,7053;0,0545645
3459,6697;0,0543268
3460,6338;0,0540733
3461,5981;0,0538134
3462,5623;0,0535588
3463,5266;0,0533155
3464,4907;0,0530811
3465,4551;0,0528484
3466,4192;0,0526125
3467,3835;0,0523755
3468,3477;0,0521447
3469,3120;0,0519254
3470,2761;0,0517142
3471,2405;0,0514995
3472,2046;0,0512694
3473,1689;0,0510229
3474,1331;0,0507743
3475,0974;0,0505445
3476,0615;0,0503457
3477,0259;0,050169
3477,9900;0,0499869
3478,9543;0,0497688
3479,9185;0,0495011
3480,8828;0,0491971
3481,8469;0,0488899
3482,8113;0,0486103
3483,7754;0,0483685
3484,7397;0,0481519
3485,7039;0,0479389
3486,6682;0,0477146
3487,6323;0,0474797
3488,5967;0,0472461
3489,5608;0,0470246
3490,5251;0,0468148
3491,4893;0,0466035
3492,4536;0,0463743
3493,4177;0,0461194
3494,3821;0,0458496
3495,3462;0,0455921
3496,3105;0,0453763
3497,2747;0,0452136
3498,2390;0,0450857
3499,2031;0,0449499
3500,1675;0,0447592
3501,1316;0,0444883
3502,0959;0,0441532
3503,0601;0,043806
3504,0244;0,0435021
3504,9885;0,0432644
3505,9529;0,0430737
3506,9170;0,0428881
3507,8813;0,0426725
3508,8455;0,0424201
3509,8098;0,0421534
3510,7739;0,0419056
3511,7383;0,0416953
3512,7024;0,0415169
3513,6667;0,0413502
3514,6309;0,0411781
3515,5952;0,0409978
3516,5593;0,0408191
3517,5237;0,0406529
3518,4878;0,0404998
3519,4521;0,0403469
3520,4163;0,0401751
3521,3806;0,0399702
3522,3447;0,03973
3523,3091;0,0394626
3524,2732;0,0391778
3525,2375;0,0388795
3526,2017;0,0385684
3527,1660;0,0382513
3528,1301;0,0379485
3529,0945;0,0376888
3530,0586;0,0374924
3531,0229;0,0373565
3531,9871;0,0372526
3532,9514;0,0371391
3533,9155;0,0369795
3534,8799;0,0367599
3535,8440;0,0364979
3536,8083;0,0362348
3537,7725;0,0360135
3538,7368;0,0358564
3539,7009;0,0357546
3540,6653;0,0356729
3541,6294;0,0355618
3542,5938;0,0353743
3543,5579;0,0350874
3544,5222;0,0347213
3545,4863;0,0343372
3546,4507;0,0340043
3547,4148;0,0337571
3548,3792;0,0335795
3549,3433;0,0334223
3550,3076;0,0332344
3551,2717;0,0329904
3552,2361;0,0327058
3553,2002;0,032427
3554,1646;0,0321986
3555,1287;0,0320334
3556,0930;0,0319077
3557,0571;0,0317817
3558,0215;0,0316283
3558,9856;0,0314546
3559,9500;0,0313005
3560,9141;0,0312087
3561,8784;0,0311851
3562,8425;0,0311754
3563,8069;0,0310715
3564,7710;0,0307557
3565,7354;0,0301886
3566,6995;0,0294895
3567,6638;0,0288828
3568,6279;0,02852
3569,5923;0,0283904
3570,5564;0,0283868
3571,5208;0,0283957
3572,4849;0,0283434
3573,4492;0,028208
3574,4133;0,0280116
3575,3777;0,0277946
3576,3418;0,0275833
3577,3062;0,0273793
3578,2703;0,0271767
3579,2346;0,0269886
3580,1987;0,0268528
3581,1631;0,0268076
3582,1272;0,026854
3583,0916;0,0269336
3584,0557;0,0269336
3585,0200;0,0267269
3585,9841;0,0262566
3586,9485;0,0256246
3587,9126;0,0250571
3588,8770;0,0247273
3589,8411;0,0246403
3590,8054;0,0246827
3591,7695;0,0247187
3592,7339;0,024651
3593,6980;0,0244532
3594,6624;0,0241727
3595,6265;0,0238874
3596,5908;0,0236416
3597,5549;0,0234232
3598,5193;0,0231992
3599,4834;0,0229653
3600,4478;0,0227628
3601,4119;0,0226471
3602,3762;0,0226368
3603,3403;0,0226928
3604,3047;0,0227385
3605,2688;0,0226972
3606,2332;0,0225315
3607,1973;0,0222651
3608,1616;0,0219665
3609,1257;0,0216949
3610,0901;0,0214627
3611,0542;0,0212526
3612,0186;0,0210581
3612,9827;0,0209006
3613,9470;0,0208057
3614,9111;0,0207638
3615,8755;0,0207106
3616,8396;0,0205493
3617,8040;0,020212
3618,7681;0,0197344
3619,7324;0,0192697
3620,6965;0,0189933
3621,6609;0,0189885
3622,6250;0,0192264
3623,5894;0,0196105
3624,5535;0,0200047
3625,5178;0,0202331
3626,4819;0,0200997
3627,4463;0,0195033
3628,4104;0,0186135
3629,3748;0,0178209
3630,3389;0,0173856
3631,3032;0,0172757
3632,2673;0,0173265
3633,2317;0,0173963
3634,1958;0,0174127
3635,1602;0,0173658
3636,1243;0,0172829
3637,0886;0,0171953
3638,0527;0,017117
3639,0171;0,0170483
3639,9812;0,0169956
3640,9456;0,0169845
3641,9097;0,0170516
3642,8740;0,0172176
3643,8381;0,0174581
3644,8025;0,0176804
3645,7666;0,0177104
3646,7310;0,0173247
3647,6951;0,0164218
3648,6594;0,0152892
3649,6235;0,0144845
3650,5879;0,0142652
3651,5520;0,0144615
3652,5164;0,014796
3653,4805;0,0150618
3654,4448;0,01514
3655,4089;0,0150086
3656,3733;0,0147546
3657,3374;0,0145223
3658,3018;0,014407
3659,2659;0,0144039
3660,2302;0,0144506
3661,1943;0,0144955
3662,1587;0,014537
3663,1228;0,0146142
3664,0872;0,0147617
3665,0513;0,014962
3666,0156;0,0151312
3666,9797;0,0151502
3667,9441;0,0149449
3668,9082;0,0145865
3669,8726;0,0142826
3670,8367;0,0141924
3671,8010;0,0142763
3672,7651;0,0143395
3673,7295;0,0141688
3674,6936;0,0136883
3675,6580;0,0130706
3676,6221;0,0126163
3677,5864;0,0124737
3678,5505;0,0125761
3679,5149;0,0127899
3680,4790;0,0130253
3681,4434;0,0132596
3682,4075;0,0135148
3683,3718;0,0138174
3684,3359;0,0141541
3685,3003;0,0144449
3686,2644;0,0145453
3687,2288;0,0143029
3688,1929;0,013694
3689,1572;0,0129427
3690,1213;0,0123936
3691,0857;0,0122188
3692,0498;0,0123515
3693,0142;0,0126413
3693,9783;0,0129724
3694,9426;0,0132861
3695,9067;0,0135621
3696,8711;0,0137892
3697,8352;0,0139424
3698,7996;0,0139787
3699,7637;0,0138628
3700,7280;0,013611
3701,6921;0,0133165
3702,6565;0,0131115
3703,6206;0,013088
3704,5850;0,0132545
3705,5491;0,0135499
3706,5134;0,0138713
3707,4775;0,0140896
3708,4419;0,0140692
3709,4060;0,0137325
3710,3704;0,0131628
3711,3345;0,0126108
3712,2988;0,0123072
3713,2629;0,012301
3714,2273;0,0125069
3715,1914;0,0128136
3716,1558;0,013132
3717,1199;0,0133994
3718,0842;0,0135809
3719,0483;0,0136733
3720,0127;0,0136996
3720,9768;0,0136862
3721,9412;0,0136393
3722,9053;0,0135469
3723,8696;0,0134073
3724,8337;0,0132565
3725,7981;0,0131621
3726,7622;0,0131845
3727,7266;0,0133447
3728,6907;0,0136206
3729,6550;0,01396
3730,6191;0,0142873
3731,5835;0,0145027
3732,5476;0,0144897
3733,5120;0,0141672
3734,4761;0,0135871
3735,4404;0,0129706
3736,4045;0,0125708
3737,3689;0,012509
3738,3330;0,0127625
3739,2974;0,0132326
3740,2615;0,0137797
3741,2258;0,0142268
3742,1899;0,0143861
3743,1543;0,0141717
3744,1184;0,0137386
3745,0828;0,0134051
3746,0469;0,0133536
3747,0112;0,0134996
3747,9753;0,0136049
3748,9397;0,0134297
3749,9038;0,0129039
3750,8682;0,0122613
3751,8323;0,0118688
3752,7966;0,0118721
3753,7607;0,0121555
3754,7251;0,0125289
3755,6892;0,0128316
3756,6536;0,0129594
3757,6177;0,0128931
3758,5820;0,0127188
3759,5461;0,0125778
3760,5105;0,012567
3761,4746;0,0126906
3762,4390;0,0128891
3763,4031;0,0130874
3764,3674;0,0132253
3765,3315;0,0132695
3766,2959;0,0132137
3767,2600;0,0130715
3768,2244;0,0128714
3769,1885;0,0126611
3770,1528;0,0125055
3771,1169;0,0124655
3772,0813;0,0125671
3773,0454;0,0127877
3774,0098;0,0130652
3774,9739;0,0133159
3775,9382;0,0134554
3776,9023;0,0134324
3777,8667;0,0132671
3778,8308;0,013054
3779,7952;0,012899
3780,7593;0,0128455
3781,7236;0,0128621
3782,6877;0,0128874
3783,6521;0,0128762
3784,6162;0,012822
3785,5806;0,0127526
3786,5447;0,0127083
3787,5090;0,0127205
3788,4731;0,0128027
3789,4375;0,0129501
3790,4016;0,0131411
3791,3660;0,0133378
3792,3301;0,013494
3793,2944;0,0135743
3794,2585;0,0135796
3795,2229;0,0135538
3796,1870;0,0135537
3797,1514;0,0135947
3798,1155;0,013622
3799,0798;0,0135407
3800,0439;0,013303
3801,0083;0,0129852
3801,9724;0,0127466
3802,9368;0,012685
3803,9009;0,0127597
3804,8652;0,0128439
3805,8293;0,0128271
3806,7937;0,0127015
3807,7578;0,0125779
3808,7222;0,012596
3809,6863;0,0128143
3810,6506;0,0131867
3811,6147;0,013601
3812,5791;0,0139211
3813,5432;0,0140387
3814,5076;0,0139423
3815,4717;0,0137434
3816,4360;0,013586
3817,4001;0,0135129
3818,3645;0,0134449
3819,3286;0,0132769
3820,2930;0,0129942
3821,2571;0,012704
3822,2214;0,0125365
3823,1855;0,0125364
3824,1499;0,0126632
3825,1140;0,0128505
3826,0784;0,0130441
3827,0425;0,0132125
3828,0068;0,0133435
3828,9709;0,0134379
3829,9353;0,0135055
3830,8994;0,0135639
3831,8638;0,0136365
3832,8279;0,0137384
3833,7922;0,0138566
3834,7563;0,0139397
3835,7207;0,0139137
3836,6848;0,0137322
3837,6492;0,0134297
3838,6133;0,0131177
3839,5776;0,0129031
3840,5417;0,0128137
3841,5061;0,0128062
3842,4702;0,0128252
3843,4346;0,0128487
3844,3987;0,0129018
3845,3630;0,0130385
3846,3271;0,0133106
3847,2915;0,0137405
3848,2556;0,0143017
3849,2200;0,0148965
3850,1841;0,0153281
3851,1484;0,0153133
3852,1125;0,0146615
3853,0769;0,0136067
3854,0410;0,0127279
3855,0054;0,0123463
3855,9695;0,0123865
3856,9338;0,0126755
3857,8979;0,0130835
3858,8623;0,0135093
3859,8264;0,0138544
3860,7908;0,0140324
3861,7549;0,014012
3862,7192;0,0138582
3863,6833;0,0137077
3864,6477;0,0136736
3865,6118;0,013773
3866,5762;0,0139361
3867,5403;0,0140577
3868,5046;0,0140473
3869,4688;0,013872
3870,4331;0,0135784
3871,3972;0,0132711
3872,3616;0,0130565
3873,3257;0,0129958
3874,2900;0,013095
3875,2542;0,0133156
3876,2185;0,0135893
3877,1826;0,0138347
3878,1470;0,0139813
3879,1111;0,0140025
3880,0754;0,0139321
3881,0396;0,0138361
3882,0039;0,0137566
3882,9680;0,0136882
3883,9324;0,0136107
3884,8965;0,0135365
3885,8608;0,0135135
3886,8250;0,0135779
3887,7893;0,0137061
3888,7534;0,0138145
3889,7178;0,0138051
3890,6819;0,0136407
3891,6462;0,013401
3892,6104;0,0132423
3893,5747;0,013278
3894,5388;0,0135117
3895,5032;0,013865
3896,4673;0,0142315
3897,4316;0,0145154
3898,3958;0,0146596
3899,3601;0,0146561
3900,3242;0,0145225
3901,2886;0,0142696
3902,2527;0,0139086
3903,2170;0,0134921
3904,1812;0,0131209
3905,1455;0,0128901
3906,1096;0,0128322
3907,0740;0,0129149
3908,0381;0,0130751
3909,0024;0,0132542
3909,9666;0,0134192
3910,9309;0,0135672
3911,8950;0,0137124
3912,8594;0,0138614
3913,8235;0,0139946
3914,7878;0,0140693
3915,7520;0,0140474
3916,7163;0,0139313
3917,6804;0,0137752
3918,6448;0,0136515
3919,6089;0,0136002
3920,5732;0,0136097
3921,5374;0,0136343
3922,5017;0,0136298
3923,4658;0,0135855
3924,4302;0,0135342
3925,3943;0,0135269
3926,3586;0,0135923
3927,3228;0,0137147
3928,2871;0,0138411
3929,2512;0,0139075
3930,2156;0,0138713
3931,1797;0,0137374
3932,1440;0,0135581
3933,1082;0,0134013
3934,0725;0,0133151
3935,0366;0,0133162
3936,0010;0,0133972
3936,9651;0,0135347
3937,9294;0,0136939
3938,8936;0,0138324
3939,8579;0,0139117
3940,8220;0,013915
3941,7864;0,01386
3942,7505;0,0137924
3943,7148;0,0137563
3944,6790;0,0137655
3945,6433;0,0137978
3946,6074;0,0138117
3947,5718;0,0137758
3948,5359;0,0136906
3949,5002;0,0135897
3950,4644;0,013516
3951,4287;0,0134934
3952,3928;0,013517
3953,3572;0,0135648
3954,3213;0,0136153
3955,2856;0,0136587
3956,2498;0,0136957
3957,2141;0,0137285
3958,1782;0,0137524
3959,1426;0,0137567
3960,1067;0,0137337
3961,0710;0,0136887
3962,0352;0,0136406
3962,9995;0,0136115
3963,9636;0,0136136
3964,9280;0,0136424
3965,8921;0,0136818
3966,8564;0,0137143
3967,8206;0,013731
3968,7849;0,0137347
3969,7490;0,0137349
3970,7134;0,0137395
3971,6775;0,0137492
3972,6418;0,0137577
3973,6060;0,0137579
3974,5703;0,0137477
3975,5344;0,0137316
3976,4988;0,013718
3977,4629;0,0137128
3978,4272;0,0137152
3979,3914;0,0137187
3980,3557;0,0137145
3981,3198;0,0136983
3982,2842;0,0136733
3983,2483;0,0136499
3984,2126;0,0136396
3985,1768;0,0136489
3986,1411;0,013676
3987,1052;0,0137125
3988,0696;0,0137479
3989,0337;0,013774
3989,9980;0,0137874
3990,9622;0,0137877
3991,9265;0,0137751
3992,8906;0,0137506
3993,8550;0,013718
3994,8191;0,013685
3995,7834;0,0136619
3996,7476;0,0136562
3997,7119;0,013668
3998,6760;0,0136902
3999,6404;0,0137129
4000,6045;0,0135926

##### Extended Information
[Comments]
Sample name
Comment
Username
Division
Organization;UNIVERSIDAD INDUSTRIAL DE SANTANDER

[Detailed Information]
Creation date;26/02/2025 6:36 p.m.

Data array type;Linear data array
Horizontal axis;Wavenumber [cm-1]
Vertical axis;Abs
Start;399,193 cm-1
End;4000,6 cm-1
Data interval;0,964233 cm-1
Data points;3736    

[Measurement Information]
Model name;FT/IR-4X1typeA
Serial No.;A035162111

Accessory;ATR PRO 4X
Accessory S/N;A021162126
Incident angle;45 deg

Measurement date;26/02/2025 6:34 p.m.

Light source;Standard
Detector;TGS
Accumulation;40
Resolution;4 cm-1
Zero filling;On
Apodization;Cosine
Gain;Auto (8)
Aperture;Auto (7 mm)
Scan speed;Auto (2 mm/sec)
Filter;Auto (12800 Hz)

