TITLE;
DATA TYPE;INFRARED SPECTRUM
ORIGIN;JASCO
OWNER;
DATE;25/02/26
TIME;17:54:26
SPECTROMETER/DATA SYSTEM;
LOCALE;9226
RESOLUTION;
DELTAX;0,964233
XUNITS;1/CM
YUNITS;ABSORBANCE
FIRSTX;  399,1927
LASTX; 4000,6047
NPOINTS;    3736
FIRSTY;     0,17738
MAXY;     0,22318
MINY;     0,01267
XYDATA
399,1927;0,177384
400,1569;0,176699
401,1211;0,175666
402,0854;0,174647
403,0496;0,173952
404,0138;0,173778
404,9781;0,174172
405,9423;0,174988
406,9065;0,175917
407,8708;0,176608
408,8350;0,176843
409,7992;0,176644
410,7635;0,176267
411,7277;0,176061
412,6919;0,176259
413,6562;0,176869
414,6204;0,177721
415,5846;0,178604
416,5489;0,179363
417,5131;0,179955
418,4773;0,18047
419,4416;0,181052
420,4058;0,181754
421,3700;0,182506
422,3343;0,183232
423,2985;0,183919
424,2627;0,184593
425,2270;0,185276
426,1912;0,185945
427,1554;0,186525
428,1197;0,186914
429,0839;0,187032
430,0481;0,186857
431,0124;0,186444
431,9766;0,185905
432,9408;0,185364
433,9051;0,184911
434,8693;0,184582
435,8335;0,184376
436,7978;0,184277
437,7620;0,184266
438,7262;0,184294
439,6905;0,184276
440,6547;0,184087
441,6189;0,18361
442,5832;0,182791
443,5474;0,181698
444,5116;0,18049
445,4759;0,179335
446,4401;0,178336
447,4043;0,177515
448,3686;0,176851
449,3328;0,17632
450,2970;0,175913
451,2613;0,175626
452,2255;0,175452
453,1897;0,175376
454,1540;0,175364
455,1182;0,175354
456,0824;0,175239
457,0467;0,17489
458,0109;0,174241
458,9751;0,173388
459,9394;0,172572
460,9036;0,172033
461,8678;0,171869
462,8321;0,171993
463,7963;0,172174
464,7605;0,172133
465,7248;0,171691
466,6890;0,170874
467,6532;0,169909
468,6175;0,169095
469,5817;0,168671
470,5459;0,168732
471,5102;0,169205
472,4744;0,169887
473,4386;0,170539
474,4029;0,171
475,3671;0,171234
476,3313;0,171297
477,2956;0,171278
478,2598;0,171257
479,2240;0,171285
480,1883;0,171389
481,1525;0,171587
482,1167;0,171901
483,0810;0,172356
484,0452;0,172948
485,0094;0,173624
485,9737;0,174286
486,9379;0,174847
487,9021;0,175277
488,8664;0,175606
489,8306;0,175898
490,7948;0,176197
491,7591;0,176507
492,7233;0,176805
493,6875;0,17708
494,6518;0,177363
495,6160;0,177704
496,5802;0,178128
497,5445;0,178599
498,5087;0,179024
499,4729;0,179302
500,4372;0,179388
501,4014;0,17933
502,3656;0,179262
503,3299;0,179321
504,2941;0,179571
505,2583;0,179967
506,2226;0,180404
507,1868;0,180786
508,1510;0,181092
509,1153;0,181388
510,0795;0,18179
511,0437;0,182387
512,0080;0,183179
512,9722;0,184073
513,9365;0,184926
514,9007;0,18562
515,8649;0,186114
516,8292;0,186456
517,7934;0,18674
518,7576;0,187022
519,7219;0,187283
520,6861;0,187459
521,6503;0,187508
522,6146;0,187459
523,5788;0,187392
524,5430;0,187394
525,5073;0,187491
526,4715;0,187628
527,4357;0,1877
528,4000;0,187635
529,3642;0,187438
530,3284;0,187178
531,2927;0,186927
532,2569;0,186722
533,2211;0,186543
534,1854;0,186343
535,1496;0,186089
536,1138;0,185785
537,0781;0,185469
538,0423;0,18518
539,0065;0,184944
539,9708;0,184775
540,9350;0,184689
541,8992;0,184722
542,8635;0,184914
543,8277;0,18528
544,7919;0,185788
545,7562;0,186355
546,7204;0,18688
547,6846;0,18729
548,6489;0,187576
549,6131;0,187787
550,5773;0,188003
551,5416;0,18829
552,5058;0,188679
553,4700;0,189159
554,4343;0,189685
555,3985;0,190188
556,3627;0,19058
557,3270;0,190757
558,2912;0,190628
559,2554;0,19014
560,2197;0,189321
561,1839;0,188284
562,1481;0,187198
563,1124;0,186224
564,0766;0,185454
565,0408;0,184878
566,0051;0,184416
566,9693;0,183978
567,9335;0,183522
568,8978;0,183074
569,8620;0,182699
570,8262;0,182452
571,7905;0,182332
572,7547;0,182293
573,7189;0,182263
574,6832;0,182177
575,6474;0,181999
576,6116;0,181731
577,5759;0,181406
578,5401;0,181072
579,5043;0,180777
580,4686;0,180549
581,4328;0,180386
582,3970;0,180255
583,3613;0,180111
584,3255;0,179923
585,2897;0,179696
586,2540;0,179466
587,2182;0,179277
588,1824;0,179148
589,1467;0,179064
590,1109;0,17898
591,0751;0,178851
592,0394;0,178658
593,0036;0,17841
593,9678;0,178133
594,9321;0,177843
595,8963;0,177533
596,8605;0,177181
597,8248;0,176771
598,7890;0,1763
599,7532;0,17579
600,7175;0,175271
601,6817;0,174772
602,6459;0,174308
603,6102;0,173881
604,5744;0,173476
605,5386;0,173068
606,5029;0,172628
607,4671;0,172136
608,4313;0,171585
609,3956;0,170991
610,3598;0,17038
611,3240;0,169777
612,2883;0,169189
613,2525;0,168604
614,2167;0,167989
615,1810;0,167304
616,1452;0,166509
617,1094;0,16558
618,0737;0,164522
619,0379;0,163369
620,0021;0,162177
620,9664;0,160999
621,9306;0,159879
622,8948;0,158846
623,8591;0,157913
624,8233;0,157089
625,7875;0,156357
626,7518;0,155701
627,7160;0,1551
628,6802;0,15453
629,6445;0,153971
630,6087;0,153407
631,5729;0,152829
632,5372;0,152233
633,5014;0,151616
634,4656;0,150976
635,4299;0,150316
636,3941;0,149654
637,3583;0,149017
638,3226;0,148439
639,2868;0,147942
640,2510;0,147524
641,2153;0,147161
642,1795;0,146808
643,1437;0,14643
644,1080;0,146013
645,0722;0,14557
646,0364;0,145134
647,0007;0,144737
647,9649;0,144394
648,9291;0,144098
649,8934;0,143827
650,8576;0,143563
651,8218;0,14331
652,7861;0,143098
653,7503;0,142978
654,7145;0,143006
655,6788;0,143215
656,6430;0,143597
657,6072;0,144094
658,5715;0,144606
659,5357;0,145019
660,4999;0,145244
661,4642;0,145271
662,4284;0,145175
663,3926;0,145069
664,3569;0,14503
665,3211;0,14503
666,2853;0,144889
667,2496;0,144293
668,2138;0,14303
669,1780;0,14133
670,1423;0,139645
671,1065;0,138149
672,0707;0,136765
673,0350;0,135367
673,9992;0,133884
674,9634;0,132328
675,9277;0,130789
676,8919;0,129365
677,8561;0,128091
678,8204;0,126927
679,7846;0,125822
680,7488;0,124765
681,7131;0,123795
682,6773;0,122958
683,6415;0,12227
684,6058;0,121714
685,5700;0,121253
686,5342;0,12086
687,4985;0,120519
688,4627;0,120222
689,4269;0,11996
690,3912;0,119716
691,3554;0,119462
692,3196;0,119177
693,2839;0,118846
694,2481;0,118477
695,2123;0,118086
696,1766;0,117694
697,1408;0,117311
698,1050;0,116931
699,0693;0,116544
700,0335;0,116143
700,9977;0,115737
701,9620;0,115342
702,9262;0,114966
703,8904;0,114603
704,8547;0,114225
705,8189;0,113801
706,7831;0,113315
707,7474;0,11277
708,7116;0,112187
709,6758;0,111588
710,6401;0,110983
711,6043;0,110372
712,5685;0,109747
713,5328;0,10911
714,4970;0,108471
715,4612;0,10796
716,4255;0,10731
717,3897;0,106638
718,3539;0,105919
719,3182;0,105138
720,2824;0,104304
721,2466;0,103443
722,2109;0,10259
723,1751;0,10176
724,1393;0,100952
725,1036;0,100158
726,0678;0,0993776
727,0320;0,0986251
727,9963;0,0979225
728,9605;0,0972825
729,9247;0,0966982
730,8890;0,0961464
731,8532;0,0956018
732,8174;0,0950526
733,7817;0,0945058
734,7459;0,0939809
735,7101;0,0934959
736,6744;0,0930559
737,6386;0,0926499
738,6028;0,0922576
739,5671;0,0918601
740,5313;0,0914485
741,4955;0,091026
742,4598;0,0906019
743,4240;0,0901837
744,3882;0,089773
745,3525;0,0893674
746,3167;0,0889672
747,2809;0,0885795
748,2452;0,0882141
749,2094;0,0878736
750,1736;0,0875443
751,1379;0,0871964
752,1021;0,0867969
753,0663;0,0863276
754,0306;0,0857977
754,9948;0,0852423
755,9590;0,0847066
756,9233;0,0842256
757,8875;0,083809
758,8517;0,0834414
759,8160;0,0830935
760,7802;0,0827398
761,7444;0,0823708
762,7087;0,0819953
763,6729;0,0816311
764,6371;0,0812918
765,6014;0,080976
766,5656;0,0806672
767,5298;0,0803435
768,4941;0,0799907
769,4583;0,0796123
770,4225;0,0792276
771,3868;0,0788613
772,3510;0,0785296
773,3152;0,0782323
774,2795;0,077954
775,2437;0,0776748
776,2079;0,0773824
777,1722;0,077079
778,1364;0,0767797
779,1006;0,076502
780,0649;0,0762537
781,0291;0,0760257
781,9933;0,0757941
782,9576;0,0755315
783,9218;0,0752225
784,8860;0,0748743
785,8503;0,0745157
786,8145;0,0741839
787,7787;0,0739058
788,7430;0,0736836
789,7072;0,0734944
790,6714;0,0733043
791,6357;0,073088
792,5999;0,0728433
793,5641;0,0725903
794,5284;0,0723584
795,4926;0,0721668
796,4568;0,0720137
797,4211;0,0718779
798,3853;0,0717315
799,3495;0,0715559
800,3138;0,0713496
801,2780;0,071127
802,2422;0,0709085
803,2065;0,0707097
804,1707;0,0705352
805,1349;0,0703801
806,0992;0,0702351
807,0634;0,0700932
808,0276;0,0699535
808,9919;0,0698201
809,9561;0,0696975
810,9203;0,0695872
811,8846;0,0694866
812,8488;0,0693921
813,8130;0,0693038
814,7773;0,0692273
815,7415;0,0691709
816,7057;0,0691398
817,6700;0,069131
818,6342;0,0691333
819,5984;0,0691345
820,5627;0,0691292
821,5269;0,0691224
822,4911;0,069126
823,4554;0,0691496
824,4196;0,069193
825,3839;0,0692457
826,3481;0,0692919
827,3123;0,0693175
828,2766;0,0693128
829,2408;0,0692708
830,2050;0,0691847
831,1693;0,0690498
832,1335;0,0688684
833,0977;0,0686538
834,0620;0,0684278
835,0262;0,0682123
835,9904;0,0680191
836,9547;0,0678461
837,9189;0,0676816
838,8831;0,0675133
839,8474;0,0673354
840,8116;0,0671482
841,7758;0,0669548
842,7401;0,0667577
843,7043;0,0665587
844,6685;0,0663624
845,6328;0,066177
846,5970;0,0660114
847,5612;0,0658717
848,5255;0,0657588
849,4897;0,06567
850,4539;0,0656022
851,4182;0,065552
852,3824;0,0655137
853,3466;0,065477
854,3109;0,0654288
855,2751;0,0653605
856,2393;0,0652748
857,2036;0,0651863
858,1678;0,0651137
859,1320;0,0650688
860,0963;0,0650495
861,0605;0,0650427
862,0247;0,0650351
862,9890;0,0650238
863,9532;0,0650207
864,9174;0,0650458
865,8817;0,0651151
866,8459;0,065231
867,8101;0,0653791
868,7744;0,0655346
869,7386;0,0656738
870,7028;0,0657841
871,6671;0,0658685
872,6313;0,0659421
873,5955;0,0660242
874,5598;0,0661289
875,5240;0,0662612
876,4882;0,0664184
877,4525;0,0665962
878,4167;0,0667949
879,3809;0,0670215
880,3452;0,0672878
881,3094;0,0676063
882,2736;0,0679881
883,2379;0,0684428
884,2021;0,0689793
885,1663;0,0696056
886,1306;0,070325
887,0948;0,0711321
888,0590;0,0720106
889,0233;0,0729355
889,9875;0,0738776
890,9517;0,0748063
891,9160;0,0756914
892,8802;0,0765022
893,8444;0,0772092
894,8087;0,0777882
895,7729;0,0782247
896,7371;0,0785148
897,7014;0,0786609
898,6656;0,0786656
899,6298;0,0785294
900,5941;0,0782553
901,5583;0,0778575
902,5225;0,0773679
903,4868;0,0768325
904,4510;0,076299
905,4152;0,0758028
906,3795;0,0753597
907,3437;0,0749708
908,3079;0,0746348
909,2722;0,0743588
910,2364;0,074161
911,2007;0,0740614
912,1649;0,0740703
913,1292;0,0741802
914,0934;0,074368
915,0576;0,0746055
916,0219;0,0748715
916,9861;0,0751576
917,9503;0,075466
918,9146;0,0758015
919,8788;0,0761631
920,8430;0,0765414
921,8073;0,076921
922,7715;0,077286
923,7357;0,0776229
924,7000;0,0779205
925,6642;0,078168
926,6284;0,0783555
927,5927;0,0784791
928,5569;0,0785471
929,5211;0,0785822
930,4854;0,0786157
931,4496;0,078676
932,4138;0,078778
933,3781;0,0789206
934,3423;0,079094
935,3065;0,0792906
936,2708;0,0795128
937,2350;0,0797724
938,1992;0,0800833
939,1635;0,0804544
940,1277;0,0808872
941,0919;0,0813789
942,0562;0,0819275
943,0204;0,0825333
943,9846;0,0831984
944,9489;0,0839249
945,9131;0,0847153
946,8773;0,0855738
947,8416;0,0865073
948,8058;0,0875221
949,7700;0,088621
950,7343;0,089801
951,6985;0,0910561
952,6627;0,0923823
953,6270;0,0937809
954,5912;0,0952569
955,5554;0,096813
956,5197;0,0984445
957,4839;0,100139
958,4481;0,101882
959,4124;0,10366
960,3766;0,105467
961,3408;0,1073
962,3051;0,109155
963,2693;0,111027
964,2335;0,112912
965,1978;0,114813
966,1620;0,116745
967,1262;0,118729
968,0905;0,12079
969,0547;0,122953
970,0189;0,125236
970,9832;0,127654
971,9474;0,130221
972,9116;0,132954
973,8759;0,135875
974,8401;0,139004
975,8043;0,142357
976,7686;0,14593
977,7328;0,149689
978,6970;0,153565
979,6613;0,157458
980,6255;0,161255
981,5897;0,164845
982,5540;0,16814
983,5182;0,171089
984,4824;0,173675
985,4467;0,175916
986,4109;0,17785
987,3751;0,179525
988,3394;0,180987
989,3036;0,182275
990,2678;0,183406
991,2321;0,184385
992,1963;0,18521
993,1605;0,185885
994,1248;0,186426
995,0890;0,186862
996,0532;0,187225
997,0175;0,187539
997,9817;0,187813
998,9459;0,188054
999,9102;0,188276
1000,8744;0,188514
1001,8386;0,188822
1002,8029;0,189262
1003,7671;0,189889
1004,7313;0,190735
1005,6956;0,191808
1006,6598;0,193106
1007,6240;0,194616
1008,5883;0,196322
1009,5525;0,198198
1010,5167;0,200205
1011,4810;0,202289
1012,4452;0,204389
1013,4094;0,206446
1014,3737;0,208418
1015,3379;0,210279
1016,3021;0,212015
1017,2664;0,213618
1018,2306;0,21508
1019,1948;0,216391
1020,1591;0,217548
1021,1233;0,218559
1022,0875;0,219441
1023,0518;0,220217
1024,0160;0,220908
1024,9802;0,221528
1025,9445;0,222081
1026,9087;0,222556
1027,8729;0,22293
1028,8372;0,223159
1029,8014;0,223184
1030,7656;0,222929
1031,7299;0,222322
1032,6941;0,22131
1033,6583;0,219881
1034,6226;0,218081
1035,5868;0,216009
1036,5510;0,21381
1037,5153;0,21164
1038,4795;0,209643
1039,4437;0,207925
1040,4080;0,206536
1041,3722;0,205474
1042,3364;0,204696
1043,3007;0,204131
1044,2649;0,203696
1045,2291;0,203308
1046,1934;0,202894
1047,1576;0,202394
1048,1218;0,201765
1049,0861;0,20098
1050,0503;0,200022
1051,0145;0,19888
1051,9788;0,197541
1052,9430;0,195998
1053,9072;0,194255
1054,8715;0,192324
1055,8357;0,190218
1056,7999;0,187938
1057,7642;0,185461
1058,7284;0,182758
1059,6926;0,179812
1060,6569;0,176651
1061,6211;0,173356
1062,5853;0,170044
1063,5496;0,166839
1064,5138;0,163835
1065,4780;0,161079
1066,4423;0,15857
1067,4065;0,156282
1068,3707;0,154175
1069,3350;0,152211
1070,2992;0,15035
1071,2634;0,148551
1072,2277;0,146771
1073,1919;0,144966
1074,1561;0,1431
1075,1204;0,141153
1076,0846;0,139127
1077,0488;0,137049
1078,0131;0,134965
1078,9773;0,132932
1079,9415;0,131006
1080,9058;0,129232
1081,8700;0,127643
1082,8342;0,126252
1083,7985;0,125065
1084,7627;0,124074
1085,7269;0,123261
1086,6912;0,122606
1087,6554;0,122083
1088,6196;0,121672
1089,5839;0,121361
1090,5481;0,121149
1091,5123;0,121037
1092,4766;0,121029
1093,4408;0,121119
1094,4050;0,121295
1095,3693;0,121539
1096,3335;0,121831
1097,2977;0,122151
1098,2620;0,12248
1099,2262;0,122803
1100,1904;0,123101
1101,1547;0,123351
1102,1189;0,123528
1103,0831;0,123608
1104,0474;0,123578
1105,0116;0,12344
1105,9758;0,123215
1106,9401;0,122927
1107,9043;0,122591
1108,8685;0,122194
1109,8328;0,121692
1110,7970;0,121023
1111,7612;0,120136
1112,7255;0,119016
1113,6897;0,117702
1114,6539;0,116277
1115,6182;0,114847
1116,5824;0,113506
1117,5466;0,11231
1118,5109;0,111265
1119,4751;0,110331
1120,4393;0,109437
1121,4036;0,108497
1122,3678;0,107433
1123,3320;0,106186
1124,2963;0,104728
1125,2605;0,103061
1126,2247;0,101219
1127,1890;0,0992543
1128,1532;0,0972249
1129,1174;0,095183
1130,0817;0,0931654
1131,0459;0,0911924
1132,0101;0,0892743
1132,9744;0,0874218
1133,9386;0,0856565
1134,9028;0,0840149
1135,8671;0,0825444
1136,8313;0,0812924
1137,7955;0,0802935
1138,7598;0,0795612
1139,7240;0,0790865
1140,6882;0,0788428
1141,6525;0,0787936
1142,6167;0,0789001
1143,5809;0,0791267
1144,5452;0,0794447
1145,5094;0,079834
1146,4736;0,0802843
1147,4379;0,080793
1148,4021;0,0813614
1149,3663;0,0819887
1150,3306;0,0826667
1151,2948;0,0833767
1152,2590;0,0840892
1153,2233;0,0847665
1154,1875;0,0853661
1155,1517;0,0858426
1156,1160;0,0861494
1157,0802;0,0862387
1158,0444;0,0860612
1159,0087;0,0855674
1159,9729;0,0847108
1160,9371;0,0834541
1161,9014;0,0817787
1162,8656;0,0796938
1163,8298;0,0772433
1164,7941;0,0745062
1165,7583;0,0715894
1166,7225;0,0686143
1167,6868;0,0656989
1168,6510;0,0629408
1169,6152;0,0604063
1170,5795;0,0581275
1171,5437;0,0561078
1172,5079;0,0543332
1173,4722;0,0527823
1174,4364;0,0514338
1175,4006;0,0502686
1176,3649;0,0492689
1177,3291;0,0484183
1178,2933;0,0477013
1179,2576;0,0471045
1180,2218;0,0466159
1181,1860;0,0462234
1182,1503;0,0459137
1183,1145;0,045673
1184,0787;0,0454906
1185,0430;0,0453628
1186,0072;0,0452952
1186,9714;0,0453
1187,9357;0,0453911
1188,8999;0,0455774
1189,8641;0,0458598
1190,8284;0,0462313
1191,7926;0,0466807
1192,7568;0,0471973
1193,7211;0,0477732
1194,6853;0,0484031
1195,6495;0,0490811
1196,6138;0,0497975
1197,5780;0,050537
1198,5422;0,0512804
1199,5065;0,0519975
1200,4707;0,0526968
1201,4349;0,0533587
1202,3992;0,053981
1203,3634;0,0545642
1204,3276;0,0551079
1205,2919;0,0556111
1206,2561;0,0560756
1207,2203;0,0565104
1208,1846;0,0569353
1209,1488;0,0573788
1210,1130;0,0578723
1211,0773;0,0584419
1212,0415;0,0591013
1213,0057;0,0598497
1213,9700;0,0606741
1214,9342;0,0615546
1215,8984;0,06247
1216,8627;0,0634014
1217,8269;0,0643332
1218,7911;0,0652535
1219,7554;0,0661537
1220,7196;0,0670282
1221,6838;0,0678731
1222,6481;0,0686843
1223,6123;0,0694562
1224,5765;0,0701813
1225,5408;0,0708533
1226,5050;0,07147
1227,4692;0,0720345
1228,4335;0,0725539
1229,3977;0,0730339
1230,3619;0,0734752
1231,3262;0,073872
1232,2904;0,0742154
1233,2546;0,0744988
1234,2189;0,0747214
1235,1831;0,074888
1236,1473;0,0750059
1237,1116;0,0750822
1238,0758;0,0751219
1239,0400;0,0751294
1240,0043;0,0751094
1240,9685;0,0750664
1241,9327;0,0750016
1242,8970;0,0749107
1243,8612;0,0747845
1244,8254;0,0746127
1245,7897;0,074389
1246,7539;0,0741152
1247,7181;0,0738004
1248,6824;0,0734576
1249,6466;0,0730994
1250,6108;0,0727351
1251,5751;0,0723712
1252,5393;0,0720119
1253,5035;0,0716605
1254,4678;0,0713183
1255,4320;0,0709839
1256,3962;0,0706526
1257,3605;0,0703174
1258,3247;0,0699711
1259,2889;0,0696068
1260,2532;0,0692186
1261,2174;0,0688007
1262,1816;0,068347
1263,1459;0,0678529
1264,1101;0,0673173
1265,0743;0,0667442
1266,0386;0,066142
1267,0028;0,0655205
1267,9670;0,0648881
1268,9313;0,0642497
1269,8955;0,0636076
1270,8597;0,0629623
1271,8240;0,0623143
1272,7882;0,0616633
1273,7524;0,0610099
1274,7167;0,0603559
1275,6809;0,0597066
1276,6451;0,0590697
1277,6094;0,0584531
1278,5736;0,05786
1279,5378;0,057287
1280,5021;0,0567255
1281,4663;0,0561674
1282,4305;0,0556109
1283,3948;0,0550625
1284,3590;0,0545358
1285,3232;0,0540471
1286,2875;0,0536112
1287,2517;0,0532395
1288,2159;0,0529386
1289,1802;0,05271
1290,1444;0,0525504
1291,1086;0,0524531
1292,0729;0,0524116
1293,0371;0,0524223
1294,0013;0,0524859
1294,9656;0,0526059
1295,9298;0,0527866
1296,8940;0,0530308
1297,8583;0,0533404
1298,8225;0,053717
1299,7867;0,0541617
1300,7510;0,0546725
1301,7152;0,0552426
1302,6794;0,0558602
1303,6437;0,0565131
1304,6079;0,0571923
1305,5721;0,0578941
1306,5364;0,058618
1307,5006;0,0593621
1308,4648;0,0601196
1309,4291;0,0608786
1310,3933;0,0616228
1311,3575;0,0623334
1312,3218;0,06299
1313,2860;0,0635711
1314,2502;0,0640557
1315,2145;0,0644246
1316,1787;0,0646632
1317,1429;0,0647647
1318,1072;0,0647361
1319,0714;0,0646013
1320,0356;0,0643969
1320,9999;0,0641612
1321,9641;0,0639227
1322,9283;0,0636961
1323,8926;0,0634867
1324,8568;0,0632969
1325,8210;0,0631313
1326,7853;0,062995
1327,7495;0,0628901
1328,7137;0,0628103
1329,6780;0,0627395
1330,6422;0,0626545
1331,6064;0,0625308
1332,5707;0,0623497
1333,5349;0,0621012
1334,4991;0,0617814
1335,4634;0,0613871
1336,4276;0,0609135
1337,3918;0,0603599
1338,3561;0,0597424
1339,3203;0,0591022
1340,2845;0,0584943
1341,2488;0,0579614
1342,2130;0,0575172
1343,1772;0,0571525
1344,1415;0,0568512
1345,1057;0,056603
1346,0699;0,0564079
1347,0342;0,0562756
1347,9984;0,0562211
1348,9626;0,0562582
1349,9269;0,0563918
1350,8911;0,0566134
1351,8553;0,0569036
1352,8196;0,0572399
1353,7838;0,0576075
1354,7480;0,058004
1355,7123;0,0584354
1356,6765;0,0589057
1357,6407;0,0594099
1358,6050;0,0599332
1359,5692;0,0604568
1360,5334;0,060962
1361,4977;0,0614343
1362,4619;0,0618671
1363,4261;0,0622638
1364,3904;0,0626322
1365,3546;0,0629767
1366,3188;0,0632926
1367,2831;0,0635674
1368,2473;0,0637839
1369,2115;0,0639243
1370,1758;0,0639713
1371,1400;0,0639074
1372,1042;0,0637156
1373,0685;0,0633878
1374,0327;0,0629403
1374,9969;0,0624154
1375,9612;0,0618546
1376,9254;0,0612656
1377,8896;0,0606183
1378,8539;0,0598746
1379,8181;0,0590269
1380,7823;0,0581154
1381,7466;0,0572083
1382,7108;0,0563563
1383,6750;0,0555604
1384,6393;0,0547791
1385,6035;0,0539695
1386,5677;0,0531391
1387,5320;0,0523641
1388,4962;0,0517377
1389,4604;0,0512976
1390,4247;0,0510122
1391,3889;0,0508191
1392,3531;0,0506629
1393,3174;0,0505133
1394,2816;0,050369
1395,2458;0,0502517
1396,2101;0,0501915
1397,1743;0,0502097
1398,1385;0,0503109
1399,1028;0,0504848
1400,0670;0,0507114
1401,0313;0,0509679
1401,9955;0,0512356
1402,9597;0,0515058
1403,9240;0,0517823
1404,8882;0,0520791
1405,8524;0,0524105
1406,8167;0,0527821
1407,7809;0,0531901
1408,7451;0,0536301
1409,7094;0,0541039
1410,6736;0,0546174
1411,6378;0,055171
1412,6021;0,0557524
1413,5663;0,0563396
1414,5305;0,0569111
1415,4948;0,0574525
1416,4590;0,0579552
1417,4232;0,0584109
1418,3875;0,0588098
1419,3517;0,0591427
1420,3159;0,0593991
1421,2802;0,0595603
1422,2444;0,0596018
1423,2086;0,0595092
1424,1729;0,0592913
1425,1371;0,0589758
1426,1013;0,0585831
1427,0656;0,0581011
1428,0298;0,0574929
1428,9940;0,0567414
1429,9583;0,0558962
1430,9225;0,0550623
1431,8867;0,054324
1432,8510;0,0536806
1433,8152;0,0530501
1434,7794;0,0523289
1435,7437;0,0514834
1436,7079;0,0506242
1437,6721;0,0499447
1438,6364;0,0495503
1439,6006;0,049403
1440,5648;0,0494081
1441,5291;0,0494938
1442,4933;0,0496295
1443,4575;0,0498111
1444,4218;0,0500408
1445,3860;0,0503138
1446,3502;0,0506157
1447,3145;0,0509285
1448,2787;0,0512387
1449,2429;0,051541
1450,2072;0,0518355
1451,1714;0,052121
1452,1356;0,052389
1453,0999;0,0526191
1454,0641;0,0527694
1455,0283;0,052765
1455,9926;0,0525206
1456,9568;0,0520607
1457,9210;0,051608
1458,8853;0,0513613
1459,8495;0,0513024
1460,8137;0,0513012
1461,7780;0,0512218
1462,7422;0,0509374
1463,7064;0,0503507
1464,6707;0,0494671
1465,6349;0,0484402
1466,5991;0,0474629
1467,5634;0,0466103
1468,5276;0,0458165
1469,4918;0,0449385
1470,4561;0,0438123
1471,4203;0,0423182
1472,3845;0,0405089
1473,3488;0,0386834
1474,3130;0,0371788
1475,2772;0,0360879
1476,2415;0,0352966
1477,2057;0,0346677
1478,1699;0,0341206
1479,1342;0,0336238
1480,0984;0,0331717
1481,0626;0,0327719
1482,0269;0,0324393
1482,9911;0,0321885
1483,9553;0,0320226
1484,9196;0,0319279
1485,8838;0,0318768
1486,8480;0,0318411
1487,8123;0,031813
1488,7765;0,0318269
1489,7407;0,0319431
1490,7050;0,0321922
1491,6692;0,0325518
1492,6334;0,0329827
1493,5977;0,03346
1494,5619;0,0339772
1495,5261;0,0345399
1496,4904;0,0351559
1497,4546;0,0358224
1498,4188;0,0365184
1499,3831;0,037213
1500,3473;0,0378789
1501,3115;0,0384957
1502,2758;0,039045
1503,2400;0,0395004
1504,2042;0,0398112
1505,1685;0,0398789
1506,1327;0,0395828
1507,0969;0,0389654
1508,0612;0,0383369
1509,0254;0,0379181
1509,9896;0,0376644
1510,9539;0,0374589
1511,9181;0,037218
1512,8823;0,0368883
1513,8466;0,0364352
1514,8108;0,0358511
1515,7750;0,0351697
1516,7393;0,0344558
1517,7035;0,0337637
1518,6677;0,033102
1519,6320;0,032444
1520,5962;0,0317799
1521,5604;0,0311556
1522,5247;0,0306464
1523,4889;0,0302895
1524,4531;0,0300641
1525,4174;0,0299268
1526,3816;0,0298499
1527,3458;0,0298289
1528,3101;0,0298634
1529,2743;0,02994
1530,2385;0,0300304
1531,2028;0,0301037
1532,1670;0,0301481
1533,1312;0,030189
1534,0955;0,030277
1535,0597;0,0304437
1536,0239;0,0306768
1536,9882;0,0309314
1537,9524;0,0311433
1538,9166;0,0312328
1539,8809;0,0311467
1540,8451;0,0309723
1541,8093;0,0309155
1542,7736;0,0310505
1543,7378;0,031293
1544,7020;0,0315539
1545,6663;0,0317932
1546,6305;0,032005
1547,5947;0,0321953
1548,5590;0,0323693
1549,5232;0,0325293
1550,4874;0,0326811
1551,4517;0,0328387
1552,4159;0,033019
1553,3801;0,0332267
1554,3444;0,0334431
1555,3086;0,0336186
1556,2728;0,0336671
1557,2371;0,0334881
1558,2013;0,0331087
1559,1655;0,0328294
1560,1298;0,0329006
1561,0940;0,0332437
1562,0582;0,0336925
1563,0225;0,0341524
1563,9867;0,0345815
1564,9509;0,0349558
1565,9152;0,0352599
1566,8794;0,0354964
1567,8436;0,0357033
1568,8079;0,0359497
1569,7721;0,0362913
1570,7363;0,0367247
1571,7006;0,0372023
1572,6648;0,0376799
1573,6290;0,0381428
1574,5933;0,0386063
1575,5575;0,0391026
1576,5217;0,0396538
1577,4860;0,0402503
1578,4502;0,040868
1579,4144;0,0414985
1580,3787;0,0421489
1581,3429;0,0428271
1582,3071;0,0435325
1583,2714;0,0442559
1584,2356;0,0449878
1585,1998;0,045726
1586,1641;0,0464711
1587,1283;0,0472151
1588,0925;0,0479346
1589,0568;0,0485958
1590,0210;0,0491656
1590,9852;0,0496193
1591,9495;0,0499393
1592,9137;0,0501123
1593,8779;0,0501339
1594,8422;0,0500176
1595,8064;0,0497956
1596,7706;0,0495073
1597,7349;0,0491829
1598,6991;0,0488371
1599,6633;0,0484742
1600,6276;0,0480992
1601,5918;0,0477255
1602,5560;0,0473743
1603,5203;0,0470649
1604,4845;0,0468034
1605,4487;0,0465775
1606,4130;0,0463639
1607,3772;0,0461448
1608,3414;0,0459264
1609,3057;0,0457426
1610,2699;0,0456332
1611,2341;0,0456119
1612,1984;0,0456548
1613,1626;0,0457114
1614,1268;0,0457247
1615,0911;0,045661
1616,0553;0,0455491
1617,0195;0,0454817
1617,9838;0,0455331
1618,9480;0,0456954
1619,9122;0,0459116
1620,8765;0,0461273
1621,8407;0,0463123
1622,8049;0,0464643
1623,7692;0,0466027
1624,7334;0,0467503
1625,6976;0,0469146
1626,6619;0,0470877
1627,6261;0,0472609
1628,5903;0,0474344
1629,5546;0,0476137
1630,5188;0,0477998
1631,4830;0,0479804
1632,4473;0,0481271
1633,4115;0,0481979
1634,3757;0,0481548
1635,3400;0,0480165
1636,3042;0,0478873
1637,2684;0,0478623
1638,2327;0,0479364
1639,1969;0,0480526
1640,1611;0,0481698
1641,1254;0,0482733
1642,0896;0,0483583
1643,0538;0,0484099
1644,0181;0,0483908
1644,9823;0,0482549
1645,9465;0,0480067
1646,9108;0,0477531
1647,8750;0,0476224
1648,8392;0,0476364
1649,8035;0,0477082
1650,7677;0,0476895
1651,7319;0,0473915
1652,6962;0,0467018
1653,6604;0,0458541
1654,6246;0,0452678
1655,5889;0,0450222
1656,5531;0,0449448
1657,5173;0,0448854
1658,4816;0,0447582
1659,4458;0,0445067
1660,4100;0,0440911
1661,3743;0,0435188
1662,3385;0,0428802
1663,3027;0,0423082
1664,2670;0,0418772
1665,2312;0,0415608
1666,1954;0,0412645
1667,1597;0,040872
1668,1239;0,0402965
1669,0881;0,0395526
1670,0524;0,0387836
1671,0166;0,0381455
1671,9808;0,0376659
1672,9451;0,0372534
1673,9093;0,0368014
1674,8735;0,036272
1675,8378;0,0357236
1676,8020;0,0352605
1677,7662;0,0349427
1678,7305;0,0347513
1679,6947;0,0346134
1680,6589;0,0344251
1681,6232;0,0340565
1682,5874;0,0333924
1683,5516;0,0324755
1684,5159;0,0315858
1685,4801;0,0309754
1686,4443;0,0306354
1687,4086;0,030428
1688,3728;0,0302515
1689,3370;0,0300754
1690,3013;0,0299148
1691,2655;0,0297927
1692,2297;0,0297131
1693,1940;0,0296523
1694,1582;0,0295676
1695,1224;0,0294172
1696,0867;0,0291828
1697,0509;0,0288827
1698,0151;0,0285675
1698,9794;0,0283012
1699,9436;0,0281388
1700,9078;0,0281045
1701,8721;0,0281869
1702,8363;0,028354
1703,8005;0,0285736
1704,7648;0,0288249
1705,7290;0,0291013
1706,6932;0,0294071
1707,6575;0,0297509
1708,6217;0,0301385
1709,5859;0,0305694
1710,5502;0,0310366
1711,5144;0,031525
1712,4786;0,0320102
1713,4429;0,0324609
1714,4071;0,0328469
1715,3713;0,0331581
1716,3356;0,0334299
1717,2998;0,0337371
1718,2640;0,0341306
1719,2283;0,0345988
1720,1925;0,0351034
1721,1567;0,035615
1722,1210;0,0361142
1723,0852;0,0365839
1724,0494;0,037009
1725,0137;0,0373822
1725,9779;0,037709
1726,9421;0,038005
1727,9064;0,0382843
1728,8706;0,0385476
1729,8348;0,0387733
1730,7991;0,0389119
1731,7633;0,038893
1732,7275;0,0386722
1733,6918;0,0383047
1734,6560;0,0379331
1735,6202;0,0376549
1736,5845;0,0374514
1737,5487;0,0372401
1738,5129;0,0369405
1739,4772;0,0365106
1740,4414;0,0359638
1741,4056;0,0353562
1742,3699;0,0347418
1743,3341;0,0341372
1744,2983;0,0335268
1745,2626;0,0328875
1746,2268;0,0321971
1747,1910;0,0314266
1748,1553;0,0305453
1749,1195;0,0295589
1750,0837;0,02855
1751,0480;0,0276418
1752,0122;0,0269033
1752,9764;0,0263082
1753,9407;0,0257752
1754,9049;0,0252264
1755,8691;0,0246259
1756,8334;0,0239884
1757,7976;0,0233548
1758,7618;0,0227508
1759,7261;0,0221694
1760,6903;0,0215922
1761,6545;0,0210271
1762,6188;0,020515
1763,5830;0,0200968
1764,5472;0,0197788
1765,5115;0,0195317
1766,4757;0,0193139
1767,4399;0,0190921
1768,4042;0,018846
1769,3684;0,0185612
1770,3326;0,0182256
1771,2969;0,0178449
1772,2611;0,0174665
1773,2253;0,0171656
1774,1896;0,0169901
1775,1538;0,0169279
1776,1180;0,0169279
1777,0823;0,016934
1778,0465;0,0169079
1779,0107;0,0168401
1779,9750;0,0167485
1780,9392;0,0166619
1781,9034;0,0165971
1782,8677;0,0165508
1783,8319;0,0165121
1784,7961;0,0164791
1785,7604;0,0164624
1786,7246;0,0164727
1787,6888;0,0165074
1788,6531;0,016544
1789,6173;0,016546
1790,5815;0,0164794
1791,5458;0,0163415
1792,5100;0,01618
1793,4742;0,016063
1794,4385;0,0160245
1795,4027;0,01605
1796,3669;0,0161032
1797,3312;0,0161486
1798,2954;0,016162
1799,2596;0,0161357
1800,2239;0,0160801
1801,1881;0,0160176
1802,1523;0,015969
1803,1166;0,0159441
1804,0808;0,0159414
1805,0450;0,0159531
1806,0093;0,0159689
1806,9735;0,0159779
1807,9377;0,0159695
1808,9020;0,0159371
1809,8662;0,0158816
1810,8304;0,015814
1811,7947;0,0157507
1812,7589;0,0157061
1813,7231;0,0156859
1814,6874;0,0156873
1815,6516;0,0157024
1816,6158;0,0157234
1817,5801;0,0157463
1818,5443;0,0157715
1819,5085;0,0158003
1820,4728;0,0158307
1821,4370;0,0158558
1822,4012;0,015867
1823,3655;0,0158602
1824,3297;0,015839
1825,2939;0,0158117
1826,2582;0,0157827
1827,2224;0,0157473
1828,1866;0,0156984
1829,1509;0,0156378
1830,1151;0,0155828
1831,0793;0,0155553
1832,0436;0,0155628
1833,0078;0,015594
1833,9720;0,0156295
1834,9363;0,0156556
1835,9005;0,0156726
1836,8647;0,0156936
1837,8290;0,015732
1838,7932;0,0157884
1839,7574;0,0158464
1840,7217;0,015882
1841,6859;0,0158748
1842,6501;0,0158202
1843,6144;0,0157369
1844,5786;0,0156579
1845,5428;0,015606
1846,5071;0,0155798
1847,4713;0,015566
1848,4355;0,0155568
1849,3998;0,0155546
1850,3640;0,0155653
1851,3282;0,0155906
1852,2925;0,0156241
1853,2567;0,0156556
1854,2209;0,0156796
1855,1852;0,0156997
1856,1494;0,0157242
1857,1136;0,0157579
1858,0779;0,015795
1859,0421;0,0158217
1860,0063;0,015825
1860,9706;0,0158031
1861,9348;0,015767
1862,8990;0,0157335
1863,8633;0,0157146
1864,8275;0,0157124
1865,7917;0,0157197
1866,7560;0,0157255
1867,7202;0,0157216
1868,6844;0,0157067
1869,6487;0,0156846
1870,6129;0,0156598
1871,5771;0,0156349
1872,5414;0,0156116
1873,5056;0,0155918
1874,4698;0,0155773
1875,4341;0,0155696
1876,3983;0,0155686
1877,3625;0,0155724
1878,3268;0,0155785
1879,2910;0,0155848
1880,2552;0,0155913
1881,2195;0,0156012
1882,1837;0,0156212
1883,1479;0,015658
1884,1122;0,0157133
1885,0764;0,0157785
1886,0406;0,0158346
1887,0049;0,0158575
1887,9691;0,0158303
1888,9333;0,0157559
1889,8976;0,0156601
1890,8618;0,015578
1891,8260;0,0155345
1892,7903;0,0155344
1893,7545;0,0155675
1894,7188;0,0156195
1895,6830;0,0156796
1896,6472;0,015742
1897,6115;0,0158017
1898,5757;0,0158507
1899,5399;0,0158793
1900,5042;0,0158819
1901,4684;0,0158614
1902,4326;0,0158296
1903,3969;0,0158004
1904,3611;0,0157819
1905,3253;0,0157725
1906,2896;0,0157652
1907,2538;0,0157542
1908,2180;0,0157402
1909,1823;0,0157294
1910,1465;0,0157274
1911,1107;0,0157342
1912,0750;0,0157443
1913,0392;0,0157526
1914,0034;0,0157587
1914,9677;0,0157675
1915,9319;0,015786
1916,8961;0,0158172
1917,8604;0,0158552
1918,8246;0,0158883
1919,7888;0,015907
1920,7531;0,0159121
1921,7173;0,0159151
1922,6815;0,0159304
1923,6458;0,0159639
1924,6100;0,0160058
1925,5742;0,0160345
1926,5385;0,0160306
1927,5027;0,0159914
1928,4669;0,0159348
1929,4312;0,0158926
1930,3954;0,0158929
1931,3596;0,0159419
1932,3239;0,016018
1933,2881;0,0160824
1934,2523;0,0161018
1935,2166;0,0160667
1936,1808;0,0159965
1937,1450;0,0159271
1938,1093;0,0158908
1939,0735;0,0159008
1940,0377;0,0159464
1941,0020;0,0159992
1941,9662;0,0160288
1942,9304;0,0160212
1943,8947;0,0159876
1944,8589;0,0159541
1945,8231;0,0159409
1946,7874;0,0159465
1947,7516;0,0159485
1948,7158;0,0159181
1949,6801;0,0158405
1950,6443;0,0157284
1951,6085;0,0156186
1952,5728;0,0155521
1953,5370;0,0155522
1954,5012;0,0156134
1955,4655;0,0157096
1956,4297;0,0158105
1957,3939;0,0158964
1958,3582;0,0159597
1959,3224;0,015999
1960,2866;0,0160142
1961,2509;0,016008
1962,2151;0,0159901
1963,1793;0,0159761
1964,1436;0,0159777
1965,1078;0,015993
1966,0720;0,0160062
1967,0363;0,016001
1968,0005;0,0159784
1968,9647;0,0159624
1969,9290;0,0159872
1970,8932;0,0160768
1971,8574;0,0162331
1972,8217;0,0164386
1973,7859;0,0166675
1974,7501;0,016894
1975,7144;0,0170942
1976,6786;0,0172449
1977,6428;0,0173266
1978,6071;0,0173328
1979,5713;0,0172779
1980,5355;0,0171948
1981,4998;0,0171242
1982,4640;0,0171019
1983,4282;0,0171488
1984,3925;0,0172637
1985,3567;0,0174208
1986,3209;0,0175768
1987,2852;0,0176869
1988,2494;0,0177254
1989,2136;0,0176975
1990,1779;0,0176356
1991,1421;0,0175762
1992,1063;0,0175306
1993,0706;0,0174738
1994,0348;0,0173631
1994,9990;0,0171764
1995,9633;0,0169385
1996,9275;0,0167203
1997,8917;0,0166093
1998,8560;0,0166648
1999,8202;0,0168857
2000,7844;0,01721
2001,7487;0,0175478
2002,7129;0,0178244
2003,6771;0,0180051
2004,6414;0,0180956
2005,6056;0,0181239
2006,5698;0,0181181
2007,5341;0,0180916
2008,4983;0,01804
2009,4625;0,0179491
2010,4268;0,0178064
2011,3910;0,0176137
2012,3552;0,0173975
2013,3195;0,0172139
2014,2837;0,0171397
2015,2479;0,0172467
2016,2122;0,0175621
2017,1764;0,0180372
2018,1406;0,0185518
2019,1049;0,0189612
2020,0691;0,0191614
2021,0333;0,0191319
2021,9976;0,0189368
2022,9618;0,0186862
2023,9260;0,0184807
2024,8903;0,0183669
2025,8545;0,0183279
2026,8187;0,0183117
2027,7830;0,0182755
2028,7472;0,0182154
2029,7114;0,0181627
2030,6757;0,0181576
2031,6399;0,0182214
2032,6041;0,0183484
2033,5684;0,0185188
2034,5326;0,0187151
2035,4968;0,0189266
2036,4611;0,0191366
2037,4253;0,0193089
2038,3895;0,0193889
2039,3538;0,0193245
2040,3180;0,0190981
2041,2822;0,0187511
2042,2465;0,018382
2043,2107;0,0181147
2044,1749;0,0180499
2045,1392;0,0182223
2046,1034;0,0185813
2047,0676;0,0190026
2048,0320;0,0193356
2048,9961;0,0194684
2049,9604;0,0193726
2050,9246;0,0191019
2051,8889;0,0187563
2052,8530;0,0184394
2053,8174;0,0182263
2054,7815;0,0181467
2055,7458;0,0181824
2056,7100;0,0182801
2057,6743;0,0183747
2058,6384;0,0184161
2059,6028;0,0183875
2060,5669;0,0183099
2061,5313;0,0182315
2062,4954;0,018205
2063,4597;0,0182621
2064,4238;0,0183986
2065,3882;0,0185767
2066,3523;0,0187448
2067,3167;0,018862
2068,2808;0,0189127
2069,2451;0,0189047
2070,2092;0,0188578
2071,1736;0,0187919
2072,1377;0,0187226
2073,1021;0,018663
2074,0662;0,0186261
2075,0305;0,0186226
2075,9946;0,0186556
2076,9590;0,0187143
2077,9231;0,0187759
2078,8875;0,0188132
2079,8516;0,0188062
2080,8159;0,0187504
2081,7800;0,0186582
2082,7444;0,0185539
2083,7085;0,0184647
2084,6729;0,018412
2085,6370;0,018405
2086,6013;0,0184375
2087,5654;0,0184899
2088,5298;0,0185353
2089,4939;0,0185507
2090,4583;0,0185285
2091,4224;0,0184831
2092,3867;0,0184471
2093,3508;0,0184575
2094,3152;0,0185357
2095,2793;0,0186721
2096,2437;0,0188267
2097,2078;0,0189469
2098,1721;0,018994
2099,1362;0,0189602
2100,1006;0,0188684
2101,0647;0,018756
2102,0291;0,0186548
2102,9932;0,0185803
2103,9575;0,0185329
2104,9216;0,0185077
2105,8860;0,0185035
2106,8501;0,0185248
2107,8145;0,0185775
2108,7786;0,0186621
2109,7429;0,0187694
2110,7070;0,0188803
2111,6714;0,0189697
2112,6355;0,0190132
2113,5999;0,0189975
2114,5640;0,0189285
2115,5283;0,0188338
2116,4924;0,0187536
2117,4568;0,018722
2118,4209;0,0187492
2119,3853;0,0188159
2120,3494;0,0188857
2121,3137;0,0189286
2122,2778;0,0189405
2123,2422;0,0189432
2124,2063;0,0189657
2125,1707;0,019021
2126,1348;0,0190949
2127,0991;0,0191555
2128,0632;0,0191754
2129,0276;0,0191499
2129,9917;0,019099
2130,9561;0,019053
2131,9202;0,0190339
2132,8845;0,0190439
2133,8486;0,0190684
2134,8130;0,0190886
2135,7771;0,0190954
2136,7415;0,0190969
2137,7056;0,019115
2138,6699;0,0191752
2139,6340;0,0192924
2140,5984;0,0194599
2141,5625;0,0196459
2142,5269;0,0198046
2143,4910;0,0198983
2144,4553;0,0199195
2145,4194;0,0198967
2146,3838;0,0198758
2147,3479;0,0198888
2148,3123;0,0199314
2149,2764;0,0199711
2150,2407;0,0199789
2151,2048;0,0199625
2152,1692;0,0199724
2153,1333;0,0200755
2154,0977;0,0203117
2155,0618;0,0206615
2156,0261;0,0210439
2156,9902;0,0213459
2157,9546;0,0214765
2158,9187;0,0214164
2159,8831;0,021226
2160,8472;0,0210044
2161,8115;0,0208372
2162,7756;0,020771
2163,7400;0,0208116
2164,7041;0,0209286
2165,6685;0,0210644
2166,6326;0,0211521
2167,5969;0,0211396
2168,5610;0,0210097
2169,5254;0,0207821
2170,4895;0,0205013
2171,4539;0,0202171
2172,4180;0,0199703
2173,3823;0,0197863
2174,3464;0,0196762
2175,3108;0,0196371
2176,2749;0,0196529
2177,2393;0,0196971
2178,2034;0,0197417
2179,1677;0,0197693
2180,1318;0,019783
2181,0962;0,0198047
2182,0603;0,0198606
2183,0247;0,0199618
2183,9888;0,0200923
2184,9531;0,0202144
2185,9172;0,0202885
2186,8816;0,0202955
2187,8457;0,0202483
2188,8101;0,0201844
2189,7742;0,020144
2190,7385;0,0201424
2191,7026;0,0201566
2192,6670;0,0201357
2193,6311;0,0200339
2194,5955;0,0198461
2195,5596;0,0196221
2196,5239;0,0194463
2197,4880;0,0193913
2198,4524;0,0194755
2199,4165;0,0196527
2200,3809;0,0198391
2201,3450;0,0199597
2202,3093;0,0199802
2203,2734;0,0199088
2204,2378;0,019773
2205,2019;0,0195975
2206,1663;0,0194003
2207,1304;0,0192033
2208,0947;0,0190399
2209,0588;0,0189453
2210,0232;0,0189338
2210,9873;0,018986
2211,9517;0,0190583
2212,9158;0,0191131
2213,8801;0,0191446
2214,8442;0,0191789
2215,8086;0,019249
2216,7727;0,0193633
2217,7371;0,0194958
2218,7012;0,0196023
2219,6655;0,0196499
2220,6296;0,0196339
2221,5940;0,0195728
2222,5581;0,0194878
2223,5225;0,0193883
2224,4866;0,019274
2225,4509;0,0191503
2226,4150;0,0190396
2227,3794;0,0189754
2228,3435;0,0189823
2229,3079;0,0190571
2230,2720;0,019165
2231,2363;0,0192557
2232,2004;0,0192887
2233,1648;0,0192514
2234,1289;0,0191603
2235,0933;0,0190467
2236,0574;0,018939
2237,0217;0,0188515
2237,9858;0,0187847
2238,9502;0,0187334
2239,9143;0,0186948
2240,8787;0,0186711
2241,8428;0,0186672
2242,8071;0,018686
2243,7712;0,0187245
2244,7356;0,0187734
2245,6997;0,0188184
2246,6641;0,018843
2247,6282;0,0188329
2248,5925;0,0187825
2249,5566;0,0186999
2250,5210;0,0186083
2251,4851;0,0185395
2252,4495;0,0185203
2253,4136;0,0185599
2254,3779;0,018645
2255,3420;0,0187463
2256,3064;0,0188332
2257,2705;0,0188862
2258,2349;0,0189005
2259,1990;0,0188798
2260,1633;0,0188283
2261,1274;0,0187484
2262,0918;0,0186437
2263,0559;0,0185248
2264,0203;0,0184099
2264,9844;0,0183181
2265,9487;0,0182609
2266,9128;0,0182373
2267,8772;0,0182363
2268,8413;0,018246
2269,8057;0,0182595
2270,7698;0,0182771
2271,7341;0,018302
2272,6982;0,0183344
2273,6626;0,0183693
2274,6267;0,0183974
2275,5911;0,0184089
2276,5552;0,0183979
2277,5195;0,0183656
2278,4836;0,0183221
2279,4480;0,0182852
2280,4121;0,0182739
2281,3765;0,0183002
2282,3406;0,0183613
2283,3049;0,0184386
2284,2690;0,018506
2285,2334;0,0185429
2286,1975;0,0185455
2287,1619;0,0185269
2288,1260;0,0185086
2289,0903;0,0185063
2290,0544;0,0185233
2291,0188;0,0185525
2291,9829;0,0185858
2292,9473;0,0186214
2293,9114;0,0186624
2294,8757;0,0187087
2295,8398;0,0187511
2296,8042;0,018775
2297,7683;0,0187716
2298,7327;0,0187485
2299,6968;0,0187288
2300,6611;0,0187374
2301,6252;0,0187838
2302,5896;0,0188544
2303,5537;0,0189216
2304,5181;0,0189625
2305,4822;0,0189746
2306,4465;0,0189772
2307,4106;0,0189975
2308,3750;0,0190514
2309,3391;0,0191318
2310,3035;0,0192135
2311,2676;0,0192688
2312,2319;0,0192839
2313,1960;0,0192644
2314,1604;0,0192293
2315,1245;0,0192004
2316,0889;0,0191956
2317,0530;0,0192261
2318,0173;0,0192948
2318,9814;0,0193942
2319,9458;0,0195033
2320,9099;0,0195916
2321,8743;0,0196309
2322,8384;0,0196093
2323,8027;0,0195359
2324,7668;0,0194322
2325,7312;0,0193198
2326,6953;0,0192126
2327,6597;0,0191159
2328,6238;0,0190319
2329,5881;0,0189638
2330,5522;0,0189181
2331,5166;0,0189015
2332,4807;0,0189148
2333,4451;0,0189483
2334,4092;0,0189811
2335,3735;0,0189847
2336,3376;0,0189322
2337,3020;0,0188113
2338,2661;0,0186348
2339,2305;0,0184376
2340,1946;0,0182617
2341,1589;0,0181379
2342,1230;0,0180809
2343,0874;0,0180919
2344,0515;0,0181638
2345,0159;0,018281
2345,9800;0,0184239
2346,9443;0,0185745
2347,9084;0,0187176
2348,8728;0,0188384
2349,8369;0,0189205
2350,8013;0,0189506
2351,7654;0,0189294
2352,7297;0,0188859
2353,6938;0,0188767
2354,6582;0,0189517
2355,6223;0,0191076
2356,5867;0,019279
2357,5508;0,0193763
2358,5151;0,0193365
2359,4792;0,0191551
2360,4436;0,0188822
2361,4077;0,0185912
2362,3721;0,018343
2363,3362;0,0181693
2364,3005;0,0180748
2365,2646;0,0180487
2366,2290;0,0180777
2367,1931;0,0181519
2368,1575;0,0182613
2369,1216;0,0183883
2370,0859;0,0185054
2371,0500;0,0185838
2372,0144;0,0186071
2372,9785;0,0185798
2373,9429;0,0185249
2374,9070;0,0184707
2375,8713;0,0184366
2376,8354;0,018425
2377,7998;0,018425
2378,7639;0,018422
2379,7283;0,0184081
2380,6924;0,0183858
2381,6567;0,0183659
2382,6208;0,0183601
2383,5852;0,0183755
2384,5493;0,0184117
2385,5137;0,0184633
2386,4778;0,018522
2387,4421;0,0185807
2388,4063;0,0186334
2389,3706;0,0186755
2390,3347;0,0187029
2391,2991;0,018713
2392,2632;0,0187064
2393,2275;0,0186892
2394,1917;0,0186718
2395,1560;0,0186651
2396,1201;0,0186757
2397,0845;0,0187022
2398,0486;0,0187357
2399,0129;0,018765
2399,9771;0,0187833
2400,9414;0,0187912
2401,9055;0,0187968
2402,8699;0,0188093
2403,8340;0,0188335
2404,7983;0,0188667
2405,7625;0,0189006
2406,7268;0,0189269
2407,6909;0,0189429
2408,6553;0,0189521
2409,6194;0,0189617
2410,5837;0,0189765
2411,5479;0,0189951
2412,5122;0,0190116
2413,4763;0,0190202
2414,4407;0,0190214
2415,4048;0,0190242
2416,3691;0,0190421
2417,3333;0,0190838
2418,2976;0,0191462
2419,2617;0,0192123
2420,2261;0,0192592
2421,1902;0,0192708
2422,1545;0,0192488
2423,1187;0,0192137
2424,0830;0,0191951
2425,0471;0,0192161
2426,0115;0,01928
2426,9756;0,0193691
2427,9399;0,0194539
2428,9041;0,0195091
2429,8684;0,0195252
2430,8325;0,019511
2431,7969;0,0194871
2432,7610;0,0194733
2433,7253;0,0194802
2434,6895;0,0195062
2435,6538;0,0195407
2436,6179;0,019571
2437,5823;0,0195887
2438,5464;0,019593
2439,5107;0,0195909
2440,4749;0,0195933
2441,4392;0,0196103
2442,4033;0,0196467
2443,3677;0,0197001
2444,3318;0,0197625
2445,2961;0,0198237
2446,2603;0,0198758
2447,2246;0,0199145
2448,1887;0,0199395
2449,1531;0,0199535
2450,1172;0,0199609
2451,0815;0,0199672
2452,0457;0,019977
2453,0100;0,0199924
2453,9741;0,0200112
2454,9385;0,0200272
2455,9026;0,0200338
2456,8669;0,0200289
2457,8311;0,0200173
2458,7954;0,0200094
2459,7595;0,0200152
2460,7239;0,0200379
2461,6880;0,0200712
2462,6523;0,0201024
2463,6165;0,0201195
2464,5808;0,0201186
2465,5449;0,020105
2466,5093;0,0200897
2467,4734;0,020083
2468,4377;0,02009
2469,4019;0,0201097
2470,3662;0,0201385
2471,3303;0,0201733
2472,2947;0,0202117
2473,2588;0,020251
2474,2231;0,020286
2475,1873;0,0203106
2476,1516;0,0203217
2477,1157;0,0203234
2478,0801;0,020326
2479,0442;0,020341
2480,0085;0,0203736
2480,9727;0,0204186
2481,9370;0,0204628
2482,9011;0,0204926
2483,8655;0,020502
2484,8296;0,0204953
2485,7939;0,0204839
2486,7581;0,0204788
2487,7224;0,0204854
2488,6865;0,020502
2489,6509;0,0205236
2490,6150;0,0205453
2491,5793;0,0205648
2492,5435;0,0205827
2493,5078;0,0206018
2494,4719;0,0206269
2495,4363;0,0206638
2496,4004;0,0207165
2497,3647;0,0207832
2498,3289;0,0208532
2499,2932;0,0209089
2500,2573;0,0209327
2501,2217;0,0209165
2502,1858;0,0208672
2503,1501;0,020805
2504,1143;0,0207545
2505,0786;0,020734
2506,0427;0,0207487
2507,0071;0,0207911
2507,9712;0,0208463
2508,9355;0,0208994
2509,8997;0,02094
2510,8640;0,0209632
2511,8281;0,0209687
2512,7925;0,0209601
2513,7566;0,0209436
2514,7209;0,020927
2515,6851;0,0209176
2516,6494;0,0209204
2517,6135;0,0209362
2518,5779;0,0209617
2519,5420;0,0209912
2520,5063;0,021019
2521,4705;0,0210417
2522,4348;0,0210589
2523,3989;0,0210729
2524,3633;0,0210865
2525,3274;0,0211003
2526,2917;0,0211123
2527,2559;0,021119
2528,2202;0,0211179
2529,1843;0,0211106
2530,1487;0,0211023
2531,1128;0,0210996
2532,0771;0,0211057
2533,0413;0,021119
2534,0056;0,0211336
2534,9697;0,0211439
2535,9341;0,0211478
2536,8982;0,0211472
2537,8625;0,0211461
2538,8267;0,0211475
2539,7910;0,0211526
2540,7551;0,0211623
2541,7195;0,0211785
2542,6836;0,0212038
2543,6479;0,0212378
2544,6121;0,0212752
2545,5764;0,0213068
2546,5405;0,0213242
2547,5049;0,0213255
2548,4690;0,0213158
2549,4333;0,0213038
2550,3975;0,0212957
2551,3618;0,0212919
2552,3259;0,02129
2553,2903;0,021289
2554,2544;0,0212929
2555,2188;0,0213082
2556,1829;0,0213384
2557,1472;0,0213795
2558,1113;0,0214207
2559,0757;0,0214501
2560,0398;0,021461
2561,0042;0,0214537
2561,9683;0,0214338
2562,9326;0,0214072
2563,8967;0,0213788
2564,8611;0,021353
2565,8252;0,0213358
2566,7896;0,0213341
2567,7537;0,0213528
2568,7180;0,0213903
2569,6821;0,0214379
2570,6465;0,0214834
2571,6106;0,0215177
2572,5750;0,0215388
2573,5391;0,0215519
2574,5034;0,0215643
2575,4675;0,0215796
2576,4319;0,0215955
2577,3960;0,0216051
2578,3604;0,0216025
2579,3245;0,021587
2580,2888;0,0215646
2581,2529;0,0215455
2582,2173;0,0215395
2583,1814;0,0215517
2584,1458;0,0215816
2585,1099;0,0216244
2586,0742;0,0216742
2587,0383;0,0217258
2588,0027;0,0217757
2588,9668;0,0218205
2589,9312;0,0218569
2590,8953;0,0218817
2591,8596;0,0218925
2592,8237;0,0218891
2593,7881;0,0218742
2594,7522;0,0218534
2595,7166;0,0218341
2596,6807;0,0218244
2597,6450;0,0218314
2598,6091;0,0218584
2599,5735;0,0219038
2600,5376;0,021961
2601,5020;0,0220201
2602,4661;0,0220721
2603,4304;0,0221116
2604,3945;0,0221387
2605,3589;0,0221572
2606,3230;0,0221723
2607,2874;0,0221877
2608,2515;0,0222044
2609,2158;0,0222222
2610,1799;0,0222407
2611,1443;0,0222612
2612,1084;0,0222861
2613,0728;0,0223178
2614,0369;0,0223561
2615,0012;0,0223984
2615,9653;0,0224394
2616,9297;0,0224744
2617,8938;0,0225014
2618,8582;0,0225221
2619,8223;0,0225406
2620,7866;0,0225601
2621,7507;0,0225806
2622,7151;0,0225984
2623,6792;0,0226091
2624,6436;0,022611
2625,6077;0,0226082
2626,5720;0,0226085
2627,5361;0,0226201
2628,5005;0,0226464
2629,4646;0,0226845
2630,4290;0,0227269
2631,3931;0,0227657
2632,3574;0,0227969
2633,3215;0,0228214
2634,2859;0,022843
2635,2500;0,0228655
2636,2144;0,0228902
2637,1785;0,022916
2638,1428;0,022941
2639,1069;0,0229645
2640,0713;0,0229876
2641,0354;0,0230116
2641,9998;0,0230369
2642,9639;0,0230627
2643,9282;0,0230879
2644,8923;0,023113
2645,8567;0,0231409
2646,8208;0,0231753
2647,7852;0,0232176
2648,7493;0,0232649
2649,7136;0,0233099
2650,6777;0,0233444
2651,6421;0,0233634
2652,6062;0,0233685
2653,5706;0,0233678
2654,5347;0,0233717
2655,4990;0,023388
2656,4631;0,0234185
2657,4275;0,0234582
2658,3916;0,0234992
2659,3560;0,0235342
2660,3201;0,0235595
2661,2844;0,0235759
2662,2485;0,0235865
2663,2129;0,0235955
2664,1770;0,0236057
2665,1414;0,0236189
2666,1055;0,0236352
2667,0698;0,0236538
2668,0339;0,0236729
2668,9983;0,0236905
2669,9624;0,0237053
2670,9268;0,0237182
2671,8909;0,0237318
2672,8552;0,0237496
2673,8193;0,0237739
2674,7837;0,0238044
2675,7478;0,0238386
2676,7122;0,0238729
2677,6763;0,0239048
2678,6406;0,0239338
2679,6047;0,0239612
2680,5691;0,0239881
2681,5332;0,0240153
2682,4976;0,0240434
2683,4617;0,0240728
2684,4260;0,0241048
2685,3901;0,0241401
2686,3545;0,0241782
2687,3186;0,0242167
2688,2830;0,0242529
2689,2471;0,0242858
2690,2114;0,0243173
2691,1755;0,0243511
2692,1399;0,02439
2693,1040;0,0244333
2694,0684;0,024476
2695,0325;0,0245117
2695,9968;0,0245361
2696,9609;0,0245504
2697,9253;0,0245607
2698,8894;0,024575
2699,8538;0,0245994
2700,8179;0,0246356
2701,7822;0,0246809
2702,7463;0,02473
2703,7107;0,0247779
2704,6748;0,0248207
2705,6392;0,0248568
2706,6033;0,0248863
2707,5676;0,0249113
2708,5317;0,0249351
2709,4961;0,0249611
2710,4602;0,0249921
2711,4246;0,0250289
2712,3887;0,0250702
2713,3530;0,0251135
2714,3171;0,0251562
2715,2815;0,0251968
2716,2456;0,0252351
2717,2100;0,0252715
2718,1741;0,0253062
2719,1384;0,0253383
2720,1025;0,0253659
2721,0669;0,0253869
2722,0310;0,0254007
2722,9954;0,0254096
2723,9595;0,0254193
2724,9238;0,0254372
2725,8879;0,0254687
2726,8523;0,0255147
2727,8164;0,02557
2728,7808;0,025626
2729,7449;0,0256751
2730,7092;0,0257138
2731,6733;0,0257438
2732,6377;0,0257688
2733,6018;0,0257913
2734,5662;0,0258106
2735,5303;0,0258243
2736,4946;0,0258314
2737,4587;0,025835
2738,4231;0,0258415
2739,3872;0,0258577
2740,3516;0,0258872
2741,3157;0,0259279
2742,2800;0,0259735
2743,2441;0,0260158
2744,2085;0,0260488
2745,1726;0,02607
2746,1370;0,0260816
2747,1011;0,0260892
2748,0654;0,0260987
2749,0295;0,0261144
2749,9939;0,0261375
2750,9580;0,0261665
2751,9224;0,026199
2752,8865;0,0262336
2753,8508;0,0262713
2754,8149;0,0263136
2755,7793;0,0263607
2756,7434;0,0264099
2757,7078;0,0264561
2758,6719;0,0264949
2759,6362;0,0265246
2760,6003;0,0265469
2761,5647;0,0265662
2762,5288;0,026586
2763,4932;0,0266081
2764,4573;0,0266328
2765,4216;0,0266599
2766,3857;0,0266905
2767,3501;0,0267266
2768,3142;0,0267697
2769,2786;0,0268192
2770,2427;0,0268723
2771,2070;0,0269247
2772,1711;0,0269726
2773,1355;0,0270145
2774,0996;0,0270514
2775,0640;0,0270869
2776,0281;0,0271254
2776,9924;0,0271707
2777,9565;0,0272247
2778,9209;0,0272866
2779,8850;0,0273529
2780,8494;0,0274186
2781,8135;0,0274783
2782,7778;0,0275284
2783,7419;0,0275684
2784,7063;0,0276018
2785,6704;0,0276353
2786,6348;0,0276765
2787,5989;0,0277311
2788,5632;0,0278001
2789,5273;0,0278798
2790,4917;0,0279636
2791,4558;0,0280452
2792,4202;0,0281212
2793,3843;0,0281918
2794,3486;0,0282589
2795,3127;0,028325
2796,2771;0,0283918
2797,2412;0,028461
2798,2056;0,0285348
2799,1697;0,0286159
2800,1340;0,028706
2801,0981;0,0288044
2802,0625;0,0289085
2803,0266;0,0290147
2803,9910;0,02912
2804,9551;0,0292223
2805,9194;0,0293205
2806,8835;0,0294132
2807,8479;0,0295001
2808,8120;0,029583
2809,7764;0,0296671
2810,7405;0,0297593
2811,7048;0,0298652
2812,6689;0,0299862
2813,6333;0,0301179
2814,5974;0,0302534
2815,5618;0,0303875
2816,5259;0,0305194
2817,4902;0,0306527
2818,4543;0,0307924
2819,4187;0,0309408
2820,3828;0,031096
2821,3472;0,0312534
2822,3113;0,0314094
2823,2756;0,0315637
2824,2397;0,0317205
2825,2041;0,0318862
2826,1682;0,0320664
2827,1326;0,0322636
2828,0967;0,0324768
2829,0610;0,0327031
2830,0251;0,0329387
2830,9895;0,0331805
2831,9536;0,0334264
2832,9180;0,033675
2833,8821;0,033926
2834,8464;0,0341809
2835,8105;0,0344435
2836,7749;0,0347198
2837,7390;0,0350165
2838,7034;0,0353392
2839,6675;0,0356908
2840,6318;0,0360721
2841,5959;0,0364828
2842,5603;0,0369231
2843,5244;0,0373928
2844,4888;0,0378895
2845,4529;0,0384053
2846,4172;0,0389251
2847,3813;0,0394255
2848,3457;0,0398788
2849,3098;0,040258
2850,2742;0,0405435
2851,2383;0,0407286
2852,2026;0,040821
2853,1667;0,0408406
2854,1311;0,0408124
2855,0952;0,0407599
2856,0596;0,0407002
2857,0237;0,0406431
2857,9880;0,040595
2858,9521;0,0405623
2859,9165;0,0405523
2860,8806;0,0405713
2861,8450;0,0406213
2862,8091;0,0406994
2863,7734;0,0408001
2864,7375;0,0409191
2865,7019;0,0410558
2866,6660;0,0412102
2867,6304;0,041379
2868,5945;0,0415522
2869,5588;0,0417146
2870,5229;0,0418514
2871,4873;0,0419554
2872,4514;0,0420295
2873,4158;0,0420846
2874,3799;0,0421335
2875,3442;0,0421852
2876,3083;0,0422433
2877,2727;0,0423071
2878,2368;0,0423759
2879,2012;0,0424504
2880,1653;0,0425329
2881,1296;0,0426248
2882,0938;0,0427259
2883,0581;0,0428336
2884,0222;0,0429442
2884,9866;0,0430545
2885,9507;0,0431627
2886,9150;0,0432678
2887,8792;0,0433696
2888,8435;0,0434681
2889,8076;0,0435641
2890,7720;0,0436594
2891,7361;0,0437568
2892,7004;0,0438588
2893,6646;0,043966
2894,6289;0,0440761
2895,5930;0,0441847
2896,5574;0,0442869
2897,5215;0,0443802
2898,4858;0,0444653
2899,4500;0,0445457
2900,4143;0,0446249
2901,3784;0,044705
2902,3428;0,0447868
2903,3069;0,0448708
2904,2712;0,0449589
2905,2354;0,0450545
2906,1997;0,0451606
2907,1638;0,0452791
2908,1282;0,0454107
2909,0923;0,0455571
2910,0566;0,0457233
2911,0208;0,0459163
2911,9851;0,0461415
2912,9492;0,0463969
2913,9136;0,046669
2914,8777;0,0469344
2915,8420;0,0471663
2916,8062;0,0473431
2917,7705;0,0474539
2918,7346;0,0474995
2919,6990;0,0474874
2920,6631;0,047426
2921,6274;0,0473209
2922,5916;0,0471752
2923,5559;0,0469925
2924,5200;0,0467791
2925,4844;0,0465438
2926,4485;0,0462941
2927,4128;0,0460329
2928,3770;0,0457585
2929,3413;0,0454675
2930,3054;0,0451597
2931,2698;0,0448401
2932,2339;0,0445172
2933,1982;0,0441987
2934,1624;0,0438876
2935,1267;0,0435815
2936,0908;0,0432758
2937,0552;0,0429674
2938,0193;0,0426569
2938,9836;0,0423469
2939,9478;0,0420388
2940,9121;0,0417316
2941,8762;0,041422
2942,8406;0,0411082
2943,8047;0,0407923
2944,7690;0,0404802
2945,7332;0,0401801
2946,6975;0,039898
2947,6616;0,0396365
2948,6260;0,0393944
2949,5901;0,0391688
2950,5544;0,038957
2951,5186;0,0387572
2952,4829;0,038568
2953,4470;0,0383872
2954,4114;0,038212
2955,3755;0,0380383
2956,3398;0,037862
2957,3040;0,0376797
2958,2683;0,0374893
2959,2324;0,0372911
2960,1968;0,0370879
2961,1609;0,0368844
2962,1252;0,0366861
2963,0894;0,036496
2964,0537;0,0363125
2965,0178;0,0361291
2965,9822;0,0359367
2966,9463;0,0357274
2967,9106;0,035499
2968,8748;0,0352562
2969,8391;0,0350083
2970,8032;0,0347652
2971,7676;0,0345333
2972,7317;0,0343143
2973,6960;0,0341067
2974,6602;0,033909
2975,6245;0,0337214
2976,5886;0,0335458
2977,5530;0,0333839
2978,5171;0,0332348
2979,4814;0,0330959
2980,4456;0,0329641
2981,4099;0,0328383
2982,3740;0,0327207
2983,3384;0,0326154
2984,3025;0,0325255
2985,2668;0,0324511
2986,2310;0,0323878
2987,1953;0,0323286
2988,1594;0,0322673
2989,1238;0,0322009
2990,0879;0,032132
2991,0522;0,0320674
2992,0164;0,0320152
2992,9807;0,0319816
2993,9448;0,0319685
2994,9092;0,0319734
2995,8733;0,0319915
2996,8376;0,0320177
2997,8018;0,0320487
2998,7661;0,0320825
2999,7302;0,0321177
3000,6946;0,0321527
3001,6587;0,0321858
3002,6230;0,0322162
3003,5872;0,0322446
3004,5515;0,0322728
3005,5156;0,0323019
3006,4800;0,0323316
3007,4441;0,0323603
3008,4084;0,0323866
3009,3726;0,0324113
3010,3369;0,0324381
3011,3010;0,0324716
3012,2654;0,0325149
3013,2295;0,0325674
3014,1938;0,0326252
3015,1580;0,0326842
3016,1223;0,032743
3017,0864;0,0328038
3018,0508;0,0328702
3019,0149;0,0329443
3019,9792;0,0330239
3020,9434;0,0331035
3021,9077;0,033178
3022,8718;0,0332463
3023,8362;0,0333125
3024,8003;0,0333836
3025,7646;0,0334653
3026,7288;0,0335579
3027,6931;0,0336572
3028,6572;0,0337564
3029,6216;0,0338509
3030,5857;0,0339404
3031,5500;0,034028
3032,5142;0,0341178
3033,4785;0,0342118
3034,4426;0,0343093
3035,4070;0,0344077
3036,3711;0,034505
3037,3354;0,0346009
3038,2996;0,0346968
3039,2639;0,0347945
3040,2280;0,0348952
3041,1924;0,0349991
3042,1565;0,035106
3043,1208;0,0352163
3044,0850;0,0353312
3045,0493;0,0354527
3046,0134;0,0355825
3046,9778;0,035721
3047,9419;0,0358665
3048,9063;0,036015
3049,8704;0,0361613
3050,8347;0,0363003
3051,7988;0,0364289
3052,7632;0,0365477
3053,7273;0,0366608
3054,6917;0,0367747
3055,6558;0,0368958
3056,6201;0,0370277
3057,5842;0,0371698
3058,5486;0,037318
3059,5127;0,0374661
3060,4771;0,0376094
3061,4412;0,0377459
3062,4055;0,0378768
3063,3696;0,0380057
3064,3340;0,0381359
3065,2981;0,0382687
3066,2625;0,0384024
3067,2266;0,0385335
3068,1909;0,0386597
3069,1550;0,0387823
3070,1194;0,038907
3071,0835;0,0390406
3072,0479;0,0391874
3073,0120;0,0393447
3073,9763;0,0395033
3074,9404;0,0396519
3075,9048;0,0397833
3076,8689;0,039899
3077,8333;0,040008
3078,7974;0,040122
3079,7617;0,040248
3080,7258;0,0403856
3081,6902;0,0405279
3082,6543;0,0406673
3083,6187;0,0408
3084,5828;0,0409279
3085,5471;0,0410555
3086,5112;0,041187
3087,4756;0,0413234
3088,4397;0,0414634
3089,4041;0,0416049
3090,3682;0,0417462
3091,3325;0,0418872
3092,2966;0,0420283
3093,2610;0,042171
3094,2251;0,0423166
3095,1895;0,0424666
3096,1536;0,0426206
3097,1179;0,0427759
3098,0820;0,0429282
3099,0464;0,0430741
3100,0105;0,0432141
3100,9749;0,0433536
3101,9390;0,0435002
3102,9033;0,0436591
3103,8674;0,0438288
3104,8318;0,0440028
3105,7959;0,0441737
3106,7603;0,0443386
3107,7244;0,0445007
3108,6887;0,0446663
3109,6528;0,0448391
3110,6172;0,0450164
3111,5813;0,0451904
3112,5457;0,0453528
3113,5098;0,0455007
3114,4741;0,0456383
3115,4382;0,0457744
3116,4026;0,0459176
3117,3667;0,0460724
3118,3311;0,0462375
3119,2952;0,0464086
3120,2595;0,0465808
3121,2236;0,0467507
3122,1880;0,0469175
3123,1521;0,0470827
3124,1165;0,04725
3125,0806;0,0474235
3126,0449;0,0476068
3127,0090;0,0478
3127,9734;0,0479989
3128,9375;0,0481957
3129,9019;0,0483817
3130,8660;0,0485508
3131,8303;0,048703
3132,7944;0,0488443
3133,7588;0,0489853
3134,7229;0,0491372
3135,6873;0,0493078
3136,6514;0,0494985
3137,6157;0,0497043
3138,5798;0,0499161
3139,5442;0,0501238
3140,5083;0,0503212
3141,4727;0,0505072
3142,4368;0,050685
3143,4011;0,0508592
3144,3652;0,0510325
3145,3296;0,0512057
3146,2937;0,0513795
3147,2581;0,0515565
3148,2222;0,0517417
3149,1865;0,0519396
3150,1506;0,0521504
3151,1150;0,0523682
3152,0791;0,0525833
3153,0435;0,0527865
3154,0076;0,0529741
3154,9719;0,053149
3155,9360;0,0533187
3156,9004;0,0534914
3157,8645;0,053673
3158,8289;0,0538655
3159,7930;0,0540675
3160,7573;0,0542755
3161,7214;0,0544851
3162,6858;0,0546926
3163,6499;0,0548961
3164,6143;0,0550955
3165,5784;0,0552921
3166,5427;0,0554869
3167,5068;0,05568
3168,4712;0,0558707
3169,4353;0,0560481
3170,3997;0,0562345
3171,3638;0,0564226
3172,3281;0,0566156
3173,2922;0,0568155
3174,2566;0,0570217
3175,2207;0,0572317
3176,1851;0,0574422
3177,1492;0,0576509
3178,1135;0,0578564
3179,0776;0,0580586
3180,0420;0,0582579
3181,0061;0,0584547
3181,9705;0,0586487
3182,9346;0,0588392
3183,8989;0,0590252
3184,8630;0,059206
3185,8274;0,0593822
3186,7915;0,059556
3187,7559;0,0597309
3188,7200;0,0599104
3189,6843;0,0600965
3190,6484;0,0602889
3191,6128;0,0604847
3192,5769;0,0606795
3193,5413;0,0608685
3194,5054;0,0610489
3195,4697;0,0612205
3196,4338;0,061386
3197,3982;0,0615495
3198,3623;0,0617147
3199,3267;0,0618832
3200,2908;0,062055
3201,2551;0,0622294
3202,2192;0,0624069
3203,1836;0,0625885
3204,1477;0,0627742
3205,1121;0,0629609
3206,0762;0,0631429
3207,0405;0,0633146
3208,0046;0,0634749
3208,9690;0,0636294
3209,9331;0,0637887
3210,8975;0,0639625
3211,8616;0,0641535
3212,8259;0,0643545
3213,7900;0,0645512
3214,7544;0,0647296
3215,7185;0,0648839
3216,6829;0,0650197
3217,6470;0,0651511
3218,6113;0,0652939
3219,5754;0,065458
3220,5398;0,0656437
3221,5039;0,0658431
3222,4683;0,0660452
3223,4324;0,066241
3224,3967;0,066426
3225,3608;0,0665996
3226,3252;0,0667629
3227,2893;0,0669175
3228,2537;0,0670654
3229,2178;0,06721
3230,1821;0,0673561
3231,1462;0,0675089
3232,1106;0,0676715
3233,0747;0,0678433
3234,0391;0,0680198
3235,0032;0,0681946
3235,9675;0,0683626
3236,9316;0,0685221
3237,8960;0,0686758
3238,8601;0,0688291
3239,8245;0,0689873
3240,7886;0,0691531
3241,7529;0,0693253
3242,7170;0,0694991
3243,6814;0,0696691
3244,6455;0,0698316
3245,6099;0,069987
3246,5740;0,0701405
3247,5383;0,0702995
3248,5024;0,0704708
3249,4668;0,0706574
3250,4309;0,0708566
3251,3953;0,0710618
3252,3594;0,0712649
3253,3237;0,0714603
3254,2878;0,0716469
3255,2522;0,0718269
3256,2163;0,072003
3257,1807;0,0721759
3258,1448;0,0723438
3259,1091;0,0725058
3260,0732;0,0726641
3261,0376;0,0728243
3262,0017;0,0729927
3262,9661;0,0731714
3263,9302;0,0733558
3264,8945;0,0735376
3265,8586;0,0737093
3266,8230;0,0738692
3267,7871;0,0740209
3268,7515;0,0741695
3269,7156;0,074316
3270,6799;0,0744555
3271,6440;0,0745795
3272,6084;0,0746819
3273,5725;0,0747628
3274,5369;0,0748284
3275,5010;0,0748867
3276,4653;0,0749435
3277,4294;0,0750004
3278,3938;0,0750558
3279,3579;0,0751085
3280,3223;0,075159
3281,2864;0,0752091
3282,2507;0,0752609
3283,2148;0,0753147
3284,1792;0,075369
3285,1433;0,075421
3286,1077;0,075468
3287,0718;0,0755081
3288,0361;0,0755408
3289,0002;0,0755673
3289,9646;0,0755905
3290,9287;0,0756132
3291,8931;0,0756376
3292,8572;0,0756636
3293,8215;0,07569
3294,7856;0,0757153
3295,7500;0,0757393
3296,7141;0,0757629
3297,6785;0,075786
3298,6426;0,0758059
3299,6069;0,0758172
3300,5710;0,075814
3301,5354;0,0757938
3302,4995;0,0757601
3303,4639;0,0757219
3304,4280;0,0756899
3305,3923;0,0756724
3306,3564;0,0756718
3307,3208;0,0756846
3308,2849;0,0757041
3309,2493;0,075723
3310,2134;0,0757369
3311,1777;0,0757459
3312,1418;0,0757544
3313,1062;0,0757692
3314,0703;0,0757959
3315,0347;0,0758362
3315,9988;0,0758864
3316,9631;0,0759402
3317,9272;0,0759928
3318,8916;0,0760447
3319,8557;0,0761015
3320,8201;0,0761698
3321,7842;0,0762529
3322,7485;0,0763471
3323,7126;0,0764438
3324,6770;0,0765336
3325,6411;0,0766105
3326,6055;0,0766741
3327,5696;0,0767277
3328,5339;0,0767762
3329,4980;0,0768231
3330,4624;0,0768701
3331,4265;0,0769164
3332,3909;0,076959
3333,3550;0,076992
3334,3193;0,0770081
3335,2834;0,0769997
3336,2478;0,0769618
3337,2119;0,0768949
3338,1763;0,0768045
3339,1404;0,0767005
3340,1047;0,076593
3341,0688;0,0764889
3342,0332;0,0763896
3342,9973;0,0762905
3343,9617;0,0761842
3344,9258;0,076065
3345,8901;0,0759327
3346,8542;0,0757929
3347,8186;0,0756539
3348,7827;0,0755206
3349,7471;0,0753909
3350,7112;0,0752563
3351,6755;0,0751068
3352,6396;0,0749381
3353,6040;0,0747545
3354,5681;0,0745675
3355,5325;0,0743902
3356,4966;0,0742316
3357,4609;0,0740932
3358,4250;0,0739711
3359,3894;0,0738592
3360,3535;0,073752
3361,3179;0,0736455
3362,2820;0,0735357
3363,2463;0,0734186
3364,2104;0,07329
3365,1748;0,0731477
3366,1389;0,0729922
3367,1033;0,0728265
3368,0674;0,0726546
3369,0317;0,0724804
3369,9958;0,0723077
3370,9602;0,0721409
3371,9243;0,0719848
3372,8887;0,0718419
3373,8528;0,0717095
3374,8171;0,0715785
3375,7813;0,0714364
3376,7456;0,0712743
3377,7097;0,0710928
3378,6741;0,070903
3379,6382;0,07072
3380,6025;0,0705543
3381,5667;0,0704058
3382,5310;0,0702651
3383,4951;0,0701219
3384,4595;0,069974
3385,4236;0,0698291
3386,3879;0,0696989
3387,3521;0,0695881
3388,3164;0,0694883
3389,2805;0,0693812
3390,2449;0,0692491
3391,2090;0,0690859
3392,1733;0,0689022
3393,1375;0,0687187
3394,1018;0,0685543
3395,0659;0,0684165
3396,0303;0,0682995
3396,9944;0,0681892
3397,9587;0,06807
3398,9229;0,0679301
3399,8872;0,0677626
3400,8513;0,067567
3401,8157;0,0673499
3402,7798;0,0671243
3403,7441;0,066907
3404,7083;0,0667115
3405,6726;0,0665419
3406,6367;0,0663907
3407,6011;0,0662436
3408,5652;0,0660867
3409,5295;0,0659121
3410,4937;0,0657193
3411,4580;0,0655127
3412,4221;0,0652977
3413,3865;0,0650802
3414,3506;0,0648655
3415,3149;0,0646568
3416,2791;0,0644531
3417,2434;0,0642475
3418,2075;0,0640296
3419,1719;0,0637925
3420,1360;0,0635393
3421,1003;0,0632844
3422,0645;0,0630462
3423,0288;0,0628356
3423,9929;0,0626498
3424,9573;0,0624739
3425,9214;0,0622898
3426,8857;0,062085
3427,8499;0,061858
3428,8142;0,0616156
3429,7783;0,0613673
3430,7427;0,0611196
3431,7068;0,0608751
3432,6711;0,0606358
3433,6353;0,0604057
3434,5996;0,0601898
3435,5637;0,05999
3436,5281;0,0598008
3437,4922;0,0596097
3438,4565;0,0594036
3439,4207;0,0591761
3440,3850;0,0589314
3441,3491;0,05868
3442,3135;0,0584302
3443,2776;0,058181
3444,2419;0,0579242
3445,2061;0,0576533
3446,1704;0,0573731
3447,1345;0,0571007
3448,0989;0,0568546
3449,0630;0,0566405
3450,0273;0,0564455
3450,9915;0,0562447
3451,9558;0,0560163
3452,9199;0,0557532
3453,8843;0,0554665
3454,8484;0,0551787
3455,8127;0,0549102
3456,7769;0,0546687
3457,7412;0,0544466
3458,7053;0,0542278
3459,6697;0,0539972
3460,6338;0,0537485
3461,5981;0,0534865
3462,5623;0,053223
3463,5266;0,0529684
3464,4907;0,0527263
3465,4551;0,0524917
3466,4192;0,052256
3467,3835;0,0520142
3468,3477;0,0517683
3469,3120;0,0515252
3470,2761;0,0512899
3471,2405;0,0510594
3472,2046;0,0508237
3473,1689;0,0505732
3474,1331;0,0503077
3475,0974;0,0500385
3476,0615;0,049782
3477,0259;0,0495484
3477,9900;0,0493347
3478,9543;0,0491271
3479,9185;0,0489107
3480,8828;0,0486786
3481,8469;0,0484353
3482,8113;0,0481893
3483,7754;0,0479437
3484,7397;0,0476932
3485,7039;0,0474298
3486,6682;0,0471521
3487,6323;0,0468715
3488,5967;0,0466086
3489,5608;0,0463804
3490,5251;0,0461882
3491,4893;0,0460143
3492,4536;0,0458303
3493,4177;0,0456132
3494,3821;0,0453591
3495,3462;0,0450885
3496,3105;0,0448352
3497,2747;0,0446237
3498,2390;0,0444523
3499,2031;0,0442913
3500,1675;0,044099
3501,1316;0,0438469
3502,0959;0,04354
3503,0601;0,043217
3504,0244;0,0429249
3504,9885;0,0426865
3505,9529;0,0424893
3506,9170;0,0422989
3507,8813;0,0420848
3508,8455;0,0418387
3509,8098;0,0415785
3510,7739;0,0413326
3511,7383;0,0411179
3512,7024;0,0409297
3513,6667;0,0407488
3514,6309;0,040558
3515,5952;0,0403534
3516,5593;0,0401458
3517,5237;0,0399507
3518,4878;0,039775
3519,4521;0,0396103
3520,4163;0,0394363
3521,3806;0,0392322
3522,3447;0,0389889
3523,3091;0,0387137
3524,2732;0,0384251
3525,2375;0,0381411
3526,2017;0,037871
3527,1660;0,0376164
3528,1301;0,0373778
3529,0945;0,037159
3530,0586;0,036965
3531,0229;0,0367955
3531,9871;0,0366394
3532,9514;0,0364777
3533,9155;0,0362909
3534,8799;0,0360693
3535,8440;0,0358202
3536,8083;0,0355666
3537,7725;0,0353359
3538,7368;0,0351457
3539,7009;0,0349952
3540,6653;0,0348652
3541,6294;0,0347242
3542,5938;0,0345389
3543,5579;0,0342892
3544,5222;0,0339832
3545,4863;0,03366
3546,4507;0,0333677
3547,4148;0,0331334
3548,3792;0,0329488
3549,3433;0,0327808
3550,3076;0,0325933
3551,2717;0,0323682
3552,2361;0,0321162
3553,2002;0,0318696
3554,1646;0,0316594
3555,1287;0,0314937
3556,0930;0,0313552
3557,0571;0,0312154
3558,0215;0,0310559
3558,9856;0,0308825
3559,9500;0,0307238
3560,9141;0,0306098
3561,8784;0,0305442
3562,8425;0,0304877
3563,8069;0,030362
3564,7710;0,03008
3565,7354;0,0296081
3566,6995;0,0290295
3567,6638;0,0285117
3568,6279;0,028176
3569,5923;0,0280237
3570,5564;0,0279781
3571,5208;0,0279529
3572,4849;0,0278881
3573,4492;0,0277616
3574,4133;0,0275852
3575,3777;0,0273864
3576,3418;0,0271861
3577,3062;0,0269889
3578,2703;0,0267932
3579,2346;0,02661
3580,1987;0,0264661
3581,1631;0,0263876
3582,1272;0,0263729
3583,0916;0,0263772
3584,0557;0,0263177
3585,0200;0,026104
3585,9841;0,0257001
3586,9485;0,0251876
3587,9126;0,0247363
3588,8770;0,0244705
3589,8411;0,0243851
3590,8054;0,0243879
3591,7695;0,0243753
3592,7339;0,0242786
3593,6980;0,0240864
3594,6624;0,0238407
3595,6265;0,0235993
3596,5908;0,023387
3597,5549;0,0231839
3598,5193;0,0229592
3599,4834;0,0227127
3600,4478;0,0224877
3601,4119;0,0223403
3602,3762;0,0222928
3603,3403;0,0223146
3604,3047;0,0223397
3605,2688;0,0223005
3606,2332;0,0221609
3607,1973;0,021937
3608,1616;0,0216857
3609,1257;0,0214611
3610,0901;0,0212784
3611,0542;0,0211216
3612,0186;0,0209754
3612,9827;0,0208437
3613,9470;0,020738
3614,9111;0,0206506
3615,8755;0,0205398
3616,8396;0,0203435
3617,8040;0,0200237
3618,7681;0,0196193
3619,7324;0,01925
3620,6965;0,0190415
3621,6609;0,0190404
3622,6250;0,0192072
3623,5894;0,0194562
3624,5535;0,019681
3625,5178;0,0197567
3626,4819;0,0195566
3627,4463;0,0190329
3628,4104;0,0183327
3629,3748;0,0177415
3630,3389;0,0174277
3631,3032;0,0173448
3632,2673;0,0173613
3633,2317;0,0173753
3634,1958;0,017343
3635,1602;0,0172675
3636,1243;0,017175
3637,0886;0,0170892
3638,0527;0,0170173
3639,0171;0,0169562
3639,9812;0,0169088
3640,9456;0,0168931
3641,9097;0,0169345
3642,8740;0,0170462
3643,8381;0,0172096
3644,8025;0,0173614
3645,7666;0,0173856
3646,7310;0,0171329
3647,6951;0,0165285
3648,6594;0,0157504
3649,6235;0,0151678
3650,5879;0,0149657
3651,5520;0,0150408
3652,5164;0,0152076
3653,4805;0,0153253
3654,4448;0,0153145
3655,4089;0,0151648
3656,3733;0,0149387
3657,3374;0,0147334
3658,3018;0,0146091
3659,2659;0,0145588
3660,2302;0,0145418
3661,1943;0,0145311
3662,1587;0,0145355
3663,1228;0,0145873
3664,0872;0,0147069
3665,0513;0,0148732
3666,0156;0,0150201
3666,9797;0,0150623
3667,9441;0,0149486
3668,9082;0,0147271
3669,8726;0,0145364
3670,8367;0,0144814
3671,8010;0,0145324
3672,7651;0,0145549
3673,7295;0,0144033
3674,6936;0,0140286
3675,6580;0,0135563
3676,6221;0,0132022
3677,5864;0,0130732
3678,5505;0,0131196
3679,5149;0,0132431
3680,4790;0,0133786
3681,4434;0,0135115
3682,4075;0,0136608
3683,3718;0,013848
3684,3359;0,0140663
3685,3003;0,0142626
3686,2644;0,01434
3687,2288;0,0141945
3688,1929;0,0138031
3689,1572;0,0133048
3690,1213;0,0129253
3691,0857;0,0127841
3692,0498;0,0128435
3693,0142;0,0130069
3693,9783;0,013199
3694,9426;0,0133822
3695,9067;0,013543
3696,8711;0,0136724
3697,8352;0,0137507
3698,7996;0,0137481
3699,7637;0,0136448
3700,7280;0,0134614
3701,6921;0,0132703
3702,6565;0,013163
3703,6206;0,0131924
3704,5850;0,0133488
3705,5491;0,0135769
3706,5134;0,0138004
3707,4775;0,0139339
3708,4419;0,0138957
3709,4060;0,0136484
3710,3704;0,0132595
3711,3345;0,0128979
3712,2988;0,0127086
3713,2629;0,0127146
3714,2273;0,0128548
3715,1914;0,0130563
3716,1558;0,0132635
3717,1199;0,0134383
3718,0842;0,0135585
3719,0483;0,0136194
3720,0127;0,0136313
3720,9768;0,0136091
3721,9412;0,0135592
3722,9053;0,0134798
3723,8696;0,0133759
3724,8337;0,0132739
3725,7981;0,0132172
3726,7622;0,0132428
3727,7266;0,0133629
3728,6907;0,013562
3729,6550;0,0138035
3730,6191;0,0140328
3731,5835;0,0141763
3732,5476;0,0141511
3733,5120;0,013909
3734,4761;0,0135077
3735,4404;0,0131205
3736,4045;0,0129176
3737,3689;0,012953
3738,3330;0,013179
3739,2974;0,0135095
3740,2615;0,013849
3741,2258;0,014094
3742,1899;0,0141502
3743,1543;0,0139968
3744,1184;0,0137535
3745,0828;0,0136104
3746,0469;0,0136482
3747,0112;0,0137862
3747,9753;0,0138665
3748,9397;0,013745
3749,9038;0,01339
3750,8682;0,0129599
3751,8323;0,0126908
3752,7966;0,012673
3753,7607;0,0128292
3754,7251;0,0130367
3755,6892;0,0131965
3756,6536;0,0132494
3757,6177;0,0131918
3758,5820;0,013083
3759,5461;0,0130099
3760,5105;0,0130239
3761,4746;0,0131164
3762,4390;0,0132415
3763,4031;0,0133492
3764,3674;0,0134049
3765,3315;0,0133966
3766,2959;0,0133315
3767,2600;0,0132264
3768,2244;0,0131002
3769,1885;0,0129757
3770,1528;0,0128839
3771,1169;0,0128563
3772,0813;0,0129079
3773,0454;0,013028
3774,0098;0,0131826
3774,9739;0,013325
3775,9382;0,0134088
3776,9023;0,0134066
3777,8667;0,0133305
3778,8308;0,0132308
3779,7952;0,0131611
3780,7593;0,0131395
3781,7236;0,0131451
3782,6877;0,0131442
3783,6521;0,0131149
3784,6162;0,0130586
3785,5806;0,0129961
3786,5447;0,0129549
3787,5090;0,012956
3788,4731;0,0130082
3789,4375;0,0131071
3790,4016;0,013236
3791,3660;0,0133679
3792,3301;0,0134736
3793,2944;0,0135346
3794,2585;0,0135577
3795,2229;0,013575
3796,1870;0,0136206
3797,1514;0,0136984
3798,1155;0,0137668
3799,0798;0,0137624
3800,0439;0,0136532
3801,0083;0,0134826
3801,9724;0,0133422
3802,9368;0,0132853
3803,9009;0,0132833
3804,8652;0,0132628
3805,8293;0,0131716
3806,7937;0,0130291
3807,7578;0,012924
3808,7222;0,0129439
3809,6863;0,0131074
3810,6506;0,0133651
3811,6147;0,0136359
3812,5791;0,0138377
3813,5432;0,0139175
3814,5076;0,0138857
3815,4717;0,0138194
3816,4360;0,0137961
3817,4001;0,0138179
3818,3645;0,0138126
3819,3286;0,0137032
3820,2930;0,0134837
3821,2571;0,0132373
3822,2214;0,0130653
3823,1855;0,0130068
3824,1499;0,0130385
3825,1140;0,0131182
3826,0784;0,0132148
3827,0425;0,0133146
3828,0068;0,0134156
3828,9709;0,0135187
3829,9353;0,0136239
3830,8994;0,0137314
3831,8638;0,0138425
3832,8279;0,0139549
3833,7922;0,0140519
3834,7563;0,0140975
3835,7207;0,0140474
3836,6848;0,0138814
3837,6492;0,0136357
3838,6133;0,0133959
3839,5776;0,0132372
3840,5417;0,0131751
3841,5061;0,0131752
3842,4702;0,0131968
3843,4346;0,0132252
3844,3987;0,0132785
3845,3630;0,0133923
3846,3271;0,0135974
3847,2915;0,0139024
3848,2556;0,0142837
3849,2200;0,0146727
3850,1841;0,0149399
3851,1484;0,0149032
3852,1125;0,0144438
3853,0769;0,0137231
3854,0410;0,0131306
3855,0054;0,0128794
3855,9695;0,0129115
3856,9338;0,0131022
3857,8979;0,013361
3858,8623;0,0136237
3859,8264;0,0138347
3860,7908;0,0139497
3861,7549;0,0139578
3862,7192;0,0139003
3863,6833;0,0138521
3864,6477;0,0138672
3865,6118;0,0139436
3866,5762;0,0140346
3867,5403;0,0140795
3868,5046;0,014032
3869,4688;0,0138827
3870,4331;0,013669
3871,3972;0,0134582
3872,3616;0,013314
3873,3257;0,0132703
3874,2900;0,0133273
3875,2542;0,0134597
3876,2185;0,0136258
3877,1826;0,0137784
3878,1470;0,0138786
3879,1111;0,0139126
3880,0754;0,0138977
3881,0396;0,0138639
3882,0039;0,0138252
3882,9680;0,0137739
3883,9324;0,0137039
3884,8965;0,0136362
3885,8608;0,0136106
3886,8250;0,0136493
3887,7893;0,0137293
3888,7534;0,0137909
3889,7178;0,0137735
3890,6819;0,0136637
3891,6462;0,0135236
3892,6104;0,0134537
3893,5747;0,0135154
3894,5388;0,0136963
3895,5032;0,0139383
3896,4673;0,0141743
3897,4316;0,0143499
3898,3958;0,014437
3899,3601;0,0144335
3900,3242;0,0143467
3901,2886;0,014176
3902,2527;0,0139236
3903,2170;0,0136245
3904,1812;0,0133498
3905,1455;0,0131668
3906,1096;0,0131011
3907,0740;0,0131339
3908,0381;0,0132264
3909,0024;0,0133422
3909,9666;0,0134591
3910,9309;0,0135713
3911,8950;0,013681
3912,8594;0,0137866
3913,8235;0,0138742
3914,7878;0,0139203
3915,7520;0,0139071
3916,7163;0,0138409
3917,6804;0,0137552
3918,6448;0,0136896
3919,6089;0,0136628
3920,5732;0,0136651
3921,5374;0,013671
3922,5017;0,0136598
3923,4658;0,013632
3924,4302;0,0136108
3925,3943;0,0136237
3926,3586;0,0136797
3927,3228;0,01376
3928,2871;0,0138277
3929,2512;0,0138449
3930,2156;0,0137934
3931,1797;0,0136884
3932,1440;0,0135731
3933,1082;0,0134936
3934,0725;0,0134751
3935,0366;0,0135171
3936,0010;0,0136017
3936,9651;0,0137027
3937,9294;0,0137914
3938,8936;0,0138426
3939,8579;0,0138431
3940,8220;0,0138001
3941,7864;0,0137421
3942,7505;0,0137047
3943,7148;0,0137079
3944,6790;0,0137437
3945,6433;0,0137823
3946,6074;0,0137912
3947,5718;0,0137548
3948,5359;0,0136852
3949,5002;0,013615
3950,4644;0,0135755
3951,4287;0,0135769
3952,3928;0,0136063
3953,3572;0,0136406
3954,3213;0,0136619
3955,2856;0,0136656
3956,2498;0,0136587
3957,2141;0,0136507
3958,1782;0,0136457
3959,1426;0,0136403
3960,1067;0,0136297
3961,0710;0,013614
3962,0352;0,0136009
3962,9995;0,0136009
3963,9636;0,0136193
3964,9280;0,0136521
3965,8921;0,0136877
3966,8564;0,0137141
3967,8206;0,0137259
3968,7849;0,0137269
3969,7490;0,0137269
3970,7134;0,0137347
3971,6775;0,0137515
3972,6418;0,0137703
3973,6060;0,013781
3974,5703;0,0137773
3975,5344;0,013761
3976,4988;0,0137399
3977,4629;0,0137229
3978,4272;0,0137141
3979,3914;0,0137114
3980,3557;0,0137092
3981,3198;0,0137034
3982,2842;0,013694
3983,2483;0,0136847
3984,2126;0,01368
3985,1768;0,0136819
3986,1411;0,0136887
3987,1052;0,0136973
3988,0696;0,0137046
3989,0337;0,013709
3989,9980;0,0137095
3990,9622;0,0137046
3991,9265;0,0136927
3992,8906;0,013674
3993,8550;0,0136519
3994,8191;0,0136334
3995,7834;0,0136258
3996,7476;0,0136327
3997,7119;0,0136518
3998,6760;0,0136767
3999,6404;0,0137005
4000,6045;0,0136409

##### Extended Information
[Comments]
Sample name
Comment
Username
Division
Organization;UNIVERSIDAD INDUSTRIAL DE SANTANDER

[Detailed Information]
Creation date;26/02/2025 5:54 p.m.

Data array type;Linear data array
Horizontal axis;Wavenumber [cm-1]
Vertical axis;Abs
Start;399,193 cm-1
End;4000,6 cm-1
Data interval;0,964233 cm-1
Data points;3736    

[Measurement Information]
Model name;FT/IR-4X1typeA
Serial No.;A035162111

Accessory;ATR PRO 4X
Accessory S/N;A021162126
Incident angle;45 deg

Measurement date;26/02/2025 5:54 p.m.

Light source;Standard
Detector;TGS
Accumulation;40
Resolution;4 cm-1
Zero filling;On
Apodization;Cosine
Gain;Auto (8)
Aperture;Auto (7 mm)
Scan speed;Auto (2 mm/sec)
Filter;Auto (12800 Hz)

