TITLE;
DATA TYPE;INFRARED SPECTRUM
ORIGIN;JASCO
OWNER;
DATE;25/02/26
TIME;18:45:12
SPECTROMETER/DATA SYSTEM;
LOCALE;9226
RESOLUTION;
DELTAX;0,964233
XUNITS;1/CM
YUNITS;ABSORBANCE
FIRSTX;  399,1927
LASTX; 4000,6047
NPOINTS;    3736
FIRSTY;     0,16490
MAXY;     0,26263
MINY;     0,01028
XYDATA
399,1927;0,164898
400,1569;0,164287
401,1211;0,164796
402,0854;0,166114
403,0496;0,167859
404,0138;0,169682
404,9781;0,171301
405,9423;0,172522
406,9065;0,173268
407,8708;0,173592
408,8350;0,173642
409,7992;0,173624
410,7635;0,173755
411,7277;0,174186
412,6919;0,174914
413,6562;0,175764
414,6204;0,176464
415,5846;0,176752
416,5489;0,17648
417,5131;0,175775
418,4773;0,175203
419,4416;0,175512
420,4058;0,176945
421,3700;0,179083
422,3343;0,18138
423,2985;0,183504
424,2627;0,185305
425,2270;0,186727
426,1912;0,187766
427,1554;0,188472
428,1197;0,188931
429,0839;0,189242
430,0481;0,189495
431,0124;0,189772
431,9766;0,19014
432,9408;0,190632
433,9051;0,191214
434,8693;0,191772
435,8335;0,192137
436,7978;0,192168
437,7620;0,191836
438,7262;0,191249
439,6905;0,190592
440,6547;0,190042
441,6189;0,189691
442,5832;0,189522
443,5474;0,18943
444,5116;0,189302
445,4759;0,189081
446,4401;0,188772
447,4043;0,188404
448,3686;0,188
449,3328;0,187591
450,2970;0,187234
451,2613;0,187015
452,2255;0,187001
453,1897;0,187193
454,1540;0,187515
455,1182;0,187841
456,0824;0,188064
457,0467;0,188137
458,0109;0,188097
458,9751;0,188024
459,9394;0,187968
460,9036;0,187927
461,8678;0,187869
462,8321;0,187767
463,7963;0,18762
464,7605;0,187453
465,7248;0,187314
466,6890;0,187252
467,6532;0,187305
468,6175;0,187468
469,5817;0,187685
470,5459;0,187865
471,5102;0,187929
472,4744;0,187872
473,4386;0,187787
474,4029;0,1878
475,3671;0,187976
476,3313;0,188277
477,2956;0,188605
478,2598;0,188867
479,2240;0,189033
480,1883;0,189141
481,1525;0,189269
482,1167;0,189473
483,0810;0,189759
484,0452;0,190086
485,0094;0,190412
485,9737;0,190728
486,9379;0,191066
487,9021;0,191463
488,8664;0,191927
489,8306;0,192414
490,7948;0,192831
491,7591;0,193077
492,7233;0,193093
493,6875;0,192914
494,6518;0,192658
495,6160;0,192474
496,5802;0,192472
497,5445;0,192679
498,5087;0,193037
499,4729;0,193434
500,4372;0,193762
501,4014;0,193969
502,3656;0,194082
503,3299;0,194186
504,2941;0,194362
505,2583;0,194651
506,2226;0,195046
507,1868;0,195519
508,1510;0,196043
509,1153;0,196608
510,0795;0,197212
511,0437;0,197845
512,0080;0,198483
512,9722;0,199091
513,9365;0,199643
514,9007;0,200136
515,8649;0,200599
516,8292;0,201077
517,7934;0,201598
518,7576;0,202143
519,7219;0,202642
520,6861;0,203014
521,6503;0,203207
522,6146;0,203224
523,5788;0,203116
524,5430;0,202971
525,5073;0,202877
526,4715;0,202884
527,4357;0,202975
528,4000;0,203084
529,3642;0,203134
530,3284;0,203072
531,2927;0,202878
532,2569;0,202568
533,2211;0,202186
534,1854;0,201803
535,1496;0,201491
536,1138;0,201302
537,0781;0,201236
538,0423;0,201232
539,0065;0,201198
539,9708;0,201068
540,9350;0,200849
541,8992;0,200643
542,8635;0,200601
543,8277;0,200845
544,7919;0,201405
545,7562;0,202195
546,7204;0,203054
547,6846;0,20383
548,6489;0,204436
549,6131;0,204877
550,5773;0,205215
551,5416;0,205532
552,5058;0,205899
553,4700;0,206356
554,4343;0,206903
555,3985;0,207485
556,3627;0,207985
557,3270;0,208246
558,2912;0,208125
559,2554;0,207547
560,2197;0,206543
561,1839;0,205232
562,1481;0,203777
563,1124;0,202318
564,0766;0,200943
565,0408;0,19969
566,0051;0,198578
566,9693;0,197636
567,9335;0,19689
568,8978;0,196343
569,8620;0,195942
570,8262;0,195594
571,7905;0,195211
572,7547;0,19476
573,7189;0,194283
574,6832;0,193865
575,6474;0,193583
576,6116;0,193444
577,5759;0,193385
578,5401;0,193308
579,5043;0,193151
580,4686;0,192924
581,4328;0,192697
582,3970;0,192552
583,3613;0,19253
584,3255;0,192608
585,2897;0,192719
586,2540;0,192794
587,2182;0,192791
588,1824;0,192707
589,1467;0,192563
590,1109;0,192386
591,0751;0,192195
592,0394;0,191994
593,0036;0,191777
593,9678;0,191526
594,9321;0,191213
595,8963;0,190819
596,8605;0,190348
597,8248;0,189836
598,7890;0,189347
599,7532;0,188942
600,7175;0,188639
601,6817;0,1884
602,6459;0,18815
603,6102;0,187821
604,5744;0,187388
605,5386;0,186874
606,5029;0,186329
607,4671;0,185788
608,4313;0,185251
609,3956;0,184687
610,3598;0,184066
611,3240;0,183381
612,2883;0,182656
613,2525;0,181932
614,2167;0,181237
615,1810;0,180562
616,1452;0,17986
617,1094;0,179058
618,0737;0,178096
619,0379;0,176954
620,0021;0,175669
620,9664;0,174312
621,9306;0,172971
622,8948;0,171717
623,8591;0,170593
624,8233;0,169609
625,7875;0,168727
626,7518;0,167915
627,7160;0,167151
628,6802;0,166428
629,6445;0,165743
630,6087;0,165082
631,5729;0,164418
632,5372;0,163729
633,5014;0,163013
634,4656;0,162295
635,4299;0,161613
636,3941;0,160993
637,3583;0,160433
638,3226;0,159907
639,2868;0,159383
640,2510;0,158846
641,2153;0,158301
642,1795;0,157765
643,1437;0,157252
644,1080;0,156763
645,0722;0,156291
646,0364;0,155827
647,0007;0,155368
647,9649;0,154916
648,9291;0,154485
649,8934;0,154093
650,8576;0,153764
651,8218;0,153518
652,7861;0,153377
653,7503;0,153351
654,7145;0,153448
655,6788;0,153665
656,6430;0,153982
657,6072;0,154357
658,5715;0,154719
659,5357;0,15498
660,4999;0,15507
661,4642;0,154987
662,4284;0,154811
663,3926;0,154657
664,3569;0,154599
665,3211;0,154599
666,2853;0,154452
667,2496;0,153809
668,2138;0,15245
669,1780;0,150634
670,1423;0,148841
671,1065;0,147255
672,0707;0,145794
673,0350;0,144329
673,9992;0,142768
674,9634;0,141095
675,9277;0,139371
676,8919;0,137685
677,8561;0,136098
678,8204;0,134621
679,7846;0,133265
680,7488;0,132062
681,7131;0,13105
682,6773;0,130239
683,6415;0,129593
684,6058;0,129056
685,5700;0,128584
686,5342;0,128162
687,4985;0,127788
688,4627;0,127452
689,4269;0,127129
690,3912;0,126791
691,3554;0,126424
692,3196;0,126031
693,2839;0,125629
694,2481;0,125232
695,2123;0,124847
696,1766;0,124469
697,1408;0,12409
698,1050;0,123708
699,0693;0,123328
700,0335;0,122956
700,9977;0,122591
701,9620;0,122218
702,9262;0,121814
703,8904;0,121353
704,8547;0,120816
705,8189;0,120207
706,7831;0,119551
707,7474;0,118892
708,7116;0,118269
709,6758;0,117698
710,6401;0,117165
711,6043;0,116625
712,5685;0,116026
713,5328;0,115342
714,4970;0,114585
715,4612;0,113951
716,4255;0,113155
717,3897;0,112393
718,3539;0,111658
719,3182;0,110916
720,2824;0,110128
721,2466;0,109274
722,2109;0,108359
723,1751;0,107411
724,1393;0,106463
725,1036;0,105549
726,0678;0,104698
727,0320;0,103932
727,9963;0,103249
728,9605;0,102623
729,9247;0,102013
730,8890;0,101378
731,8532;0,100704
732,8174;0,10001
733,7817;0,0993317
734,7459;0,098705
735,7101;0,0981457
736,6744;0,0976469
737,6386;0,0971872
738,6028;0,0967422
739,5671;0,0962922
740,5313;0,0958247
741,4955;0,0953351
742,4598;0,0948281
743,4240;0,0943168
744,3882;0,0938186
745,3525;0,0933456
746,3167;0,0928974
747,2809;0,0924592
748,2452;0,0920091
749,2094;0,0915296
750,1736;0,0910159
751,1379;0,0904764
752,1021;0,0899265
753,0663;0,0893795
754,0306;0,0888417
754,9948;0,0883127
755,9590;0,0877908
756,9233;0,0872781
757,8875;0,0867827
758,8517;0,086315
759,8160;0,0858815
760,7802;0,0854796
761,7444;0,0850986
762,7087;0,0847253
763,6729;0,0843531
764,6371;0,0839863
765,6014;0,0836378
766,5656;0,0833196
767,5298;0,0830324
768,4941;0,0827618
769,4583;0,0824841
770,4225;0,0821773
771,3868;0,0818328
772,3510;0,0814584
773,3152;0,0810741
774,2795;0,0807023
775,2437;0,080359
776,2079;0,0800509
777,1722;0,0797758
778,1364;0,0795268
779,1006;0,0792944
780,0649;0,0790671
781,0291;0,0788312
781,9933;0,0785719
782,9576;0,0782776
783,9218;0,0779448
784,8860;0,0775829
785,8503;0,0772138
786,8145;0,0768646
787,7787;0,0765571
788,7430;0,076298
789,7072;0,0760755
790,6714;0,075867
791,6357;0,0756525
792,5999;0,0754269
793,5641;0,0752027
794,5284;0,0750018
795,4926;0,0748396
796,4568;0,0747144
797,4211;0,0746071
798,3853;0,0744929
799,3495;0,0743554
800,3138;0,074195
801,2780;0,0740252
802,2422;0,0738616
803,2065;0,0737119
804,1707;0,0735733
805,1349;0,0734386
806,0992;0,0733048
807,0634;0,0731762
808,0276;0,0730608
808,9919;0,0729629
809,9561;0,0728785
810,9203;0,072798
811,8846;0,0727131
812,8488;0,0726221
813,8130;0,0725296
814,7773;0,0724392
815,7415;0,0723477
816,7057;0,0722447
817,6700;0,072121
818,6342;0,0719786
819,5984;0,0718351
820,5627;0,0717183
821,5269;0,0716528
822,4911;0,0716471
823,4554;0,0716897
824,4196;0,0717541
825,3839;0,0718113
826,3481;0,0718397
827,3123;0,0718294
828,2766;0,071779
829,2408;0,0716913
830,2050;0,0715694
831,1693;0,0714165
832,1335;0,0712368
833,0977;0,0710354
834,0620;0,0708163
835,0262;0,0705799
835,9904;0,0703236
836,9547;0,0700456
837,9189;0,0697495
838,8831;0,0694471
839,8474;0,0691552
840,8116;0,0688892
841,7758;0,0686561
842,7401;0,0684532
843,7043;0,0682711
844,6685;0,0681009
845,6328;0,0679388
846,5970;0,0677866
847,5612;0,067649
848,5255;0,0675303
849,4897;0,0674329
850,4539;0,0673569
851,4182;0,0673003
852,3824;0,0672581
853,3466;0,0672216
854,3109;0,0671801
855,2751;0,0671254
856,2393;0,067057
857,2036;0,0669837
858,1678;0,0669203
859,1320;0,0668805
860,0963;0,0668705
861,0605;0,0668875
862,0247;0,0669245
862,9890;0,066978
863,9532;0,0670532
864,9174;0,0671617
865,8817;0,0673148
866,8459;0,067514
867,8101;0,0677475
868,7744;0,0679941
869,7386;0,068232
870,7028;0,0684482
871,6671;0,0686414
872,6313;0,0688185
873,5955;0,0689876
874,5598;0,0691523
875,5240;0,0693117
876,4882;0,0694643
877,4525;0,0696121
878,4167;0,0697638
879,3809;0,0699341
880,3452;0,0701418
881,3094;0,0704081
882,2736;0,070754
883,2379;0,0711979
884,2021;0,071751
885,1663;0,072414
886,1306;0,0731761
887,0948;0,0740181
888,0590;0,0749176
889,0233;0,0758528
889,9875;0,0768043
890,9517;0,0777522
891,9160;0,0786739
892,8802;0,0795417
893,8444;0,080324
894,8087;0,0809883
895,7729;0,0815043
896,7371;0,0818474
897,7014;0,0820015
898,6656;0,0819622
899,6298;0,0817385
900,5941;0,0813537
901,5583;0,0808427
902,5225;0,080247
903,4868;0,0796091
904,4510;0,0789671
905,4152;0,0783524
906,3795;0,0777884
907,3437;0,0772923
908,3079;0,0768768
909,2722;0,076552
910,2364;0,0763259
911,2007;0,0762028
912,1649;0,0761819
913,1292;0,0762546
914,0934;0,0764055
915,0576;0,0766153
916,0219;0,0768659
916,9861;0,0771452
917,9503;0,0774482
918,9146;0,077775
919,8788;0,0781259
920,8430;0,0784961
921,8073;0,0788735
922,7715;0,0792406
923,7357;0,079579
924,7000;0,0798757
925,6642;0,0801264
926,6284;0,080337
927,5927;0,0805206
928,5569;0,0806919
929,5211;0,0808618
930,4854;0,0810348
931,4496;0,0812105
932,4138;0,0813895
933,3781;0,0815795
934,3423;0,0817978
935,3065;0,082067
936,2708;0,0824071
937,2350;0,0828267
938,1992;0,0833216
939,1635;0,0838792
940,1277;0,0844884
941,0919;0,0851465
942,0562;0,0858599
943,0204;0,0866389
943,9846;0,0874902
944,9489;0,0884135
945,9131;0,0894043
946,8773;0,0904595
947,8416;0,0915819
948,8058;0,0927789
949,7700;0,0940575
950,7343;0,0954197
951,6985;0,0968612
952,6627;0,0983755
953,6270;0,0999601
954,5912;0,10162
955,5554;0,103364
956,5197;0,105204
957,4839;0,107145
958,4481;0,109182
959,4124;0,111301
960,3766;0,113481
961,3408;0,115695
962,3051;0,11792
963,2693;0,120135
964,2335;0,122336
965,1978;0,124534
966,1620;0,126759
967,1262;0,129053
968,0905;0,131459
969,0547;0,134008
970,0189;0,136718
970,9832;0,139597
971,9474;0,142649
972,9116;0,145886
973,8759;0,149329
974,8401;0,153004
975,8043;0,156929
976,7686;0,161107
977,7328;0,165511
978,6970;0,170082
979,6613;0,174727
980,6255;0,17932
981,5897;0,183717
982,5540;0,187776
983,5182;0,191381
984,4824;0,194465
985,4467;0,197022
986,4109;0,199103
987,3751;0,200798
988,3394;0,202211
989,3036;0,203433
990,2678;0,204525
991,2321;0,205522
992,1963;0,206435
993,1605;0,207271
994,1248;0,208042
995,0890;0,208767
996,0532;0,209464
997,0175;0,210142
997,9817;0,210797
998,9459;0,211418
999,9102;0,212005
1000,8744;0,212577
1001,8386;0,21318
1002,8029;0,213876
1003,7671;0,21473
1004,7313;0,21579
1005,6956;0,217089
1006,6598;0,218642
1007,6240;0,22045
1008,5883;0,222505
1009,5525;0,22478
1010,5167;0,227232
1011,4810;0,229799
1012,4452;0,232412
1013,4094;0,235008
1014,3737;0,237539
1015,3379;0,239978
1016,3021;0,24231
1017,2664;0,244525
1018,2306;0,246611
1019,1948;0,248559
1020,1591;0,250367
1021,1233;0,252046
1022,0875;0,253617
1023,0518;0,255105
1024,0160;0,256528
1024,9802;0,257886
1025,9445;0,259161
1026,9087;0,260319
1027,8729;0,261311
1028,8372;0,262077
1029,8014;0,262546
1030,7656;0,262633
1031,7299;0,262254
1032,6941;0,261339
1033,6583;0,259863
1034,6226;0,257863
1035,5868;0,255453
1036,5510;0,25281
1037,5153;0,250143
1038,4795;0,247652
1039,4437;0,245496
1040,4080;0,243766
1041,3722;0,242483
1042,3364;0,241609
1043,3007;0,241062
1044,2649;0,240738
1045,2291;0,240523
1046,1934;0,240316
1047,1576;0,240028
1048,1218;0,239596
1049,0861;0,238968
1050,0503;0,238109
1051,0145;0,236989
1051,9788;0,235595
1052,9430;0,233932
1053,9072;0,23202
1054,8715;0,229883
1055,8357;0,227527
1056,7999;0,224922
1057,7642;0,222012
1058,7284;0,218741
1059,6926;0,215091
1060,6569;0,21111
1061,6211;0,206912
1062,5853;0,20265
1063,5496;0,19848
1064,5138;0,194529
1065,4780;0,190875
1066,4423;0,18755
1067,4065;0,184549
1068,3707;0,181836
1069,3350;0,179359
1070,2992;0,177052
1071,2634;0,174852
1072,2277;0,1727
1073,1919;0,170546
1074,1561;0,168351
1075,1204;0,166089
1076,0846;0,16375
1077,0488;0,16135
1078,0131;0,158932
1078,9773;0,156561
1079,9415;0,154315
1080,9058;0,152258
1081,8700;0,150433
1082,8342;0,148856
1083,7985;0,147518
1084,7627;0,146397
1085,7269;0,145467
1086,6912;0,1447
1087,6554;0,144069
1088,6196;0,143551
1089,5839;0,143125
1090,5481;0,142784
1091,5123;0,142535
1092,4766;0,142392
1093,4408;0,142372
1094,4050;0,14248
1095,3693;0,142702
1096,3335;0,143013
1097,2977;0,143378
1098,2620;0,143765
1099,2262;0,144149
1100,1904;0,144505
1101,1547;0,144807
1102,1189;0,145027
1103,0831;0,145138
1104,0474;0,145121
1105,0116;0,144973
1105,9758;0,144708
1106,9401;0,144344
1107,9043;0,143888
1108,8685;0,143327
1109,8328;0,142618
1110,7970;0,141704
1111,7612;0,140533
1112,7255;0,139087
1113,6897;0,137404
1114,6539;0,135574
1115,6182;0,133719
1116,5824;0,131958
1117,5466;0,130371
1118,5109;0,128982
1119,4751;0,127748
1120,4393;0,126582
1121,4036;0,125377
1122,3678;0,124032
1123,3320;0,122472
1124,2963;0,120664
1125,2605;0,118613
1126,2247;0,11636
1127,1890;0,113966
1128,1532;0,111499
1129,1174;0,109018
1130,0817;0,106566
1131,0459;0,104172
1132,0101;0,101849
1132,9744;0,099612
1133,9386;0,0974838
1134,9028;0,095502
1135,8671;0,0937153
1136,8313;0,0921739
1137,7955;0,0909147
1138,7598;0,0899509
1139,7240;0,0892687
1140,6882;0,0888329
1141,6525;0,0885991
1142,6167;0,088525
1143,5809;0,088578
1144,5452;0,0887369
1145,5094;0,0889895
1146,4736;0,089329
1147,4379;0,0897515
1148,4021;0,0902546
1149,3663;0,0908352
1150,3306;0,0914864
1151,2948;0,0921938
1152,2590;0,0929339
1153,2233;0,0936736
1154,1875;0,0943711
1155,1517;0,0949769
1156,1160;0,0954345
1157,0802;0,0956807
1158,0444;0,0956481
1159,0087;0,0952689
1159,9729;0,0944813
1160,9371;0,0932369
1161,9014;0,09151
1162,8656;0,0893064
1163,8298;0,0866704
1164,7941;0,0836863
1165,7583;0,0804726
1166,7225;0,0771669
1167,6868;0,0739056
1168,6510;0,0708033
1169,6152;0,0679388
1170,5795;0,065351
1171,5437;0,0630453
1172,5079;0,0610058
1173,4722;0,0592087
1174,4364;0,0576311
1175,4006;0,056256
1176,3649;0,0550714
1177,3291;0,054067
1178,2933;0,0532309
1179,2576;0,0525467
1180,2218;0,0519927
1181,1860;0,051545
1182,1503;0,0511818
1183,1145;0,0508886
1184,0787;0,050661
1185,0430;0,050504
1186,0072;0,050427
1186,9714;0,0504389
1187,9357;0,0505441
1188,8999;0,0507421
1189,8641;0,0510303
1190,8284;0,0514068
1191,7926;0,0518713
1192,7568;0,0524236
1193,7211;0,0530602
1194,6853;0,0537721
1195,6495;0,0545444
1196,6138;0,0553586
1197,5780;0,0561948
1198,5422;0,0570351
1199,5065;0,0578621
1200,4707;0,058674
1201,4349;0,0594627
1202,3992;0,0602265
1203,3634;0,0609638
1204,3276;0,0616703
1205,2919;0,0623397
1206,2561;0,0629672
1207,2203;0,0635564
1208,1846;0,0641237
1209,1488;0,0646984
1210,1130;0,0653161
1211,0773;0,0660083
1212,0415;0,0667926
1213,0057;0,0676693
1213,9700;0,0686235
1214,9342;0,0696328
1215,8984;0,0706734
1216,8627;0,0717249
1217,8269;0,0727711
1218,7911;0,0737997
1219,7554;0,0748017
1220,7196;0,0757711
1221,6838;0,0767029
1222,6481;0,0775921
1223,6123;0,0784325
1224,5765;0,0792177
1225,5408;0,0799439
1226,5050;0,0806119
1227,4692;0,0812275
1228,4335;0,0817986
1229,3977;0,0823311
1230,3619;0,0828251
1231,3262;0,0832746
1232,2904;0,0836695
1233,2546;0,0839998
1234,2189;0,0842596
1235,1831;0,0844492
1236,1473;0,0845764
1237,1116;0,0846538
1238,0758;0,0846956
1239,0400;0,0847133
1240,0043;0,0847116
1240,9685;0,0846879
1241,9327;0,0846335
1242,8970;0,0845375
1243,8612;0,0843908
1244,8254;0,084188
1245,7897;0,0839283
1246,7539;0,083615
1247,7181;0,0832551
1248,6824;0,0828587
1249,6466;0,0824392
1250,6108;0,0820118
1251,5751;0,081591
1252,5393;0,0811864
1253,5035;0,0808
1254,4678;0,0804256
1255,4320;0,0800506
1256,3962;0,0796622
1257,3605;0,0792517
1258,3247;0,0788171
1259,2889;0,078361
1260,2532;0,0778851
1261,2174;0,0773852
1262,1816;0,0768512
1263,1459;0,0762719
1264,1101;0,0756417
1265,0743;0,0749637
1266,0386;0,0742477
1267,0028;0,0735044
1267,9670;0,0727402
1268,9313;0,0719565
1269,8955;0,0711534
1270,8597;0,0703332
1271,8240;0,0695014
1272,7882;0,0686647
1273,7524;0,0678287
1274,7167;0,0669992
1275,6809;0,0661843
1276,6451;0,0653953
1277,6094;0,064643
1278,5736;0,0639309
1279,5378;0,0632509
1280,5021;0,0625863
1281,4663;0,0619211
1282,4305;0,0612502
1283,3948;0,0605844
1284,3590;0,0599454
1285,3232;0,0593571
1286,2875;0,0588367
1287,2517;0,0583917
1288,2159;0,0580211
1289,1802;0,0577207
1290,1444;0,057486
1291,1086;0,0573148
1292,0729;0,0572071
1293,0371;0,0571648
1294,0013;0,057191
1294,9656;0,0572886
1295,9298;0,0574592
1296,8940;0,0577031
1297,8583;0,0580201
1298,8225;0,0584103
1299,7867;0,0588738
1300,7510;0,0594082
1301,7152;0,060007
1302,6794;0,0606606
1303,6437;0,0613598
1304,6079;0,0620992
1305,5721;0,0628769
1306,5364;0,0636914
1307,5006;0,064536
1308,4648;0,0653966
1309,4291;0,066254
1310,3933;0,0670872
1311,3575;0,0678763
1312,3218;0,0686032
1313,2860;0,0692491
1314,2502;0,0697934
1315,2145;0,070214
1316,1787;0,07049
1317,1429;0,0706087
1318,1072;0,0705737
1319,0714;0,07041
1320,0356;0,0701589
1320,9999;0,0698649
1321,9641;0,069562
1322,9283;0,0692698
1323,8926;0,0689979
1324,8568;0,0687534
1325,8210;0,0685433
1326,7853;0,0683727
1327,7495;0,0682393
1328,7137;0,0681301
1329,6780;0,0680233
1330,6422;0,0678953
1331,6064;0,0677282
1332,5707;0,0675135
1333,5349;0,0672488
1334,4991;0,0669283
1335,4634;0,0665355
1336,4276;0,0660435
1337,3918;0,0654312
1338,3561;0,0647104
1339,3203;0,0639418
1340,2845;0,0632142
1341,2488;0,0625956
1342,2130;0,062103
1343,1772;0,0617124
1344,1415;0,0613879
1345,1057;0,0611053
1346,0699;0,0608618
1347,0342;0,0606761
1347,9984;0,0605775
1348,9626;0,0605918
1349,9269;0,0607276
1350,8911;0,0609719
1351,8553;0,0612962
1352,8196;0,0616703
1353,7838;0,0620761
1354,7480;0,0625135
1355,7123;0,0629927
1356,6765;0,0635197
1357,6407;0,0640851
1358,6050;0,0646642
1359,5692;0,0652264
1360,5334;0,0657464
1361,4977;0,0662156
1362,4619;0,0666453
1363,4261;0,0670563
1364,3904;0,0674618
1365,3546;0,0678596
1366,3188;0,0682361
1367,2831;0,0685739
1368,2473;0,0688556
1369,2115;0,0690635
1370,1758;0,0691768
1371,1400;0,0691686
1372,1042;0,069011
1373,0685;0,0686917
1374,0327;0,0682359
1374,9969;0,0677038
1375,9612;0,0671509
1376,9254;0,0665845
1377,8896;0,0659627
1378,8539;0,0652342
1379,8181;0,0643857
1380,7823;0,0634622
1381,7466;0,0625416
1382,7108;0,0616806
1383,6750;0,0608757
1384,6393;0,060072
1385,6035;0,059215
1386,5677;0,0583161
1387,5320;0,0574738
1388,4962;0,0568069
1389,4604;0,0563624
1390,4247;0,0561007
1391,3889;0,0559428
1392,3531;0,055817
1393,3174;0,0556815
1394,2816;0,055532
1395,2458;0,0553957
1396,2101;0,0553112
1397,1743;0,0553076
1398,1385;0,0553968
1399,1028;0,0555757
1400,0670;0,0558284
1401,0313;0,0561291
1401,9955;0,0564486
1402,9597;0,0567649
1403,9240;0,0570738
1404,8882;0,057393
1405,8524;0,0577516
1406,8167;0,0581692
1407,7809;0,0586449
1408,7451;0,0591657
1409,7094;0,0597212
1410,6736;0,0603113
1411,6378;0,0609411
1412,6021;0,0616097
1413,5663;0,0623023
1414,5305;0,0629922
1415,4948;0,0636434
1416,4590;0,064215
1417,4232;0,0646737
1418,3875;0,0650173
1419,3517;0,0652775
1420,3159;0,0654805
1421,2802;0,0656132
1422,2444;0,0656368
1423,2086;0,0655219
1424,1729;0,0652705
1425,1371;0,0649075
1426,1013;0,0644478
1427,0656;0,0638674
1428,0298;0,0631183
1428,9940;0,0621888
1429,9583;0,0611598
1430,9225;0,0601786
1431,8867;0,0593527
1432,8510;0,0586692
1433,8152;0,0580048
1434,7794;0,0572068
1435,7437;0,0562195
1436,7079;0,0551859
1437,6721;0,0543637
1438,6364;0,053896
1439,6006;0,0537396
1440,5648;0,053778
1441,5291;0,0539206
1442,4933;0,0541249
1443,4575;0,0543807
1444,4218;0,0546867
1445,3860;0,0550344
1446,3502;0,0554051
1447,3145;0,0557784
1448,2787;0,0561439
1449,2429;0,0565062
1450,2072;0,0568771
1451,1714;0,0572634
1452,1356;0,0576545
1453,0999;0,0580081
1454,0641;0,0582293
1455,0283;0,05816
1455,9926;0,0576565
1456,9568;0,0568341
1457,9210;0,0561327
1458,8853;0,0558416
1459,8495;0,0558663
1460,8137;0,0559861
1461,7780;0,0560076
1462,7422;0,0557627
1463,7064;0,0551303
1464,6707;0,0541325
1465,6349;0,0529795
1466,5991;0,0519144
1467,5634;0,0510195
1468,5276;0,0502002
1469,4918;0,0492649
1470,4561;0,0479922
1471,4203;0,0462256
1472,3845;0,0440539
1473,3488;0,0418944
1474,3130;0,0401812
1475,2772;0,0390032
1476,2415;0,0381896
1477,2057;0,0375588
1478,1699;0,0370097
1479,1342;0,0365047
1480,0984;0,0360386
1481,0626;0,0356252
1482,0269;0,0352898
1482,9911;0,0350574
1483,9553;0,0349359
1484,9196;0,0349058
1485,8838;0,0349233
1486,8480;0,0349407
1487,8123;0,0349462
1488,7765;0,0350026
1489,7407;0,0352114
1490,7050;0,0356111
1491,6692;0,0361555
1492,6334;0,0367826
1493,5977;0,037455
1494,5619;0,0381562
1495,5261;0,0388832
1496,4904;0,0396508
1497,4546;0,0404856
1498,4188;0,0413942
1499,3831;0,0423441
1500,3473;0,0432903
1501,3115;0,0442007
1502,2758;0,0450484
1503,2400;0,0457851
1504,2042;0,0463093
1505,1685;0,0464513
1506,1327;0,0460752
1507,0969;0,0453669
1508,0612;0,0447935
1509,0254;0,044534
1509,9896;0,0444445
1510,9539;0,0443713
1511,9181;0,0442229
1512,8823;0,0439336
1513,8466;0,0434518
1514,8108;0,042764
1515,7750;0,0419213
1516,7393;0,0410212
1517,7035;0,0401399
1518,6677;0,0392811
1519,6320;0,038402
1520,5962;0,0374974
1521,5604;0,036654
1522,5247;0,0359943
1523,4889;0,0355729
1524,4531;0,0353536
1525,4174;0,0352673
1526,3816;0,0352672
1527,3458;0,0353387
1528,3101;0,0354754
1529,2743;0,035656
1530,2385;0,0358386
1531,2028;0,0359771
1532,1670;0,0360577
1533,1312;0,0361304
1534,0955;0,0362829
1535,0597;0,0365639
1536,0239;0,0369452
1536,9882;0,0373352
1537,9524;0,03759
1538,9166;0,0375366
1539,8809;0,0371216
1540,8451;0,0366504
1541,8093;0,0365568
1542,7736;0,0368588
1543,7378;0,0373098
1544,7020;0,037742
1545,6663;0,0381036
1546,6305;0,0383964
1547,5947;0,0386332
1548,5590;0,0388185
1549,5232;0,0389495
1550,4874;0,0390315
1551,4517;0,0390939
1552,4159;0,0391853
1553,3801;0,0393433
1554,3444;0,0395605
1555,3086;0,039759
1556,2728;0,039775
1557,2371;0,0394104
1558,2013;0,0387079
1559,1655;0,0381633
1560,1298;0,0381267
1561,0940;0,0384411
1562,0582;0,0388856
1563,0225;0,0393659
1563,9867;0,0398471
1564,9509;0,0402975
1565,9152;0,0406774
1566,8794;0,0409586
1567,8436;0,0411624
1568,8079;0,0413759
1569,7721;0,041698
1570,7363;0,0421571
1571,7006;0,0427046
1572,6648;0,0432696
1573,6290;0,0437967
1574,5933;0,0442637
1575,5575;0,0447043
1576,5217;0,0452028
1577,4860;0,0458164
1578,4502;0,0465258
1579,4144;0,0472867
1580,3787;0,0480759
1581,3429;0,0488841
1582,3071;0,0497023
1583,2714;0,0505208
1584,2356;0,0513356
1585,1998;0,0521493
1586,1641;0,0529637
1587,1283;0,0537692
1588,0925;0,0545415
1589,0568;0,0552474
1590,0210;0,0558532
1590,9852;0,0563295
1591,9495;0,0566512
1592,9137;0,0568013
1593,8779;0,0567811
1594,8422;0,0566188
1595,8064;0,0563626
1596,7706;0,0560592
1597,7349;0,0557339
1598,6991;0,0553892
1599,6633;0,0550183
1600,6276;0,0546222
1601,5918;0,054219
1602,5560;0,0538401
1603,5203;0,0535129
1604,4845;0,0532442
1605,4487;0,053014
1606,4130;0,0527886
1607,3772;0,0525451
1608,3414;0,0522986
1609,3057;0,0521045
1610,2699;0,0520225
1611,2341;0,0520703
1612,1984;0,0522068
1613,1626;0,0523461
1614,1268;0,0523867
1615,0911;0,052269
1616,0553;0,0520571
1617,0195;0,0519287
1617,9838;0,0520101
1618,9480;0,0522736
1619,9122;0,0526136
1620,8765;0,0529342
1621,8407;0,0531804
1622,8049;0,0533511
1623,7692;0,0534933
1624,7334;0,0536613
1625,6976;0,053873
1626,6619;0,0541159
1627,6261;0,0543803
1628,5903;0,054677
1629,5546;0,0550249
1630,5188;0,0554263
1631,4830;0,0558469
1632,4473;0,0562039
1633,4115;0,0563656
1634,3757;0,0562091
1635,3400;0,0557804
1636,3042;0,0553716
1637,2684;0,0552424
1638,2327;0,0553864
1639,1969;0,0556735
1640,1611;0,0560104
1641,1254;0,0563552
1642,0896;0,0566778
1643,0538;0,0569168
1644,0181;0,0569598
1644,9823;0,0566904
1645,9465;0,0561426
1646,9108;0,0555994
1647,8750;0,0553652
1648,8392;0,0554843
1649,8035;0,055769
1650,7677;0,0559048
1651,7319;0,0554956
1652,6962;0,0543305
1653,6604;0,0528921
1654,6246;0,0519383
1655,5889;0,0515638
1656,5531;0,0514699
1657,5173;0,0514251
1658,4816;0,0512938
1659,4458;0,0509697
1660,4100;0,0503738
1661,3743;0,0495242
1662,3385;0,0485901
1663,3027;0,0477976
1664,2670;0,047256
1665,2312;0,0469079
1666,1954;0,0465931
1667,1597;0,0461205
1668,1239;0,0453511
1669,0881;0,0443183
1670,0524;0,0432624
1671,0166;0,0424312
1671,9808;0,0418609
1672,9451;0,0414047
1673,9093;0,0408913
1674,8735;0,0402479
1675,8378;0,0395449
1676,8020;0,0389313
1677,7662;0,0385101
1678,7305;0,0382804
1679,6947;0,0381567
1680,6589;0,0379865
1681,6232;0,0375563
1682,5874;0,0366749
1683,5516;0,0354132
1684,5159;0,0341963
1685,4801;0,03337
1686,4443;0,0328991
1687,4086;0,0325961
1688,3728;0,0323389
1689,3370;0,0320989
1690,3013;0,0318997
1691,2655;0,0317677
1692,2297;0,0316963
1693,1940;0,031637
1694,1582;0,0315169
1695,1224;0,0312772
1696,0867;0,0309094
1697,0509;0,030463
1698,0151;0,0300134
1698,9794;0,0296223
1699,9436;0,0293267
1700,9078;0,029145
1701,8721;0,02908
1702,8363;0,0291204
1703,8005;0,0292448
1704,7648;0,0294297
1705,7290;0,0296599
1706,6932;0,029936
1707,6575;0,0302695
1708,6217;0,0306716
1709,5859;0,0311466
1710,5502;0,0316892
1711,5144;0,0322801
1712,4786;0,0328811
1713,4429;0,0334331
1714,4071;0,0338663
1715,3713;0,0341412
1716,3356;0,0343158
1717,2998;0,0345425
1718,2640;0,0349235
1719,2283;0,03543
1720,1925;0,0359916
1721,1567;0,0365675
1722,1210;0,0371385
1723,0852;0,0376873
1724,0494;0,0381945
1725,0137;0,0386482
1725,9779;0,0390509
1726,9421;0,0394194
1727,9064;0,0397733
1728,8706;0,040118
1729,8348;0,040425
1730,7991;0,0406171
1731,7633;0,0405831
1732,7275;0,0402583
1733,6918;0,0397346
1734,6560;0,0392209
1735,6202;0,0388477
1736,5845;0,0385906
1737,5487;0,0383467
1738,5129;0,0380116
1739,4772;0,0375228
1740,4414;0,0368882
1741,4056;0,0361773
1742,3699;0,035464
1743,3341;0,0347762
1744,2983;0,0340992
1745,2626;0,0334055
1746,2268;0,032666
1747,1910;0,0318436
1748,1553;0,0309008
1749,1195;0,0298439
1750,0837;0,0287632
1751,0480;0,0277891
1752,0122;0,0269939
1752,9764;0,0263547
1753,9407;0,0257924
1754,9049;0,0252268
1755,8691;0,0246161
1756,8334;0,0239698
1757,7976;0,023325
1758,7618;0,0227043
1759,7261;0,0220967
1760,6903;0,0214837
1761,6545;0,0208814
1762,6188;0,0203463
1763,5830;0,019933
1764,5472;0,0196515
1765,5115;0,0194643
1766,4757;0,0193118
1767,4399;0,0191375
1768,4042;0,0188988
1769,3684;0,0185689
1770,3326;0,0181418
1771,2969;0,0176532
1772,2611;0,0171898
1773,2253;0,0168483
1774,1896;0,0166689
1775,1538;0,0166231
1776,1180;0,0166493
1777,0823;0,0166863
1778,0465;0,0166903
1779,0107;0,0166474
1779,9750;0,0165759
1780,9392;0,0165074
1781,9034;0,0164592
1782,8677;0,0164244
1783,8319;0,0163897
1784,7961;0,0163584
1785,7604;0,0163533
1786,7246;0,0163976
1787,6888;0,01649
1788,6531;0,0165921
1789,6173;0,0166349
1790,5815;0,0165517
1791,5458;0,0163367
1792,5100;0,0160752
1793,4742;0,0158823
1794,4385;0,0158103
1795,4027;0,0158371
1796,3669;0,0159101
1797,3312;0,0159778
1798,2954;0,0160029
1799,2596;0,0159725
1800,2239;0,0159017
1801,1881;0,0158219
1802,1523;0,0157612
1803,1166;0,0157334
1804,0808;0,0157406
1805,0450;0,0157762
1806,0093;0,0158258
1806,9735;0,0158668
1807,9377;0,0158737
1808,9020;0,0158315
1809,8662;0,0157476
1810,8304;0,0156531
1811,7947;0,0155844
1812,7589;0,0155606
1813,7231;0,0155749
1814,6874;0,0156031
1815,6516;0,0156197
1816,6158;0,0156137
1817,5801;0,0155961
1818,5443;0,0155927
1819,5085;0,0156236
1820,4728;0,0156879
1821,4370;0,0157622
1822,4012;0,0158154
1823,3655;0,0158271
1824,3297;0,0157995
1825,2939;0,0157503
1826,2582;0,0156925
1827,2224;0,0156208
1828,1866;0,0155216
1829,1509;0,0153982
1830,1151;0,015285
1831,0793;0,0152274
1832,0436;0,0152453
1833,0078;0,0153212
1833,9720;0,0154151
1834,9363;0,0154862
1835,9005;0,0155139
1836,8647;0,0155114
1837,8290;0,0155179
1838,7932;0,0155691
1839,7574;0,0156697
1840,7217;0,0157873
1841,6859;0,0158658
1842,6501;0,0158556
1843,6144;0,0157527
1844,5786;0,0156117
1845,5428;0,0155015
1846,5071;0,0154523
1847,4713;0,0154525
1848,4355;0,0154759
1849,3998;0,0155023
1850,3640;0,0155222
1851,3282;0,0155345
1852,2925;0,0155399
1853,2567;0,0155375
1854,2209;0,0155259
1855,1852;0,0155079
1856,1494;0,0154925
1857,1136;0,0154901
1858,0779;0,0155059
1859,0421;0,0155356
1860,0063;0,015569
1860,9706;0,0155984
1861,9348;0,015624
1862,8990;0,0156513
1863,8633;0,0156821
1864,8275;0,0157053
1865,7917;0,0156971
1866,7560;0,0156339
1867,7202;0,0155156
1868,6844;0,015377
1869,6487;0,0152649
1870,6129;0,0152049
1871,5771;0,0151947
1872,5414;0,0152177
1873,5056;0,0152546
1874,4698;0,0152889
1875,4341;0,0153123
1876,3983;0,0153277
1877,3625;0,0153461
1878,3268;0,0153749
1879,2910;0,0154107
1880,2552;0,0154391
1881,2195;0,0154461
1882,1837;0,0154307
1883,1479;0,0154085
1884,1122;0,0154017
1885,0764;0,015421
1886,0406;0,015455
1887,0049;0,0154744
1887,9691;0,015452
1888,9333;0,0153842
1889,8976;0,0152974
1890,8618;0,0152283
1891,8260;0,0151986
1892,7903;0,0152058
1893,7545;0,0152331
1894,7188;0,0152671
1895,6830;0,0153061
1896,6472;0,0153554
1897,6115;0,0154132
1898,5757;0,0154633
1899,5399;0,0154827
1900,5042;0,0154577
1901,4684;0,0153965
1902,4326;0,0153297
1903,3969;0,015293
1904,3611;0,0153058
1905,3253;0,0153582
1906,2896;0,0154153
1907,2538;0,0154355
1908,2180;0,0153922
1909,1823;0,0152906
1910,1465;0,0151667
1911,1107;0,0150674
1912,0750;0,0150254
1913,0392;0,0150466
1914,0034;0,0151133
1914,9677;0,0151962
1915,9319;0,0152693
1916,8961;0,0153191
1917,8604;0,0153444
1918,8246;0,0153465
1919,7888;0,0153229
1920,7531;0,0152712
1921,7173;0,0152
1922,6815;0,0151319
1923,6458;0,0150933
1924,6100;0,0150943
1925,5742;0,0151175
1926,5385;0,0151294
1927,5027;0,0151053
1928,4669;0,0150496
1929,4312;0,0149953
1930,3954;0,0149835
1931,3596;0,0150327
1932,3239;0,0151227
1933,2881;0,0152049
1934,2523;0,0152324
1935,2166;0,0151882
1936,1808;0,0150927
1937,1450;0,0149878
1938,1093;0,0149101
1939,0735;0,0148714
1940,0377;0,0148546
1941,0020;0,0148274
1941,9662;0,014765
1942,9304;0,0146722
1943,8947;0,0145848
1944,8589;0,0145469
1945,8231;0,0145779
1946,7874;0,0146546
1947,7516;0,0147169
1948,7158;0,014698
1949,6801;0,014565
1950,6443;0,0143448
1951,6085;0,0141145
1952,5728;0,0139583
1953,5370;0,0139183
1954,5012;0,0139727
1955,4655;0,0140538
1956,4297;0,0140929
1957,3939;0,0140581
1958,3582;0,0139646
1959,3224;0,0138542
1960,2866;0,0137623
1961,2509;0,0136971
1962,2151;0,0136385
1963,1793;0,0135544
1964,1436;0,0134183
1965,1078;0,0132235
1966,0720;0,0129925
1967,0363;0,0127783
1968,0005;0,0126471
1968,9647;0,0126439
1969,9290;0,0127607
1970,8932;0,012931
1971,8574;0,0130578
1972,8217;0,0130623
1973,7859;0,0129324
1974,7501;0,0127387
1975,7144;0,0125998
1976,6786;0,0126108
1977,6428;0,0127826
1978,6071;0,0130425
1979,5713;0,0132931
1980,5355;0,0134759
1981,4998;0,0135927
1982,4640;0,0136821
1983,4282;0,0137816
1984,3925;0,0139018
1985,3567;0,0140254
1986,3209;0,014127
1987,2852;0,0141987
1988,2494;0,0142608
1989,2136;0,014351
1990,1779;0,0144945
1991,1421;0,0146725
1992,1063;0,0148136
1993,0706;0,0148223
1994,0348;0,0146323
1994,9990;0,0142508
1995,9633;0,0137661
1996,9275;0,013318
1997,8917;0,0130439
1998,8560;0,0130195
1999,8202;0,0132225
2000,7844;0,013546
2001,7487;0,0138556
2002,7129;0,0140538
2003,6771;0,0141118
2004,6414;0,014059
2005,6056;0,0139441
2006,5698;0,0138006
2007,5341;0,0136394
2008,4983;0,0134698
2009,4625;0,0133218
2010,4268;0,0132455
2011,3910;0,013285
2012,3552;0,0134523
2013,3195;0,0137204
2014,2837;0,0140411
2015,2479;0,0143715
2016,2122;0,0146892
2017,1764;0,0149867
2018,1406;0,0152503
2019,1049;0,0154456
2020,0691;0,0155243
2021,0333;0,0154482
2021,9976;0,015215
2022,9618;0,0148708
2023,9260;0,0144981
2024,8903;0,0141849
2025,8545;0,0139861
2026,8187;0,013899
2027,7830;0,0138698
2028,7472;0,0138273
2029,7114;0,0137303
2030,6757;0,0135999
2031,6399;0,0135174
2032,6041;0,0135838
2033,5684;0,0138615
2034,5326;0,0143325
2035,4968;0,0148995
2036,4611;0,0154284
2037,4253;0,0158025
2038,3895;0,0159589
2039,3538;0,0158979
2040,3180;0,0156723
2041,2822;0,0153682
2042,2465;0,0150812
2043,2107;0,0148933
2044,1749;0,0148549
2045,1392;0,0149745
2046,1034;0,0152177
2047,0676;0,0155165
2048,0320;0,0157918
2048,9961;0,0159818
2049,9604;0,0160634
2050,9246;0,0160513
2051,8889;0,0159825
2052,8530;0,0158964
2053,8174;0,0158216
2054,7815;0,0157721
2055,7458;0,0157508
2056,7100;0,0157589
2057,6743;0,015803
2058,6384;0,0158952
2059,6028;0,0160437
2060,5669;0,0162415
2061,5313;0,0164599
2062,4954;0,0166542
2063,4597;0,0167795
2064,4238;0,0168103
2065,3882;0,016751
2066,3523;0,0166339
2067,3167;0,0165049
2068,2808;0,0164073
2069,2451;0,0163707
2070,2092;0,0164068
2071,1736;0,0165095
2072,1377;0,0166589
2073,1021;0,0168259
2074,0662;0,0169799
2075,0305;0,0170978
2075,9946;0,0171697
2076,9590;0,0171988
2077,9231;0,0171954
2078,8875;0,0171685
2079,8516;0,0171209
2080,8159;0,0170515
2081,7800;0,0169628
2082,7444;0,0168686
2083,7085;0,0167942
2084,6729;0,0167677
2085,6370;0,0168054
2086,6013;0,0169012
2087,5654;0,0170252
2088,5298;0,0171344
2089,4939;0,0171913
2090,4583;0,0171802
2091,4224;0,0171146
2092,3867;0,0170316
2093,3508;0,0169771
2094,3152;0,0169867
2095,2793;0,0170702
2096,2437;0,0172062
2097,2078;0,0173507
2098,1721;0,0174566
2099,1362;0,0174928
2100,1006;0,017453
2101,0647;0,0173561
2102,0291;0,0172296
2102,9932;0,0171008
2103,9575;0,0169897
2104,9216;0,0169097
2105,8860;0,0168731
2106,8501;0,0168937
2107,8145;0,0169827
2108,7786;0,0171411
2109,7429;0,0173522
2110,7070;0,01758
2111,6714;0,0177758
2112,6355;0,0178926
2113,5999;0,0179008
2114,5640;0,0178009
2115,5283;0,017626
2116,4924;0,0174324
2117,4568;0,0172792
2118,4209;0,0172078
2119,3853;0,0172284
2120,3494;0,0173227
2121,3137;0,0174572
2122,2778;0,0175986
2123,2422;0,0177227
2124,2063;0,0178121
2125,1707;0,0178513
2126,1348;0,0178281
2127,0991;0,017742
2128,0632;0,017614
2129,0276;0,0174855
2129,9917;0,0174023
2130,9561;0,0173906
2131,9202;0,0174394
2132,8845;0,0175023
2133,8486;0,0175221
2134,8130;0,0174652
2135,7771;0,0173446
2136,7415;0,0172149
2137,7056;0,0171418
2138,6699;0,0171664
2139,6340;0,017286
2140,5984;0,0174581
2141,5625;0,0176234
2142,5269;0,0177313
2143,4910;0,0177569
2144,4553;0,0177021
2145,4194;0,017585
2146,3838;0,0174276
2147,3479;0,0172499
2148,3123;0,0170717
2149,2764;0,0169162
2150,2407;0,0168072
2151,2048;0,0167594
2152,1692;0,0167685
2153,1333;0,0168102
2154,0977;0,0168529
2155,0618;0,0168769
2156,0261;0,0168869
2156,9902;0,016906
2157,9546;0,0169488
2158,9187;0,0169959
2159,8831;0,0170002
2160,8472;0,016928
2161,8115;0,0167956
2162,7756;0,016665
2163,7400;0,0166032
2164,7041;0,0166359
2165,6685;0,016725
2166,6326;0,0167911
2167,5969;0,0167711
2168,5610;0,0166718
2169,5254;0,0165797
2170,4895;0,0166124
2171,4539;0,0168404
2172,4180;0,0172265
2173,3823;0,0176271
2174,3464;0,017865
2175,3108;0,0178336
2176,2749;0,0175637
2177,2393;0,0172043
2178,2034;0,0169313
2179,1677;0,0168492
2180,1318;0,0169457
2181,0962;0,0171204
2182,0603;0,0172607
2183,0247;0,017314
2183,9888;0,0173095
2184,9531;0,0173224
2185,9172;0,0174142
2186,8816;0,0175928
2187,8457;0,0178126
2188,8101;0,0180048
2189,7742;0,0181155
2190,7385;0,0181297
2191,7026;0,0180701
2192,6670;0,0179781
2193,6311;0,0178897
2194,5955;0,0178218
2195,5596;0,0177728
2196,5239;0,0177343
2197,4880;0,0177031
2198,4524;0,017685
2199,4165;0,0176896
2200,3809;0,0177207
2201,3450;0,0177707
2202,3093;0,017823
2203,2734;0,0178586
2204,2378;0,0178643
2205,2019;0,0178353
2206,1663;0,0177747
2207,1304;0,0176902
2208,0947;0,017592
2209,0588;0,0174924
2210,0232;0,017407
2210,9873;0,0173544
2211,9517;0,0173545
2212,9158;0,0174208
2213,8801;0,0175526
2214,8442;0,01773
2215,8086;0,0179187
2216,7727;0,0180838
2217,7371;0,0182054
2218,7012;0,0182849
2219,6655;0,0183341
2220,6296;0,0183572
2221,5940;0,0183383
2222,5581;0,0182492
2223,5225;0,0180738
2224,4866;0,0178327
2225,4509;0,0175864
2226,4150;0,0174111
2227,3794;0,01736
2228,3435;0,0174339
2229,3079;0,0175822
2230,2720;0,017731
2231,2363;0,0178237
2232,2004;0,0178467
2233,1648;0,0178291
2234,1289;0,0178174
2235,0933;0,0178441
2236,0574;0,0179068
2237,0217;0,017972
2237,9858;0,0179973
2238,9502;0,0179616
2239,9143;0,0178809
2240,8787;0,0178032
2241,8428;0,0177814
2242,8071;0,0178436
2243,7712;0,0179763
2244,7356;0,0181323
2245,6997;0,0182563
2246,6641;0,0183112
2247,6282;0,0182914
2248,5925;0,0182183
2249,5566;0,0181249
2250,5210;0,0180417
2251,4851;0,0179899
2252,4495;0,0179797
2253,4136;0,0180095
2254,3779;0,0180666
2255,3420;0,0181291
2256,3064;0,0181729
2257,2705;0,0181806
2258,2349;0,0181461
2259,1990;0,0180745
2260,1633;0,0179772
2261,1274;0,0178699
2262,0918;0,0177725
2263,0559;0,0177074
2264,0203;0,0176932
2264,9844;0,0177344
2265,9487;0,0178136
2266,9128;0,0178967
2267,8772;0,0179491
2268,8413;0,0179542
2269,8057;0,0179214
2270,7698;0,0178779
2271,7341;0,0178514
2272,6982;0,0178563
2273,6626;0,0178906
2274,6267;0,0179437
2275,5911;0,0180049
2276,5552;0,0180676
2277,5195;0,0181277
2278,4836;0,0181813
2279,4480;0,0182263
2280,4121;0,0182652
2281,3765;0,0183056
2282,3406;0,0183556
2283,3049;0,0184174
2284,2690;0,018485
2285,2334;0,0185482
2286,1975;0,0185995
2287,1619;0,0186392
2288,1260;0,018674
2289,0903;0,0187123
2290,0544;0,0187598
2291,0188;0,0188193
2291,9829;0,0188929
2292,9473;0,0189827
2293,9114;0,0190879
2294,8757;0,0192007
2295,8398;0,019307
2296,8042;0,0193939
2297,7683;0,0194598
2298,7327;0,019519
2299,6968;0,019595
2300,6611;0,0197051
2301,6252;0,0198466
2302,5896;0,0199963
2303,5537;0,0201232
2304,5181;0,0202081
2305,4822;0,0202556
2306,4465;0,0202912
2307,4106;0,0203459
2308,3750;0,0204365
2309,3391;0,0205566
2310,3035;0,0206822
2311,2676;0,0207876
2312,2319;0,0208597
2313,1960;0,0209014
2314,1604;0,0209247
2315,1245;0,0209419
2316,0889;0,0209603
2317,0530;0,0209838
2318,0173;0,0210153
2318,9814;0,0210564
2319,9458;0,0211036
2320,9099;0,0211453
2321,8743;0,0211648
2322,8384;0,0211495
2323,8027;0,0210983
2324,7668;0,0210205
2325,7312;0,0209266
2326,6953;0,0208192
2327,6597;0,0206896
2328,6238;0,0205242
2329,5881;0,0203179
2330,5522;0,0200868
2331,5166;0,019867
2332,4807;0,0196966
2333,4451;0,0195919
2334,4092;0,0195365
2335,3735;0,0194899
2336,3376;0,0194127
2337,3020;0,0192937
2338,2661;0,0191613
2339,2305;0,0190655
2340,1946;0,0190404
2341,1589;0,0190781
2342,1230;0,0191367
2343,0874;0,0191814
2344,0515;0,0192224
2345,0159;0,0193059
2345,9800;0,0194697
2346,9443;0,0197167
2347,9084;0,0200214
2348,8728;0,0203418
2349,8369;0,0206249
2350,8013;0,0208119
2351,7654;0,0208521
2352,7297;0,0207329
2353,6938;0,0205066
2354,6582;0,0202715
2355,6223;0,0201043
2356,5867;0,0200068
2357,5508;0,0199229
2358,5151;0,0197936
2359,4792;0,019602
2360,4436;0,0193812
2361,4077;0,0191912
2362,3721;0,0190881
2363,3362;0,0191013
2364,3005;0,019224
2365,2646;0,0194163
2366,2290;0,0196226
2367,1931;0,0197941
2368,1575;0,0199043
2369,1216;0,0199517
2370,0859;0,0199517
2371,0500;0,0199263
2372,0144;0,0198953
2372,9785;0,0198721
2373,9429;0,0198618
2374,9070;0,0198631
2375,8713;0,0198688
2376,8354;0,0198695
2377,7998;0,0198555
2378,7639;0,0198202
2379,7283;0,0197622
2380,6924;0,0196863
2381,6567;0,0196022
2382,6208;0,0195221
2383,5852;0,0194568
2384,5493;0,0194122
2385,5137;0,0193882
2386,4778;0,0193797
2387,4421;0,0193799
2388,4063;0,019383
2389,3706;0,0193857
2390,3347;0,019386
2391,2991;0,0193814
2392,2632;0,0193686
2393,2275;0,0193451
2394,1917;0,019312
2395,1560;0,0192754
2396,1201;0,0192447
2397,0845;0,0192285
2398,0486;0,0192313
2399,0129;0,0192525
2399,9771;0,0192886
2400,9414;0,0193357
2401,9055;0,019391
2402,8699;0,0194513
2403,8340;0,0195112
2404,7983;0,0195631
2405,7625;0,0195992
2406,7268;0,0196161
2407,6909;0,0196164
2408,6553;0,0196086
2409,6194;0,019602
2410,5837;0,0196028
2411,5479;0,0196103
2412,5122;0,0196191
2413,4763;0,0196228
2414,4407;0,0196193
2415,4048;0,0196142
2416,3691;0,0196185
2417,3333;0,0196426
2418,2976;0,0196895
2419,2617;0,0197502
2420,2261;0,0198075
2421,1902;0,019844
2422,1545;0,0198528
2423,1187;0,0198415
2424,0830;0,019828
2425,0471;0,0198298
2426,0115;0,0198529
2426,9756;0,0198888
2427,9399;0,0199207
2428,9041;0,0199354
2429,8684;0,0199323
2430,8325;0,0199232
2431,7969;0,0199245
2432,7610;0,0199464
2433,7253;0,0199872
2434,6895;0,020036
2435,6538;0,0200799
2436,6179;0,020112
2437,5823;0,0201325
2438,5464;0,0201462
2439,5107;0,0201577
2440,4749;0,0201692
2441,4392;0,0201818
2442,4033;0,0201984
2443,3677;0,0202233
2444,3318;0,0202596
2445,2961;0,0203048
2446,2603;0,02035
2447,2246;0,0203843
2448,1887;0,0204021
2449,1531;0,0204077
2450,1172;0,0204142
2451,0815;0,0204353
2452,0457;0,0204755
2453,0100;0,0205261
2453,9741;0,020569
2454,9385;0,0205879
2455,9026;0,0205787
2456,8669;0,0205525
2457,8311;0,0205287
2458,7954;0,0205236
2459,7595;0,0205402
2460,7239;0,0205685
2461,6880;0,0205921
2462,6523;0,0205999
2463,6165;0,0205924
2464,5808;0,0205802
2465,5449;0,020576
2466,5093;0,0205858
2467,4734;0,0206064
2468,4377;0,0206286
2469,4019;0,0206447
2470,3662;0,020654
2471,3303;0,0206625
2472,2947;0,0206777
2473,2588;0,020703
2474,2231;0,0207355
2475,1873;0,0207692
2476,1516;0,0207998
2477,1157;0,0208285
2478,0801;0,0208606
2479,0442;0,0209014
2480,0085;0,0209504
2480,9727;0,0210012
2481,9370;0,0210439
2482,9011;0,0210709
2483,8655;0,0210809
2484,8296;0,0210792
2485,7939;0,0210745
2486,7581;0,0210744
2487,7224;0,0210829
2488,6865;0,0211002
2489,6509;0,0211241
2490,6150;0,0211512
2491,5793;0,0211771
2492,5435;0,0211969
2493,5078;0,0212069
2494,4719;0,0212074
2495,4363;0,0212043
2496,4004;0,0212072
2497,3647;0,0212242
2498,3289;0,0212546
2499,2932;0,0212868
2500,2573;0,0213023
2501,2217;0,0212865
2502,1858;0,0212388
2503,1501;0,0211758
2504,1143;0,0211247
2505,0786;0,0211106
2506,0427;0,0211442
2507,0071;0,021217
2507,9712;0,0213069
2508,9355;0,0213884
2509,8997;0,0214435
2510,8640;0,0214668
2511,8281;0,0214639
2512,7925;0,0214468
2513,7566;0,0214284
2514,7209;0,0214183
2515,6851;0,0214211
2516,6494;0,0214363
2517,6135;0,0214597
2518,5779;0,0214856
2519,5420;0,0215092
2520,5063;0,0215285
2521,4705;0,0215435
2522,4348;0,021555
2523,3989;0,0215632
2524,3633;0,0215672
2525,3274;0,0215668
2526,2917;0,0215632
2527,2559;0,0215601
2528,2202;0,0215621
2529,1843;0,0215725
2530,1487;0,0215911
2531,1128;0,0216136
2532,0771;0,0216337
2533,0413;0,0216452
2534,0056;0,0216455
2534,9697;0,021637
2535,9341;0,0216263
2536,8982;0,0216211
2537,8625;0,0216264
2538,8267;0,0216422
2539,7910;0,0216638
2540,7551;0,0216852
2541,7195;0,021703
2542,6836;0,0217183
2543,6479;0,0217357
2544,6121;0,0217588
2545,5764;0,0217878
2546,5405;0,0218183
2547,5049;0,0218436
2548,4690;0,0218585
2549,4333;0,0218612
2550,3975;0,021854
2551,3618;0,0218416
2552,3259;0,0218294
2553,2903;0,0218213
2554,2544;0,0218189
2555,2188;0,0218209
2556,1829;0,0218241
2557,1472;0,0218253
2558,1113;0,0218243
2559,0757;0,0218252
2560,0398;0,021834
2561,0042;0,0218547
2561,9683;0,0218852
2562,9326;0,0219173
2563,8967;0,0219416
2564,8611;0,0219535
2565,8252;0,0219571
2566,7896;0,0219625
2567,7537;0,0219789
2568,7180;0,0220078
2569,6821;0,0220415
2570,6465;0,0220686
2571,6106;0,022082
2572,5750;0,0220833
2573,5391;0,0220819
2574,5034;0,0220877
2575,4675;0,0221045
2576,4319;0,0221266
2577,3960;0,0221429
2578,3604;0,022144
2579,3245;0,0221294
2580,2888;0,0221082
2581,2529;0,0220951
2582,2173;0,0221024
2583,1814;0,0221338
2584,1458;0,0221826
2585,1099;0,0222355
2586,0742;0,0222793
2587,0383;0,0223059
2588,0027;0,022315
2588,9668;0,0223116
2589,9312;0,0223028
2590,8953;0,0222947
2591,8596;0,0222916
2592,8237;0,0222965
2593,7881;0,0223106
2594,7522;0,0223333
2595,7166;0,0223615
2596,6807;0,022391
2597,6450;0,022419
2598,6091;0,0224455
2599,5735;0,022474
2600,5376;0,0225082
2601,5020;0,0225495
2602,4661;0,0225946
2603,4304;0,0226376
2604,3945;0,0226727
2605,3589;0,0226975
2606,3230;0,022713
2607,2874;0,0227222
2608,2515;0,0227276
2609,2158;0,0227311
2610,1799;0,0227343
2611,1443;0,0227406
2612,1084;0,0227545
2613,0728;0,0227797
2614,0369;0,0228164
2615,0012;0,0228608
2615,9653;0,0229063
2616,9297;0,0229467
2617,8938;0,0229793
2618,8582;0,0230054
2619,8223;0,0230282
2620,7866;0,0230505
2621,7507;0,0230731
2622,7151;0,0230948
2623,6792;0,0231141
2624,6436;0,0231303
2625,6077;0,0231441
2626,5720;0,0231566
2627,5361;0,0231687
2628,5005;0,0231814
2629,4646;0,0231967
2630,4290;0,0232182
2631,3931;0,0232498
2632,3574;0,0232937
2633,3215;0,0233478
2634,2859;0,0234057
2635,2500;0,0234584
2636,2144;0,0234989
2637,1785;0,0235252
2638,1428;0,0235416
2639,1069;0,023556
2640,0713;0,023576
2641,0354;0,0236051
2641,9998;0,0236417
2642,9639;0,0236806
2643,9282;0,0237163
2644,8923;0,0237468
2645,8567;0,0237737
2646,8208;0,0238013
2647,7852;0,023833
2648,7493;0,023869
2649,7136;0,0239057
2650,6777;0,0239382
2651,6421;0,0239635
2652,6062;0,0239829
2653,5706;0,0240017
2654,5347;0,024026
2655,4990;0,0240587
2656,4631;0,0240976
2657,4275;0,0241371
2658,3916;0,024171
2659,3560;0,0241962
2660,3201;0,024214
2661,2844;0,024229
2662,2485;0,0242458
2663,2129;0,0242668
2664,1770;0,024292
2665,1414;0,0243193
2666,1055;0,0243465
2667,0698;0,0243721
2668,0339;0,0243955
2668,9983;0,0244165
2669,9624;0,0244355
2670,9268;0,0244536
2671,8909;0,0244732
2672,8552;0,0244973
2673,8193;0,0245283
2674,7837;0,0245659
2675,7478;0,0246071
2676,7122;0,0246467
2677,6763;0,0246806
2678,6406;0,0247081
2679,6047;0,0247324
2680,5691;0,0247584
2681,5332;0,0247898
2682,4976;0,0248269
2683,4617;0,0248666
2684,4260;0,0249049
2685,3901;0,02494
2686,3545;0,0249729
2687,3186;0,0250063
2688,2830;0,0250419
2689,2471;0,025079
2690,2114;0,0251149
2691,1755;0,0251471
2692,1399;0,0251749
2693,1040;0,0251999
2694,0684;0,0252246
2695,0325;0,0252511
2695,9968;0,0252802
2696,9609;0,0253113
2697,9253;0,0253441
2698,8894;0,0253788
2699,8538;0,025416
2700,8179;0,0254565
2701,7822;0,0255002
2702,7463;0,0255458
2703,7107;0,0255907
2704,6748;0,0256322
2705,6392;0,0256687
2706,6033;0,0257004
2707,5676;0,0257297
2708,5317;0,02576
2709,4961;0,025794
2710,4602;0,0258327
2711,4246;0,0258751
2712,3887;0,0259197
2713,3530;0,0259652
2714,3171;0,0260107
2715,2815;0,0260556
2716,2456;0,0260979
2717,2100;0,0261352
2718,1741;0,0261658
2719,1384;0,0261896
2720,1025;0,0262089
2721,0669;0,0262268
2722,0310;0,0262456
2722,9954;0,0262661
2723,9595;0,0262884
2724,9238;0,0263136
2725,8879;0,0263444
2726,8523;0,0263837
2727,8164;0,0264331
2728,7808;0,0264903
2729,7449;0,0265494
2730,7092;0,0266036
2731,6733;0,0266479
2732,6377;0,0266806
2733,6018;0,0267033
2734,5662;0,0267185
2735,5303;0,0267282
2736,4946;0,0267341
2737,4587;0,0267384
2738,4231;0,0267458
2739,3872;0,0267626
2740,3516;0,0267943
2741,3157;0,0268415
2742,2800;0,0268982
2743,2441;0,0269526
2744,2085;0,0269928
2745,1726;0,0270123
2746,1370;0,027014
2747,1011;0,0270086
2748,0654;0,0270096
2749,0295;0,0270265
2749,9939;0,0270606
2750,9580;0,0271059
2751,9224;0,027153
2752,8865;0,0271953
2753,8508;0,0272317
2754,8149;0,027266
2755,7793;0,0273038
2756,7434;0,0273485
2757,7078;0,0273997
2758,6719;0,0274536
2759,6362;0,0275057
2760,6003;0,0275526
2761,5647;0,0275931
2762,5288;0,0276279
2763,4932;0,0276587
2764,4573;0,0276875
2765,4216;0,0277168
2766,3857;0,0277495
2767,3501;0,0277884
2768,3142;0,0278348
2769,2786;0,0278873
2770,2427;0,0279419
2771,2070;0,0279936
2772,1711;0,0280398
2773,1355;0,0280818
2774,0996;0,0281248
2775,0640;0,0281744
2776,0281;0,0282334
2776,9924;0,0282994
2777,9565;0,0283662
2778,9209;0,0284274
2779,8850;0,0284798
2780,8494;0,0285254
2781,8135;0,0285689
2782,7778;0,0286152
2783,7419;0,0286664
2784,7063;0,0287219
2785,6704;0,0287797
2786,6348;0,0288383
2787,5989;0,0288977
2788,5632;0,0289594
2789,5273;0,0290248
2790,4917;0,0290951
2791,4558;0,0291712
2792,4202;0,0292533
2793,3843;0,0293408
2794,3486;0,0294318
2795,3127;0,0295231
2796,2771;0,0296116
2797,2412;0,0296954
2798,2056;0,0297751
2799,1697;0,0298536
2800,1340;0,0299353
2801,0981;0,0300242
2802,0625;0,0301228
2803,0266;0,0302313
2803,9910;0,0303477
2804,9551;0,0304675
2805,9194;0,0305851
2806,8835;0,0306958
2807,8479;0,0307971
2808,8120;0,0308908
2809,7764;0,0309824
2810,7405;0,0310786
2811,7048;0,0311846
2812,6689;0,0313024
2813,6333;0,0314304
2814,5974;0,0315658
2815,5618;0,031707
2816,5259;0,0318541
2817,4902;0,0320084
2818,4543;0,0321699
2819,4187;0,0323365
2820,3828;0,0325047
2821,3472;0,0326714
2822,3113;0,0328365
2823,2756;0,0330032
2824,2397;0,0331769
2825,2041;0,033362
2826,1682;0,03356
2827,1326;0,0337685
2828,0967;0,0339837
2829,0610;0,034203
2830,0251;0,0344277
2830,9895;0,0346622
2831,9536;0,0349116
2832,9180;0,0351783
2833,8821;0,0354609
2834,8464;0,0357552
2835,8105;0,0360576
2836,7749;0,0363685
2837,7390;0,0366924
2838,7034;0,0370365
2839,6675;0,0374078
2840,6318;0,0378111
2841,5959;0,0382494
2842,5603;0,0387249
2843,5244;0,0392386
2844,4888;0,0397873
2845,4529;0,0403594
2846,4172;0,0409312
2847,3813;0,0414681
2848,3457;0,0419311
2849,3098;0,0422869
2850,2742;0,0425179
2851,2383;0,0426278
2852,2026;0,0426396
2853,1667;0,0425884
2854,1311;0,0425094
2855,0952;0,0424294
2856,0596;0,0423628
2857,0237;0,0423138
2857,9880;0,042283
2858,9521;0,0422727
2859,9165;0,0422882
2860,8806;0,0423353
2861,8450;0,042416
2862,8091;0,0425271
2863,7734;0,042662
2864,7375;0,0428145
2865,7019;0,0429812
2866,6660;0,0431598
2867,6304;0,0433448
2868,5945;0,0435259
2869,5588;0,0436889
2870,5229;0,043822
2871,4873;0,0439216
2872,4514;0,0439945
2873,4158;0,0440541
2874,3799;0,0441133
2875,3442;0,0441785
2876,3083;0,0442491
2877,2727;0,0443213
2878,2368;0,0443933
2879,2012;0,0444677
2880,1653;0,0445492
2881,1296;0,0446403
2882,0938;0,0447388
2883,0581;0,0448382
2884,0222;0,044933
2884,9866;0,0450222
2885,9507;0,0451107
2886,9150;0,0452057
2887,8792;0,0453122
2888,8435;0,0454298
2889,8076;0,0455533
2890,7720;0,0456761
2891,7361;0,0457936
2892,7004;0,0459047
2893,6646;0,04601
2894,6289;0,0461108
2895,5930;0,0462078
2896,5574;0,0463024
2897,5215;0,0463973
2898,4858;0,0464958
2899,4500;0,0465996
2900,4143;0,0467071
2901,3784;0,0468137
2902,3428;0,0469153
2903,3069;0,0470115
2904,2712;0,0471074
2905,2354;0,0472113
2906,1997;0,0473313
2907,1638;0,0474723
2908,1282;0,0476365
2909,0923;0,0478265
2910,0566;0,048047
2911,0208;0,0483034
2911,9851;0,0485959
2912,9492;0,0489133
2913,9136;0,0492311
2914,8777;0,0495162
2915,8420;0,0497364
2916,8062;0,049871
2917,7705;0,0499154
2918,7346;0,0498794
2919,6990;0,0497798
2920,6631;0,0496328
2921,6274;0,04945
2922,5916;0,0492387
2923,5559;0,049004
2924,5200;0,0487504
2925,4844;0,048482
2926,4485;0,0482014
2927,4128;0,0479107
2928,3770;0,0476132
2929,3413;0,0473144
2930,3054;0,0470216
2931,2698;0,0467405
2932,2339;0,0464715
2933,1982;0,0462089
2934,1624;0,0459434
2935,1267;0,0456676
2936,0908;0,0453794
2937,0552;0,0450824
2938,0193;0,0447815
2938,9836;0,0444796
2939,9478;0,0441747
2940,9121;0,0438622
2941,8762;0,0435389
2942,8406;0,0432068
2943,8047;0,0428737
2944,7690;0,0425515
2945,7332;0,0422514
2946,6975;0,0419797
2947,6616;0,0417361
2948,6260;0,0415141
2949,5901;0,041304
2950,5544;0,0410973
2951,5186;0,0408895
2952,4829;0,0406818
2953,4470;0,0404787
2954,4114;0,0402847
2955,3755;0,040101
2956,3398;0,0399239
2957,3040;0,0397464
2958,2683;0,0395621
2959,2324;0,0393682
2960,1968;0,0391666
2961,1609;0,038963
2962,1252;0,0387626
2963,0894;0,0385676
2964,0537;0,0383757
2965,0178;0,0381814
2965,9822;0,0379789
2966,9463;0,0377641
2967,9106;0,0375355
2968,8748;0,0372937
2969,8391;0,0370406
2970,8032;0,0367792
2971,7676;0,0365152
2972,7317;0,0362571
2973,6960;0,0360152
2974,6602;0,0357976
2975,6245;0,0356059
2976,5886;0,0354337
2977,5530;0,0352694
2978,5171;0,0351026
2979,4814;0,03493
2980,4456;0,0347579
2981,4099;0,034599
2982,3740;0,0344652
2983,3384;0,0343609
2984,3025;0,0342807
2985,2668;0,0342121
2986,2310;0,0341418
2987,1953;0,0340609
2988,1594;0,0339691
2989,1238;0,033873
2990,0879;0,0337837
2991,0522;0,0337114
2992,0164;0,0336621
2992,9807;0,0336357
2993,9448;0,0336275
2994,9092;0,0336308
2995,8733;0,033641
2996,8376;0,0336573
2997,8018;0,0336813
2998,7661;0,0337144
2999,7302;0,0337545
3000,6946;0,0337964
3001,6587;0,0338341
3002,6230;0,0338652
3003,5872;0,0338923
3004,5515;0,0339214
3005,5156;0,0339572
3006,4800;0,0339992
3007,4441;0,0340413
3008,4084;0,0340759
3009,3726;0,0340993
3010,3369;0,0341146
3011,3010;0,034131
3012,2654;0,0341588
3013,2295;0,0342043
3014,1938;0,0342666
3015,1580;0,0343399
3016,1223;0,0344167
3017,0864;0,0344921
3018,0508;0,0345653
3019,0149;0,0346382
3019,9792;0,0347141
3020,9434;0,034795
3021,9077;0,0348813
3022,8718;0,0349723
3023,8362;0,0350668
3024,8003;0,0351635
3025,7646;0,0352609
3026,7288;0,0353572
3027,6931;0,0354498
3028,6572;0,0355361
3029,6216;0,035615
3030,5857;0,0356885
3031,5500;0,0357619
3032,5142;0,0358425
3033,4785;0,0359366
3034,4426;0,036046
3035,4070;0,0361672
3036,3711;0,0362937
3037,3354;0,036419
3038,2996;0,0365397
3039,2639;0,0366565
3040,2280;0,0367716
3041,1924;0,0368872
3042,1565;0,0370034
3043,1208;0,0371197
3044,0850;0,0372359
3045,0493;0,0373536
3046,0134;0,0374746
3046,9778;0,0376002
3047,9419;0,0377298
3048,9063;0,0378618
3049,8704;0,0379948
3050,8347;0,0381285
3051,7988;0,0382628
3052,7632;0,0383976
3053,7273;0,0385322
3054,6917;0,0386659
3055,6558;0,0387993
3056,6201;0,0389347
3057,5842;0,0390743
3058,5486;0,0392189
3059,5127;0,0393666
3060,4771;0,0395136
3061,4412;0,0396553
3062,4055;0,0397883
3063,3696;0,0399122
3064,3340;0,0400297
3065,2981;0,0401463
3066,2625;0,0402683
3067,2266;0,0403997
3068,1909;0,0405407
3069,1550;0,0406872
3070,1194;0,0408333
3071,0835;0,0409748
3072,0479;0,0411106
3073,0120;0,0412422
3073,9763;0,0413704
3074,9404;0,0414934
3075,9048;0,0416078
3076,8689;0,041712
3077,8333;0,0418099
3078,7974;0,0419111
3079,7617;0,0420264
3080,7258;0,0421617
3081,6902;0,0423138
3082,6543;0,0424719
3083,6187;0,0426237
3084,5828;0,0427614
3085,5471;0,0428847
3086,5112;0,0429998
3087,4756;0,0431148
3088,4397;0,0432362
3089,4041;0,0433661
3090,3682;0,0435027
3091,3325;0,0436415
3092,2966;0,0437778
3093,2610;0,0439092
3094,2251;0,044036
3095,1895;0,0441616
3096,1536;0,0442899
3097,1179;0,0444226
3098,0820;0,0445579
3099,0464;0,0446919
3100,0105;0,0448224
3100,9749;0,0449514
3101,9390;0,0450854
3102,9033;0,0452308
3103,8674;0,0453898
3104,8318;0,0455579
3105,7959;0,0457269
3106,7603;0,04589
3107,7244;0,0460461
3108,6887;0,0461991
3109,6528;0,0463548
3110,6172;0,0465153
3111,5813;0,0466785
3112,5457;0,0468398
3113,5098;0,0469966
3114,4741;0,0471494
3115,4382;0,0473005
3116,4026;0,047451
3117,3667;0,0475993
3118,3311;0,0477435
3119,2952;0,0478842
3120,2595;0,0480261
3121,2236;0,0481763
3122,1880;0,0483403
3123,1521;0,0485196
3124,1165;0,0487126
3125,0806;0,048916
3126,0449;0,049127
3127,0090;0,0493419
3127,9734;0,0495541
3128,9375;0,0497538
3129,9019;0,0499312
3130,8660;0,0500822
3131,8303;0,0502129
3132,7944;0,050339
3133,7588;0,0504796
3134,7229;0,0506486
3135,6873;0,0508474
3136,6514;0,051066
3137,6157;0,0512879
3138,5798;0,0514997
3139,5442;0,0516965
3140,5083;0,0518837
3141,4727;0,0520716
3142,4368;0,0522683
3143,4011;0,0524743
3144,3652;0,0526827
3145,3296;0,0528839
3146,2937;0,0530724
3147,2581;0,0532501
3148,2222;0,0534257
3149,1865;0,0536087
3150,1506;0,0538045
3151,1150;0,0540113
3152,0791;0,0542223
3153,0435;0,0544301
3154,0076;0,0546319
3154,9719;0,0548303
3155,9360;0,055032
3156,9004;0,0552432
3157,8645;0,0554659
3158,8289;0,0556966
3159,7930;0,0559277
3160,7573;0,0561507
3161,7214;0,0563607
3162,6858;0,0565583
3163,6499;0,0567488
3164,6143;0,0569387
3165,5784;0,0571324
3166,5427;0,05733
3167,5068;0,0575291
3168,4712;0,0577282
3169,4353;0,0579363
3170,3997;0,0581454
3171,3638;0,0583671
3172,3281;0,058601
3173,2922;0,0588403
3174,2566;0,0590737
3175,2207;0,0592923
3176,1851;0,0594948
3177,1492;0,0596886
3178,1135;0,0598852
3179,0776;0,0600932
3180,0420;0,0603131
3181,0061;0,0605378
3181,9705;0,0607581
3182,9346;0,0609689
3183,8989;0,0611714
3184,8630;0,061371
3185,8274;0,0615724
3186,7915;0,0617766
3187,7559;0,061981
3188,7200;0,0621831
3189,6843;0,0623834
3190,6484;0,0625845
3191,6128;0,0627885
3192,5769;0,0629935
3193,5413;0,0631944
3194,5054;0,0633858
3195,4697;0,0635667
3196,4338;0,0637421
3197,3982;0,0639203
3198,3623;0,064108
3199,3267;0,0643062
3200,2908;0,0645108
3201,2551;0,064716
3202,2192;0,0649179
3203,1836;0,0651165
3204,1477;0,0653139
3205,1121;0,0655113
3206,0762;0,0657071
3207,0405;0,0658975
3208,0046;0,0660785
3208,9690;0,0662491
3209,9331;0,0664125
3210,8975;0,0665749
3211,8616;0,0667433
3212,8259;0,0669221
3213,7900;0,0671115
3214,7544;0,0673074
3215,7185;0,0675035
3216,6829;0,0676946
3217,6470;0,0678798
3218,6113;0,0680637
3219,5754;0,0682541
3220,5398;0,0684579
3221,5039;0,0686765
3222,4683;0,0689035
3223,4324;0,0691276
3224,3967;0,0693368
3225,3608;0,0695242
3226,3252;0,0696905
3227,2893;0,0698442
3228,2537;0,069997
3229,2178;0,0701594
3230,1821;0,0703358
3231,1462;0,0705239
3232,1106;0,0707158
3233,0747;0,0709025
3234,0391;0,0710786
3235,0032;0,0712457
3235,9675;0,0714123
3236,9316;0,0715894
3237,8960;0,0717853
3238,8601;0,0720007
3239,8245;0,0722287
3240,7886;0,0724579
3241,7529;0,0726776
3242,7170;0,0728824
3243,6814;0,0730727
3244,6455;0,0732539
3245,6099;0,0734333
3246,5740;0,0736185
3247,5383;0,0738158
3248,5024;0,0740293
3249,4668;0,0742594
3250,4309;0,0745017
3251,3953;0,0747477
3252,3594;0,0749886
3253,3237;0,0752187
3254,2878;0,0754378
3255,2522;0,0756494
3256,2163;0,0758575
3257,1807;0,0760625
3258,1448;0,0762623
3259,1091;0,0764556
3260,0732;0,0766459
3261,0376;0,0768412
3262,0017;0,0770494
3262,9661;0,0772729
3263,9302;0,0775053
3264,8945;0,0777352
3265,8586;0,0779521
3266,8230;0,0781518
3267,7871;0,0783367
3268,7515;0,0785097
3269,7156;0,0786692
3270,6799;0,078808
3271,6440;0,0789192
3272,6084;0,0790038
3273,5725;0,0790745
3274,5369;0,0791501
3275,5010;0,0792453
3276,4653;0,0793609
3277,4294;0,0794841
3278,3938;0,0795966
3279,3579;0,0796866
3280,3223;0,079755
3281,2864;0,0798129
3282,2507;0,0798719
3283,2148;0,0799359
3284,1792;0,0799983
3285,1433;0,0800474
3286,1077;0,0800749
3287,0718;0,0800814
3288,0361;0,0800759
3289,0002;0,080071
3289,9646;0,0800764
3290,9287;0,0800955
3291,8931;0,0801243
3292,8572;0,0801541
3293,8215;0,0801749
3294,7856;0,0801799
3295,7500;0,0801684
3296,7141;0,0801462
3297,6785;0,0801235
3298,6426;0,0801087
3299,6069;0,0801045
3300,5710;0,0801055
3301,5354;0,0801021
3302,4995;0,0800858
3303,4639;0,0800547
3304,4280;0,0800137
3305,3923;0,079972
3306,3564;0,0799376
3307,3208;0,0799141
3308,2849;0,0799002
3309,2493;0,0798916
3310,2134;0,0798848
3311,1777;0,0798788
3312,1418;0,0798756
3313,1062;0,0798792
3314,0703;0,0798939
3315,0347;0,0799226
3315,9988;0,0799655
3316,9631;0,0800209
3317,9272;0,0800856
3318,8916;0,0801568
3319,8557;0,0802326
3320,8201;0,0803119
3321,7842;0,0803932
3322,7485;0,080474
3323,7126;0,0805511
3324,6770;0,0806218
3325,6411;0,0806858
3326,6055;0,0807454
3327,5696;0,0808052
3328,5339;0,080869
3329,4980;0,0809368
3330,4624;0,0810026
3331,4265;0,0810555
3332,3909;0,0810827
3333,3550;0,081076
3334,3193;0,0810354
3335,2834;0,0809706
3336,2478;0,0808951
3337,2119;0,0808193
3338,1763;0,0807451
3339,1404;0,0806661
3340,1047;0,0805733
3341,0688;0,0804624
3342,0332;0,0803356
3342,9973;0,0801997
3343,9617;0,0800596
3344,9258;0,0799148
3345,8901;0,0797603
3346,8542;0,0795911
3347,8186;0,0794064
3348,7827;0,07921
3349,7471;0,0790072
3350,7112;0,0788019
3351,6755;0,0785957
3352,6396;0,0783907
3353,6040;0,0781913
3354,5681;0,0780033
3355,5325;0,0778295
3356,4966;0,0776665
3357,4609;0,0775053
3358,4250;0,0773377
3359,3894;0,077162
3360,3535;0,0769849
3361,3179;0,0768163
3362,2820;0,0766614
3363,2463;0,0765159
3364,2104;0,0763676
3365,1748;0,0762042
3366,1389;0,0760203
3367,1033;0,0758194
3368,0674;0,0756107
3369,0317;0,0754024
3369,9958;0,0751997
3370,9602;0,0750053
3371,9243;0,0748224
3372,8887;0,0746542
3373,8528;0,0745013
3374,8171;0,0743585
3375,7813;0,0742153
3376,7456;0,0740609
3377,7097;0,0738911
3378,6741;0,0737103
3379,6382;0,0735272
3380,6025;0,0733481
3381,5667;0,0731713
3382,5310;0,07299
3383,4951;0,0727995
3384,4595;0,0726045
3385,4236;0,0724183
3386,3879;0,072255
3387,3521;0,0721188
3388,3164;0,072
3389,2805;0,07188
3390,2449;0,0717411
3391,2090;0,071576
3392,1733;0,0713903
3393,1375;0,071197
3394,1018;0,0710086
3395,0659;0,0708318
3396,0303;0,0706672
3396,9944;0,0705119
3397,9587;0,0703611
3398,9229;0,0702079
3399,8872;0,0700437
3400,8513;0,069861
3401,8157;0,0696568
3402,7798;0,0694357
3403,7441;0,0692085
3404,7083;0,068987
3405,6726;0,0687793
3406,6367;0,0685866
3407,6011;0,0684038
3408,5652;0,0682223
3409,5295;0,0680329
3410,4937;0,0678288
3411,4580;0,0676085
3412,4221;0,0673774
3413,3865;0,0671462
3414,3506;0,0669249
3415,3149;0,0667155
3416,2791;0,0665081
3417,2434;0,066285
3418,2075;0,0660314
3419,1719;0,0657464
3420,1360;0,0654468
3421,1003;0,0651588
3422,0645;0,0649031
3423,0288;0,0646831
3423,9929;0,0644849
3424,9573;0,0642866
3425,9214;0,0640705
3426,8857;0,0638296
3427,8499;0,0635687
3428,8142;0,063299
3429,7783;0,0630318
3430,7427;0,0627746
3431,7068;0,0625303
3432,6711;0,0622989
3433,6353;0,0620794
3434,5996;0,061869
3435,5637;0,0616616
3436,5281;0,0614479
3437,4922;0,0612182
3438,4565;0,0609673
3439,4207;0,060699
3440,3850;0,0604254
3441,3491;0,060159
3442,3135;0,0599033
3443,2776;0,059649
3444,2419;0,0593792
3445,2061;0,0590831
3446,1704;0,0587673
3447,1345;0,0584557
3448,0989;0,0581754
3449,0630;0,0579387
3450,0273;0,0577352
3450,9915;0,0575401
3451,9558;0,0573291
3452,9199;0,0570916
3453,8843;0,0568336
3454,8484;0,056571
3455,8127;0,0563177
3456,7769;0,0560767
3457,7412;0,0558396
3458,7053;0,0555928
3459,6697;0,0553263
3460,6338;0,0550391
3461,5981;0,0547393
3462,5623;0,0544393
3463,5266;0,0541496
3464,4907;0,0538748
3465,4551;0,0536141
3466,4192;0,053364
3467,3835;0,0531222
3468,3477;0,052888
3469,3120;0,0526594
3470,2761;0,0524299
3471,2405;0,05219
3472,2046;0,0519326
3473,1689;0,0516595
3474,1331;0,0513834
3475,0974;0,0511202
3476,0615;0,0508773
3477,0259;0,0506462
3477,9900;0,050407
3478,9543;0,0501426
3479,9185;0,0498526
3480,8828;0,049557
3481,8469;0,0492838
3482,8113;0,0490481
3483,7754;0,0488409
3484,7397;0,0486347
3485,7039;0,0484019
3486,6682;0,0481324
3487,6323;0,0478399
3488,5967;0,0475523
3489,5608;0,0472931
3490,5251;0,0470656
3491,4893;0,0468509
3492,4536;0,0466213
3493,4177;0,0463591
3494,3821;0,0460718
3495,3462;0,0457927
3496,3105;0,0455618
3497,2747;0,0453973
3498,2390;0,045278
3499,2031;0,0451487
3500,1675;0,0449475
3501,1316;0,0446422
3502,0959;0,0442561
3503,0601;0,0438602
3504,0244;0,0435278
3504,9885;0,0432865
3505,9529;0,043107
3506,9170;0,04293
3507,8813;0,0427067
3508,8455;0,0424273
3509,8098;0,0421232
3510,7739;0,0418406
3511,7383;0,0416071
3512,7024;0,0414168
3513,6667;0,0412432
3514,6309;0,0410618
3515,5952;0,0408657
3516,5593;0,040665
3517,5237;0,0404737
3518,4878;0,0402957
3519,4521;0,0401205
3520,4163;0,0399298
3521,3806;0,0397097
3522,3447;0,0394574
3523,3091;0,0391791
3524,2732;0,0388812
3525,2375;0,0385646
3526,2017;0,0382302
3527,1660;0,0378891
3528,1301;0,037569
3529,0945;0,037304
3530,0586;0,0371149
3531,0229;0,0369931
3531,9871;0,0369015
3532,9514;0,03679
3533,9155;0,0366171
3534,8799;0,0363685
3535,8440;0,0360662
3536,8083;0,0357593
3537,7725;0,0355005
3538,7368;0,0353197
3539,7009;0,035212
3540,6653;0,0351396
3541,6294;0,0350439
3542,5938;0,0348644
3543,5579;0,0345665
3544,5222;0,0341678
3545,4863;0,0337405
3546,4507;0,0333704
3547,4148;0,0331025
3548,3792;0,0329191
3549,3433;0,0327611
3550,3076;0,0325664
3551,2717;0,0323057
3552,2361;0,0320007
3553,2002;0,0317091
3554,1646;0,0314835
3555,1287;0,0313348
3556,0930;0,0312297
3557,0571;0,031117
3558,0215;0,0309636
3558,9856;0,0307804
3559,9500;0,0306189
3560,9141;0,0305345
3561,8784;0,0305379
3562,8425;0,0305661
3563,8069;0,0304895
3564,7710;0,0301637
3565,7354;0,0295341
3566,6995;0,0287339
3567,6638;0,0280247
3568,6279;0,0275899
3569,5923;0,0274291
3570,5564;0,0274291
3571,5208;0,0274637
3572,4849;0,0274443
3573,4492;0,0273354
3574,4133;0,0271501
3575,3777;0,0269259
3576,3418;0,0266931
3577,3062;0,0264608
3578,2703;0,0262326
3579,2346;0,0260309
3580,1987;0,0259004
3581,1631;0,0258805
3582,1272;0,0259668
3583,0916;0,0260877
3584,0557;0,0261115
3585,0200;0,025893
3585,9841;0,0253716
3586,9485;0,0246693
3587,9126;0,0240449
3588,8770;0,0236898
3589,8411;0,0236047
3590,8054;0,0236602
3591,7695;0,0237049
3592,7339;0,0236315
3593,6980;0,0234129
3594,6624;0,0231046
3595,6265;0,022794
3596,5908;0,0225266
3597,5549;0,0222839
3598,5193;0,0220261
3599,4834;0,0217512
3600,4478;0,0215141
3601,4119;0,0213868
3602,3762;0,0213957
3603,3403;0,0214964
3604,3047;0,0215962
3605,2688;0,0215994
3606,2332;0,0214538
3607,1973;0,021181
3608,1616;0,0208601
3609,1257;0,0205645
3610,0901;0,0203152
3611,0542;0,0200949
3612,0186;0,0198949
3612,9827;0,019736
3613,9470;0,0196442
3614,9111;0,0196076
3615,8755;0,0195547
3616,8396;0,0193774
3617,8040;0,0190019
3618,7681;0,0184712
3619,7324;0,0179587
3620,6965;0,0176601
3621,6609;0,0176677
3622,6250;0,0179512
3623,5894;0,0184057
3624,5535;0,0188792
3625,5178;0,0191681
3626,4819;0,0190413
3627,4463;0,0183773
3628,4104;0,01737
3629,3748;0,0164674
3630,3389;0,0159671
3631,3032;0,0158368
3632,2673;0,0158949
3633,2317;0,0159833
3634,1958;0,0160169
3635,1602;0,0159785
3636,1243;0,0158941
3637,0886;0,0157986
3638,0527;0,0157105
3639,0171;0,015634
3639,9812;0,0155785
3640,9456;0,0155738
3641,9097;0,0156622
3642,8740;0,0158695
3643,8381;0,0161712
3644,8025;0,0164635
3645,7666;0,0165455
3646,7310;0,0161557
3647,6951;0,0151706
3648,6594;0,0139124
3649,6235;0,0130112
3650,5879;0,012759
3651,5520;0,0129722
3652,5164;0,0133498
3653,4805;0,0136641
3654,4448;0,0137769
3655,4089;0,0136523
3656,3733;0,0133776
3657,3374;0,0131116
3658,3018;0,0129668
3659,2659;0,0129468
3660,2302;0,0129882
3661,1943;0,0130356
3662,1587;0,013087
3663,1228;0,0131869
3664,0872;0,0133762
3665,0513;0,013636
3666,0156;0,0138689
3666,9797;0,0139303
3667,9441;0,0137221
3668,9082;0,0133157
3669,8726;0,0129513
3670,8367;0,0128263
3671,8010;0,0129135
3672,7651;0,0130001
3673,7295;0,0128401
3674,6936;0,0123313
3675,6580;0,0116468
3676,6221;0,0111125
3677,5864;0,0109011
3678,5505;0,0109565
3679,5149;0,0111462
3680,4790;0,0113791
3681,4434;0,0116309
3682,4075;0,0119232
3683,3718;0,0122806
3684,3359;0,012685
3685,3003;0,0130441
3686,2644;0,0131934
3687,2288;0,012958
3688,1929;0,0123056
3689,1572;0,0114785
3690,1213;0,0108536
3691,0857;0,010623
3692,0498;0,0107239
3693,0142;0,0110047
3693,9783;0,0113481
3694,9426;0,0116929
3695,9067;0,0120118
3696,8711;0,0122817
3697,8352;0,0124627
3698,7996;0,0125
3699,7637;0,012356
3700,7280;0,0120599
3701,6921;0,0117292
3702,6565;0,0115161
3703,6206;0,011516
3704,5850;0,0117251
3705,5491;0,0120639
3706,5134;0,0124118
3707,4775;0,0126243
3708,4419;0,0125598
3709,4060;0,0121549
3710,3704;0,0115316
3711,3345;0,0109764
3712,2988;0,010717
3713,2629;0,010771
3714,2273;0,0110269
3715,1914;0,0113665
3716,1558;0,0117039
3717,1199;0,0119824
3718,0842;0,0121713
3719,0483;0,0122696
3720,0127;0,012299
3720,9768;0,012282
3721,9412;0,0122198
3722,9053;0,0120979
3723,8696;0,0119186
3724,8337;0,0117285
3725,7981;0,0116077
3726,7622;0,0116251
3727,7266;0,0118033
3728,6907;0,0121157
3729,6550;0,012501
3730,6191;0,0128702
3731,5835;0,0131079
3732,5476;0,0130843
3733,5120;0,0127163
3734,4761;0,0120721
3735,4404;0,0113985
3736,4045;0,0109658
3737,3689;0,0108998
3738,3330;0,0111795
3739,2974;0,011707
3740,2615;0,0123376
3741,2258;0,0128772
3742,1899;0,0131108
3743,1543;0,0129298
3744,1184;0,0124918
3745,0828;0,0121432
3746,0469;0,01209
3747,0112;0,0122467
3747,9753;0,0123521
3748,9397;0,0121366
3749,9038;0,01152
3750,8682;0,0107691
3751,8323;0,0103022
3752,7966;0,0102847
3753,7607;0,0105865
3754,7251;0,0109942
3755,6892;0,0113274
3756,6536;0,0114696
3757,6177;0,011402
3758,5820;0,0112234
3759,5461;0,0110895
3760,5105;0,0110993
3761,4746;0,0112468
3762,4390;0,0114601
3763,4031;0,011658
3764,3674;0,0117835
3765,3315;0,0118135
3766,2959;0,0117506
3767,2600;0,0116083
3768,2244;0,011405
3769,1885;0,0111767
3770,1528;0,0109879
3771,1169;0,0109131
3772,0813;0,010996
3773,0454;0,0112243
3774,0098;0,0115345
3774,9739;0,0118304
3775,9382;0,0120102
3776,9023;0,0120061
3777,8667;0,011831
3778,8308;0,0115848
3779,7952;0,0113878
3780,7593;0,0112964
3781,7236;0,0112871
3782,6877;0,0113017
3783,6521;0,0112957
3784,6162;0,0112606
3785,5806;0,0112184
3786,5447;0,0112009
3787,5090;0,0112323
3788,4731;0,0113229
3789,4375;0,0114702
3790,4016;0,0116569
3791,3660;0,0118482
3792,3301;0,0119986
3793,2944;0,0120732
3794,2585;0,0120749
3795,2229;0,0120522
3796,1870;0,0120637
3797,1514;0,01212
3798,1155;0,0121541
3799,0798;0,0120594
3800,0439;0,0117893
3801,0083;0,0114383
3801,9724;0,0111875
3802,9368;0,0111394
3803,9009;0,0112383
3804,8652;0,0113374
3805,8293;0,0113148
3806,7937;0,0111686
3807,7578;0,0110293
3808,7222;0,0110546
3809,6863;0,0113066
3810,6506;0,0117291
3811,6147;0,0121926
3812,5791;0,0125423
3813,5432;0,0126577
3814,5076;0,012532
3815,4717;0,0122989
3816,4360;0,012122
3817,4001;0,0120421
3818,3645;0,01196
3819,3286;0,0117549
3820,2930;0,0114201
3821,2571;0,0110913
3822,2214;0,0109219
3823,1855;0,0109545
3824,1499;0,0111291
3825,1140;0,0113591
3826,0784;0,0115783
3827,0425;0,0117532
3828,0068;0,0118784
3828,9709;0,0119648
3829,9353;0,012029
3830,8994;0,0120896
3831,8638;0,0121663
3832,8279;0,0122701
3833,7922;0,0123854
3834,7563;0,0124592
3835,7207;0,0124168
3836,6848;0,0122132
3837,6492;0,0118877
3838,6133;0,0115578
3839,5776;0,0113333
3840,5417;0,0112395
3841,5061;0,0112293
3842,4702;0,0112452
3843,4346;0,0112677
3844,3987;0,0113276
3845,3630;0,0114871
3846,3271;0,0118054
3847,2915;0,0123089
3848,2556;0,0129683
3849,2200;0,0136716
3850,1841;0,0141895
3851,1484;0,0141887
3852,1125;0,0134402
3853,0769;0,0122077
3854,0410;0,0111634
3855,0054;0,0106897
3855,9695;0,0107106
3856,9338;0,011032
3857,8979;0,0115036
3858,8623;0,0120041
3859,8264;0,0124125
3860,7908;0,0126215
3861,7549;0,012591
3862,7192;0,0123994
3863,6833;0,0122141
3864,6477;0,0121734
3865,6118;0,0122974
3866,5762;0,0124985
3867,5403;0,0126447
3868,5046;0,0126236
3869,4688;0,0123972
3870,4331;0,0120301
3871,3972;0,0116599
3872,3616;0,0114215
3873,3257;0,0113857
3874,2900;0,011549
3875,2542;0,011853
3876,2185;0,0122069
3877,1826;0,0125086
3878,1470;0,0126751
3879,1111;0,0126806
3880,0754;0,0125737
3881,0396;0,0124397
3882,0039;0,0123308
3882,9680;0,0122387
3883,9324;0,0121372
3884,8965;0,0120406
3885,8608;0,0120074
3886,8250;0,012082
3887,7893;0,0122372
3888,7534;0,0123739
3889,7178;0,0123761
3890,6819;0,0121994
3891,6462;0,0119355
3892,6104;0,0117644
3893,5747;0,0118153
3894,5388;0,0120908
3895,5032;0,0125002
3896,4673;0,0129218
3897,4316;0,0132473
3898,3958;0,0134138
3899,3601;0,0134134
3900,3242;0,0132654
3901,2886;0,0129792
3902,2527;0,0125646
3903,2170;0,0120807
3904,1812;0,0116433
3905,1455;0,0113622
3906,1096;0,0112769
3907,0740;0,011354
3908,0381;0,0115267
3909,0024;0,0117331
3909,9666;0,0119384
3910,9309;0,0121372
3911,8950;0,0123375
3912,8594;0,0125354
3913,8235;0,0126987
3914,7878;0,0127749
3915,7520;0,0127252
3916,7163;0,0125648
3917,6804;0,0123687
3918,6448;0,0122246
3919,6089;0,0121739
3920,5732;0,0121934
3921,5374;0,0122231
3922,5017;0,0122107
3923,4658;0,0121483
3924,4302;0,0120806
3925,3943;0,0120708
3926,3586;0,0121507
3927,3228;0,0122965
3928,2871;0,0124418
3929,2512;0,0125107
3930,2156;0,0124574
3931,1797;0,0122952
3932,1440;0,0120921
3933,1082;0,0119288
3934,0725;0,0118569
3935,0366;0,011888
3936,0010;0,0120055
3936,9651;0,012177
3937,9294;0,0123603
3938,8936;0,0125091
3939,8579;0,0125849
3940,8220;0,0125762
3941,7864;0,0125097
3942,7505;0,012439
3943,7148;0,0124094
3944,6790;0,0124289
3945,6433;0,0124654
3946,6074;0,0124709
3947,5718;0,0124143
3948,5359;0,0123045
3949,5002;0,0121863
3950,4644;0,0121086
3951,4287;0,012092
3952,3928;0,0121225
3953,3572;0,0121693
3954,3213;0,0122081
3955,2856;0,0122328
3956,2498;0,0122521
3957,2141;0,0122743
3958,1782;0,0122966
3959,1426;0,0123057
3960,1067;0,0122894
3961,0710;0,0122495
3962,0352;0,0122036
3962,9995;0,0121744
3963,9636;0,0121754
3964,9280;0,0122032
3965,8921;0,0122419
3966,8564;0,0122744
3967,8206;0,0122924
3968,7849;0,0122988
3969,7490;0,0123029
3970,7134;0,012311
3971,6775;0,0123216
3972,6418;0,0123272
3973,6060;0,0123205
3974,5703;0,0123014
3975,5344;0,0122768
3976,4988;0,0122564
3977,4629;0,0122458
3978,4272;0,0122431
3979,3914;0,0122412
3980,3557;0,0122339
3981,3198;0,0122201
3982,2842;0,0122053
3983,2483;0,0121978
3984,2126;0,0122036
3985,1768;0,0122229
3986,1411;0,0122509
3987,1052;0,0122807
3988,0696;0,0123069
3989,0337;0,0123265
3989,9980;0,0123376
3990,9622;0,0123379
3991,9265;0,0123246
3992,8906;0,012297
3993,8550;0,0122595
3994,8191;0,0122221
3995,7834;0,0121967
3996,7476;0,0121912
3997,7119;0,0122056
3998,6760;0,0122325
3999,6404;0,0122624
4000,6045;0,0121357

##### Extended Information
[Comments]
Sample name
Comment
Username
Division
Organization;UNIVERSIDAD INDUSTRIAL DE SANTANDER

[Detailed Information]
Creation date;26/02/2025 6:45 p.m.

Data array type;Linear data array
Horizontal axis;Wavenumber [cm-1]
Vertical axis;Abs
Start;399,193 cm-1
End;4000,6 cm-1
Data interval;0,964233 cm-1
Data points;3736    

[Measurement Information]
Model name;FT/IR-4X1typeA
Serial No.;A035162111

Accessory;ATR PRO 4X
Accessory S/N;A021162126
Incident angle;45 deg

Measurement date;26/02/2025 6:44 p.m.

Light source;Standard
Detector;TGS
Accumulation;40
Resolution;4 cm-1
Zero filling;On
Apodization;Cosine
Gain;Auto (8)
Aperture;Auto (7 mm)
Scan speed;Auto (2 mm/sec)
Filter;Auto (12800 Hz)

