TITLE;
DATA TYPE;INFRARED SPECTRUM
ORIGIN;JASCO
OWNER;
DATE;25/02/26
TIME;18:00:56
SPECTROMETER/DATA SYSTEM;
LOCALE;9226
RESOLUTION;
DELTAX;0,964233
XUNITS;1/CM
YUNITS;ABSORBANCE
FIRSTX;  399,1927
LASTX; 4000,6047
NPOINTS;    3736
FIRSTY;     0,18163
MAXY;     0,24476
MINY;     0,01149
XYDATA
399,1927;0,181626
400,1569;0,182003
401,1211;0,181878
402,0854;0,1815
403,0496;0,181263
404,0138;0,181481
404,9781;0,182237
405,9423;0,183325
406,9065;0,18434
407,8708;0,184919
408,8350;0,184984
409,7992;0,184796
410,7635;0,184794
411,7277;0,185303
412,6919;0,186317
413,6562;0,18754
414,6204;0,188605
415,5846;0,18927
416,5489;0,189496
417,5131;0,189473
418,4773;0,189569
419,4416;0,190077
420,4058;0,19096
421,3700;0,191988
422,3343;0,193043
423,2985;0,194156
424,2627;0,195372
425,2270;0,196635
426,1912;0,197772
427,1554;0,19858
428,1197;0,198955
429,0839;0,198943
430,0481;0,198709
431,0124;0,198449
431,9766;0,198302
432,9408;0,198311
433,9051;0,198444
434,8693;0,198634
435,8335;0,19882
436,7978;0,198952
437,7620;0,198982
438,7262;0,198869
439,6905;0,198597
440,6547;0,198202
441,6189;0,19777
442,5832;0,197412
443,5474;0,197201
444,5116;0,197119
445,4759;0,197053
446,4401;0,196859
447,4043;0,196435
448,3686;0,195782
449,3328;0,195026
450,2970;0,194395
451,2613;0,194128
452,2255;0,194362
453,1897;0,195031
454,1540;0,195879
455,1182;0,196539
456,0824;0,196682
457,0467;0,196178
458,0109;0,195208
458,9751;0,194171
459,9394;0,193412
460,9036;0,193013
461,8678;0,19283
462,8321;0,192665
463,7963;0,192393
464,7605;0,192032
465,7248;0,191711
466,6890;0,191589
467,6532;0,191746
468,6175;0,192144
469,5817;0,192638
470,5459;0,193056
471,5102;0,193272
472,4744;0,193282
473,4386;0,193197
474,4029;0,193157
475,3671;0,19323
476,3313;0,193388
477,2956;0,193552
478,2598;0,193654
479,2240;0,193679
480,1883;0,193673
481,1525;0,19371
482,1167;0,193858
483,0810;0,194142
484,0452;0,194537
485,0094;0,194984
485,9737;0,195419
486,9379;0,195796
487,9021;0,196095
488,8664;0,19631
489,8306;0,196433
490,7948;0,196456
491,7591;0,196376
492,7233;0,196214
493,6875;0,196022
494,6518;0,195869
495,6160;0,195816
496,5802;0,195887
497,5445;0,196063
498,5087;0,196294
499,4729;0,196523
500,4372;0,196711
501,4014;0,196848
502,3656;0,196944
503,3299;0,197008
504,2941;0,197025
505,2583;0,196972
506,2226;0,196841
507,1868;0,196683
508,1510;0,196609
509,1153;0,196765
510,0795;0,197255
511,0437;0,198083
512,0080;0,199128
512,9722;0,200175
513,9365;0,201001
514,9007;0,201451
515,8649;0,201515
516,8292;0,201337
517,7934;0,201143
518,7576;0,201107
519,7219;0,201249
520,6861;0,201448
521,6503;0,201552
522,6146;0,201487
523,5788;0,20129
524,5430;0,201071
525,5073;0,200935
526,4715;0,200894
527,4357;0,200853
528,4000;0,200677
529,3642;0,200296
530,3284;0,199754
531,2927;0,199178
532,2569;0,198708
533,2211;0,198415
534,1854;0,19827
535,1496;0,198168
536,1138;0,198008
537,0781;0,197754
538,0423;0,19745
539,0065;0,197182
539,9708;0,197023
540,9350;0,197001
541,8992;0,197104
542,8635;0,197307
543,8277;0,197594
544,7919;0,197963
545,7562;0,19841
546,7204;0,198923
547,6846;0,199469
548,6489;0,20001
549,6131;0,20051
550,5773;0,20094
551,5416;0,20129
552,5058;0,201583
553,4700;0,20187
554,4343;0,202211
555,3985;0,202625
556,3627;0,203041
557,3270;0,203291
558,2912;0,203172
559,2554;0,202547
560,2197;0,201428
561,1839;0,199982
562,1481;0,198461
563,1124;0,197075
564,0766;0,195917
565,0408;0,194964
566,0051;0,194136
566,9693;0,19338
567,9335;0,192698
568,8978;0,192119
569,8620;0,19165
570,8262;0,19125
571,7905;0,190863
572,7547;0,190455
573,7189;0,190038
574,6832;0,189657
575,6474;0,189343
576,6116;0,189081
577,5759;0,188827
578,5401;0,188537
579,5043;0,188214
580,4686;0,187905
581,4328;0,187674
582,3970;0,187556
583,3613;0,187543
584,3255;0,187588
585,2897;0,18764
586,2540;0,187664
587,2182;0,187646
588,1824;0,187578
589,1467;0,187453
590,1109;0,187261
591,0751;0,187006
592,0394;0,186711
593,0036;0,186409
593,9678;0,186127
594,9321;0,185865
595,8963;0,185599
596,8605;0,185299
597,8248;0,184948
598,7890;0,184543
599,7532;0,184093
600,7175;0,183606
601,6817;0,183082
602,6459;0,182522
603,6102;0,181941
604,5744;0,181365
605,5386;0,180823
606,5029;0,180323
607,4671;0,179838
608,4313;0,179322
609,3956;0,178734
610,3598;0,178071
611,3240;0,17737
612,2883;0,176685
613,2525;0,17605
614,2167;0,175447
615,1810;0,174805
616,1452;0,174025
617,1094;0,173036
618,0737;0,171837
619,0379;0,170503
620,0021;0,169144
620,9664;0,167852
621,9306;0,166672
622,8948;0,165602
623,8591;0,164617
624,8233;0,163708
625,7875;0,162851
626,7518;0,162054
627,7160;0,161323
628,6802;0,160647
629,6445;0,159999
630,6087;0,159346
631,5729;0,15867
632,5372;0,157971
633,5014;0,157267
634,4656;0,156583
635,4299;0,155935
636,3941;0,155331
637,3583;0,154774
638,3226;0,154265
639,2868;0,153803
640,2510;0,153383
641,2153;0,152989
642,1795;0,152599
643,1437;0,152188
644,1080;0,15174
645,0722;0,151251
646,0364;0,150731
647,0007;0,1502
647,9649;0,149685
648,9291;0,14922
649,8934;0,148837
650,8576;0,148559
651,8218;0,148394
652,7861;0,148333
653,7503;0,148359
654,7145;0,148455
655,6788;0,148614
656,6430;0,148835
657,6072;0,149103
658,5715;0,149379
659,5357;0,149596
660,4999;0,149685
661,4642;0,14963
662,4284;0,149491
663,3926;0,14937
664,3569;0,149336
665,3211;0,149336
666,2853;0,149139
667,2496;0,148389
668,2138;0,146933
669,1780;0,145132
670,1423;0,143455
671,1065;0,142011
672,0707;0,140691
673,0350;0,139359
673,9992;0,137913
674,9634;0,136319
675,9277;0,134624
676,8919;0,132922
677,8561;0,131285
678,8204;0,129745
679,7846;0,128321
680,7488;0,127059
681,7131;0,126021
682,6773;0,125242
683,6415;0,124695
684,6058;0,124309
685,5700;0,123998
686,5342;0,123697
687,4985;0,123374
688,4627;0,123023
689,4269;0,122655
690,3912;0,122279
691,3554;0,121899
692,3196;0,12151
693,2839;0,121101
694,2481;0,12067
695,2123;0,120218
696,1766;0,119761
697,1408;0,119318
698,1050;0,118905
699,0693;0,118531
700,0335;0,118195
700,9977;0,117887
701,9620;0,117588
702,9262;0,117273
703,8904;0,11692
704,8547;0,116509
705,8189;0,116037
706,7831;0,115514
707,7474;0,114958
708,7116;0,114385
709,6758;0,113799
710,6401;0,113195
711,6043;0,112567
712,5685;0,111915
713,5328;0,111253
714,4970;0,110599
715,4612;0,110179
716,4255;0,109515
717,3897;0,108823
718,3539;0,108079
719,3182;0,107273
720,2824;0,106415
721,2466;0,105533
722,2109;0,104656
723,1751;0,103798
724,1393;0,10296
725,1036;0,102138
726,0678;0,101333
727,0320;0,100558
727,9963;0,0998306
728,9605;0,099161
729,9247;0,0985443
730,8890;0,0979627
731,8532;0,0973964
732,8174;0,0968361
733,7817;0,0962874
734,7459;0,0957646
735,7101;0,0952797
736,6744;0,0948327
737,6386;0,0944091
738,6028;0,0939877
739,5671;0,0935507
740,5313;0,093093
741,4955;0,0926237
742,4598;0,09216
743,4240;0,0917182
744,3882;0,0913057
745,3525;0,0909195
746,3167;0,0905491
747,2809;0,0901817
748,2452;0,0898058
749,2094;0,0894109
750,1736;0,0889869
751,1379;0,0885239
752,1021;0,088016
753,0663;0,0874657
754,0306;0,0868871
754,9948;0,0863036
755,9590;0,0857423
756,9233;0,0852255
757,8875;0,0847644
758,8517;0,0843567
759,8160;0,0839886
760,7802;0,0836409
761,7444;0,0832949
762,7087;0,0829385
763,6729;0,0825689
764,6371;0,0821921
765,6014;0,0818182
766,5656;0,0814558
767,5298;0,0811059
768,4941;0,0807608
769,4583;0,0804081
770,4225;0,0800373
771,3868;0,0796459
772,3510;0,0792405
773,3152;0,0788326
774,2795;0,0784327
775,2437;0,0780465
776,2079;0,0776768
777,1722;0,0773275
778,1364;0,0770062
779,1006;0,0767199
780,0649;0,0764675
781,0291;0,0762335
781,9933;0,075991
782,9576;0,0757134
783,9218;0,0753897
784,8860;0,0750326
785,8503;0,0746741
786,8145;0,0743504
787,7787;0,0740832
788,7430;0,0738702
789,7072;0,0736881
790,6714;0,0735069
791,6357;0,0733055
792,5999;0,0730822
793,5641;0,0728518
794,5284;0,0726356
795,4926;0,0724474
796,4568;0,0722863
797,4211;0,0721362
798,3853;0,071975
799,3495;0,0717849
800,3138;0,07156
801,2780;0,0713078
802,2422;0,0710455
803,2065;0,0707931
804,1707;0,0705677
805,1349;0,0703799
806,0992;0,0702322
807,0634;0,070119
808,0276;0,070029
808,9919;0,0699487
809,9561;0,069868
810,9203;0,0697845
811,8846;0,0697032
812,8488;0,0696324
813,8130;0,069576
814,7773;0,0695286
815,7415;0,0694765
816,7057;0,0694042
817,6700;0,0693038
818,6342;0,0691808
819,5984;0,069053
820,5627;0,0689444
821,5269;0,0688761
822,4911;0,0688593
823,4554;0,0688915
824,4196;0,0689577
825,3839;0,0690337
826,3481;0,0690933
827,3123;0,0691156
828,2766;0,0690904
829,2408;0,06902
830,2050;0,0689144
831,1693;0,0687847
832,1335;0,0686371
833,0977;0,0684717
834,0620;0,0682856
835,0262;0,0680779
835,9904;0,0678524
836,9547;0,0676174
837,9189;0,0673819
838,8831;0,0671527
839,8474;0,0669329
840,8116;0,0667218
841,7758;0,0665174
842,7401;0,0663171
843,7043;0,0661193
844,6685;0,0659238
845,6328;0,0657327
846,5970;0,0655503
847,5612;0,0653829
848,5255;0,0652375
849,4897;0,0651211
850,4539;0,0650377
851,4182;0,064986
852,3824;0,0649574
853,3466;0,0649379
854,3109;0,0649113
855,2751;0,0648665
856,2393;0,0648017
857,2036;0,0647256
858,1678;0,0646528
859,1320;0,0645971
860,0963;0,0645661
861,0605;0,0645602
862,0247;0,0645757
862,9890;0,0646109
863,9532;0,0646696
864,9174;0,0647604
865,8817;0,0648916
866,8459;0,065064
867,8101;0,0652669
868,7744;0,0654795
869,7386;0,0656785
870,7028;0,065847
871,6671;0,0659803
872,6313;0,0660865
873,5955;0,0661806
874,5598;0,0662778
875,5240;0,0663906
876,4882;0,0665286
877,4525;0,0667013
878,4167;0,0669198
879,3809;0,0671945
880,3452;0,0675327
881,3094;0,0679368
882,2736;0,0684063
883,2379;0,0689411
884,2021;0,0695437
885,1663;0,0702189
886,1306;0,0709709
887,0948;0,0718
888,0590;0,0727004
889,0233;0,0736594
889,9875;0,0746561
890,9517;0,0756602
891,9160;0,0766322
892,8802;0,0775284
893,8444;0,0783077
894,8087;0,0789405
895,7729;0,0794125
896,7371;0,0797215
897,7014;0,079871
898,6656;0,0798626
899,6298;0,0796958
900,5941;0,0793732
901,5583;0,0789094
902,5225;0,0783358
903,4868;0,0776977
904,4510;0,0770448
905,4152;0,0764195
906,3795;0,0758493
907,3437;0,0753473
908,3079;0,0749184
909,2722;0,0745679
910,2364;0,0743054
911,2007;0,0741435
912,1649;0,0740909
913,1292;0,0741462
914,0934;0,0742957
915,0576;0,0745179
916,0219;0,0747909
916,9861;0,0751003
917,9503;0,0754411
918,9146;0,0758144
919,8788;0,076221
920,8430;0,0766553
921,8073;0,0771037
922,7715;0,0775466
923,7357;0,0779624
924,7000;0,0783319
925,6642;0,0786418
926,6284;0,0788874
927,5927;0,0790748
928,5569;0,0792212
929,5211;0,0793505
930,4854;0,0794858
931,4496;0,0796411
932,4138;0,0798192
933,3781;0,080015
934,3423;0,0802258
935,3065;0,0804576
936,2708;0,0807266
937,2350;0,0810533
938,1992;0,0814548
939,1635;0,0819404
940,1277;0,0825126
941,0919;0,0831697
942,0562;0,0839068
943,0204;0,0847142
943,9846;0,0855771
944,9489;0,0864808
945,9131;0,0874191
946,8773;0,0884023
947,8416;0,0894556
948,8058;0,0906085
949,7700;0,0918802
950,7343;0,0932706
951,6985;0,0947628
952,6627;0,0963349
953,6270;0,0979727
954,5912;0,0996752
955,5554;0,101451
956,5197;0,103307
957,4839;0,105242
958,4481;0,107245
959,4124;0,109293
960,3766;0,111366
961,3408;0,113448
962,3051;0,11553
963,2693;0,117615
964,2335;0,119708
965,1978;0,121822
966,1620;0,12397
967,1262;0,126167
968,0905;0,128428
969,0547;0,130772
970,0189;0,133222
970,9832;0,135805
971,9474;0,138554
972,9116;0,141503
973,8759;0,14468
974,8401;0,148105
975,8043;0,151783
976,7686;0,155696
977,7328;0,159805
978,6970;0,164046
979,6613;0,16833
980,6255;0,172553
981,5897;0,176602
982,5540;0,180374
983,5182;0,183785
984,4824;0,18679
985,4467;0,189381
986,4109;0,191589
987,3751;0,193469
988,3394;0,195087
989,3036;0,196499
990,2678;0,197739
991,2321;0,198818
992,1963;0,199733
993,1605;0,200481
994,1248;0,201074
995,0890;0,201543
996,0532;0,201927
997,0175;0,202263
997,9817;0,202572
998,9459;0,20287
999,9102;0,203172
1000,8744;0,203511
1001,8386;0,203933
1002,8029;0,20449
1003,7671;0,205223
1004,7313;0,206158
1005,6956;0,20731
1006,6598;0,208687
1007,6240;0,210295
1008,5883;0,212134
1009,5525;0,214184
1010,5167;0,216401
1011,4810;0,218725
1012,4452;0,22109
1013,4094;0,223439
1014,3737;0,225732
1015,3379;0,227943
1016,3021;0,230048
1017,2664;0,232023
1018,2306;0,233845
1019,1948;0,235493
1020,1591;0,236961
1021,1233;0,238258
1022,0875;0,239406
1023,0518;0,24043
1024,0160;0,241354
1024,9802;0,242193
1025,9445;0,242949
1026,9087;0,243612
1027,8729;0,244161
1028,8372;0,24456
1029,8014;0,244756
1030,7656;0,244676
1031,7299;0,244237
1032,6941;0,243367
1033,6583;0,242031
1034,6226;0,240266
1035,5868;0,238181
1036,5510;0,235942
1037,5153;0,233737
1038,4795;0,231729
1039,4437;0,230028
1040,4080;0,228687
1041,3722;0,227704
1042,3364;0,227041
1043,3007;0,226634
1044,2649;0,2264
1045,2291;0,226244
1046,1934;0,226067
1047,1576;0,225785
1048,1218;0,225334
1049,0861;0,224679
1050,0503;0,2238
1051,0145;0,222686
1051,9788;0,221331
1052,9430;0,219737
1053,9072;0,21792
1054,8715;0,215904
1055,8357;0,213705
1056,7999;0,211314
1057,7642;0,208691
1058,7284;0,205782
1059,6926;0,202553
1060,6569;0,199028
1061,6211;0,195301
1062,5853;0,19152
1063,5496;0,187844
1064,5138;0,1844
1065,4780;0,181251
1066,4423;0,1784
1067,4065;0,175805
1068,3707;0,173413
1069,3350;0,171171
1070,2992;0,169035
1071,2634;0,166965
1072,2277;0,164911
1073,1919;0,162819
1074,1561;0,160641
1075,1204;0,158351
1076,0846;0,155952
1077,0488;0,153483
1078,0131;0,151009
1078,9773;0,148598
1079,9415;0,146316
1080,9058;0,144208
1081,8700;0,142304
1082,8342;0,140614
1083,7985;0,139141
1084,7627;0,137879
1085,7269;0,136816
1086,6912;0,135935
1087,6554;0,13521
1088,6196;0,134614
1089,5839;0,134125
1090,5481;0,133733
1091,5123;0,133443
1092,4766;0,133268
1093,4408;0,133217
1094,4050;0,13328
1095,3693;0,133433
1096,3335;0,133642
1097,2977;0,133876
1098,2620;0,134117
1099,2262;0,134356
1100,1904;0,13458
1101,1547;0,134765
1102,1189;0,134875
1103,0831;0,134875
1104,0474;0,134746
1105,0116;0,134496
1105,9758;0,134151
1106,9401;0,133744
1107,9043;0,133289
1108,8685;0,132775
1109,8328;0,132161
1110,7970;0,131391
1111,7612;0,130411
1112,7255;0,1292
1113,6897;0,127782
1114,6539;0,126229
1115,6182;0,124641
1116,5824;0,123119
1117,5466;0,121729
1118,5109;0,120491
1119,4751;0,11937
1120,4393;0,118299
1121,4036;0,117192
1122,3678;0,115967
1123,3320;0,114557
1124,2963;0,112924
1125,2605;0,111065
1126,2247;0,10901
1127,1890;0,106813
1128,1532;0,104538
1129,1174;0,102238
1130,0817;0,0999466
1131,0459;0,0976792
1132,0101;0,0954476
1132,9744;0,093276
1133,9386;0,0912084
1134,9028;0,0893039
1135,8671;0,0876211
1136,8313;0,0862035
1137,7955;0,0850706
1138,7598;0,084219
1139,7240;0,0836299
1140,6882;0,0832758
1141,6525;0,0831248
1142,6167;0,0831428
1143,5809;0,0832961
1144,5452;0,0835562
1145,5094;0,0839055
1146,4736;0,0843391
1147,4379;0,0848603
1148,4021;0,0854711
1149,3663;0,0861633
1150,3306;0,0869139
1151,2948;0,0876869
1152,2590;0,0884399
1153,2233;0,0891297
1154,1875;0,0897136
1155,1517;0,0901484
1156,1160;0,0903877
1157,0802;0,0903817
1158,0444;0,0900796
1159,0087;0,0894323
1159,9729;0,0883959
1160,9371;0,086936
1161,9014;0,0850356
1162,8656;0,0827057
1163,8298;0,0799939
1164,7941;0,0769863
1165,7583;0,073799
1166,7225;0,0705598
1167,6868;0,0673879
1168,6510;0,0643776
1169,6152;0,0615914
1170,5795;0,0590627
1171,5437;0,0568039
1172,5079;0,0548141
1173,4722;0,0530843
1174,4364;0,0515989
1175,4006;0,0503351
1176,3649;0,0492651
1177,3291;0,048359
1178,2933;0,0475896
1179,2576;0,0469352
1180,2218;0,0463811
1181,1860;0,0459182
1182,1503;0,0455406
1183,1145;0,0452439
1184,0787;0,045025
1185,0430;0,0448817
1186,0072;0,0448133
1186,9714;0,0448208
1187,9357;0,0449062
1188,8999;0,0450725
1189,8641;0,0453234
1190,8284;0,0456625
1191,7926;0,0460913
1192,7568;0,0466075
1193,7211;0,0472034
1194,6853;0,0478659
1195,6495;0,0485788
1196,6138;0,049325
1197,5780;0,0500891
1198,5422;0,0508578
1199,5065;0,0516173
1200,4707;0,0523607
1201,4349;0,0530753
1202,3992;0,0537522
1203,3634;0,0543848
1204,3276;0,05497
1205,2919;0,05551
1206,2561;0,0560129
1207,2203;0,0564947
1208,1846;0,0569788
1209,1488;0,0574933
1210,1130;0,058066
1211,0773;0,0587174
1212,0415;0,0594571
1213,0057;0,0602821
1213,9700;0,0611803
1214,9342;0,0621342
1215,8984;0,0631248
1216,8627;0,0641324
1217,8269;0,0651374
1218,7911;0,0661218
1219,7554;0,0670715
1220,7196;0,0679779
1221,6838;0,0688381
1222,6481;0,0696517
1223,6123;0,0704182
1224,5765;0,0711358
1225,5408;0,071803
1226,5050;0,0724206
1227,4692;0,0729929
1228,4335;0,0735253
1229,3977;0,0740203
1230,3619;0,0744743
1231,3262;0,0748776
1232,2904;0,0752178
1233,2546;0,075485
1234,2189;0,0756767
1235,1831;0,0757994
1236,1473;0,075867
1237,1116;0,0758961
1238,0758;0,0759016
1239,0400;0,0758923
1240,0043;0,0758695
1240,9685;0,0758276
1241,9327;0,0757563
1242,8970;0,0756447
1243,8612;0,075484
1244,8254;0,0752701
1245,7897;0,0750044
1246,7539;0,0746926
1247,7181;0,0743429
1248,6824;0,0739638
1249,6466;0,0735631
1250,6108;0,0731486
1251,5751;0,0727292
1252,5393;0,072315
1253,5035;0,0719153
1254,4678;0,0715346
1255,4320;0,0711697
1256,3962;0,0708091
1257,3605;0,0704378
1258,3247;0,0700422
1259,2889;0,0696148
1260,2532;0,0691543
1261,2174;0,0686618
1262,1816;0,0681371
1263,1459;0,067577
1264,1101;0,0669775
1265,0743;0,0663376
1266,0386;0,0656608
1267,0028;0,0649538
1267,9670;0,0642235
1268,9313;0,0634751
1269,8955;0,0627122
1270,8597;0,0619381
1271,8240;0,0611564
1272,7882;0,0603709
1273,7524;0,0595858
1274,7167;0,0588068
1275,6809;0,0580422
1276,6451;0,0573031
1277,6094;0,0565992
1278,5736;0,0559337
1279,5378;0,0552996
1280,5021;0,0546818
1281,4663;0,0540655
1282,4305;0,0534443
1283,3948;0,0528259
1284,3590;0,0522292
1285,3232;0,0516774
1286,2875;0,0511896
1287,2517;0,050776
1288,2159;0,0504378
1289,1802;0,0501711
1290,1444;0,0499708
1291,1086;0,0498343
1292,0729;0,0497616
1293,0371;0,0497543
1294,0013;0,0498138
1294,9656;0,0499395
1295,9298;0,0501292
1296,8940;0,0503792
1297,8583;0,0506866
1298,8225;0,0510496
1299,7867;0,0514673
1300,7510;0,0519375
1301,7152;0,0524568
1302,6794;0,0530208
1303,6437;0,0536267
1304,6079;0,0542739
1305,5721;0,0549627
1306,5364;0,0556903
1307,5006;0,0564477
1308,4648;0,0572194
1309,4291;0,0579866
1310,3933;0,0587309
1311,3575;0,0594365
1312,3218;0,0600898
1313,2860;0,0606781
1314,2502;0,0611868
1315,2145;0,0615987
1316,1787;0,0618951
1317,1429;0,0620614
1318,1072;0,062096
1319,0714;0,0620168
1320,0356;0,0618599
1320,9999;0,0616671
1321,9641;0,0614719
1322,9283;0,0612924
1323,8926;0,0611337
1324,8568;0,0609953
1325,8210;0,0608763
1326,7853;0,0607764
1327,7495;0,0606932
1328,7137;0,0606179
1329,6780;0,0605353
1330,6422;0,060426
1331,6064;0,0602729
1332,5707;0,0600644
1333,5349;0,0597952
1334,4991;0,0594606
1335,4634;0,0590511
1336,4276;0,0585529
1337,3918;0,0579588
1338,3561;0,0572864
1339,3203;0,0565882
1340,2845;0,0559342
1341,2488;0,0553747
1342,2130;0,0549207
1343,1772;0,0545528
1344,1415;0,0542451
1345,1057;0,0539814
1346,0699;0,053763
1347,0342;0,0536066
1347,9984;0,053536
1348,9626;0,0535701
1349,9269;0,0537126
1350,8911;0,0539493
1351,8553;0,0542542
1352,8196;0,0546016
1353,7838;0,0549764
1354,7480;0,0553781
1355,7123;0,0558136
1356,6765;0,0562861
1357,6407;0,0567884
1358,6050;0,0573053
1359,5692;0,0578197
1360,5334;0,0583178
1361,4977;0,0587908
1362,4619;0,059234
1363,4261;0,0596457
1364,3904;0,0600259
1365,3546;0,0603744
1366,3188;0,0606893
1367,2831;0,0609649
1368,2473;0,0611905
1369,2115;0,0613503
1370,1758;0,0614229
1371,1400;0,0613812
1372,1042;0,0611974
1373,0685;0,0608564
1374,0327;0,0603742
1374,9969;0,0598004
1375,9612;0,0591861
1376,9254;0,058545
1377,8896;0,0578474
1378,8539;0,0570521
1379,8181;0,0561477
1380,7823;0,0551727
1381,7466;0,0541956
1382,7108;0,0532681
1383,6750;0,0523911
1384,6393;0,0515217
1385,6035;0,0506172
1386,5677;0,0496904
1387,5320;0,0488265
1388,4962;0,0481258
1389,4604;0,0476259
1390,4247;0,0472907
1391,3889;0,047053
1392,3531;0,0468545
1393,3174;0,0466646
1394,2816;0,0464831
1395,2458;0,0463329
1396,2101;0,0462413
1397,1743;0,0462243
1398,1385;0,0462834
1399,1028;0,0464101
1400,0670;0,0465906
1401,0313;0,0468086
1401,9955;0,0470493
1402,9597;0,0473047
1403,9240;0,0475773
1404,8882;0,0478787
1405,8524;0,0482213
1406,8167;0,0486092
1407,7809;0,0490387
1408,7451;0,0495071
1409,7094;0,0500189
1410,6736;0,0505821
1411,6378;0,0511967
1412,6021;0,0518482
1413,5663;0,0525122
1414,5305;0,0531682
1415,4948;0,0538052
1416,4590;0,0544177
1417,4232;0,0549959
1418,3875;0,0555179
1419,3517;0,0559541
1420,3159;0,0562803
1421,2802;0,056481
1422,2444;0,0565454
1423,2086;0,0564703
1424,1729;0,0562677
1425,1371;0,0559615
1426,1013;0,0555651
1427,0656;0,0550615
1428,0298;0,0544126
1428,9940;0,0536056
1429,9583;0,0526986
1430,9225;0,0518056
1431,8867;0,0510156
1432,8510;0,0503278
1433,8152;0,0496573
1434,7794;0,0488975
1435,7437;0,0480143
1436,7079;0,047119
1437,6721;0,0464017
1438,6364;0,0459622
1439,6006;0,0457624
1440,5648;0,045715
1441,5291;0,0457583
1442,4933;0,04587
1443,4575;0,0460492
1444,4218;0,046295
1445,3860;0,046595
1446,3502;0,0469264
1447,3145;0,0472665
1448,2787;0,0476021
1449,2429;0,047931
1450,2072;0,0482552
1451,1714;0,0485734
1452,1356;0,0488749
1453,0999;0,049135
1454,0641;0,049305
1455,0283;0,049305
1455,9926;0,0490593
1456,9568;0,0486225
1457,9210;0,0482274
1458,8853;0,0480403
1459,8495;0,0480162
1460,8137;0,0480271
1461,7780;0,0479483
1462,7422;0,0476604
1463,7064;0,0470695
1464,6707;0,0461825
1465,6349;0,0451519
1466,5991;0,0441674
1467,5634;0,0433028
1468,5276;0,0424946
1469,4918;0,0416033
1470,4561;0,0404676
1471,4203;0,038973
1472,3845;0,037181
1473,3488;0,0353931
1474,3130;0,033932
1475,2772;0,0328719
1476,2415;0,0320921
1477,2057;0,0314588
1478,1699;0,030897
1479,1342;0,0303797
1480,0984;0,0299045
1481,0626;0,0294821
1482,0269;0,02913
1482,9911;0,0288637
1483,9553;0,0286866
1484,9196;0,0285851
1485,8838;0,0285327
1486,8480;0,0285037
1487,8123;0,0284938
1488,7765;0,0285358
1489,7407;0,0286769
1490,7050;0,0289287
1491,6692;0,0292628
1492,6334;0,0296489
1493,5977;0,0300764
1494,5619;0,0305518
1495,5261;0,0310914
1496,4904;0,03171
1497,4546;0,0324004
1498,4188;0,0331204
1499,3831;0,0338161
1500,3473;0,0344543
1501,3115;0,0350236
1502,2758;0,0355155
1503,2400;0,0359058
1504,2042;0,0361361
1505,1685;0,0360976
1506,1327;0,0356777
1507,0969;0,0349507
1508,0612;0,0342257
1509,0254;0,0336805
1509,9896;0,0332535
1510,9539;0,0328419
1511,9181;0,0323799
1512,8823;0,0318266
1513,8466;0,0311557
1514,8108;0,0303672
1515,7750;0,0295016
1516,7393;0,0286275
1517,7035;0,0277958
1518,6677;0,0270045
1519,6320;0,0262144
1520,5962;0,0254083
1521,5604;0,0246363
1522,5247;0,0239831
1523,4889;0,0234909
1524,4531;0,0231335
1525,4174;0,0228576
1526,3816;0,0226305
1527,3458;0,0224522
1528,3101;0,0223353
1529,2743;0,0222786
1530,2385;0,02226
1531,2028;0,0222475
1532,1670;0,0222226
1533,1312;0,0222011
1534,0955;0,0222241
1535,0597;0,0223187
1536,0239;0,0224739
1536,9882;0,0226487
1537,9524;0,022781
1538,9166;0,0227985
1539,8809;0,0226704
1540,8451;0,0225017
1541,8093;0,0224621
1542,7736;0,0225759
1543,7378;0,0227604
1544,7020;0,0229569
1545,6663;0,0231502
1546,6305;0,0233438
1547,5947;0,0235408
1548,5590;0,023739
1549,5232;0,0239347
1550,4874;0,0241309
1551,4517;0,0243411
1552,4159;0,0245814
1553,3801;0,0248562
1554,3444;0,0251495
1555,3086;0,0254212
1556,2728;0,0256054
1557,2371;0,0256299
1558,2013;0,0255189
1559,1655;0,0254711
1560,1298;0,0256282
1561,0940;0,0259319
1562,0582;0,0262957
1563,0225;0,0266809
1563,9867;0,02707
1564,9509;0,0274453
1565,9152;0,0277871
1566,8794;0,0280886
1567,8436;0,028374
1568,8079;0,0286959
1569,7721;0,029093
1570,7363;0,0295535
1571,7006;0,0300343
1572,6648;0,0305036
1573,6290;0,03096
1574,5933;0,0314316
1575,5575;0,0319617
1576,5217;0,0325717
1577,4860;0,0332325
1578,4502;0,0339012
1579,4144;0,03457
1580,3787;0,035261
1581,3429;0,0359974
1582,3071;0,0367854
1583,2714;0,0376127
1584,2356;0,03846
1585,1998;0,0393142
1586,1641;0,0401695
1587,1283;0,0410166
1588,0925;0,041832
1589,0568;0,0425805
1590,0210;0,0432259
1590,9852;0,0437404
1591,9495;0,0441054
1592,9137;0,0443095
1593,8779;0,044352
1594,8422;0,0442508
1595,8064;0,0440407
1596,7706;0,0437606
1597,7349;0,0434385
1598,6991;0,0430872
1599,6633;0,0427108
1600,6276;0,0423159
1601,5918;0,0419171
1602,5560;0,0415345
1603,5203;0,0411848
1604,4845;0,0408716
1605,4487;0,0405825
1606,4130;0,0402967
1607,3772;0,0399998
1608,3414;0,0397014
1609,3057;0,0394386
1610,2699;0,0392539
1611,2341;0,0391638
1612,1984;0,039145
1613,1626;0,0391437
1614,1268;0,0390943
1615,0911;0,0389529
1616,0553;0,038747
1617,0195;0,03858
1617,9838;0,0385375
1618,9480;0,038613
1619,9122;0,0387419
1620,8765;0,0388579
1621,8407;0,038919
1622,8049;0,038919
1623,7692;0,0388881
1624,7334;0,0388682
1625,6976;0,0388815
1626,6619;0,0389267
1627,6261;0,0389989
1628,5903;0,0391015
1629,5546;0,0392399
1630,5188;0,0394091
1631,4830;0,0395847
1632,4473;0,0397209
1633,4115;0,0397508
1634,3757;0,0396137
1635,3400;0,0393304
1636,3042;0,0390462
1637,2684;0,038898
1638,2327;0,0388888
1639,1969;0,0389538
1640,1611;0,0390444
1641,1254;0,0391397
1642,0896;0,0392258
1643,0538;0,0392743
1644,0181;0,0392321
1644,9823;0,0390456
1645,9465;0,0387341
1646,9108;0,0384356
1647,8750;0,0382933
1648,8392;0,0383185
1649,8035;0,0384099
1650,7677;0,0384142
1651,7319;0,0381543
1652,6962;0,0375578
1653,6604;0,0368817
1654,6246;0,0364854
1655,5889;0,0363868
1656,5531;0,0364185
1657,5173;0,0364583
1658,4816;0,0364392
1659,4458;0,0363112
1660,4100;0,0360377
1661,3743;0,0356289
1662,3385;0,0351716
1663,3027;0,0347837
1664,2670;0,0345225
1665,2312;0,0343543
1666,1954;0,0341895
1667,1597;0,0339233
1668,1239;0,0334817
1669,0881;0,0328877
1670,0524;0,0322789
1671,0166;0,0317948
1671,9808;0,0314537
1672,9451;0,0311706
1673,9093;0,0308519
1674,8735;0,0304668
1675,8378;0,0300676
1676,8020;0,0297421
1677,7662;0,0295388
1678,7305;0,0294398
1679,6947;0,0293819
1680,6589;0,029274
1681,6232;0,0290013
1682,5874;0,0284692
1683,5516;0,0277332
1684,5159;0,0270462
1685,4801;0,0266107
1686,4443;0,026403
1687,4086;0,0263062
1688,3728;0,0262405
1689,3370;0,0261815
1690,3013;0,0261366
1691,2655;0,026119
1692,2297;0,0261303
1693,1940;0,0261553
1694,1582;0,0261681
1695,1224;0,0261428
1696,0867;0,0260657
1697,0509;0,0259428
1698,0151;0,0258017
1698,9794;0,0256867
1699,9436;0,0256438
1700,9078;0,0256977
1701,8721;0,0258424
1702,8363;0,0260561
1703,8005;0,0263179
1704,7648;0,0266149
1705,7290;0,0269406
1706,6932;0,0272934
1707,6575;0,0276766
1708,6217;0,0280986
1709,5859;0,0285699
1710,5502;0,0290949
1711,5144;0,0296635
1712,4786;0,0302466
1713,4429;0,0307998
1714,4071;0,0312783
1715,3713;0,0316665
1716,3356;0,0320096
1717,2998;0,0323952
1718,2640;0,0328666
1719,2283;0,0333925
1720,1925;0,033928
1721,1567;0,0344515
1722,1210;0,0349553
1723,0852;0,0354318
1724,0494;0,035871
1725,0137;0,0362662
1725,9779;0,0366212
1726,9421;0,0369485
1727,9064;0,0372611
1728,8706;0,0375604
1729,8348;0,0378248
1730,7991;0,0380017
1731,7633;0,0380128
1732,7275;0,037804
1733,6918;0,037425
1734,6560;0,0370225
1735,6202;0,0367035
1736,5845;0,0364608
1737,5487;0,03622
1738,5129;0,0359032
1739,4772;0,0354673
1740,4414;0,0349227
1741,4056;0,0343229
1742,3699;0,0337204
1743,3341;0,0331304
1744,2983;0,0325358
1745,2626;0,0319101
1746,2268;0,0312268
1747,1910;0,0304551
1748,1553;0,0295689
1749,1195;0,0285862
1750,0837;0,0275995
1751,0480;0,0267286
1752,0122;0,0260285
1752,9764;0,0254614
1753,9407;0,0249434
1754,9049;0,0244008
1755,8691;0,0238054
1756,8334;0,0231789
1757,7976;0,0225638
1758,7618;0,0219816
1759,7261;0,0214163
1760,6903;0,0208425
1761,6545;0,0202674
1762,6188;0,0197389
1763,5830;0,0193083
1764,5472;0,0189905
1765,5115;0,0187596
1766,4757;0,018572
1767,4399;0,0183876
1768,4042;0,018175
1769,3684;0,0179068
1770,3326;0,0175608
1771,2969;0,017143
1772,2611;0,0167147
1773,2253;0,0163696
1774,1896;0,016166
1775,1538;0,0160921
1776,1180;0,0160922
1777,0823;0,0161054
1778,0465;0,0160895
1779,0107;0,0160322
1779,9750;0,0159504
1780,9392;0,0158728
1781,9034;0,0158157
1782,8677;0,0157753
1783,8319;0,0157404
1784,7961;0,0157104
1785,7604;0,0156975
1786,7246;0,0157141
1787,6888;0,0157571
1788,6531;0,0158007
1789,6173;0,0158026
1790,5815;0,0157248
1791,5458;0,0155683
1792,5100;0,0153921
1793,4742;0,0152732
1794,4385;0,0152437
1795,4027;0,0152812
1796,3669;0,0153398
1797,3312;0,0153751
1798,2954;0,0153575
1799,2596;0,0152809
1800,2239;0,0151686
1801,1881;0,015062
1802,1523;0,0149976
1803,1166;0,014989
1804,0808;0,0150271
1805,0450;0,0150902
1806,0093;0,0151521
1806,9735;0,0151881
1807,9377;0,0151822
1808,9020;0,0151329
1809,8662;0,0150576
1810,8304;0,0149852
1811,7947;0,0149394
1812,7589;0,0149259
1813,7231;0,0149332
1814,6874;0,0149435
1815,6516;0,0149451
1816,6158;0,0149386
1817,5801;0,0149363
1818,5443;0,0149516
1819,5085;0,0149871
1820,4728;0,0150302
1821,4370;0,0150601
1822,4012;0,0150595
1823,3655;0,0150259
1824,3297;0,0149729
1825,2939;0,0149198
1826,2582;0,0148757
1827,2224;0,0148343
1828,1866;0,0147851
1829,1509;0,01473
1830,1151;0,0146888
1831,0793;0,0146832
1832,0436;0,014715
1833,0078;0,0147644
1833,9720;0,014805
1834,9363;0,0148192
1835,9005;0,0148089
1836,8647;0,0147952
1837,8290;0,0148046
1838,7932;0,0148491
1839,7574;0,0149171
1840,7217;0,0149808
1841,6859;0,0150091
1842,6501;0,0149835
1843,6144;0,0149124
1844,5786;0,0148306
1845,5428;0,0147731
1846,5071;0,0147501
1847,4713;0,0147509
1848,4355;0,0147603
1849,3998;0,0147682
1850,3640;0,0147704
1851,3282;0,0147664
1852,2925;0,0147575
1853,2567;0,0147472
1854,2209;0,014741
1855,1852;0,0147463
1856,1494;0,0147685
1857,1136;0,0148063
1858,0779;0,0148502
1859,0421;0,0148863
1860,0063;0,0149039
1860,9706;0,0149023
1861,9348;0,0148901
1862,8990;0,0148791
1863,8633;0,0148761
1864,8275;0,0148791
1865,7917;0,0148792
1866,7560;0,0148674
1867,7202;0,0148426
1868,6844;0,014812
1869,6487;0,0147836
1870,6129;0,0147572
1871,5771;0,0147276
1872,5414;0,0146912
1873,5056;0,0146495
1874,4698;0,0146096
1875,4341;0,0145828
1876,3983;0,0145794
1877,3625;0,0146024
1878,3268;0,0146439
1879,2910;0,0146871
1880,2552;0,0147151
1881,2195;0,0147205
1882,1837;0,0147112
1883,1479;0,0147081
1884,1122;0,0147323
1885,0764;0,0147919
1886,0406;0,0148747
1887,0049;0,0149516
1887,9691;0,014991
1888,9333;0,0149757
1889,8976;0,0149135
1890,8618;0,0148305
1891,8260;0,0147544
1892,7903;0,0147015
1893,7545;0,0146766
1894,7188;0,0146782
1895,6830;0,0147022
1896,6472;0,014741
1897,6115;0,0147819
1898,5757;0,0148104
1899,5399;0,0148179
1900,5042;0,0148074
1901,4684;0,0147936
1902,4326;0,0147951
1903,3969;0,0148218
1904,3611;0,0148667
1905,3253;0,0149084
1906,2896;0,0149218
1907,2538;0,0148907
1908,2180;0,0148163
1909,1823;0,0147178
1910,1465;0,0146242
1911,1107;0,014562
1912,0750;0,0145455
1913,0392;0,0145754
1914,0034;0,0146426
1914,9677;0,0147321
1915,9319;0,0148257
1916,8961;0,0149043
1917,8604;0,0149526
1918,8246;0,0149632
1919,7888;0,014939
1920,7531;0,0148927
1921,7173;0,0148441
1922,6815;0,0148152
1923,6458;0,0148208
1924,6100;0,0148575
1925,5742;0,0149009
1926,5385;0,014917
1927,5027;0,014882
1928,4669;0,0147993
1929,4312;0,0147031
1930,3954;0,0146449
1931,3596;0,0146645
1932,3239;0,0147622
1933,2881;0,0148942
1934,2523;0,014994
1935,2166;0,0150097
1936,1808;0,0149345
1937,1450;0,0148093
1938,1093;0,0146968
1939,0735;0,0146438
1940,0377;0,0146529
1941,0020;0,0146801
1941,9662;0,0146628
1942,9304;0,0145695
1943,8947;0,0144322
1944,8589;0,0143314
1945,8231;0,0143396
1946,7874;0,0144711
1947,7516;0,0146676
1948,7158;0,0148253
1949,6801;0,0148491
1950,6443;0,0147067
1951,6085;0,0144476
1952,5728;0,0141751
1953,5370;0,0139896
1954,5012;0,0139398
1955,4655;0,0140093
1956,4297;0,014138
1957,3939;0,0142602
1958,3582;0,0143326
1959,3224;0,0143447
1960,2866;0,0143123
1961,2509;0,0142665
1962,2151;0,0142391
1963,1793;0,0142498
1964,1436;0,0142945
1965,1078;0,014343
1966,0720;0,0143529
1967,0363;0,0142983
1968,0005;0,0141936
1968,9647;0,0140897
1969,9290;0,0140393
1970,8932;0,0140595
1971,8574;0,0141214
1972,8217;0,0141726
1973,7859;0,0141771
1974,7501;0,0141452
1975,7144;0,014133
1976,6786;0,0142076
1977,6428;0,0144038
1978,6071;0,0147036
1979,5713;0,0150492
1980,5355;0,0153706
1981,4998;0,0156058
1982,4640;0,0157077
1983,4282;0,0156509
1984,3925;0,0154421
1985,3567;0,0151295
1986,3209;0,014799
1987,2852;0,0145505
1988,2494;0,0144668
1989,2136;0,0145845
1990,1779;0,0148764
1991,1421;0,0152516
1992,1063;0,0155812
1993,0706;0,0157464
1994,0348;0,0156885
1994,9990;0,0154324
1995,9633;0,0150762
1996,9275;0,0147558
1997,8917;0,0145973
1998,8560;0,0146664
1999,8202;0,014939
2000,7844;0,0153112
2001,7487;0,0156492
2002,7129;0,0158492
2003,6771;0,0158753
2004,6414;0,0157609
2005,6056;0,0155793
2006,5698;0,0154031
2007,5341;0,015273
2008,4983;0,015194
2009,4625;0,0151524
2010,4268;0,0151351
2011,3910;0,0151368
2012,3552;0,0151576
2013,3195;0,0152018
2014,2837;0,0152833
2015,2479;0,0154294
2016,2122;0,0156704
2017,1764;0,0160116
2018,1406;0,0164065
2019,1049;0,016757
2020,0691;0,0169527
2021,0333;0,0169261
2021,9976;0,0166917
2022,9618;0,0163425
2023,9260;0,0160023
2024,8903;0,0157601
2025,8545;0,0156268
2026,8187;0,0155436
2027,7830;0,0154353
2028,7472;0,0152693
2029,7114;0,0150808
2030,6757;0,0149498
2031,6399;0,0149509
2032,6041;0,0151108
2033,5684;0,0153985
2034,5326;0,0157475
2035,4968;0,0160898
2036,4611;0,0163771
2037,4253;0,0165815
2038,3895;0,0166878
2039,3538;0,0166888
2040,3180;0,0165909
2041,2822;0,0164231
2042,2465;0,0162386
2043,2107;0,0161048
2044,1749;0,016083
2045,1392;0,0162077
2046,1034;0,0164677
2047,0676;0,0168006
2048,0320;0,0171077
2048,9961;0,0172934
2049,9604;0,0173075
2050,9246;0,0171645
2051,8889;0,0169316
2052,8530;0,0166964
2053,8174;0,0165323
2054,7815;0,0164726
2055,7458;0,0165037
2056,7100;0,0165813
2057,6743;0,0166585
2058,6384;0,0167101
2059,6028;0,0167377
2060,5669;0,0167576
2061,5313;0,0167842
2062,4954;0,0168203
2063,4597;0,0168581
2064,4238;0,0168868
2065,3882;0,0168977
2066,3523;0,016886
2067,3167;0,0168494
2068,2808;0,0167896
2069,2451;0,0167159
2070,2092;0,0166473
2071,1736;0,0166079
2072,1377;0,0166165
2073,1021;0,0166758
2074,0662;0,016769
2075,0305;0,0168683
2075,9946;0,0169473
2076,9590;0,0169926
2077,9231;0,017005
2078,8875;0,0169939
2079,8516;0,0169683
2080,8159;0,0169323
2081,7800;0,0168872
2082,7444;0,0168358
2083,7085;0,0167862
2084,6729;0,0167489
2085,6370;0,0167308
2086,6013;0,0167299
2087,5654;0,0167341
2088,5298;0,0167289
2089,4939;0,0167064
2090,4583;0,0166729
2091,4224;0,0166477
2092,3867;0,0166538
2093,3508;0,0167051
2094,3152;0,0167974
2095,2793;0,0169097
2096,2437;0,0170134
2097,2078;0,0170862
2098,1721;0,0171194
2099,1362;0,0171158
2100,1006;0,0170819
2101,0647;0,0170222
2102,0291;0,0169378
2102,9932;0,0168326
2103,9575;0,0167187
2104,9216;0,0166182
2105,8860;0,0165594
2106,8501;0,0165681
2107,8145;0,0166593
2108,7786;0,0168292
2109,7429;0,0170515
2110,7070;0,0172793
2111,6714;0,0174551
2112,6355;0,0175279
2113,5999;0,0174731
2114,5640;0,0173056
2115,5283;0,0170783
2116,4924;0,0168642
2117,4568;0,0167289
2118,4209;0,0167082
2119,3853;0,0167995
2120,3494;0,0169702
2121,3137;0,0171767
2122,2778;0,0173813
2123,2422;0,0175596
2124,2063;0,0176979
2125,1707;0,0177868
2126,1348;0,0178195
2127,0991;0,0177945
2128,0632;0,0177202
2129,0276;0,0176148
2129,9917;0,0175001
2130,9561;0,0173922
2131,9202;0,0172944
2132,8845;0,0171994
2133,8486;0,0170995
2134,8130;0,0170018
2135,7771;0,0169358
2136,7415;0,0169469
2137,7056;0,0170737
2138,6699;0,0173204
2139,6340;0,0176396
2140,5984;0,0179399
2141,5625;0,0181194
2142,5269;0,0181129
2143,4910;0,0179277
2144,4553;0,017644
2145,4194;0,0173764
2146,3838;0,0172143
2147,3479;0,0171791
2148,3123;0,0172245
2149,2764;0,0172799
2150,2407;0,0173053
2151,2048;0,0173193
2152,1692;0,0173829
2153,1333;0,0175531
2154,0977;0,0178412
2155,0618;0,0182014
2156,0261;0,0185552
2156,9902;0,0188328
2157,9546;0,0190057
2158,9187;0,019087
2159,8831;0,019101
2160,8472;0,0190573
2161,8115;0,0189526
2162,7756;0,0187905
2163,7400;0,0185893
2164,7041;0,0183722
2165,6685;0,0181512
2166,6326;0,0179237
2167,5969;0,0176865
2168,5610;0,0174558
2169,5254;0,0172715
2170,4895;0,0171783
2171,4539;0,017194
2172,4180;0,0172866
2173,3823;0,0173821
2174,3464;0,0174016
2175,3108;0,0173085
2176,2749;0,0171333
2177,2393;0,0169588
2178,2034;0,0168752
2179,1677;0,0169341
2180,1318;0,0171265
2181,0962;0,0173922
2182,0603;0,0176551
2183,0247;0,0178599
2183,9888;0,0179924
2184,9531;0,0180718
2185,9172;0,0181265
2186,8816;0,0181725
2187,8457;0,0182076
2188,8101;0,0182195
2189,7742;0,0181982
2190,7385;0,0181411
2191,7026;0,0180507
2192,6670;0,0179295
2193,6311;0,0177808
2194,5955;0,0176164
2195,5596;0,0174633
2196,5239;0,0173604
2197,4880;0,0173424
2198,4524;0,0174209
2199,4165;0,0175748
2200,3809;0,0177569
2201,3450;0,0179133
2202,3093;0,018003
2203,2734;0,0180085
2204,2378;0,0179358
2205,2019;0,0178074
2206,1663;0,0176551
2207,1304;0,0175113
2208,0947;0,0174011
2209,0588;0,0173348
2210,0232;0,0173056
2210,9873;0,0172968
2211,9517;0,0172945
2212,9158;0,0172967
2213,8801;0,017313
2214,8442;0,0173532
2215,8086;0,017416
2216,7727;0,0174867
2217,7371;0,0175467
2218,7012;0,0175862
2219,6655;0,0176092
2220,6296;0,0176258
2221,5940;0,0176391
2222,5581;0,0176373
2223,5225;0,0176002
2224,4866;0,0175152
2225,4509;0,0173932
2226,4150;0,0172707
2227,3794;0,0171942
2228,3435;0,0171952
2229,3079;0,0172701
2230,2720;0,017378
2231,2363;0,0174609
2232,2004;0,0174744
2233,1648;0,0174121
2234,1289;0,0173086
2235,0933;0,0172172
2236,0574;0,0171778
2237,0217;0,017194
2237,9858;0,0172349
2238,9502;0,0172582
2239,9143;0,0172386
2240,8787;0,0171819
2241,8428;0,0171175
2242,8071;0,0170768
2243,7712;0,0170738
2244,7356;0,0171011
2245,6997;0,01714
2246,6641;0,0171753
2247,6282;0,0172029
2248,5925;0,0172279
2249,5566;0,017257
2250,5210;0,0172923
2251,4851;0,0173304
2252,4495;0,0173651
2253,4136;0,0173901
2254,3779;0,0174004
2255,3420;0,0173932
2256,3064;0,0173671
2257,2705;0,017323
2258,2349;0,0172623
2259,1990;0,0171865
2260,1633;0,0170971
2261,1274;0,016998
2262,0918;0,0168991
2263,0559;0,0168154
2264,0203;0,0167625
2264,9844;0,0167472
2265,9487;0,0167617
2266,9128;0,0167846
2267,8772;0,0167919
2268,8413;0,0167701
2269,8057;0,0167245
2270,7698;0,0166765
2271,7341;0,0166519
2272,6982;0,0166674
2273,6626;0,0167215
2274,6267;0,0167969
2275,5911;0,0168692
2276,5552;0,0169195
2277,5195;0,0169415
2278,4836;0,0169424
2279,4480;0,0169368
2280,4121;0,0169389
2281,3765;0,0169563
2282,3406;0,016988
2283,3049;0,0170262
2284,2690;0,0170608
2285,2334;0,017084
2286,1975;0,0170926
2287,1619;0,0170894
2288,1260;0,0170813
2289,0903;0,0170765
2290,0544;0,0170822
2291,0188;0,0171031
2291,9829;0,017141
2292,9473;0,0171947
2293,9114;0,0172597
2294,8757;0,0173283
2295,8398;0,0173917
2296,8042;0,0174422
2297,7683;0,0174779
2298,7327;0,0175029
2299,6968;0,0175262
2300,6611;0,017557
2301,6252;0,017601
2302,5896;0,0176595
2303,5537;0,0177305
2304,5181;0,0178108
2305,4822;0,0178957
2306,4465;0,0179777
2307,4106;0,0180457
2308,3750;0,0180891
2309,3391;0,0181037
2310,3035;0,018096
2311,2676;0,0180805
2312,2319;0,0180713
2313,1960;0,0180736
2314,1604;0,0180832
2315,1245;0,0180939
2316,0889;0,0181058
2317,0530;0,018127
2318,0173;0,0181667
2318,9814;0,0182246
2319,9458;0,0182851
2320,9099;0,0183237
2321,8743;0,0183221
2322,8384;0,0182814
2323,8027;0,0182188
2324,7668;0,0181538
2325,7312;0,0180959
2326,6953;0,0180425
2327,6597;0,0179847
2328,6238;0,0179163
2329,5881;0,0178392
2330,5522;0,017763
2331,5166;0,0176995
2332,4807;0,0176564
2333,4451;0,0176334
2334,4092;0,0176199
2335,3735;0,0175958
2336,3376;0,017537
2337,3020;0,0174278
2338,2661;0,0172746
2339,2305;0,0171074
2340,1946;0,016967
2341,1589;0,0168847
2342,1230;0,0168727
2343,0874;0,0169248
2344,0515;0,0170227
2345,0159;0,017145
2345,9800;0,0172772
2346,9443;0,0174151
2347,9084;0,0175588
2348,8728;0,0177025
2349,8369;0,0178309
2350,8013;0,0179229
2351,7654;0,0179647
2352,7297;0,0179667
2353,6938;0,0179667
2354,6582;0,0180011
2355,6223;0,0180637
2356,5867;0,0181007
2357,5508;0,0180502
2358,5151;0,0178876
2359,4792;0,017641
2360,4436;0,0173723
2361,4077;0,0171404
2362,3721;0,0169781
2363,3362;0,0168888
2364,3005;0,0168576
2365,2646;0,0168647
2366,2290;0,0168969
2367,1931;0,0169513
2368,1575;0,0170295
2369,1216;0,0171285
2370,0859;0,0172357
2371,0500;0,0173331
2372,0144;0,0174067
2372,9785;0,0174527
2373,9429;0,0174758
2374,9070;0,0174826
2375,8713;0,0174757
2376,8354;0,017453
2377,7998;0,0174129
2378,7639;0,0173588
2379,7283;0,0173007
2380,6924;0,0172519
2381,6567;0,0172235
2382,6208;0,0172199
2383,5852;0,017238
2384,5493;0,0172701
2385,5137;0,0173078
2386,4778;0,0173452
2387,4421;0,0173799
2388,4063;0,0174118
2389,3706;0,0174408
2390,3347;0,017464
2391,2991;0,0174766
2392,2632;0,0174743
2393,2275;0,0174572
2394,1917;0,0174318
2395,1560;0,0174098
2396,1201;0,0174022
2397,0845;0,0174137
2398,0486;0,0174395
2399,0129;0,0174688
2399,9771;0,0174917
2400,9414;0,0175062
2401,9055;0,0175194
2402,8699;0,0175414
2403,8340;0,0175769
2404,7983;0,0176196
2405,7625;0,0176542
2406,7268;0,0176657
2407,6909;0,0176498
2408,6553;0,0176166
2409,6194;0,0175864
2410,5837;0,017578
2411,5479;0,0175998
2412,5122;0,0176463
2413,4763;0,0177032
2414,4407;0,0177564
2415,4048;0,0177987
2416,3691;0,0178314
2417,3333;0,0178597
2418,2976;0,0178874
2419,2617;0,0179135
2420,2261;0,0179337
2421,1902;0,017945
2422,1545;0,0179486
2423,1187;0,0179505
2424,0830;0,0179578
2425,0471;0,0179743
2426,0115;0,0179986
2426,9756;0,0180246
2427,9399;0,0180453
2428,9041;0,0180568
2429,8684;0,0180599
2430,8325;0,0180595
2431,7969;0,0180619
2432,7610;0,0180718
2433,7253;0,0180902
2434,6895;0,0181137
2435,6538;0,0181359
2436,6179;0,01815
2437,5823;0,0181519
2438,5464;0,0181425
2439,5107;0,0181281
2440,4749;0,0181181
2441,4392;0,0181213
2442,4033;0,0181429
2443,3677;0,0181825
2444,3318;0,0182355
2445,2961;0,0182946
2446,2603;0,018352
2447,2246;0,0184004
2448,1887;0,0184347
2449,1531;0,0184523
2450,1172;0,0184546
2451,0815;0,018446
2452,0457;0,0184333
2453,0100;0,018423
2453,9741;0,0184192
2454,9385;0,0184236
2455,9026;0,018436
2456,8669;0,0184558
2457,8311;0,0184829
2458,7954;0,0185163
2459,7595;0,0185525
2460,7239;0,0185852
2461,6880;0,0186069
2462,6523;0,0186129
2463,6165;0,0186046
2464,5808;0,0185904
2465,5449;0,0185815
2466,5093;0,0185863
2467,4734;0,0186046
2468,4377;0,0186285
2469,4019;0,0186474
2470,3662;0,0186557
2471,3303;0,0186577
2472,2947;0,0186643
2473,2588;0,0186857
2474,2231;0,0187232
2475,1873;0,0187676
2476,1516;0,0188055
2477,1157;0,0188292
2478,0801;0,0188429
2479,0442;0,0188597
2480,0085;0,0188917
2480,9727;0,0189398
2481,9370;0,0189916
2482,9011;0,0190284
2483,8655;0,0190372
2484,8296;0,0190189
2485,7939;0,0189877
2486,7581;0,0189619
2487,7224;0,0189544
2488,6865;0,0189663
2489,6509;0,0189897
2490,6150;0,0190131
2491,5793;0,0190277
2492,5435;0,0190304
2493,5078;0,0190236
2494,4719;0,0190139
2495,4363;0,0190095
2496,4004;0,0190181
2497,3647;0,0190423
2498,3289;0,0190767
2499,2932;0,0191083
2500,2573;0,0191212
2501,2217;0,0191049
2502,1858;0,0190613
2503,1501;0,0190052
2504,1143;0,0189593
2505,0786;0,0189434
2506,0427;0,0189663
2507,0071;0,0190228
2507,9712;0,0190967
2508,9355;0,0191686
2509,8997;0,0192234
2510,8640;0,019255
2511,8281;0,019266
2512,7925;0,0192644
2513,7566;0,019259
2514,7209;0,0192554
2515,6851;0,0192552
2516,6494;0,0192573
2517,6135;0,019261
2518,5779;0,0192675
2519,5420;0,0192798
2520,5063;0,0192998
2521,4705;0,0193265
2522,4348;0,0193548
2523,3989;0,0193783
2524,3633;0,0193923
2525,3274;0,0193967
2526,2917;0,0193958
2527,2559;0,0193964
2528,2202;0,0194036
2529,1843;0,0194184
2530,1487;0,0194369
2531,1128;0,0194515
2532,0771;0,019454
2533,0413;0,0194394
2534,0056;0,0194082
2534,9697;0,0193668
2535,9341;0,0193255
2536,8982;0,0192946
2537,8625;0,0192802
2538,8267;0,0192828
2539,7910;0,0192982
2540,7551;0,0193218
2541,7195;0,019351
2542,6836;0,0193861
2543,6479;0,0194276
2544,6121;0,0194726
2545,5764;0,0195142
2546,5405;0,0195435
2547,5049;0,0195547
2548,4690;0,019549
2549,4333;0,0195343
2550,3975;0,0195215
2551,3618;0,0195193
2552,3259;0,0195308
2553,2903;0,0195527
2554,2544;0,019578
2555,2188;0,0195986
2556,1829;0,0196078
2557,1472;0,0196028
2558,1113;0,019585
2559,0757;0,0195612
2560,0398;0,0195405
2561,0042;0,0195311
2561,9683;0,019536
2562,9326;0,0195518
2563,8967;0,0195714
2564,8611;0,0195885
2565,8252;0,0196009
2566,7896;0,0196108
2567,7537;0,0196215
2568,7180;0,0196339
2569,6821;0,0196458
2570,6465;0,019654
2571,6106;0,0196563
2572,5750;0,0196536
2573,5391;0,0196489
2574,5034;0,0196458
2575,4675;0,0196467
2576,4319;0,0196526
2577,3960;0,0196621
2578,3604;0,0196721
2579,3245;0,0196786
2580,2888;0,0196791
2581,2529;0,0196747
2582,2173;0,0196706
2583,1814;0,0196739
2584,1458;0,0196886
2585,1099;0,0197131
2586,0742;0,0197402
2587,0383;0,0197621
2588,0027;0,0197755
2588,9668;0,0197829
2589,9312;0,0197909
2590,8953;0,0198053
2591,8596;0,0198274
2592,8237;0,0198536
2593,7881;0,0198777
2594,7522;0,0198944
2595,7166;0,0199014
2596,6807;0,0199008
2597,6450;0,0198982
2598,6091;0,0199012
2599,5735;0,0199162
2600,5376;0,0199459
2601,5020;0,0199875
2602,4661;0,0200341
2603,4304;0,0200779
2604,3945;0,0201145
2605,3589;0,0201435
2606,3230;0,0201672
2607,2874;0,0201874
2608,2515;0,020203
2609,2158;0,0202115
2610,1799;0,0202115
2611,1443;0,020206
2612,1084;0,020202
2613,0728;0,0202082
2614,0369;0,0202298
2615,0012;0,0202665
2615,9653;0,0203117
2616,9297;0,0203557
2617,8938;0,02039
2618,8582;0,0204112
2619,8223;0,0204215
2620,7866;0,0204271
2621,7507;0,0204349
2622,7151;0,0204483
2623,6792;0,020467
2624,6436;0,0204873
2625,6077;0,0205053
2626,5720;0,0205191
2627,5361;0,0205294
2628,5005;0,0205384
2629,4646;0,0205487
2630,4290;0,0205626
2631,3931;0,020582
2632,3574;0,0206085
2633,3215;0,0206428
2634,2859;0,0206831
2635,2500;0,0207253
2636,2144;0,0207642
2637,1785;0,0207958
2638,1428;0,0208197
2639,1069;0,0208391
2640,0713;0,0208583
2641,0354;0,0208802
2641,9998;0,0209044
2642,9639;0,0209283
2643,9282;0,0209494
2644,8923;0,0209678
2645,8567;0,0209867
2646,8208;0,0210102
2647,7852;0,0210401
2648,7493;0,0210741
2649,7136;0,0211066
2650,6777;0,0211318
2651,6421;0,0211475
2652,6062;0,021157
2653,5706;0,0211675
2654,5347;0,0211866
2655,4990;0,0212179
2656,4631;0,0212592
2657,4275;0,0213028
2658,3916;0,0213397
2659,3560;0,0213632
2660,3201;0,021372
2661,2844;0,0213704
2662,2485;0,0213656
2663,2129;0,0213647
2664,1770;0,0213725
2665,1414;0,0213896
2666,1055;0,0214143
2667,0698;0,0214427
2668,0339;0,0214714
2668,9983;0,0214975
2669,9624;0,0215193
2670,9268;0,021537
2671,8909;0,0215524
2672,8552;0,0215684
2673,8193;0,0215879
2674,7837;0,0216122
2675,7478;0,0216404
2676,7122;0,0216703
2677,6763;0,0216999
2678,6406;0,0217284
2679,6047;0,0217567
2680,5691;0,0217859
2681,5332;0,0218155
2682,4976;0,0218434
2683,4617;0,0218675
2684,4260;0,0218878
2685,3901;0,021907
2686,3545;0,0219287
2687,3186;0,0219554
2688,2830;0,0219865
2689,2471;0,022019
2690,2114;0,0220506
2691,1755;0,0220817
2692,1399;0,0221153
2693,1040;0,0221538
2694,0684;0,0221971
2695,0325;0,0222408
2695,9968;0,0222793
2696,9609;0,0223087
2697,9253;0,0223295
2698,8894;0,0223457
2699,8538;0,022362
2700,8179;0,0223815
2701,7822;0,0224045
2702,7463;0,0224301
2703,7107;0,0224577
2704,6748;0,0224882
2705,6392;0,0225229
2706,6033;0,0225619
2707,5676;0,0226033
2708,5317;0,0226438
2709,4961;0,0226798
2710,4602;0,0227093
2711,4246;0,0227329
2712,3887;0,0227536
2713,3530;0,0227753
2714,3171;0,0228009
2715,2815;0,0228314
2716,2456;0,0228653
2717,2100;0,0228997
2718,1741;0,0229317
2719,1384;0,0229595
2720,1025;0,0229826
2721,0669;0,0230012
2722,0310;0,0230158
2722,9954;0,023027
2723,9595;0,0230372
2724,9238;0,0230508
2725,8879;0,0230736
2726,8523;0,0231099
2727,8164;0,0231596
2728,7808;0,0232168
2729,7449;0,0232716
2730,7092;0,0233144
2731,6733;0,02334
2732,6377;0,023349
2733,6018;0,0233473
2734,5662;0,0233427
2735,5303;0,0233415
2736,4946;0,0233474
2737,4587;0,0233617
2738,4231;0,0233844
2739,3872;0,023415
2740,3516;0,0234523
2741,3157;0,0234928
2742,2800;0,0235313
2743,2441;0,0235614
2744,2085;0,0235785
2745,1726;0,0235818
2746,1370;0,0235753
2747,1011;0,0235666
2748,0654;0,0235634
2749,0295;0,0235708
2749,9939;0,0235897
2750,9580;0,0236182
2751,9224;0,0236533
2752,8865;0,0236932
2753,8508;0,0237365
2754,8149;0,0237812
2755,7793;0,0238237
2756,7434;0,0238597
2757,7078;0,0238868
2758,6719;0,0239063
2759,6362;0,023923
2760,6003;0,0239428
2761,5647;0,0239693
2762,5288;0,0240017
2763,4932;0,024036
2764,4573;0,0240678
2765,4216;0,0240957
2766,3857;0,0241217
2767,3501;0,0241501
2768,3142;0,0241846
2769,2786;0,0242256
2770,2427;0,0242706
2771,2070;0,0243153
2772,1711;0,0243565
2773,1355;0,0243935
2774,0996;0,0244287
2775,0640;0,0244662
2776,0281;0,02451
2776,9924;0,0245616
2777,9565;0,0246192
2778,9209;0,0246783
2779,8850;0,0247331
2780,8494;0,0247793
2781,8135;0,0248151
2782,7778;0,0248426
2783,7419;0,0248665
2784,7063;0,0248925
2785,6704;0,0249249
2786,6348;0,0249658
2787,5989;0,0250144
2788,5632;0,0250686
2789,5273;0,0251261
2790,4917;0,0251858
2791,4558;0,0252481
2792,4202;0,0253138
2793,3843;0,025383
2794,3486;0,025454
2795,3127;0,0255243
2796,2771;0,0255916
2797,2412;0,0256555
2798,2056;0,0257185
2799,1697;0,0257844
2800,1340;0,025857
2801,0981;0,0259381
2802,0625;0,0260274
2803,0266;0,0261225
2803,9910;0,02622
2804,9551;0,0263169
2805,9194;0,02641
2806,8835;0,0264972
2807,8479;0,0265778
2808,8120;0,0266538
2809,7764;0,0267297
2810,7405;0,0268112
2811,7048;0,026903
2812,6689;0,0270061
2813,6333;0,0271181
2814,5974;0,0272344
2815,5618;0,0273513
2816,5259;0,0274683
2817,4902;0,0275875
2818,4543;0,0277119
2819,4187;0,0278426
2820,3828;0,0279775
2821,3472;0,028113
2822,3113;0,0282463
2823,2756;0,0283781
2824,2397;0,028513
2825,2041;0,0286576
2826,1682;0,0288174
2827,1326;0,0289944
2828,0967;0,0291863
2829,0610;0,0293881
2830,0251;0,0295949
2830,9895;0,0298041
2831,9536;0,0300155
2832,9180;0,03023
2833,8821;0,0304481
2834,8464;0,030669
2835,8105;0,0308916
2836,7749;0,0311157
2837,7390;0,0313432
2838,7034;0,0315772
2839,6675;0,0318204
2840,6318;0,032074
2841,5959;0,0323362
2842,5603;0,0326033
2843,5244;0,0328709
2844,4888;0,033135
2845,4529;0,0333928
2846,4172;0,0336426
2847,3813;0,0338825
2848,3457;0,0341103
2849,3098;0,0343231
2850,2742;0,0345175
2851,2383;0,0346913
2852,2026;0,0348445
2853,1667;0,0349792
2854,1311;0,0350986
2855,0952;0,0352049
2856,0596;0,0352997
2857,0237;0,0353855
2857,9880;0,0354683
2858,9521;0,0355587
2859,9165;0,0356689
2860,8806;0,0358074
2861,8450;0,0359743
2862,8091;0,0361603
2863,7734;0,0363517
2864,7375;0,0365368
2865,7019;0,0367108
2866,6660;0,0368751
2867,6304;0,037033
2868,5945;0,0371844
2869,5588;0,0373252
2870,5229;0,0374506
2871,4873;0,0375596
2872,4514;0,0376573
2873,4158;0,0377524
2874,3799;0,0378517
2875,3442;0,0379564
2876,3083;0,0380621
2877,2727;0,0381621
2878,2368;0,0382525
2879,2012;0,0383338
2880,1653;0,0384098
2881,1296;0,0384843
2882,0938;0,0385584
2883,0581;0,0386307
2884,0222;0,0386992
2884,9866;0,0387634
2885,9507;0,0388247
2886,9150;0,038885
2887,8792;0,0389452
2888,8435;0,0390044
2889,8076;0,0390606
2890,7720;0,0391128
2891,7361;0,0391618
2892,7004;0,0392098
2893,6646;0,0392585
2894,6289;0,0393073
2895,5930;0,0393535
2896,5574;0,0393934
2897,5215;0,0394246
2898,4858;0,0394477
2899,4500;0,0394655
2900,4143;0,0394809
2901,3784;0,0394954
2902,3428;0,0395083
2903,3069;0,039518
2904,2712;0,0395238
2905,2354;0,0395259
2906,1997;0,0395258
2907,1638;0,0395242
2908,1282;0,0395216
2909,0923;0,039519
2910,0566;0,0395193
2911,0208;0,039527
2911,9851;0,0395463
2912,9492;0,0395774
2913,9136;0,0396149
2914,8777;0,0396491
2915,8420;0,03967
2916,8062;0,0396723
2917,7705;0,0396568
2918,7346;0,0396285
2919,6990;0,0395922
2920,6631;0,0395489
2921,6274;0,0394959
2922,5916;0,0394299
2923,5559;0,0393499
2924,5200;0,0392581
2925,4844;0,039158
2926,4485;0,0390509
2927,4128;0,0389353
2928,3770;0,0388084
2929,3413;0,0386696
2930,3054;0,0385229
2931,2698;0,0383755
2932,2339;0,0382343
2933,1982;0,0381009
2934,1624;0,0379706
2935,1267;0,0378343
2936,0908;0,0376831
2937,0552;0,0375123
2938,0193;0,0373226
2938,9836;0,0371183
2939,9478;0,0369037
2940,9121;0,0366807
2941,8762;0,0364486
2942,8406;0,0362068
2943,8047;0,0359563
2944,7690;0,0357008
2945,7332;0,0354453
2946,6975;0,035194
2947,6616;0,0349493
2948,6260;0,0347118
2949,5901;0,0344818
2950,5544;0,0342604
2951,5186;0,0340483
2952,4829;0,0338459
2953,4470;0,0336516
2954,4114;0,0334633
2955,3755;0,0332795
2956,3398;0,0331006
2957,3040;0,0329281
2958,2683;0,0327632
2959,2324;0,0326058
2960,1968;0,0324548
2961,1609;0,0323092
2962,1252;0,0321697
2963,0894;0,0320377
2964,0537;0,0319133
2965,0178;0,0317934
2965,9822;0,0316715
2966,9463;0,0315408
2967,9106;0,0313969
2968,8748;0,03124
2969,8391;0,0310742
2970,8032;0,030905
2971,7676;0,0307371
2972,7317;0,0305739
2973,6960;0,0304175
2974,6602;0,0302692
2975,6245;0,0301297
2976,5886;0,0299978
2977,5530;0,0298714
2978,5171;0,0297485
2979,4814;0,0296294
2980,4456;0,0295172
2981,4099;0,0294162
2982,3740;0,0293298
2983,3384;0,0292574
2984,3025;0,0291949
2985,2668;0,0291364
2986,2310;0,0290772
2987,1953;0,0290162
2988,1594;0,0289567
2989,1238;0,0289042
2990,0879;0,0288638
2991,0522;0,028838
2992,0164;0,0288253
2992,9807;0,0288213
2993,9448;0,0288209
2994,9092;0,0288211
2995,8733;0,0288231
2996,8376;0,0288309
2997,8018;0,0288484
2998,7661;0,0288764
2999,7302;0,0289117
3000,6946;0,0289484
3001,6587;0,028982
3002,6230;0,0290117
3003,5872;0,0290403
3004,5515;0,0290716
3005,5156;0,029107
3006,4800;0,0291446
3007,4441;0,0291805
3008,4084;0,029212
3009,3726;0,0292397
3010,3369;0,0292665
3011,3010;0,0292959
3012,2654;0,0293291
3013,2295;0,0293649
3014,1938;0,0294013
3015,1580;0,0294381
3016,1223;0,0294779
3017,0864;0,0295249
3018,0508;0,0295818
3019,0149;0,0296481
3019,9792;0,0297194
3020,9434;0,0297898
3021,9077;0,0298544
3022,8718;0,0299118
3023,8362;0,0299646
3024,8003;0,030018
3025,7646;0,0300771
3026,7288;0,0301453
3027,6931;0,0302231
3028,6572;0,0303085
3029,6216;0,0303975
3030,5857;0,030486
3031,5500;0,0305707
3032,5142;0,0306499
3033,4785;0,0307241
3034,4426;0,0307959
3035,4070;0,030869
3036,3711;0,0309473
3037,3354;0,0310335
3038,2996;0,0311284
3039,2639;0,0312304
3040,2280;0,031336
3041,1924;0,0314411
3042,1565;0,0315431
3043,1208;0,0316416
3044,0850;0,0317386
3045,0493;0,031837
3046,0134;0,0319391
3046,9778;0,0320456
3047,9419;0,0321555
3048,9063;0,0322671
3049,8704;0,0323789
3050,8347;0,0324899
3051,7988;0,0326002
3052,7632;0,0327101
3053,7273;0,0328215
3054,6917;0,0329367
3055,6558;0,0330585
3056,6201;0,0331882
3057,5842;0,0333247
3058,5486;0,0334642
3059,5127;0,033602
3060,4771;0,0337342
3061,4412;0,0338597
3062,4055;0,0339799
3063,3696;0,0340975
3064,3340;0,0342156
3065,2981;0,0343357
3066,2625;0,0344574
3067,2266;0,0345784
3068,1909;0,0346959
3069,1550;0,0348086
3070,1194;0,0349186
3071,0835;0,035032
3072,0479;0,0351561
3073,0120;0,0352962
3073,9763;0,0354509
3074,9404;0,035612
3075,9048;0,035768
3076,8689;0,0359104
3077,8333;0,0360379
3078,7974;0,0361574
3079,7617;0,036279
3080,7258;0,0364099
3081,6902;0,0365507
3082,6543;0,0366958
3083,6187;0,0368378
3084,5828;0,0369717
3085,5471;0,0370967
3086,5112;0,0372163
3087,4756;0,0373357
3088,4397;0,0374599
3089,4041;0,0375925
3090,3682;0,0377334
3091,3325;0,0378793
3092,2966;0,0380245
3093,2610;0,0381634
3094,2251;0,0382948
3095,1895;0,0384226
3096,1536;0,0385546
3097,1179;0,0386963
3098,0820;0,0388474
3099,0464;0,0390017
3100,0105;0,0391512
3100,9749;0,0392928
3101,9390;0,0394305
3102,9033;0,0395722
3103,8674;0,0397238
3104,8318;0,0398849
3105,7959;0,0400498
3106,7603;0,0402117
3107,7244;0,0403682
3108,6887;0,0405218
3109,6528;0,0406766
3110,6172;0,0408349
3111,5813;0,0409955
3112,5457;0,0411559
3113,5098;0,0413145
3114,4741;0,0414718
3115,4382;0,0416286
3116,4026;0,0417838
3117,3667;0,0419345
3118,3311;0,0420785
3119,2952;0,0422169
3120,2595;0,0423545
3121,2236;0,0424972
3122,1880;0,0426492
3123,1521;0,0428111
3124,1165;0,0429817
3125,0806;0,0431593
3126,0449;0,0433428
3127,0090;0,0435296
3127,9734;0,0437145
3128,9375;0,0438891
3129,9019;0,0440461
3130,8660;0,0441835
3131,8303;0,0443079
3132,7944;0,0444327
3133,7588;0,0445729
3134,7229;0,0447369
3135,6873;0,0449236
3136,6514;0,0451224
3137,6157;0,0453203
3138,5798;0,0455073
3139,5442;0,0456815
3140,5083;0,0458479
3141,4727;0,0460141
3142,4368;0,0461853
3143,4011;0,0463611
3144,3652;0,0465369
3145,3296;0,046708
3146,2937;0,0468735
3147,2581;0,0470376
3148,2222;0,0472078
3149,1865;0,0473898
3150,1506;0,0475845
3151,1150;0,047786
3152,0791;0,0479837
3153,0435;0,0481667
3154,0076;0,0483291
3154,9719;0,0484731
3155,9360;0,0486092
3156,9004;0,0487525
3157,8645;0,0489162
3158,8289;0,0491052
3159,7930;0,0493142
3160,7573;0,04953
3161,7214;0,0497388
3162,6858;0,0499325
3163,6499;0,0501118
3164,6143;0,0502835
3165,5784;0,050454
3166,5427;0,0506261
3167,5068;0,0507981
3168,4712;0,0509687
3169,4353;0,0511426
3170,3997;0,0513201
3171,3638;0,0515085
3172,3281;0,0517073
3173,2922;0,0519092
3174,2566;0,052105
3175,2207;0,05229
3176,1851;0,0524674
3177,1492;0,0526462
3178,1135;0,0528338
3179,0776;0,0530301
3180,0420;0,0532271
3181,0061;0,053415
3181,9705;0,0535893
3182,9346;0,0537542
3183,8989;0,0539187
3184,8630;0,0540897
3185,8274;0,0542673
3186,7915;0,0544453
3187,7559;0,0546172
3188,7200;0,054782
3189,6843;0,0549449
3190,6484;0,0551126
3191,6128;0,0552879
3192,5769;0,0554667
3193,5413;0,0556419
3194,5054;0,0558083
3195,4697;0,055967
3196,4338;0,0561235
3197,3982;0,0562837
3198,3623;0,0564489
3199,3267;0,0566159
3200,2908;0,0567804
3201,2551;0,056941
3202,2192;0,0571008
3203,1836;0,0572645
3204,1477;0,0574343
3205,1121;0,0576081
3206,0762;0,0577798
3207,0405;0,0579438
3208,0046;0,0580976
3208,9690;0,0582435
3209,9331;0,0583867
3210,8975;0,0585329
3211,8616;0,058686
3212,8259;0,0588472
3213,7900;0,0590156
3214,7544;0,0591888
3215,7185;0,0593643
3216,6829;0,0595399
3217,6470;0,0597142
3218,6113;0,059887
3219,5754;0,0600586
3220,5398;0,0602291
3221,5039;0,0603971
3222,4683;0,0605602
3223,4324;0,0607158
3224,3967;0,0608624
3225,3608;0,061001
3226,3252;0,0611357
3227,2893;0,0612721
3228,2537;0,0614157
3229,2178;0,0615692
3230,1821;0,0617318
3231,1462;0,061899
3232,1106;0,0620644
3233,0747;0,0622221
3234,0391;0,0623691
3235,0032;0,0625065
3235,9675;0,0626395
3236,9316;0,0627754
3237,8960;0,0629201
3238,8601;0,0630756
3239,8245;0,0632382
3240,7886;0,0634004
3241,7529;0,0635546
3242,7170;0,0636973
3243,6814;0,0638307
3244,6455;0,0639615
3245,6099;0,0640972
3246,5740;0,064242
3247,5383;0,0643957
3248,5024;0,0645551
3249,4668;0,0647165
3250,4309;0,0648774
3251,3953;0,0650366
3252,3594;0,0651932
3253,3237;0,0653464
3254,2878;0,0654962
3255,2522;0,0656444
3256,2163;0,0657944
3257,1807;0,065949
3258,1448;0,066109
3259,1091;0,0662715
3260,0732;0,0664316
3261,0376;0,0665847
3262,0017;0,0667291
3262,9661;0,0668671
3263,9302;0,0670048
3264,8945;0,0671493
3265,8586;0,0673059
3266,8230;0,067475
3267,7871;0,0676508
3268,7515;0,0678217
3269,7156;0,067974
3270,6799;0,0680959
3271,6440;0,0681825
3272,6084;0,068238
3273,5725;0,0682742
3274,5369;0,0683065
3275,5010;0,0683476
3276,4653;0,0684032
3277,4294;0,068471
3278,3938;0,0685435
3279,3579;0,0686117
3280,3223;0,0686702
3281,2864;0,0687188
3282,2507;0,0687618
3283,2148;0,0688047
3284,1792;0,0688514
3285,1433;0,0689029
3286,1077;0,0689581
3287,0718;0,0690167
3288,0361;0,0690791
3289,0002;0,0691454
3289,9646;0,0692129
3290,9287;0,0692749
3291,8931;0,0693235
3292,8572;0,0693538
3293,8215;0,0693685
3294,7856;0,0693779
3295,7500;0,0693949
3296,7141;0,0694281
3297,6785;0,0694773
3298,6426;0,0695345
3299,6069;0,0695887
3300,5710;0,069632
3301,5354;0,0696628
3302,4995;0,069684
3303,4639;0,0696999
3304,4280;0,0697128
3305,3923;0,0697233
3306,3564;0,0697317
3307,3208;0,06974
3308,2849;0,0697508
3309,2493;0,0697663
3310,2134;0,0697871
3311,1777;0,0698132
3312,1418;0,069846
3313,1062;0,0698885
3314,0703;0,0699438
3315,0347;0,0700119
3315,9988;0,0700881
3316,9631;0,0701659
3317,9272;0,0702407
3318,8916;0,0703144
3319,8557;0,0703949
3320,8201;0,0704914
3321,7842;0,0706084
3322,7485;0,0707415
3323,7126;0,0708788
3324,6770;0,0710061
3325,6411;0,0711131
3326,6055;0,0711981
3327,5696;0,0712668
3328,5339;0,0713284
3329,4980;0,0713905
3330,4624;0,0714552
3331,4265;0,0715192
3332,3909;0,0715761
3333,3550;0,0716208
3334,3193;0,0716509
3335,2834;0,0716666
3336,2478;0,071668
3337,2119;0,071653
3338,1763;0,0716175
3339,1404;0,071559
3340,1047;0,0714796
3341,0688;0,071387
3342,0332;0,0712909
3342,9973;0,0711977
3343,9617;0,0711074
3344,9258;0,0710147
3345,8901;0,0709139
3346,8542;0,0708037
3347,8186;0,0706877
3348,7827;0,0705712
3349,7471;0,0704567
3350,7112;0,0703412
3351,6755;0,0702194
3352,6396;0,0700878
3353,6040;0,069948
3354,5681;0,0698062
3355,5325;0,0696694
3356,4966;0,069541
3357,4609;0,0694204
3358,4250;0,0693052
3359,3894;0,0691942
3360,3535;0,0690887
3361,3179;0,0689906
3362,2820;0,0688991
3363,2463;0,0688094
3364,2104;0,0687144
3365,1748;0,0686075
3366,1389;0,0684865
3367,1033;0,0683529
3368,0674;0,0682108
3369,0317;0,0680639
3369,9958;0,0679144
3370,9602;0,0677644
3371,9243;0,0676172
3372,8887;0,0674773
3373,8528;0,0673482
3374,8171;0,0672306
3375,7813;0,0671209
3376,7456;0,0670128
3377,7097;0,0669
3378,6741;0,0667788
3379,6382;0,0666482
3380,6025;0,066509
3381,5667;0,0663622
3382,5310;0,0662093
3383,4951;0,0660543
3384,4595;0,0659042
3385,4236;0,0657679
3386,3879;0,0656521
3387,3521;0,0655567
3388,3164;0,065474
3389,2805;0,0653903
3390,2449;0,0652918
3391,2090;0,0651706
3392,1733;0,0650276
3393,1375;0,0648726
3394,1018;0,0647188
3395,0659;0,0645776
3396,0303;0,0644539
3396,9944;0,0643437
3397,9587;0,0642357
3398,9229;0,0641152
3399,8872;0,0639703
3400,8513;0,0637972
3401,8157;0,0636026
3402,7798;0,0634013
3403,7441;0,0632086
3404,7083;0,0630341
3405,6726;0,0628773
3406,6367;0,0627297
3407,6011;0,0625806
3408,5652;0,0624224
3409,5295;0,0622526
3410,4937;0,0620726
3411,4580;0,0618859
3412,4221;0,0616971
3413,3865;0,061511
3414,3506;0,0613326
3415,3149;0,0611634
3416,2791;0,0609998
3417,2434;0,0608332
3418,2075;0,0606535
3419,1719;0,060455
3420,1360;0,0602398
3421,1003;0,0600166
3422,0645;0,0597954
3423,0288;0,0595823
3423,9929;0,0593775
3424,9573;0,0591775
3425,9214;0,058978
3426,8857;0,0587755
3427,8499;0,0585678
3428,8142;0,0583543
3429,7783;0,0581362
3430,7427;0,0579173
3431,7068;0,0577031
3432,6711;0,057498
3433,6353;0,0573033
3434,5996;0,057115
3435,5637;0,0569253
3436,5281;0,0567264
3437,4922;0,0565143
3438,4565;0,0562909
3439,4207;0,0560635
3440,3850;0,0558403
3441,3491;0,0556255
3442,3135;0,055415
3443,2776;0,0551981
3444,2419;0,0549636
3445,2061;0,0547082
3446,1704;0,0544402
3447,1345;0,0541765
3448,0989;0,053932
3449,0630;0,05371
3450,0273;0,0535013
3450,9915;0,0532917
3451,9558;0,0530711
3452,9199;0,052838
3453,8843;0,0525988
3454,8484;0,0523607
3455,8127;0,0521274
3456,7769;0,0518977
3457,7412;0,0516682
3458,7053;0,0514373
3459,6697;0,0512056
3460,6338;0,0509748
3461,5981;0,0507451
3462,5623;0,0505151
3463,5266;0,0502827
3464,4907;0,0500468
3465,4551;0,0498087
3466,4192;0,0495722
3467,3835;0,0493426
3468,3477;0,0491238
3469,3120;0,0489157
3470,2761;0,0487126
3471,2405;0,0485051
3472,2046;0,0482854
3473,1689;0,0480532
3474,1331;0,0478175
3475,0974;0,0475907
3476,0615;0,0473789
3477,0259;0,0471767
3477,9900;0,0469689
3478,9543;0,0467418
3479,9185;0,0464936
3480,8828;0,0462375
3481,8469;0,0459925
3482,8113;0,0457688
3483,7754;0,0455599
3484,7397;0,0453478
3485,7039;0,0451163
3486,6682;0,0448632
3487,6323;0,0446019
3488,5967;0,0443531
3489,5608;0,0441303
3490,5251;0,0439311
3491,4893;0,0437392
3492,4536;0,0435352
3493,4177;0,0433093
3494,3821;0,0430691
3495,3462;0,042837
3496,3105;0,0426365
3497,2747;0,0424756
3498,2390;0,0423385
3499,2031;0,0421914
3500,1675;0,0419993
3501,1316;0,041747
3502,0959;0,0414507
3503,0601;0,041151
3504,0244;0,040886
3504,9885;0,0406661
3505,9529;0,0404711
3506,9170;0,0402686
3507,8813;0,0400368
3508,8455;0,0397782
3509,8098;0,0395157
3510,7739;0,0392756
3511,7383;0,039069
3512,7024;0,0388881
3513,6667;0,0387166
3514,6309;0,0385437
3515,5952;0,0383694
3516,5593;0,0382009
3517,5237;0,0380423
3518,4878;0,0378887
3519,4521;0,0377267
3520,4163;0,037542
3521,3806;0,0373277
3522,3447;0,0370872
3523,3091;0,0368313
3524,2732;0,0365698
3525,2375;0,0363072
3526,2017;0,0360447
3527,1660;0,0357874
3528,1301;0,0355476
3529,0945;0,0353403
3530,0586;0,0351722
3531,0229;0,0350338
3531,9871;0,0349011
3532,9514;0,0347461
3533,9155;0,0345487
3534,8799;0,0343084
3535,8440;0,0340465
3536,8083;0,0337977
3537,7725;0,0335922
3538,7368;0,0334411
3539,7009;0,0333319
3540,6653;0,0332345
3541,6294;0,0331126
3542,5938;0,0329354
3543,5579;0,0326926
3544,5222;0,0324032
3545,4863;0,03211
3546,4507;0,0318539
3547,4148;0,0316478
3548,3792;0,0314729
3549,3433;0,0312946
3550,3076;0,0310842
3551,2717;0,0308343
3552,2361;0,0305646
3553,2002;0,03031
3554,1646;0,0300985
3555,1287;0,0299348
3556,0930;0,0298019
3557,0571;0,0296766
3558,0215;0,029546
3558,9856;0,0294167
3559,9500;0,0293099
3560,9141;0,0292421
3561,8784;0,0292036
3562,8425;0,0291481
3563,8069;0,0290002
3564,7710;0,028686
3565,7354;0,0281942
3566,6995;0,0276238
3567,6638;0,0271356
3568,6279;0,0268267
3569,5923;0,0266793
3570,5564;0,0266159
3571,5208;0,0265614
3572,4849;0,0264704
3573,4492;0,0263312
3574,4133;0,026158
3575,3777;0,0259729
3576,3418;0,0257889
3577,3062;0,0256063
3578,2703;0,0254263
3579,2346;0,0252652
3580,1987;0,0251518
3581,1631;0,0251073
3582,1272;0,0251209
3583,0916;0,0251395
3584,0557;0,0250769
3585,0200;0,0248467
3585,9841;0,0244241
3586,9485;0,023903
3587,9126;0,0234559
3588,8770;0,0231983
3589,8411;0,0231168
3590,8054;0,0231185
3591,7695;0,0231038
3592,7339;0,0230078
3593,6980;0,0228189
3594,6624;0,0225759
3595,6265;0,0223328
3596,5908;0,022114
3597,5549;0,021905
3598,5193;0,0216822
3599,4834;0,0214504
3600,4478;0,0212506
3601,4119;0,0211299
3602,3762;0,0211002
3603,3403;0,0211254
3604,3047;0,0211414
3605,2688;0,0210879
3606,2332;0,0209395
3607,1973;0,0207214
3608,1616;0,0204922
3609,1257;0,0202982
3610,0901;0,0201419
3611,0542;0,0199968
3612,0186;0,0198434
3612,9827;0,0196864
3613,9470;0,0195422
3614,9111;0,0194104
3615,8755;0,0192584
3616,8396;0,0190343
3617,8040;0,018709
3618,7681;0,0183228
3619,7324;0,0179856
3620,6965;0,0178063
3621,6609;0,0178216
3622,6250;0,0179944
3623,5894;0,0182483
3624,5535;0,0184845
3625,5178;0,0185784
3626,4819;0,0183958
3627,4463;0,0178791
3628,4104;0,017171
3629,3748;0,0165616
3630,3389;0,016227
3631,3032;0,0161281
3632,2673;0,0161388
3633,2317;0,0161583
3634,1958;0,0161389
3635,1602;0,0160768
3636,1243;0,015992
3637,0886;0,0159051
3638,0527;0,0158247
3639,0171;0,0157525
3639,9812;0,0156975
3640,9456;0,0156835
3641,9097;0,0157397
3642,8740;0,0158805
3643,8381;0,0160857
3644,8025;0,0162861
3645,7666;0,016354
3646,7310;0,0161236
3647,6951;0,0155069
3648,6594;0,014688
3649,6235;0,014057
3650,5879;0,0138132
3651,5520;0,0138558
3652,5164;0,013999
3653,4805;0,0141012
3654,4448;0,0140813
3655,4089;0,0139274
3656,3733;0,0137014
3657,3374;0,0135005
3658,3018;0,0133845
3659,2659;0,0133465
3660,2302;0,0133465
3661,1943;0,0133579
3662,1587;0,0133888
3663,1228;0,0134692
3664,0872;0,0136171
3665,0513;0,0138088
3666,0156;0,0139771
3666,9797;0,0140361
3667,9441;0,0139365
3668,9082;0,0137296
3669,8726;0,013553
3670,8367;0,013503
3671,8010;0,0135387
3672,7651;0,0135194
3673,7295;0,0133032
3674,6936;0,0128586
3675,6580;0,0123369
3676,6221;0,0119662
3677,5864;0,0118428
3678,5505;0,0119018
3679,5149;0,0120399
3680,4790;0,0121945
3681,4434;0,0123536
3682,4075;0,0125341
3683,3718;0,0127499
3684,3359;0,0129843
3685,3003;0,013175
3686,2644;0,013221
3687,2288;0,0130251
3688,1929;0,0125846
3689,1572;0,0120609
3690,1213;0,0116791
3691,0857;0,0115361
3692,0498;0,0115757
3693,0142;0,0117019
3693,9783;0,011853
3694,9426;0,0120084
3695,9067;0,012166
3696,8711;0,0123173
3697,8352;0,0124319
3698,7996;0,0124625
3699,7637;0,0123728
3700,7280;0,0121778
3701,6921;0,0119607
3702,6565;0,0118335
3703,6206;0,0118674
3704,5850;0,01206
3705,5491;0,012352
3706,5134;0,0126553
3707,4775;0,0128661
3708,4419;0,0128796
3709,4060;0,0126385
3710,3704;0,0122112
3711,3345;0,011795
3712,2988;0,011569
3713,2629;0,011569
3714,2273;0,0117251
3715,1914;0,0119493
3716,1558;0,0121737
3717,1199;0,0123539
3718,0842;0,0124681
3719,0483;0,0125171
3720,0127;0,0125173
3720,9768;0,0124847
3721,9412;0,0124212
3722,9053;0,0123212
3723,8696;0,0121943
3724,8337;0,012081
3725,7981;0,0120388
3726,7622;0,0121085
3727,7266;0,0122925
3728,6907;0,0125579
3729,6550;0,0128503
3730,6191;0,0130992
3731,5835;0,013221
3732,5476;0,0131332
3733,5120;0,0128059
3734,4761;0,0123329
3735,4404;0,0119193
3736,4045;0,0117393
3737,3689;0,0118275
3738,3330;0,0121149
3739,2974;0,0125012
3740,2615;0,012879
3741,2258;0,0131317
3742,1899;0,0131545
3743,1543;0,0129346
3744,1184;0,0126284
3745,0828;0,0124662
3746,0469;0,0125348
3747,0112;0,0127254
3747,9753;0,0128419
3748,9397;0,012711
3749,9038;0,0122987
3750,8682;0,0117992
3751,8323;0,0114948
3752,7966;0,0114882
3753,7607;0,0116817
3754,7251;0,0119273
3755,6892;0,0121074
3756,6536;0,0121545
3757,6177;0,0120691
3758,5820;0,0119267
3759,5461;0,0118326
3760,5105;0,0118471
3761,4746;0,0119584
3762,4390;0,0121125
3763,4031;0,0122512
3764,3674;0,0123338
3765,3315;0,0123423
3766,2959;0,0122785
3767,2600;0,0121557
3768,2244;0,0119947
3769,1885;0,0118287
3770,1528;0,0117044
3771,1169;0,0116667
3772,0813;0,0117343
3773,0454;0,0118895
3774,0098;0,012085
3774,9739;0,0122598
3775,9382;0,0123556
3776,9023;0,0123402
3777,8667;0,0122313
3778,8308;0,0120944
3779,7952;0,0119979
3780,7593;0,0119649
3781,7236;0,0119709
3782,6877;0,0119756
3783,6521;0,0119532
3784,6162;0,0119039
3785,5806;0,0118478
3786,5447;0,0118108
3787,5090;0,0118123
3788,4731;0,0118619
3789,4375;0,0119583
3790,4016;0,0120881
3791,3660;0,0122254
3792,3301;0,0123381
3793,2944;0,012404
3794,2585;0,0124281
3795,2229;0,0124449
3796,1870;0,012493
3797,1514;0,0125765
3798,1155;0,0126484
3799,0798;0,0126365
3800,0439;0,0125056
3801,0083;0,0123082
3801,9724;0,0121501
3802,9368;0,0120901
3803,9009;0,0120922
3804,8652;0,0120698
3805,8293;0,0119629
3806,7937;0,0117961
3807,7578;0,0116735
3808,7222;0,0116971
3809,6863;0,0118893
3810,6506;0,0121939
3811,6147;0,0125188
3812,5791;0,0127701
3813,5432;0,0128831
3814,5076;0,01286
3815,4717;0,0127765
3816,4360;0,0127149
3817,4001;0,0126853
3818,3645;0,012625
3819,3286;0,0124711
3820,2930;0,0122346
3821,2571;0,0120072
3822,2214;0,0118797
3823,1855;0,011869
3824,1499;0,0119339
3825,1140;0,0120255
3826,0784;0,0121155
3827,0425;0,012198
3828,0068;0,0122803
3828,9709;0,0123706
3829,9353;0,0124726
3830,8994;0,012586
3831,8638;0,0127097
3832,8279;0,0128366
3833,7922;0,0129449
3834,7563;0,0129925
3835,7207;0,0129317
3836,6848;0,0127426
3837,6492;0,012468
3838,6133;0,0122013
3839,5776;0,0120215
3840,5417;0,0119427
3841,5061;0,0119283
3842,4702;0,0119389
3843,4346;0,0119654
3844,3987;0,0120322
3845,3630;0,0121783
3846,3271;0,0124326
3847,2915;0,0127972
3848,2556;0,0132381
3849,2200;0,0136715
3850,1841;0,0139474
3851,1484;0,0138621
3852,1125;0,0132985
3853,0769;0,0124687
3854,0410;0,0118259
3855,0054;0,0115925
3855,9695;0,0116769
3856,9338;0,0119249
3857,8979;0,012231
3858,8623;0,0125233
3859,8264;0,0127418
3860,7908;0,0128406
3861,7549;0,0128153
3862,7192;0,0127234
3863,6833;0,0126586
3864,6477;0,0126844
3865,6118;0,0127927
3866,5762;0,0129196
3867,5403;0,0129844
3868,5046;0,012925
3869,4688;0,0127286
3870,4331;0,0124471
3871,3972;0,0121767
3872,3616;0,0120068
3873,3257;0,01198
3874,2900;0,0120866
3875,2542;0,0122813
3876,2185;0,0125015
3877,1826;0,0126843
3878,1470;0,0127847
3879,1111;0,0127941
3880,0754;0,0127441
3881,0396;0,0126792
3882,0039;0,0126188
3882,9680;0,0125512
3883,9324;0,0124663
3884,8965;0,0123867
3885,8608;0,0123587
3886,8250;0,0124075
3887,7893;0,0125055
3888,7534;0,0125825
3889,7178;0,0125694
3890,6819;0,0124531
3891,6462;0,0123052
3892,6104;0,0122386
3893,5747;0,0123184
3894,5388;0,0125264
3895,5032;0,0127946
3896,4673;0,0130482
3897,4316;0,013229
3898,3958;0,0133079
3899,3601;0,0132842
3900,3242;0,0131659
3901,2886;0,0129533
3902,2527;0,0126554
3903,2170;0,0123209
3904,1812;0,0120341
3905,1455;0,0118655
3906,1096;0,0118316
3907,0740;0,0119
3908,0381;0,0120218
3909,0024;0,012157
3909,9666;0,0122861
3910,9309;0,012408
3911,8950;0,0125279
3912,8594;0,0126426
3913,8235;0,0127329
3914,7878;0,0127712
3915,7520;0,0127417
3916,7163;0,0126599
3917,6804;0,0125704
3918,6448;0,0125168
3919,6089;0,0125101
3920,5732;0,0125264
3921,5374;0,0125284
3922,5017;0,0124929
3923,4658;0,0124296
3924,4302;0,0123781
3925,3943;0,0123798
3926,3586;0,0124459
3927,3228;0,0125487
3928,2871;0,0126379
3929,2512;0,0126654
3930,2156;0,0126105
3931,1797;0,012493
3932,1440;0,0123631
3933,1082;0,0122702
3934,0725;0,0122381
3935,0366;0,0122639
3936,0010;0,0123313
3936,9651;0,01242
3937,9294;0,0125091
3938,8936;0,0125787
3939,8579;0,0126148
3940,8220;0,0126169
3941,7864;0,0126018
3942,7505;0,0125941
3943,7148;0,0126086
3944,6790;0,0126382
3945,6433;0,0126581
3946,6074;0,0126427
3947,5718;0,0125835
3948,5359;0,0124986
3949,5002;0,012423
3950,4644;0,0123852
3951,4287;0,0123894
3952,3928;0,012417
3953,3572;0,0124437
3954,3213;0,0124556
3955,2856;0,0124553
3956,2498;0,0124553
3957,2141;0,0124659
3958,1782;0,012486
3959,1426;0,0125048
3960,1067;0,012511
3961,0710;0,0125023
3962,0352;0,0124875
3962,9995;0,0124791
3963,9636;0,0124846
3964,9280;0,0125013
3965,8921;0,01252
3966,8564;0,0125316
3967,8206;0,0125329
3968,7849;0,0125273
3969,7490;0,0125214
3970,7134;0,0125208
3971,6775;0,0125269
3972,6418;0,0125381
3973,6060;0,0125509
3974,5703;0,0125623
3975,5344;0,0125698
3976,4988;0,0125716
3977,4629;0,0125668
3978,4272;0,0125557
3979,3914;0,0125399
3980,3557;0,0125218
3981,3198;0,0125046
3982,2842;0,0124919
3983,2483;0,012487
3984,2126;0,0124918
3985,1768;0,0125058
3986,1411;0,0125257
3987,1052;0,0125463
3988,0696;0,012563
3989,0337;0,0125739
3989,9980;0,0125793
3990,9622;0,0125803
3991,9265;0,0125764
3992,8906;0,0125658
3993,8550;0,0125482
3994,8191;0,012527
3995,7834;0,0125091
3996,7476;0,0125012
3997,7119;0,0125051
3998,6760;0,012517
3999,6404;0,012531
4000,6045;0,0124635

##### Extended Information
[Comments]
Sample name
Comment
Username
Division
Organization;UNIVERSIDAD INDUSTRIAL DE SANTANDER

[Detailed Information]
Creation date;26/02/2025 6:00 p.m.

Data array type;Linear data array
Horizontal axis;Wavenumber [cm-1]
Vertical axis;Abs
Start;399,193 cm-1
End;4000,6 cm-1
Data interval;0,964233 cm-1
Data points;3736    

[Measurement Information]
Model name;FT/IR-4X1typeA
Serial No.;A035162111

Accessory;ATR PRO 4X
Accessory S/N;A021162126
Incident angle;45 deg

Measurement date;26/02/2025 6:00 p.m.

Light source;Standard
Detector;TGS
Accumulation;40
Resolution;4 cm-1
Zero filling;On
Apodization;Cosine
Gain;Auto (8)
Aperture;Auto (7 mm)
Scan speed;Auto (2 mm/sec)
Filter;Auto (12800 Hz)

