TITLE;
DATA TYPE;INFRARED SPECTRUM
ORIGIN;JASCO
OWNER;
DATE;25/02/26
TIME;18:30:11
SPECTROMETER/DATA SYSTEM;
LOCALE;9226
RESOLUTION;
DELTAX;0,964233
XUNITS;1/CM
YUNITS;ABSORBANCE
FIRSTX;  399,1927
LASTX; 4000,6047
NPOINTS;    3736
FIRSTY;     0,18380
MAXY;     0,24362
MINY;     0,01002
XYDATA
399,1927;0,183797
400,1569;0,184403
401,1211;0,183771
402,0854;0,182643
403,0496;0,181608
404,0138;0,180955
404,9781;0,180731
405,9423;0,180848
406,9065;0,181194
407,8708;0,181698
408,8350;0,182336
409,7992;0,183087
410,7635;0,183883
411,7277;0,184608
412,6919;0,185141
413,6562;0,185402
414,6204;0,185372
415,5846;0,1851
416,5489;0,184738
417,5131;0,1846
418,4773;0,185079
419,4416;0,186276
420,4058;0,187776
421,3700;0,189054
422,3343;0,189917
423,2985;0,190487
424,2627;0,19099
425,2270;0,191603
426,1912;0,192347
427,1554;0,19309
428,1197;0,193642
429,0839;0,193874
430,0481;0,193796
431,0124;0,193542
431,9766;0,193311
432,9408;0,19328
433,9051;0,193529
434,8693;0,194013
435,8335;0,194583
436,7978;0,195047
437,7620;0,19526
438,7262;0,19519
439,6905;0,194923
440,6547;0,194617
441,6189;0,19442
442,5832;0,194391
443,5474;0,194452
444,5116;0,19443
445,4759;0,194167
446,4401;0,193607
447,4043;0,192814
448,3686;0,191927
449,3328;0,191113
450,2970;0,190519
451,2613;0,190223
452,2255;0,190198
453,1897;0,190321
454,1540;0,190424
455,1182;0,19038
456,0824;0,190177
457,0467;0,189941
458,0109;0,189864
458,9751;0,190056
459,9394;0,190441
460,9036;0,190822
461,8678;0,191015
462,8321;0,190936
463,7963;0,190605
464,7605;0,190118
465,7248;0,1896
466,6890;0,189157
467,6532;0,188848
468,6175;0,188681
469,5817;0,188628
470,5459;0,188642
471,5102;0,188675
472,4744;0,188691
473,4386;0,188698
474,4029;0,188733
475,3671;0,188835
476,3313;0,18901
477,2956;0,189211
478,2598;0,189348
479,2240;0,189319
480,1883;0,189062
481,1525;0,188602
482,1167;0,188066
483,0810;0,187659
484,0452;0,187583
485,0094;0,187941
485,9737;0,188685
486,9379;0,189645
487,9021;0,190621
488,8664;0,191451
489,8306;0,192038
490,7948;0,192348
491,7591;0,1924
492,7233;0,192265
493,6875;0,192049
494,6518;0,191871
495,6160;0,191816
496,5802;0,19191
497,5445;0,19211
498,5087;0,192327
499,4729;0,192471
500,4372;0,192497
501,4014;0,192436
502,3656;0,192376
503,3299;0,192405
504,2941;0,192549
505,2583;0,19276
506,2226;0,192964
507,1868;0,193126
508,1510;0,193286
509,1153;0,19355
510,0795;0,194016
511,0437;0,194698
512,0080;0,195499
512,9722;0,196252
513,9365;0,196809
514,9007;0,197124
515,8649;0,197292
516,8292;0,197504
517,7934;0,197922
518,7576;0,198554
519,7219;0,199233
520,6861;0,199736
521,6503;0,199929
522,6146;0,199825
523,5788;0,199558
524,5430;0,199304
525,5073;0,199189
526,4715;0,199219
527,4357;0,199296
528,4000;0,1993
529,3642;0,199172
530,3284;0,19894
531,2927;0,198682
532,2569;0,198469
533,2211;0,19832
534,1854;0,198204
535,1496;0,198055
536,1138;0,197823
537,0781;0,197493
538,0423;0,197092
539,0065;0,196669
539,9708;0,196278
540,9350;0,195969
541,8992;0,195784
542,8635;0,195759
543,8277;0,195913
544,7919;0,196234
545,7562;0,196671
546,7204;0,197141
547,6846;0,197554
548,6489;0,197852
549,6131;0,198039
550,5773;0,198175
551,5416;0,198353
552,5058;0,198655
553,4700;0,199106
554,4343;0,199647
555,3985;0,200147
556,3627;0,200446
557,3270;0,200413
558,2912;0,199998
559,2554;0,199245
560,2197;0,198271
561,1839;0,197212
562,1481;0,196181
563,1124;0,195232
564,0766;0,194366
565,0408;0,193554
566,0051;0,19277
566,9693;0,192026
567,9335;0,191362
568,8978;0,190828
569,8620;0,190442
570,8262;0,190173
571,7905;0,189961
572,7547;0,189742
573,7189;0,189486
574,6832;0,189196
575,6474;0,188904
576,6116;0,188638
577,5759;0,188407
578,5401;0,188202
579,5043;0,188014
580,4686;0,187846
581,4328;0,187713
582,3970;0,187621
583,3613;0,187559
584,3255;0,187494
585,2897;0,187393
586,2540;0,18724
587,2182;0,187048
588,1824;0,18685
589,1467;0,186682
590,1109;0,186566
591,0751;0,186497
592,0394;0,186447
593,0036;0,186369
593,9678;0,18622
594,9321;0,185969
595,8963;0,185617
596,8605;0,185196
597,8248;0,18476
598,7890;0,184368
599,7532;0,184051
600,7175;0,18379
601,6817;0,183523
602,6459;0,183173
603,6102;0,182691
604,5744;0,182079
605,5386;0,181383
606,5029;0,180668
607,4671;0,179981
608,4313;0,179335
609,3956;0,178709
610,3598;0,17807
611,3240;0,177391
612,2883;0,176668
613,2525;0,175905
614,2167;0,175113
615,1810;0,174296
616,1452;0,173449
617,1094;0,172562
618,0737;0,171624
619,0379;0,170627
620,0021;0,169571
620,9664;0,168468
621,9306;0,167343
622,8948;0,166238
623,8591;0,165204
624,8233;0,164293
625,7875;0,163503
626,7518;0,162807
627,7160;0,162155
628,6802;0,161499
629,6445;0,160813
630,6087;0,160105
631,5729;0,159395
632,5372;0,158709
633,5014;0,158056
634,4656;0,157439
635,4299;0,156858
636,3941;0,156323
637,3583;0,155847
638,3226;0,155434
639,2868;0,155063
640,2510;0,154692
641,2153;0,154277
642,1795;0,153796
643,1437;0,153261
644,1080;0,152717
645,0722;0,152215
646,0364;0,151786
647,0007;0,151425
647,9649;0,151102
648,9291;0,15078
649,8934;0,150449
650,8576;0,150129
651,8218;0,149858
652,7861;0,149666
653,7503;0,149557
654,7145;0,149515
655,6788;0,149524
656,6430;0,149583
657,6072;0,149696
658,5715;0,149853
659,5357;0,150004
660,4999;0,150073
661,4642;0,150015
662,4284;0,149858
663,3926;0,149697
664,3569;0,149617
665,3211;0,149617
666,2853;0,149543
667,2496;0,149104
668,2138;0,148086
669,1780;0,146633
670,1423;0,145075
671,1065;0,143575
672,0707;0,142125
673,0350;0,140658
673,9992;0,139115
674,9634;0,137502
675,9277;0,135897
676,8919;0,134408
677,8561;0,13309
678,8204;0,131923
679,7846;0,130858
680,7488;0,129866
681,7131;0,128955
682,6773;0,128147
683,6415;0,127453
684,6058;0,126863
685,5700;0,126356
686,5342;0,125908
687,4985;0,125499
688,4627;0,125111
689,4269;0,124732
690,3912;0,124357
691,3554;0,12398
692,3196;0,123598
693,2839;0,123202
694,2481;0,122787
695,2123;0,122348
696,1766;0,12189
697,1408;0,121419
698,1050;0,120948
699,0693;0,12049
700,0335;0,120062
700,9977;0,119671
701,9620;0,119312
702,9262;0,118957
703,8904;0,118567
704,8547;0,118106
705,8189;0,117565
706,7831;0,116973
707,7474;0,116383
708,7116;0,115845
709,6758;0,115374
710,6401;0,114947
711,6043;0,114513
712,5685;0,114023
713,5328;0,113459
714,4970;0,112839
715,4612;0,112387
716,4255;0,111719
717,3897;0,111049
718,3539;0,110363
719,3182;0,109639
720,2824;0,10887
721,2466;0,108071
722,2109;0,107267
723,1751;0,106479
724,1393;0,105715
725,1036;0,10497
726,0678;0,104245
727,0320;0,103549
727,9963;0,102894
728,9605;0,102285
729,9247;0,10171
730,8890;0,101145
731,8532;0,100571
732,8174;0,0999865
733,7817;0,0994101
734,7459;0,0988664
735,7101;0,0983688
736,6744;0,0979102
737,6386;0,0974697
738,6028;0,0970265
739,5671;0,0965723
740,5313;0,0961119
741,4955;0,0956545
742,4598;0,0952042
743,4240;0,094757
744,3882;0,0943069
745,3525;0,0938532
746,3167;0,0934032
747,2809;0,0929665
748,2452;0,0925444
749,2094;0,0921241
750,1736;0,0916806
751,1379;0,0911881
752,1021;0,0906342
753,0663;0,0900289
754,0306;0,0894038
754,9948;0,0888004
755,9590;0,0882539
756,9233;0,0877794
757,8875;0,087368
758,8517;0,086994
759,8160;0,0866294
760,7802;0,0862572
761,7444;0,0858778
762,7087;0,0855033
763,6729;0,0851473
764,6371;0,0848145
765,6014;0,0844982
766,5656;0,084185
767,5298;0,0838628
768,4941;0,0835271
769,4583;0,0831815
770,4225;0,0828344
771,3868;0,0824955
772,3510;0,0821717
773,3152;0,0818657
774,2795;0,0815752
775,2437;0,0812933
776,2079;0,0810116
777,1722;0,0807248
778,1364;0,0804337
779,1006;0,0801453
780,0649;0,0798658
781,0291;0,0795948
781,9933;0,0793221
782,9576;0,0790332
783,9218;0,07872
784,8860;0,0783891
785,8503;0,0780619
786,8145;0,0777647
787,7787;0,0775146
788,7430;0,0773102
789,7072;0,0771324
790,6714;0,0769556
791,6357;0,0767617
792,5999;0,0765489
793,5641;0,0763317
794,5284;0,0761316
795,4926;0,0759647
796,4568;0,0758335
797,4211;0,0757255
798,3853;0,0756196
799,3495;0,0754961
800,3138;0,0753453
801,2780;0,0751715
802,2422;0,0749897
803,2065;0,074818
804,1707;0,0746684
805,1349;0,0745417
806,0992;0,0744285
807,0634;0,0743171
808,0276;0,0742017
808,9919;0,0740864
809,9561;0,0739821
810,9203;0,0738969
811,8846;0,0738285
812,8488;0,0737638
813,8130;0,0736859
814,7773;0,0735849
815,7415;0,0734627
816,7057;0,0733311
817,6700;0,0732034
818,6342;0,0730879
819,5984;0,0729871
820,5627;0,0729025
821,5269;0,0728389
822,4911;0,0728034
823,4554;0,0728003
824,4196;0,0728265
825,3839;0,0728714
826,3481;0,0729223
827,3123;0,0729688
828,2766;0,0730032
829,2408;0,0730169
830,2050;0,0729968
831,1693;0,0729267
832,1335;0,0727935
833,0977;0,0725947
834,0620;0,07234
835,0262;0,0720476
835,9904;0,0717378
836,9547;0,0714286
837,9189;0,0711348
838,8831;0,0708689
839,8474;0,0706386
840,8116;0,0704436
841,7758;0,0702735
842,7401;0,0701108
843,7043;0,069939
844,6685;0,0697505
845,6328;0,0695502
846,5970;0,069352
847,5612;0,0691731
848,5255;0,0690281
849,4897;0,0689269
850,4539;0,0688731
851,4182;0,0688629
852,3824;0,0688836
853,3466;0,0689147
854,3109;0,0689337
855,2751;0,068924
856,2393;0,0688812
857,2036;0,0688133
858,1678;0,0687353
859,1320;0,0686629
860,0963;0,0686082
861,0605;0,0685795
862,0247;0,0685834
862,9890;0,0686243
863,9532;0,0687042
864,9174;0,0688218
865,8817;0,0689723
866,8459;0,0691497
867,8101;0,0693463
868,7744;0,0695515
869,7386;0,0697507
870,7028;0,0699268
871,6671;0,0700664
872,6313;0,0701656
873,5955;0,0702321
874,5598;0,0702812
875,5240;0,070328
876,4882;0,0703821
877,4525;0,0704465
878,4167;0,0705231
879,3809;0,0706181
880,3452;0,0707449
881,3094;0,0709224
882,2736;0,0711705
883,2379;0,0715057
884,2021;0,0719377
885,1663;0,0724689
886,1306;0,0730947
887,0948;0,0738062
888,0590;0,0745926
889,0233;0,0754424
889,9875;0,0763414
890,9517;0,077268
891,9160;0,0781896
892,8802;0,0790637
893,8444;0,0798453
894,8087;0,0804967
895,7729;0,0809949
896,7371;0,0813312
897,7014;0,0815056
898,6656;0,0815211
899,6298;0,0813823
900,5941;0,0810995
901,5583;0,080694
902,5225;0,0801992
903,4868;0,0796566
904,4510;0,0791086
905,4152;0,0785924
906,3795;0,0781381
907,3437;0,0777683
908,3079;0,0774994
909,2722;0,0773407
910,2364;0,0772941
911,2007;0,0773543
912,1649;0,0775097
913,1292;0,0777461
914,0934;0,0780479
915,0576;0,0784005
916,0219;0,0787908
916,9861;0,0792082
917,9503;0,0796448
918,9146;0,0800942
919,8788;0,0805486
920,8430;0,0809975
921,8073;0,0814273
922,7715;0,0818236
923,7357;0,0821748
924,7000;0,082474
925,6642;0,0827194
926,6284;0,0829142
927,5927;0,083066
928,5569;0,083188
929,5211;0,083298
930,4854;0,0834148
931,4496;0,083553
932,4138;0,0837179
933,3781;0,0839065
934,3423;0,0841135
935,3065;0,0843408
936,2708;0,0846011
937,2350;0,0849155
938,1992;0,0853036
939,1635;0,085773
940,1277;0,0863159
941,0919;0,086913
942,0562;0,0875437
943,0204;0,0881958
943,9846;0,0888698
944,9489;0,0895772
945,9131;0,0903341
946,8773;0,0911552
947,8416;0,0920491
948,8058;0,0930181
949,7700;0,0940605
950,7343;0,0951757
951,6985;0,0963678
952,6627;0,0976462
953,6270;0,0990226
954,5912;0,100504
955,5554;0,102091
956,5197;0,103772
957,4839;0,105532
958,4481;0,107357
959,4124;0,109235
960,3766;0,111159
961,3408;0,113119
962,3051;0,115104
963,2693;0,117104
964,2335;0,119118
965,1978;0,121154
966,1620;0,123231
967,1262;0,125373
968,0905;0,127599
969,0547;0,129928
970,0189;0,132377
970,9832;0,134966
971,9474;0,137719
972,9116;0,140663
973,8759;0,143824
974,8401;0,147217
975,8043;0,150851
976,7686;0,154719
977,7328;0,158795
978,6970;0,163021
979,6613;0,167306
980,6255;0,171529
981,5897;0,175558
982,5540;0,179269
983,5182;0,182577
984,4824;0,185441
985,4467;0,187865
986,4109;0,189883
987,3751;0,191544
988,3394;0,192901
989,3036;0,194006
990,2678;0,194902
991,2321;0,195629
992,1963;0,19622
993,1605;0,19671
994,1248;0,197133
995,0890;0,197523
996,0532;0,197909
997,0175;0,198306
997,9817;0,198717
998,9459;0,199134
999,9102;0,199552
1000,8744;0,199981
1001,8386;0,200452
1002,8029;0,201008
1003,7671;0,201696
1004,7313;0,202559
1005,6956;0,203627
1006,6598;0,204919
1007,6240;0,206441
1008,5883;0,208188
1009,5525;0,210134
1010,5167;0,212235
1011,4810;0,214436
1012,4452;0,21668
1013,4094;0,218925
1014,3737;0,221142
1015,3379;0,22331
1016,3021;0,225412
1017,2664;0,227423
1018,2306;0,229317
1019,1948;0,231072
1020,1591;0,232684
1021,1233;0,234166
1022,0875;0,235547
1023,0518;0,236854
1024,0160;0,238105
1024,9802;0,239298
1025,9445;0,240417
1026,9087;0,241432
1027,8729;0,24231
1028,8372;0,243007
1029,8014;0,243467
1030,7656;0,243621
1031,7299;0,243394
1032,6941;0,242723
1033,6583;0,241586
1034,6226;0,240013
1035,5868;0,238096
1036,5510;0,235973
1037,5153;0,233805
1038,4795;0,231747
1039,4437;0,229928
1040,4080;0,228426
1041,3722;0,22727
1042,3364;0,226429
1043,3007;0,225829
1044,2649;0,225367
1045,2291;0,224935
1046,1934;0,224439
1047,1576;0,223814
1048,1218;0,223024
1049,0861;0,222056
1050,0503;0,220904
1051,0145;0,219563
1051,9788;0,218024
1052,9430;0,216282
1053,9072;0,214342
1054,8715;0,212218
1055,8357;0,209925
1056,7999;0,20746
1057,7642;0,204795
1058,7284;0,201887
1059,6926;0,198707
1060,6569;0,195267
1061,6211;0,191642
1062,5853;0,187959
1063,5496;0,184364
1064,5138;0,180981
1065,4780;0,177884
1066,4423;0,175087
1067,4065;0,172561
1068,3707;0,170255
1069,3350;0,168118
1070,2992;0,166106
1071,2634;0,164181
1072,2277;0,162304
1073,1919;0,160433
1074,1561;0,158527
1075,1204;0,156555
1076,0846;0,154504
1077,0488;0,152389
1078,0131;0,150246
1078,9773;0,148126
1079,9415;0,146083
1080,9058;0,144165
1081,8700;0,142406
1082,8342;0,14083
1083,7985;0,139447
1084,7627;0,138261
1085,7269;0,137264
1086,6912;0,136439
1087,6554;0,135761
1088,6196;0,1352
1089,5839;0,134734
1090,5481;0,134356
1091,5123;0,134073
1092,4766;0,1339
1093,4408;0,133849
1094,4050;0,133914
1095,3693;0,134078
1096,3335;0,134316
1097,2977;0,134604
1098,2620;0,134925
1099,2262;0,135264
1100,1904;0,135601
1101,1547;0,13591
1102,1189;0,136155
1103,0831;0,136305
1104,0474;0,136341
1105,0116;0,136254
1105,9758;0,136051
1106,9401;0,135743
1107,9043;0,135336
1108,8685;0,134827
1109,8328;0,134197
1110,7970;0,133418
1111,7612;0,132464
1112,7255;0,131327
1113,6897;0,130034
1114,6539;0,128644
1115,6182;0,12724
1116,5824;0,125901
1117,5466;0,124681
1118,5109;0,123591
1119,4751;0,122603
1120,4393;0,12165
1121,4036;0,120654
1122,3678;0,119536
1123,3320;0,11823
1124,2963;0,116702
1125,2605;0,114949
1126,2247;0,113
1127,1890;0,110908
1128,1532;0,108733
1129,1174;0,106526
1130,0817;0,104327
1131,0459;0,102161
1132,0101;0,100046
1132,9744;0,0980053
1133,9386;0,0960671
1134,9028;0,0942677
1135,8671;0,0926448
1136,8313;0,0912304
1137,7955;0,0900445
1138,7598;0,089091
1139,7240;0,0883568
1140,6882;0,0878141
1141,6525;0,0874264
1142,6167;0,087156
1143,5809;0,0869723
1144,5452;0,0868588
1145,5094;0,0868143
1146,4736;0,08685
1147,4379;0,0869814
1148,4021;0,0872192
1149,3663;0,0875626
1150,3306;0,0879966
1151,2948;0,0884946
1152,2590;0,0890226
1153,2233;0,089544
1154,1875;0,0900197
1155,1517;0,0904075
1156,1160;0,0906593
1157,0802;0,0907212
1158,0444;0,0905363
1159,0087;0,0900497
1159,9729;0,0892143
1160,9371;0,0879967
1161,9014;0,0863833
1162,8656;0,0843855
1163,8298;0,082044
1164,7941;0,0794289
1165,7583;0,0766348
1166,7225;0,0737699
1167,6868;0,0709415
1168,6510;0,0682419
1169,6152;0,0657385
1170,5795;0,0634707
1171,5437;0,0614525
1172,5079;0,0596796
1173,4722;0,0581358
1174,4364;0,0567995
1175,4006;0,0556476
1176,3649;0,0546589
1177,3291;0,0538162
1178,2933;0,053107
1179,2576;0,052522
1180,2218;0,0520525
1181,1860;0,0516869
1182,1503;0,0514102
1183,1145;0,0512067
1184,0787;0,0510643
1185,0430;0,0509788
1186,0072;0,0509545
1186,9714;0,0509999
1187,9357;0,0511231
1188,8999;0,0513267
1189,8641;0,0516078
1190,8284;0,0519617
1191,7926;0,0523859
1192,7568;0,0528824
1193,7211;0,0534558
1194,6853;0,0541076
1195,6495;0,0548326
1196,6138;0,0556172
1197,5780;0,0564426
1198,5422;0,0572899
1199,5065;0,0581435
1200,4707;0,0589963
1201,4349;0,0598421
1202,3992;0,0606771
1203,3634;0,0614968
1204,3276;0,0622962
1205,2919;0,0630721
1206,2561;0,0638262
1207,2203;0,0645681
1208,1846;0,0653154
1209,1488;0,0660921
1210,1130;0,0669226
1211,0773;0,0678254
1212,0415;0,0688068
1213,0057;0,0698595
1213,9700;0,0709652
1214,9342;0,0721013
1215,8984;0,0732465
1216,8627;0,0743841
1217,8269;0,0755016
1218,7911;0,0765887
1219,7554;0,0776367
1220,7196;0,0786382
1221,6838;0,0795878
1222,6481;0,0804818
1223,6123;0,0813169
1224,5765;0,0820896
1225,5408;0,0827973
1226,5050;0,0834401
1227,4692;0,0840224
1228,4335;0,0845513
1229,3977;0,0850331
1230,3619;0,08547
1231,3262;0,085858
1232,2904;0,0861895
1233,2546;0,0864579
1234,2189;0,0866618
1235,1831;0,0868067
1236,1473;0,0869031
1237,1116;0,0869629
1238,0758;0,0869957
1239,0400;0,0870062
1240,0043;0,0869943
1240,9685;0,0869552
1241,9327;0,0868811
1242,8970;0,0867629
1243,8612;0,0865913
1244,8254;0,0863596
1245,7897;0,0860657
1246,7539;0,0857137
1247,7181;0,0853137
1248,6824;0,0848801
1249,6466;0,0844281
1250,6108;0,083971
1251,5751;0,0835183
1252,5393;0,0830752
1253,5035;0,0826429
1254,4678;0,0822192
1255,4320;0,0817986
1256,3962;0,0813727
1257,3605;0,0809313
1258,3247;0,0804646
1259,2889;0,0799646
1260,2532;0,079425
1261,2174;0,0788414
1262,1816;0,0782097
1263,1459;0,077528
1264,1101;0,0767976
1265,0743;0,0760244
1266,0386;0,0752174
1267,0028;0,0743852
1267,9670;0,0735324
1268,9313;0,0726591
1269,8955;0,0717629
1270,8597;0,0708428
1271,8240;0,0699018
1272,7882;0,0689473
1273,7524;0,067989
1274,7167;0,0670383
1275,6809;0,0661075
1276,6451;0,0652082
1277,6094;0,0643489
1278,5736;0,0635311
1279,5378;0,0627479
1280,5021;0,0619867
1281,4663;0,0612365
1282,4305;0,0604948
1283,3948;0,0597706
1284,3590;0,0590809
1285,3232;0,0584438
1286,2875;0,0578719
1287,2517;0,05737
1288,2159;0,056936
1289,1802;0,0565658
1290,1444;0,0562568
1291,1086;0,0560091
1292,0729;0,0558247
1293,0371;0,055706
1294,0013;0,0556538
1294,9656;0,0556674
1295,9298;0,0557461
1296,8940;0,0558902
1297,8583;0,0561024
1298,8225;0,0563871
1299,7867;0,0567469
1300,7510;0,057179
1301,7152;0,0576743
1302,6794;0,0582191
1303,6437;0,0588009
1304,6079;0,0594121
1305,5721;0,060051
1306,5364;0,0607181
1307,5006;0,0614108
1308,4648;0,0621205
1309,4291;0,0628331
1310,3933;0,0635323
1311,3575;0,0642026
1312,3218;0,0648294
1313,2860;0,0653976
1314,2502;0,0658896
1315,2145;0,0662854
1316,1787;0,0665654
1317,1429;0,0667172
1318,1072;0,0667428
1319,0714;0,0666625
1320,0356;0,0665094
1320,9999;0,0663173
1321,9641;0,0661095
1322,9283;0,0658974
1323,8926;0,0656861
1324,8568;0,0654819
1325,8210;0,0652947
1326,7853;0,0651346
1327,7495;0,0650041
1328,7137;0,0648939
1329,6780;0,0647835
1330,6422;0,0646486
1331,6064;0,0644699
1332,5707;0,0642397
1333,5349;0,06396
1334,4991;0,0636345
1335,4634;0,0632601
1336,4276;0,062824
1337,3918;0,062313
1338,3561;0,0617326
1339,3203;0,0611206
1340,2845;0,0605369
1341,2488;0,0600321
1342,2130;0,0596244
1343,1772;0,0593044
1344,1415;0,0590523
1345,1057;0,0588536
1346,0699;0,0587065
1347,0342;0,0586221
1347,9984;0,0586183
1348,9626;0,0587111
1349,9269;0,0589049
1350,8911;0,0591903
1351,8553;0,0595474
1352,8196;0,0599563
1353,7838;0,0604054
1354,7480;0,0608938
1355,7123;0,0614252
1356,6765;0,0619993
1357,6407;0,0626076
1358,6050;0,0632361
1359,5692;0,0638701
1360,5334;0,0644951
1361,4977;0,0650954
1362,4619;0,0656547
1363,4261;0,0661615
1364,3904;0,0666147
1365,3546;0,0670217
1366,3188;0,0673898
1367,2831;0,0677198
1368,2473;0,0680037
1369,2115;0,0682258
1370,1758;0,0683652
1371,1400;0,0683972
1372,1042;0,0682963
1373,0685;0,0680487
1374,0327;0,0676677
1374,9969;0,0671954
1375,9612;0,0666742
1376,9254;0,0661102
1377,8896;0,0654682
1378,8539;0,064703
1379,8181;0,063803
1380,7823;0,0628133
1381,7466;0,0618162
1382,7108;0,0608794
1383,6750;0,0600142
1384,6393;0,0591783
1385,6035;0,0583198
1386,5677;0,0574376
1387,5320;0,0566067
1388,4962;0,0559269
1389,4604;0,0554425
1390,4247;0,0551228
1391,3889;0,0549002
1392,3531;0,0547102
1393,3174;0,0545146
1394,2816;0,054311
1395,2458;0,0541284
1396,2101;0,054006
1397,1743;0,0539697
1398,1385;0,0540239
1399,1028;0,0541585
1400,0670;0,0543562
1401,0313;0,0545972
1401,9955;0,0548633
1402,9597;0,0551427
1403,9240;0,0554354
1404,8882;0,0557538
1405,8524;0,0561145
1406,8167;0,0565263
1407,7809;0,0569871
1408,7451;0,0574905
1409,7094;0,058035
1410,6736;0,0586233
1411,6378;0,0592552
1412,6021;0,0599193
1413,5663;0,0605949
1414,5305;0,0612575
1415,4948;0,0618815
1416,4590;0,062438
1417,4232;0,062898
1418,3875;0,0632486
1419,3517;0,0635024
1420,3159;0,0636779
1421,2802;0,0637709
1422,2444;0,0637567
1423,2086;0,0636139
1424,1729;0,0633445
1425,1371;0,0629718
1426,1013;0,0625134
1427,0656;0,0619558
1428,0298;0,0612629
1428,9940;0,0604243
1429,9583;0,0595029
1430,9225;0,058616
1431,8867;0,057851
1432,8510;0,0571983
1433,8152;0,0565577
1434,7794;0,0558051
1435,7437;0,0548973
1436,7079;0,0539562
1437,6721;0,0531988
1438,6364;0,0527459
1439,6006;0,052563
1440,5648;0,0525556
1441,5291;0,0526516
1442,4933;0,052819
1443,4575;0,0530507
1444,4218;0,0533447
1445,3860;0,0536929
1446,3502;0,0540788
1447,3145;0,0544844
1448,2787;0,054895
1449,2429;0,0553023
1450,2072;0,055702
1451,1714;0,0560904
1452,1356;0,0564573
1453,0999;0,0567741
1454,0641;0,0569773
1455,0283;0,0569594
1455,9926;0,0566253
1456,9568;0,0560636
1457,9210;0,0555881
1458,8853;0,0554006
1459,8495;0,0554317
1460,8137;0,0555229
1461,7780;0,0555282
1462,7422;0,0553072
1463,7064;0,0547405
1464,6707;0,0538186
1465,6349;0,0527007
1466,5991;0,0516015
1467,5634;0,0506143
1468,5276;0,0496741
1469,4918;0,0486198
1470,4561;0,047256
1471,4203;0,0454441
1472,3845;0,0432687
1473,3488;0,0411134
1474,3130;0,0393749
1475,2772;0,0381323
1476,2415;0,0372277
1477,2057;0,036497
1478,1699;0,0358537
1479,1342;0,0352714
1480,0984;0,0347527
1481,0626;0,0343122
1482,0269;0,0339677
1482,9911;0,0337317
1483,9553;0,0336009
1484,9196;0,033552
1485,8838;0,0335464
1486,8480;0,0335463
1487,8123;0,0335449
1488,7765;0,033593
1489,7407;0,0337687
1490,7050;0,0341
1491,6692;0,0345513
1492,6334;0,0350785
1493,5977;0,0356597
1494,5619;0,0362919
1495,5261;0,0369832
1496,4904;0,0377481
1497,4546;0,0385933
1498,4188;0,0394938
1499,3831;0,0403978
1500,3473;0,0412618
1501,3115;0,0420643
1502,2758;0,0427913
1503,2400;0,0434146
1504,2042;0,0438693
1505,1685;0,0440405
1506,1327;0,0438221
1507,0969;0,0433056
1508,0612;0,0427909
1509,0254;0,0424276
1509,9896;0,0421532
1510,9539;0,0418801
1511,9181;0,0415493
1512,8823;0,0411115
1513,8466;0,0405238
1514,8108;0,0397716
1515,7750;0,038893
1516,7393;0,0379673
1517,7035;0,0370605
1518,6677;0,0361809
1519,6320;0,0352976
1520,5962;0,0344087
1521,5604;0,0335867
1522,5247;0,0329323
1523,4889;0,0324897
1524,4531;0,0322292
1525,4174;0,0320952
1526,3816;0,0320506
1527,3458;0,0320842
1528,3101;0,0321927
1529,2743;0,0323666
1530,2385;0,0325905
1531,2028;0,0328545
1532,1670;0,0331664
1533,1312;0,0335482
1534,0955;0,0340101
1535,0597;0,0345315
1536,0239;0,035071
1536,9882;0,0355731
1537,9524;0,0359512
1538,9166;0,0360753
1539,8809;0,0358584
1540,8451;0,0354615
1541,8093;0,035225
1542,7736;0,0352569
1543,7378;0,0354317
1544,7020;0,0356314
1545,6663;0,035809
1546,6305;0,0359583
1547,5947;0,0360842
1548,5590;0,036188
1549,5232;0,0362688
1550,4874;0,0363342
1551,4517;0,0364094
1552,4159;0,0365271
1553,3801;0,0367041
1554,3444;0,0369222
1555,3086;0,0371192
1556,2728;0,0371876
1557,2371;0,0370217
1558,2013;0,0366978
1559,1655;0,0365532
1560,1298;0,0367573
1561,0940;0,037164
1562,0582;0,0376353
1563,0225;0,0381281
1563,9867;0,038629
1564,9509;0,039117
1565,9152;0,0395636
1566,8794;0,0399553
1567,8436;0,0403207
1568,8079;0,0407286
1569,7721;0,0412316
1570,7363;0,0418154
1571,7006;0,0424235
1572,6648;0,0430109
1573,6290;0,0435652
1574,5933;0,0441047
1575,5575;0,0446713
1576,5217;0,0452998
1577,4860;0,0459771
1578,4502;0,0466601
1579,4144;0,04733
1580,3787;0,0479956
1581,3429;0,0486678
1582,3071;0,0493465
1583,2714;0,0500252
1584,2356;0,0507027
1585,1998;0,0513858
1586,1641;0,0520798
1587,1283;0,0527752
1588,0925;0,0534439
1589,0568;0,054047
1590,0210;0,0545478
1590,9852;0,0549193
1591,9495;0,055143
1592,9137;0,0552083
1593,8779;0,055118
1594,8422;0,0548963
1595,8064;0,0545844
1596,7706;0,0542235
1597,7349;0,0538382
1598,6991;0,0534331
1599,6633;0,0530046
1600,6276;0,0525552
1601,5918;0,0521029
1602,5560;0,0516771
1603,5203;0,0513047
1604,4845;0,0509934
1605,4487;0,0507264
1606,4130;0,0504717
1607,3772;0,0502041
1608,3414;0,0499286
1609,3057;0,0496865
1610,2699;0,0495287
1611,2341;0,0494773
1612,1984;0,0495087
1613,1626;0,0495622
1614,1268;0,0495622
1615,0911;0,0494585
1616,0553;0,0492842
1617,0195;0,0491554
1617,9838;0,0491609
1618,9480;0,0492861
1619,9122;0,0494586
1620,8765;0,0496064
1621,8407;0,049684
1622,8049;0,0496873
1623,7692;0,0496565
1624,7334;0,0496446
1625,6976;0,0496767
1626,6619;0,0497462
1627,6261;0,0498414
1628,5903;0,0499636
1629,5546;0,0501218
1630,5188;0,0503163
1631,4830;0,0505234
1632,4473;0,050687
1633,4115;0,05072
1634,3757;0,0505467
1635,3400;0,0502094
1636,3042;0,0499075
1637,2684;0,0498017
1638,2327;0,0498712
1639,1969;0,050024
1640,1611;0,0502016
1641,1254;0,0503833
1642,0896;0,0505555
1643,0538;0,0506828
1644,0181;0,0506938
1644,9823;0,050512
1645,9465;0,0501551
1646,9108;0,0497995
1647,8750;0,0496372
1648,8392;0,0496969
1649,8035;0,0498597
1650,7677;0,0499238
1651,7319;0,0496315
1652,6962;0,0488431
1653,6604;0,0478681
1654,6246;0,0471972
1655,5889;0,0468954
1656,5531;0,0467747
1657,5173;0,046688
1658,4816;0,0465452
1659,4458;0,0462678
1660,4100;0,0457897
1661,3743;0,0451114
1662,3385;0,0443507
1663,3027;0,0436813
1664,2670;0,0431975
1665,2312;0,0428651
1666,1954;0,0425649
1667,1597;0,0421491
1668,1239;0,0415086
1669,0881;0,0406678
1670,0524;0,0398124
1671,0166;0,0391337
1671,9808;0,0386576
1672,9451;0,0382662
1673,9093;0,0378239
1674,8735;0,0372755
1675,8378;0,036682
1676,8020;0,0361669
1677,7662;0,0358128
1678,7305;0,0356158
1679,6947;0,0355033
1680,6589;0,0353526
1681,6232;0,0349957
1682,5874;0,0342844
1683,5516;0,0332769
1684,5159;0,0323114
1685,4801;0,0316647
1686,4443;0,0313109
1687,4086;0,0311005
1688,3728;0,0309341
1689,3370;0,0307859
1690,3013;0,0306712
1691,2655;0,0306091
1692,2297;0,0305954
1693,1940;0,0305954
1694,1582;0,0305558
1695,1224;0,0304321
1696,0867;0,0302173
1697,0509;0,0299543
1698,0151;0,0297142
1698,9794;0,0295579
1699,9436;0,0295089
1700,9078;0,0295576
1701,8721;0,0296848
1702,8363;0,0298809
1703,8005;0,0301467
1704,7648;0,0304851
1705,7290;0,0308925
1706,6932;0,031357
1707,6575;0,0318635
1708,6217;0,0324055
1709,5859;0,0329884
1710,5502;0,0336195
1711,5144;0,0342933
1712,4786;0,034983
1713,4429;0,0356436
1714,4071;0,0362296
1715,3713;0,0367288
1716,3356;0,0371953
1717,2998;0,0377188
1718,2640;0,0383276
1719,2283;0,0389781
1720,1925;0,0396336
1721,1567;0,0402916
1722,1210;0,0409576
1723,0852;0,0416242
1724,0494;0,0422695
1725,0137;0,0428695
1725,9779;0,043412
1726,9421;0,0439014
1727,9064;0,044349
1728,8706;0,0447577
1729,8348;0,0451042
1730,7991;0,0453264
1731,7633;0,0453321
1732,7275;0,0450632
1733,6918;0,0445889
1734,6560;0,0440833
1735,6202;0,0436623
1736,5845;0,0433089
1737,5487;0,0429332
1738,5129;0,0424444
1739,4772;0,0417935
1740,4414;0,0409994
1741,4056;0,0401335
1742,3699;0,0392622
1743,3341;0,0384032
1744,2983;0,0375375
1745,2626;0,0366407
1746,2268;0,0356895
1747,1910;0,0346475
1748,1553;0,0334679
1749,1195;0,0321463
1750,0837;0,0307789
1751,0480;0,0295244
1752,0122;0,0284836
1752,9764;0,0276417
1753,9407;0,0269097
1754,9049;0,0261933
1755,8691;0,0254418
1756,8334;0,0246629
1757,7976;0,0238961
1758,7618;0,0231661
1759,7261;0,0224606
1760,6903;0,0217584
1761,6545;0,021073
1762,6188;0,0204606
1763,5830;0,0199761
1764,5472;0,0196291
1765,5115;0,0193816
1766,4757;0,0191755
1767,4399;0,0189575
1768,4042;0,0186887
1769,3684;0,0183425
1770,3326;0,0179086
1771,2969;0,0174138
1772,2611;0,0169392
1773,2253;0,0165835
1774,1896;0,0163934
1775,1538;0,0163422
1776,1180;0,0163642
1777,0823;0,0163925
1778,0465;0,01638
1779,0107;0,0163132
1779,9750;0,0162132
1780,9392;0,0161171
1781,9034;0,0160474
1782,8677;0,0159999
1783,8319;0,0159591
1784,7961;0,0159215
1785,7604;0,0159029
1786,7246;0,0159236
1787,6888;0,0159861
1788,6531;0,0160633
1789,6173;0,0161013
1790,5815;0,0160443
1791,5458;0,0158808
1792,5100;0,0156721
1793,4742;0,0155096
1794,4385;0,0154396
1795,4027;0,0154484
1796,3669;0,0154944
1797,3312;0,015535
1798,2954;0,0155399
1799,2596;0,0155001
1800,2239;0,0154303
1801,1881;0,0153582
1802,1523;0,0153055
1803,1166;0,0152799
1804,0808;0,0152783
1805,0450;0,0152922
1806,0093;0,0153096
1806,9735;0,0153157
1807,9377;0,0152959
1808,9020;0,0152436
1809,8662;0,0151675
1810,8304;0,0150913
1811,7947;0,0150401
1812,7589;0,0150265
1813,7231;0,0150452
1814,6874;0,0150797
1815,6516;0,0151124
1816,6158;0,015134
1817,5801;0,0151482
1818,5443;0,0151666
1819,5085;0,0151968
1820,4728;0,0152335
1821,4370;0,0152598
1822,4012;0,0152588
1823,3655;0,0152268
1824,3297;0,015178
1825,2939;0,015133
1826,2582;0,0150986
1827,2224;0,0150599
1828,1866;0,0149946
1829,1509;0,0148994
1830,1151;0,0148035
1831,0793;0,0147498
1832,0436;0,0147598
1833,0078;0,0148208
1833,9720;0,0149005
1834,9363;0,014967
1835,9005;0,0150059
1836,8647;0,0150263
1837,8290;0,015052
1838,7932;0,0151001
1839,7574;0,0151651
1840,7217;0,0152201
1841,6859;0,0152303
1842,6501;0,0151753
1843,6144;0,0150711
1844,5786;0,0149652
1845,5428;0,0148963
1846,5071;0,0148649
1847,4713;0,0148489
1848,4355;0,0148307
1849,3998;0,0148087
1850,3640;0,0147927
1851,3282;0,0147937
1852,2925;0,0148145
1853,2567;0,0148475
1854,2209;0,0148811
1855,1852;0,0149089
1856,1494;0,0149335
1857,1136;0,0149608
1858,0779;0,0149923
1859,0421;0,0150204
1860,0063;0,0150342
1860,9706;0,0150288
1861,9348;0,0150115
1862,8990;0,0149967
1863,8633;0,0149956
1864,8275;0,0150066
1865,7917;0,0150141
1866,7560;0,0149983
1867,7202;0,0149511
1868,6844;0,0148851
1869,6487;0,0148221
1870,6129;0,0147755
1871,5771;0,0147457
1872,5414;0,0147267
1873,5056;0,0147119
1874,4698;0,0146963
1875,4341;0,0146796
1876,3983;0,014668
1877,3625;0,0146714
1878,3268;0,0146961
1879,2910;0,0147392
1880,2552;0,0147879
1881,2195;0,0148255
1882,1837;0,0148414
1883,1479;0,0148379
1884,1122;0,0148274
1885,0764;0,0148219
1886,0406;0,0148223
1887,0049;0,0148174
1887,9691;0,0147935
1888,9333;0,0147483
1889,8976;0,0146978
1890,8618;0,0146656
1891,8260;0,0146667
1892,7903;0,0146984
1893,7545;0,0147455
1894,7188;0,0147919
1895,6830;0,0148313
1896,6472;0,0148674
1897,6115;0,0149057
1898,5757;0,0149426
1899,5399;0,0149635
1900,5042;0,0149504
1901,4684;0,0148949
1902,4326;0,0148074
1903,3969;0,0147156
1904,3611;0,0146509
1905,3253;0,014632
1906,2896;0,0146548
1907,2538;0,0146959
1908,2180;0,0147261
1909,1823;0,0147285
1910,1465;0,0147092
1911,1107;0,0146907
1912,0750;0,0146931
1913,0392;0,0147192
1914,0034;0,0147523
1914,9677;0,0147677
1915,9319;0,0147511
1916,8961;0,0147124
1917,8604;0,0146816
1918,8246;0,0146857
1919,7888;0,0147263
1920,7531;0,0147796
1921,7173;0,0148143
1922,6815;0,014813
1923,6458;0,0147812
1924,6100;0,0147407
1925,5742;0,0147126
1926,5385;0,0147046
1927,5027;0,0147121
1928,4669;0,0147276
1929,4312;0,0147491
1930,3954;0,014781
1931,3596;0,0148271
1932,3239;0,014883
1933,2881;0,0149336
1934,2523;0,014959
1935,2166;0,0149451
1936,1808;0,0148919
1937,1450;0,0148139
1938,1093;0,0147304
1939,0735;0,0146536
1940,0377;0,0145805
1941,0020;0,0144975
1941,9662;0,0143952
1942,9304;0,0142863
1943,8947;0,0142071
1944,8589;0,0141971
1945,8231;0,0142704
1946,7874;0,0144002
1947,7516;0,0145264
1948,7158;0,0145828
1949,6801;0,0145315
1950,6443;0,0143846
1951,6085;0,0141992
1952,5728;0,0140479
1953,5370;0,0139856
1954,5012;0,01403
1955,4655;0,0141622
1956,4297;0,0143391
1957,3939;0,0145078
1958,3582;0,0146169
1959,3224;0,0146274
1960,2866;0,0145272
1961,2509;0,0143402
1962,2151;0,0141208
1963,1793;0,0139325
1964,1436;0,0138213
1965,1078;0,0138
1966,0720;0,0138465
1967,0363;0,0139156
1968,0005;0,0139593
1968,9647;0,0139462
1969,9290;0,0138721
1970,8932;0,0137598
1971,8574;0,0136525
1972,8217;0,0136004
1973,7859;0,013643
1974,7501;0,0137893
1975,7144;0,0140057
1976,6786;0,0142273
1977,6428;0,01439
1978,6071;0,0144663
1979,5713;0,014477
1980,5355;0,0144742
1981,4998;0,0145098
1982,4640;0,0146094
1983,4282;0,0147596
1984,3925;0,014912
1985,3567;0,0150051
1986,3209;0,0149975
1987,2852;0,0148971
1988,2494;0,0147655
1989,2136;0,0146912
1990,1779;0,0147394
1991,1421;0,0149031
1992,1063;0,0150925
1993,0706;0,0151793
1994,0348;0,0150741
1994,9990;0,0147803
1995,9633;0,0143944
1996,9275;0,0140604
1997,8917;0,013907
1998,8560;0,0139942
1999,8202;0,0142927
2000,7844;0,0147061
2001,7487;0,0151215
2002,7129;0,0154548
2003,6771;0,0156683
2004,6414;0,0157631
2005,6056;0,0157606
2006,5698;0,015687
2007,5341;0,0155654
2008,4983;0,0154124
2009,4625;0,0152341
2010,4268;0,0150266
2011,3910;0,0147834
2012,3552;0,0145133
2013,3195;0,0142582
2014,2837;0,0140981
2015,2479;0,0141288
2016,2122;0,0144158
2017,1764;0,0149436
2018,1406;0,015599
2019,1049;0,0162068
2020,0691;0,0165992
2021,0333;0,0166795
2021,9976;0,0164513
2022,9618;0,0160056
2023,9260;0,0154791
2024,8903;0,0149994
2025,8545;0,0146451
2026,8187;0,0144369
2027,7830;0,0143595
2028,7472;0,0143931
2029,7114;0,0145322
2030,6757;0,0147786
2031,6399;0,0151226
2032,6041;0,0155302
2033,5684;0,0159514
2034,5326;0,0163397
2035,4968;0,0166639
2036,4611;0,0169004
2037,4253;0,0170164
2038,3895;0,0169693
2039,3538;0,0167331
2040,3180;0,0163387
2041,2822;0,015893
2042,2465;0,0155496
2043,2107;0,0154381
2044,1749;0,0155968
2045,1392;0,0159511
2046,1034;0,0163501
2047,0676;0,016641
2048,0320;0,0167409
2048,9961;0,0166626
2049,9604;0,0164845
2050,9246;0,0162942
2051,8889;0,0161512
2052,8530;0,0160789
2053,8174;0,0160747
2054,7815;0,016121
2055,7458;0,0161926
2056,7100;0,0162629
2057,6743;0,0163131
2058,6384;0,01634
2059,6028;0,0163575
2060,5669;0,0163869
2061,5313;0,0164414
2062,4954;0,0165135
2063,4597;0,0165769
2064,4238;0,0166013
2065,3882;0,0165718
2066,3523;0,0164983
2067,3167;0,0164099
2068,2808;0,0163384
2069,2451;0,0163043
2070,2092;0,0163117
2071,1736;0,0163525
2072,1377;0,0164134
2073,1021;0,0164806
2074,0662;0,0165417
2075,0305;0,0165867
2075,9946;0,0166102
2076,9590;0,0166133
2077,9231;0,0166039
2078,8875;0,0165932
2079,8516;0,0165918
2080,8159;0,0166055
2081,7800;0,0166353
2082,7444;0,0166779
2083,7085;0,0167265
2084,6729;0,0167713
2085,6370;0,0168006
2086,6013;0,0168038
2087,5654;0,0167766
2088,5298;0,0167247
2089,4939;0,0166623
2090,4583;0,0166075
2091,4224;0,0165747
2092,3867;0,01657
2093,3508;0,0165915
2094,3152;0,0166317
2095,2793;0,0166816
2096,2437;0,0167331
2097,2078;0,0167794
2098,1721;0,0168159
2099,1362;0,0168401
2100,1006;0,0168505
2101,0647;0,0168479
2102,0291;0,0168302
2102,9932;0,0167937
2103,9575;0,0167363
2104,9216;0,0166616
2105,8860;0,0165843
2106,8501;0,0165296
2107,8145;0,0165265
2108,7786;0,0165941
2109,7429;0,0167299
2110,7070;0,0169039
2111,6714;0,0170668
2112,6355;0,0171678
2113,5999;0,0171762
2114,5640;0,0170959
2115,5283;0,0169652
2116,4924;0,016841
2117,4568;0,0167749
2118,4209;0,0167925
2119,3853;0,0168852
2120,3494;0,0170175
2121,3137;0,0171441
2122,2778;0,0172295
2123,2422;0,017259
2124,2063;0,0172388
2125,1707;0,0171879
2126,1348;0,0171274
2127,0991;0,0170709
2128,0632;0,0170222
2129,0276;0,0169771
2129,9917;0,0169305
2130,9561;0,0168828
2131,9202;0,0168437
2132,8845;0,0168283
2133,8486;0,0168469
2134,8130;0,0168943
2135,7771;0,0169482
2136,7415;0,0169818
2137,7056;0,016985
2138,6699;0,0169762
2139,6340;0,0169972
2140,5984;0,0170885
2141,5625;0,0172636
2142,5269;0,0174961
2143,4910;0,0177302
2144,4553;0,0179056
2145,4194;0,0179826
2146,3838;0,0179525
2147,3479;0,0178312
2148,3123;0,0176472
2149,2764;0,0174331
2150,2407;0,0172266
2151,2048;0,0170699
2152,1692;0,0170029
2153,1333;0,0170497
2154,0977;0,0172068
2155,0618;0,0174426
2156,0261;0,0177069
2156,9902;0,0179441
2157,9546;0,0181034
2158,9187;0,0181486
2159,8831;0,0180682
2160,8472;0,0178834
2161,8115;0,0176427
2162,7756;0,0174042
2163,7400;0,0172098
2164,7041;0,0170661
2165,6685;0,0169462
2166,6326;0,016817
2167,5969;0,0166772
2168,5610;0,0165741
2169,5254;0,0165813
2170,4895;0,0167484
2171,4539;0,0170535
2172,4180;0,0173948
2173,3823;0,0176328
2174,3464;0,0176622
2175,3108;0,0174701
2176,2749;0,0171385
2177,2393;0,0167927
2178,2034;0,0165336
2179,1677;0,0164001
2180,1318;0,0163769
2181,0962;0,0164303
2182,0603;0,0165387
2183,0247;0,0166968
2183,9888;0,0168947
2184,9531;0,0170992
2185,9172;0,0172571
2186,8816;0,0173222
2187,8457;0,017285
2188,8101;0,0171825
2189,7742;0,0170781
2190,7385;0,0170241
2191,7026;0,0170322
2192,6670;0,0170709
2193,6311;0,0170925
2194,5955;0,0170695
2195,5596;0,0170159
2196,5239;0,0169793
2197,4880;0,0170092
2198,4524;0,0171243
2199,4165;0,0173011
2200,3809;0,017488
2201,3450;0,0176329
2202,3093;0,0177048
2203,2734;0,0176961
2204,2378;0,017613
2205,2019;0,0174654
2206,1663;0,0172676
2207,1304;0,0170462
2208,0947;0,0168423
2209,0588;0,0167017
2210,0232;0,0166545
2210,9873;0,0166993
2211,9517;0,0168039
2212,9158;0,0169232
2213,8801;0,0170233
2214,8442;0,0170954
2215,8086;0,0171542
2216,7727;0,0172223
2217,7371;0,0173128
2218,7012;0,0174191
2219,6655;0,0175165
2220,6296;0,0175725
2221,5940;0,0175608
2222,5581;0,0174741
2223,5225;0,0173289
2224,4866;0,0171618
2225,4509;0,0170155
2226,4150;0,0169236
2227,3794;0,0168985
2228,3435;0,0169316
2229,3079;0,0170005
2230,2720;0,017081
2231,2363;0,0171547
2232,2004;0,0172108
2233,1648;0,0172446
2234,1289;0,0172561
2235,0933;0,0172497
2236,0574;0,0172335
2237,0217;0,0172173
2237,9858;0,0172093
2238,9502;0,0172145
2239,9143;0,0172339
2240,8787;0,0172647
2241,8428;0,0173008
2242,8071;0,0173327
2243,7712;0,0173509
2244,7356;0,0173506
2245,6997;0,0173363
2246,6641;0,0173204
2247,6282;0,0173157
2248,5925;0,0173267
2249,5566;0,0173462
2250,5210;0,0173612
2251,4851;0,0173623
2252,4495;0,0173499
2253,4136;0,017331
2254,3779;0,0173099
2255,3420;0,0172827
2256,3064;0,0172406
2257,2705;0,0171792
2258,2349;0,0171066
2259,1990;0,0170406
2260,1633;0,0169995
2261,1274;0,0169914
2262,0918;0,0170118
2263,0559;0,017047
2264,0203;0,0170817
2264,9844;0,0171041
2265,9487;0,0171078
2266,9128;0,0170929
2267,8772;0,0170666
2268,8413;0,017042
2269,8057;0,0170332
2270,7698;0,0170464
2271,7341;0,0170746
2272,6982;0,0171013
2273,6626;0,017111
2274,6267;0,017101
2275,5911;0,0170844
2276,5552;0,017082
2277,5195;0,0171086
2278,4836;0,0171648
2279,4480;0,0172377
2280,4121;0,0173107
2281,3765;0,0173714
2282,3406;0,0174152
2283,3049;0,0174418
2284,2690;0,0174518
2285,2334;0,0174472
2286,1975;0,0174338
2287,1619;0,017423
2288,1260;0,0174293
2289,0903;0,0174634
2290,0544;0,0175277
2291,0188;0,0176147
2291,9829;0,0177122
2292,9473;0,0178095
2293,9114;0,0179014
2294,8757;0,0179877
2295,8398;0,0180689
2296,8042;0,0181439
2297,7683;0,0182103
2298,7327;0,0182673
2299,6968;0,0183183
2300,6611;0,0183711
2301,6252;0,0184342
2302,5896;0,0185121
2303,5537;0,0186033
2304,5181;0,0187007
2305,4822;0,018794
2306,4465;0,018873
2307,4106;0,0189304
2308,3750;0,018964
2309,3391;0,0189786
2310,3035;0,0189849
2311,2676;0,0189962
2312,2319;0,0190213
2313,1960;0,0190593
2314,1604;0,0190989
2315,1245;0,0191249
2316,0889;0,0191268
2317,0530;0,0191054
2318,0173;0,0190734
2318,9814;0,0190481
2319,9458;0,0190417
2320,9099;0,019054
2321,8743;0,0190736
2322,8384;0,0190864
2323,8027;0,019084
2324,7668;0,0190637
2325,7312;0,0190223
2326,6953;0,0189511
2327,6597;0,0188372
2328,6238;0,0186728
2329,5881;0,0184678
2330,5522;0,0182558
2331,5166;0,0180834
2332,4807;0,0179859
2333,4451;0,0179668
2334,4092;0,0179942
2335,3735;0,0180165
2336,3376;0,017988
2337,3020;0,0178929
2338,2661;0,0177537
2339,2305;0,0176154
2340,1946;0,0175145
2341,1589;0,0174584
2342,1230;0,0174339
2343,0874;0,0174385
2344,0515;0,017499
2345,0159;0,0176499
2345,9800;0,0178934
2346,9443;0,0181921
2347,9084;0,0184907
2348,8728;0,0187359
2349,8369;0,0188853
2350,8013;0,0189151
2351,7654;0,0188324
2352,7297;0,018691
2353,6938;0,0185832
2354,6582;0,018587
2355,6223;0,0187016
2356,5867;0,0188395
2357,5508;0,0188877
2358,5151;0,0187801
2359,4792;0,018531
2360,4436;0,0182156
2361,4077;0,0179188
2362,3721;0,017696
2363,3362;0,0175643
2364,3005;0,0175155
2365,2646;0,017531
2366,2290;0,0175924
2367,1931;0,0176861
2368,1575;0,0178013
2369,1216;0,0179256
2370,0859;0,0180414
2371,0500;0,0181303
2372,0144;0,0181804
2372,9785;0,0181936
2373,9429;0,0181838
2374,9070;0,0181687
2375,8713;0,0181603
2376,8354;0,0181597
2377,7998;0,0181597
2378,7639;0,0181516
2379,7283;0,0181318
2380,6924;0,0181027
2381,6567;0,0180708
2382,6208;0,018042
2383,5852;0,0180189
2384,5493;0,0180012
2385,5137;0,0179882
2386,4778;0,0179803
2387,4421;0,0179792
2388,4063;0,0179862
2389,3706;0,0179996
2390,3347;0,0180142
2391,2991;0,0180226
2392,2632;0,0180192
2393,2275;0,0180039
2394,1917;0,0179827
2395,1560;0,0179648
2396,1201;0,0179582
2397,0845;0,0179659
2398,0486;0,0179857
2399,0129;0,018013
2399,9771;0,0180452
2400,9414;0,018083
2401,9055;0,0181284
2402,8699;0,0181804
2403,8340;0,0182316
2404,7983;0,0182695
2405,7625;0,018282
2406,7268;0,0182654
2407,6909;0,0182285
2408,6553;0,0181904
2409,6194;0,0181716
2410,5837;0,0181846
2411,5479;0,0182279
2412,5122;0,0182871
2413,4763;0,0183437
2414,4407;0,0183843
2415,4048;0,018407
2416,3691;0,0184194
2417,3333;0,0184313
2418,2976;0,0184471
2419,2617;0,0184628
2420,2261;0,0184703
2421,1902;0,0184654
2422,1545;0,0184532
2423,1187;0,0184466
2424,0830;0,0184591
2425,0471;0,0184953
2426,0115;0,0185477
2426,9756;0,0185999
2427,9399;0,0186364
2428,9041;0,0186502
2429,8684;0,0186457
2430,8325;0,0186347
2431,7969;0,0186302
2432,7610;0,0186406
2433,7253;0,0186674
2434,6895;0,0187066
2435,6538;0,0187512
2436,6179;0,0187933
2437,5823;0,0188267
2438,5464;0,0188482
2439,5107;0,0188591
2440,4749;0,0188646
2441,4392;0,0188721
2442,4033;0,0188882
2443,3677;0,0189162
2444,3318;0,0189547
2445,2961;0,0189973
2446,2603;0,0190353
2447,2246;0,0190607
2448,1887;0,0190696
2449,1531;0,0190644
2450,1172;0,0190537
2451,0815;0,0190483
2452,0457;0,0190562
2453,0100;0,0190784
2453,9741;0,0191091
2454,9385;0,019139
2455,9026;0,0191606
2456,8669;0,0191724
2457,8311;0,0191783
2458,7954;0,0191842
2459,7595;0,0191949
2460,7239;0,0192113
2461,6880;0,0192316
2462,6523;0,0192532
2463,6165;0,0192746
2464,5808;0,0192959
2465,5449;0,0193171
2466,5093;0,0193373
2467,4734;0,0193533
2468,4377;0,0193612
2469,4019;0,0193586
2470,3662;0,0193473
2471,3303;0,0193339
2472,2947;0,0193276
2473,2588;0,0193357
2474,2231;0,0193593
2475,1873;0,0193924
2476,1516;0,0194258
2477,1157;0,0194532
2478,0801;0,019475
2479,0442;0,0194972
2480,0085;0,0195262
2480,9727;0,0195623
2481,9370;0,0195986
2482,9011;0,0196252
2483,8655;0,0196364
2484,8296;0,0196356
2485,7939;0,0196331
2486,7581;0,0196401
2487,7224;0,0196615
2488,6865;0,019694
2489,6509;0,0197287
2490,6150;0,019757
2491,5793;0,0197749
2492,5435;0,019783
2493,5078;0,0197854
2494,4719;0,0197869
2495,4363;0,0197918
2496,4004;0,0198037
2497,3647;0,0198237
2498,3289;0,0198488
2499,2932;0,0198716
2500,2573;0,0198825
2501,2217;0,0198757
2502,1858;0,0198536
2503,1501;0,0198275
2504,1143;0,0198125
2505,0786;0,0198193
2506,0427;0,0198484
2507,0071;0,0198913
2507,9712;0,0199362
2508,9355;0,0199751
2509,8997;0,0200056
2510,8640;0,0200292
2511,8281;0,0200461
2512,7925;0,0200547
2513,7566;0,0200539
2514,7209;0,0200467
2515,6851;0,020041
2516,6494;0,020045
2517,6135;0,0200611
2518,5779;0,0200835
2519,5420;0,0201017
2520,5063;0,0201082
2521,4705;0,0201044
2522,4348;0,0201
2523,3989;0,0201071
2524,3633;0,020132
2525,3274;0,0201717
2526,2917;0,0202159
2527,2559;0,020253
2528,2202;0,020276
2529,1843;0,0202839
2530,1487;0,0202796
2531,1128;0,0202671
2532,0771;0,0202495
2533,0413;0,0202294
2534,0056;0,0202101
2534,9697;0,0201962
2535,9341;0,0201921
2536,8982;0,0201999
2537,8625;0,0202176
2538,8267;0,0202398
2539,7910;0,0202603
2540,7551;0,0202755
2541,7195;0,0202861
2542,6836;0,0202961
2543,6479;0,0203093
2544,6121;0,0203269
2545,5764;0,0203462
2546,5405;0,0203629
2547,5049;0,020374
2548,4690;0,0203792
2549,4333;0,0203814
2550,3975;0,0203841
2551,3618;0,02039
2552,3259;0,0204004
2553,2903;0,0204149
2554,2544;0,0204322
2555,2188;0,0204499
2556,1829;0,0204643
2557,1472;0,020472
2558,1113;0,0204715
2559,0757;0,0204644
2560,0398;0,0204555
2561,0042;0,0204498
2561,9683;0,0204501
2562,9326;0,0204555
2563,8967;0,0204638
2564,8611;0,020473
2565,8252;0,0204834
2566,7896;0,0204971
2567,7537;0,0205153
2568,7180;0,0205373
2569,6821;0,0205609
2570,6465;0,0205839
2571,6106;0,0206058
2572,5750;0,0206274
2573,5391;0,0206493
2574,5034;0,0206701
2575,4675;0,020686
2576,4319;0,0206928
2577,3960;0,0206883
2578,3604;0,0206741
2579,3245;0,020656
2580,2888;0,0206424
2581,2529;0,0206413
2582,2173;0,0206574
2583,1814;0,0206902
2584,1458;0,0207333
2585,1099;0,020776
2586,0742;0,0208076
2587,0383;0,0208208
2588,0027;0,0208147
2588,9668;0,0207955
2589,9312;0,0207737
2590,8953;0,0207603
2591,8596;0,0207617
2592,8237;0,0207784
2593,7881;0,0208044
2594,7522;0,0208316
2595,7166;0,0208536
2596,6807;0,0208698
2597,6450;0,0208855
2598,6091;0,0209087
2599,5735;0,0209448
2600,5376;0,0209928
2601,5020;0,0210449
2602,4661;0,0210907
2603,4304;0,0211225
2604,3945;0,0211388
2605,3589;0,0211441
2606,3230;0,0211451
2607,2874;0,0211468
2608,2515;0,0211505
2609,2158;0,0211552
2610,1799;0,0211601
2611,1443;0,0211671
2612,1084;0,0211801
2613,0728;0,0212033
2614,0369;0,0212385
2615,0012;0,0212843
2615,9653;0,0213369
2616,9297;0,021391
2617,8938;0,0214423
2618,8582;0,0214877
2619,8223;0,0215257
2620,7866;0,0215554
2621,7507;0,0215771
2622,7151;0,0215916
2623,6792;0,0216007
2624,6436;0,0216071
2625,6077;0,0216141
2626,5720;0,0216242
2627,5361;0,0216386
2628,5005;0,0216564
2629,4646;0,0216758
2630,4290;0,0216958
2631,3931;0,0217169
2632,3574;0,0217408
2633,3215;0,0217693
2634,2859;0,0218021
2635,2500;0,0218365
2636,2144;0,0218687
2637,1785;0,021896
2638,1428;0,0219189
2639,1069;0,0219405
2640,0713;0,0219655
2641,0354;0,021997
2641,9998;0,0220348
2642,9639;0,0220761
2643,9282;0,0221169
2644,8923;0,0221544
2645,8567;0,0221884
2646,8208;0,0222203
2647,7852;0,0222514
2648,7493;0,0222815
2649,7136;0,0223083
2650,6777;0,022329
2651,6421;0,0223428
2652,6062;0,0223525
2653,5706;0,022364
2654,5347;0,0223833
2655,4990;0,0224138
2656,4631;0,022454
2657,4275;0,0224983
2658,3916;0,0225397
2659,3560;0,0225732
2660,3201;0,022598
2661,2844;0,0226166
2662,2485;0,0226333
2663,2129;0,0226515
2664,1770;0,0226727
2665,1414;0,0226962
2666,1055;0,0227205
2667,0698;0,0227444
2668,0339;0,0227672
2668,9983;0,0227896
2669,9624;0,0228125
2670,9268;0,0228366
2671,8909;0,0228624
2672,8552;0,0228896
2673,8193;0,0229174
2674,7837;0,0229444
2675,7478;0,0229697
2676,7122;0,0229927
2677,6763;0,0230143
2678,6406;0,0230363
2679,6047;0,0230611
2680,5691;0,0230906
2681,5332;0,0231256
2682,4976;0,0231653
2683,4617;0,0232073
2684,4260;0,0232488
2685,3901;0,0232871
2686,3545;0,0233205
2687,3186;0,0233481
2688,2830;0,023371
2689,2471;0,0233915
2690,2114;0,0234133
2691,1755;0,02344
2692,1399;0,0234739
2693,1040;0,0235144
2694,0684;0,0235583
2695,0325;0,0236008
2695,9968;0,0236379
2696,9609;0,0236682
2697,9253;0,0236934
2698,8894;0,023717
2699,8538;0,0237426
2700,8179;0,0237726
2701,7822;0,0238073
2702,7463;0,0238454
2703,7107;0,0238854
2704,6748;0,0239256
2705,6392;0,0239654
2706,6033;0,0240046
2707,5676;0,0240433
2708,5317;0,0240817
2709,4961;0,0241195
2710,4602;0,0241565
2711,4246;0,0241925
2712,3887;0,0242276
2713,3530;0,0242623
2714,3171;0,0242972
2715,2815;0,024332
2716,2456;0,0243664
2717,2100;0,0243997
2718,1741;0,0244313
2719,1384;0,0244609
2720,1025;0,0244876
2721,0669;0,0245106
2722,0310;0,0245295
2722,9954;0,0245462
2723,9595;0,0245652
2724,9238;0,0245928
2725,8879;0,0246334
2726,8523;0,0246867
2727,8164;0,0247465
2728,7808;0,0248026
2729,7449;0,0248458
2730,7092;0,0248721
2731,6733;0,0248846
2732,6377;0,024891
2733,6018;0,0248992
2734,5662;0,0249136
2735,5303;0,0249349
2736,4946;0,0249608
2737,4587;0,0249896
2738,4231;0,0250211
2739,3872;0,0250558
2740,3516;0,0250933
2741,3157;0,0251313
2742,2800;0,0251656
2743,2441;0,0251926
2744,2085;0,0252108
2745,1726;0,0252218
2746,1370;0,0252298
2747,1011;0,0252394
2748,0654;0,0252533
2749,0295;0,025272
2749,9939;0,025294
2750,9580;0,0253177
2751,9224;0,0253432
2752,8865;0,0253726
2753,8508;0,0254087
2754,8149;0,0254527
2755,7793;0,0255029
2756,7434;0,0255548
2757,7078;0,0256033
2758,6719;0,0256456
2759,6362;0,025682
2760,6003;0,025715
2761,5647;0,0257477
2762,5288;0,0257809
2763,4932;0,0258132
2764,4573;0,0258431
2765,4216;0,0258708
2766,3857;0,0258999
2767,3501;0,0259353
2768,3142;0,0259805
2769,2786;0,0260347
2770,2427;0,0260929
2771,2070;0,0261479
2772,1711;0,0261942
2773,1355;0,0262315
2774,0996;0,0262644
2775,0640;0,0263003
2776,0281;0,0263449
2776,9924;0,0263997
2777,9565;0,0264614
2778,9209;0,0265243
2779,8850;0,0265835
2780,8494;0,0266369
2781,8135;0,0266852
2782,7778;0,0267303
2783,7419;0,026774
2784,7063;0,0268172
2785,6704;0,0268604
2786,6348;0,0269052
2787,5989;0,0269542
2788,5632;0,0270103
2789,5273;0,027076
2790,4917;0,0271521
2791,4558;0,027238
2792,4202;0,0273312
2793,3843;0,0274281
2794,3486;0,0275237
2795,3127;0,0276134
2796,2771;0,0276944
2797,2412;0,0277672
2798,2056;0,0278366
2799,1697;0,0279097
2800,1340;0,0279933
2801,0981;0,0280908
2802,0625;0,0282009
2803,0266;0,0283184
2803,9910;0,0284363
2804,9551;0,0285481
2805,9194;0,0286505
2806,8835;0,0287436
2807,8479;0,0288311
2808,8120;0,0289188
2809,7764;0,0290129
2810,7405;0,0291181
2811,7048;0,0292354
2812,6689;0,029363
2813,6333;0,0294971
2814,5974;0,0296347
2815,5618;0,0297751
2816,5259;0,0299205
2817,4902;0,0300737
2818,4543;0,0302363
2819,4187;0,030406
2820,3828;0,0305779
2821,3472;0,0307464
2822,3113;0,0309082
2823,2756;0,0310655
2824,2397;0,0312247
2825,2041;0,0313947
2826,1682;0,031583
2827,1326;0,0317932
2828,0967;0,0320253
2829,0610;0,0322776
2830,0251;0,0325482
2830,9895;0,0328356
2831,9536;0,0331379
2832,9180;0,0334506
2833,8821;0,0337678
2834,8464;0,0340852
2835,8105;0,0344034
2836,7749;0,0347302
2837,7390;0,0350786
2838,7034;0,0354627
2839,6675;0,0358933
2840,6318;0,0363757
2841,5959;0,036912
2842,5603;0,037502
2843,5244;0,0381439
2844,4888;0,0388301
2845,4529;0,039542
2846,4172;0,0402469
2847,3813;0,0409006
2848,3457;0,0414566
2849,3098;0,0418786
2850,2742;0,0421503
2851,2383;0,0422791
2852,2026;0,0422906
2853,1667;0,0422183
2854,1311;0,0420928
2855,0952;0,0419361
2856,0596;0,0417621
2857,0237;0,0415816
2857,9880;0,0414073
2858,9521;0,0412549
2859,9165;0,0411397
2860,8806;0,0410719
2861,8450;0,0410526
2862,8091;0,0410755
2863,7734;0,0411314
2864,7375;0,0412124
2865,7019;0,0413132
2866,6660;0,0414299
2867,6304;0,0415558
2868,5945;0,0416813
2869,5588;0,0417959
2870,5229;0,0418926
2871,4873;0,0419701
2872,4514;0,042032
2873,4158;0,0420842
2874,3799;0,0421309
2875,3442;0,0421741
2876,3083;0,0422148
2877,2727;0,0422555
2878,2368;0,0423006
2879,2012;0,0423549
2880,1653;0,0424221
2881,1296;0,0425029
2882,0938;0,0425963
2883,0581;0,0427002
2884,0222;0,0428124
2884,9866;0,0429311
2885,9507;0,043054
2886,9150;0,0431789
2887,8792;0,0433045
2888,8435;0,0434308
2889,8076;0,0435595
2890,7720;0,0436924
2891,7361;0,0438305
2892,7004;0,043973
2893,6646;0,0441185
2894,6289;0,0442655
2895,5930;0,0444132
2896,5574;0,0445615
2897,5215;0,0447099
2898,4858;0,0448571
2899,4500;0,045002
2900,4143;0,0451451
2901,3784;0,0452895
2902,3428;0,0454407
2903,3069;0,0456051
2904,2712;0,0457867
2905,2354;0,0459867
2906,1997;0,0462041
2907,1638;0,0464397
2908,1282;0,0466996
2909,0923;0,046996
2910,0566;0,0473432
2911,0208;0,0477501
2911,9851;0,0482117
2912,9492;0,0487058
2913,9136;0,049196
2914,8777;0,0496409
2915,8420;0,0500055
2916,8062;0,0502699
2917,7705;0,0504308
2918,7346;0,0504973
2919,6990;0,050484
2920,6631;0,0504044
2921,6274;0,0502681
2922,5916;0,0500817
2923,5559;0,04985
2924,5200;0,049578
2925,4844;0,0492709
2926,4485;0,0489336
2927,4128;0,0485709
2928,3770;0,0481883
2929,3413;0,0477929
2930,3054;0,0473924
2931,2698;0,0469934
2932,2339;0,0465993
2933,1982;0,046209
2934,1624;0,0458179
2935,1267;0,045421
2936,0908;0,0450153
2937,0552;0,0446018
2938,0193;0,0441842
2938,9836;0,0437681
2939,9478;0,0433579
2940,9121;0,0429572
2941,8762;0,0425685
2942,8406;0,0421947
2943,8047;0,0418404
2944,7690;0,0415112
2945,7332;0,0412117
2946,6975;0,0409432
2947,6616;0,0407019
2948,6260;0,0404802
2949,5901;0,0402691
2950,5544;0,0400626
2951,5186;0,0398592
2952,4829;0,0396612
2953,4470;0,0394712
2954,4114;0,0392881
2955,3755;0,0391058
2956,3398;0,0389144
2957,3040;0,0387048
2958,2683;0,0384723
2959,2324;0,0382187
2960,1968;0,0379512
2961,1609;0,0376797
2962,1252;0,0374133
2963,0894;0,0371565
2964,0537;0,0369084
2965,0178;0,0366623
2965,9822;0,0364089
2966,9463;0,0361402
2967,9106;0,0358533
2968,8748;0,0355518
2969,8391;0,0352441
2970,8032;0,0349401
2971,7676;0,0346486
2972,7317;0,0343753
2973,6960;0,0341233
2974,6602;0,0338927
2975,6245;0,0336806
2976,5886;0,0334811
2977,5530;0,033287
2978,5171;0,0330935
2979,4814;0,0329018
2980,4456;0,0327195
2981,4099;0,0325571
2982,3740;0,0324214
2983,3384;0,0323113
2984,3025;0,032218
2985,2668;0,0321294
2986,2310;0,0320366
2987,1953;0,0319378
2988,1594;0,0318378
2989,1238;0,0317441
2990,0879;0,0316635
2991,0522;0,0315998
2992,0164;0,0315545
2992,9807;0,0315269
2993,9448;0,0315153
2994,9092;0,0315161
2995,8733;0,0315251
2996,8376;0,031538
2997,8018;0,031552
2998,7661;0,0315664
2999,7302;0,0315821
3000,6946;0,0316012
3001,6587;0,0316256
3002,6230;0,0316567
3003,5872;0,0316948
3004,5515;0,0317374
3005,5156;0,0317793
3006,4800;0,0318136
3007,4441;0,0318349
3008,4084;0,0318425
3009,3726;0,0318418
3010,3369;0,0318427
3011,3010;0,0318544
3012,2654;0,0318819
3013,2295;0,0319238
3014,1938;0,0319748
3015,1580;0,0320297
3016,1223;0,0320859
3017,0864;0,0321443
3018,0508;0,0322064
3019,0149;0,0322728
3019,9792;0,0323427
3020,9434;0,0324145
3021,9077;0,0324871
3022,8718;0,0325599
3023,8362;0,0326323
3024,8003;0,0327028
3025,7646;0,0327691
3026,7288;0,0328303
3027,6931;0,0328875
3028,6572;0,032945
3029,6216;0,0330086
3030,5857;0,033083
3031,5500;0,0331697
3032,5142;0,0332663
3033,4785;0,0333682
3034,4426;0,0334711
3035,4070;0,0335735
3036,3711;0,033676
3037,3354;0,0337807
3038,2996;0,0338888
3039,2639;0,0339999
3040,2280;0,0341117
3041,1924;0,0342219
3042,1565;0,0343293
3043,1208;0,034434
3044,0850;0,0345375
3045,0493;0,0346416
3046,0134;0,0347484
3046,9778;0,0348605
3047,9419;0,0349802
3048,9063;0,0351079
3049,8704;0,0352414
3050,8347;0,0353752
3051,7988;0,0355034
3052,7632;0,0356224
3053,7273;0,0357341
3054,6917;0,0358456
3055,6558;0,0359653
3056,6201;0,0360977
3057,5842;0,0362409
3058,5486;0,0363871
3059,5127;0,0365275
3060,4771;0,0366576
3061,4412;0,0367783
3062,4055;0,0368945
3063,3696;0,0370111
3064,3340;0,0371302
3065,2981;0,037251
3066,2625;0,037372
3067,2266;0,037493
3068,1909;0,0376157
3069,1550;0,037742
3070,1194;0,0378721
3071,0835;0,0380042
3072,0479;0,0381352
3073,0120;0,0382621
3073,9763;0,0383835
3074,9404;0,0384994
3075,9048;0,0386118
3076,8689;0,0387232
3077,8333;0,038837
3078,7974;0,0389558
3079,7617;0,0390813
3080,7258;0,0392132
3081,6902;0,0393494
3082,6543;0,0394873
3083,6187;0,0396239
3084,5828;0,0397561
3085,5471;0,0398817
3086,5112;0,0399991
3087,4756;0,0401094
3088,4397;0,0402166
3089,4041;0,0403263
3090,3682;0,0404436
3091,3325;0,04057
3092,2966;0,0407036
3093,2610;0,0408407
3094,2251;0,0409794
3095,1895;0,0411202
3096,1536;0,0412644
3097,1179;0,0414109
3098,0820;0,0415549
3099,0464;0,0416906
3100,0105;0,0418159
3100,9749;0,0419363
3101,9390;0,042062
3102,9033;0,0422019
3103,8674;0,0423575
3104,8318;0,0425215
3105,7959;0,0426832
3106,7603;0,042836
3107,7244;0,0429818
3108,6887;0,0431278
3109,6528;0,0432802
3110,6172;0,0434385
3111,5813;0,0435953
3112,5457;0,0437425
3113,5098;0,0438778
3114,4741;0,0440067
3115,4382;0,0441382
3116,4026;0,0442786
3117,3667;0,0444269
3118,3311;0,0445774
3119,2952;0,0447245
3120,2595;0,0448683
3121,2236;0,0450136
3122,1880;0,0451664
3123,1521;0,0453295
3124,1165;0,0455015
3125,0806;0,0456791
3126,0449;0,0458608
3127,0090;0,0460465
3127,9734;0,0462351
3128,9375;0,0464214
3129,9019;0,0465966
3130,8660;0,0467524
3131,8303;0,0468876
3132,7944;0,0470109
3133,7588;0,0471381
3134,7229;0,0472845
3135,6873;0,0474573
3136,6514;0,0476528
3137,6157;0,0478593
3138,5798;0,0480633
3139,5442;0,0482557
3140,5083;0,0484338
3141,4727;0,0486003
3142,4368;0,0487606
3143,4011;0,0489195
3144,3652;0,0490794
3145,3296;0,0492411
3146,2937;0,0494042
3147,2581;0,0495687
3148,2222;0,0497363
3149,1865;0,04991
3150,1506;0,050093
3151,1150;0,050286
3152,0791;0,050486
3153,0435;0,0506863
3154,0076;0,0508791
3154,9719;0,0510593
3155,9360;0,0512282
3156,9004;0,0513926
3157,8645;0,0515624
3158,8289;0,0517454
3159,7930;0,0519433
3160,7573;0,0521514
3161,7214;0,0523606
3162,6858;0,0525623
3163,6499;0,0527524
3164,6143;0,0529316
3165,5784;0,0531045
3166,5427;0,0532757
3167,5068;0,0534489
3168,4712;0,0536261
3169,4353;0,0538114
3170,3997;0,0540049
3171,3638;0,0542101
3172,3281;0,054425
3173,2922;0,0546419
3174,2566;0,0548492
3175,2207;0,0550375
3176,1851;0,0552055
3177,1492;0,0553618
3178,1135;0,0555205
3179,0776;0,0556931
3180,0420;0,0558822
3181,0061;0,0560807
3181,9705;0,0562782
3182,9346;0,0564672
3183,8989;0,0566468
3184,8630;0,0568205
3185,8274;0,0569927
3186,7915;0,0571655
3187,7559;0,0573397
3188,7200;0,057517
3189,6843;0,0576999
3190,6484;0,0578889
3191,6128;0,0580791
3192,5769;0,0582612
3193,5413;0,0584265
3194,5054;0,0585741
3195,4697;0,0587139
3196,4338;0,0588618
3197,3982;0,05903
3198,3623;0,0592191
3199,3267;0,0594173
3200,2908;0,059608
3201,2551;0,0597804
3202,2192;0,0599345
3203,1836;0,0600796
3204,1477;0,0602263
3205,1121;0,0603804
3206,0762;0,0605413
3207,0405;0,0607047
3208,0046;0,060868
3208,9690;0,0610326
3209,9331;0,0612026
3210,8975;0,0613808
3211,8616;0,0615664
3212,8259;0,0617543
3213,7900;0,061937
3214,7544;0,0621079
3215,7185;0,062264
3216,6829;0,0624077
3217,6470;0,0625461
3218,6113;0,0626891
3219,5754;0,0628454
3220,5398;0,0630177
3221,5039;0,0632011
3222,4683;0,0633848
3223,4324;0,0635579
3224,3967;0,0637151
3225,3608;0,0638592
3226,3252;0,0639994
3227,2893;0,0641453
3228,2537;0,0643017
3229,2178;0,0644663
3230,1821;0,0646323
3231,1462;0,0647928
3232,1106;0,0649451
3233,0747;0,065091
3234,0391;0,0652352
3235,0032;0,0653827
3235,9675;0,0655368
3236,9316;0,0656986
3237,8960;0,0658669
3238,8601;0,066038
3239,8245;0,0662064
3240,7886;0,0663671
3241,7529;0,066518
3242,7170;0,0666617
3243,6814;0,066805
3244,6455;0,0669557
3245,6099;0,0671185
3246,5740;0,0672932
3247,5383;0,0674758
3248,5024;0,067662
3249,4668;0,0678491
3250,4309;0,068036
3251,3953;0,0682209
3252,3594;0,0684004
3253,3237;0,0685707
3254,2878;0,0687308
3255,2522;0,0688851
3256,2163;0,0690415
3257,1807;0,0692071
3258,1448;0,0693837
3259,1091;0,0695663
3260,0732;0,0697471
3261,0376;0,0699205
3262,0017;0,0700869
3262,9661;0,0702512
3263,9302;0,0704195
3264,8945;0,0705948
3265,8586;0,0707755
3266,8230;0,0709574
3267,7871;0,0711346
3268,7515;0,0713004
3269,7156;0,0714474
3270,6799;0,0715684
3271,6440;0,0716602
3272,6084;0,0717268
3273,5725;0,07178
3274,5369;0,0718345
3275,5010;0,0719006
3276,4653;0,0719786
3277,4294;0,0720597
3278,3938;0,0721323
3279,3579;0,0721902
3280,3223;0,0722354
3281,2864;0,0722764
3282,2507;0,0723217
3283,2148;0,0723747
3284,1792;0,0724327
3285,1433;0,0724895
3286,1077;0,0725393
3287,0718;0,0725796
3288,0361;0,0726108
3289,0002;0,072635
3289,9646;0,0726543
3290,9287;0,0726704
3291,8931;0,0726844
3292,8572;0,0726973
3293,8215;0,0727104
3294,7856;0,0727248
3295,7500;0,072742
3296,7141;0,0727627
3297,6785;0,072786
3298,6426;0,072809
3299,6069;0,0728274
3300,5710;0,0728373
3301,5354;0,0728372
3302,4995;0,0728281
3303,4639;0,0728124
3304,4280;0,0727929
3305,3923;0,072772
3306,3564;0,0727527
3307,3208;0,0727391
3308,2849;0,0727367
3309,2493;0,0727499
3310,2134;0,0727793
3311,1777;0,0728202
3312,1418;0,072864
3313,1062;0,0729016
3314,0703;0,0729275
3315,0347;0,0729415
3315,9988;0,0729494
3316,9631;0,0729601
3317,9272;0,0729831
3318,8916;0,0730251
3319,8557;0,0730884
3320,8201;0,0731696
3321,7842;0,073261
3322,7485;0,0733524
3323,7126;0,0734344
3324,6770;0,0735011
3325,6411;0,0735519
3326,6055;0,0735923
3327,5696;0,0736314
3328,5339;0,0736787
3329,4980;0,0737392
3330,4624;0,0738102
3331,4265;0,0738811
3332,3909;0,0739372
3333,3550;0,0739657
3334,3193;0,0739616
3335,2834;0,0739296
3336,2478;0,0738807
3337,2119;0,0738255
3338,1763;0,0737685
3339,1404;0,0737063
3340,1047;0,0736317
3341,0688;0,0735392
3342,0332;0,0734288
3342,9973;0,0733064
3343,9617;0,0731797
3344,9258;0,0730553
3345,8901;0,072936
3346,8542;0,0728208
3347,8186;0,0727068
3348,7827;0,0725897
3349,7471;0,072465
3350,7112;0,0723293
3351,6755;0,0721813
3352,6396;0,0720232
3353,6040;0,071861
3354,5681;0,0717014
3355,5325;0,0715494
3356,4966;0,071406
3357,4609;0,0712685
3358,4250;0,0711339
3359,3894;0,0710008
3360,3535;0,0708701
3361,3179;0,0707426
3362,2820;0,0706165
3363,2463;0,0704869
3364,2104;0,0703483
3365,1748;0,0701976
3366,1389;0,0700358
3367,1033;0,0698673
3368,0674;0,069696
3369,0317;0,0695243
3369,9958;0,0693524
3370,9602;0,0691812
3371,9243;0,0690134
3372,8887;0,0688537
3373,8528;0,0687059
3374,8171;0,0685706
3375,7813;0,0684444
3376,7456;0,0683211
3377,7097;0,0681944
3378,6741;0,0680593
3379,6382;0,0679131
3380,6025;0,0677553
3381,5667;0,0675882
3382,5310;0,0674175
3383,4951;0,0672515
3384,4595;0,0670981
3385,4236;0,0669615
3386,3879;0,0668388
3387,3521;0,0667207
3388,3164;0,0665963
3389,2805;0,0664578
3390,2449;0,0663041
3391,2090;0,0661411
3392,1733;0,0659781
3393,1375;0,0658226
3394,1018;0,0656782
3395,0659;0,0655436
3396,0303;0,0654147
3396,9944;0,0652866
3397,9587;0,0651537
3398,9229;0,0650103
3399,8872;0,0648513
3400,8513;0,064674
3401,8157;0,0644796
3402,7798;0,064274
3403,7441;0,0640652
3404,7083;0,0638611
3405,6726;0,0636668
3406,6367;0,0634838
3407,6011;0,0633103
3408,5652;0,0631415
3409,5295;0,0629714
3410,4937;0,0627941
3411,4580;0,0626072
3412,4221;0,0624137
3413,3865;0,0622212
3414,3506;0,0620369
3415,3149;0,0618615
3416,2791;0,0616863
3417,2434;0,0614963
3418,2075;0,0612789
3419,1719;0,0610325
3420,1360;0,0607701
3421,1003;0,0605136
3422,0645;0,0602825
3423,0288;0,0600838
3423,9929;0,05991
3424,9573;0,0597446
3425,9214;0,0595697
3426,8857;0,0593731
3427,8499;0,0591517
3428,8142;0,0589107
3429,7783;0,0586607
3430,7427;0,058413
3431,7068;0,0581757
3432,6711;0,0579527
3433,6353;0,0577439
3434,5996;0,0575471
3435,5637;0,0573577
3436,5281;0,0571696
3437,4922;0,0569759
3438,4565;0,0567716
3439,4207;0,0565565
3440,3850;0,0563353
3441,3491;0,0561138
3442,3135;0,0558921
3443,2776;0,0556623
3444,2419;0,0554118
3445,2061;0,0551334
3446,1704;0,0548346
3447,1345;0,0545372
3448,0989;0,0542657
3449,0630;0,0540329
3450,0273;0,053833
3450,9915;0,0536479
3451,9558;0,0534585
3452,9199;0,0532547
3453,8843;0,0530375
3454,8484;0,0528142
3455,8127;0,052592
3456,7769;0,0523721
3457,7412;0,0521511
3458,7053;0,0519241
3459,6697;0,0516885
3460,6338;0,0514463
3461,5981;0,0512026
3462,5623;0,0509629
3463,5266;0,050729
3464,4907;0,050498
3465,4551;0,0502634
3466,4192;0,0500209
3467,3835;0,0497723
3468,3477;0,0495269
3469,3120;0,0492948
3470,2761;0,0490789
3471,2405;0,0488705
3472,2046;0,0486539
3473,1689;0,0484174
3474,1331;0,048164
3475,0974;0,0479101
3476,0615;0,0476748
3477,0259;0,0474646
3477,9900;0,0472683
3478,9543;0,0470647
3479,9185;0,0468376
3480,8828;0,0465883
3481,8469;0,0463332
3482,8113;0,0460904
3483,7754;0,0458646
3484,7397;0,0456443
3485,7039;0,0454126
3486,6682;0,0451614
3487,6323;0,0448999
3488,5967;0,0446487
3489,5608;0,0444249
3490,5251;0,0442291
3491,4893;0,0440431
3492,4536;0,0438414
3493,4177;0,0436072
3494,3821;0,0433459
3495,3462;0,0430852
3496,3105;0,0428597
3497,2747;0,0426878
3498,2390;0,0425571
3499,2031;0,0424273
3500,1675;0,0422505
3501,1316;0,0419985
3502,0959;0,0416832
3503,0601;0,0413524
3504,0244;0,0410592
3504,9885;0,0408265
3505,9529;0,0406374
3506,9170;0,0404533
3507,8813;0,040242
3508,8455;0,0399987
3509,8098;0,0397455
3510,7739;0,0395132
3511,7383;0,0393166
3512,7024;0,0391464
3513,6667;0,0389805
3514,6309;0,0388014
3515,5952;0,0386075
3516,5593;0,0384105
3517,5237;0,0382242
3518,4878;0,0380528
3519,4521;0,0378883
3520,4163;0,0377169
3521,3806;0,0375279
3522,3447;0,0373183
3523,3091;0,0370895
3524,2732;0,0368407
3525,2375;0,0365663
3526,2017;0,0362637
3527,1660;0,0359438
3528,1301;0,0356356
3529,0945;0,0353761
3530,0586;0,0351891
3531,0229;0,0350701
3531,9871;0,0349862
3532,9514;0,0348902
3533,9155;0,0347404
3534,8799;0,034518
3535,8440;0,034237
3536,8083;0,033938
3537,7725;0,0336691
3538,7368;0,0334632
3539,7009;0,0333248
3540,6653;0,0332304
3541,6294;0,0331366
3542,5938;0,0329943
3543,5579;0,0327696
3544,5222;0,0324657
3545,4863;0,0321278
3546,4507;0,0318174
3547,4148;0,0315713
3548,3792;0,0313821
3549,3433;0,03121
3550,3076;0,0310102
3551,2717;0,0307615
3552,2361;0,0304806
3553,2002;0,0302121
3554,1646;0,0299967
3555,1287;0,0298427
3556,0930;0,0297242
3557,0571;0,0296022
3558,0215;0,0294534
3558,9856;0,0292891
3559,9500;0,0291511
3560,9141;0,0290808
3561,8784;0,0290808
3562,8425;0,0290943
3563,8069;0,0290125
3564,7710;0,0287182
3565,7354;0,028171
3566,6995;0,0274853
3567,6638;0,0268786
3568,6279;0,0265006
3569,5923;0,0263476
3570,5564;0,0263236
3571,5208;0,026324
3572,4849;0,0262776
3573,4492;0,0261585
3574,4133;0,0259811
3575,3777;0,0257789
3576,3418;0,025577
3577,3062;0,0253806
3578,2703;0,0251872
3579,2346;0,025009
3580,1987;0,0248787
3581,1631;0,0248297
3582,1272;0,0248647
3583,0916;0,0249345
3584,0557;0,0249397
3585,0200;0,0247642
3585,9841;0,0243496
3586,9485;0,0237785
3587,9126;0,0232496
3588,8770;0,0229224
3589,8411;0,0228109
3590,8054;0,0228211
3591,7695;0,0228335
3592,7339;0,0227589
3593,6980;0,0225707
3594,6624;0,0223107
3595,6265;0,0220488
3596,5908;0,0218224
3597,5549;0,0216137
3598,5193;0,0213847
3599,4834;0,0211287
3600,4478;0,0208914
3601,4119;0,0207407
3602,3762;0,0207098
3603,3403;0,0207688
3604,3047;0,0208395
3605,2688;0,0208338
3606,2332;0,0206969
3607,1973;0,0204402
3608,1616;0,0201336
3609,1257;0,019852
3610,0901;0,0196257
3611,0542;0,0194441
3612,0186;0,0192925
3612,9827;0,0191751
3613,9470;0,019102
3614,9111;0,0190574
3615,8755;0,0189826
3616,8396;0,0187947
3617,8040;0,0184431
3618,7681;0,0179761
3619,7324;0,0175459
3620,6965;0,0173124
3621,6609;0,01734
3622,6250;0,0175889
3623,5894;0,0179612
3624,5535;0,0183263
3625,5178;0,0185176
3626,4819;0,0183532
3627,4463;0,0177479
3628,4104;0,0168768
3629,3748;0,0161142
3630,3389;0,0156972
3631,3032;0,0155866
3632,2673;0,0156255
3633,2317;0,0156818
3634,1958;0,015687
3635,1602;0,0156297
3636,1243;0,0155339
3637,0886;0,0154301
3638,0527;0,015336
3639,0171;0,0152581
3639,9812;0,0152074
3640,9456;0,0152106
3641,9097;0,0153021
3642,8740;0,0154993
3643,8381;0,0157762
3644,8025;0,0160394
3645,7666;0,0161126
3646,7310;0,0157648
3647,6951;0,0148803
3648,6594;0,013734
3649,6235;0,0128884
3650,5879;0,0126215
3651,5520;0,0127819
3652,5164;0,0131008
3653,4805;0,0133704
3654,4448;0,0134646
3655,4089;0,0133494
3656,3733;0,0131
3657,3374;0,0128557
3658,3018;0,0127168
3659,2659;0,0126883
3660,2302;0,0127159
3661,1943;0,0127509
3662,1587;0,0127901
3663,1228;0,0128701
3664,0872;0,0130241
3665,0513;0,0132355
3666,0156;0,0134228
3666,9797;0,0134677
3667,9441;0,0132945
3668,9082;0,012969
3669,8726;0,0126929
3670,8367;0,0126239
3671,8010;0,012726
3672,7651;0,012808
3673,7295;0,0126543
3674,6936;0,0121777
3675,6580;0,0115375
3676,6221;0,0110321
3677,5864;0,0108231
3678,5505;0,0108624
3679,5149;0,0110303
3680,4790;0,0112432
3681,4434;0,0114774
3682,4075;0,0117477
3683,3718;0,0120697
3684,3359;0,0124211
3685,3003;0,0127179
3686,2644;0,0128182
3687,2288;0,0125781
3688,1929;0,0119806
3689,1572;0,0112446
3690,1213;0,0106981
3691,0857;0,0105015
3692,0498;0,0105942
3693,0142;0,0108422
3693,9783;0,011145
3694,9426;0,0114511
3695,9067;0,0117371
3696,8711;0,0119804
3697,8352;0,0121428
3698,7996;0,0121732
3699,7637;0,0120374
3700,7280;0,011761
3701,6921;0,0114486
3702,6565;0,0112371
3703,6206;0,0112147
3704,5850;0,0113827
3705,5491;0,0116752
3706,5134;0,0119891
3707,4775;0,0121985
3708,4419;0,0121732
3709,4060;0,0118416
3710,3704;0,0112899
3711,3345;0,0107643
3712,2988;0,0104859
3713,2629;0,0104977
3714,2273;0,0107137
3715,1914;0,0110258
3716,1558;0,0113481
3717,1199;0,0116193
3718,0842;0,011804
3719,0483;0,0118965
3720,0127;0,0119168
3720,9768;0,01189
3721,9412;0,0118257
3722,9053;0,0117188
3723,8696;0,0115755
3724,8337;0,0114353
3725,7981;0,0113627
3726,7622;0,0114095
3727,7266;0,0115884
3728,6907;0,0118726
3729,6550;0,0122091
3730,6191;0,012524
3731,5835;0,0127223
3732,5476;0,0126958
3733,5120;0,0123742
3734,4761;0,011816
3735,4404;0,011235
3736,4045;0,0108662
3737,3689;0,0108151
3738,3330;0,0110548
3739,2974;0,011491
3740,2615;0,0119932
3741,2258;0,0123964
3742,1899;0,0125284
3743,1543;0,0123175
3744,1184;0,0119187
3745,0828;0,0116303
3746,0469;0,0116102
3747,0112;0,0117636
3747,9753;0,0118553
3748,9397;0,011654
3749,9038;0,0110993
3750,8682;0,010433
3751,8323;0,0100252
3752,7966;0,0100199
3753,7607;0,0102992
3754,7251;0,0106714
3755,6892;0,0109759
3756,6536;0,0111083
3757,6177;0,0110486
3758,5820;0,0108809
3759,5461;0,0107434
3760,5105;0,0107303
3761,4746;0,0108446
3762,4390;0,0110278
3763,4031;0,011208
3764,3674;0,0113295
3765,3315;0,0113636
3766,2959;0,0113048
3767,2600;0,0111627
3768,2244;0,0109586
3769,1885;0,0107341
3770,1528;0,0105547
3771,1169;0,0104881
3772,0813;0,0105686
3773,0454;0,0107791
3774,0098;0,0110585
3774,9739;0,0113213
3775,9382;0,01148
3776,9023;0,0114785
3777,8667;0,0113309
3778,8308;0,011125
3779,7952;0,0109635
3780,7593;0,0108914
3781,7236;0,0108825
3782,6877;0,0108811
3783,6521;0,0108479
3784,6162;0,0107814
3785,5806;0,0107129
3786,5447;0,0106834
3787,5090;0,0107212
3788,4731;0,010832
3789,4375;0,0110024
3790,4016;0,0112031
3791,3660;0,0113938
3792,3301;0,0115315
3793,2944;0,0115886
3794,2585;0,0115739
3795,2229;0,0115345
3796,1870;0,0115242
3797,1514;0,0115543
3798,1155;0,0115708
3799,0798;0,011489
3800,0439;0,0112745
3801,0083;0,0110049
3801,9724;0,0108201
3802,9368;0,0107903
3803,9009;0,0108585
3804,8652;0,010903
3805,8293;0,010835
3806,7937;0,0106739
3807,7578;0,0105472
3808,7222;0,0105889
3809,6863;0,0108381
3810,6506;0,0112311
3811,6147;0,0116493
3812,5791;0,0119617
3813,5432;0,0120719
3814,5076;0,0119793
3815,4717;0,0117968
3816,4360;0,0116563
3817,4001;0,0115858
3818,3645;0,0115001
3819,3286;0,0113013
3820,2930;0,0109913
3821,2571;0,0106906
3822,2214;0,0105303
3823,1855;0,0105444
3824,1499;0,0106805
3825,1140;0,0108659
3826,0784;0,0110466
3827,0425;0,0111952
3828,0068;0,0113059
3828,9709;0,0113858
3829,9353;0,0114491
3830,8994;0,0115154
3831,8638;0,0116056
3832,8279;0,0117286
3833,7922;0,0118633
3834,7563;0,011951
3835,7207;0,0119165
3836,6848;0,0117184
3837,6492;0,0114007
3838,6133;0,0110818
3839,5776;0,0108675
3840,5417;0,0107796
3841,5061;0,0107708
3842,4702;0,0107878
3843,4346;0,0108161
3844,3987;0,010887
3845,3630;0,0110555
3846,3271;0,011367
3847,2915;0,0118336
3848,2556;0,0124186
3849,2200;0,0130168
3850,1841;0,0134281
3851,1484;0,0133728
3852,1125;0,0126736
3853,0769;0,0115861
3854,0410;0,0107028
3855,0054;0,0103372
3855,9695;0,010396
3856,9338;0,0106939
3857,8979;0,0110964
3858,8623;0,0115036
3859,8264;0,0118226
3860,7908;0,0119753
3861,7549;0,0119393
3862,7192;0,011785
3863,6833;0,0116479
3864,6477;0,0116333
3865,6118;0,0117502
3866,5762;0,011924
3867,5403;0,0120484
3868,5046;0,0120332
3869,4688;0,0118456
3870,4331;0,0115326
3871,3972;0,0112015
3872,3616;0,0109644
3873,3257;0,0108893
3874,2900;0,0109851
3875,2542;0,0112115
3876,2185;0,0114959
3877,1826;0,0117524
3878,1470;0,011909
3879,1111;0,0119401
3880,0754;0,0118814
3881,0396;0,0117986
3882,0039;0,0117294
3882,9680;0,0116629
3883,9324;0,0115766
3884,8965;0,0114862
3885,8608;0,0114467
3886,8250;0,0114998
3887,7893;0,0116239
3888,7534;0,0117345
3889,7178;0,0117342
3890,6819;0,0115871
3891,6462;0,0113717
3892,6104;0,0112375
3893,5747;0,0112873
3894,5388;0,0115167
3895,5032;0,0118462
3896,4673;0,0121761
3897,4316;0,0124238
3898,3958;0,0125474
3899,3601;0,0125474
3900,3242;0,0124369
3901,2886;0,0122114
3902,2527;0,0118675
3903,2170;0,0114519
3904,1812;0,0110687
3905,1455;0,010819
3906,1096;0,0107401
3907,0740;0,0108022
3908,0381;0,0109453
3909,0024;0,0111153
3909,9666;0,0112829
3910,9309;0,0114454
3911,8950;0,0116112
3912,8594;0,0117782
3913,8235;0,0119191
3914,7878;0,0119888
3915,7520;0,0119533
3916,7163;0,0118229
3917,6804;0,0116589
3918,6448;0,011535
3919,6089;0,0114871
3920,5732;0,0114971
3921,5374;0,0115151
3922,5017;0,0114976
3923,4658;0,0114395
3924,4302;0,0113811
3925,3943;0,0113785
3926,3586;0,0114592
3927,3228;0,0116005
3928,2871;0,0117409
3929,2512;0,0118103
3930,2156;0,0117664
3931,1797;0,011622
3932,1440;0,0114405
3933,1082;0,0112969
3934,0725;0,011237
3935,0366;0,0112674
3936,0010;0,0113691
3936,9651;0,011511
3937,9294;0,0116578
3938,8936;0,0117734
3939,8579;0,0118297
3940,8220;0,0118193
3941,7864;0,0117646
3942,7505;0,0117087
3943,7148;0,0116882
3944,6790;0,0117098
3945,6433;0,0117472
3946,6074;0,0117593
3947,5718;0,0117173
3948,5359;0,0116245
3949,5002;0,0115163
3950,4644;0,0114358
3951,4287;0,0114065
3952,3928;0,0114234
3953,3572;0,0114639
3954,3213;0,0115058
3955,2856;0,0115386
3956,2498;0,0115633
3957,2141;0,0115844
3958,1782;0,0116009
3959,1426;0,0116053
3960,1067;0,0115903
3961,0710;0,0115571
3962,0352;0,0115181
3962,9995;0,0114904
3963,9636;0,0114855
3964,9280;0,0115025
3965,8921;0,0115301
3966,8564;0,0115544
3967,8206;0,0115678
3968,7849;0,011572
3969,7490;0,0115752
3970,7134;0,0115842
3971,6775;0,0115985
3972,6418;0,0116107
3973,6060;0,0116126
3974,5703;0,0116022
3975,5344;0,0115853
3976,4988;0,0115714
3977,4629;0,0115662
3978,4272;0,011568
3979,3914;0,0115692
3980,3557;0,0115624
3981,3198;0,0115463
3982,2842;0,0115274
3983,2483;0,0115162
3984,2126;0,0115213
3985,1768;0,0115446
3986,1411;0,0115809
3987,1052;0,0116203
3988,0696;0,0116525
3989,0337;0,0116698
3989,9980;0,0116694
3990,9622;0,0116527
3991,9265;0,0116254
3992,8906;0,0115947
3993,8550;0,0115687
3994,8191;0,0115533
3995,7834;0,0115508
3996,7476;0,0115587
3997,7119;0,0115711
3998,6760;0,0115821
3999,6404;0,0115893
4000,6045;0,0114719

##### Extended Information
[Comments]
Sample name
Comment
Username
Division
Organization;UNIVERSIDAD INDUSTRIAL DE SANTANDER

[Detailed Information]
Creation date;26/02/2025 6:30 p.m.

Data array type;Linear data array
Horizontal axis;Wavenumber [cm-1]
Vertical axis;Abs
Start;399,193 cm-1
End;4000,6 cm-1
Data interval;0,964233 cm-1
Data points;3736    

[Measurement Information]
Model name;FT/IR-4X1typeA
Serial No.;A035162111

Accessory;ATR PRO 4X
Accessory S/N;A021162126
Incident angle;45 deg

Measurement date;26/02/2025 6:29 p.m.

Light source;Standard
Detector;TGS
Accumulation;40
Resolution;4 cm-1
Zero filling;On
Apodization;Cosine
Gain;Auto (8)
Aperture;Auto (7 mm)
Scan speed;Auto (2 mm/sec)
Filter;Auto (12800 Hz)

