TITLE;
DATA TYPE;INFRARED SPECTRUM
ORIGIN;JASCO
OWNER;
DATE;25/02/26
TIME;17:39:48
SPECTROMETER/DATA SYSTEM;
LOCALE;9226
RESOLUTION;
DELTAX;0,964233
XUNITS;1/CM
YUNITS;ABSORBANCE
FIRSTX;  399,1927
LASTX; 4000,6047
NPOINTS;    3736
FIRSTY;     0,22156
MAXY;     0,22539
MINY;    -0,00349
XYDATA
399,1927;0,221563
400,1569;0,215992
401,1211;0,209743
402,0854;0,204236
403,0496;0,19998
404,0138;0,196958
404,9781;0,194911
405,9423;0,193516
406,9065;0,192534
407,8708;0,191896
408,8350;0,19166
409,7992;0,191862
410,7635;0,192374
411,7277;0,192918
412,6919;0,19325
413,6562;0,193376
414,6204;0,193615
415,5846;0,194482
416,5489;0,196481
417,5131;0,199687
418,4773;0,20321
419,4416;0,205387
420,4058;0,205257
421,3700;0,203343
422,3343;0,200737
423,2985;0,198208
424,2627;0,19609
425,2270;0,194469
426,1912;0,19335
427,1554;0,192748
428,1197;0,1927
429,0839;0,193223
430,0481;0,194259
431,0124;0,195646
431,9766;0,197135
432,9408;0,19844
433,9051;0,199296
434,8693;0,199493
435,8335;0,198939
436,7978;0,197728
437,7620;0,196164
438,7262;0,19468
439,6905;0,193697
440,6547;0,193474
441,6189;0,193995
442,5832;0,194955
443,5474;0,195885
444,5116;0,196411
445,4759;0,196436
446,4401;0,196103
447,4043;0,195606
448,3686;0,195032
449,3328;0,194351
450,2970;0,193519
451,2613;0,192607
452,2255;0,191835
453,1897;0,191476
454,1540;0,191692
455,1182;0,192409
456,0824;0,193291
457,0467;0,193841
458,0109;0,193657
458,9751;0,192706
459,9394;0,191333
460,9036;0,189997
461,8678;0,189024
462,8321;0,188546
463,7963;0,188545
464,7605;0,188902
465,7248;0,189418
466,6890;0,189863
467,6532;0,190059
468,6175;0,189943
469,5817;0,189588
470,5459;0,189162
471,5102;0,188842
472,4744;0,188709
473,4386;0,188708
474,4029;0,188718
475,3671;0,188656
476,3313;0,188532
477,2956;0,188412
478,2598;0,18836
479,2240;0,188397
480,1883;0,1885
481,1525;0,188635
482,1167;0,188775
483,0810;0,18891
484,0452;0,189037
485,0094;0,189164
485,9737;0,189321
486,9379;0,18955
487,9021;0,189885
488,8664;0,190306
489,8306;0,190721
490,7948;0,190991
491,7591;0,191004
492,7233;0,190759
493,6875;0,19039
494,6518;0,190101
495,6160;0,190054
496,5802;0,19029
497,5445;0,190722
498,5087;0,191184
499,4729;0,191506
500,4372;0,191579
501,4014;0,191411
502,3656;0,191134
503,3299;0,190941
504,2941;0,190996
505,2583;0,191347
506,2226;0,191911
507,1868;0,192516
508,1510;0,192993
509,1153;0,193271
510,0795;0,193427
511,0437;0,193647
512,0080;0,194123
512,9722;0,194938
513,9365;0,196013
514,9007;0,19712
515,8649;0,197968
516,8292;0,198329
517,7934;0,198163
518,7576;0,197646
519,7219;0,197058
520,6861;0,196616
521,6503;0,196376
522,6146;0,196255
523,5788;0,196117
524,5430;0,195857
525,5073;0,195464
526,4715;0,19503
527,4357;0,194684
528,4000;0,194501
529,3642;0,194451
530,3284;0,194418
531,2927;0,194256
532,2569;0,193862
533,2211;0,193235
534,1854;0,192491
535,1496;0,19181
536,1138;0,191354
537,0781;0,191192
538,0423;0,191281
539,0065;0,191509
539,9708;0,19177
540,9350;0,192019
541,8992;0,192275
542,8635;0,192584
543,8277;0,192963
544,7919;0,19338
545,7562;0,193762
546,7204;0,19404
547,6846;0,194193
548,6489;0,194256
549,6131;0,19431
550,5773;0,194446
551,5416;0,19473
552,5058;0,19519
553,4700;0,195793
554,4343;0,196447
555,3985;0,197015
556,3627;0,197353
557,3270;0,197344
558,2912;0,196933
559,2554;0,196127
560,2197;0,194976
561,1839;0,193562
562,1481;0,191987
563,1124;0,190373
564,0766;0,188847
565,0408;0,187518
566,0051;0,186448
566,9693;0,18564
567,9335;0,18505
568,8978;0,184615
569,8620;0,184288
570,8262;0,184046
571,7905;0,183879
572,7547;0,183762
573,7189;0,18365
574,6832;0,183484
575,6474;0,183228
576,6116;0,182883
577,5759;0,18249
578,5401;0,182098
579,5043;0,181737
580,4686;0,181396
581,4328;0,181045
582,3970;0,18066
583,3613;0,180245
584,3255;0,179844
585,2897;0,179523
586,2540;0,179345
587,2182;0,179344
588,1824;0,179504
589,1467;0,179756
590,1109;0,179993
591,0751;0,1801
592,0394;0,180005
593,0036;0,179711
593,9678;0,179291
594,9321;0,178849
595,8963;0,178456
596,8605;0,178124
597,8248;0,177815
598,7890;0,177474
599,7532;0,177069
600,7175;0,176607
601,6817;0,176117
602,6459;0,175629
603,6102;0,175153
604,5744;0,174683
605,5386;0,17421
606,5029;0,173721
607,4671;0,173197
608,4313;0,172614
609,3956;0,171951
610,3598;0,171226
611,3240;0,170503
612,2883;0,169875
613,2525;0,169406
614,2167;0,16908
615,1810;0,168778
616,1452;0,168322
617,1094;0,167558
618,0737;0,166451
619,0379;0,165103
620,0021;0,163691
620,9664;0,162368
621,9306;0,161205
622,8948;0,160191
623,8591;0,159268
624,8233;0,158371
625,7875;0,157493
626,7518;0,156648
627,7160;0,155874
628,6802;0,155211
629,6445;0,154677
630,6087;0,154258
631,5729;0,153906
632,5372;0,153549
633,5014;0,15312
634,4656;0,152585
635,4299;0,151955
636,3941;0,151282
637,3583;0,150629
638,3226;0,150039
639,2868;0,149524
640,2510;0,149067
641,2153;0,148633
642,1795;0,148191
643,1437;0,147717
644,1080;0,147202
645,0722;0,146646
646,0364;0,146059
647,0007;0,145463
647,9649;0,144888
648,9291;0,144371
649,8934;0,143944
650,8576;0,143631
651,8218;0,14344
652,7861;0,143377
653,7503;0,143446
654,7145;0,143643
655,6788;0,143946
656,6430;0,144304
657,6072;0,14465
658,5715;0,144918
659,5357;0,145063
660,4999;0,14508
661,4642;0,145
662,4284;0,144871
663,3926;0,14473
664,3569;0,144605
665,3211;0,144532
666,2853;0,144532
667,2496;0,144477
668,2138;0,143981
669,1780;0,142769
670,1423;0,141123
671,1065;0,139424
672,0707;0,13774
673,0350;0,135987
673,9992;0,134133
674,9634;0,132242
675,9277;0,130439
676,8919;0,128821
677,8561;0,127407
678,8204;0,126161
679,7846;0,125052
680,7488;0,124075
681,7131;0,123235
682,6773;0,122516
683,6415;0,121876
684,6058;0,121281
685,5700;0,120727
686,5342;0,120239
687,4985;0,119849
688,4627;0,119572
689,4269;0,119396
690,3912;0,119297
691,3554;0,119249
692,3196;0,119229
693,2839;0,119208
694,2481;0,119148
695,2123;0,119009
696,1766;0,118767
697,1408;0,118424
698,1050;0,118015
699,0693;0,117588
700,0335;0,117179
700,9977;0,116794
701,9620;0,116407
702,9262;0,115972
703,8904;0,115444
704,8547;0,114813
705,8189;0,114103
706,7831;0,113362
707,7474;0,112637
708,7116;0,111953
709,6758;0,111301
710,6401;0,110643
711,6043;0,109939
712,5685;0,109172
713,5328;0,108364
714,4970;0,10757
715,4612;0,106652
716,4255;0,106046
717,3897;0,105491
718,3539;0,104886
719,3182;0,104114
720,2824;0,103118
721,2466;0,101937
722,2109;0,100685
723,1751;0,0994875
724,1393;0,0984191
725,1036;0,0974841
726,0678;0,0966391
727,0320;0,0958312
727,9963;0,09503
728,9605;0,0942365
729,9247;0,0934726
730,8890;0,0927617
731,8532;0,0921167
732,8174;0,0915385
733,7817;0,091021
734,7459;0,0905553
735,7101;0,0901296
736,6744;0,0897262
737,6386;0,089322
738,6028;0,0888956
739,5671;0,0884378
740,5313;0,0879581
741,4955;0,0874807
742,4598;0,0870284
743,4240;0,0866052
744,3882;0,0861916
745,3525;0,0857567
746,3167;0,0852829
747,2809;0,0847824
748,2452;0,0842939
749,2094;0,0838589
750,1736;0,0834934
751,1379;0,0831763
752,1021;0,0828626
753,0663;0,082511
754,0306;0,0821079
754,9948;0,0816692
755,9590;0,0812244
756,9233;0,0807948
757,8875;0,0803814
758,8517;0,0799706
759,8160;0,0795482
760,7802;0,0791104
761,7444;0,0786663
762,7087;0,0782298
763,6729;0,0778123
764,6371;0,0774178
765,6014;0,0770452
766,5656;0,0766917
767,5298;0,0763564
768,4941;0,0760398
769,4583;0,0757417
770,4225;0,0754584
771,3868;0,0751816
772,3510;0,0748995
773,3152;0,0745998
774,2795;0,074274
775,2437;0,0739207
776,2079;0,0735454
777,1722;0,0731581
778,1364;0,072768
779,1006;0,0723812
780,0649;0,072001
781,0291;0,0716315
781,9933;0,0712804
782,9576;0,0709564
783,9218;0,0706639
784,8860;0,0703971
785,8503;0,0701402
786,8145;0,0698731
787,7787;0,0695818
788,7430;0,0692645
789,7072;0,0689315
790,6714;0,0685985
791,6357;0,0682792
792,5999;0,067982
793,5641;0,0677109
794,5284;0,0674678
795,4926;0,0672528
796,4568;0,0670609
797,4211;0,0668796
798,3853;0,0666899
799,3495;0,0664743
800,3138;0,0662249
801,2780;0,0659496
802,2422;0,0656693
803,2065;0,0654081
804,1707;0,0651826
805,1349;0,0649953
806,0992;0,0648358
807,0634;0,0646877
808,0276;0,0645376
808,9919;0,0643793
809,9561;0,0642134
810,9203;0,0640438
811,8846;0,0638743
812,8488;0,063709
813,8130;0,0635548
814,7773;0,0634229
815,7415;0,0633263
816,7057;0,0632743
817,6700;0,0632656
818,6342;0,0632868
819,5984;0,0633169
820,5627;0,0633365
821,5269;0,063336
822,4911;0,0633173
823,4554;0,0632884
824,4196;0,0632553
825,3839;0,0632172
826,3481;0,0631681
827,3123;0,0631046
828,2766;0,0630311
829,2408;0,0629585
830,2050;0,062896
831,1693;0,0628412
832,1335;0,0627779
833,0977;0,062683
834,0620;0,062539
835,0262;0,0623439
835,9904;0,0621102
836,9547;0,0618564
837,9189;0,0615966
838,8831;0,0613362
839,8474;0,0610757
840,8116;0,0608175
841,7758;0,0605684
842,7401;0,0603375
843,7043;0,06013
844,6685;0,0599458
845,6328;0,0597823
846,5970;0,0596396
847,5612;0,0595217
848,5255;0,059432
849,4897;0,0593649
850,4539;0,0593036
851,4182;0,0592252
852,3824;0,0591125
853,3466;0,0589652
854,3109;0,0588007
855,2751;0,0586464
856,2393;0,0585255
857,2036;0,0584471
858,1678;0,0584055
859,1320;0,0583868
860,0963;0,0583792
861,0605;0,0583793
862,0247;0,0583917
862,9890;0,0584245
863,9532;0,0584838
864,9174;0,0585709
865,8817;0,0586833
866,8459;0,0588164
867,8101;0,0589645
868,7744;0,0591207
869,7386;0,0592776
870,7028;0,0594283
871,6671;0,0595696
872,6313;0,0597028
873,5955;0,0598336
874,5598;0,0599692
875,5240;0,0601159
876,4882;0,0602797
877,4525;0,0604671
878,4167;0,0606865
879,3809;0,0609471
880,3452;0,0612562
881,3094;0,0616171
882,2736;0,0620308
883,2379;0,0624993
884,2021;0,0630292
885,1663;0,0636305
886,1306;0,0643119
887,0948;0,0650747
888,0590;0,065909
889,0233;0,0667945
889,9875;0,0677035
890,9517;0,0686057
891,9160;0,0694708
892,8802;0,0702702
893,8444;0,0709781
894,8087;0,0715727
895,7729;0,0720365
896,7371;0,0723567
897,7014;0,0725249
898,6656;0,0725378
899,6298;0,0724004
900,5941;0,072129
901,5583;0,0717525
902,5225;0,0713097
903,4868;0,0708445
904,4510;0,0703987
905,4152;0,0700049
906,3795;0,0696821
907,3437;0,0694337
908,3079;0,0692508
909,2722;0,0691198
910,2364;0,0690321
911,2007;0,0689905
912,1649;0,0690081
913,1292;0,0690997
914,0934;0,0692705
915,0576;0,0695119
916,0219;0,0698064
916,9861;0,0701386
917,9503;0,0705038
918,9146;0,0709059
919,8788;0,0713467
920,8430;0,0718138
921,8073;0,0722791
922,7715;0,0727079
923,7357;0,0730742
924,7000;0,0733718
925,6642;0,0736135
926,6284;0,0738206
927,5927;0,0740106
928,5569;0,0741902
929,5211;0,0743564
930,4854;0,0745043
931,4496;0,0746333
932,4138;0,0747513
933,3781;0,0748722
934,3423;0,0750122
935,3065;0,0751853
936,2708;0,0754015
937,2350;0,0756685
938,1992;0,075994
939,1635;0,0763872
940,1277;0,0768568
941,0919;0,0774054
942,0562;0,0780262
943,0204;0,0787053
943,9846;0,07943
944,9489;0,0801982
945,9131;0,0810211
946,8773;0,0819172
947,8416;0,0828999
948,8058;0,0839682
949,7700;0,085108
950,7343;0,0863027
951,6985;0,0875449
952,6627;0,0888414
953,6270;0,0902077
954,5912;0,091657
955,5554;0,0931937
956,5197;0,0948126
957,4839;0,0965055
958,4481;0,0982668
959,4124;0,100095
960,3766;0,101991
961,3408;0,103953
962,3051;0,105973
963,2693;0,108042
964,2335;0,110149
965,1978;0,112287
966,1620;0,114454
967,1262;0,116659
968,0905;0,118919
969,0547;0,121262
970,0189;0,123719
970,9832;0,126325
971,9474;0,129107
972,9116;0,132092
973,8759;0,135299
974,8401;0,138745
975,8043;0,142433
976,7686;0,146347
977,7328;0,150445
978,6970;0,154653
979,6613;0,158863
980,6255;0,162945
981,5897;0,166763
982,5540;0,170202
983,5182;0,173193
984,4824;0,175728
985,4467;0,177863
986,4109;0,179694
987,3751;0,181323
988,3394;0,182824
989,3036;0,184226
990,2678;0,185513
991,2321;0,186652
992,1963;0,187618
993,1605;0,188415
994,1248;0,189076
995,0890;0,189643
996,0532;0,190143
997,0175;0,190574
997,9817;0,190915
998,9459;0,191149
999,9102;0,19129
1000,8744;0,191401
1001,8386;0,191578
1002,8029;0,191921
1003,7671;0,1925
1004,7313;0,193334
1005,6956;0,194408
1006,6598;0,195688
1007,6240;0,197152
1008,5883;0,198799
1009,5525;0,200634
1010,5167;0,202652
1011,4810;0,204813
1012,4452;0,207042
1013,4094;0,209242
1014,3737;0,211316
1015,3379;0,213199
1016,3021;0,214858
1017,2664;0,216301
1018,2306;0,217554
1019,1948;0,218651
1020,1591;0,219623
1021,1233;0,220491
1022,0875;0,221271
1023,0518;0,221979
1024,0160;0,222629
1024,9802;0,223234
1025,9445;0,223805
1026,9087;0,224338
1027,8729;0,224815
1028,8372;0,22519
1029,8014;0,225394
1030,7656;0,225334
1031,7299;0,224912
1032,6941;0,224049
1033,6583;0,222715
1034,6226;0,22095
1035,5868;0,218863
1036,5510;0,216619
1037,5153;0,214401
1038,4795;0,212372
1039,4437;0,210653
1040,4080;0,209307
1041,3722;0,208353
1042,3364;0,207765
1043,3007;0,207492
1044,2649;0,207458
1045,2291;0,207576
1046,1934;0,207758
1047,1576;0,207919
1048,1218;0,207991
1049,0861;0,207912
1050,0503;0,207628
1051,0145;0,207086
1051,9788;0,206248
1052,9430;0,205106
1053,9072;0,203684
1054,8715;0,202026
1055,8357;0,200166
1056,7999;0,198099
1057,7642;0,195772
1058,7284;0,193116
1059,6926;0,190088
1060,6569;0,186715
1061,6211;0,183106
1062,5853;0,179423
1063,5496;0,175834
1064,5138;0,172467
1065,4780;0,169388
1066,4423;0,166608
1067,4065;0,164101
1068,3707;0,161826
1069,3350;0,159734
1070,2992;0,157777
1071,2634;0,155898
1072,2277;0,154034
1073,1919;0,152122
1074,1561;0,150104
1075,1204;0,147944
1076,0846;0,145636
1077,0488;0,143218
1078,0131;0,140758
1078,9773;0,138346
1079,9415;0,136071
1080,9058;0,134002
1081,8700;0,132178
1082,8342;0,130605
1083,7985;0,129268
1084,7627;0,128141
1085,7269;0,127197
1086,6912;0,126413
1087,6554;0,125776
1088,6196;0,125278
1089,5839;0,124917
1090,5481;0,124695
1091,5123;0,124615
1092,4766;0,124675
1093,4408;0,124867
1094,4050;0,125173
1095,3693;0,12557
1096,3335;0,126023
1097,2977;0,1265
1098,2620;0,126969
1099,2262;0,1274
1100,1904;0,127767
1101,1547;0,128042
1102,1189;0,128197
1103,0831;0,12821
1104,0474;0,128074
1105,0116;0,127807
1105,9758;0,127446
1106,9401;0,127035
1107,9043;0,126599
1108,8685;0,126128
1109,8328;0,125562
1110,7970;0,124812
1111,7612;0,12379
1112,7255;0,12245
1113,6897;0,12082
1114,6539;0,118999
1115,6182;0,117133
1116,5824;0,115365
1117,5466;0,113787
1118,5109;0,112413
1119,4751;0,111188
1120,4393;0,110011
1121,4036;0,108782
1122,3678;0,107425
1123,3320;0,105905
1124,2963;0,104217
1125,2605;0,102376
1126,2247;0,100405
1127,1890;0,0983323
1128,1532;0,0961931
1129,1174;0,0940266
1130,0817;0,0918738
1131,0459;0,0897701
1132,0101;0,087743
1132,9744;0,0858134
1133,9386;0,0840028
1134,9028;0,0823378
1135,8671;0,0808514
1136,8313;0,079578
1137,7955;0,0785466
1138,7598;0,0777749
1139,7240;0,0772678
1140,6882;0,0770174
1141,6525;0,0770035
1142,6167;0,0771941
1143,5809;0,0775475
1144,5452;0,0780164
1145,5094;0,078557
1146,4736;0,0791376
1147,4379;0,0797446
1148,4021;0,0803805
1149,3663;0,0810556
1150,3306;0,0817764
1151,2948;0,0825356
1152,2590;0,083308
1153,2233;0,0840542
1154,1875;0,0847284
1155,1517;0,0852852
1156,1160;0,0856832
1157,0802;0,0858813
1158,0444;0,0858316
1159,0087;0,0854734
1159,9729;0,0847347
1160,9371;0,0835448
1161,9014;0,0818552
1162,8656;0,0796615
1163,8298;0,0770153
1164,7941;0,0740221
1165,7583;0,0708238
1166,7225;0,0675731
1167,6868;0,064408
1168,6510;0,0614331
1169,6152;0,0587116
1170,5795;0,0562674
1171,5437;0,0540961
1172,5079;0,0521783
1173,4722;0,0504925
1174,4364;0,0490205
1175,4006;0,0477464
1176,3649;0,0466518
1177,3291;0,0457126
1178,2933;0,0449015
1179,2576;0,0441948
1180,2218;0,0435795
1181,1860;0,0430543
1182,1503;0,0426252
1183,1145;0,0422976
1184,0787;0,0420709
1185,0430;0,0419391
1186,0072;0,0418942
1186,9714;0,0419306
1187,9357;0,0420454
1188,8999;0,042237
1189,8641;0,0425039
1190,8284;0,0428448
1191,7926;0,0432601
1192,7568;0,0437511
1193,7211;0,0443167
1194,6853;0,0449487
1195,6495;0,0456282
1196,6138;0,0463286
1197,5780;0,047022
1198,5422;0,0476878
1199,5065;0,0481848
1200,4707;0,0487953
1201,4349;0,0493766
1202,3992;0,0499283
1203,3634;0,050442
1204,3276;0,0509029
1205,2919;0,0512978
1206,2561;0,0516226
1207,2203;0,0518884
1208,1846;0,0521204
1209,1488;0,0523524
1210,1130;0,0526194
1211,0773;0,0529501
1212,0415;0,053364
1213,0057;0,0538702
1213,9700;0,0544689
1214,9342;0,0551531
1215,8984;0,05591
1216,8627;0,0567221
1217,8269;0,0575691
1218,7911;0,0584323
1219,7554;0,0592964
1220,7196;0,0601501
1221,6838;0,0609848
1222,6481;0,0617931
1223,6123;0,0625682
1224,5765;0,0633043
1225,5408;0,0639979
1226,5050;0,0646488
1227,4692;0,0652589
1228,4335;0,0658311
1229,3977;0,0663664
1230,3619;0,0668636
1231,3262;0,0673179
1232,2904;0,0677221
1233,2546;0,0680678
1234,2189;0,0683475
1235,1831;0,0685576
1236,1473;0,0687006
1237,1116;0,0687867
1238,0758;0,0688314
1239,0400;0,0688509
1240,0043;0,0688562
1240,9685;0,068848
1241,9327;0,0688164
1242,8970;0,0687448
1243,8612;0,068617
1244,8254;0,068424
1245,7897;0,0681682
1246,7539;0,0678619
1247,7181;0,0675225
1248,6824;0,0671659
1249,6466;0,0668027
1250,6108;0,0664384
1251,5751;0,0660766
1252,5393;0,0657244
1253,5035;0,0653939
1254,4678;0,0650991
1255,4320;0,0648484
1256,3962;0,0646365
1257,3605;0,0644419
1258,3247;0,064231
1259,2889;0,0639713
1260,2532;0,063644
1261,2174;0,063252
1262,1816;0,0628168
1263,1459;0,062367
1264,1101;0,0619256
1265,0743;0,061502
1266,0386;0,0610922
1267,0028;0,0606829
1267,9670;0,0602576
1268,9313;0,059802
1269,8955;0,0593062
1270,8597;0,0587668
1271,8240;0,0581885
1272,7882;0,0575849
1273,7524;0,0569776
1274,7167;0,0563914
1275,6809;0,0558479
1276,6451;0,055357
1277,6094;0,0549118
1278,5736;0,0544898
1279,5378;0,0540625
1280,5021;0,0536099
1281,4663;0,0531322
1282,4305;0,0526511
1283,3948;0,0521992
1284,3590;0,0518031
1285,3232;0,051471
1286,2875;0,05119
1287,2517;0,0509357
1288,2159;0,0506878
1289,1802;0,0504426
1290,1444;0,0502155
1291,1086;0,0500322
1292,0729;0,0499174
1293,0371;0,0498866
1294,0013;0,0499438
1294,9656;0,0500847
1295,9298;0,0503004
1296,8940;0,0505806
1297,8583;0,0509155
1298,8225;0,0512975
1299,7867;0,0517252
1300,7510;0,0522043
1301,7152;0,052747
1302,6794;0,0533634
1303,6437;0,0540536
1304,6079;0,0548055
1305,5721;0,0556
1306,5364;0,0564215
1307,5006;0,0572672
1308,4648;0,0581446
1309,4291;0,0590583
1310,3933;0,0599934
1311,3575;0,0609096
1312,3218;0,0617517
1313,2860;0,0624698
1314,2502;0,0630343
1315,2145;0,0634323
1316,1787;0,0636508
1317,1429;0,0636663
1318,1072;0,0634554
1319,0714;0,0630234
1320,0356;0,062425
1320,9999;0,0617547
1321,9641;0,0611115
1322,9283;0,0605642
1323,8926;0,0601402
1324,8568;0,0598357
1325,8210;0,0596341
1326,7853;0,0595186
1327,7495;0,0594732
1328,7137;0,0594761
1329,6780;0,0594965
1330,6422;0,0595043
1331,6064;0,05949
1332,5707;0,0594796
1333,5349;0,0595291
1334,4991;0,0596917
1335,4634;0,0599706
1336,4276;0,0602783
1337,3918;0,0604274
1338,3561;0,0601918
1339,3203;0,059443
1340,2845;0,0582648
1341,2488;0,0569176
1342,2130;0,0556762
1343,1772;0,0547039
1344,1415;0,0540347
1345,1057;0,0536197
1346,0699;0,053381
1347,0342;0,0532512
1347,9984;0,0531962
1348,9626;0,0532178
1349,9269;0,0533367
1350,8911;0,0535665
1351,8553;0,0538947
1352,8196;0,0542822
1353,7838;0,0546819
1354,7480;0,0550708
1355,7123;0,0554726
1356,6765;0,0559523
1357,6407;0,0565781
1358,6050;0,0573754
1359,5692;0,0582912
1360,5334;0,059181
1361,4977;0,0598483
1362,4619;0,060161
1363,4261;0,0601643
1364,3904;0,0600492
1365,3546;0,0600041
1366,3188;0,0601122
1367,2831;0,0603549
1368,2473;0,0606649
1369,2115;0,0609731
1370,1758;0,0612289
1371,1400;0,0613901
1372,1042;0,0614037
1373,0685;0,0612082
1374,0327;0,0607739
1374,9969;0,0601481
1375,9612;0,0594347
1376,9254;0,0587083
1377,8896;0,0579596
1378,8539;0,0571294
1379,8181;0,0561917
1380,7823;0,05521
1381,7466;0,0543157
1382,7108;0,0536224
1383,6750;0,053146
1384,6393;0,0527868
1385,6035;0,0523752
1386,5677;0,0517735
1387,5320;0,0509948
1388,4962;0,050216
1389,4604;0,0496357
1390,4247;0,0493431
1391,3889;0,0493194
1392,3531;0,0495021
1393,3174;0,049817
1394,2816;0,0501689
1395,2458;0,0504369
1396,2101;0,0505099
1397,1743;0,0503494
1398,1385;0,0500238
1399,1028;0,0496814
1400,0670;0,0494767
1401,0313;0,0494947
1401,9955;0,0497201
1402,9597;0,0500595
1403,9240;0,050396
1404,8882;0,0506566
1405,8524;0,0508569
1406,8167;0,0510789
1407,7809;0,0513933
1408,7451;0,051804
1409,7094;0,0522641
1410,6736;0,0527345
1411,6378;0,0532325
1412,6021;0,0538263
1413,5663;0,0545769
1414,5305;0,0554786
1415,4948;0,0564369
1416,4590;0,0572719
1417,4232;0,0577586
1418,3875;0,0577715
1419,3517;0,0574612
1420,3159;0,0571618
1421,2802;0,0570699
1422,2444;0,0571248
1423,2086;0,0571493
1424,1729;0,0570131
1425,1371;0,0566959
1426,1013;0,0562505
1427,0656;0,0557279
1428,0298;0,0551388
1428,9940;0,0544817
1429,9583;0,0537993
1430,9225;0,0531811
1431,8867;0,0526876
1432,8510;0,0522768
1433,8152;0,0518042
1434,7794;0,0510865
1435,7437;0,0500231
1436,7079;0,0487518
1437,6721;0,0476358
1438,6364;0,0469662
1439,6006;0,0467496
1440,5648;0,046816
1441,5291;0,047007
1442,4933;0,0472531
1443,4575;0,0475519
1444,4218;0,0479098
1445,3860;0,0482966
1446,3502;0,0486451
1447,3145;0,0488994
1448,2787;0,0490765
1449,2429;0,0492763
1450,2072;0,0496107
1451,1714;0,0501177
1452,1356;0,0507461
1453,0999;0,0513991
1454,0641;0,051958
1455,0283;0,0522293
1455,9926;0,0518693
1456,9568;0,0506443
1457,9210;0,0490466
1458,8853;0,0479393
1459,8495;0,0475528
1460,8137;0,0475527
1461,7780;0,0475427
1462,7422;0,0472564
1463,7064;0,0465799
1464,6707;0,0455908
1465,6349;0,0445583
1466,5991;0,0437533
1467,5634;0,0432352
1468,5276;0,0428695
1469,4918;0,0424693
1470,4561;0,0418662
1471,4203;0,0409036
1472,3845;0,0394753
1473,3488;0,0376889
1474,3130;0,0359006
1475,2772;0,0344219
1476,2415;0,033319
1477,2057;0,032509
1478,1699;0,0318936
1479,1342;0,0313993
1480,0984;0,030974
1481,0626;0,0305916
1482,0269;0,0302695
1482,9911;0,030069
1483,9553;0,0300667
1484,9196;0,0303146
1485,8838;0,0308062
1486,8480;0,0314352
1487,8123;0,031955
1488,7765;0,0320633
1489,7407;0,0317012
1490,7050;0,0311876
1491,6692;0,0308908
1492,6334;0,0309422
1493,5977;0,0312896
1494,5619;0,0318375
1495,5261;0,0325021
1496,4904;0,0332065
1497,4546;0,033901
1498,4188;0,0346133
1499,3831;0,0354037
1500,3473;0,0362518
1501,3115;0,0370545
1502,2758;0,0377254
1503,2400;0,0382905
1504,2042;0,0389362
1505,1685;0,0399381
1506,1327;0,0412863
1507,0969;0,0422926
1508,0612;0,0423695
1509,0254;0,0418871
1509,9896;0,0413816
1510,9539;0,0410281
1511,9181;0,0408229
1512,8823;0,0407372
1513,8466;0,0407295
1514,8108;0,0407197
1515,7750;0,0405955
1516,7393;0,0402644
1517,7035;0,0396985
1518,6677;0,038934
1519,6320;0,0380571
1520,5962;0,0372072
1521,5604;0,0365601
1522,5247;0,0362369
1523,4889;0,036209
1524,4531;0,0363215
1525,4174;0,0364156
1526,3816;0,0364328
1527,3458;0,0364253
1528,3101;0,0364798
1529,2743;0,0366375
1530,2385;0,0368772
1531,2028;0,0371432
1532,1670;0,0373753
1533,1312;0,0375415
1534,0955;0,0376589
1535,0597;0,037755
1536,0239;0,0378073
1536,9882;0,0377632
1537,9524;0,0376153
1538,9166;0,0374453
1539,8809;0,0373754
1540,8451;0,0374743
1541,8093;0,0377421
1542,7736;0,0380955
1543,7378;0,038387
1544,7020;0,038537
1545,6663;0,0385919
1546,6305;0,0386565
1547,5947;0,0387928
1548,5590;0,0389671
1549,5232;0,0390744
1550,4874;0,0390174
1551,4517;0,0387868
1552,4159;0,0384707
1553,3801;0,0381743
1554,3444;0,0379266
1555,3086;0,0376531
1556,2728;0,0371801
1557,2371;0,0362265
1558,2013;0,034632
1559,1655;0,0330186
1560,1298;0,0323879
1561,0940;0,0328063
1562,0582;0,0336978
1563,0225;0,0345982
1563,9867;0,035304
1564,9509;0,035774
1565,9152;0,0360316
1566,8794;0,0361121
1567,8436;0,0360577
1568,8079;0,0359518
1569,7721;0,0359284
1570,7363;0,0360885
1571,7006;0,0364132
1572,6648;0,0367925
1573,6290;0,0371156
1574,5933;0,0373264
1575,5575;0,0374427
1576,5217;0,037574
1577,4860;0,0378819
1578,4502;0,0384342
1579,4144;0,0391447
1580,3787;0,0398766
1581,3429;0,0405447
1582,3071;0,0411359
1583,2714;0,0416867
1584,2356;0,0422476
1585,1998;0,042855
1586,1641;0,0435169
1587,1283;0,0442159
1588,0925;0,0449206
1589,0568;0,0455955
1590,0210;0,0462079
1590,9852;0,046729
1591,9495;0,0471321
1592,9137;0,0473929
1593,8779;0,0474969
1594,8422;0,0474525
1595,8064;0,0472982
1596,7706;0,0470914
1597,7349;0,0468854
1598,6991;0,0467104
1599,6633;0,0465695
1600,6276;0,0464493
1601,5918;0,0463391
1602,5560;0,0462471
1603,5203;0,0461985
1604,4845;0,0462129
1605,4487;0,0462797
1606,4130;0,0463563
1607,3772;0,0463953
1608,3414;0,0463872
1609,3057;0,0463821
1610,2699;0,0464521
1611,2341;0,0466193
1612,1984;0,0468239
1613,1626;0,0469598
1614,1268;0,0469406
1615,0911;0,0467688
1616,0553;0,0465972
1617,0195;0,0466883
1617,9838;0,0471991
1618,9480;0,0480303
1619,9122;0,0489407
1620,8765;0,0497238
1621,8407;0,0502805
1622,8049;0,0506219
1623,7692;0,0508437
1624,7334;0,0510643
1625,6976;0,0513492
1626,6619;0,0516986
1627,6261;0,0520985
1628,5903;0,0525555
1629,5546;0,0530763
1630,5188;0,0536267
1631,4830;0,0541291
1632,4473;0,0544948
1633,4115;0,0546518
1634,3757;0,0545555
1635,3400;0,0542465
1636,3042;0,0539596
1637,2684;0,053995
1638,2327;0,0544076
1639,1969;0,0550262
1640,1611;0,0556676
1641,1254;0,0562295
1642,0896;0,0566708
1643,0538;0,0569652
1644,0181;0,0570645
1644,9823;0,0568889
1645,9465;0,0564104
1646,9108;0,05581
1647,8750;0,0553896
1648,8392;0,0552369
1649,8035;0,0551589
1650,7677;0,0548505
1651,7319;0,0539832
1652,6962;0,0523753
1653,6604;0,0505461
1654,6246;0,0495216
1655,5889;0,0495217
1656,5531;0,0499992
1657,5173;0,0504337
1658,4816;0,0505548
1659,4458;0,0502544
1660,4100;0,0495113
1661,3743;0,0484117
1662,3385;0,0472071
1663,3027;0,0462273
1664,2670;0,0456469
1665,2312;0,0453871
1666,1954;0,045217
1667,1597;0,044879
1668,1239;0,0441802
1669,0881;0,0431086
1670,0524;0,0419075
1671,0166;0,0408948
1671,9808;0,0401594
1672,9451;0,0395371
1673,9093;0,0388324
1674,8735;0,0380259
1675,8378;0,0373211
1676,8020;0,0369773
1677,7662;0,037067
1678,7305;0,0374214
1679,6947;0,0377551
1680,6589;0,0377714
1681,6232;0,037183
1682,5874;0,0357794
1683,5516;0,0337354
1684,5159;0,031829
1685,4801;0,0307719
1686,4443;0,0305028
1687,4086;0,0305213
1688,3728;0,0304246
1689,3370;0,0300705
1690,3013;0,0295188
1691,2655;0,0289146
1692,2297;0,028388
1693,1940;0,028004
1694,1582;0,0277522
1695,1224;0,0275529
1696,0867;0,0272714
1697,0509;0,0267672
1698,0151;0,025989
1698,9794;0,0250675
1699,9436;0,0242919
1700,9078;0,0239172
1701,8721;0,0239774
1702,8363;0,0242974
1703,8005;0,0246408
1704,7648;0,0248416
1705,7290;0,0248683
1706,6932;0,0248239
1707,6575;0,0248696
1708,6217;0,0251154
1709,5859;0,0255719
1710,5502;0,026187
1711,5144;0,0268985
1712,4786;0,0276518
1713,4429;0,0283755
1714,4071;0,0289345
1715,3713;0,0291085
1716,3356;0,0287197
1717,2998;0,0279406
1718,2640;0,0273067
1719,2283;0,0272011
1720,1925;0,0275763
1721,1567;0,0281671
1722,1210;0,0287313
1723,0852;0,0291405
1724,0494;0,0293919
1725,0137;0,0295835
1725,9779;0,0298542
1726,9421;0,0303045
1727,9064;0,0309416
1728,8706;0,0316739
1729,8348;0,0323372
1730,7991;0,0327234
1731,7633;0,0326162
1732,7275;0,0319072
1733,6918;0,0307988
1734,6560;0,0297769
1735,6202;0,0291874
1736,5845;0,0289912
1737,5487;0,0289561
1738,5129;0,0288997
1739,4772;0,0287755
1740,4414;0,0286419
1741,4056;0,0285725
1742,3699;0,0285726
1743,3341;0,028574
1744,2983;0,0284973
1745,2626;0,0283037
1746,2268;0,0279855
1747,1910;0,0275099
1748,1553;0,0267757
1749,1195;0,0256741
1750,0837;0,0242525
1751,0480;0,0227731
1752,0122;0,0215268
1752,9764;0,0206346
1753,9407;0,0200423
1754,9049;0,0196246
1755,8691;0,0192696
1756,8334;0,0189116
1757,7976;0,0185195
1758,7618;0,0180659
1759,7261;0,0175145
1760,6903;0,0168504
1761,6545;0,0161298
1762,6188;0,0154851
1763,5830;0,0150508
1764,5472;0,0148748
1765,5115;0,0148978
1766,4757;0,0149952
1767,4399;0,0150323
1768,4042;0,0149029
1769,3684;0,0145545
1770,3326;0,0140067
1771,2969;0,0133638
1772,2611;0,0127971
1773,2253;0,0124667
1774,1896;0,0124236
1775,1538;0,0125933
1776,1180;0,012846
1777,0823;0,0130699
1778,0465;0,0132023
1779,0107;0,01323
1779,9750;0,0131743
1780,9392;0,0130666
1781,9034;0,0129249
1782,8677;0,0127522
1783,8319;0,0125611
1784,7961;0,0123976
1785,7604;0,0123303
1786,7246;0,0124067
1787,6888;0,0126172
1788,6531;0,0128947
1789,6173;0,0131376
1790,5815;0,0132391
1791,5458;0,0131389
1792,5100;0,0128919
1793,4742;0,0126535
1794,4385;0,0125426
1795,4027;0,0125567
1796,3669;0,0126236
1797,3312;0,0126844
1798,2954;0,0127218
1799,2596;0,0127385
1800,2239;0,0127219
1801,1881;0,0126398
1802,1523;0,0124737
1803,1166;0,0122508
1804,0808;0,0120386
1805,0450;0,011912
1806,0093;0,0119159
1806,9735;0,0120411
1807,9377;0,0122215
1808,9020;0,0123583
1809,8662;0,0123695
1810,8304;0,0122414
1811,7947;0,0120367
1812,7589;0,0118467
1813,7231;0,0117296
1814,6874;0,0116879
1815,6516;0,0116837
1816,6158;0,0116725
1817,5801;0,0116359
1818,5443;0,0115966
1819,5085;0,0116028
1820,4728;0,0116909
1821,4370;0,0118575
1822,4012;0,0120573
1823,3655;0,0122253
1824,3297;0,0123132
1825,2939;0,0123165
1826,2582;0,0122645
1827,2224;0,0121821
1828,1866;0,0120644
1829,1509;0,0118928
1830,1151;0,0116813
1831,0793;0,011496
1832,0436;0,0114095
1833,0078;0,0114391
1833,9720;0,0115384
1834,9363;0,0116368
1835,9005;0,0116853
1836,8647;0,0116875
1837,8290;0,0116963
1838,7932;0,0117723
1839,7574;0,0119385
1840,7217;0,012169
1841,6859;0,0124062
1842,6501;0,0125797
1843,6144;0,0126309
1844,5786;0,0125509
1845,5428;0,0123897
1846,5071;0,0122018
1847,4713;0,0119972
1848,4355;0,0117579
1849,3998;0,0114826
1850,3640;0,0112073
1851,3282;0,0109906
1852,2925;0,0108795
1853,2567;0,0108857
1854,2209;0,0109862
1855,1852;0,0111429
1856,1494;0,0113177
1857,1136;0,0114759
1858,0779;0,0115814
1859,0421;0,011601
1860,0063;0,0115244
1860,9706;0,0113869
1861,9348;0,0112702
1862,8990;0,0112718
1863,8633;0,0114599
1864,8275;0,0118399
1865,7917;0,0123367
1866,7560;0,0127929
1867,7202;0,0130113
1868,6844;0,0128701
1869,6487;0,01243
1870,6129;0,0118868
1871,5771;0,0114189
1872,5414;0,0111054
1873,5056;0,0109481
1874,4698;0,0109182
1875,4341;0,0109805
1876,3983;0,0110987
1877,3625;0,0112359
1878,3268;0,011358
1879,2910;0,0114401
1880,2552;0,0114704
1881,2195;0,0114536
1882,1837;0,011411
1883,1479;0,0113747
1884,1122;0,0113764
1885,0764;0,0114337
1886,0406;0,0115395
1887,0049;0,0116617
1887,9691;0,0117539
1888,9333;0,0117802
1889,8976;0,011742
1890,8618;0,01168
1891,8260;0,0116425
1892,7903;0,0116474
1893,7545;0,0116708
1894,7188;0,0116641
1895,6830;0,0115905
1896,6472;0,011455
1897,6115;0,011304
1898,5757;0,0111935
1899,5399;0,011151
1900,5042;0,0111612
1901,4684;0,0111829
1902,4326;0,0111835
1903,3969;0,0111684
1904,3611;0,0111823
1905,3253;0,0112793
1906,2896;0,0114813
1907,2538;0,0117505
1908,2180;0,0119967
1909,1823;0,0121225
1910,1465;0,0120854
1911,1107;0,0119278
1912,0750;0,011747
1913,0392;0,0116318
1914,0034;0,0116159
1914,9677;0,0116721
1915,9319;0,0117401
1916,8961;0,0117734
1917,8604;0,0117805
1918,8246;0,0118216
1919,7888;0,011954
1920,7531;0,0121743
1921,7173;0,0124075
1922,6815;0,0125474
1923,6458;0,012522
1924,6100;0,0123386
1925,5742;0,0120756
1926,5385;0,0118282
1927,5027;0,011658
1928,4669;0,0115784
1929,4312;0,0115685
1930,3954;0,0115953
1931,3596;0,0116269
1932,3239;0,0116354
1933,2881;0,0116012
1934,2523;0,0115229
1935,2166;0,0114294
1936,1808;0,0113756
1937,1450;0,0114176
1938,1093;0,0115794
1939,0735;0,011837
1940,0377;0,012128
1941,0020;0,0123818
1941,9662;0,0125537
1942,9304;0,0126432
1943,8947;0,0126781
1944,8589;0,0126791
1945,8231;0,0126385
1946,7874;0,012534
1947,7516;0,0123572
1948,7158;0,0121311
1949,6801;0,0119031
1950,6443;0,0117208
1951,6085;0,0116105
1952,5728;0,0115753
1953,5370;0,0116089
1954,5012;0,0117085
1955,4655;0,0118756
1956,4297;0,012105
1957,3939;0,012377
1958,3582;0,0126607
1959,3224;0,0129262
1960,2866;0,0131517
1961,2509;0,0133179
1962,2151;0,0133948
1963,1793;0,0133396
1964,1436;0,0131178
1965,1078;0,0127429
1966,0720;0,0123059
1967,0363;0,0119633
1968,0005;0,0118669
1968,9647;0,0120767
1969,9290;0,0125203
1970,8932;0,0130266
1971,8574;0,013403
1972,8217;0,0135099
1973,7859;0,0133069
1974,7501;0,0128606
1975,7144;0,0123162
1976,6786;0,0118406
1977,6428;0,0115614
1978,6071;0,0115267
1979,5713;0,011705
1980,5355;0,0120158
1981,4998;0,012366
1982,4640;0,0126751
1983,4282;0,0128879
1984,3925;0,012982
1985,3567;0,0129719
1986,3209;0,0129071
1987,2852;0,0128592
1988,2494;0,0128973
1989,2136;0,0130586
1990,1779;0,0133252
1991,1421;0,0136225
1992,1063;0,0138506
1993,0706;0,0139365
1994,0348;0,013873
1994,9990;0,013715
1995,9633;0,0135429
1996,9275;0,0134221
1997,8917;0,0133806
1998,8560;0,0134141
1999,8202;0,0135062
2000,7844;0,0136481
2001,7487;0,0138375
2002,7129;0,0140593
2003,6771;0,0142685
2004,6414;0,0143961
2005,6056;0,014383
2006,5698;0,0142219
2007,5341;0,0139688
2008,4983;0,0137095
2009,4625;0,013505
2010,4268;0,0133628
2011,3910;0,0132562
2012,3552;0,0131687
2013,3195;0,0131227
2014,2837;0,0131682
2015,2479;0,0133395
2016,2122;0,013614
2017,1764;0,0139101
2018,1406;0,0141291
2019,1049;0,0142087
2020,0691;0,0141469
2021,0333;0,0139865
2021,9976;0,013786
2022,9618;0,0136015
2023,9260;0,0134864
2024,8903;0,0134912
2025,8545;0,0136501
2026,8187;0,0139551
2027,7830;0,014345
2028,7472;0,0147243
2029,7114;0,0150075
2030,6757;0,0151556
2031,6399;0,0151755
2032,6041;0,0150852
2033,5684;0,0148828
2034,5326;0,0145535
2035,4968;0,0141131
2036,4611;0,0136411
2037,4253;0,013264
2038,3895;0,0130904
2039,3538;0,0131438
2040,3180;0,0133425
2041,2822;0,0135459
2042,2465;0,0136365
2043,2107;0,0135812
2044,1749;0,0134282
2045,1392;0,013251
2046,1034;0,0130914
2047,0676;0,012943
2048,0320;0,0127809
2048,9961;0,0126021
2049,9604;0,0124368
2050,9246;0,0123249
2051,8889;0,0122856
2052,8530;0,0123089
2053,8174;0,0123701
2054,7815;0,0124511
2055,7458;0,0125517
2056,7100;0,0126807
2057,6743;0,0128377
2058,6384;0,0130007
2059,6028;0,0131318
2060,5669;0,013195
2061,5313;0,013173
2062,4954;0,0130727
2063,4597;0,0129204
2064,4238;0,0127525
2065,3882;0,0126075
2066,3523;0,0125183
2067,3167;0,0125033
2068,2808;0,0125587
2069,2451;0,0126577
2070,2092;0,0127616
2071,1736;0,0128369
2072,1377;0,0128691
2073,1021;0,0128629
2074,0662;0,0128283
2075,0305;0,0127655
2075,9946;0,0126624
2076,9590;0,0125089
2077,9231;0,0123158
2078,8875;0,0121225
2079,8516;0,0119837
2080,8159;0,0119441
2081,7800;0,0120174
2082,7444;0,012184
2083,7085;0,0124047
2084,6729;0,01264
2085,6370;0,0128594
2086,6013;0,0130379
2087,5654;0,0131493
2088,5298;0,0131662
2089,4939;0,0130736
2090,4583;0,0128857
2091,4224;0,012652
2092,3867;0,0124445
2093,3508;0,0123302
2094,3152;0,0123406
2095,2793;0,0124586
2096,2437;0,0126271
2097,2078;0,0127795
2098,1721;0,0128704
2099,1362;0,0128927
2100,1006;0,0128739
2101,0647;0,0128528
2102,0291;0,0128622
2102,9932;0,01291
2103,9575;0,0129776
2104,9216;0,0130331
2105,8860;0,0130505
2106,8501;0,0130256
2107,8145;0,0129782
2108,7786;0,0129385
2109,7429;0,0129282
2110,7070;0,0129476
2111,6714;0,0129803
2112,6355;0,0130085
2113,5999;0,0130271
2114,5640;0,0130451
2115,5283;0,0130734
2116,4924;0,0131108
2117,4568;0,013142
2118,4209;0,013151
2119,3853;0,0131388
2120,3494;0,0131318
2121,3137;0,0131694
2122,2778;0,0132797
2123,2422;0,0134578
2124,2063;0,0136646
2125,1707;0,0138454
2126,1348;0,0139571
2127,0991;0,0139867
2128,0632;0,0139522
2129,0276;0,0138902
2129,9917;0,01384
2130,9561;0,0138333
2131,9202;0,0138907
2132,8845;0,0140198
2133,8486;0,0142145
2134,8130;0,0144581
2135,7771;0,014731
2136,7415;0,0150194
2137,7056;0,0153167
2138,6699;0,0156133
2139,6340;0,0158862
2140,5984;0,0161002
2141,5625;0,0162266
2142,5269;0,0162675
2143,4910;0,0162656
2144,4553;0,0162858
2145,4194;0,0163781
2146,3838;0,0165463
2147,3479;0,0167462
2148,3123;0,016916
2149,2764;0,0170158
2150,2407;0,0170511
2151,2048;0,0170703
2152,1692;0,0171422
2153,1333;0,01733
2154,0977;0,0176674
2155,0618;0,0181374
2156,0261;0,0186535
2156,9902;0,0190623
2157,9546;0,019195
2158,9187;0,0189654
2159,8831;0,0184399
2160,8472;0,0178005
2161,8115;0,0172313
2162,7756;0,0168332
2163,7400;0,0166155
2164,7041;0,0165335
2165,6685;0,01653
2166,6326;0,0165559
2167,5969;0,0165728
2168,5610;0,0165506
2169,5254;0,0164734
2170,4895;0,0163514
2171,4539;0,0162262
2172,4180;0,0161594
2173,3823;0,0162041
2174,3464;0,0163729
2175,3108;0,0166202
2176,2749;0,0168521
2177,2393;0,0169621
2178,2034;0,0168759
2179,1677;0,0165863
2180,1318;0,0161642
2181,0962;0,0157343
2182,0603;0,0154193
2183,0247;0,0152761
2183,9888;0,0152648
2184,9531;0,0152776
2185,9172;0,0152092
2186,8816;0,0150222
2187,8457;0,0147669
2188,8101;0,0145471
2189,7742;0,0144576
2190,7385;0,0145331
2191,7026;0,0147368
2192,6670;0,0149874
2193,6311;0,0152028
2194,5955;0,0153353
2195,5596;0,0153842
2196,5239;0,0153846
2197,4880;0,0153797
2198,4524;0,0153907
2199,4165;0,0153987
2200,3809;0,0153515
2201,3450;0,0151961
2202,3093;0,0149193
2203,2734;0,0145701
2204,2378;0,0142441
2205,2019;0,0140365
2206,1663;0,0139911
2207,1304;0,0140796
2208,0947;0,014223
2209,0588;0,014339
2210,0232;0,0143834
2210,9873;0,0143629
2211,9517;0,0143176
2212,9158;0,0142895
2213,8801;0,0142993
2214,8442;0,0143388
2215,8086;0,0143788
2216,7727;0,0143837
2217,7371;0,0143283
2218,7012;0,0142107
2219,6655;0,0140578
2220,6296;0,013919
2221,5940;0,0138462
2222,5581;0,0138683
2223,5225;0,0139737
2224,4866;0,0141102
2225,4509;0,0142061
2226,4150;0,0142019
2227,3794;0,0140765
2228,3435;0,0138566
2229,3079;0,0136049
2230,2720;0,0133931
2231,2363;0,0132727
2232,2004;0,013257
2233,1648;0,0133221
2234,1289;0,0134245
2235,0933;0,0135237
2236,0574;0,0135975
2237,0217;0,0136418
2237,9858;0,0136589
2238,9502;0,0136466
2239,9143;0,013597
2240,8787;0,0135079
2241,8428;0,0133959
2242,8071;0,0132984
2243,7712;0,01326
2244,7356;0,0133088
2245,6997;0,0134386
2246,6641;0,0136085
2247,6282;0,0137604
2248,5925;0,0138457
2249,5566;0,0138449
2250,5210;0,0137705
2251,4851;0,0136559
2252,4495;0,0135377
2253,4136;0,013442
2254,3779;0,0133799
2255,3420;0,0133493
2256,3064;0,0133399
2257,2705;0,0133356
2258,2349;0,0133166
2259,1990;0,0132628
2260,1633;0,0131624
2261,1274;0,0130202
2262,0918;0,0128624
2263,0559;0,0127291
2264,0203;0,0126572
2264,9844;0,0126605
2265,9487;0,0127197
2266,9128;0,0127892
2267,8772;0,0128202
2268,8413;0,0127853
2269,8057;0,0126928
2270,7698;0,0125812
2271,7341;0,0124972
2272,6982;0,0124708
2273,6626;0,0125005
2274,6267;0,0125573
2275,5911;0,0126044
2276,5552;0,0126204
2277,5195;0,0126108
2278,4836;0,0126017
2279,4480;0,0126209
2280,4121;0,0126802
2281,3765;0,0127713
2282,3406;0,0128765
2283,3049;0,0129853
2284,2690;0,0131034
2285,2334;0,0132494
2286,1975;0,0134415
2287,1619;0,0136872
2288,1260;0,0139801
2289,0903;0,0143064
2290,0544;0,0146528
2291,0188;0,0150086
2291,9829;0,0153644
2292,9473;0,0157099
2293,9114;0,0160382
2294,8757;0,0163518
2295,8398;0,0166653
2296,8042;0,0169982
2297,7683;0,0173633
2298,7327;0,0177577
2299,6968;0,0181674
2300,6611;0,0185813
2301,6252;0,0190057
2302,5896;0,0194664
2303,5537;0,0199958
2304,5181;0,0206128
2305,4822;0,0213071
2306,4465;0,0220348
2307,4106;0,0227263
2308,3750;0,0233027
2309,3391;0,0236948
2310,3035;0,0238633
2311,2676;0,0238156
2312,2319;0,0236118
2313,1960;0,0233513
2314,1604;0,0231414
2315,1245;0,0230615
2316,0889;0,0231409
2317,0530;0,0233549
2318,0173;0,0236367
2318,9814;0,0238966
2319,9458;0,0240456
2320,9099;0,0240224
2321,8743;0,0238169
2322,8384;0,0234736
2323,8027;0,0230694
2324,7668;0,022679
2325,7312;0,0223489
2326,6953;0,0220886
2327,6597;0,0218714
2328,6238;0,0216409
2329,5881;0,0213272
2330,5522;0,0208744
2331,5166;0,0202697
2332,4807;0,0195522
2333,4451;0,0187958
2334,4092;0,0180799
2335,3735;0,0174699
2336,3376;0,017013
2337,3020;0,0167423
2338,2661;0,0166779
2339,2305;0,016819
2340,1946;0,0171316
2341,1589;0,0175444
2342,1230;0,0179678
2343,0874;0,0183449
2344,0515;0,0187053
2345,0159;0,0191475
2345,9800;0,0197411
2346,9443;0,0204638
2347,9084;0,021225
2348,8728;0,0219192
2349,8369;0,022458
2350,8013;0,0227806
2351,7654;0,0228609
2352,7297;0,0227211
2353,6938;0,0224418
2354,6582;0,0221376
2355,6223;0,021892
2356,5867;0,0217113
2357,5508;0,0215483
2358,5151;0,0213643
2359,4792;0,0211642
2360,4436;0,020981
2361,4077;0,0208397
2362,3721;0,0207424
2363,3362;0,0206804
2364,3005;0,0206469
2365,2646;0,0206354
2366,2290;0,0206354
2367,1931;0,0206375
2368,1575;0,020644
2369,1216;0,0206688
2370,0859;0,0207211
2371,0500;0,0207882
2372,0144;0,0208338
2372,9785;0,0208169
2373,9429;0,0207141
2374,9070;0,0205299
2375,8713;0,0202871
2376,8354;0,0200061
2377,7998;0,0196883
2378,7639;0,0193145
2379,7283;0,0188565
2380,6924;0,0182953
2381,6567;0,017633
2382,6208;0,0168953
2383,5852;0,0161245
2384,5493;0,0153678
2385,5137;0,0146671
2386,4778;0,0140525
2387,4421;0,0135412
2388,4063;0,0131393
2389,3706;0,0128448
2390,3347;0,0126487
2391,2991;0,0125362
2392,2632;0,0124864
2393,2275;0,0124751
2394,1917;0,0124799
2395,1560;0,0124867
2396,1201;0,0124921
2397,0845;0,0125036
2398,0486;0,0125323
2399,0129;0,0125854
2399,9771;0,0126594
2400,9414;0,0127396
2401,9055;0,012805
2402,8699;0,0128371
2403,8340;0,0128291
2404,7983;0,0127892
2405,7625;0,012737
2406,7268;0,0126945
2407,6909;0,0126762
2408,6553;0,0126846
2409,6194;0,0127125
2410,5837;0,0127499
2411,5479;0,0127911
2412,5122;0,0128344
2413,4763;0,0128797
2414,4407;0,0129239
2415,4048;0,012961
2416,3691;0,0129863
2417,3333;0,0129997
2418,2976;0,0130055
2419,2617;0,0130078
2420,2261;0,0130063
2421,1902;0,0129964
2422,1545;0,0129755
2423,1187;0,0129495
2424,0830;0,0129326
2425,0471;0,0129409
2426,0115;0,0129819
2426,9756;0,0130499
2427,9399;0,0131279
2428,9041;0,0131968
2429,8684;0,0132427
2430,8325;0,0132598
2431,7969;0,0132491
2432,7610;0,0132158
2433,7253;0,0131689
2434,6895;0,0131207
2435,6538;0,0130852
2436,6179;0,013073
2437,5823;0,0130866
2438,5464;0,0131207
2439,5107;0,0131658
2440,4749;0,013214
2441,4392;0,0132609
2442,4033;0,0133038
2443,3677;0,0133377
2444,3318;0,0133552
2445,2961;0,013351
2446,2603;0,0133274
2447,2246;0,0132955
2448,1887;0,0132709
2449,1531;0,0132658
2450,1172;0,0132831
2451,0815;0,0133168
2452,0457;0,0133568
2453,0100;0,0133949
2453,9741;0,0134266
2454,9385;0,0134502
2455,9026;0,0134639
2456,8669;0,0134665
2457,8311;0,013459
2458,7954;0,0134472
2459,7595;0,0134413
2460,7239;0,0134502
2461,6880;0,0134765
2462,6523;0,0135132
2463,6165;0,0135474
2464,5808;0,0135685
2465,5449;0,0135748
2466,5093;0,0135744
2467,4734;0,0135789
2468,4377;0,0135943
2469,4019;0,0136168
2470,3662;0,0136367
2471,3303;0,0136476
2472,2947;0,013653
2473,2588;0,0136653
2474,2231;0,0136949
2475,1873;0,0137402
2476,1516;0,0137845
2477,1157;0,0138046
2478,0801;0,0137859
2479,0442;0,0137331
2480,0085;0,0136701
2480,9727;0,0136281
2481,9370;0,01363
2482,9011;0,0136791
2483,8655;0,013759
2484,8296;0,0138425
2485,7939;0,0139043
2486,7581;0,0139314
2487,7224;0,0139269
2488,6865;0,0139063
2489,6509;0,0138896
2490,6150;0,0138917
2491,5793;0,0139166
2492,5435;0,0139569
2493,5078;0,0139989
2494,4719;0,0140304
2495,4363;0,0140465
2496,4004;0,0140509
2497,3647;0,0140523
2498,3289;0,014059
2499,2932;0,0140742
2500,2573;0,0140949
2501,2217;0,014115
2502,1858;0,0141282
2503,1501;0,0141323
2504,1143;0,0141293
2505,0786;0,014125
2506,0427;0,0141259
2507,0071;0,0141359
2507,9712;0,0141539
2508,9355;0,0141731
2509,8997;0,0141838
2510,8640;0,0141792
2511,8281;0,0141602
2512,7925;0,0141383
2513,7566;0,0141308
2514,7209;0,0141518
2515,6851;0,0142018
2516,6494;0,0142648
2517,6135;0,0143147
2518,5779;0,0143293
2519,5420;0,014303
2520,5063;0,0142494
2521,4705;0,0141929
2522,4348;0,0141538
2523,3989;0,0141375
2524,3633;0,0141361
2525,3274;0,0141372
2526,2917;0,0141352
2527,2559;0,0141344
2528,2202;0,0141434
2529,1843;0,0141665
2530,1487;0,0142004
2531,1128;0,0142365
2532,0771;0,0142685
2533,0413;0,0142957
2534,0056;0,0143211
2534,9697;0,0143465
2535,9341;0,0143695
2536,8982;0,0143849
2537,8625;0,0143898
2538,8267;0,0143859
2539,7910;0,0143771
2540,7551;0,014366
2541,7195;0,0143512
2542,6836;0,0143296
2543,6479;0,0143012
2544,6121;0,0142712
2545,5764;0,014249
2546,5405;0,0142426
2547,5049;0,0142543
2548,4690;0,0142807
2549,4333;0,0143146
2550,3975;0,0143491
2551,3618;0,0143787
2552,3259;0,014399
2553,2903;0,014406
2554,2544;0,0143976
2555,2188;0,0143754
2556,1829;0,0143453
2557,1472;0,0143153
2558,1113;0,0142918
2559,0757;0,0142772
2560,0398;0,0142702
2561,0042;0,0142699
2561,9683;0,0142773
2562,9326;0,0142948
2563,8967;0,0143216
2564,8611;0,0143511
2565,8252;0,0143716
2566,7896;0,0143732
2567,7537;0,014354
2568,7180;0,0143231
2569,6821;0,0142962
2570,6465;0,0142869
2571,6106;0,0142988
2572,5750;0,0143248
2573,5391;0,0143517
2574,5034;0,0143688
2575,4675;0,0143727
2576,4319;0,0143667
2577,3960;0,0143563
2578,3604;0,0143441
2579,3245;0,0143284
2580,2888;0,0143061
2581,2529;0,0142764
2582,2173;0,0142434
2583,1814;0,0142153
2584,1458;0,0142001
2585,1099;0,0142011
2586,0742;0,0142158
2587,0383;0,0142375
2588,0027;0,0142598
2588,9668;0,0142805
2589,9312;0,0143025
2590,8953;0,014331
2591,8596;0,0143684
2592,8237;0,0144118
2593,7881;0,0144536
2594,7522;0,0144858
2595,7166;0,0145042
2596,6807;0,0145105
2597,6450;0,0145098
2598,6091;0,0145065
2599,5735;0,0145018
2600,5376;0,0144945
2601,5020;0,0144841
2602,4661;0,0144735
2603,4304;0,0144692
2604,3945;0,0144774
2605,3589;0,0145008
2606,3230;0,0145366
2607,2874;0,0145778
2608,2515;0,0146162
2609,2158;0,014645
2610,1799;0,0146604
2611,1443;0,0146623
2612,1084;0,0146537
2613,0728;0,0146414
2614,0369;0,0146337
2615,0012;0,0146378
2615,9653;0,0146562
2616,9297;0,0146848
2617,8938;0,0147147
2618,8582;0,014736
2619,8223;0,0147433
2620,7866;0,0147376
2621,7507;0,0147266
2622,7151;0,0147203
2623,6792;0,0147272
2624,6436;0,0147514
2625,6077;0,0147915
2626,5720;0,0148418
2627,5361;0,0148945
2628,5005;0,0149418
2629,4646;0,0149772
2630,4290;0,0149971
2631,3931;0,0150014
2632,3574;0,0149934
2633,3215;0,0149794
2634,2859;0,0149673
2635,2500;0,0149644
2636,2144;0,0149753
2637,1785;0,0150004
2638,1428;0,0150363
2639,1069;0,0150772
2640,0713;0,0151177
2641,0354;0,0151554
2641,9998;0,0151912
2642,9639;0,015228
2643,9282;0,0152679
2644,8923;0,0153105
2645,8567;0,0153517
2646,8208;0,015386
2647,7852;0,015409
2648,7493;0,0154206
2649,7136;0,015425
2650,6777;0,0154292
2651,6421;0,0154395
2652,6062;0,015459
2653,5706;0,015487
2654,5347;0,0155209
2655,4990;0,0155587
2656,4631;0,0156009
2657,4275;0,0156497
2658,3916;0,015707
2659,3560;0,0157725
2660,3201;0,0158421
2661,2844;0,0159102
2662,2485;0,015971
2663,2129;0,0160211
2664,1770;0,0160599
2665,1414;0,0160891
2666,1055;0,0161114
2667,0698;0,0161301
2668,0339;0,016148
2668,9983;0,0161678
2669,9624;0,0161924
2670,9268;0,016224
2671,8909;0,0162641
2672,8552;0,0163124
2673,8193;0,0163651
2674,7837;0,0164153
2675,7478;0,0164547
2676,7122;0,016477
2677,6763;0,0164818
2678,6406;0,0164761
2679,6047;0,0164712
2680,5691;0,0164781
2681,5332;0,0165022
2682,4976;0,0165411
2683,4617;0,0165874
2684,4260;0,0166335
2685,3901;0,0166758
2686,3545;0,0167153
2687,3186;0,016755
2688,2830;0,0167961
2689,2471;0,0168363
2690,2114;0,0168706
2691,1755;0,016895
2692,1399;0,016909
2693,1040;0,0169163
2694,0684;0,0169234
2695,0325;0,0169366
2695,9968;0,0169596
2696,9609;0,0169926
2697,9253;0,0170321
2698,8894;0,0170727
2699,8538;0,0171089
2700,8179;0,0171378
2701,7822;0,0171604
2702,7463;0,017182
2703,7107;0,0172097
2704,6748;0,0172485
2705,6392;0,0172984
2706,6033;0,017353
2707,5676;0,0174026
2708,5317;0,0174394
2709,4961;0,0174614
2710,4602;0,0174736
2711,4246;0,0174855
2712,3887;0,0175056
2713,3530;0,0175375
2714,3171;0,0175792
2715,2815;0,0176255
2716,2456;0,0176712
2717,2100;0,017714
2718,1741;0,0177543
2719,1384;0,0177934
2720,1025;0,0178313
2721,0669;0,0178664
2722,0310;0,0178963
2722,9954;0,0179198
2723,9595;0,0179387
2724,9238;0,017957
2725,8879;0,0179794
2726,8523;0,0180095
2727,8164;0,0180485
2728,7808;0,0180952
2729,7449;0,0181468
2730,7092;0,0181994
2731,6733;0,0182485
2732,6377;0,018289
2733,6018;0,0183169
2734,5662;0,0183305
2735,5303;0,0183324
2736,4946;0,0183297
2737,4587;0,0183313
2738,4231;0,0183445
2739,3872;0,0183713
2740,3516;0,0184084
2741,3157;0,018449
2742,2800;0,0184875
2743,2441;0,018522
2744,2085;0,0185538
2745,1726;0,0185851
2746,1370;0,0186155
2747,1011;0,0186424
2748,0654;0,0186631
2749,0295;0,0186785
2749,9939;0,0186945
2750,9580;0,0187192
2751,9224;0,0187575
2752,8865;0,0188076
2753,8508;0,0188607
2754,8149;0,018906
2755,7793;0,0189366
2756,7434;0,0189539
2757,7078;0,0189661
2758,6719;0,0189842
2759,6362;0,0190154
2760,6003;0,0190607
2761,5647;0,019115
2762,5288;0,0191709
2763,4932;0,0192222
2764,4573;0,0192664
2765,4216;0,0193048
2766,3857;0,0193409
2767,3501;0,0193787
2768,3142;0,0194209
2769,2786;0,019468
2770,2427;0,0195179
2771,2070;0,0195674
2772,1711;0,0196132
2773,1355;0,0196546
2774,0996;0,0196939
2775,0640;0,0197365
2776,0281;0,0197884
2776,9924;0,0198531
2777,9565;0,0199292
2778,9209;0,0200104
2779,8850;0,0200878
2780,8494;0,0201539
2781,8135;0,0202055
2782,7778;0,0202454
2783,7419;0,0202802
2784,7063;0,0203168
2785,6704;0,0203591
2786,6348;0,0204071
2787,5989;0,0204586
2788,5632;0,0205115
2789,5273;0,0205664
2790,4917;0,0206261
2791,4558;0,0206938
2792,4202;0,0207708
2793,3843;0,0208555
2794,3486;0,0209434
2795,3127;0,0210291
2796,2771;0,0211085
2797,2412;0,0211801
2798,2056;0,0212464
2799,1697;0,0213132
2800,1340;0,0213882
2801,0981;0,021478
2802,0625;0,0215851
2803,0266;0,0217057
2803,9910;0,0218308
2804,9551;0,0219488
2805,9194;0,0220509
2806,8835;0,022135
2807,8479;0,0222072
2808,8120;0,0222796
2809,7764;0,022365
2810,7405;0,0224718
2811,7048;0,0226002
2812,6689;0,0227435
2813,6333;0,0228913
2814,5974;0,0230352
2815,5618;0,0231719
2816,5259;0,0233033
2817,4902;0,023434
2818,4543;0,0235678
2819,4187;0,0237053
2820,3828;0,0238449
2821,3472;0,0239849
2822,3113;0,0241264
2823,2756;0,0242743
2824,2397;0,0244353
2825,2041;0,0246147
2826,1682;0,0248128
2827,1326;0,0250237
2828,0967;0,0252381
2829,0610;0,0254475
2830,0251;0,0256492
2830,9895;0,0258488
2831,9536;0,0260573
2832,9180;0,0262864
2833,8821;0,0265433
2834,8464;0,0268286
2835,8105;0,0271381
2836,7749;0,0274667
2837,7390;0,0278121
2838,7034;0,0281769
2839,6675;0,0285685
2840,6318;0,0289982
2841,5959;0,0294792
2842,5603;0,0300233
2843,5244;0,0306349
2844,4888;0,031305
2845,4529;0,0320059
2846,4172;0,0326932
2847,3813;0,0333135
2848,3457;0,0338172
2849,3098;0,0341713
2850,2742;0,0343665
2851,2383;0,0344179
2852,2026;0,0343583
2853,1667;0,0342297
2854,1311;0,0340736
2855,0952;0,0339233
2856,0596;0,033799
2857,0237;0,0337075
2857,9880;0,0336469
2858,9521;0,0336127
2859,9165;0,033604
2860,8806;0,0336252
2861,8450;0,0336823
2862,8091;0,033778
2863,7734;0,0339076
2864,7375;0,0340609
2865,7019;0,0342264
2866,6660;0,0343962
2867,6304;0,0345666
2868,5945;0,0347359
2869,5588;0,0349003
2870,5229;0,0350526
2871,4873;0,035184
2872,4514;0,0352886
2873,4158;0,0353668
2874,3799;0,0354251
2875,3442;0,035474
2876,3083;0,0355241
2877,2727;0,0355828
2878,2368;0,0356534
2879,2012;0,0357356
2880,1653;0,0358266
2881,1296;0,0359238
2882,0938;0,0360257
2883,0581;0,0361335
2884,0222;0,0362496
2884,9866;0,0363753
2885,9507;0,0365087
2886,9150;0,0366445
2887,8792;0,0367764
2888,8435;0,036901
2889,8076;0,0370197
2890,7720;0,0371376
2891,7361;0,0372599
2892,7004;0,0373886
2893,6646;0,0375216
2894,6289;0,0376553
2895,5930;0,0377879
2896,5574;0,0379208
2897,5215;0,0380571
2898,4858;0,038198
2899,4500;0,0383409
2900,4143;0,0384793
2901,3784;0,0386071
2902,3428;0,0387221
2903,3069;0,0388293
2904,2712;0,0389392
2905,2354;0,039065
2906,1997;0,0392183
2907,1638;0,0394075
2908,1282;0,0396375
2909,0923;0,039911
2910,0566;0,0402294
2911,0208;0,0405907
2911,9851;0,0409862
2912,9492;0,0413968
2913,9136;0,0417932
2914,8777;0,04214
2915,8420;0,0424048
2916,8062;0,0425663
2917,7705;0,0426196
2918,7346;0,0425752
2919,6990;0,0424519
2920,6631;0,0422691
2921,6274;0,0420408
2922,5916;0,0417747
2923,5559;0,0414755
2924,5200;0,0411494
2925,4844;0,0408069
2926,4485;0,0404611
2927,4128;0,0401244
2928,3770;0,0398034
2929,3413;0,0394956
2930,3054;0,0391915
2931,2698;0,0388777
2932,2339;0,0385434
2933,1982;0,0381848
2934,1624;0,0378071
2935,1267;0,0374223
2936,0908;0,0370452
2937,0552;0,0366876
2938,0193;0,0363545
2938,9836;0,036042
2939,9478;0,0357394
2940,9121;0,035433
2941,8762;0,0351127
2942,8406;0,0347761
2943,8047;0,0344306
2944,7690;0,0340908
2945,7332;0,0337727
2946,6975;0,033488
2947,6616;0,0332405
2948,6260;0,0330273
2949,5901;0,0328411
2950,5544;0,0326735
2951,5186;0,0325158
2952,4829;0,0323584
2953,4470;0,0321908
2954,4114;0,0320038
2955,3755;0,0317933
2956,3398;0,031563
2957,3040;0,0313239
2958,2683;0,0310887
2959,2324;0,0308658
2960,1968;0,0306555
2961,1609;0,0304512
2962,1252;0,0302441
2963,0894;0,0300288
2964,0537;0,0298047
2965,0178;0,0295746
2965,9822;0,029341
2966,9463;0,0291042
2967,9106;0,0288625
2968,8748;0,0286147
2969,8391;0,0283619
2970,8032;0,0281075
2971,7676;0,0278557
2972,7317;0,0276101
2973,6960;0,0273734
2974,6602;0,0271477
2975,6245;0,0269346
2976,5886;0,0267346
2977,5530;0,0265466
2978,5171;0,0263685
2979,4814;0,0261987
2980,4456;0,0260378
2981,4099;0,025888
2982,3740;0,0257513
2983,3384;0,025627
2984,3025;0,0255117
2985,2668;0,0254013
2986,2310;0,0252947
2987,1953;0,0251948
2988,1594;0,0251064
2989,1238;0,0250321
2990,0879;0,02497
2991,0522;0,0249139
2992,0164;0,024858
2992,9807;0,0248011
2993,9448;0,0247482
2994,9092;0,0247077
2995,8733;0,0246872
2996,8376;0,0246895
2997,8018;0,024712
2998,7661;0,0247482
2999,7302;0,0247909
3000,6946;0,0248344
3001,6587;0,0248762
3002,6230;0,0249174
3003,5872;0,0249617
3004,5515;0,0250135
3005,5156;0,0250746
3006,4800;0,0251428
3007,4441;0,0252111
3008,4084;0,0252709
3009,3726;0,0253157
3010,3369;0,0253447
3011,3010;0,0253631
3012,2654;0,0253804
3013,2295;0,0254057
3014,1938;0,0254443
3015,1580;0,0254966
3016,1223;0,0255605
3017,0864;0,0256341
3018,0508;0,0257173
3019,0149;0,0258109
3019,9792;0,0259133
3020,9434;0,0260182
3021,9077;0,0261161
3022,8718;0,0261994
3023,8362;0,0262686
3024,8003;0,0263359
3025,7646;0,0264203
3026,7288;0,0265383
3027,6931;0,026693
3028,6572;0,0268703
3029,6216;0,0270434
3030,5857;0,0271845
3031,5500;0,0272776
3032,5142;0,027325
3033,4785;0,0273452
3034,4426;0,0273636
3035,4070;0,0274028
3036,3711;0,0274749
3037,3354;0,0275799
3038,2996;0,0277076
3039,2639;0,027843
3040,2280;0,0279731
3041,1924;0,0280932
3042,1565;0,0282095
3043,1208;0,0283347
3044,0850;0,02848
3045,0493;0,0286459
3046,0134;0,0288206
3046,9778;0,0289854
3047,9419;0,0291272
3048,9063;0,0292468
3049,8704;0,0293593
3050,8347;0,0294842
3051,7988;0,0296333
3052,7632;0,0298029
3053,7273;0,0299771
3054,6917;0,0301374
3055,6558;0,0302738
3056,6201;0,0303893
3057,5842;0,0304973
3058,5486;0,0306135
3059,5127;0,0307482
3060,4771;0,0309023
3061,4412;0,0310684
3062,4055;0,0312338
3063,3696;0,0313855
3064,3340;0,0315144
3065,2981;0,0316192
3066,2625;0,0317063
3067,2266;0,031787
3068,1909;0,0318724
3069,1550;0,0319697
3070,1194;0,032081
3071,0835;0,0322056
3072,0479;0,0323418
3073,0120;0,0324883
3073,9763;0,0326429
3074,9404;0,0328011
3075,9048;0,0329561
3076,8689;0,0330999
3077,8333;0,033226
3078,7974;0,0333301
3079,7617;0,0334122
3080,7258;0,0334772
3081,6902;0,0335353
3082,6543;0,0336011
3083,6187;0,0336881
3084,5828;0,0338031
3085,5471;0,0339424
3086,5112;0,034093
3087,4756;0,03424
3088,4397;0,0343754
3089,4041;0,0345008
3090,3682;0,0346248
3091,3325;0,0347554
3092,2966;0,0348947
3093,2610;0,0350396
3094,2251;0,0351867
3095,1895;0,0353358
3096,1536;0,0354885
3097,1179;0,0356434
3098,0820;0,0357927
3099,0464;0,0359254
3100,0105;0,0360353
3100,9749;0,0361283
3101,9390;0,0362212
3102,9033;0,0363338
3103,8674;0,0364766
3104,8318;0,0366459
3105,7959;0,0368262
3106,7603;0,0370009
3107,7244;0,0371608
3108,6887;0,0373075
3109,6528;0,03745
3110,6172;0,037597
3111,5813;0,0377524
3112,5457;0,0379148
3113,5098;0,0380814
3114,4741;0,0382506
3115,4382;0,0384226
3116,4026;0,0385966
3117,3667;0,0387689
3118,3311;0,0389331
3119,2952;0,039084
3120,2595;0,0392217
3121,2236;0,0393523
3122,1880;0,0394852
3123,1521;0,039628
3124,1165;0,0397829
3125,0806;0,0399471
3126,0449;0,0401167
3127,0090;0,0402896
3127,9734;0,0404655
3128,9375;0,0406435
3129,9019;0,0408189
3130,8660;0,0409847
3131,8303;0,0411354
3132,7944;0,0412726
3133,7588;0,0414062
3134,7229;0,0415508
3135,6873;0,041718
3136,6514;0,0419114
3137,6157;0,0421254
3138,5798;0,0423486
3139,5442;0,042569
3140,5083;0,0427772
3141,4727;0,0429682
3142,4368;0,0431409
3143,4011;0,0432982
3144,3652;0,0434476
3145,3296;0,0436003
3146,2937;0,0437683
3147,2581;0,0439593
3148,2222;0,0441724
3149,1865;0,044398
3150,1506;0,0446218
3151,1150;0,0448318
3152,0791;0,0450242
3153,0435;0,0452042
3154,0076;0,0453825
3154,9719;0,0455682
3155,9360;0,0457649
3156,9004;0,0459695
3157,8645;0,0461759
3158,8289;0,0463787
3159,7930;0,0465772
3160,7573;0,0467743
3161,7214;0,0469747
3162,6858;0,047182
3163,6499;0,0473963
3164,6143;0,0476152
3165,5784;0,0478348
3166,5427;0,048051
3167,5068;0,0482609
3168,4712;0,0484628
3169,4353;0,0484565
3170,3997;0,0486466
3171,3638;0,0488359
3172,3281;0,0490255
3173,2922;0,0492153
3174,2566;0,0494042
3175,2207;0,0495926
3176,1851;0,0497838
3177,1492;0,0499833
3178,1135;0,0501964
3179,0776;0,0504235
3180,0420;0,0506583
3181,0061;0,0508895
3181,9705;0,051106
3182,9346;0,0513032
3183,8989;0,0514852
3184,8630;0,0516622
3185,8274;0,0518435
3186,7915;0,0520321
3187,7559;0,0522238
3188,7200;0,0524114
3189,6843;0,0525922
3190,6484;0,0527705
3191,6128;0,0529552
3192,5769;0,0531533
3193,5413;0,0533643
3194,5054;0,0535792
3195,4697;0,0537858
3196,4338;0,053975
3197,3982;0,0541463
3198,3623;0,0543069
3199,3267;0,0544678
3200,2908;0,0546384
3201,2551;0,0548227
3202,2192;0,0550185
3203,1836;0,0552191
3204,1477;0,0554157
3205,1121;0,0556014
3206,0762;0,0557741
3207,0405;0,0559369
3208,0046;0,0560965
3208,9690;0,0562582
3209,9331;0,0564234
3210,8975;0,0565907
3211,8616;0,0567598
3212,8259;0,056935
3213,7900;0,0571241
3214,7544;0,0573319
3215,7185;0,0575538
3216,6829;0,0577748
3217,6470;0,0579758
3218,6113;0,0581447
3219,5754;0,0582835
3220,5398;0,0584073
3221,5039;0,058535
3222,4683;0,0586791
3223,4324;0,0588411
3224,3967;0,0590154
3225,3608;0,0591966
3226,3252;0,0593842
3227,2893;0,0595815
3228,2537;0,0597894
3229,2178;0,0600028
3230,1821;0,0602105
3231,1462;0,0604011
3232,1106;0,0605678
3233,0747;0,0607126
3234,0391;0,0608443
3235,0032;0,0609762
3235,9675;0,0611221
3236,9316;0,0612929
3237,8960;0,0614942
3238,8601;0,0617241
3239,8245;0,0619719
3240,7886;0,062221
3241,7529;0,0624526
3242,7170;0,0626529
3243,6814;0,0628176
3244,6455;0,0629542
3245,6099;0,0630792
3246,5740;0,0632136
3247,5383;0,0633741
3248,5024;0,0635676
3249,4668;0,0637898
3250,4309;0,0640274
3251,3953;0,0642645
3252,3594;0,0644901
3253,3237;0,064702
3254,2878;0,0649072
3255,2522;0,0651157
3256,2163;0,0653342
3257,1807;0,0655622
3258,1448;0,0657936
3259,1091;0,0660216
3260,0732;0,0662428
3261,0376;0,0664573
3262,0017;0,0666661
3262,9661;0,0668678
3263,9302;0,0670596
3264,8945;0,0672404
3265,8586;0,0674143
3266,8230;0,067589
3267,7871;0,0677717
3268,7515;0,0679601
3269,7156;0,06814
3270,6799;0,0682893
3271,6440;0,0683887
3272,6084;0,0684342
3273,5725;0,0684424
3274,5369;0,0684456
3275,5010;0,068478
3276,4653;0,0685604
3277,4294;0,0686921
3278,3938;0,0688529
3279,3579;0,0690124
3280,3223;0,0691412
3281,2864;0,0692208
3282,2507;0,069247
3283,2148;0,0692302
3284,1792;0,0691907
3285,1433;0,069152
3286,1077;0,0691324
3287,0718;0,0691393
3288,0361;0,069168
3289,0002;0,0692048
3289,9646;0,0692347
3290,9287;0,0692483
3291,8931;0,0692434
3292,8572;0,0692238
3293,8215;0,0691955
3294,7856;0,0691637
3295,7500;0,0691323
3296,7141;0,0691051
3297,6785;0,0690842
3298,6426;0,0690693
3299,6069;0,0690567
3300,5710;0,069041
3301,5354;0,0690188
3302,4995;0,0689906
3303,4639;0,0689595
3304,4280;0,0689275
3305,3923;0,0688928
3306,3564;0,0688504
3307,3208;0,0687962
3308,2849;0,0687298
3309,2493;0,0686553
3310,2134;0,0685785
3311,1777;0,0685041
3312,1418;0,0684361
3313,1062;0,06838
3314,0703;0,0683435
3315,0347;0,0683351
3315,9988;0,0683595
3316,9631;0,0684138
3317,9272;0,0684887
3318,8916;0,0685723
3319,8557;0,0686549
3320,8201;0,0687321
3321,7842;0,0688036
3322,7485;0,0688706
3323,7126;0,0689333
3324,6770;0,0689906
3325,6411;0,0690409
3326,6055;0,0690838
3327,5696;0,0691213
3328,5339;0,0691587
3329,4980;0,0692027
3330,4624;0,0692577
3331,4265;0,0693218
3332,3909;0,0693844
3333,3550;0,0694279
3334,3193;0,0694348
3335,2834;0,0693948
3336,2478;0,0693096
3337,2119;0,069191
3338,1763;0,0690534
3339,1404;0,068907
3340,1047;0,0687553
3341,0688;0,0685978
3342,0332;0,0684347
3342,9973;0,0682692
3343,9617;0,068106
3344,9258;0,0679491
3345,8901;0,0677992
3346,8542;0,0676537
3347,8186;0,067507
3348,7827;0,067352
3349,7471;0,0671811
3350,7112;0,0669889
3351,6755;0,0667751
3352,6396;0,0665471
3353,6040;0,0663191
3354,5681;0,0661067
3355,5325;0,0659203
3356,4966;0,065761
3357,4609;0,0656205
3358,4250;0,0654864
3359,3894;0,0653484
3360,3535;0,0652017
3361,3179;0,0650474
3362,2820;0,0648896
3363,2463;0,0647317
3364,2104;0,0645734
3365,1748;0,064409
3366,1389;0,0642295
3367,1033;0,0640257
3368,0674;0,0637953
3369,0317;0,0635469
3369,9958;0,0632993
3370,9602;0,0630751
3371,9243;0,0628895
3372,8887;0,0627418
3373,8528;0,0626149
3374,8171;0,0624844
3375,7813;0,0623318
3376,7456;0,0621549
3377,7097;0,0619679
3378,6741;0,0617909
3379,6382;0,0616362
3380,6025;0,0614987
3381,5667;0,0613593
3382,5310;0,0611971
3383,4951;0,0610048
3384,4595;0,0607962
3385,4236;0,0606006
3386,3879;0,0604462
3387,3521;0,0603428
3388,3164;0,0602752
3389,2805;0,0602118
3390,2449;0,0601206
3391,2090;0,0599847
3392,1733;0,0598088
3393,1375;0,059612
3394,1018;0,0594146
3395,0659;0,0592269
3396,0303;0,0590481
3396,9944;0,0588724
3397,9587;0,0586959
3398,9229;0,0585183
3399,8872;0,0583398
3400,8513;0,058158
3401,8157;0,0579688
3402,7798;0,0577702
3403,7441;0,0575655
3404,7083;0,0573626
3405,6726;0,0571686
3406,6367;0,056986
3407,6011;0,05681
3408,5652;0,0566319
3409,5295;0,0564427
3410,4937;0,0562373
3411,4580;0,0560163
3412,4221;0,0557873
3413,3865;0,0555633
3414,3506;0,0553581
3415,3149;0,0551799
3416,2791;0,0550251
3417,2434;0,0548739
3418,2075;0,0546951
3419,1719;0,0544593
3420,1360;0,054155
3421,1003;0,0537993
3422,0645;0,0534326
3423,0288;0,0530995
3423,9929;0,0528272
3424,9573;0,0526155
3425,9214;0,0524407
3426,8857;0,0522702
3427,8499;0,0520779
3428,8142;0,0518537
3429,7783;0,0516021
3430,7427;0,0513337
3431,7068;0,0510577
3432,6711;0,0507788
3433,6353;0,0505015
3434,5996;0,0502331
3435,5637;0,0499819
3436,5281;0,0497515
3437,4922;0,0495378
3438,4565;0,0493329
3439,4207;0,0491343
3440,3850;0,048949
3441,3491;0,0487877
3442,3135;0,0486489
3443,2776;0,048507
3444,2419;0,0483159
3445,2061;0,048032
3446,1704;0,0476437
3447,1345;0,0471884
3448,0989;0,0467372
3449,0630;0,0463559
3450,0273;0,0460714
3450,9915;0,0458669
3451,9558;0,0457026
3452,9199;0,045542
3453,8843;0,0453677
3454,8484;0,0451802
3455,8127;0,0449867
3456,7769;0,0447889
3457,7412;0,0445809
3458,7053;0,0443533
3459,6697;0,0441007
3460,6338;0,0438257
3461,5981;0,0435368
3462,5623;0,0432443
3463,5266;0,0429558
3464,4907;0,0426735
3465,4551;0,0423958
3466,4192;0,0421206
3467,3835;0,0418477
3468,3477;0,0415797
3469,3120;0,0413187
3470,2761;0,0410619
3471,2405;0,0408022
3472,2046;0,0405351
3473,1689;0,0402694
3474,1331;0,0400305
3475,0974;0,0398498
3476,0615;0,0397416
3477,0259;0,0396847
3477,9900;0,0396224
3478,9543;0,0394877
3479,9185;0,0392386
3480,8828;0,038887
3481,8469;0,0384959
3482,8113;0,0381432
3483,7754;0,0378737
3484,7397;0,0376769
3485,7039;0,0375015
3486,6682;0,0372928
3487,6323;0,0370279
3488,5967;0,036728
3489,5608;0,0364412
3490,5251;0,0362078
3491,4893;0,0360333
3492,4536;0,0358861
3493,4177;0,035721
3494,3821;0,0355127
3495,3462;0,0352811
3496,3105;0,0350857
3497,2747;0,0349868
3498,2390;0,0349969
3499,2031;0,0350574
3500,1675;0,0350572
3501,1316;0,0348871
3502,0959;0,0345086
3503,0601;0,0339943
3504,0244;0,0334913
3504,9885;0,033126
3505,9529;0,0329266
3506,9170;0,0328212
3507,8813;0,0326945
3508,8455;0,0324588
3509,8098;0,032103
3510,7739;0,0316904
3511,7383;0,031308
3512,7024;0,0310073
3513,6667;0,0307849
3514,6309;0,0306054
3515,5952;0,0304393
3516,5593;0,0302871
3517,5237;0,030176
3518,4878;0,0301372
3519,4521;0,0301807
3520,4163;0,0302834
3521,3806;0,0303934
3522,3447;0,0304459
3523,3091;0,0303827
3524,2732;0,0301672
3525,2375;0,0297899
3526,2017;0,0292693
3527,1660;0,0286543
3528,1301;0,0280233
3529,0945;0,0274691
3530,0586;0,0270681
3531,0229;0,0268458
3531,9871;0,0267671
3532,9514;0,0267514
3533,9155;0,0267036
3534,8799;0,0265488
3535,8440;0,0262665
3536,8083;0,0259071
3537,7725;0,0255762
3538,7368;0,0253852
3539,7009;0,0254002
3540,6653;0,0256118
3541,6294;0,0259334
3542,5938;0,0262177
3543,5579;0,0262974
3544,5222;0,0260603
3545,4863;0,0255275
3546,4507;0,0248589
3547,4148;0,0242511
3548,3792;0,0238143
3549,3433;0,0235309
3550,3076;0,0233009
3551,2717;0,0230201
3552,2361;0,0226502
3553,2002;0,0222426
3554,1646;0,0218967
3555,1287;0,0216817
3556,0930;0,0215917
3557,0571;0,0215657
3558,0215;0,0215441
3558,9856;0,0215228
3559,9500;0,0215651
3560,9141;0,0217581
3561,8784;0,0221377
3562,8425;0,022632
3563,8069;0,0230452
3564,7710;0,023085
3565,7354;0,0224865
3566,6995;0,0212602
3567,6638;0,01982
3568,6279;0,0186912
3569,5923;0,0181044
3570,5564;0,0179474
3571,5208;0,0179751
3572,4849;0,0179874
3573,4492;0,017895
3574,4133;0,0177069
3575,3777;0,0174772
3576,3418;0,0172464
3577,3062;0,0170187
3578,2703;0,0167896
3579,2346;0,0165908
3580,1987;0,0165011
3581,1631;0,0166022
3582,1272;0,0169097
3583,0916;0,0173334
3584,0557;0,0176796
3585,0200;0,0176921
3585,9841;0,0171651
3586,9485;0,0161454
3587,9126;0,0150278
3588,8770;0,0142854
3589,8411;0,0140926
3590,8054;0,0142821
3591,7695;0,0145527
3592,7339;0,0146581
3593,6980;0,0145005
3594,6624;0,0141454
3595,6265;0,013746
3596,5908;0,0134068
3597,5549;0,01311
3598,5193;0,0127708
3599,4834;0,0123588
3600,4478;0,0119636
3601,4119;0,0117404
3602,3762;0,0117786
3603,3403;0,0120218
3604,3047;0,0122999
3605,2688;0,0124211
3606,2332;0,0122635
3607,1973;0,0118408
3608,1616;0,0113064
3609,1257;0,0108623
3610,0901;0,0106307
3611,0542;0,0106074
3612,0186;0,0107129
3612,9827;0,0108629
3613,9470;0,0109904
3614,9111;0,0110235
3615,8755;0,0108584
3616,8396;0,0103756
3617,8040;0,00951973
3618,7681;0,00842391
3619,7324;0,00744607
3620,6965;0,00697809
3621,6609;0,00716629
3622,6250;0,00784462
3623,5894;0,00868387
3624,5535;0,0093461
3625,5178;0,00954502
3626,4819;0,00906286
3627,4463;0,00785045
3628,4104;0,00625371
3629,3748;0,00498693
3630,3389;0,00454602
3631,3032;0,00481378
3632,2673;0,00534607
3633,2317;0,00577396
3634,1958;0,0059545
3635,1602;0,00593747
3636,1243;0,005857
3637,0886;0,00581968
3638,0527;0,00585306
3639,0171;0,00593448
3639,9812;0,00605447
3640,9456;0,00624887
3641,9097;0,0065711
3642,8740;0,00703252
3643,8381;0,00756157
3644,8025;0,00799658
3645,7666;0,00808147
3646,7310;0,00746063
3647,6951;0,00583372
3648,6594;0,00347826
3649,6235;0,00148044
3650,5879;0,00073234
3651,5520;0,00111347
3652,5164;0,00195298
3653,4805;0,0026578
3654,4448;0,00292753
3655,4089;0,00276541
3656,3733;0,00241677
3657,3374;0,00219549
3658,3018;0,00225372
3659,2659;0,00250744
3660,2302;0,0027738
3661,1943;0,00294697
3662,1587;0,00306367
3663,1228;0,0032352
3664,0872;0,00351524
3665,0513;0,00382203
3666,0156;0,00396662
3666,9797;0,00375769
3667,9441;0,00313591
3668,9082;0,00229594
3669,8726;0,0016421
3670,8367;0,00146599
3671,8010;0,00167116
3672,7651;0,00187169
3673,7295;0,00167645
3674,6936;0,00094697
3675,6580;-2,66595E-05
3676,6221;-0,000684189
3677,5864;-0,000710387
3678,5505;-0,000250068
3679,5149;0,000373537
3680,4790;0,000950734
3681,4434;0,00144971
3682,4075;0,00192921
3683,3718;0,0024179
3684,3359;0,00284603
3685,3003;0,00305598
3686,2644;0,00286061
3687,2288;0,0021284
3688,1929;0,000921892
3689,1572;-0,00037214
3690,1213;-0,00120463
3691,0857;-0,00130754
3692,0498;-0,000840898
3693,0142;-0,000130361
3693,9783;0,000579376
3694,9426;0,0011806
3695,9067;0,00165014
3696,8711;0,00197908
3697,8352;0,00213183
3698,7996;0,00205197
3699,7637;0,00171198
3700,7280;0,00118199
3701,6921;0,000657712
3702,6565;0,000379489
3703,6206;0,000479745
3704,5850;0,000904896
3705,5491;0,00146965
3706,5134;0,00195535
3707,4775;0,00216844
3708,4419;0,00196097
3709,4060;0,00127643
3710,3704;0,000269861
3711,3345;-0,000635589
3712,2988;-0,00100015
3713,2629;-0,000713555
3714,2273;3,3815E-06
3715,1914;0,000836428
3716,1558;0,00155079
3717,1199;0,00204102
3718,0842;0,00231874
3719,0483;0,00247304
3720,0127;0,00260836
3720,9768;0,00277394
3721,9412;0,00292593
3722,9053;0,00295842
3723,8696;0,00279019
3724,8337;0,00244612
3725,7981;0,00206035
3726,7622;0,00178931
3727,7266;0,0017192
3728,6907;0,00185162
3729,6550;0,00214983
3730,6191;0,00257135
3731,5835;0,00303897
3732,5476;0,00336643
3733,5120;0,00325372
3734,4761;0,00252148
3735,4404;0,00145346
3736,4045;0,000689467
3737,3689;0,000657117
3738,3330;0,00128379
3739,2974;0,00217812
3740,2615;0,00289288
3741,2258;0,00306796
3742,1899;0,00251729
3743,1543;0,00136377
3744,1184;0,00013881
3745,0828;-0,000501057
3746,0469;-0,000356521
3747,0112;0,000177014
3747,9753;0,00048545
3748,9397;0,000103743
3749,9038;-0,00101112
3750,8682;-0,00228922
3751,8323;-0,0028841
3752,7966;-0,00245767
3753,7607;-0,00136166
3754,7251;-0,000171558
3755,6892;0,000673093
3756,6536;0,000961974
3757,6177;0,000726224
3758,5820;0,000225129
3759,5461;-0,000180232
3760,5105;-0,000251237
3761,4746;9,8653E-06
3762,4390;0,000435066
3763,4031;0,00082889
3764,3674;0,0010543
3765,3315;0,00105538
3766,2959;0,000842086
3767,2600;0,000460886
3768,2244;-2,20159E-05
3769,1885;-0,000510562
3770,1528;-0,000868422
3771,1169;-0,000958003
3772,0813;-0,000720489
3773,0454;-0,000222963
3774,0098;0,000369796
3774,9739;0,000863488
3775,9382;0,00109865
3776,9023;0,00100431
3777,8667;0,000642858
3778,8308;0,000207262
3779,7952;-8,18727E-05
3780,7593;-0,000119088
3781,7236;4,1317E-05
3782,6877;0,000259419
3783,6521;0,000408259
3784,6162;0,000431245
3785,5806;0,00035142
3786,5447;0,000243919
3787,5090;0,000191793
3788,4731;0,000247188
3789,4375;0,000411973
3790,4016;0,000640466
3791,3660;0,000861746
3792,3301;0,00101547
3793,2944;0,0010869
3794,2585;0,00111819
3795,2229;0,00117469
3796,1870;0,00127325
3797,1514;0,00132565
3798,1155;0,00115819
3799,0798;0,000622375
3800,0439;-0,000245438
3801,0083;-0,00114241
3801,9724;-0,00167321
3802,9368;-0,00169341
3803,9009;-0,00142532
3804,8652;-0,00123834
3805,8293;-0,00135195
3806,7937;-0,00166233
3807,7578;-0,00180495
3808,7222;-0,00146587
3809,6863;-0,000657164
3810,6506;0,000320523
3811,6147;0,00110065
3812,5791;0,00142758
3813,5432;0,00124884
3814,5076;0,000751751
3815,4717;0,000282435
3816,4360;9,76827E-05
3817,4001;0,000148854
3818,3645;0,000144268
3819,3286;-0,000179572
3820,2930;-0,000800639
3821,2571;-0,00137444
3822,2214;-0,00152184
3823,1855;-0,00115987
3824,1499;-0,000505204
3825,1140;0,000149518
3826,0784;0,000608654
3827,0425;0,000819783
3828,0068;0,000838338
3828,9709;0,00076031
3829,9353;0,000665072
3830,8994;0,00059542
3831,8638;0,000567399
3832,8279;0,000581191
3833,7922;0,000617624
3834,7563;0,000631923
3835,7207;0,000565969
3836,6848;0,000387595
3837,6492;0,000135978
3838,6133;-8,22122E-05
3839,5776;-0,000178821
3840,5417;-0,000169157
3841,5061;-0,000148887
3842,4702;-0,000187749
3843,4346;-0,000245687
3844,3987;-0,000179351
3845,3630;0,000164935
3846,3271;0,000842657
3847,2915;0,00176622
3848,2556;0,00273169
3849,2200;0,00346025
3850,1841;0,00360897
3851,1484;0,0027946
3852,1125;0,000842865
3853,0769;-0,00163817
3854,0410;-0,00332684
3855,0054;-0,00349362
3855,9695;-0,00250935
3856,9338;-0,00107973
3857,8979;0,000301765
3858,8623;0,00139748
3859,8264;0,00211932
3860,7908;0,00244834
3861,7549;0,0024169
3862,7192;0,00213688
3863,6833;0,00180062
3864,6477;0,00159072
3865,6118;0,00157083
3866,5762;0,0016727
3867,5403;0,00176515
3868,5046;0,00172604
3869,4688;0,00149034
3870,4331;0,00108177
3871,3972;0,000615928
3872,3616;0,000253368
3873,3257;0,000124178
3874,2900;0,000274898
3875,2542;0,000661164
3876,2185;0,00117513
3877,1826;0,00168708
3878,1470;0,0020886
3879,1111;0,00232703
3880,0754;0,00241282
3881,0396;0,00237972
3882,0039;0,00222385
3882,9680;0,00189946
3883,9324;0,00140223
3884,8965;0,000858368
3885,8608;0,000494634
3886,8250;0,000476379
3887,7893;0,000769092
3888,7534;0,00115717
3889,7178;0,00138389
3890,6819;0,00131914
3891,6462;0,00107198
3892,6104;0,000928627
3893,5747;0,00111435
3894,5388;0,00162757
3895,5032;0,00229638
3896,4673;0,00292227
3897,4316;0,00336982
3898,3958;0,00358789
3899,3601;0,00358791
3900,3242;0,00339331
3901,2886;0,00299645
3902,2527;0,00237989
3903,2170;0,00159759
3904,1812;0,000813032
3905,1455;0,000216619
3906,1096;-9,7518E-05
3907,0740;-0,000162684
3908,0381;-7,34007E-05
3909,0024;9,38367E-05
3909,9666;0,000317519
3910,9309;0,000619497
3911,8950;0,00102219
3912,8594;0,00150303
3913,8235;0,00197434
3914,7878;0,00230349
3915,7520;0,00237446
3916,7163;0,00217203
3917,6804;0,00182704
3918,6448;0,00155176
3919,6089;0,00149731
3920,5732;0,00166055
3921,5374;0,00190573
3922,5017;0,00205884
3923,4658;0,00201626
3924,4302;0,00181592
3925,3943;0,00161513
3926,3586;0,00157635
3927,3228;0,00175446
3928,2871;0,002067
3929,2512;0,00234117
3930,2156;0,00239916
3931,1797;0,00215448
3932,1440;0,00167108
3933,1082;0,00112706
3934,0725;0,000705199
3935,0366;0,00050904
3936,0010;0,00055351
3936,9651;0,000795346
3937,9294;0,00115914
3938,8936;0,00154984
3939,8579;0,00186672
3940,8220;0,00203372
3941,7864;0,00203994
3942,7505;0,00195538
3943,7148;0,00189058
3944,6790;0,00191956
3945,6433;0,002028
3946,6074;0,00212201
3947,5718;0,00208646
3948,5359;0,00186001
3949,5002;0,00148248
3950,4644;0,00107482
3951,4287;0,000763005
3952,3928;0,000610521
3953,3572;0,000606354
3954,3213;0,000696864
3955,2856;0,00082531
3956,2498;0,000954044
3957,2141;0,001064
3958,1782;0,00114153
3959,1426;0,00116903
3960,1067;0,00112939
3961,0710;0,00102023
3962,0352;0,000864247
3962,9995;0,000704225
3963,9636;0,000584128
3964,9280;0,000530406
3965,8921;0,000544521
3966,8564;0,000608774
3967,8206;0,000698215
3968,7849;0,000790959
3969,7490;0,000872259
3970,7134;0,000932468
3971,6775;0,000963084
3972,6418;0,000955935
3973,6060;0,00090712
3974,5703;0,000822509
3975,5344;0,000719166
3976,4988;0,000619614
3977,4629;0,00054152
3978,4272;0,000489425
3979,3914;0,000453966
3980,3557;0,00041947
3981,3198;0,000375877
3982,2842;0,000327974
3983,2483;0,000295375
3984,2126;0,000301951
3985,1768;0,000360593
3986,1411;0,000462786
3987,1052;0,000579539
3988,0696;0,000673533
3989,0337;0,000716245
3989,9980;0,000699736
3990,9622;0,000637041
3991,9265;0,000551822
3992,8906;0,000465577
3993,8550;0,000390794
3994,8191;0,00033204
3995,7834;0,000290353
3996,7476;0,000265295
3997,7119;0,000253586
3998,6760;0,000248129
3999,6404;0,000241277
4000,6045;0,000360855

##### Extended Information
[Comments]
Sample name
Comment
Username
Division
Organization;UNIVERSIDAD INDUSTRIAL DE SANTANDER

[Detailed Information]
Creation date;26/02/2025 5:39 p.m.

Data array type;Linear data array
Horizontal axis;Wavenumber [cm-1]
Vertical axis;Abs
Start;399,193 cm-1
End;4000,6 cm-1
Data interval;0,964233 cm-1
Data points;3736    

[Measurement Information]
Model name;FT/IR-4X1typeA
Serial No.;A035162111

Accessory;ATR PRO 4X
Accessory S/N;A021162126
Incident angle;45 deg

Measurement date;26/02/2025 5:39 p.m.

Light source;Standard
Detector;TGS
Accumulation;40
Resolution;4 cm-1
Zero filling;On
Apodization;Cosine
Gain;Auto (8)
Aperture;Auto (7 mm)
Scan speed;Auto (2 mm/sec)
Filter;Auto (12800 Hz)

