TITLE;
DATA TYPE;INFRARED SPECTRUM
ORIGIN;JASCO
OWNER;
DATE;25/03/26
TIME;19:10:45
SPECTROMETER/DATA SYSTEM;
LOCALE;9226
RESOLUTION;
DELTAX;0,964233
XUNITS;1/CM
YUNITS;ABSORBANCE
FIRSTX;  399,1927
LASTX; 4000,6047
NPOINTS;    3736
FIRSTY;     0,21447
MAXY;     0,26731
MINY;     0,00312
XYDATA
399,1927;0,214465
400,1569;0,214072
401,1211;0,213315
402,0854;0,212469
403,0496;0,211714
404,0138;0,211134
404,9781;0,210757
405,9423;0,210574
406,9065;0,210562
407,8708;0,210698
408,8350;0,210962
409,7992;0,211314
410,7635;0,211673
411,7277;0,211929
412,6919;0,211994
413,6562;0,211857
414,6204;0,211606
415,5846;0,211416
416,5489;0,211538
417,5131;0,212249
418,4773;0,213636
419,4416;0,21533
420,4058;0,216731
421,3700;0,217556
422,3343;0,21789
423,2985;0,217914
424,2627;0,217767
425,2270;0,217538
426,1912;0,2173
427,1554;0,217111
428,1197;0,216986
429,0839;0,216888
430,0481;0,21674
431,0124;0,216474
431,9766;0,216065
432,9408;0,215554
433,9051;0,215005
434,8693;0,214467
435,8335;0,213938
436,7978;0,213388
437,7620;0,212787
438,7262;0,212127
439,6905;0,211416
440,6547;0,21065
441,6189;0,209807
442,5832;0,208865
443,5474;0,207846
444,5116;0,206841
445,4759;0,205983
446,4401;0,205376
447,4043;0,20503
448,3686;0,204833
449,3328;0,204579
450,2970;0,204056
451,2613;0,20316
452,2255;0,201973
453,1897;0,200741
454,1540;0,199761
455,1182;0,199238
456,0824;0,199193
457,0467;0,199425
458,0109;0,199599
458,9751;0,199457
459,9394;0,198982
460,9036;0,198357
461,8678;0,197788
462,8321;0,197386
463,7963;0,197153
464,7605;0,197012
465,7248;0,196865
466,6890;0,196641
467,6532;0,196333
468,6175;0,195998
469,5817;0,195747
470,5459;0,195723
471,5102;0,196049
472,4744;0,196747
473,4386;0,197682
474,4029;0,198623
475,3671;0,199364
476,3313;0,199813
477,2956;0,199988
478,2598;0,199963
479,2240;0,199823
480,1883;0,199629
481,1525;0,199425
482,1167;0,199271
483,0810;0,19926
484,0452;0,199492
485,0094;0,199995
485,9737;0,200666
486,9379;0,201295
487,9021;0,201671
488,8664;0,201689
489,8306;0,201413
490,7948;0,20106
491,7591;0,200902
492,7233;0,201118
493,6875;0,201694
494,6518;0,202452
495,6160;0,203177
496,5802;0,203744
497,5445;0,204167
498,5087;0,204546
499,4729;0,204985
500,4372;0,205513
501,4014;0,206063
502,3656;0,206531
503,3299;0,206861
504,2941;0,207101
505,2583;0,207378
506,2226;0,207821
507,1868;0,20848
508,1510;0,209292
509,1153;0,210106
510,0795;0,21076
511,0437;0,211156
512,0080;0,211311
512,9722;0,211335
513,9365;0,21139
514,9007;0,211625
515,8649;0,212127
516,8292;0,212885
517,7934;0,213776
518,7576;0,214616
519,7219;0,215242
520,6861;0,215569
521,6503;0,2156
522,6146;0,215382
523,5788;0,214975
524,5430;0,214451
525,5073;0,213889
526,4715;0,213367
527,4357;0,212933
528,4000;0,212599
529,3642;0,212342
530,3284;0,212134
531,2927;0,211953
532,2569;0,211778
533,2211;0,211582
534,1854;0,211321
535,1496;0,210951
536,1138;0,210453
537,0781;0,209857
538,0423;0,20925
539,0065;0,208747
539,9708;0,208452
540,9350;0,208414
541,8992;0,208617
542,8635;0,208992
543,8277;0,209451
544,7919;0,209916
545,7562;0,210342
546,7204;0,210716
547,6846;0,211042
548,6489;0,211329
549,6131;0,211579
550,5773;0,211795
551,5416;0,212
552,5058;0,212241
553,4700;0,212587
554,4343;0,213093
555,3985;0,213762
556,3627;0,214509
557,3270;0,215169
558,2912;0,215545
559,2554;0,215487
560,2197;0,214948
561,1839;0,214008
562,1481;0,212845
563,1124;0,211675
564,0766;0,21068
565,0408;0,209966
566,0051;0,209552
566,9693;0,209385
567,9335;0,209363
568,8978;0,209378
569,8620;0,209342
570,8262;0,209211
571,7905;0,208979
572,7547;0,208665
573,7189;0,208285
574,6832;0,207855
575,6474;0,207379
576,6116;0,206868
577,5759;0,206336
578,5401;0,2058
579,5043;0,205277
580,4686;0,204779
581,4328;0,204309
582,3970;0,203865
583,3613;0,203445
584,3255;0,203045
585,2897;0,20266
586,2540;0,202288
587,2182;0,201928
588,1824;0,201586
589,1467;0,201273
590,1109;0,201007
591,0751;0,200802
592,0394;0,200655
593,0036;0,200537
593,9678;0,200394
594,9321;0,200171
595,8963;0,199838
596,8605;0,199403
597,8248;0,198907
598,7890;0,198409
599,7532;0,197949
600,7175;0,197537
601,6817;0,197153
602,6459;0,196773
603,6102;0,196388
604,5744;0,196005
605,5386;0,195622
606,5029;0,195213
607,4671;0,194723
608,4313;0,1941
609,3956;0,193326
610,3598;0,192445
611,3240;0,191544
612,2883;0,190711
613,2525;0,189988
614,2167;0,189347
615,1810;0,188701
616,1452;0,187948
617,1094;0,187015
618,0737;0,185894
619,0379;0,184637
620,0021;0,183314
620,9664;0,18198
621,9306;0,180658
622,8948;0,179356
623,8591;0,178087
624,8233;0,176884
625,7875;0,1758
626,7518;0,174876
627,7160;0,17413
628,6802;0,173546
629,6445;0,173076
630,6087;0,172656
631,5729;0,172219
632,5372;0,171704
633,5014;0,171078
634,4656;0,170341
635,4299;0,169538
636,3941;0,16874
637,3583;0,168023
638,3226;0,167442
639,2868;0,167015
640,2510;0,166719
641,2153;0,166501
642,1795;0,166294
643,1437;0,166042
644,1080;0,16571
645,0722;0,165296
646,0364;0,164822
647,0007;0,164329
647,9649;0,16386
648,9291;0,163454
649,8934;0,163138
650,8576;0,162932
651,8218;0,16285
652,7861;0,162907
653,7503;0,163113
654,7145;0,163462
655,6788;0,16392
656,6430;0,164423
657,6072;0,164894
658,5715;0,165245
659,5357;0,165399
660,4999;0,165315
661,4642;0,165025
662,4284;0,164631
663,3926;0,164255
664,3569;0,163995
665,3211;0,163892
666,2853;0,163892
667,2496;0,163743
668,2138;0,163015
669,1780;0,161544
670,1423;0,159723
671,1065;0,15797
672,0707;0,156368
673,0350;0,154814
673,9992;0,153208
674,9634;0,151511
675,9277;0,149757
676,8919;0,148015
677,8561;0,146351
678,8204;0,144807
679,7846;0,14341
680,7488;0,14219
681,7131;0,141157
682,6773;0,140293
683,6415;0,139552
684,6058;0,138889
685,5700;0,138282
686,5342;0,137729
687,4985;0,137236
688,4627;0,136797
689,4269;0,136399
690,3912;0,136025
691,3554;0,13567
692,3196;0,135334
693,2839;0,135013
694,2481;0,134701
695,2123;0,134384
696,1766;0,134055
697,1408;0,133714
698,1050;0,133369
699,0693;0,133023
700,0335;0,132676
700,9977;0,132313
701,9620;0,131915
702,9262;0,131463
703,8904;0,130941
704,8547;0,130352
705,8189;0,129708
706,7831;0,129033
707,7474;0,128352
708,7116;0,127676
709,6758;0,127
710,6401;0,1263
711,6043;0,125546
712,5685;0,124724
713,5328;0,123846
714,4970;0,122951
715,4612;0,122028
716,4255;0,121222
717,3897;0,120444
718,3539;0,119628
719,3182;0,118699
720,2824;0,11762
721,2466;0,116425
722,2109;0,1152
723,1751;0,114038
724,1393;0,112994
725,1036;0,112069
726,0678;0,11123
727,0320;0,110431
727,9963;0,109639
728,9605;0,108838
729,9247;0,108034
730,8890;0,10724
731,8532;0,106476
732,8174;0,105758
733,7817;0,105099
734,7459;0,104499
735,7101;0,103951
736,6744;0,103443
737,6386;0,102967
738,6028;0,102516
739,5671;0,102089
740,5313;0,101675
741,4955;0,101264
742,4598;0,100847
743,4240;0,100427
744,3882;0,100018
745,3525;0,0996427
746,3167;0,0993144
747,2809;0,0990317
748,2452;0,0987757
749,2094;0,0985196
750,1736;0,0982413
751,1379;0,0979325
752,1021;0,0975999
753,0663;0,09726
754,0306;0,0969292
754,9948;0,0966159
755,9590;0,0963165
756,9233;0,0960168
757,8875;0,0956987
758,8517;0,0953497
759,8160;0,0949694
760,7802;0,0945702
761,7444;0,0941691
762,7087;0,0937764
763,6729;0,0933866
764,6371;0,09298
765,6014;0,0925324
766,5656;0,0920301
767,5298;0,091478
768,4941;0,090899
769,4583;0,0903244
770,4225;0,0897825
771,3868;0,0892899
772,3510;0,0888492
773,3152;0,0884493
774,2795;0,0880689
775,2437;0,0876816
776,2079;0,0872643
777,1722;0,0868054
778,1364;0,0863092
779,1006;0,0857926
780,0649;0,0852749
781,0291;0,0847672
781,9933;0,0842686
782,9576;0,0837721
783,9218;0,0832737
784,8860;0,0827785
785,8503;0,0822982
786,8145;0,0818427
787,7787;0,0814137
788,7430;0,0810059
789,7072;0,0806147
790,6714;0,0802429
791,6357;0,0799016
792,5999;0,0796033
793,5641;0,0793526
794,5284;0,0791421
795,4926;0,0789554
796,4568;0,0787737
797,4211;0,078581
798,3853;0,0783655
799,3495;0,0781177
800,3138;0,0778316
801,2780;0,0775085
802,2422;0,0771615
803,2065;0,0768154
804,1707;0,0764988
805,1349;0,076233
806,0992;0,0760219
807,0634;0,0758519
808,0276;0,0756998
808,9919;0,0755446
809,9561;0,0753762
810,9203;0,0751959
811,8846;0,0750105
812,8488;0,0748256
813,8130;0,0746425
814,7773;0,0744608
815,7415;0,0742825
816,7057;0,0741154
817,6700;0,0739708
818,6342;0,0738591
819,5984;0,0737834
820,5627;0,0737382
821,5269;0,073711
822,4911;0,073687
823,4554;0,0736546
824,4196;0,0736077
825,3839;0,073547
826,3481;0,0734775
827,3123;0,073406
828,2766;0,0733376
829,2408;0,073273
830,2050;0,0732078
831,1693;0,0731348
832,1335;0,073047
833,0977;0,0729422
834,0620;0,0728234
835,0262;0,0726979
835,9904;0,0725734
836,9547;0,072455
837,9189;0,0723449
838,8831;0,0722433
839,8474;0,0721497
840,8116;0,0720634
841,7758;0,0719829
842,7401;0,0719043
843,7043;0,071822
844,6685;0,0717294
845,6328;0,0716208
846,5970;0,0714938
847,5612;0,0713525
848,5255;0,0712092
849,4897;0,0710832
850,4539;0,0709947
851,4182;0,0709561
852,3824;0,0709638
853,3466;0,0709976
854,3109;0,0710294
855,2751;0,0710375
856,2393;0,0710162
857,2036;0,0709769
858,1678;0,0709383
859,1320;0,0709132
860,0963;0,0709012
861,0605;0,0708903
862,0247;0,0708659
862,9890;0,0708191
863,9532;0,0707501
864,9174;0,0706659
865,8817;0,0705751
866,8459;0,0704856
867,8101;0,070404
868,7744;0,0703382
869,7386;0,0702967
870,7028;0,0702875
871,6671;0,0703141
872,6313;0,0703739
873,5955;0,0704582
874,5598;0,0705547
875,5240;0,0706538
876,4882;0,0707544
877,4525;0,070868
878,4167;0,0710183
879,3809;0,0712343
880,3452;0,0715411
881,3094;0,071951
882,2736;0,0724618
883,2379;0,0730615
884,2021;0,0737378
885,1663;0,074485
886,1306;0,0753055
887,0948;0,0762046
888,0590;0,0771825
889,0233;0,0782282
889,9875;0,0793175
890,9517;0,0804156
891,9160;0,0814806
892,8802;0,0824677
893,8444;0,0833323
894,8087;0,0840352
895,7729;0,0845476
896,7371;0,0848575
897,7014;0,0849726
898,6656;0,084919
899,6298;0,0847329
900,5941;0,0844503
901,5583;0,0840976
902,5225;0,08369
903,4868;0,0832364
904,4510;0,0827491
905,4152;0,0822519
906,3795;0,0817798
907,3437;0,0813712
908,3079;0,0810554
909,2722;0,0808445
910,2364;0,0807329
911,2007;0,0807051
912,1649;0,0807466
913,1292;0,080851
914,0934;0,081021
915,0576;0,0812639
916,0219;0,0815847
916,9861;0,0819821
917,9503;0,0824461
918,9146;0,0829587
919,8788;0,0834957
920,8430;0,0840304
921,8073;0,0845376
922,7715;0,0849989
923,7357;0,0854064
924,7000;0,085762
925,6642;0,0860736
926,6284;0,086349
927,5927;0,0865919
928,5569;0,0868009
929,5211;0,0869732
930,4854;0,0871096
931,4496;0,0872187
932,4138;0,087317
933,3781;0,0874249
934,3423;0,0875603
935,3065;0,0877333
936,2708;0,0879453
937,2350;0,0881931
938,1992;0,0884752
939,1635;0,0887965
940,1277;0,0891679
941,0919;0,0896006
942,0562;0,0901013
943,0204;0,090671
943,9846;0,0913103
944,9489;0,0920265
945,9131;0,0928363
946,8773;0,0937613
947,8416;0,0948182
948,8058;0,0960112
949,7700;0,0973309
950,7343;0,0987616
951,6985;0,10029
952,6627;0,101914
953,6270;0,103634
954,5912;0,105457
955,5554;0,10738
956,5197;0,109394
957,4839;0,111482
958,4481;0,113624
959,4124;0,1158
960,3766;0,117997
961,3408;0,120211
962,3051;0,122446
963,2693;0,124717
964,2335;0,127036
965,1978;0,129414
966,1620;0,13185
967,1262;0,134344
968,0905;0,136902
969,0547;0,139549
970,0189;0,142325
970,9832;0,14528
971,9474;0,148459
972,9116;0,15189
973,8759;0,155582
974,8401;0,159532
975,8043;0,163733
976,7686;0,168174
977,7328;0,172838
978,6970;0,177685
979,6613;0,182639
980,6255;0,187587
981,5897;0,192391
982,5540;0,196917
983,5182;0,201069
984,4824;0,204807
985,4467;0,20815
986,4109;0,211157
987,3751;0,213901
988,3394;0,216442
989,3036;0,218812
990,2678;0,221008
991,2321;0,223009
992,1963;0,224787
993,1605;0,226324
994,1248;0,22762
995,0890;0,228696
996,0532;0,229585
997,0175;0,230325
997,9817;0,230952
998,9459;0,231498
999,9102;0,231996
1000,8744;0,232483
1001,8386;0,233007
1002,8029;0,233622
1003,7671;0,234381
1004,7313;0,235331
1005,6956;0,23651
1006,6598;0,23794
1007,6240;0,239628
1008,5883;0,241559
1009,5525;0,243699
1010,5167;0,245992
1011,4810;0,248373
1012,4452;0,250775
1013,4094;0,253136
1014,3737;0,255407
1015,3379;0,25754
1016,3021;0,259494
1017,2664;0,261229
1018,2306;0,262718
1019,1948;0,263954
1020,1591;0,264947
1021,1233;0,265724
1022,0875;0,266316
1023,0518;0,266753
1024,0160;0,267056
1024,9802;0,267239
1025,9445;0,267306
1026,9087;0,26725
1027,8729;0,267056
1028,8372;0,266696
1029,8014;0,266127
1030,7656;0,265294
1031,7299;0,264137
1032,6941;0,262602
1033,6583;0,260666
1034,6226;0,258353
1035,5868;0,255751
1036,5510;0,253005
1037,5153;0,250288
1038,4795;0,247767
1039,4437;0,245557
1040,4080;0,243712
1041,3722;0,242219
1042,3364;0,241023
1043,3007;0,240054
1044,2649;0,23924
1045,2291;0,238518
1046,1934;0,237831
1047,1576;0,237122
1048,1218;0,236339
1049,0861;0,235432
1050,0503;0,234355
1051,0145;0,233075
1051,9788;0,231567
1052,9430;0,229824
1053,9072;0,227849
1054,8715;0,225653
1055,8357;0,223235
1056,7999;0,220573
1057,7642;0,217628
1058,7284;0,214358
1059,6926;0,210756
1060,6569;0,206868
1061,6211;0,202808
1062,5853;0,198736
1063,5496;0,194818
1064,5138;0,19119
1065,4780;0,187934
1066,4423;0,185072
1067,4065;0,182579
1068,3707;0,180401
1069,3350;0,178467
1070,2992;0,1767
1071,2634;0,175019
1072,2277;0,173346
1073,1919;0,171613
1074,1561;0,169768
1075,1204;0,167781
1076,0846;0,165643
1077,0488;0,16337
1078,0131;0,160996
1078,9773;0,158571
1079,9415;0,156155
1080,9058;0,153817
1081,8700;0,151621
1082,8342;0,14962
1083,7985;0,147844
1084,7627;0,146296
1085,7269;0,144957
1086,6912;0,143798
1087,6554;0,142784
1088,6196;0,141899
1089,5839;0,141138
1090,5481;0,140513
1091,5123;0,14004
1092,4766;0,139725
1093,4408;0,139561
1094,4050;0,139528
1095,3693;0,139599
1096,3335;0,139751
1097,2977;0,139963
1098,2620;0,140216
1099,2262;0,140487
1100,1904;0,140744
1101,1547;0,140948
1102,1189;0,141056
1103,0831;0,141036
1104,0474;0,140868
1105,0116;0,140553
1105,9758;0,140107
1106,9401;0,139554
1107,9043;0,138911
1108,8685;0,138179
1109,8328;0,137336
1110,7970;0,136335
1111,7612;0,135129
1112,7255;0,133685
1113,6897;0,132016
1114,6539;0,130182
1115,6182;0,128285
1116,5824;0,126439
1117,5466;0,124737
1118,5109;0,123224
1119,4751;0,121883
1120,4393;0,120644
1121,4036;0,119409
1122,3678;0,118078
1123,3320;0,116575
1124,2963;0,114865
1125,2605;0,112952
1126,2247;0,110875
1127,1890;0,108694
1128,1532;0,106471
1129,1174;0,104264
1130,0817;0,102112
1131,0459;0,100039
1132,0101;0,0980607
1132,9744;0,096195
1133,9386;0,0944729
1134,9028;0,092939
1135,8671;0,0916463
1136,8313;0,0906435
1137,7955;0,0899636
1138,7598;0,0896164
1139,7240;0,0895874
1140,6882;0,089842
1141,6525;0,0903313
1142,6167;0,0909987
1143,5809;0,0917872
1144,5452;0,0926461
1145,5094;0,0935385
1146,4736;0,0944444
1147,4379;0,0953582
1148,4021;0,0962805
1149,3663;0,0972071
1150,3306;0,0981205
1151,2948;0,0989875
1152,2590;0,0997636
1153,2233;0,100402
1154,1875;0,100858
1155,1517;0,101098
1156,1160;0,101087
1157,0802;0,100791
1158,0444;0,100169
1159,0087;0,0991747
1159,9729;0,0977575
1160,9371;0,0958773
1161,9014;0,0935156
1162,8656;0,0906879
1163,8298;0,0874512
1164,7941;0,0839025
1165,7583;0,0801681
1166,7225;0,076387
1167,6868;0,0726909
1168,6510;0,0691878
1169,6152;0,0659517
1170,5795;0,0630209
1171,5437;0,0604039
1172,5079;0,0580892
1173,4722;0,0560556
1174,4364;0,0542795
1175,4006;0,0527383
1176,3649;0,0514106
1177,3291;0,0502755
1178,2933;0,049312
1179,2576;0,0484982
1180,2218;0,0478127
1181,1860;0,047236
1182,1503;0,0467527
1183,1145;0,0463542
1184,0787;0,0460392
1185,0430;0,0458133
1186,0072;0,0456862
1186,9714;0,0456681
1187,9357;0,0457672
1188,8999;0,0459875
1189,8641;0,0463279
1190,8284;0,0467822
1191,7926;0,0473393
1192,7568;0,0479833
1193,7211;0,0486958
1194,6853;0,0494577
1195,6495;0,0502517
1196,6138;0,0510624
1197,5780;0,0518758
1198,5422;0,0526783
1199,5065;0,0533871
1200,4707;0,0541346
1201,4349;0,0548337
1202,3992;0,0554763
1203,3634;0,0560562
1204,3276;0,0565685
1205,2919;0,0570107
1206,2561;0,0573859
1207,2203;0,0577082
1208,1846;0,058005
1209,1488;0,0583155
1210,1130;0,0586823
1211,0773;0,059141
1212,0415;0,0597108
1213,0057;0,0603922
1213,9700;0,0611717
1214,9342;0,0620306
1215,8984;0,0629535
1216,8627;0,0639291
1217,8269;0,0649475
1218,7911;0,0659965
1219,7554;0,0670591
1220,7196;0,0681159
1221,6838;0,0691499
1222,6481;0,0701492
1223,6123;0,0711081
1224,5765;0,072024
1225,5408;0,0728954
1226,5050;0,0737207
1227,4692;0,0744984
1228,4335;0,0752284
1229,3977;0,0759114
1230,3619;0,0765468
1231,3262;0,0771299
1232,2904;0,0776512
1233,2546;0,0780986
1234,2189;0,0784615
1235,1831;0,078737
1236,1473;0,0789318
1237,1116;0,0790613
1238,0758;0,0791429
1239,0400;0,0791901
1240,0043;0,0792073
1240,9685;0,0791903
1241,9327;0,0791301
1242,8970;0,079018
1243,8612;0,0788493
1244,8254;0,0786235
1245,7897;0,0783435
1246,7539;0,0780138
1247,7181;0,0776408
1248,6824;0,077233
1249,6466;0,0768009
1250,6108;0,076356
1251,5751;0,0759096
1252,5393;0,0754712
1253,5035;0,0750467
1254,4678;0,0746367
1255,4320;0,0742357
1256,3962;0,073832
1257,3605;0,0734126
1258,3247;0,0729681
1259,2889;0,0724967
1260,2532;0,0720036
1261,2174;0,0714948
1262,1816;0,0709707
1263,1459;0,0704233
1264,1101;0,0698404
1265,0743;0,0692129
1266,0386;0,0685413
1267,0028;0,0678357
1267,9670;0,0671111
1268,9313;0,0663804
1269,8955;0,0656504
1270,8597;0,0649222
1271,8240;0,0641946
1272,7882;0,0634682
1273,7524;0,0627486
1274,7167;0,0620461
1275,6809;0,0613731
1276,6451;0,0607389
1277,6094;0,0601449
1278,5736;0,059582
1279,5378;0,0590334
1280,5021;0,0584826
1281,4663;0,0579214
1282,4305;0,0573545
1283,3948;0,0567976
1284,3590;0,0562704
1285,3232;0,0557913
1286,2875;0,0553744
1287,2517;0,0550292
1288,2159;0,0547607
1289,1802;0,0545693
1290,1444;0,0544496
1291,1086;0,0543931
1292,0729;0,0543919
1293,0371;0,0544438
1294,0013;0,0545537
1294,9656;0,0547312
1295,9298;0,0549853
1296,8940;0,05532
1297,8583;0,0557329
1298,8225;0,0562172
1299,7867;0,056764
1300,7510;0,0573643
1301,7152;0,0580113
1302,6794;0,0587003
1303,6437;0,0594304
1304,6079;0,0602042
1305,5721;0,0610237
1306,5364;0,0618866
1307,5006;0,0627845
1308,4648;0,0637047
1309,4291;0,0646337
1310,3933;0,0655581
1311,3575;0,0664606
1312,3218;0,0673161
1313,2860;0,0680906
1314,2502;0,0687462
1315,2145;0,0692487
1316,1787;0,0695739
1317,1429;0,0697126
1318,1072;0,0696755
1319,0714;0,0694959
1320,0356;0,0692253
1320,9999;0,0689186
1321,9641;0,0686176
1322,9283;0,0683436
1323,8926;0,0681011
1324,8568;0,0678878
1325,8210;0,0677029
1326,7853;0,0675502
1327,7495;0,0674344
1328,7137;0,0673541
1329,6780;0,0672963
1330,6422;0,0672363
1331,6064;0,0671443
1332,5707;0,0669948
1333,5349;0,0667726
1334,4991;0,0664711
1335,4634;0,0660846
1336,4276;0,0656035
1337,3918;0,0650183
1338,3561;0,0643361
1339,3203;0,0635984
1340,2845;0,0628752
1341,2488;0,0622307
1342,2130;0,0616927
1343,1772;0,061255
1344,1415;0,0609003
1345,1057;0,0606189
1346,0699;0,0604138
1347,0342;0,0602959
1347,9984;0,0602759
1348,9626;0,0603585
1349,9269;0,0605403
1350,8911;0,0608097
1351,8553;0,0611506
1352,8196;0,0615469
1353,7838;0,0619864
1354,7480;0,0624627
1355,7123;0,0629723
1356,6765;0,0635103
1357,6407;0,0640681
1358,6050;0,0646358
1359,5692;0,0652051
1360,5334;0,065767
1361,4977;0,0663069
1362,4619;0,0668093
1363,4261;0,0672701
1364,3904;0,0676987
1365,3546;0,068104
1366,3188;0,0684829
1367,2831;0,0688196
1368,2473;0,0690911
1369,2115;0,0692715
1370,1758;0,0693349
1371,1400;0,0692543
1372,1042;0,0690009
1373,0685;0,0685546
1374,0327;0,0679269
1374,9969;0,0671734
1375,9612;0,0663636
1376,9254;0,0655299
1377,8896;0,0646506
1378,8539;0,0636846
1379,8181;0,0626213
1380,7823;0,0615028
1381,7466;0,0603988
1382,7108;0,0593542
1383,6750;0,0583562
1384,6393;0,0573492
1385,6035;0,056287
1386,5677;0,0551944
1387,5320;0,0541833
1388,4962;0,0533804
1389,4604;0,0528276
1390,4247;0,0524694
1391,3889;0,0522165
1392,3531;0,0520038
1393,3174;0,051809
1394,2816;0,0516413
1395,2458;0,0515199
1396,2101;0,0514561
1397,1743;0,051451
1398,1385;0,0515041
1399,1028;0,0516181
1400,0670;0,0517935
1401,0313;0,0520224
1401,9955;0,0522897
1402,9597;0,0525828
1403,9240;0,0528983
1404,8882;0,0532417
1405,8524;0,05362
1406,8167;0,0540337
1407,7809;0,0544767
1408,7451;0,0549442
1409,7094;0,0554407
1410,6736;0,0559784
1411,6378;0,0565623
1412,6021;0,057178
1413,5663;0,0577935
1414,5305;0,0583763
1415,4948;0,0589095
1416,4590;0,0593948
1417,4232;0,05984
1418,3875;0,0602454
1419,3517;0,0606104
1420,3159;0,060935
1421,2802;0,0611997
1422,2444;0,0613615
1423,2086;0,0613824
1424,1729;0,0612564
1425,1371;0,0610065
1426,1013;0,060656
1427,0656;0,0602001
1428,0298;0,0596092
1428,9940;0,0588713
1429,9583;0,0580359
1430,9225;0,0572009
1431,8867;0,0564374
1432,8510;0,0557299
1433,8152;0,05499
1434,7794;0,0541235
1435,7437;0,0531221
1436,7079;0,0521313
1437,6721;0,0513741
1438,6364;0,0509547
1439,6006;0,0507986
1440,5648;0,0507685
1441,5291;0,0507717
1442,4933;0,0507835
1443,4575;0,0508205
1444,4218;0,0509036
1445,3860;0,0510346
1446,3502;0,0511981
1447,3145;0,051379
1448,2787;0,0515788
1449,2429;0,0518108
1450,2072;0,0520772
1451,1714;0,0523528
1452,1356;0,0525927
1453,0999;0,0527513
1454,0641;0,0527915
1455,0283;0,0526656
1455,9926;0,0522931
1456,9568;0,0516579
1457,9210;0,0510019
1458,8853;0,0506267
1459,8495;0,0505368
1460,8137;0,0505342
1461,7780;0,0504196
1462,7422;0,050047
1463,7064;0,0493348
1464,6707;0,0483193
1465,6349;0,0471852
1466,5991;0,0461387
1467,5634;0,0452377
1468,5276;0,0443847
1469,4918;0,0434196
1470,4561;0,0421813
1471,4203;0,0405513
1472,3845;0,0385576
1473,3488;0,0364843
1474,3130;0,0347151
1475,2772;0,0334086
1476,2415;0,0324695
1477,2057;0,0317406
1478,1699;0,0311141
1479,1342;0,0305381
1480,0984;0,0299961
1481,0626;0,029494
1482,0269;0,029054
1482,9911;0,0287012
1483,9553;0,0284463
1484,9196;0,0282759
1485,8838;0,0281575
1486,8480;0,0280513
1487,8123;0,0279251
1488,7765;0,0277837
1489,7407;0,0276976
1490,7050;0,0277542
1491,6692;0,0279699
1492,6334;0,0282914
1493,5977;0,0286622
1494,5619;0,0290612
1495,5261;0,0295009
1496,4904;0,0299998
1497,4546;0,0305579
1498,4188;0,0311614
1499,3831;0,0317921
1500,3473;0,0324145
1501,3115;0,0329746
1502,2758;0,0334224
1503,2400;0,033733
1504,2042;0,0339072
1505,1685;0,0339321
1506,1327;0,0337077
1507,0969;0,0331403
1508,0612;0,0324569
1509,0254;0,031982
1509,9896;0,0317284
1510,9539;0,0315452
1511,9181;0,0313161
1512,8823;0,0309898
1513,8466;0,0305555
1514,8108;0,0300242
1515,7750;0,0294228
1516,7393;0,0287873
1517,7035;0,0281439
1518,6677;0,027494
1519,6320;0,0268241
1520,5962;0,0261422
1521,5604;0,0255026
1522,5247;0,0249752
1523,4889;0,0245831
1524,4531;0,0242936
1525,4174;0,0240677
1526,3816;0,0239012
1527,3458;0,0238156
1528,3101;0,0238196
1529,2743;0,023888
1530,2385;0,0239771
1531,2028;0,0240531
1532,1670;0,0241116
1533,1312;0,0241817
1534,0955;0,0243036
1535,0597;0,0244874
1536,0239;0,0246995
1536,9882;0,0248958
1537,9524;0,0250561
1538,9166;0,0251702
1539,8809;0,025177
1540,8451;0,0250046
1541,8093;0,0247728
1542,7736;0,024681
1543,7378;0,0247514
1544,7020;0,0249055
1545,6663;0,0250881
1546,6305;0,02528
1547,5947;0,0254727
1548,5590;0,0256548
1549,5232;0,0258177
1550,4874;0,0259693
1551,4517;0,0261345
1552,4159;0,0263356
1553,3801;0,026566
1554,3444;0,0267846
1555,3086;0,02693
1556,2728;0,02693
1557,2371;0,026695
1558,2013;0,0262089
1559,1655;0,0257818
1560,1298;0,02583
1561,0940;0,0263358
1562,0582;0,0270292
1563,0225;0,027707
1563,9867;0,0282791
1564,9509;0,0287229
1565,9152;0,0290483
1566,8794;0,0292853
1567,8436;0,0294851
1568,8079;0,0297164
1569,7721;0,0300381
1570,7363;0,0304592
1571,7006;0,0309356
1572,6648;0,0314131
1573,6290;0,0318684
1574,5933;0,0323184
1575,5575;0,0327978
1576,5217;0,0333321
1577,4860;0,0339352
1578,4502;0,0346085
1579,4144;0,035333
1580,3787;0,0360831
1581,3429;0,036844
1582,3071;0,037612
1583,2714;0,0383888
1584,2356;0,0391791
1585,1998;0,0399907
1586,1641;0,0408283
1587,1283;0,0416835
1588,0925;0,0425302
1589,0568;0,0433319
1590,0210;0,0440537
1590,9852;0,0446704
1591,9495;0,045164
1592,9137;0,0455191
1593,8779;0,045726
1594,8422;0,0457917
1595,8064;0,0457457
1596,7706;0,0456303
1597,7349;0,0454831
1598,6991;0,0453251
1599,6633;0,045164
1600,6276;0,0450028
1601,5918;0,0448495
1602,5560;0,0447183
1603,5203;0,0446222
1604,4845;0,0445635
1605,4487;0,0445285
1606,4130;0,0444961
1607,3772;0,0444535
1608,3414;0,0444132
1609,3057;0,0444112
1610,2699;0,0444816
1611,2341;0,0446238
1612,1984;0,0447987
1613,1626;0,0449523
1614,1268;0,0450443
1615,0911;0,0450689
1616,0553;0,0450728
1617,0195;0,0451468
1617,9838;0,0453543
1618,9480;0,0456678
1619,9122;0,0460031
1620,8765;0,0462887
1621,8407;0,0464972
1622,8049;0,0466434
1623,7692;0,0467668
1624,7334;0,0469024
1625,6976;0,0470576
1626,6619;0,0472189
1627,6261;0,0473781
1628,5903;0,0475457
1629,5546;0,0477357
1630,5188;0,0479417
1631,4830;0,0481328
1632,4473;0,0482673
1633,4115;0,0483031
1634,3757;0,0481991
1635,3400;0,0479493
1636,3042;0,0476627
1637,2684;0,0475132
1638,2327;0,0475548
1639,1969;0,0477132
1640,1611;0,0478995
1641,1254;0,0480628
1642,0896;0,0481817
1643,0538;0,0482411
1644,0181;0,0482156
1644,9823;0,0480682
1645,9465;0,047793
1646,9108;0,0474867
1647,8750;0,0472906
1648,8392;0,0472248
1649,8035;0,0471661
1650,7677;0,0469287
1651,7319;0,0463042
1652,6962;0,0451871
1653,6604;0,0439403
1654,6246;0,04321
1655,5889;0,0430955
1656,5531;0,0432526
1657,5173;0,0433844
1658,4816;0,0433474
1659,4458;0,0430887
1660,4100;0,0426002
1661,3743;0,0419257
1662,3385;0,0411911
1663,3027;0,0405595
1664,2670;0,0401155
1665,2312;0,0398175
1666,1954;0,0395497
1667,1597;0,0391844
1668,1239;0,0386286
1669,0881;0,0378848
1670,0524;0,0370853
1671,0166;0,0363912
1671,9808;0,0358353
1672,9451;0,0353206
1673,9093;0,0347397
1674,8735;0,0340795
1675,8378;0,0334448
1676,8020;0,0329737
1677,7662;0,0327138
1678,7305;0,032594
1679,6947;0,0324881
1680,6589;0,0322693
1681,6232;0,0318195
1682,5874;0,0310496
1683,5516;0,0300218
1684,5159;0,0290533
1685,4801;0,0284492
1686,4443;0,0282004
1687,4086;0,0281149
1688,3728;0,0280378
1689,3370;0,0279124
1690,3013;0,0277524
1691,2655;0,0275955
1692,2297;0,0274719
1693,1940;0,0273919
1694,1582;0,0273456
1695,1224;0,027303
1696,0867;0,0272152
1697,0509;0,0270325
1698,0151;0,0267482
1698,9794;0,0264381
1699,9436;0,0262382
1700,9078;0,0262496
1701,8721;0,0264678
1702,8363;0,0268077
1703,8005;0,0271754
1704,7648;0,0275165
1705,7290;0,0278298
1706,6932;0,0281532
1707,6575;0,0285326
1708,6217;0,0289917
1709,5859;0,0295236
1710,5502;0,0301036
1711,5144;0,0307038
1712,4786;0,0312973
1713,4429;0,0318594
1714,4071;0,0323648
1715,3713;0,0327869
1716,3356;0,033113
1717,2998;0,0333908
1718,2640;0,0337268
1719,2283;0,0341869
1720,1925;0,0347473
1721,1567;0,0353454
1722,1210;0,0359286
1723,0852;0,0364674
1724,0494;0,036954
1725,0137;0,0373988
1725,9779;0,0378247
1726,9421;0,0382521
1727,9064;0,0386837
1728,8706;0,0390965
1729,8348;0,0394426
1730,7991;0,0396541
1731,7633;0,0396541
1732,7275;0,0394037
1733,6918;0,0389869
1734,6560;0,0385971
1735,6202;0,0383548
1736,5845;0,0382089
1737,5487;0,0380228
1738,5129;0,0376817
1739,4772;0,0371434
1740,4414;0,0364469
1741,4056;0,035683
1742,3699;0,0349291
1743,3341;0,0342046
1744,2983;0,0334829
1745,2626;0,0327267
1746,2268;0,0318962
1747,1910;0,0309323
1748,1553;0,0297596
1749,1195;0,0283559
1750,0837;0,0268453
1751,0480;0,0254547
1752,0122;0,0243366
1752,9764;0,0234757
1753,9407;0,0227522
1754,9049;0,0220462
1755,8691;0,0213014
1756,8334;0,0205334
1757,7976;0,0197898
1758,7618;0,0190933
1759,7261;0,0184204
1760,6903;0,0177357
1761,6545;0,0170452
1762,6188;0,016407
1763,5830;0,0158823
1764,5472;0,0154828
1765,5115;0,0151682
1766,4757;0,0148826
1767,4399;0,014586
1768,4042;0,0142634
1769,3684;0,0139114
1770,3326;0,0135241
1771,2969;0,0131018
1772,2611;0,0126829
1773,2253;0,0123463
1774,1896;0,0121506
1775,1538;0,0120843
1776,1180;0,0120831
1777,0823;0,012077
1778,0465;0,0120215
1779,0107;0,0119063
1779,9750;0,0117482
1780,9392;0,0115729
1781,9034;0,0113976
1782,8677;0,0112295
1783,8319;0,0110791
1784,7961;0,0109689
1785,7604;0,0109228
1786,7246;0,0109448
1787,6888;0,0110109
1788,6531;0,011078
1789,6173;0,0111008
1790,5815;0,0110466
1791,5458;0,0109149
1792,5100;0,010753
1793,4742;0,0106323
1794,4385;0,0105873
1795,4027;0,0105933
1796,3669;0,0105988
1797,3312;0,0105628
1798,2954;0,01047
1799,2596;0,0103329
1800,2239;0,0101849
1801,1881;0,0100647
1802,1523;0,00999661
1803,1166;0,00998147
1804,0808;0,0100024
1805,0450;0,0100368
1806,0093;0,0100651
1806,9735;0,010073
1807,9377;0,0100523
1808,9020;0,0100014
1809,8662;0,00992653
1810,8304;0,00984096
1811,7947;0,0097591
1812,7589;0,00968835
1813,7231;0,00962626
1814,6874;0,00956589
1815,6516;0,00950446
1816,6158;0,00944854
1817,5801;0,0094119
1818,5443;0,00940643
1819,5085;0,00943227
1820,4728;0,00947568
1821,4370;0,00951652
1822,4012;0,00953931
1823,3655;0,00954068
1824,3297;0,00952911
1825,2939;0,00951577
1826,2582;0,00950196
1827,2224;0,00947464
1828,1866;0,00941642
1829,1509;0,00932489
1830,1151;0,00922534
1831,0793;0,00915804
1832,0436;0,00914548
1833,0078;0,00917529
1833,9720;0,00921504
1834,9363;0,00923852
1835,9005;0,00924222
1836,8647;0,00924502
1837,8290;0,00927102
1838,7932;0,00932734
1839,7574;0,00939634
1840,7217;0,00944741
1841,6859;0,00945492
1842,6501;0,00941094
1843,6144;0,00933084
1844,5786;0,00924823
1845,5428;0,00919263
1846,5071;0,00916584
1847,4713;0,00914535
1848,4355;0,00910903
1849,3998;0,0090537
1850,3640;0,00899516
1851,3282;0,00895473
1852,2925;0,00894343
1853,2567;0,00895588
1854,2209;0,00897716
1855,1852;0,00899552
1856,1494;0,00901008
1857,1136;0,00902912
1858,0779;0,00906102
1859,0421;0,00910626
1860,0063;0,00915584
1860,9706;0,00919639
1861,9348;0,00921694
1862,8990;0,00921276
1863,8633;0,00918545
1864,8275;0,0091423
1865,7917;0,00909587
1866,7560;0,00906098
1867,7202;0,00904676
1868,6844;0,00904914
1869,6487;0,00905303
1870,6129;0,00904205
1871,5771;0,00900577
1872,5414;0,00894316
1873,5056;0,00886387
1874,4698;0,00878584
1875,4341;0,00872758
1876,3983;0,00869949
1877,3625;0,0087002
1878,3268;0,00872136
1879,2910;0,00875523
1880,2552;0,00879822
1881,2195;0,00884806
1882,1837;0,0088992
1883,1479;0,00894171
1884,1122;0,00896544
1885,0764;0,00896506
1886,0406;0,00894195
1887,0049;0,00890196
1887,9691;0,00885211
1888,9333;0,00879925
1889,8976;0,00875092
1890,8618;0,00871475
1891,8260;0,00869457
1892,7903;0,00868664
1893,7545;0,00868035
1894,7188;0,00866374
1895,6830;0,00863142
1896,6472;0,00858979
1897,6115;0,00855478
1898,5757;0,00854278
1899,5399;0,00856242
1900,5042;0,00861254
1901,4684;0,00868558
1902,4326;0,00877177
1903,3969;0,00886096
1904,3611;0,00894127
1905,3253;0,00899762
1906,2896;0,00901382
1907,2538;0,00897987
1908,2180;0,00890116
1909,1823;0,00880228
1910,1465;0,0087182
1911,1107;0,00867586
1912,0750;0,0086801
1913,0392;0,00871515
1914,0034;0,00875781
1914,9677;0,00879044
1915,9319;0,00880658
1916,8961;0,00880873
1917,8604;0,00880177
1918,8246;0,00878724
1919,7888;0,00876268
1920,7531;0,00872613
1921,7173;0,00868111
1922,6815;0,0086363
1923,6458;0,0085985
1924,6100;0,00856456
1925,5742;0,0085214
1926,5385;0,0084569
1927,5027;0,00837405
1928,4669;0,00829689
1929,4312;0,00826052
1930,3954;0,00828758
1931,3596;0,0083659
1932,3239;0,0084465
1933,2881;0,0084698
1934,2523;0,00840489
1935,2166;0,00827516
1936,1808;0,00814999
1937,1450;0,00810445
1938,1093;0,00817374
1939,0735;0,0083319
1940,0377;0,00850529
1941,0020;0,00861252
1941,9662;0,00861334
1942,9304;0,00853568
1943,8947;0,00845197
1944,8589;0,00841862
1945,8231;0,00843364
1946,7874;0,00844541
1947,7516;0,00839588
1948,7158;0,00826331
1949,6801;0,00807844
1950,6443;0,00790525
1951,6085;0,00779965
1952,5728;0,00777489
1953,5370;0,00779599
1954,5012;0,00780371
1955,4655;0,00774921
1956,4297;0,00761764
1957,3939;0,0074307
1958,3582;0,00723377
1959,3224;0,00707903
1960,2866;0,00701066
1961,2509;0,00705145
1962,2151;0,00719102
1963,1793;0,00738133
1964,1436;0,0075467
1965,1078;0,0076125
1966,0720;0,00754686
1967,0363;0,00739199
1968,0005;0,00725092
1968,9647;0,00722176
1969,9290;0,00732339
1970,8932;0,00747158
1971,8574;0,00752514
1972,8217;0,00737634
1973,7859;0,00703655
1974,7501;0,00666129
1975,7144;0,00647962
1976,6786;0,00665174
1977,6428;0,00715169
1978,6071;0,00777518
1979,5713;0,00827148
1980,5355;0,00849009
1981,4998;0,00843882
1982,4640;0,00824154
1983,4282;0,00804928
1984,3925;0,00796107
1985,3567;0,00798998
1986,3209;0,00808285
1987,2852;0,00817351
1988,2494;0,00823007
1989,2136;0,00826691
1990,1779;0,00832004
1991,1421;0,00840969
1992,1063;0,00852109
1993,0706;0,00861856
1994,0348;0,00867641
1994,9990;0,0086949
1995,9633;0,00868847
1996,9275;0,00866137
1997,8917;0,00859646
1998,8560;0,00847142
1999,8202;0,00829265
2000,7844;0,00811607
2001,7487;0,00802804
2002,7129;0,00809101
2003,6771;0,00829109
2004,6414;0,00852968
2005,6056;0,00867742
2006,5698;0,00866392
2007,5341;0,00853572
2008,4983;0,00842629
2009,4625;0,00845418
2010,4268;0,00863337
2011,3910;0,00886684
2012,3552;0,00901989
2013,3195;0,0090112
2014,2837;0,00885947
2015,2479;0,00866274
2016,2122;0,00853214
2017,1764;0,00852839
2018,1406;0,00864285
2019,1049;0,0088252
2020,0691;0,0090223
2021,0333;0,00919563
2021,9976;0,00931723
2022,9618;0,00936443
2023,9260;0,00932645
2024,8903;0,00921588
2025,8545;0,00906945
2026,8187;0,00893313
2027,7830;0,00884383
2028,7472;0,00882314
2029,7114;0,00888399
2030,6757;0,00903621
2031,6399;0,00927813
2032,6041;0,0095791
2033,5684;0,00987385
2034,5326;0,0100843
2035,4968;0,0101598
2036,4611;0,0101057
2037,4253;0,00997804
2038,3895;0,00985072
2039,3538;0,00977747
2040,3180;0,00977115
2041,2822;0,00980817
2042,2465;0,00985292
2043,2107;0,00988708
2044,1749;0,00992639
2045,1392;0,0100148
2046,1034;0,0101971
2047,0676;0,0104831
2048,0320;0,0108261
2048,9961;0,0111388
2049,9604;0,0113388
2050,9246;0,0113938
2051,8889;0,011334
2052,8530;0,0112324
2053,8174;0,0111656
2054,7815;0,0111775
2055,7458;0,0112615
2056,7100;0,0113709
2057,6743;0,0114509
2058,6384;0,0114688
2059,6028;0,0114267
2060,5669;0,0113535
2061,5313;0,0112865
2062,4954;0,0112541
2063,4597;0,0112658
2064,4238;0,0113098
2065,3882;0,0113585
2066,3523;0,0113802
2067,3167;0,0113545
2068,2808;0,0112837
2069,2451;0,0111936
2070,2092;0,0111211
2071,1736;0,0110951
2072,1377;0,0111213
2073,1021;0,0111814
2074,0662;0,0112455
2075,0305;0,0112893
2075,9946;0,0113042
2076,9590;0,0112958
2077,9231;0,0112749
2078,8875;0,0112498
2079,8516;0,011225
2080,8159;0,0112038
2081,7800;0,0111903
2082,7444;0,0111888
2083,7085;0,0112015
2084,6729;0,0112263
2085,6370;0,0112566
2086,6013;0,0112816
2087,5654;0,0112884
2088,5298;0,011264
2089,4939;0,0112008
2090,4583;0,0111028
2091,4224;0,010989
2092,3867;0,0108904
2093,3508;0,01084
2094,3152;0,0108594
2095,2793;0,0109495
2096,2437;0,0110896
2097,2078;0,0112454
2098,1721;0,0113817
2099,1362;0,0114722
2100,1006;0,0115055
2101,0647;0,0114871
2102,0291;0,0114398
2102,9932;0,0113964
2103,9575;0,0113885
2104,9216;0,011434
2105,8860;0,0115292
2106,8501;0,0116532
2107,8145;0,0117781
2108,7786;0,0118804
2109,7429;0,0119461
2110,7070;0,0119677
2111,6714;0,0119419
2112,6355;0,0118697
2113,5999;0,0117608
2114,5640;0,0116349
2115,5283;0,0115158
2116,4924;0,0114217
2117,4568;0,0113574
2118,4209;0,0113158
2119,3853;0,0112854
2120,3494;0,0112591
2121,3137;0,0112359
2122,2778;0,0112167
2123,2422;0,0111995
2124,2063;0,0111788
2125,1707;0,011151
2126,1348;0,0111176
2127,0991;0,0110842
2128,0632;0,0110554
2129,0276;0,0110336
2129,9917;0,0110239
2130,9561;0,0110426
2131,9202;0,0111174
2132,8845;0,0112721
2133,8486;0,0115021
2134,8130;0,0117593
2135,7771;0,0119642
2136,7415;0,0120444
2137,7056;0,0119743
2138,6699;0,0117888
2139,6340;0,0115636
2140,5984;0,0113796
2141,5625;0,011293
2142,5269;0,0113239
2143,4910;0,0114587
2144,4553;0,0116595
2145,4194;0,011875
2146,3838;0,0120559
2147,3479;0,0121741
2148,3123;0,0122357
2149,2764;0,0122733
2150,2407;0,0123196
2151,2048;0,0123768
2152,1692;0,0124105
2153,1333;0,0123784
2154,0977;0,012277
2155,0618;0,0121698
2156,0261;0,0121676
2156,9902;0,0123567
2157,9546;0,0127179
2158,9187;0,0131149
2159,8831;0,0133898
2160,8472;0,0134831
2161,8115;0,0134561
2162,7756;0,01341
2163,7400;0,0133957
2164,7041;0,0133839
2165,6685;0,0133025
2166,6326;0,0131031
2167,5969;0,0128048
2168,5610;0,0124855
2169,5254;0,0122344
2170,4895;0,012103
2171,4539;0,0120852
2172,4180;0,0121337
2173,3823;0,0121937
2174,3464;0,0122324
2175,3108;0,0122474
2176,2749;0,0122541
2177,2393;0,0122664
2178,2034;0,0122843
2179,1677;0,0122951
2180,1318;0,0122837
2181,0962;0,0122446
2182,0603;0,0121873
2183,0247;0,0121322
2183,9888;0,0120985
2184,9531;0,0120926
2185,9172;0,0121057
2186,8816;0,0121202
2187,8457;0,012123
2188,8101;0,0121132
2189,7742;0,0121007
2190,7385;0,0120965
2191,7026;0,0121028
2192,6670;0,0121098
2193,6311;0,0121024
2194,5955;0,0120704
2195,5596;0,0120139
2196,5239;0,011941
2197,4880;0,0118615
2198,4524;0,0117806
2199,4165;0,0116992
2200,3809;0,0116183
2201,3450;0,0115434
2202,3093;0,0114852
2203,2734;0,0114566
2204,2378;0,0114671
2205,2019;0,011519
2206,1663;0,0116059
2207,1304;0,0117137
2208,0947;0,0118257
2209,0588;0,0119277
2210,0232;0,0120124
2210,9873;0,0120794
2211,9517;0,0121303
2212,9158;0,0121623
2213,8801;0,0121673
2214,8442;0,0121371
2215,8086;0,0120739
2216,7727;0,0119947
2217,7371;0,0119261
2218,7012;0,0118891
2219,6655;0,0118843
2220,6296;0,0118901
2221,5940;0,0118759
2222,5581;0,0118229
2223,5225;0,0117393
2224,4866;0,0116583
2225,4509;0,0116204
2226,4150;0,0116518
2227,3794;0,0117498
2228,3435;0,0118856
2229,3079;0,0120168
2230,2720;0,0121032
2231,2363;0,0121197
2232,2004;0,0120609
2233,1648;0,0119419
2234,1289;0,0117944
2235,0933;0,0116594
2236,0574;0,0115744
2237,0217;0,0115591
2237,9858;0,0116049
2238,9502;0,0116771
2239,9143;0,0117311
2240,8787;0,0117346
2241,8428;0,0116837
2242,8071;0,0116023
2243,7712;0,0115236
2244,7356;0,0114682
2245,6997;0,0114314
2246,6641;0,0113912
2247,6282;0,0113298
2248,5925;0,0112535
2249,5566;0,0111957
2250,5210;0,0112001
2251,4851;0,0112946
2252,4495;0,0114722
2253,4136;0,0116897
2254,3779;0,0118858
2255,3420;0,0120051
2256,3064;0,0120186
2257,2705;0,01193
2258,2349;0,0117709
2259,1990;0,0115896
2260,1633;0,011437
2261,1274;0,0113527
2262,0918;0,0113531
2263,0559;0,0114256
2264,0203;0,0115345
2264,9844;0,0116376
2265,9487;0,0117049
2266,9128;0,0117295
2267,8772;0,0117241
2268,8413;0,0117064
2269,8057;0,0116865
2270,7698;0,0116628
2271,7341;0,0116281
2272,6982;0,0115788
2273,6626;0,0115179
2274,6267;0,0114525
2275,5911;0,0113878
2276,5552;0,0113273
2277,5195;0,0112769
2278,4836;0,0112491
2279,4480;0,0112603
2280,4121;0,0113195
2281,3765;0,0114195
2282,3406;0,011536
2283,3049;0,01164
2284,2690;0,0117138
2285,2334;0,0117609
2286,1975;0,0118015
2287,1619;0,0118584
2288,1260;0,0119412
2289,0903;0,012041
2290,0544;0,012137
2291,0188;0,0122103
2291,9829;0,0122539
2292,9473;0,0122746
2293,9114;0,0122865
2294,8757;0,0123019
2295,8398;0,0123262
2296,8042;0,0123572
2297,7683;0,0123887
2298,7327;0,0124133
2299,6968;0,0124252
2300,6611;0,0124216
2301,6252;0,0124035
2302,5896;0,0123762
2303,5537;0,0123489
2304,5181;0,0123321
2305,4822;0,0123335
2306,4465;0,0123547
2307,4106;0,0123891
2308,3750;0,0124231
2309,3391;0,0124412
2310,3035;0,0124327
2311,2676;0,0123988
2312,2319;0,0123522
2313,1960;0,0123114
2314,1604;0,0122893
2315,1245;0,0122851
2316,0889;0,0122862
2317,0530;0,0122788
2318,0173;0,0122599
2318,9814;0,0122425
2319,9458;0,0122476
2320,9099;0,0122877
2321,8743;0,0123533
2322,8384;0,012415
2323,8027;0,0124383
2324,7668;0,0124004
2325,7312;0,0123
2326,6953;0,0121585
2327,6597;0,0120132
2328,6238;0,0119045
2329,5881;0,011858
2330,5522;0,0118739
2331,5166;0,0119273
2332,4807;0,0119789
2333,4451;0,011991
2334,4092;0,0119435
2335,3735;0,0118449
2336,3376;0,0117347
2337,3020;0,0116697
2338,2661;0,011696
2339,2305;0,01182
2340,1946;0,0119923
2341,1589;0,0121183
2342,1230;0,0120967
2343,0874;0,0118955
2344,0515;0,0116252
2345,0159;0,0114932
2345,9800;0,0116271
2346,9443;0,0119711
2347,9084;0,0123579
2348,8728;0,0126351
2349,8369;0,0127397
2350,8013;0,0127054
2351,7654;0,0126212
2352,7297;0,0125633
2353,6938;0,0125471
2354,6582;0,0125471
2355,6223;0,0125575
2356,5867;0,0125998
2357,5508;0,0126712
2358,5151;0,0127146
2359,4792;0,0126555
2360,4436;0,0124669
2361,4077;0,012191
2362,3721;0,0119011
2363,3362;0,0116493
2364,3005;0,0114441
2365,2646;0,0112632
2366,2290;0,0110799
2367,1931;0,0108826
2368,1575;0,0106774
2369,1216;0,0104793
2370,0859;0,0103011
2371,0500;0,0101495
2372,0144;0,0100298
2372,9785;0,00995298
2373,9429;0,0099367
2374,9070;0,00999748
2375,8713;0,0101396
2376,8354;0,0103492
2377,7998;0,010598
2378,7639;0,0108535
2379,7283;0,0110895
2380,6924;0,0112907
2381,6567;0,0114504
2382,6208;0,0115675
2383,5852;0,0116427
2384,5493;0,0116789
2385,5137;0,0116823
2386,4778;0,0116634
2387,4421;0,011636
2388,4063;0,0116138
2389,3706;0,0116069
2390,3347;0,0116191
2391,2991;0,0116467
2392,2632;0,0116808
2393,2275;0,0117118
2394,1917;0,0117337
2395,1560;0,0117473
2396,1201;0,0117596
2397,0845;0,0117792
2398,0486;0,0118103
2399,0129;0,0118487
2399,9771;0,0118835
2400,9414;0,0119052
2401,9055;0,0119124
2402,8699;0,0119149
2403,8340;0,0119286
2404,7983;0,0119655
2405,7625;0,0120254
2406,7268;0,0120946
2407,6909;0,0121531
2408,6553;0,0121866
2409,6194;0,012193
2410,5837;0,012183
2411,5479;0,0121729
2412,5122;0,0121757
2413,4763;0,0121957
2414,4407;0,0122283
2415,4048;0,0122648
2416,3691;0,0122973
2417,3333;0,0123223
2418,2976;0,012341
2419,2617;0,012358
2420,2261;0,0123785
2421,1902;0,0124065
2422,1545;0,0124436
2423,1187;0,0124885
2424,0830;0,0125367
2425,0471;0,0125813
2426,0115;0,0126158
2426,9756;0,0126362
2427,9399;0,0126439
2428,9041;0,0126459
2429,8684;0,0126526
2430,8325;0,0126726
2431,7969;0,0127085
2432,7610;0,0127544
2433,7253;0,0127988
2434,6895;0,0128297
2435,6538;0,0128405
2436,6179;0,0128324
2437,5823;0,0128132
2438,5464;0,0127935
2439,5107;0,0127837
2440,4749;0,0127914
2441,4392;0,0128209
2442,4033;0,0128726
2443,3677;0,0129413
2444,3318;0,0130161
2445,2961;0,0130831
2446,2603;0,0131308
2447,2246;0,0131551
2448,1887;0,0131618
2449,1531;0,0131622
2450,1172;0,0131667
2451,0815;0,0131796
2452,0457;0,0131981
2453,0100;0,0132176
2453,9741;0,0132358
2454,9385;0,0132548
2455,9026;0,0132782
2456,8669;0,0133075
2457,8311;0,0133394
2458,7954;0,0133686
2459,7595;0,0133911
2460,7239;0,0134075
2461,6880;0,0134221
2462,6523;0,0134392
2463,6165;0,01346
2464,5808;0,0134817
2465,5449;0,0135002
2466,5093;0,0135136
2467,4734;0,0135239
2468,4377;0,0135369
2469,4019;0,0135577
2470,3662;0,0135875
2471,3303;0,0136217
2472,2947;0,0136511
2473,2588;0,0136672
2474,2231;0,0136671
2475,1873;0,013656
2476,1516;0,0136458
2477,1157;0,0136495
2478,0801;0,0136751
2479,0442;0,0137217
2480,0085;0,0137811
2480,9727;0,0138418
2481,9370;0,0138948
2482,9011;0,0139362
2483,8655;0,0139669
2484,8296;0,01399
2485,7939;0,0140082
2486,7581;0,0140232
2487,7224;0,0140358
2488,6865;0,0140465
2489,6509;0,0140556
2490,6150;0,0140634
2491,5793;0,0140696
2492,5435;0,0140742
2493,5078;0,0140775
2494,4719;0,0140802
2495,4363;0,0140827
2496,4004;0,014085
2497,3647;0,0140866
2498,3289;0,0140882
2499,2932;0,0140921
2500,2573;0,0141025
2501,2217;0,014124
2502,1858;0,0141597
2503,1501;0,0142089
2504,1143;0,0142662
2505,0786;0,0143232
2506,0427;0,0143709
2507,0071;0,0144025
2507,9712;0,0144167
2508,9355;0,014418
2509,8997;0,0144151
2510,8640;0,0144176
2511,8281;0,0144313
2512,7925;0,0144554
2513,7566;0,0144831
2514,7209;0,0145055
2515,6851;0,0145168
2516,6494;0,0145173
2517,6135;0,0145137
2518,5779;0,0145151
2519,5420;0,0145285
2520,5063;0,0145555
2521,4705;0,0145925
2522,4348;0,0146319
2523,3989;0,0146645
2524,3633;0,0146809
2525,3274;0,0146739
2526,2917;0,0146424
2527,2559;0,0145935
2528,2202;0,0145435
2529,1843;0,014512
2530,1487;0,0145135
2531,1128;0,0145499
2532,0771;0,0146081
2533,0413;0,0146667
2534,0056;0,0147055
2534,9697;0,0147154
2535,9341;0,0147007
2536,8982;0,0146748
2537,8625;0,0146532
2538,8267;0,0146458
2539,7910;0,0146552
2540,7551;0,0146775
2541,7195;0,0147063
2542,6836;0,0147353
2543,6479;0,014761
2544,6121;0,0147818
2545,5764;0,0147976
2546,5405;0,014808
2547,5049;0,0148132
2548,4690;0,0148149
2549,4333;0,0148179
2550,3975;0,0148305
2551,3618;0,0148605
2552,3259;0,0149106
2553,2903;0,0149744
2554,2544;0,0150371
2555,2188;0,0150817
2556,1829;0,0150968
2557,1472;0,0150825
2558,1113;0,0150497
2559,0757;0,015014
2560,0398;0,014988
2561,0042;0,0149768
2561,9683;0,0149785
2562,9326;0,0149885
2563,8967;0,0150038
2564,8611;0,0150247
2565,8252;0,0150523
2566,7896;0,0150859
2567,7537;0,0151203
2568,7180;0,0151484
2569,6821;0,0151639
2570,6465;0,0151663
2571,6106;0,0151608
2572,5750;0,0151556
2573,5391;0,0151573
2574,5034;0,0151674
2575,4675;0,0151821
2576,4319;0,0151963
2577,3960;0,0152081
2578,3604;0,0152202
2579,3245;0,0152383
2580,2888;0,0152657
2581,2529;0,0152992
2582,2173;0,0153299
2583,1814;0,0153481
2584,1458;0,0153498
2585,1099;0,0153403
2586,0742;0,0153318
2587,0383;0,0153368
2588,0027;0,0153611
2588,9668;0,0154002
2589,9312;0,0154433
2590,8953;0,0154791
2591,8596;0,0155022
2592,8237;0,0155152
2593,7881;0,0155257
2594,7522;0,0155414
2595,7166;0,0155658
2596,6807;0,0155977
2597,6450;0,0156318
2598,6091;0,0156626
2599,5735;0,0156864
2600,5376;0,0157034
2601,5020;0,0157175
2602,4661;0,0157346
2603,4304;0,0157596
2604,3945;0,0157933
2605,3589;0,0158323
2606,3230;0,0158702
2607,2874;0,0159014
2608,2515;0,0159247
2609,2158;0,0159437
2610,1799;0,0159645
2611,1443;0,015992
2612,1084;0,0160273
2613,0728;0,0160673
2614,0369;0,0161074
2615,0012;0,0161435
2615,9653;0,0161745
2616,9297;0,0162018
2617,8938;0,0162291
2618,8582;0,0162601
2619,8223;0,0162974
2620,7866;0,016341
2621,7507;0,0163878
2622,7151;0,0164326
2623,6792;0,0164705
2624,6436;0,0164996
2625,6077;0,0165222
2626,5720;0,0165438
2627,5361;0,0165701
2628,5005;0,0166042
2629,4646;0,0166458
2630,4290;0,0166918
2631,3931;0,0167378
2632,3574;0,0167798
2633,3215;0,0168142
2634,2859;0,0168384
2635,2500;0,0168516
2636,2144;0,0168567
2637,1785;0,016861
2638,1428;0,0168747
2639,1069;0,0169068
2640,0713;0,0169605
2641,0354;0,0170305
2641,9998;0,0171048
2642,9639;0,0171695
2643,9282;0,0172148
2644,8923;0,017239
2645,8567;0,0172486
2646,8208;0,0172542
2647,7852;0,0172658
2648,7493;0,0172888
2649,7136;0,0173229
2650,6777;0,0173629
2651,6421;0,0174023
2652,6062;0,017436
2653,5706;0,0174625
2654,5347;0,0174835
2655,4990;0,0175029
2656,4631;0,0175241
2657,4275;0,0175482
2658,3916;0,017574
2659,3560;0,0175993
2660,3201;0,0176223
2661,2844;0,0176427
2662,2485;0,017662
2663,2129;0,0176817
2664,1770;0,0177029
2665,1414;0,017726
2666,1055;0,0177508
2667,0698;0,0177773
2668,0339;0,0178051
2668,9983;0,0178337
2669,9624;0,017862
2670,9268;0,0178893
2671,8909;0,0179156
2672,8552;0,0179414
2673,8193;0,0179675
2674,7837;0,0179933
2675,7478;0,0180171
2676,7122;0,0180371
2677,6763;0,0180539
2678,6406;0,0180712
2679,6047;0,0180949
2680,5691;0,0181306
2681,5332;0,0181804
2682,4976;0,0182415
2683,4617;0,0183078
2684,4260;0,0183721
2685,3901;0,0184298
2686,3545;0,0184795
2687,3186;0,0185229
2688,2830;0,0185631
2689,2471;0,0186025
2690,2114;0,018642
2691,1755;0,0186808
2692,1399;0,0187173
2693,1040;0,0187502
2694,0684;0,0187789
2695,0325;0,0188043
2695,9968;0,0188289
2696,9609;0,0188557
2697,9253;0,0188876
2698,8894;0,018926
2699,8538;0,0189699
2700,8179;0,0190164
2701,7822;0,0190619
2702,7463;0,019104
2703,7107;0,0191428
2704,6748;0,0191809
2705,6392;0,0192219
2706,6033;0,0192688
2707,5676;0,0193224
2708,5317;0,0193815
2709,4961;0,0194428
2710,4602;0,0195027
2711,4246;0,0195576
2712,3887;0,0196049
2713,3530;0,0196437
2714,3171;0,0196752
2715,2815;0,0197028
2716,2456;0,0197305
2717,2100;0,019762
2718,1741;0,0197984
2719,1384;0,0198381
2720,1025;0,0198776
2721,0669;0,0199135
2722,0310;0,0199437
2722,9954;0,0199682
2723,9595;0,0199885
2724,9238;0,0200076
2725,8879;0,0200289
2726,8523;0,0200564
2727,8164;0,0200939
2728,7808;0,0201431
2729,7449;0,0202024
2730,7092;0,0202658
2731,6733;0,0203243
2732,6377;0,0203693
2733,6018;0,0203959
2734,5662;0,020406
2735,5303;0,0204071
2736,4946;0,0204094
2737,4587;0,0204208
2738,4231;0,0204444
2739,3872;0,0204776
2740,3516;0,0205147
2741,3157;0,0205504
2742,2800;0,0205813
2743,2441;0,0206074
2744,2085;0,02063
2745,1726;0,0206506
2746,1370;0,0206702
2747,1011;0,0206897
2748,0654;0,0207108
2749,0295;0,0207357
2749,9939;0,0207666
2750,9580;0,0208042
2751,9224;0,0208466
2752,8865;0,0208903
2753,8508;0,0209319
2754,8149;0,0209701
2755,7793;0,0210063
2756,7434;0,0210436
2757,7078;0,0210849
2758,6719;0,0211311
2759,6362;0,0211804
2760,6003;0,0212297
2761,5647;0,0212755
2762,5288;0,0213153
2763,4932;0,0213481
2764,4573;0,0213755
2765,4216;0,0214011
2766,3857;0,0214305
2767,3501;0,0214692
2768,3142;0,02152
2769,2786;0,021581
2770,2427;0,0216455
2771,2070;0,0217048
2772,1711;0,0217524
2773,1355;0,0217877
2774,0996;0,0218163
2775,0640;0,0218474
2776,0281;0,0218894
2776,9924;0,0219463
2777,9565;0,0220165
2778,9209;0,0220942
2779,8850;0,0221725
2780,8494;0,0222462
2781,8135;0,0223127
2782,7778;0,0223722
2783,7419;0,0224256
2784,7063;0,022474
2785,6704;0,0225179
2786,6348;0,0225588
2787,5989;0,0226008
2788,5632;0,0226503
2789,5273;0,0227143
2790,4917;0,0227971
2791,4558;0,0228976
2792,4202;0,0230093
2793,3843;0,0231222
2794,3486;0,0232271
2795,3127;0,0233188
2796,2771;0,023397
2797,2412;0,0234664
2798,2056;0,0235341
2799,1697;0,0236074
2800,1340;0,0236921
2801,0981;0,0237909
2802,0625;0,0239032
2803,0266;0,0240257
2803,9910;0,0241542
2804,9551;0,0242852
2805,9194;0,0244163
2806,8835;0,0245465
2807,8479;0,0246747
2808,8120;0,0248002
2809,7764;0,0249231
2810,7405;0,0250453
2811,7048;0,0251701
2812,6689;0,0253011
2813,6333;0,0254403
2814,5974;0,0255869
2815,5618;0,0257381
2816,5259;0,0258913
2817,4902;0,0260454
2818,4543;0,0262017
2819,4187;0,0263627
2820,3828;0,0265308
2821,3472;0,0267071
2822,3113;0,0268906
2823,2756;0,0270795
2824,2397;0,0272722
2825,2041;0,0274688
2826,1682;0,0276717
2827,1326;0,0278858
2828,0967;0,0281172
2829,0610;0,0283704
2830,0251;0,0286465
2830,9895;0,0289419
2831,9536;0,0292495
2832,9180;0,0295613
2833,8821;0,0298712
2834,8464;0,0301782
2835,8105;0,0304868
2836,7749;0,0308072
2837,7390;0,0311529
2838,7034;0,0315379
2839,6675;0,0319747
2840,6318;0,0324718
2841,5959;0,0330338
2842,5603;0,0336613
2843,5244;0,0343509
2844,4888;0,0350934
2845,4529;0,0358704
2846,4172;0,0366506
2847,3813;0,0373898
2848,3457;0,038037
2849,3098;0,0385451
2850,2742;0,0388849
2851,2383;0,0390532
2852,2026;0,0390737
2853,1667;0,0389881
2854,1311;0,0388432
2855,0952;0,0386792
2856,0596;0,038525
2857,0237;0,0383982
2857,9880;0,0383096
2858,9521;0,0382658
2859,9165;0,0382693
2860,8806;0,0383179
2861,8450;0,0384048
2862,8091;0,0385206
2863,7734;0,0386581
2864,7375;0,0388139
2865,7019;0,0389876
2866,6660;0,0391782
2867,6304;0,0393803
2868,5945;0,0395836
2869,5588;0,0397763
2870,5229;0,0399498
2871,4873;0,040103
2872,4514;0,0402421
2873,4158;0,0403768
2874,3799;0,0405156
2875,3442;0,0406615
2876,3083;0,0408119
2877,2727;0,0409614
2878,2368;0,0411059
2879,2012;0,0412453
2880,1653;0,0413836
2881,1296;0,0415265
2882,0938;0,0416773
2883,0581;0,0418352
2884,0222;0,0419956
2884,9866;0,0421534
2885,9507;0,0423063
2886,9150;0,042456
2887,8792;0,042607
2888,8435;0,0427622
2889,8076;0,0429204
2890,7720;0,0430758
2891,7361;0,0432218
2892,7004;0,0433551
2893,6646;0,0434784
2894,6289;0,0435992
2895,5930;0,043725
2896,5574;0,0438593
2897,5215;0,0439993
2898,4858;0,0441377
2899,4500;0,0442664
2900,4143;0,0443808
2901,3784;0,0444815
2902,3428;0,0445737
2903,3069;0,0446648
2904,2712;0,044763
2905,2354;0,0448761
2906,1997;0,0450119
2907,1638;0,0451784
2908,1282;0,0453845
2909,0923;0,0456393
2910,0566;0,04595
2911,0208;0,0463183
2911,9851;0,0467368
2912,9492;0,047186
2913,9136;0,0476347
2914,8777;0,0480447
2915,8420;0,0483776
2916,8062;0,0486037
2917,7705;0,0487077
2918,7346;0,0486905
2919,6990;0,0485665
2920,6631;0,0483576
2921,6274;0,0480859
2922,5916;0,0477687
2923,5559;0,0474167
2924,5200;0,0470347
2925,4844;0,046625
2926,4485;0,0461912
2927,4128;0,0457413
2928,3770;0,0452866
2929,3413;0,04484
2930,3054;0,0444112
2931,2698;0,044003
2932,2339;0,0436114
2933,1982;0,0432274
2934,1624;0,0428421
2935,1267;0,0424505
2936,0908;0,0420536
2937,0552;0,0416561
2938,0193;0,0412635
2938,9836;0,0408778
2939,9478;0,0404959
2940,9121;0,0401114
2941,8762;0,0397174
2942,8406;0,0393108
2943,8047;0,0388944
2944,7690;0,0384772
2945,7332;0,0380713
2946,6975;0,0376879
2947,6616;0,0373332
2948,6260;0,037006
2949,5901;0,0366984
2950,5544;0,0363994
2951,5186;0,0360996
2952,4829;0,0357949
2953,4470;0,035488
2954,4114;0,0351854
2955,3755;0,0348929
2956,3398;0,0346119
2957,3040;0,0343388
2958,2683;0,0340679
2959,2324;0,0337958
2960,1968;0,0335245
2961,1609;0,0332602
2962,1252;0,0330096
2963,0894;0,0327757
2964,0537;0,0325553
2965,0178;0,0323412
2965,9822;0,0321252
2966,9463;0,0319013
2967,9106;0,0316663
2968,8748;0,0314196
2969,8391;0,0311619
2970,8032;0,0308957
2971,7676;0,0306258
2972,7317;0,0303597
2973,6960;0,0301058
2974,6602;0,0298716
2975,6245;0,0296611
2976,5886;0,0294739
2977,5530;0,0293056
2978,5171;0,0291494
2979,4814;0,0289985
2980,4456;0,0288482
2981,4099;0,0286976
2982,3740;0,0285503
2983,3384;0,0284135
2984,3025;0,0282943
2985,2668;0,0281961
2986,2310;0,0281161
2987,1953;0,0280464
2988,1594;0,0279779
2989,1238;0,0279054
2990,0879;0,0278296
2991,0522;0,0277565
2992,0164;0,0276931
2992,9807;0,0276444
2993,9448;0,0276115
2994,9092;0,027593
2995,8733;0,0275874
2996,8376;0,0275935
2997,8018;0,0276104
2998,7661;0,027636
2999,7302;0,0276668
3000,6946;0,0276989
3001,6587;0,0277298
3002,6230;0,0277601
3003,5872;0,0277937
3004,5515;0,0278356
3005,5156;0,0278893
3006,4800;0,0279544
3007,4441;0,028026
3008,4084;0,0280958
3009,3726;0,0281557
3010,3369;0,0282012
3011,3010;0,0282341
3012,2654;0,0282621
3013,2295;0,0282967
3014,1938;0,028348
3015,1580;0,0284208
3016,1223;0,0285127
3017,0864;0,0286154
3018,0508;0,0287179
3019,0149;0,028812
3019,9792;0,028895
3020,9434;0,0289713
3021,9077;0,0290495
3022,8718;0,0291384
3023,8362;0,0292432
3024,8003;0,0293632
3025,7646;0,0294937
3026,7288;0,0296285
3027,6931;0,0297627
3028,6572;0,0298933
3029,6216;0,0300181
3030,5857;0,0301346
3031,5500;0,0302418
3032,5142;0,0303411
3033,4785;0,030438
3034,4426;0,03054
3035,4070;0,0306534
3036,3711;0,0307802
3037,3354;0,0309178
3038,2996;0,0310611
3039,2639;0,0312058
3040,2280;0,0313504
3041,1924;0,0314957
3042,1565;0,0316424
3043,1208;0,0317898
3044,0850;0,0319357
3045,0493;0,0320777
3046,0134;0,0322158
3046,9778;0,0323523
3047,9419;0,0324917
3048,9063;0,0326385
3049,8704;0,0327955
3050,8347;0,0329618
3051,7988;0,0331333
3052,7632;0,0333043
3053,7273;0,0334701
3054,6917;0,0336299
3055,6558;0,0337886
3056,6201;0,0339543
3057,5842;0,0341347
3058,5486;0,0343321
3059,5127;0,0345418
3060,4771;0,0347535
3061,4412;0,0349552
3062,4055;0,0351383
3063,3696;0,0353
3064,3340;0,0354439
3065,2981;0,0355779
3066,2625;0,0357114
3067,2266;0,0358529
3068,1909;0,0360078
3069,1550;0,0361784
3070,1194;0,0363644
3071,0835;0,036563
3072,0479;0,0367693
3073,0120;0,0369776
3073,9763;0,0371818
3074,9404;0,0373776
3075,9048;0,0375628
3076,8689;0,0377379
3077,8333;0,0379052
3078,7974;0,0380675
3079,7617;0,0382274
3080,7258;0,0383877
3081,6902;0,0385514
3082,6543;0,0387218
3083,6187;0,0389019
3084,5828;0,0390916
3085,5471;0,0392874
3086,5112;0,039483
3087,4756;0,0396723
3088,4397;0,039853
3089,4041;0,0400272
3090,3682;0,040201
3091,3325;0,0403804
3092,2966;0,0405684
3093,2610;0,0407638
3094,2251;0,0409622
3095,1895;0,0411588
3096,1536;0,0413503
3097,1179;0,041537
3098,0820;0,0417219
3099,0464;0,0419101
3100,0105;0,0421071
3100,9749;0,0423165
3101,9390;0,0425386
3102,9033;0,0427694
3103,8674;0,0430022
3104,8318;0,0432306
3105,7959;0,0434508
3106,7603;0,0436635
3107,7244;0,0438723
3108,6887;0,0440815
3109,6528;0,0442936
3110,6172;0,0445093
3111,5813;0,0447286
3112,5457;0,0449524
3113,5098;0,0451819
3114,4741;0,0454163
3115,4382;0,0456505
3116,4026;0,0458754
3117,3667;0,0460826
3118,3311;0,0462702
3119,2952;0,0464457
3120,2595;0,046624
3121,2236;0,0468202
3122,1880;0,0470423
3123,1521;0,0472869
3124,1165;0,0475418
3125,0806;0,0477926
3126,0449;0,0480301
3127,0090;0,0482536
3127,9734;0,0484696
3128,9375;0,0486865
3129,9019;0,0489108
3130,8660;0,0491452
3131,8303;0,0493893
3132,7944;0,0496412
3133,7588;0,0498983
3134,7229;0,0501561
3135,6873;0,0504084
3136,6514;0,0506487
3137,6157;0,0508737
3138,5798;0,0510863
3139,5442;0,0512955
3140,5083;0,0515125
3141,4727;0,0517441
3142,4368;0,0519889
3143,4011;0,0522383
3144,3652;0,0524832
3145,3296;0,0527205
3146,2937;0,0529555
3147,2581;0,0531986
3148,2222;0,0534568
3149,1865;0,0537284
3150,1506;0,0540024
3151,1150;0,0542655
3152,0791;0,0545098
3153,0435;0,0547383
3154,0076;0,0549627
3154,9719;0,0551967
3155,9360;0,0554478
3156,9004;0,0557144
3157,8645;0,0559872
3158,8289;0,0562552
3159,7930;0,0565117
3160,7573;0,0567572
3161,7214;0,0569972
3162,6858;0,0572387
3163,6499;0,0574859
3164,6143;0,0577392
3165,5784;0,0579968
3166,5427;0,0582573
3167,5068;0,0585212
3168,4712;0,0587896
3169,4353;0,0590412
3170,3997;0,0593153
3171,3638;0,0595855
3172,3281;0,0598478
3173,2922;0,0601016
3174,2566;0,0603499
3175,2207;0,0605968
3176,1851;0,0608445
3177,1492;0,0610923
3178,1135;0,0613385
3179,0776;0,0615833
3180,0420;0,0618293
3181,0061;0,0620801
3181,9705;0,0623372
3182,9346;0,0625979
3183,8989;0,0628562
3184,8630;0,0631065
3185,8274;0,0633464
3186,7915;0,0635788
3187,7559;0,0638102
3188,7200;0,0640482
3189,6843;0,0642976
3190,6484;0,0645585
3191,6128;0,0648263
3192,5769;0,0650936
3193,5413;0,0653533
3194,5054;0,0656013
3195,4697;0,0658376
3196,4338;0,0660647
3197,3982;0,066285
3198,3623;0,0664993
3199,3267;0,0667081
3200,2908;0,0669141
3201,2551;0,0671237
3202,2192;0,0673454
3203,1836;0,0675846
3204,1477;0,0678401
3205,1121;0,0681041
3206,0762;0,0683665
3207,0405;0,0686204
3208,0046;0,0688648
3208,9690;0,0691028
3209,9331;0,0693371
3210,8975;0,0695678
3211,8616;0,0697939
3212,8259;0,0700162
3213,7900;0,0702382
3214,7544;0,0704637
3215,7185;0,0706917
3216,6829;0,0709159
3217,6470;0,071127
3218,6113;0,0713209
3219,5754;0,0715024
3220,5398;0,071685
3221,5039;0,0718837
3222,4683;0,072107
3223,4324;0,0723524
3224,3967;0,072609
3225,3608;0,0728632
3226,3252;0,0731048
3227,2893;0,0733297
3228,2537;0,0735396
3229,2178;0,07374
3230,1821;0,0739379
3231,1462;0,0741392
3232,1106;0,0743477
3233,0747;0,0745628
3234,0391;0,0747801
3235,0032;0,0749929
3235,9675;0,0751966
3236,9316;0,0753916
3237,8960;0,0755842
3238,8601;0,0757827
3239,8245;0,0759927
3240,7886;0,0762126
3241,7529;0,0764349
3242,7170;0,0766506
3243,6814;0,0768553
3244,6455;0,0770525
3245,6099;0,0772517
3246,5740;0,0774624
3247,5383;0,0776884
3248,5024;0,0779269
3249,4668;0,078172
3250,4309;0,0784191
3251,3953;0,0786665
3252,3594;0,0789138
3253,3237;0,0791576
3254,2878;0,0793914
3255,2522;0,0796088
3256,2163;0,0798093
3257,1807;0,0800011
3258,1448;0,0801979
3259,1091;0,0804124
3260,0732;0,0806484
3261,0376;0,0808994
3262,0017;0,0811518
3262,9661;0,0813924
3263,9302;0,0816143
3264,8945;0,0818193
3265,8586;0,0820157
3266,8230;0,0822134
3267,7871;0,0824184
3268,7515;0,0826295
3269,7156;0,0828372
3270,6799;0,0830272
3271,6440;0,0831867
3272,6084;0,0833109
3273,5725;0,0834061
3274,5369;0,0834863
3275,5010;0,0835666
3276,4653;0,0836556
3277,4294;0,0837528
3278,3938;0,083852
3279,3579;0,0839467
3280,3223;0,0840344
3281,2864;0,0841166
3282,2507;0,0841971
3283,2148;0,0842794
3284,1792;0,0843655
3285,1433;0,0844559
3286,1077;0,0845499
3287,0718;0,0846443
3288,0361;0,0847339
3289,0002;0,0848123
3289,9646;0,0848742
3290,9287;0,0849178
3291,8931;0,0849454
3292,8572;0,0849613
3293,8215;0,08497
3294,7856;0,0849753
3295,7500;0,0849802
3296,7141;0,0849885
3297,6785;0,0850043
3298,6426;0,0850306
3299,6069;0,0850685
3300,5710;0,0851154
3301,5354;0,0851657
3302,4995;0,0852123
3303,4639;0,0852486
3304,4280;0,0852703
3305,3923;0,0852772
3306,3564;0,0852729
3307,3208;0,0852635
3308,2849;0,085255
3309,2493;0,0852517
3310,2134;0,0852566
3311,1777;0,0852727
3312,1418;0,0853041
3313,1062;0,085355
3314,0703;0,085427
3315,0347;0,0855175
3315,9988;0,0856204
3316,9631;0,0857302
3317,9272;0,085845
3318,8916;0,0859673
3319,8557;0,0861001
3320,8201;0,086242
3321,7842;0,0863863
3322,7485;0,0865226
3323,7126;0,0866432
3324,6770;0,0867463
3325,6411;0,086837
3326,6055;0,0869236
3327,5696;0,0870142
3328,5339;0,0871138
3329,4980;0,0872238
3330,4624;0,0873414
3331,4265;0,0874586
3332,3909;0,0875625
3333,3550;0,087638
3334,3193;0,087673
3335,2834;0,0876637
3336,2478;0,0876161
3337,2119;0,087542
3338,1763;0,0874521
3339,1404;0,0873509
3340,1047;0,0872373
3341,0688;0,0871098
3342,0332;0,0869711
3342,9973;0,0868293
3343,9617;0,0866938
3344,9258;0,0865696
3345,8901;0,0864538
3346,8542;0,0863369
3347,8186;0,0862074
3348,7827;0,0860558
3349,7471;0,0858776
3350,7112;0,0856737
3351,6755;0,0854496
3352,6396;0,0852141
3353,6040;0,084978
3354,5681;0,0847516
3355,5325;0,0845427
3356,4966;0,0843545
3357,4609;0,0841863
3358,4250;0,0840348
3359,3894;0,0838958
3360,3535;0,083764
3361,3179;0,0836329
3362,2820;0,0834943
3363,2463;0,0833402
3364,2104;0,083166
3365,1748;0,0829723
3366,1389;0,0827642
3367,1033;0,0825489
3368,0674;0,0823318
3369,0317;0,0821165
3369,9958;0,0819056
3370,9602;0,0817026
3371,9243;0,0815113
3372,8887;0,0813328
3373,8528;0,0811626
3374,8171;0,0809909
3375,7813;0,0808069
3376,7456;0,0806054
3377,7097;0,0803904
3378,6741;0,0801729
3379,6382;0,0799639
3380,6025;0,0797682
3381,5667;0,0795821
3382,5310;0,0793977
3383,4951;0,0792099
3384,4595;0,0790206
3385,4236;0,0788372
3386,3879;0,0786655
3387,3521;0,0785043
3388,3164;0,0783449
3389,2805;0,078177
3390,2449;0,0779957
3391,2090;0,0778055
3392,1733;0,0776161
3393,1375;0,0774355
3394,1018;0,0772629
3395,0659;0,0770894
3396,0303;0,0769043
3396,9944;0,076702
3397,9587;0,0764847
3398,9229;0,0762599
3399,8872;0,0760343
3400,8513;0,0758105
3401,8157;0,0755874
3402,7798;0,075364
3403,7441;0,0751413
3404,7083;0,0749214
3405,6726;0,074705
3406,6367;0,0744893
3407,6011;0,0742686
3408,5652;0,0740363
3409,5295;0,0737875
3410,4937;0,0735208
3411,4580;0,0732393
3412,4221;0,0729504
3413,3865;0,0726644
3414,3506;0,0723909
3415,3149;0,0721337
3416,2791;0,0718881
3417,2434;0,0716418
3418,2075;0,0713808
3419,1719;0,0710969
3420,1360;0,0707931
3421,1003;0,0704816
3422,0645;0,0701764
3423,0288;0,0698858
3423,9929;0,0696088
3424,9573;0,0693383
3425,9214;0,0690663
3426,8857;0,0687883
3427,8499;0,0685046
3428,8142;0,0682187
3429,7783;0,0679344
3430,7427;0,0676528
3431,7068;0,0673719
3432,6711;0,0670876
3433,6353;0,0667973
3434,5996;0,0665018
3435,5637;0,066205
3436,5281;0,0659104
3437,4922;0,0656184
3438,4565;0,0653253
3439,4207;0,0650268
3440,3850;0,0647224
3441,3491;0,0644158
3442,3135;0,064111
3443,2776;0,0638065
3444,2419;0,0634933
3445,2061;0,0631598
3446,1704;0,0628013
3447,1345;0,0624266
3448,0989;0,0620548
3449,0630;0,0617042
3450,0273;0,0613816
3450,9915;0,0610812
3451,9558;0,0607907
3452,9199;0,0604996
3453,8843;0,0602035
3454,8484;0,0599032
3455,8127;0,0596009
3456,7769;0,0592975
3457,7412;0,0589915
3458,7053;0,0586818
3459,6697;0,0583685
3460,6338;0,0580533
3461,5981;0,0577375
3462,5623;0,0574207
3463,5266;0,0571002
3464,4907;0,0567727
3465,4551;0,056437
3466,4192;0,0560968
3467,3835;0,0557614
3468,3477;0,0554421
3469,3120;0,0551456
3470,2761;0,0548674
3471,2405;0,0545905
3472,2046;0,0542937
3473,1689;0,0539639
3474,1331;0,0536073
3475,0974;0,053248
3476,0615;0,0529141
3477,0259;0,0526194
3477,9900;0,0523541
3478,9543;0,052091
3479,9185;0,0518022
3480,8828;0,0514768
3481,8469;0,0511259
3482,8113;0,0507722
3483,7754;0,050431
3484,7397;0,0500999
3485,7039;0,0497651
3486,6682;0,0494159
3487,6323;0,0490577
3488,5967;0,0487118
3489,5608;0,0484022
3490,5251;0,0481374
3491,4893;0,0479025
3492,4536;0,0476659
3493,4177;0,0473963
3494,3821;0,0470811
3495,3462;0,0467362
3496,3105;0,0463975
3497,2747;0,0460986
3498,2390;0,0458483
3499,2031;0,0456243
3500,1675;0,0453855
3501,1316;0,0450954
3502,0959;0,0447458
3503,0601;0,044364
3504,0244;0,0439942
3504,9885;0,0436654
3505,9529;0,0433737
3506,9170;0,0430915
3507,8813;0,0427897
3508,8455;0,0424584
3509,8098;0,0421117
3510,7739;0,041776
3511,7383;0,0414688
3512,7024;0,0411882
3513,6667;0,0409191
3514,6309;0,0406487
3515,5952;0,0403771
3516,5593;0,0401164
3517,5237;0,0398795
3518,4878;0,0396674
3519,4521;0,0394668
3520,4163;0,039257
3521,3806;0,0390221
3522,3447;0,0387588
3523,3091;0,0384739
3524,2732;0,0381742
3525,2375;0,0378572
3526,2017;0,0375141
3527,1660;0,0371418
3528,1301;0,0367559
3529,0945;0,0363888
3530,0586;0,0360718
3531,0229;0,0358153
3531,9871;0,0356011
3532,9514;0,0353929
3533,9155;0,0351551
3534,8799;0,0348703
3535,8440;0,0345499
3536,8083;0,0342289
3537,7725;0,0339478
3538,7368;0,0337307
3539,7009;0,0335743
3540,6653;0,033449
3541,6294;0,0333093
3542,5938;0,0331067
3543,5579;0,0328097
3544,5222;0,0324246
3545,4863;0,0320018
3546,4507;0,0316095
3547,4148;0,0312879
3548,3792;0,0310264
3549,3433;0,0307781
3550,3076;0,0304935
3551,2717;0,0301519
3552,2361;0,029776
3553,2002;0,0294185
3554,1646;0,0291258
3555,1287;0,0289082
3556,0930;0,0287389
3557,0571;0,0285776
3558,0215;0,0283989
3558,9856;0,0282078
3559,9500;0,0280349
3560,9141;0,02791
3561,8784;0,0278333
3562,8425;0,0277604
3563,8069;0,0276075
3564,7710;0,0272769
3565,7354;0,0267181
3566,6995;0,0260047
3567,6638;0,0253255
3568,6279;0,0248412
3569,5923;0,0245757
3570,5564;0,0244499
3571,5208;0,024365
3572,4849;0,0242518
3573,4492;0,0240823
3574,4133;0,023863
3575,3777;0,023616
3576,3418;0,0233601
3577,3062;0,0231028
3578,2703;0,0228495
3579,2346;0,0226167
3580,1987;0,0224334
3581,1631;0,0223227
3582,1272;0,0222794
3583,0916;0,0222597
3584,0557;0,022186
3585,0200;0,0219698
3585,9841;0,0215624
3586,9485;0,0210235
3587,9126;0,0205198
3588,8770;0,0202004
3589,8411;0,0200849
3590,8054;0,0200848
3591,7695;0,020084
3592,7339;0,0199963
3593,6980;0,0197956
3594,6624;0,0195208
3595,6265;0,0192424
3596,5908;0,0190039
3597,5549;0,0187911
3598,5193;0,0185565
3599,4834;0,0182707
3600,4478;0,0179562
3601,4119;0,0176736
3602,3762;0,0174709
3603,3403;0,0173458
3604,3047;0,017248
3605,2688;0,0171088
3606,2332;0,0168776
3607,1973;0,0165517
3608,1616;0,0161822
3609,1257;0,0158403
3610,0901;0,0155704
3611,0542;0,0153756
3612,0186;0,0152371
3612,9827;0,0151353
3613,9470;0,0150517
3614,9111;0,0149575
3615,8755;0,0148075
3616,8396;0,0145548
3617,8040;0,0141869
3618,7681;0,0137664
3619,7324;0,0134243
3620,6965;0,0132776
3621,6609;0,0133465
3622,6250;0,013557
3623,5894;0,0137966
3624,5535;0,0139519
3625,5178;0,0139154
3626,4819;0,0135925
3627,4463;0,0129606
3628,4104;0,0121723
3629,3748;0,011518
3630,3389;0,0111714
3631,3032;0,0110689
3632,2673;0,0110458
3633,2317;0,0109784
3634,1958;0,0108264
3635,1602;0,0106151
3636,1243;0,0103947
3637,0886;0,0102
3638,0527;0,010034
3639,0171;0,00988457
3639,9812;0,00975173
3640,9456;0,00966008
3641,9097;0,00964399
3642,8740;0,0097196
3643,8381;0,00986551
3644,8025;0,0100178
3645,7666;0,0100664
3646,7310;0,00985371
3647,6951;0,00924314
3648,6594;0,00832872
3649,6235;0,00750827
3650,5879;0,00709365
3651,5520;0,00704207
3652,5164;0,00713875
3653,4805;0,00719799
3654,4448;0,007123
3655,4089;0,00691207
3656,3733;0,00664548
3657,3374;0,00642932
3658,3018;0,00631657
3659,2659;0,00628279
3660,2302;0,00627252
3661,1943;0,0062559
3662,1587;0,00624843
3663,1228;0,00628845
3664,0872;0,00639535
3665,0513;0,0065452
3666,0156;0,00667823
3666,9797;0,00672696
3667,9441;0,006653
3668,9082;0,00648584
3669,8726;0,00632107
3670,8367;0,0062373
3671,8010;0,00621454
3672,7651;0,00615131
3673,7295;0,00594136
3674,6936;0,00555833
3675,6580;0,00511587
3676,6221;0,00480226
3677,5864;0,00470824
3678,5505;0,00477888
3679,5149;0,00491548
3680,4790;0,00506017
3681,4434;0,00520733
3682,4075;0,00537474
3683,3718;0,00556893
3684,3359;0,00576704
3685,3003;0,00591982
3686,2644;0,00596575
3687,2288;0,00585232
3688,1929;0,00557678
3689,1572;0,00523219
3690,1213;0,00497105
3691,0857;0,00488014
3692,0498;0,00493318
3693,0142;0,00505787
3693,9783;0,00519954
3694,9426;0,00533466
3695,9067;0,00545644
3696,8711;0,00555701
3697,8352;0,00561891
3698,7996;0,00562011
3699,7637;0,00555071
3700,7280;0,00543323
3701,6921;0,00532776
3702,6565;0,00530437
3703,6206;0,00539896
3704,5850;0,00559501
3705,5491;0,00584002
3706,5134;0,00606738
3707,4775;0,00620188
3708,4419;0,00615626
3709,4060;0,00585296
3710,3704;0,00530519
3711,3345;0,00468906
3712,2988;0,00424635
3713,2629;0,00409529
3714,2273;0,00419462
3715,1914;0,00443744
3716,1558;0,00472718
3717,1199;0,00500136
3718,0842;0,00522951
3719,0483;0,00540423
3720,0127;0,00552988
3720,9768;0,00561025
3721,9412;0,00564185
3722,9053;0,00562045
3723,8696;0,00555799
3724,8337;0,00549316
3725,7981;0,00547766
3726,7622;0,00554468
3727,7266;0,00568902
3728,6907;0,00587417
3729,6550;0,00605088
3730,6191;0,00616742
3731,5835;0,00616701
3732,5476;0,00598721
3733,5120;0,00559245
3734,4761;0,00505166
3735,4404;0,00456639
3736,4045;0,00433771
3737,3689;0,00440976
3738,3330;0,00467834
3739,2974;0,00499072
3740,2615;0,00521188
3741,2258;0,00524684
3742,1899;0,00506051
3743,1543;0,00472038
3744,1184;0,00441413
3745,0828;0,00433406
3746,0469;0,00450161
3747,0112;0,00476186
3747,9753;0,00491068
3748,9397;0,00479562
3749,9038;0,0044005
3750,8682;0,00391728
3751,8323;0,0036318
3752,7966;0,00365861
3753,7607;0,00389121
3754,7251;0,00415793
3755,6892;0,00433229
3756,6536;0,00435949
3757,6177;0,00425811
3758,5820;0,00410937
3759,5461;0,00401112
3760,5105;0,00401456
3761,4746;0,00410361
3762,4390;0,00422628
3763,4031;0,00433304
3764,3674;0,00439436
3765,3315;0,0044001
3766,2959;0,00435087
3767,2600;0,00425102
3768,2244;0,00411073
3769,1885;0,00395596
3770,1528;0,00383193
3771,1169;0,00378532
3772,0813;0,00383516
3773,0454;0,00396012
3774,0098;0,00411142
3774,9739;0,00423561
3775,9382;0,00429319
3776,9023;0,00427162
3777,8667;0,00419309
3778,8308;0,00410763
3779,7952;0,004063
3780,7593;0,00407204
3781,7236;0,00410943
3782,6877;0,00413525
3783,6521;0,00412065
3784,6162;0,00406148
3785,5806;0,00397857
3786,5447;0,00390638
3787,5090;0,0038767
3788,4731;0,00390575
3789,4375;0,00398984
3790,4016;0,00410932
3791,3660;0,00423799
3792,3301;0,00435507
3793,2944;0,00445505
3794,2585;0,00454946
3795,2229;0,0046558
3796,1870;0,00477672
3797,1514;0,00488419
3798,1155;0,00492388
3799,0798;0,00484352
3800,0439;0,00463719
3801,0083;0,00437545
3801,9724;0,00416792
3802,9368;0,00406966
3803,9009;0,00403954
3804,8652;0,00399208
3805,8293;0,00387761
3806,7937;0,00373137
3807,7578;0,00365527
3808,7222;0,00373119
3809,6863;0,00395065
3810,6506;0,00423206
3811,6147;0,00448283
3812,5791;0,00464331
3813,5432;0,00470442
3814,5076;0,00470776
3815,4717;0,00471904
3816,4360;0,00477251
3817,4001;0,00483224
3818,3645;0,00481533
3819,3286;0,00465861
3820,2930;0,00438402
3821,2571;0,00410668
3822,2214;0,00394871
3823,1855;0,00394298
3824,1499;0,00403557
3825,1140;0,00415211
3826,0784;0,0042458
3827,0425;0,00430733
3828,0068;0,00435236
3828,9709;0,00440252
3829,9353;0,0044722
3830,8994;0,00456566
3831,8638;0,00467924
3832,8279;0,00480114
3833,7922;0,0049074
3834,7563;0,00496054
3835,7207;0,00491863
3836,6848;0,00475918
3837,6492;0,00450856
3838,6133;0,00424434
3839,5776;0,00404704
3840,5417;0,00394505
3841,5061;0,0039145
3842,4702;0,00392279
3843,4346;0,00396473
3844,3987;0,00406446
3845,3630;0,00424942
3846,3271;0,00452109
3847,2915;0,00484443
3848,2556;0,00515552
3849,2200;0,00537087
3850,1841;0,00538768
3851,1484;0,00509214
3852,1125;0,00444475
3853,0769;0,00366041
3854,0410;0,00315421
3855,0054;0,00311822
3855,9695;0,00340952
3856,9338;0,003809
3857,8979;0,00417524
3858,8623;0,0044471
3859,8264;0,00461026
3860,7908;0,00467325
3861,7549;0,00465831
3862,7192;0,0046008
3863,6833;0,00454357
3864,6477;0,00451755
3865,6118;0,00452517
3866,5762;0,00454458
3867,5403;0,00454621
3868,5046;0,00450591
3869,4688;0,00441276
3870,4331;0,0042766
3871,3972;0,00413087
3872,3616;0,00402113
3873,3257;0,00398269
3874,2900;0,00402466
3875,2542;0,00412949
3876,2185;0,00426368
3877,1826;0,0043912
3878,1470;0,00448472
3879,1111;0,00453217
3880,0754;0,00453622
3881,0396;0,00450474
3882,0039;0,00443973
3882,9680;0,00434025
3883,9324;0,0042209
3884,8965;0,00412328
3885,8608;0,00409609
3886,8250;0,00415454
3887,7893;0,00426077
3888,7534;0,00434525
3889,7178;0,00434997
3890,6819;0,00426973
3891,6462;0,00416785
3892,6104;0,00413656
3893,5747;0,00422249
3894,5388;0,00439726
3895,5032;0,00459303
3896,4673;0,00474829
3897,4316;0,00482898
3898,3958;0,004829
3899,3601;0,00475957
3900,3242;0,00463301
3901,2886;0,0044533
3902,2527;0,00422747
3903,2170;0,00398852
3904,1812;0,00379571
3905,1455;0,00369965
3906,1096;0,00370832
3907,0740;0,0037897
3908,0381;0,00389982
3909,0024;0,00400721
3909,9666;0,00410131
3910,9309;0,0041868
3911,8950;0,00427041
3912,8594;0,0043488
3913,8235;0,00440542
3914,7878;0,00441909
3915,7520;0,00438079
3916,7163;0,00430871
3917,6804;0,00424525
3918,6448;0,00422979
3919,6089;0,00426891
3920,5732;0,0043327
3921,5374;0,00437713
3922,5017;0,00437286
3923,4658;0,00432443
3924,4302;0,00426876
3925,3943;0,00424966
3926,3586;0,00428557
3927,3228;0,00435775
3928,2871;0,00442419
3929,2512;0,00444349
3930,2156;0,00439591
3931,1797;0,00429511
3932,1440;0,00418269
3933,1082;0,00410422
3934,0725;0,00408475
3935,0366;0,00412272
3936,0010;0,00419946
3936,9651;0,00429005
3937,9294;0,00436924
3938,8936;0,00441524
3939,8579;0,00441546
3940,8220;0,004374
3941,7864;0,00431451
3942,7505;0,00427082
3943,7148;0,00426746
3944,6790;0,00430463
3945,6433;0,00435982
3946,6074;0,00440266
3947,5718;0,00441169
3948,5359;0,00438485
3949,5002;0,00433859
3950,4644;0,00429576
3951,4287;0,00427107
3952,3928;0,00426573
3953,3572;0,00427252
3954,3213;0,0042836
3955,2856;0,00429439
3956,2498;0,00430257
3957,2141;0,00430533
3958,1782;0,00429863
3959,1426;0,00427936
3960,1067;0,00424857
3961,0710;0,00421295
3962,0352;0,00418254
3962,9995;0,004166
3963,9636;0,00416648
3964,9280;0,00418097
3965,8921;0,00420262
3966,8564;0,00422435
3967,8206;0,00424143
3968,7849;0,00425244
3969,7490;0,00425845
3970,7134;0,00426131
3971,6775;0,00426184
3972,6418;0,00425932
3973,6060;0,00425226
3974,5703;0,00424007
3975,5344;0,00422428
3976,4988;0,00420823
3977,4629;0,00419542
3978,4272;0,00418739
3979,3914;0,00418288
3980,3557;0,00417875
3981,3198;0,00417239
3982,2842;0,00416406
3983,2483;0,00415745
3984,2126;0,0041578
3985,1768;0,0041687
3986,1411;0,00418973
3987,1052;0,0042165
3988,0696;0,00424295
3989,0337;0,00426444
3989,9980;0,00427934
3990,9622;0,00428843
3991,9265;0,00429265
3992,8906;0,0042915
3993,8550;0,00428334
3994,8191;0,00426747
3995,7834;0,00424611
3996,7476;0,00422437
3997,7119;0,00420805
3998,6760;0,00420085
3999,6404;0,00420276
4000,6045;0,00426431

##### Extended Information
[Comments]
Sample name
Comment
Username
Division
Organization;UNIVERSIDAD INDUSTRIAL DE SANTANDER

[Detailed Information]
Creation date;26/03/2025 7:10 p.m.

Data array type;Linear data array
Horizontal axis;Wavenumber [cm-1]
Vertical axis;Abs
Start;399,193 cm-1
End;4000,6 cm-1
Data interval;0,964233 cm-1
Data points;3736    

[Measurement Information]
Model name;FT/IR-4X1typeA
Serial No.;A035162111

Accessory;ATR PRO 4X
Accessory S/N;A021162126
Incident angle;45 deg

Measurement date;26/03/2025 7:09 p.m.

Light source;Standard
Detector;TGS
Accumulation;40
Resolution;4 cm-1
Zero filling;On
Apodization;Cosine
Gain;Auto (8)
Aperture;Auto (7 mm)
Scan speed;Auto (2 mm/sec)
Filter;Auto (12800 Hz)

