TITLE;
DATA TYPE;INFRARED SPECTRUM
ORIGIN;JASCO
OWNER;
DATE;25/03/26
TIME;20:13:42
SPECTROMETER/DATA SYSTEM;
LOCALE;9226
RESOLUTION;
DELTAX;0,964233
XUNITS;1/CM
YUNITS;ABSORBANCE
FIRSTX;  399,1927
LASTX; 4000,6047
NPOINTS;    3736
FIRSTY;     0,21247
MAXY;     0,27287
MINY;     0,01406
XYDATA
399,1927;0,212472
400,1569;0,207337
401,1211;0,202508
402,0854;0,199062
403,0496;0,197249
404,0138;0,19686
404,9781;0,197421
405,9423;0,198312
406,9065;0,19895
407,8708;0,198991
408,8350;0,198411
409,7992;0,197424
410,7635;0,196359
411,7277;0,195546
412,6919;0,195241
413,6562;0,195599
414,6204;0,196687
415,5846;0,198504
416,5489;0,200912
417,5131;0,203439
418,4773;0,205191
419,4416;0,205421
420,4058;0,204387
421,3700;0,203047
422,3343;0,20211
423,2985;0,201755
424,2627;0,201839
425,2270;0,202115
426,1912;0,202381
427,1554;0,202567
428,1197;0,202722
429,0839;0,20293
430,0481;0,203214
431,0124;0,203498
431,9766;0,20364
432,9408;0,203512
433,9051;0,203084
434,8693;0,202468
435,8335;0,201878
436,7978;0,201539
437,7620;0,201573
438,7262;0,201953
439,6905;0,202524
440,6547;0,203054
441,6189;0,203312
442,5832;0,203162
443,5474;0,202648
444,5116;0,201992
445,4759;0,201464
446,4401;0,201222
447,4043;0,201241
448,3686;0,201367
449,3328;0,201425
450,2970;0,201322
451,2613;0,201087
452,2255;0,200825
453,1897;0,20062
454,1540;0,200467
455,1182;0,200285
456,0824;0,199993
457,0467;0,199606
458,0109;0,199266
458,9751;0,199154
459,9394;0,199343
460,9036;0,199739
461,8678;0,200153
462,8321;0,200396
463,7963;0,200338
464,7605;0,199947
465,7248;0,199317
466,6890;0,198647
467,6532;0,198166
468,6175;0,198028
469,5817;0,198237
470,5459;0,19863
471,5102;0,198927
472,4744;0,198882
473,4386;0,198447
474,4029;0,197798
475,3671;0,197189
476,3313;0,196794
477,2956;0,196654
478,2598;0,196721
479,2240;0,196922
480,1883;0,197212
481,1525;0,197566
482,1167;0,197958
483,0810;0,198333
484,0452;0,198623
485,0094;0,19878
485,9737;0,198812
486,9379;0,198762
487,9021;0,198678
488,8664;0,19858
489,8306;0,198472
490,7948;0,198366
491,7591;0,1983
492,7233;0,198328
493,6875;0,198497
494,6518;0,198811
495,6160;0,19923
496,5802;0,199679
497,5445;0,20007
498,5087;0,200322
499,4729;0,200381
500,4372;0,200247
501,4014;0,199996
502,3656;0,199765
503,3299;0,199697
504,2941;0,19987
505,2583;0,200263
506,2226;0,200789
507,1868;0,201343
508,1510;0,201856
509,1153;0,202313
510,0795;0,202735
511,0437;0,203138
512,0080;0,203513
512,9722;0,203829
513,9365;0,204071
514,9007;0,204273
515,8649;0,204525
516,8292;0,204935
517,7934;0,205549
518,7576;0,206296
519,7219;0,207015
520,6861;0,207555
521,6503;0,207852
522,6146;0,207932
523,5788;0,207868
524,5430;0,20773
525,5073;0,207553
526,4715;0,207343
527,4357;0,2071
528,4000;0,206848
529,3642;0,206635
530,3284;0,206501
531,2927;0,206456
532,2569;0,20646
533,2211;0,206441
534,1854;0,206323
535,1496;0,206063
536,1138;0,205676
537,0781;0,205232
538,0423;0,204836
539,0065;0,20459
539,9708;0,204556
540,9350;0,204735
541,8992;0,205056
542,8635;0,205407
543,8277;0,205675
544,7919;0,205802
545,7562;0,205815
546,7204;0,205814
547,6846;0,205929
548,6489;0,206241
549,6131;0,206752
550,5773;0,207379
551,5416;0,208007
552,5058;0,208546
553,4700;0,208967
554,4343;0,209297
555,3985;0,209584
556,3627;0,209843
557,3270;0,210022
558,2912;0,21001
559,2554;0,209683
560,2197;0,208971
561,1839;0,2079
562,1481;0,206596
563,1124;0,205229
564,0766;0,203953
565,0408;0,202854
566,0051;0,201948
566,9693;0,201202
567,9335;0,200575
568,8978;0,200035
569,8620;0,199558
570,8262;0,199128
571,7905;0,198733
572,7547;0,198376
573,7189;0,198075
574,6832;0,197848
575,6474;0,197698
576,6116;0,19759
577,5759;0,197468
578,5401;0,197288
579,5043;0,19705
580,4686;0,196799
581,4328;0,196599
582,3970;0,196489
583,3613;0,196461
584,3255;0,196464
585,2897;0,196442
586,2540;0,19637
587,2182;0,196263
588,1824;0,196162
589,1467;0,1961
590,1109;0,196084
591,0751;0,196085
592,0394;0,196054
593,0036;0,195949
593,9678;0,19575
594,9321;0,195469
595,8963;0,195133
596,8605;0,194772
597,8248;0,194407
598,7890;0,194042
599,7532;0,193668
600,7175;0,193265
601,6817;0,192813
602,6459;0,192307
603,6102;0,19176
604,5744;0,191198
605,5386;0,190646
606,5029;0,190113
607,4671;0,189578
608,4313;0,189
609,3956;0,188345
610,3598;0,187613
611,3240;0,186848
612,2883;0,186118
613,2525;0,185474
614,2167;0,184913
615,1810;0,184365
616,1452;0,183724
617,1094;0,182895
618,0737;0,181851
619,0379;0,180642
620,0021;0,179353
620,9664;0,17806
621,9306;0,176805
622,8948;0,175606
623,8591;0,174484
624,8233;0,173456
625,7875;0,172563
626,7518;0,171805
627,7160;0,171147
628,6802;0,170536
629,6445;0,169918
630,6087;0,169264
631,5729;0,168571
632,5372;0,16786
633,5014;0,167165
634,4656;0,16652
635,4299;0,165949
636,3941;0,165452
637,3583;0,165006
638,3226;0,164579
639,2868;0,164146
640,2510;0,163707
641,2153;0,163285
642,1795;0,162914
643,1437;0,162616
644,1080;0,162385
645,0722;0,16219
646,0364;0,161986
647,0007;0,161736
647,9649;0,161433
648,9291;0,161099
649,8934;0,160781
650,8576;0,160525
651,8218;0,160355
652,7861;0,16026
653,7503;0,160207
654,7145;0,160157
655,6788;0,160098
656,6430;0,160054
657,6072;0,160066
658,5715;0,160153
659,5357;0,160278
660,4999;0,160341
661,4642;0,160234
662,4284;0,159913
663,3926;0,159412
664,3569;0,158831
665,3211;0,158316
666,2853;0,158037
667,2496;0,158037
668,2138;0,157969
669,1780;0,157308
670,1423;0,156056
671,1065;0,154569
672,0707;0,153007
673,0350;0,151358
673,9992;0,149614
674,9634;0,147838
675,9277;0,14614
676,8919;0,144602
677,8561;0,143225
678,8204;0,141949
679,7846;0,140716
680,7488;0,139516
681,7131;0,138381
682,6773;0,137351
683,6415;0,13644
684,6058;0,135631
685,5700;0,134895
686,5342;0,134206
687,4985;0,133553
688,4627;0,13294
689,4269;0,132371
690,3912;0,131852
691,3554;0,131381
692,3196;0,130948
693,2839;0,130535
694,2481;0,130118
695,2123;0,129677
696,1766;0,129204
697,1408;0,128705
698,1050;0,128197
699,0693;0,127698
700,0335;0,127219
700,9977;0,126751
701,9620;0,126268
702,9262;0,125741
703,8904;0,125145
704,8547;0,124488
705,8189;0,123799
706,7831;0,123122
707,7474;0,122488
708,7116;0,121908
709,6758;0,121367
710,6401;0,120837
711,6043;0,12029
712,5685;0,119708
713,5328;0,119097
714,4970;0,118474
715,4612;0,11766
716,4255;0,117105
717,3897;0,11656
718,3539;0,115966
719,3182;0,115254
720,2824;0,114393
721,2466;0,113413
722,2109;0,112398
723,1751;0,111434
724,1393;0,110564
725,1036;0,10978
726,0678;0,109044
727,0320;0,108319
727,9963;0,107592
728,9605;0,106873
729,9247;0,106176
730,8890;0,105504
731,8532;0,104852
732,8174;0,104212
733,7817;0,103587
734,7459;0,102991
735,7101;0,102433
736,6744;0,101911
737,6386;0,101405
738,6028;0,100892
739,5671;0,100363
740,5313;0,0998263
741,4955;0,0993074
742,4598;0,0988342
743,4240;0,098421
744,3882;0,0980591
745,3525;0,0977186
746,3167;0,0973583
747,2809;0,0969403
748,2452;0,0964429
749,2094;0,0958674
750,1736;0,0952372
751,1379;0,0945897
752,1021;0,0939635
753,0663;0,0933875
754,0306;0,0928734
754,9948;0,0924143
755,9590;0,0919902
756,9233;0,0915762
757,8875;0,0911524
758,8517;0,0907124
759,8160;0,0902651
760,7802;0,0898296
761,7444;0,0894244
762,7087;0,089057
763,6729;0,0887192
764,6371;0,0883924
765,6014;0,0880581
766,5656;0,0877081
767,5298;0,0873466
768,4941;0,0869846
769,4583;0,0866311
770,4225;0,0862886
771,3868;0,0859546
772,3510;0,0856267
773,3152;0,0853062
774,2795;0,0849978
775,2437;0,0847056
776,2079;0,084431
777,1722;0,084172
778,1364;0,0839247
779,1006;0,083684
780,0649;0,0834414
781,0291;0,0831834
781,9933;0,0828936
782,9576;0,0825583
783,9218;0,0821741
784,8860;0,0817531
785,8503;0,0813216
786,8145;0,0809135
787,7787;0,0805594
788,7430;0,0802772
789,7072;0,0800669
790,6714;0,079912
791,6357;0,0797869
792,5999;0,0796657
793,5641;0,0795305
794,5284;0,0793735
795,4926;0,0791941
796,4568;0,0789941
797,4211;0,0787747
798,3853;0,078538
799,3495;0,0782899
800,3138;0,0780408
801,2780;0,0778027
802,2422;0,077584
803,2065;0,0773859
804,1707;0,0772051
805,1349;0,0770386
806,0992;0,0768868
807,0634;0,0767518
808,0276;0,076631
808,9919;0,0765124
809,9561;0,076377
810,9203;0,076208
811,8846;0,0760017
812,8488;0,0757718
813,8130;0,0755434
814,7773;0,0753411
815,7415;0,0751767
816,7057;0,0750454
817,6700;0,0749314
818,6342;0,0748177
819,5984;0,0746954
820,5627;0,0745668
821,5269;0,0744419
822,4911;0,0743328
823,4554;0,0742474
824,4196;0,0741866
825,3839;0,0741442
826,3481;0,0741098
827,3123;0,0740718
828,2766;0,07402
829,2408;0,0739472
830,2050;0,0738484
831,1693;0,0737202
832,1335;0,0735605
833,0977;0,073371
834,0620;0,0731581
835,0262;0,0729328
835,9904;0,0727067
836,9547;0,0724855
837,9189;0,072266
838,8831;0,0720376
839,8474;0,0717907
840,8116;0,0715247
841,7758;0,0712527
842,7401;0,0709966
843,7043;0,0707772
844,6685;0,0706037
845,6328;0,0704715
846,5970;0,0703672
847,5612;0,0702785
848,5255;0,0702019
849,4897;0,0701416
850,4539;0,070103
851,4182;0,0700849
852,3824;0,0700769
853,3466;0,0700643
854,3109;0,070036
855,2751;0,0699906
856,2393;0,0699352
857,2036;0,0698803
858,1678;0,0698328
859,1320;0,0697943
860,0963;0,0697646
861,0605;0,0697464
862,0247;0,0697484
862,9890;0,0697826
863,9532;0,0698605
864,9174;0,069988
865,8817;0,0701642
866,8459;0,0703819
867,8101;0,0706299
868,7744;0,0708935
869,7386;0,0711557
870,7028;0,0714001
871,6671;0,0716136
872,6313;0,0717897
873,5955;0,071929
874,5598;0,0720369
875,5240;0,0721212
876,4882;0,0721904
877,4525;0,0722541
878,4167;0,0723243
879,3809;0,072416
880,3452;0,0725448
881,3094;0,0727244
882,2736;0,0729656
883,2379;0,0732769
884,2021;0,073667
885,1663;0,0741458
886,1306;0,0747231
887,0948;0,0754043
888,0590;0,0761872
889,0233;0,0770594
889,9875;0,0779987
890,9517;0,0789745
891,9160;0,079949
892,8802;0,0808783
893,8444;0,0817154
894,8087;0,0824159
895,7729;0,082945
896,7371;0,0832844
897,7014;0,0834326
898,6656;0,0834014
899,6298;0,0832085
900,5941;0,0828726
901,5583;0,0824148
902,5225;0,0818629
903,4868;0,0812553
904,4510;0,0806393
905,4152;0,0800611
906,3795;0,0795554
907,3437;0,079138
908,3079;0,0788078
909,2722;0,0785559
910,2364;0,0783755
911,2007;0,0782679
912,1649;0,07824
913,1292;0,0782977
914,0934;0,0784389
915,0576;0,0786512
916,0219;0,0789146
916,9861;0,0792083
917,9503;0,0795179
918,9146;0,0798386
919,8788;0,0801736
920,8430;0,0805267
921,8073;0,0808938
922,7715;0,0812582
923,7357;0,0815938
924,7000;0,0818766
925,6642;0,0820967
926,6284;0,0822657
927,5927;0,0824111
928,5569;0,0825622
929,5211;0,0827357
930,4854;0,0829294
931,4496;0,0831297
932,4138;0,0833256
933,3781;0,0835217
934,3423;0,0837392
935,3065;0,0840053
936,2708;0,0843377
937,2350;0,0847354
938,1992;0,0851805
939,1635;0,0856509
940,1277;0,0861357
941,0919;0,0866431
942,0562;0,0871965
943,0204;0,0878226
943,9846;0,088538
944,9489;0,089343
945,9131;0,090225
946,8773;0,0911674
947,8416;0,0921597
948,8058;0,0932011
949,7700;0,0942985
950,7343;0,0954609
951,6985;0,096694
952,6627;0,097999
953,6270;0,0993753
954,5912;0,100825
955,5554;0,102354
956,5197;0,103976
957,4839;0,1057
958,4481;0,10753
959,4124;0,109459
960,3766;0,111468
961,3408;0,113529
962,3051;0,11562
963,2693;0,117722
964,2335;0,119829
965,1978;0,121946
966,1620;0,124087
967,1262;0,126276
968,0905;0,128545
969,0547;0,130937
970,0189;0,133493
970,9832;0,136249
971,9474;0,139222
972,9116;0,142417
973,8759;0,145836
974,8401;0,149489
975,8043;0,153397
976,7686;0,15758
977,7328;0,162041
978,6970;0,166734
979,6613;0,171561
980,6255;0,176379
981,5897;0,181026
982,5540;0,185352
983,5182;0,189248
984,4824;0,192659
985,4467;0,195578
986,4109;0,198041
987,3751;0,200109
988,3394;0,201852
989,3036;0,203339
990,2678;0,204624
991,2321;0,205744
992,1963;0,206723
993,1605;0,207582
994,1248;0,208349
995,0890;0,209066
996,0532;0,209777
997,0175;0,210519
997,9817;0,211305
998,9459;0,212129
999,9102;0,212968
1000,8744;0,213807
1001,8386;0,214648
1002,8029;0,215518
1003,7671;0,216465
1004,7313;0,217541
1005,6956;0,218799
1006,6598;0,220284
1007,6240;0,222031
1008,5883;0,224059
1009,5525;0,226365
1010,5167;0,228922
1011,4810;0,231676
1012,4452;0,234554
1013,4094;0,237478
1014,3737;0,240373
1015,3379;0,243181
1016,3021;0,245863
1017,2664;0,2484
1018,2306;0,250795
1019,1948;0,253064
1020,1591;0,255236
1021,1233;0,257335
1022,0875;0,259381
1023,0518;0,261377
1024,0160;0,263317
1024,9802;0,265183
1025,9445;0,266953
1026,9087;0,268597
1027,8729;0,270076
1028,8372;0,271331
1029,8014;0,272281
1030,7656;0,272828
1031,7299;0,272871
1032,6941;0,27233
1033,6583;0,271169
1034,6226;0,269418
1035,5868;0,267182
1036,5510;0,264628
1037,5153;0,261966
1038,4795;0,259406
1039,4437;0,257127
1040,4080;0,25525
1041,3722;0,253824
1042,3364;0,252833
1043,3007;0,252203
1044,2649;0,251823
1045,2291;0,251565
1046,1934;0,251305
1047,1576;0,250944
1048,1218;0,250418
1049,0861;0,249689
1050,0503;0,248741
1051,0145;0,247558
1051,9788;0,24613
1052,9430;0,24445
1053,9072;0,242522
1054,8715;0,24036
1055,8357;0,237965
1056,7999;0,235311
1057,7642;0,232336
1058,7284;0,22897
1059,6926;0,225168
1060,6569;0,220957
1061,6211;0,21645
1062,5853;0,211821
1063,5496;0,20726
1064,5138;0,20293
1065,4780;0,198929
1066,4423;0,195295
1067,4065;0,192009
1068,3707;0,189029
1069,3350;0,186298
1070,2992;0,183763
1071,2634;0,181375
1072,2277;0,179085
1073,1919;0,176848
1074,1561;0,174616
1075,1204;0,172348
1076,0846;0,17002
1077,0488;0,167631
1078,0131;0,165216
1078,9773;0,162839
1079,9415;0,160577
1080,9058;0,158499
1081,8700;0,156654
1082,8342;0,155055
1083,7985;0,153686
1084,7627;0,152514
1085,7269;0,151499
1086,6912;0,150612
1087,6554;0,149838
1088,6196;0,149178
1089,5839;0,148642
1090,5481;0,148241
1091,5123;0,147979
1092,4766;0,147851
1093,4408;0,147843
1094,4050;0,147941
1095,3693;0,148131
1096,3335;0,148403
1097,2977;0,148747
1098,2620;0,149154
1099,2262;0,149608
1100,1904;0,150084
1101,1547;0,150545
1102,1189;0,150943
1103,0831;0,151225
1104,0474;0,15135
1105,0116;0,151299
1105,9758;0,151076
1106,9401;0,150701
1107,9043;0,150191
1108,8685;0,149537
1109,8328;0,148704
1110,7970;0,147643
1111,7612;0,14632
1112,7255;0,144743
1113,6897;0,142974
1114,6539;0,141115
1115,6182;0,139282
1116,5824;0,137568
1117,5466;0,136023
1118,5109;0,134644
1119,4751;0,13339
1120,4393;0,132188
1121,4036;0,130952
1122,3678;0,129594
1123,3320;0,128034
1124,2963;0,126221
1125,2605;0,124143
1126,2247;0,121831
1127,1890;0,119351
1128,1532;0,116784
1129,1174;0,1142
1130,0817;0,111643
1131,0459;0,109136
1132,0101;0,106688
1132,9744;0,104318
1133,9386;0,102062
1134,9028;0,0999679
1135,8671;0,098092
1136,8313;0,0964794
1137,7955;0,0951573
1138,7598;0,0941303
1139,7240;0,093382
1140,6882;0,0928793
1141,6525;0,0925798
1142,6167;0,0924405
1143,5809;0,0924276
1144,5452;0,0925207
1145,5094;0,0927128
1146,4736;0,0930042
1147,4379;0,0933958
1148,4021;0,0938854
1149,3663;0,0944668
1150,3306;0,09513
1151,2948;0,0958593
1152,2590;0,0966287
1153,2233;0,0973985
1154,1875;0,0981174
1155,1517;0,0987285
1156,1160;0,0991767
1157,0802;0,09941
1158,0444;0,0993757
1159,0087;0,0990143
1159,9729;0,0982588
1160,9371;0,0970448
1161,9014;0,0953287
1162,8656;0,0931067
1163,8298;0,0904249
1164,7941;0,087376
1165,7583;0,084086
1166,7225;0,0806946
1167,6868;0,0773372
1168,6510;0,0741289
1169,6152;0,0711543
1170,5795;0,0684621
1171,5437;0,0660681
1172,5079;0,0639627
1173,4722;0,0621225
1174,4364;0,0605206
1175,4006;0,0591332
1176,3649;0,0579411
1177,3291;0,0569285
1178,2933;0,0560794
1179,2576;0,0553755
1180,2218;0,054796
1181,1860;0,0543195
1182,1503;0,0539282
1183,1145;0,0536112
1184,0787;0,053366
1185,0430;0,0531966
1186,0072;0,0531085
1186,9714;0,0531058
1187,9357;0,0531887
1188,8999;0,053356
1189,8641;0,0536079
1190,8284;0,0539467
1191,7926;0,0543759
1192,7568;0,054897
1193,7211;0,055507
1194,6853;0,0561979
1195,6495;0,0569574
1196,6138;0,0577697
1197,5780;0,0586156
1198,5422;0,0594739
1199,5065;0,060312
1200,4707;0,0611406
1201,4349;0,0619389
1202,3992;0,0627073
1203,3634;0,0634492
1204,3276;0,0641661
1205,2919;0,064855
1206,2561;0,0655121
1207,2203;0,0661395
1208,1846;0,0667511
1209,1488;0,0673733
1210,1130;0,0680394
1211,0773;0,0687797
1212,0415;0,0696131
1213,0057;0,0705428
1213,9700;0,0715581
1214,9342;0,0726398
1215,8984;0,0737652
1216,8627;0,0749106
1217,8269;0,0760525
1218,7911;0,0771699
1219,7554;0,0782462
1220,7196;0,0792726
1221,6838;0,0802486
1222,6481;0,0811787
1223,6123;0,0820679
1224,5765;0,0829175
1225,5408;0,0837243
1226,5050;0,0844827
1227,4692;0,085188
1228,4335;0,0858387
1229,3977;0,0864362
1230,3619;0,0869826
1231,3262;0,0874791
1232,2904;0,0879242
1233,2546;0,0883147
1234,2189;0,0886469
1235,1831;0,0889197
1236,1473;0,0891361
1237,1116;0,0893038
1238,0758;0,0894338
1239,0400;0,0895359
1240,0043;0,0896143
1240,9685;0,0896649
1241,9327;0,0896761
1242,8970;0,089633
1243,8612;0,0895225
1244,8254;0,0893377
1245,7897;0,0890791
1246,7539;0,0887536
1247,7181;0,0883724
1248,6824;0,0879498
1249,6466;0,0875012
1250,6108;0,0870418
1251,5751;0,0865848
1252,5393;0,0861389
1253,5035;0,0857061
1254,4678;0,0852816
1255,4320;0,0848548
1256,3962;0,0844121
1257,3605;0,0839413
1258,3247;0,0834349
1259,2889;0,0828911
1260,2532;0,0823128
1261,2174;0,0817028
1262,1816;0,0810613
1263,1459;0,0803846
1264,1101;0,079668
1265,0743;0,078909
1266,0386;0,0781086
1267,0028;0,0772703
1267,9670;0,0763984
1268,9313;0,075497
1269,8955;0,0745702
1270,8597;0,0736238
1271,8240;0,0726648
1272,7882;0,071701
1273,7524;0,0707399
1274,7167;0,0697896
1275,6809;0,06886
1276,6451;0,0679617
1277,6094;0,0671022
1278,5736;0,0662821
1279,5378;0,065493
1280,5021;0,0647216
1281,4663;0,0639574
1282,4305;0,0631988
1283,3948;0,0624546
1284,3590;0,0617409
1285,3232;0,0610755
1286,2875;0,0604745
1287,2517;0,0599505
1288,2159;0,0595125
1289,1802;0,059164
1290,1444;0,0589021
1291,1086;0,0587184
1292,0729;0,0586029
1293,0371;0,0585493
1294,0013;0,0585584
1294,9656;0,0586377
1295,9298;0,0587972
1296,8940;0,0590439
1297,8583;0,0593784
1298,8225;0,0597951
1299,7867;0,0602842
1300,7510;0,0608358
1301,7152;0,0614423
1302,6794;0,0621003
1303,6437;0,0628095
1304,6079;0,0635713
1305,5721;0,064384
1306,5364;0,0652396
1307,5006;0,0661244
1308,4648;0,0670222
1309,4291;0,0679183
1310,3933;0,0687994
1311,3575;0,0696499
1312,3218;0,070448
1313,2860;0,0711646
1314,2502;0,0717692
1315,2145;0,0722359
1316,1787;0,0725483
1317,1429;0,0727004
1318,1072;0,0726988
1319,0714;0,0725637
1320,0356;0,0723276
1320,9999;0,0720285
1321,9641;0,0717021
1322,9283;0,0713763
1323,8926;0,0710715
1324,8568;0,070801
1325,8210;0,0705717
1326,7853;0,0703824
1327,7495;0,070224
1328,7137;0,0700815
1329,6780;0,0699369
1330,6422;0,0697728
1331,6064;0,0695753
1332,5707;0,0693355
1333,5349;0,0690488
1334,4991;0,0687105
1335,4634;0,0683105
1336,4276;0,0678317
1337,3918;0,0672589
1338,3561;0,0665967
1339,3203;0,0658859
1340,2845;0,0651936
1341,2488;0,0645783
1342,2130;0,0640626
1343,1772;0,0636387
1344,1415;0,0632896
1345,1057;0,0630067
1346,0699;0,0627957
1347,0342;0,0626726
1347,9984;0,0626547
1348,9626;0,0627502
1349,9269;0,0629531
1350,8911;0,0632439
1351,8553;0,0635981
1352,8196;0,0639956
1353,7838;0,0644288
1354,7480;0,0649018
1355,7123;0,0654224
1356,6765;0,0659919
1357,6407;0,0666026
1358,6050;0,0672416
1359,5692;0,0678959
1360,5334;0,0685515
1361,4977;0,0691874
1362,4619;0,0697777
1363,4261;0,070305
1364,3904;0,0707703
1365,3546;0,0711861
1366,3188;0,0715622
1367,2831;0,0718974
1368,2473;0,07218
1369,2115;0,0723934
1370,1758;0,0725202
1371,1400;0,0725427
1372,1042;0,0724412
1373,0685;0,0721988
1374,0327;0,0718168
1374,9969;0,0713228
1375,9612;0,0707535
1376,9254;0,0701197
1377,8896;0,0693958
1378,8539;0,0685456
1379,8181;0,0675634
1380,7823;0,0664966
1381,7466;0,0654259
1382,7108;0,0644144
1383,6750;0,0634695
1384,6393;0,0625486
1385,6035;0,061605
1386,5677;0,0606464
1387,5320;0,0597577
1388,4962;0,0590431
1389,4604;0,0585424
1390,4247;0,0582164
1391,3889;0,0579944
1392,3531;0,0578185
1393,3174;0,0576614
1394,2816;0,0575253
1395,2458;0,057429
1396,2101;0,0573906
1397,1743;0,0574166
1398,1385;0,0575055
1399,1028;0,0576541
1400,0670;0,0578598
1401,0313;0,0581173
1401,9955;0,058419
1402,9597;0,0587578
1403,9240;0,0591304
1404,8882;0,0595357
1405,8524;0,0599716
1406,8167;0,0604341
1407,7809;0,0609216
1408,7451;0,0614393
1409,7094;0,062
1410,6736;0,0626161
1411,6378;0,0632863
1412,6021;0,0639904
1413,5663;0,0646989
1414,5305;0,0653889
1415,4948;0,0660509
1416,4590;0,0666809
1417,4232;0,067264
1418,3875;0,0677669
1419,3517;0,068157
1420,3159;0,068424
1421,2802;0,068566
1422,2444;0,0685718
1423,2086;0,068431
1424,1729;0,0681531
1425,1371;0,0677652
1426,1013;0,0672844
1427,0656;0,0666905
1428,0298;0,0659359
1428,9940;0,0650008
1429,9583;0,0639487
1430,9225;0,0629112
1431,8867;0,0619921
1432,8510;0,0611902
1433,8152;0,0604062
1434,7794;0,0595152
1435,7437;0,0584753
1436,7079;0,0574166
1437,6721;0,0565706
1438,6364;0,0560636
1439,6006;0,0558485
1440,5648;0,0558121
1441,5291;0,0558727
1442,4933;0,0560007
1443,4575;0,0561985
1444,4218;0,0564736
1445,3860;0,056822
1446,3502;0,0572255
1447,3145;0,0576569
1448,2787;0,0580895
1449,2429;0,0585039
1450,2072;0,0588901
1451,1714;0,0592428
1452,1356;0,0595542
1453,0999;0,05981
1454,0641;0,0599798
1455,0283;0,0600001
1455,9926;0,059777
1456,9568;0,0593035
1457,9210;0,0588043
1458,8853;0,0585231
1459,8495;0,0584576
1460,8137;0,0584584
1461,7780;0,0583663
1462,7422;0,0580382
1463,7064;0,057366
1464,6707;0,0563556
1465,6349;0,0551803
1466,5991;0,0540587
1467,5634;0,0530713
1468,5276;0,0521367
1469,4918;0,0510898
1470,4561;0,0497449
1471,4203;0,0479629
1472,3845;0,0457981
1473,3488;0,043605
1474,3130;0,0418002
1475,2772;0,0405043
1476,2415;0,0395774
1477,2057;0,03885
1478,1699;0,0382224
1479,1342;0,0376546
1480,0984;0,0371392
1481,0626;0,036688
1482,0269;0,036324
1482,9911;0,0360687
1483,9553;0,0359251
1484,9196;0,0358713
1485,8838;0,0358673
1486,8480;0,0358731
1487,8123;0,0358731
1488,7765;0,035903
1489,7407;0,036039
1490,7050;0,036328
1491,6692;0,0367475
1492,6334;0,0372461
1493,5977;0,0377917
1494,5619;0,0383856
1495,5261;0,0390547
1496,4904;0,039829
1497,4546;0,0407075
1498,4188;0,0416435
1499,3831;0,0425727
1500,3473;0,0434457
1501,3115;0,0442306
1502,2758;0,0449056
1503,2400;0,045453
1504,2042;0,0458476
1505,1685;0,0460232
1506,1327;0,0458489
1507,0969;0,0452812
1508,0612;0,0445981
1509,0254;0,0440945
1509,9896;0,0437678
1510,9539;0,0434913
1511,9181;0,0431638
1512,8823;0,0427212
1513,8466;0,0421239
1514,8108;0,0413637
1515,7750;0,0404808
1516,7393;0,0395548
1517,7035;0,0386539
1518,6677;0,0377889
1519,6320;0,0369235
1520,5962;0,0360411
1521,5604;0,0352007
1522,5247;0,0345046
1523,4889;0,0340069
1524,4531;0,0336831
1525,4174;0,0334781
1526,3816;0,033358
1527,3458;0,0333165
1528,3101;0,0333502
1529,2743;0,0334395
1530,2385;0,0335538
1531,2028;0,0336717
1532,1670;0,0337997
1533,1312;0,0339747
1534,0955;0,0342357
1535,0597;0,0345841
1536,0239;0,0349803
1536,9882;0,0353719
1537,9524;0,0357073
1538,9166;0,0359181
1539,8809;0,0359132
1540,8451;0,0356999
1541,8093;0,0355043
1542,7736;0,0355139
1543,7378;0,0356963
1544,7020;0,0359534
1545,6663;0,0362279
1546,6305;0,0365017
1547,5947;0,0367694
1548,5590;0,0370245
1549,5232;0,0372606
1550,4874;0,0374813
1551,4517;0,0377036
1552,4159;0,0379465
1553,3801;0,0382121
1554,3444;0,0384773
1555,3086;0,0386986
1556,2728;0,0388175
1557,2371;0,0387695
1558,2013;0,0385706
1559,1655;0,0384567
1560,1298;0,0386679
1561,0940;0,0391586
1562,0582;0,0397696
1563,0225;0,0403958
1563,9867;0,0409883
1564,9509;0,0415252
1565,9152;0,0420005
1566,8794;0,0424317
1567,8436;0,0428684
1568,8079;0,0433741
1569,7721;0,0439756
1570,7363;0,0446358
1571,7006;0,0452913
1572,6648;0,0459069
1573,6290;0,0464974
1574,5933;0,047119
1575,5575;0,0478303
1576,5217;0,0486346
1577,4860;0,0494729
1578,4502;0,0502944
1579,4144;0,0510946
1580,3787;0,0518934
1581,3429;0,052709
1582,3071;0,0535462
1583,2714;0,054397
1584,2356;0,0552505
1585,1998;0,0561025
1586,1641;0,0569522
1587,1283;0,0577891
1588,0925;0,0585862
1589,0568;0,0593063
1590,0210;0,0599142
1590,9852;0,0603828
1591,9495;0,0606892
1592,9137;0,0608129
1593,8779;0,0607447
1594,8422;0,0605012
1595,8064;0,0601268
1596,7706;0,0596762
1597,7349;0,0591908
1598,6991;0,0586906
1599,6633;0,0581815
1600,6276;0,0576703
1601,5918;0,0571724
1602,5560;0,0567096
1603,5203;0,0562982
1604,4845;0,055937
1605,4487;0,0556049
1606,4130;0,0552708
1607,3772;0,0549146
1608,3414;0,0545476
1609,3057;0,0542168
1610,2699;0,053975
1611,2341;0,0538394
1612,1984;0,0537779
1613,1626;0,0537275
1614,1268;0,053622
1615,0911;0,0534251
1616,0553;0,0531751
1617,0195;0,0529884
1617,9838;0,0529615
1618,9480;0,0530812
1619,9122;0,0532634
1620,8765;0,0534288
1621,8407;0,0535355
1622,8049;0,053583
1623,7692;0,0536016
1624,7334;0,0536266
1625,6976;0,0536718
1626,6619;0,0537315
1627,6261;0,0538025
1628,5903;0,0538951
1629,5546;0,0540198
1630,5188;0,0541683
1631,4830;0,0543085
1632,4473;0,0543932
1633,4115;0,0543686
1634,3757;0,0541915
1635,3400;0,0538845
1636,3042;0,0535893
1637,2684;0,0534565
1638,2327;0,053493
1639,1969;0,0536121
1640,1611;0,0537403
1641,1254;0,0538453
1642,0896;0,0539161
1643,0538;0,0539372
1644,0181;0,0538718
1644,9823;0,0536704
1645,9465;0,0533317
1646,9108;0,052975
1647,8750;0,0527578
1648,8392;0,0527031
1649,8035;0,0526908
1650,7677;0,0525337
1651,7319;0,0520097
1652,6962;0,0509965
1653,6604;0,0498264
1654,6246;0,0490865
1655,5889;0,0488615
1656,5531;0,0488616
1657,5173;0,0488448
1658,4816;0,0486918
1659,4458;0,0483513
1660,4100;0,0478115
1661,3743;0,0471186
1662,3385;0,046399
1663,3027;0,0458004
1664,2670;0,0453812
1665,2312;0,0450809
1666,1954;0,0447739
1667,1597;0,0443256
1668,1239;0,0436445
1669,0881;0,0427602
1670,0524;0,0418533
1671,0166;0,0411171
1671,9808;0,0405805
1672,9451;0,0401265
1673,9093;0,0396281
1674,8735;0,0390509
1675,8378;0,0384756
1676,8020;0,0380234
1677,7662;0,0377452
1678,7305;0,0375908
1679,6947;0,037455
1680,6589;0,037216
1681,6232;0,0367437
1682,5874;0,0359361
1683,5516;0,0348687
1684,5159;0,0338839
1685,4801;0,033277
1686,4443;0,0330162
1687,4086;0,0329114
1688,3728;0,0328232
1689,3370;0,0327055
1690,3013;0,0325707
1691,2655;0,0324457
1692,2297;0,0323427
1693,1940;0,0322518
1694,1582;0,0321496
1695,1224;0,0320107
1696,0867;0,0318183
1697,0509;0,0315704
1698,0151;0,0312871
1698,9794;0,0310191
1699,9436;0,0308423
1700,9078;0,030818
1701,8721;0,0309534
1702,8363;0,0312077
1703,8005;0,0315287
1704,7648;0,0318825
1705,7290;0,0322608
1706,6932;0,0326735
1707,6575;0,0331338
1708,6217;0,0336451
1709,5859;0,0341983
1710,5502;0,0347749
1711,5144;0,0353514
1712,4786;0,0359021
1713,4429;0,0364054
1714,4071;0,0368541
1715,3713;0,0372671
1716,3356;0,0376914
1717,2998;0,0381789
1718,2640;0,0387483
1719,2283;0,0393764
1720,1925;0,0400258
1721,1567;0,0406685
1722,1210;0,041289
1723,0852;0,0418782
1724,0494;0,0424291
1725,0137;0,0429392
1725,9779;0,0434123
1726,9421;0,0438557
1727,9064;0,0442698
1728,8706;0,0446409
1729,8348;0,0449357
1730,7991;0,0451003
1731,7633;0,0450663
1732,7275;0,0447954
1733,6918;0,0443596
1734,6560;0,0439286
1735,6202;0,0436084
1736,5845;0,0433558
1737,5487;0,043054
1738,5129;0,042604
1739,4772;0,0419724
1740,4414;0,0412033
1741,4056;0,0403892
1742,3699;0,0396034
1743,3341;0,0388564
1744,2983;0,0381124
1745,2626;0,0373293
1746,2268;0,0364693
1747,1910;0,0354856
1748,1553;0,0343255
1749,1195;0,0329896
1750,0837;0,0316002
1751,0480;0,0303493
1752,0122;0,0293465
1752,9764;0,0285552
1753,9407;0,0278596
1754,9049;0,0271551
1755,8691;0,0264022
1756,8334;0,0256298
1757,7976;0,0248933
1758,7618;0,0242182
1759,7261;0,0235793
1760,6903;0,0229384
1761,6545;0,0222974
1762,6188;0,0217098
1763,5830;0,0212317
1764,5472;0,020871
1765,5115;0,0205855
1766,4757;0,0203176
1767,4399;0,0200255
1768,4042;0,0196921
1769,3684;0,0193157
1770,3326;0,0188994
1771,2969;0,0184601
1772,2611;0,0180519
1773,2253;0,0177544
1774,1896;0,0176125
1775,1538;0,0176005
1776,1180;0,0176478
1777,0823;0,0176832
1778,0465;0,017662
1779,0107;0,0175753
1779,9750;0,0174459
1780,9392;0,0173095
1781,9034;0,0171901
1782,8677;0,0170937
1783,8319;0,0170202
1784,7961;0,0169773
1785,7604;0,0169782
1786,7246;0,0170257
1787,6888;0,0171017
1788,6531;0,0171699
1789,6173;0,0171868
1790,5815;0,0171179
1791,5458;0,0169634
1792,5100;0,0167776
1793,4742;0,0166405
1794,4385;0,0165908
1795,4027;0,0166058
1796,3669;0,0166368
1797,3312;0,016645
1798,2954;0,0166153
1799,2596;0,0165569
1800,2239;0,0164941
1801,1881;0,016453
1802,1523;0,0164474
1803,1166;0,0164752
1804,0808;0,0165253
1805,0450;0,0165844
1806,0093;0,0166403
1806,9735;0,0166809
1807,9377;0,0166938
1808,9020;0,0166707
1809,8662;0,0166139
1810,8304;0,0165415
1811,7947;0,0164797
1812,7589;0,0164468
1813,7231;0,0164433
1814,6874;0,0164541
1815,6516;0,0164613
1816,6158;0,0164564
1817,5801;0,0164469
1818,5443;0,0164521
1819,5085;0,0164885
1820,4728;0,016556
1821,4370;0,0166376
1822,4012;0,0167083
1823,3655;0,0167491
1824,3297;0,0167571
1825,2939;0,0167436
1826,2582;0,0167207
1827,2224;0,0166878
1828,1866;0,0166325
1829,1509;0,0165478
1830,1151;0,0164501
1831,0793;0,0163756
1832,0436;0,0163525
1833,0078;0,0163806
1833,9720;0,0164387
1834,9363;0,0165044
1835,9005;0,0165678
1836,8647;0,0166331
1837,8290;0,0167102
1838,7932;0,0168013
1839,7574;0,0168949
1840,7217;0,0169699
1841,6859;0,0170041
1842,6501;0,0169817
1843,6144;0,0169037
1844,5786;0,0167964
1845,5428;0,0167013
1846,5071;0,0166451
1847,4713;0,0166255
1848,4355;0,0166238
1849,3998;0,0166231
1850,3640;0,0166155
1851,3282;0,0166018
1852,2925;0,0165869
1853,2567;0,0165773
1854,2209;0,0165799
1855,1852;0,0166018
1856,1494;0,0166478
1857,1136;0,0167167
1858,0779;0,016799
1859,0421;0,0168787
1860,0063;0,0169405
1860,9706;0,016977
1861,9348;0,0169917
1862,8990;0,0169947
1863,8633;0,0169964
1864,8275;0,0170032
1865,7917;0,0170174
1866,7560;0,0170378
1867,7202;0,0170606
1868,6844;0,0170818
1869,6487;0,0170998
1870,6129;0,0171135
1871,5771;0,0171168
1872,5414;0,0171012
1873,5056;0,0170629
1874,4698;0,0170075
1875,4341;0,0169493
1876,3983;0,0169049
1877,3625;0,0168858
1878,3268;0,016895
1879,2910;0,0169288
1880,2552;0,0169805
1881,2195;0,017043
1882,1837;0,0171097
1883,1479;0,0171738
1884,1122;0,017231
1885,0764;0,017281
1886,0406;0,0173279
1887,0049;0,017376
1887,9691;0,0174242
1888,9333;0,0174638
1889,8976;0,0174825
1890,8618;0,0174752
1891,8260;0,0174498
1892,7903;0,0174242
1893,7545;0,017417
1894,7188;0,0174379
1895,6830;0,0174804
1896,6472;0,0175248
1897,6115;0,01755
1898,5757;0,017548
1899,5399;0,0175292
1900,5042;0,0175162
1901,4684;0,0175302
1902,4326;0,0175786
1903,3969;0,0176505
1904,3611;0,0177238
1905,3253;0,0177776
1906,2896;0,0178011
1907,2538;0,0177934
1908,2180;0,017759
1909,1823;0,0177033
1910,1465;0,0176341
1911,1107;0,0175654
1912,0750;0,0175186
1913,0392;0,0175178
1914,0034;0,0175846
1914,9677;0,01773
1915,9319;0,0179453
1916,8961;0,0181956
1917,8604;0,0184273
1918,8246;0,0185916
1919,7888;0,0186663
1920,7531;0,0186588
1921,7173;0,0185942
1922,6815;0,0185016
1923,6458;0,0184055
1924,6100;0,018322
1925,5742;0,0182617
1926,5385;0,0182348
1927,5027;0,0182543
1928,4669;0,0183324
1929,4312;0,0184701
1930,3954;0,0186489
1931,3596;0,0188346
1932,3239;0,0189936
1933,2881;0,0191112
1934,2523;0,0191947
1935,2166;0,0192624
1936,1808;0,0193265
1937,1450;0,0193861
1938,1093;0,0194349
1939,0735;0,0194763
1940,0377;0,0195299
1941,0020;0,0196224
1941,9662;0,0197651
1942,9304;0,0199381
1943,8947;0,0201
1944,8589;0,0202198
1945,8231;0,0203002
1946,7874;0,0203741
1947,7516;0,0204815
1948,7158;0,0206416
1949,6801;0,0208362
1950,6443;0,0210129
1951,6085;0,0211075
1952,5728;0,0210765
1953,5370;0,0209243
1954,5012;0,0207149
1955,4655;0,0205599
1956,4297;0,0205808
1957,3939;0,020857
1958,3582;0,021381
1959,3224;0,0220452
1960,2866;0,02268
1961,2509;0,0231315
1962,2151;0,0233376
1963,1793;0,0233478
1964,1436;0,0232801
1965,1078;0,0232431
1966,0720;0,0232717
1967,0363;0,0233124
1968,0005;0,0232709
1968,9647;0,0230923
1969,9290;0,0228155
1970,8932;0,0225655
1971,8574;0,0224961
1972,8217;0,0227166
1973,7859;0,0232307
1974,7501;0,0239184
1975,7144;0,0245797
1976,6786;0,0250326
1977,6428;0,0252055
1978,6071;0,0251582
1979,5713;0,0250147
1980,5355;0,0248696
1981,4998;0,0247382
1982,4640;0,0245728
1983,4282;0,0243173
1984,3925;0,0239595
1985,3567;0,0235512
1986,3209;0,0231865
1987,2852;0,0229578
1988,2494;0,0229192
1989,2136;0,0230727
1990,1779;0,0233741
1991,1421;0,0237463
1992,1063;0,0240948
1993,0706;0,0243307
1994,0348;0,0243968
1994,9990;0,024286
1995,9633;0,0240446
1996,9275;0,0237564
1997,8917;0,023513
1998,8560;0,0233783
1999,8202;0,0233676
2000,7844;0,023457
2001,7487;0,0236176
2002,7129;0,0238475
2003,6771;0,0241738
2004,6414;0,0246189
2005,6056;0,0251556
2006,5698;0,0256909
2007,5341;0,0261006
2008,4983;0,0262985
2009,4625;0,0262862
2010,4268;0,026146
2011,3910;0,0259882
2012,3552;0,0258945
2013,3195;0,025895
2014,2837;0,0259805
2015,2479;0,0261293
2016,2122;0,0263259
2017,1764;0,0265587
2018,1406;0,0268085
2019,1049;0,0270446
2020,0691;0,0272339
2021,0333;0,0273553
2021,9976;0,0274049
2022,9618;0,0273906
2023,9260;0,027324
2024,8903;0,0272167
2025,8545;0,0270837
2026,8187;0,0269463
2027,7830;0,0268289
2028,7472;0,0267515
2029,7114;0,0267244
2030,6757;0,0267517
2031,6399;0,0268358
2032,6041;0,0269753
2033,5684;0,0271545
2034,5326;0,0273362
2035,4968;0,0274707
2036,4611;0,0275201
2037,4253;0,027477
2038,3895;0,0273621
2039,3538;0,0271985
2040,3180;0,0269877
2041,2822;0,0267064
2042,2465;0,0263357
2043,2107;0,025897
2044,1749;0,0254662
2045,1392;0,0251436
2046,1034;0,024996
2047,0676;0,0250066
2048,0320;0,0250737
2048,9961;0,0250694
2049,9604;0,0249166
2050,9246;0,0246286
2051,8889;0,0242887
2052,8530;0,0239973
2053,8174;0,0238211
2054,7815;0,0237641
2055,7458;0,0237729
2056,7100;0,0237702
2057,6743;0,0236982
2058,6384;0,023548
2059,6028;0,0233605
2060,5669;0,0232002
2061,5313;0,0231187
2062,4954;0,0231264
2063,4597;0,0231876
2064,4238;0,0232413
2065,3882;0,0232374
2066,3523;0,0231641
2067,3167;0,0230507
2068,2808;0,0229442
2069,2451;0,0228788
2070,2092;0,0228583
2071,1736;0,022861
2072,1377;0,0228581
2073,1021;0,0228322
2074,0662;0,0227819
2075,0305;0,0227133
2075,9946;0,0226294
2076,9590;0,0225283
2077,9231;0,0224101
2078,8875;0,0222853
2079,8516;0,0221741
2080,8159;0,022097
2081,7800;0,0220627
2082,7444;0,0220657
2083,7085;0,0220922
2084,6729;0,0221306
2085,6370;0,0221763
2086,6013;0,0222269
2087,5654;0,0222733
2088,5298;0,0222965
2089,4939;0,0222754
2090,4583;0,0222034
2091,4224;0,0221012
2092,3867;0,0220157
2093,3508;0,0220015
2094,3152;0,0220924
2095,2793;0,0222783
2096,2437;0,0225038
2097,2078;0,0226921
2098,1721;0,0227827
2099,1362;0,0227599
2100,1006;0,0226563
2101,0647;0,0225307
2102,0291;0,0224393
2102,9932;0,0224098
2103,9575;0,0224344
2104,9216;0,0224818
2105,8860;0,0225169
2106,8501;0,0225192
2107,8145;0,0224897
2108,7786;0,0224473
2109,7429;0,0224182
2110,7070;0,0224218
2111,6714;0,0224622
2112,6355;0,0225248
2113,5999;0,0225823
2114,5640;0,0226067
2115,5283;0,0225824
2116,4924;0,0225144
2117,4568;0,0224276
2118,4209;0,0223571
2119,3853;0,0223353
2120,3494;0,0223811
2121,3137;0,0224939
2122,2778;0,0226549
2123,2422;0,0228332
2124,2063;0,0229951
2125,1707;0,0231162
2126,1348;0,0231912
2127,0991;0,0232382
2128,0632;0,0232942
2129,0276;0,0234005
2129,9917;0,0235874
2130,9561;0,0238633
2131,9202;0,0242145
2132,8845;0,0246127
2133,8486;0,0250234
2134,8130;0,0254093
2135,7771;0,0257315
2136,7415;0,0259537
2137,7056;0,0260552
2138,6699;0,0260498
2139,6340;0,0259946
2140,5984;0,0259792
2141,5625;0,0260924
2142,5269;0,026381
2143,4910;0,026824
2144,4553;0,0273381
2145,4194;0,0278165
2146,3838;0,0281814
2147,3479;0,0284198
2148,3123;0,0285824
2149,2764;0,028746
2150,2407;0,0289672
2151,2048;0,0292558
2152,1692;0,0295868
2153,1333;0,0299388
2154,0977;0,030331
2155,0618;0,0308253
2156,0261;0,0314813
2156,9902;0,0322806
2157,9546;0,0330776
2158,9187;0,0336453
2159,8831;0,0338139
2160,8472;0,0335823
2161,8115;0,0330988
2162,7756;0,0325495
2163,7400;0,0320581
2164,7041;0,0316522
2165,6685;0,0312883
2166,6326;0,0309081
2167,5969;0,0304868
2168,5610;0,0300478
2169,5254;0,0296433
2170,4895;0,0293197
2171,4539;0,0290925
2172,4180;0,0289437
2173,3823;0,0288397
2174,3464;0,028757
2175,3108;0,0286964
2176,2749;0,0286772
2177,2393;0,0287146
2178,2034;0,0287969
2179,1677;0,0288816
2180,1318;0,028913
2181,0962;0,0288522
2182,0603;0,0286987
2183,0247;0,0284873
2183,9888;0,0282627
2184,9531;0,0280515
2185,9172;0,0278538
2186,8816;0,0276569
2187,8457;0,0274558
2188,8101;0,0272615
2189,7742;0,0270922
2190,7385;0,0269572
2191,7026;0,0268507
2192,6670;0,0267612
2193,6311;0,0266862
2194,5955;0,0266368
2195,5596;0,026625
2196,5239;0,0266434
2197,4880;0,0266555
2198,4524;0,0266089
2199,4165;0,0264648
2200,3809;0,0262244
2201,3450;0,025932
2202,3093;0,0256538
2203,2734;0,0254447
2204,2378;0,0253261
2205,2019;0,0252855
2206,1663;0,0252931
2207,1304;0,0253222
2208,0947;0,0253587
2209,0588;0,025396
2210,0232;0,025425
2210,9873;0,0254282
2211,9517;0,0253856
2212,9158;0,0252875
2213,8801;0,0251452
2214,8442;0,0249893
2215,8086;0,0248564
2216,7727;0,0247698
2217,7371;0,0247289
2218,7012;0,0247124
2219,6655;0,0246957
2220,6296;0,0246684
2221,5940;0,0246417
2222,5581;0,0246374
2223,5225;0,0246674
2224,4866;0,0247158
2225,4509;0,0247384
2226,4150;0,0246824
2227,3794;0,0245149
2228,3435;0,0242459
2229,3079;0,0239279
2230,2720;0,0236345
2231,2363;0,0234276
2232,2004;0,0233333
2233,1648;0,0233367
2234,1289;0,0233954
2235,0933;0,0234608
2236,0574;0,023495
2237,0217;0,0234773
2237,9858;0,0234033
2238,9502;0,0232826
2239,9143;0,0231372
2240,8787;0,0229975
2241,8428;0,022892
2242,8071;0,0228343
2243,7712;0,022814
2244,7356;0,0228013
2245,6997;0,0227648
2246,6641;0,0226931
2247,6282;0,0226046
2248,5925;0,0225382
2249,5566;0,0225291
2250,5210;0,0225864
2251,4851;0,0226853
2252,4495;0,0227802
2253,4136;0,0228286
2254,3779;0,0228118
2255,3420;0,0227408
2256,3064;0,0226452
2257,2705;0,0225545
2258,2349;0,0224837
2259,1990;0,0224314
2260,1633;0,0223877
2261,1274;0,0223443
2262,0918;0,0223006
2263,0559;0,0222617
2264,0203;0,022232
2264,9844;0,0222095
2265,9487;0,0221863
2266,9128;0,022154
2267,8772;0,0221102
2268,8413;0,0220604
2269,8057;0,0220133
2270,7698;0,0219747
2271,7341;0,0219427
2272,6982;0,0219092
2273,6626;0,0218654
2274,6267;0,0218062
2275,5911;0,021732
2276,5552;0,0216467
2277,5195;0,021556
2278,4836;0,0214682
2279,4480;0,0213946
2280,4121;0,0213488
2281,3765;0,0213409
2282,3406;0,0213713
2283,3049;0,0214294
2284,2690;0,0214973
2285,2334;0,0215585
2286,1975;0,0216053
2287,1619;0,0216392
2288,1260;0,0216653
2289,0903;0,0216856
2290,0544;0,0216962
2291,0188;0,021691
2291,9829;0,0216695
2292,9473;0,0216409
2293,9114;0,0216214
2294,8757;0,021625
2295,8398;0,0216544
2296,8042;0,0216984
2297,7683;0,0217362
2298,7327;0,0217478
2299,6968;0,0217227
2300,6611;0,0216635
2301,6252;0,0215845
2302,5896;0,0215067
2303,5537;0,0214531
2304,5181;0,0214434
2305,4822;0,0214875
2306,4465;0,0215775
2307,4106;0,021684
2308,3750;0,0217605
2309,3391;0,0217605
2310,3035;0,02166
2311,2676;0,021474
2312,2319;0,0212542
2313,1960;0,0210649
2314,1604;0,0209503
2315,1245;0,0209133
2316,0889;0,0209173
2317,0530;0,020907
2318,0173;0,0208366
2318,9814;0,0206931
2319,9458;0,0205057
2320,9099;0,0203365
2321,8743;0,0202507
2322,8384;0,020282
2323,8027;0,020413
2324,7668;0,0205858
2325,7312;0,0207337
2326,6953;0,0208126
2327,6597;0,0208159
2328,6238;0,02077
2329,5881;0,0207159
2330,5522;0,0206901
2331,5166;0,0207105
2332,4807;0,0207711
2333,4451;0,0208457
2334,4092;0,0209011
2335,3735;0,0209148
2336,3376;0,0208881
2337,3020;0,0208474
2338,2661;0,0208311
2339,2305;0,0208639
2340,1946;0,0209281
2341,1589;0,0209471
2342,1230;0,020812
2343,0874;0,0204851
2344,0515;0,0201276
2345,0159;0,0200357
2345,9800;0,0203596
2346,9443;0,0209586
2347,9084;0,0215389
2348,8728;0,0218587
2349,8369;0,0218414
2350,8013;0,021591
2351,7654;0,0213348
2352,7297;0,0213014
2353,6938;0,0215846
2354,6582;0,0221047
2355,6223;0,0227049
2356,5867;0,0232497
2357,5508;0,023632
2358,5151;0,0237647
2359,4792;0,0236222
2360,4436;0,0232735
2361,4077;0,0228334
2362,3721;0,0223728
2363,3362;0,0218916
2364,3005;0,0213675
2365,2646;0,0208116
2366,2290;0,0202724
2367,1931;0,0197964
2368,1575;0,0193955
2369,1216;0,0190502
2370,0859;0,0187344
2371,0500;0,0184386
2372,0144;0,0181774
2372,9785;0,0179841
2373,9429;0,0178973
2374,9070;0,0179476
2375,8713;0,0181462
2376,8354;0,0184791
2377,7998;0,018909
2378,7639;0,0193839
2379,7283;0,0198487
2380,6924;0,0202573
2381,6567;0,0205794
2382,6208;0,0208037
2383,5852;0,0209355
2384,5493;0,0209908
2385,5137;0,0209909
2386,4778;0,0209571
2387,4421;0,020908
2388,4063;0,020859
2389,3706;0,0208227
2390,3347;0,0208092
2391,2991;0,0208244
2392,2632;0,0208675
2393,2275;0,0209294
2394,1917;0,0209942
2395,1560;0,0210452
2396,1201;0,0210725
2397,0845;0,0210788
2398,0486;0,0210802
2399,0129;0,0210966
2399,9771;0,021142
2400,9414;0,0212161
2401,9055;0,0213036
2402,8699;0,0213824
2403,8340;0,0214342
2404,7983;0,0214535
2405,7625;0,0214489
2406,7268;0,0214369
2407,6909;0,021433
2408,6553;0,0214449
2409,6194;0,0214707
2410,5837;0,0215032
2411,5479;0,0215363
2412,5122;0,0215686
2413,4763;0,0216038
2414,4407;0,0216478
2415,4048;0,0217038
2416,3691;0,0217695
2417,3333;0,0218375
2418,2976;0,0218977
2419,2617;0,0219415
2420,2261;0,0219639
2421,1902;0,0219658
2422,1545;0,0219531
2423,1187;0,0219362
2424,0830;0,0219271
2425,0471;0,0219357
2426,0115;0,0219666
2426,9756;0,0220165
2427,9399;0,0220756
2428,9041;0,0221316
2429,8684;0,0221759
2430,8325;0,0222074
2431,7969;0,0222326
2432,7610;0,022261
2433,7253;0,0222992
2434,6895;0,0223468
2435,6538;0,0223954
2436,6179;0,0224331
2437,5823;0,0224507
2438,5464;0,0224466
2439,5107;0,0224291
2440,4749;0,0224132
2441,4392;0,0224134
2442,4033;0,0224367
2443,3677;0,0224789
2444,3318;0,0225264
2445,2961;0,0225627
2446,2603;0,0225772
2447,2246;0,0225701
2448,1887;0,0225524
2449,1531;0,0225401
2450,1172;0,0225475
2451,0815;0,022581
2452,0457;0,0226372
2453,0100;0,0227052
2453,9741;0,0227704
2454,9385;0,0228193
2455,9026;0,0228435
2456,8669;0,0228426
2457,8311;0,0228239
2458,7954;0,0228005
2459,7595;0,0227865
2460,7239;0,0227927
2461,6880;0,0228228
2462,6523;0,0228724
2463,6165;0,0229315
2464,5808;0,0229875
2465,5449;0,0230297
2466,5093;0,0230524
2467,4734;0,0230563
2468,4377;0,0230478
2469,4019;0,0230375
2470,3662;0,0230357
2471,3303;0,0230499
2472,2947;0,0230818
2473,2588;0,0231278
2474,2231;0,0231808
2475,1873;0,0232322
2476,1516;0,0232741
2477,1157;0,0233009
2478,0801;0,0233095
2479,0442;0,0233006
2480,0085;0,0232795
2480,9727;0,023256
2481,9370;0,0232418
2482,9011;0,0232461
2483,8655;0,0232713
2484,8296;0,023311
2485,7939;0,0233524
2486,7581;0,023383
2487,7224;0,023397
2488,6865;0,0233981
2489,6509;0,0233975
2490,6150;0,0234073
2491,5793;0,0234337
2492,5435;0,0234738
2493,5078;0,023518
2494,4719;0,0235556
2495,4363;0,0235801
2496,4004;0,0235913
2497,3647;0,0235932
2498,3289;0,0235906
2499,2932;0,0235866
2500,2573;0,0235827
2501,2217;0,0235817
2502,1858;0,0235887
2503,1501;0,0236109
2504,1143;0,0236529
2505,0786;0,0237127
2506,0427;0,0237804
2507,0071;0,0238414
2507,9712;0,0238833
2508,9355;0,0239013
2509,8997;0,0238998
2510,8640;0,0238875
2511,8281;0,0238714
2512,7925;0,0238529
2513,7566;0,0238292
2514,7209;0,0237998
2515,6851;0,0237705
2516,6494;0,0237534
2517,6135;0,0237602
2518,5779;0,0237949
2519,5420;0,0238499
2520,5063;0,0239091
2521,4705;0,0239564
2522,4348;0,0239833
2523,3989;0,0239916
2524,3633;0,0239904
2525,3274;0,0239892
2526,2917;0,023993
2527,2559;0,024001
2528,2202;0,0240093
2529,1843;0,0240146
2530,1487;0,0240162
2531,1128;0,0240147
2532,0771;0,0240108
2533,0413;0,0240037
2534,0056;0,023992
2534,9697;0,0239766
2535,9341;0,023963
2536,8982;0,0239606
2537,8625;0,0239789
2538,8267;0,0240207
2539,7910;0,0240787
2540,7551;0,0241366
2541,7195;0,0241757
2542,6836;0,0241839
2543,6479;0,0241614
2544,6121;0,0241204
2545,5764;0,0240782
2546,5405;0,0240492
2547,5049;0,0240401
2548,4690;0,02405
2549,4333;0,0240749
2550,3975;0,0241108
2551,3618;0,0241547
2552,3259;0,0242029
2553,2903;0,0242491
2554,2544;0,0242851
2555,2188;0,0243038
2556,1829;0,0243024
2557,1472;0,0242832
2558,1113;0,0242515
2559,0757;0,024213
2560,0398;0,0241724
2561,0042;0,0241351
2561,9683;0,0241087
2562,9326;0,0241024
2563,8967;0,0241232
2564,8611;0,0241708
2565,8252;0,0242349
2566,7896;0,0242977
2567,7537;0,0243416
2568,7180;0,0243577
2569,6821;0,0243493
2570,6465;0,024328
2571,6106;0,0243066
2572,5750;0,0242915
2573,5391;0,0242823
2574,5034;0,0242755
2575,4675;0,0242708
2576,4319;0,0242725
2577,3960;0,024286
2578,3604;0,0243133
2579,3245;0,0243498
2580,2888;0,024388
2581,2529;0,0244218
2582,2173;0,0244501
2583,1814;0,0244747
2584,1458;0,0244959
2585,1099;0,0245104
2586,0742;0,0245137
2587,0383;0,0245052
2588,0027;0,024491
2588,9668;0,0244815
2589,9312;0,024485
2590,8953;0,024502
2591,8596;0,0245258
2592,8237;0,0245483
2593,7881;0,0245666
2594,7522;0,0245839
2595,7166;0,0246068
2596,6807;0,0246383
2597,6450;0,0246752
2598,6091;0,0247092
2599,5735;0,0247324
2600,5376;0,0247411
2601,5020;0,0247382
2602,4661;0,0247314
2603,4304;0,0247294
2604,3945;0,0247392
2605,3589;0,024763
2606,3230;0,0247978
2607,2874;0,0248364
2608,2515;0,0248704
2609,2158;0,0248945
2610,1799;0,0249086
2611,1443;0,0249176
2612,1084;0,0249277
2613,0728;0,0249434
2614,0369;0,0249652
2615,0012;0,0249913
2615,9653;0,0250196
2616,9297;0,0250491
2617,8938;0,0250791
2618,8582;0,025108
2619,8223;0,0251326
2620,7866;0,0251497
2621,7507;0,0251581
2622,7151;0,02516
2623,6792;0,02516
2624,6436;0,0251631
2625,6077;0,0251725
2626,5720;0,0251889
2627,5361;0,0252108
2628,5005;0,0252362
2629,4646;0,0252633
2630,4290;0,0252908
2631,3931;0,0253177
2632,3574;0,0253431
2633,3215;0,0253658
2634,2859;0,0253848
2635,2500;0,0254005
2636,2144;0,0254144
2637,1785;0,0254296
2638,1428;0,0254493
2639,1069;0,0254761
2640,0713;0,0255106
2641,0354;0,0255514
2641,9998;0,0255959
2642,9639;0,0256406
2643,9282;0,0256815
2644,8923;0,0257149
2645,8567;0,0257386
2646,8208;0,0257536
2647,7852;0,0257645
2648,7493;0,0257784
2649,7136;0,0258019
2650,6777;0,0258374
2651,6421;0,025881
2652,6062;0,0259244
2653,5706;0,0259583
2654,5347;0,025977
2655,4990;0,0259808
2656,4631;0,0259757
2657,4275;0,0259712
2658,3916;0,0259765
2659,3560;0,0259967
2660,3201;0,0260312
2661,2844;0,0260731
2662,2485;0,0261127
2663,2129;0,0261415
2664,1770;0,026157
2665,1414;0,0261639
2666,1055;0,0261721
2667,0698;0,0261905
2668,0339;0,0262226
2668,9983;0,0262648
2669,9624;0,0263091
2670,9268;0,0263487
2671,8909;0,0263812
2672,8552;0,0264089
2673,8193;0,0264355
2674,7837;0,0264628
2675,7478;0,026489
2676,7122;0,0265106
2677,6763;0,0265255
2678,6406;0,0265353
2679,6047;0,0265453
2680,5691;0,0265627
2681,5332;0,026593
2682,4976;0,0266377
2683,4617;0,0266931
2684,4260;0,0267523
2685,3901;0,026808
2686,3545;0,0268559
2687,3186;0,0268958
2688,2830;0,0269308
2689,2471;0,0269646
2690,2114;0,0269995
2691,1755;0,0270349
2692,1399;0,027069
2693,1040;0,0271003
2694,0684;0,0271291
2695,0325;0,0271574
2695,9968;0,0271873
2696,9609;0,0272205
2697,9253;0,0272572
2698,8894;0,0272965
2699,8538;0,0273376
2700,8179;0,0273801
2701,7822;0,027424
2702,7463;0,0274696
2703,7107;0,027516
2704,6748;0,0275612
2705,6392;0,0276022
2706,6033;0,0276372
2707,5676;0,0276661
2708,5317;0,0276923
2709,4961;0,0277201
2710,4602;0,0277534
2711,4246;0,0277929
2712,3887;0,0278363
2713,3530;0,02788
2714,3171;0,0279211
2715,2815;0,0279583
2716,2456;0,0279918
2717,2100;0,0280215
2718,1741;0,0280476
2719,1384;0,0280708
2720,1025;0,0280932
2721,0669;0,0281173
2722,0310;0,0281443
2722,9954;0,028173
2723,9595;0,0282017
2724,9238;0,0282302
2725,8879;0,0282616
2726,8523;0,0283012
2727,8164;0,0283519
2728,7808;0,0284104
2729,7449;0,0284679
2730,7092;0,0285137
2731,6733;0,0285417
2732,6377;0,0285538
2733,6018;0,0285583
2734,5662;0,0285653
2735,5303;0,0285818
2736,4946;0,0286098
2737,4587;0,0286477
2738,4231;0,0286925
2739,3872;0,0287415
2740,3516;0,0287917
2741,3157;0,0288384
2742,2800;0,0288762
2743,2441;0,0289006
2744,2085;0,0289106
2745,1726;0,0289096
2746,1370;0,0289052
2747,1011;0,0289055
2748,0654;0,0289171
2749,0295;0,0289424
2749,9939;0,0289801
2750,9580;0,029026
2751,9224;0,0290752
2752,8865;0,0291236
2753,8508;0,0291693
2754,8149;0,029212
2755,7793;0,0292525
2756,7434;0,0292914
2757,7078;0,0293288
2758,6719;0,0293648
2759,6362;0,0294
2760,6003;0,0294358
2761,5647;0,0294735
2762,5288;0,0295134
2763,4932;0,0295539
2764,4573;0,0295923
2765,4216;0,0296271
2766,3857;0,0296596
2767,3501;0,0296936
2768,3142;0,0297333
2769,2786;0,0297801
2770,2427;0,0298308
2771,2070;0,0298799
2772,1711;0,0299234
2773,1355;0,0299619
2774,0996;0,0300013
2775,0640;0,0300488
2776,0281;0,0301077
2776,9924;0,0301747
2777,9565;0,0302417
2778,9209;0,0303016
2779,8850;0,0303526
2780,8494;0,0304001
2781,8135;0,0304528
2782,7778;0,0305167
2783,7419;0,0305909
2784,7063;0,0306673
2785,6704;0,0307357
2786,6348;0,0307897
2787,5989;0,030831
2788,5632;0,0308689
2789,5273;0,0309155
2790,4917;0,0309806
2791,4558;0,0310667
2792,4202;0,0311689
2793,3843;0,0312775
2794,3486;0,031383
2795,3127;0,0314799
2796,2771;0,031568
2797,2412;0,0316504
2798,2056;0,0317309
2799,1697;0,0318119
2800,1340;0,0318946
2801,0981;0,031981
2802,0625;0,0320751
2803,0266;0,0321814
2803,9910;0,0323021
2804,9551;0,0324333
2805,9194;0,0325651
2806,8835;0,0326866
2807,8479;0,0327917
2808,8120;0,0328836
2809,7764;0,0329737
2810,7405;0,033075
2811,7048;0,0331957
2812,6689;0,0333349
2813,6333;0,0334857
2814,5974;0,0336404
2815,5618;0,0337957
2816,5259;0,033953
2817,4902;0,0341151
2818,4543;0,0342819
2819,4187;0,0344499
2820,3828;0,0346145
2821,3472;0,0347747
2822,3113;0,0349348
2823,2756;0,0351024
2824,2397;0,0352841
2825,2041;0,0354815
2826,1682;0,0356921
2827,1326;0,0359118
2828,0967;0,0361393
2829,0610;0,0363779
2830,0251;0,0366331
2830,9895;0,0369093
2831,9536;0,0372065
2832,9180;0,0375206
2833,8821;0,0378457
2834,8464;0,0381772
2835,8105;0,0385142
2836,7749;0,0388596
2837,7390;0,0392192
2838,7034;0,0395999
2839,6675;0,0400095
2840,6318;0,0404562
2841,5959;0,0409474
2842,5603;0,0414877
2843,5244;0,0420757
2844,4888;0,0427008
2845,4529;0,0433419
2846,4172;0,0439691
2847,3813;0,0445475
2848,3457;0,0450431
2849,3098;0,0454294
2850,2742;0,0456922
2851,2383;0,0458324
2852,2026;0,0458657
2853,1667;0,0458189
2854,1311;0,0457234
2855,0952;0,0456084
2856,0596;0,0454958
2857,0237;0,0453981
2857,9880;0,0453206
2858,9521;0,0452656
2859,9165;0,045236
2860,8806;0,0452361
2861,8450;0,0452705
2862,8091;0,0453412
2863,7734;0,0454471
2864,7375;0,0455831
2865,7019;0,0457418
2866,6660;0,0459139
2867,6304;0,0460889
2868,5945;0,0462559
2869,5588;0,0464057
2870,5229;0,0465327
2871,4873;0,0466372
2872,4514;0,0467245
2873,4158;0,0468024
2874,3799;0,0468771
2875,3442;0,0469515
2876,3083;0,047026
2877,2727;0,0471006
2878,2368;0,0471772
2879,2012;0,0472591
2880,1653;0,0473491
2881,1296;0,0474468
2882,0938;0,0475494
2883,0581;0,0476532
2884,0222;0,0477568
2884,9866;0,0478622
2885,9507;0,0479731
2886,9150;0,0480925
2887,8792;0,0482212
2888,8435;0,0483583
2889,8076;0,0485021
2890,7720;0,0486511
2891,7361;0,0488028
2892,7004;0,0489528
2893,6646;0,049095
2894,6289;0,0492251
2895,5930;0,0493436
2896,5574;0,0494569
2897,5215;0,0495739
2898,4858;0,0497004
2899,4500;0,0498352
2900,4143;0,0499712
2901,3784;0,0500999
2902,3428;0,0502177
2903,3069;0,0503284
2904,2712;0,0504412
2905,2354;0,0505673
2906,1997;0,0507158
2907,1638;0,0508939
2908,1282;0,051108
2909,0923;0,0513643
2910,0566;0,0516673
2911,0208;0,0520152
2911,9851;0,0523968
2912,9492;0,0527913
2913,9136;0,0531708
2914,8777;0,0535071
2915,8420;0,053776
2916,8062;0,0539618
2917,7705;0,0540577
2918,7346;0,054066
2919,6990;0,0539954
2920,6631;0,0538594
2921,6274;0,0536727
2922,5916;0,053448
2923,5559;0,0531937
2924,5200;0,0529136
2925,4844;0,0526081
2926,4485;0,0522777
2927,4128;0,0519263
2928,3770;0,0515617
2929,3413;0,0511939
2930,3054;0,0508314
2931,2698;0,0504781
2932,2339;0,0501326
2933,1982;0,0497904
2934,1624;0,0494475
2935,1267;0,0491039
2936,0908;0,0487635
2937,0552;0,0484318
2938,0193;0,0481118
2938,9836;0,0478007
2939,9478;0,0474899
2940,9121;0,047168
2941,8762;0,0468263
2942,8406;0,0464641
2943,8047;0,0460906
2944,7690;0,045722
2945,7332;0,0453753
2946,6975;0,045062
2947,6616;0,044784
2948,6260;0,0445355
2949,5901;0,0443076
2950,5544;0,0440929
2951,5186;0,0438876
2952,4829;0,0436906
2953,4470;0,0434999
2954,4114;0,0433117
2955,3755;0,0431206
2956,3398;0,0429221
2957,3040;0,0427141
2958,2683;0,0424975
2959,2324;0,0422738
2960,1968;0,0420442
2961,1609;0,0418092
2962,1252;0,0415693
2963,0894;0,0413268
2964,0537;0,0410852
2965,0178;0,0408482
2965,9822;0,0406178
2966,9463;0,0403933
2967,9106;0,0401709
2968,8748;0,0399454
2969,8391;0,0397113
2970,8032;0,0394662
2971,7676;0,0392116
2972,7317;0,0389541
2973,6960;0,0387033
2974,6602;0,0384681
2975,6245;0,0382533
2976,5886;0,038058
2977,5530;0,037878
2978,5171;0,0377088
2979,4814;0,0375499
2980,4456;0,0374046
2981,4099;0,0372771
2982,3740;0,0371694
2983,3384;0,0370785
2984,3025;0,036998
2985,2668;0,0369208
2986,2310;0,0368419
2987,1953;0,0367597
2988,1594;0,0366758
2989,1238;0,0365941
2990,0879;0,0365196
2991,0522;0,036458
2992,0164;0,0364142
2992,9807;0,03639
2993,9448;0,0363834
2994,9092;0,0363889
2995,8733;0,0364002
2996,8376;0,036413
2997,8018;0,0364268
2998,7661;0,0364431
2999,7302;0,0364635
3000,6946;0,0364874
3001,6587;0,0365128
3002,6230;0,0365385
3003,5872;0,0365655
3004,5515;0,0365971
3005,5156;0,036636
3006,4800;0,0366813
3007,4441;0,0367278
3008,4084;0,0367677
3009,3726;0,0367957
3010,3369;0,0368121
3011,3010;0,0368238
3012,2654;0,0368419
3013,2295;0,0368757
3014,1938;0,0369294
3015,1580;0,0370001
3016,1223;0,037081
3017,0864;0,0371647
3018,0508;0,0372462
3019,0149;0,0373232
3019,9792;0,0373954
3020,9434;0,0374639
3021,9077;0,0375309
3022,8718;0,0376008
3023,8362;0,0376795
3024,8003;0,0377722
3025,7646;0,0378796
3026,7288;0,0379963
3027,6931;0,038112
3028,6572;0,0382155
3029,6216;0,0383008
3030,5857;0,03837
3031,5500;0,038433
3032,5142;0,0385036
3033,4785;0,0385926
3034,4426;0,0387037
3035,4070;0,0388318
3036,3711;0,0389656
3037,3354;0,0390927
3038,2996;0,0392063
3039,2639;0,0393079
3040,2280;0,0394078
3041,1924;0,0395195
3042,1565;0,0396522
3043,1208;0,0398059
3044,0850;0,0399705
3045,0493;0,0401315
3046,0134;0,040277
3046,9778;0,0404038
3047,9419;0,0405174
3048,9063;0,0406279
3049,8704;0,0407448
3050,8347;0,0408723
3051,7988;0,0410101
3052,7632;0,0411546
3053,7273;0,0413017
3054,6917;0,0414487
3055,6558;0,0415949
3056,6201;0,0417415
3057,5842;0,0418913
3058,5486;0,042047
3059,5127;0,0422088
3060,4771;0,0423732
3061,4412;0,0425326
3062,4055;0,0426794
3063,3696;0,0428091
3064,3340;0,0429237
3065,2981;0,0430311
3066,2625;0,0431411
3067,2266;0,0432609
3068,1909;0,0433931
3069,1550;0,0435364
3070,1194;0,0436886
3071,0835;0,0438475
3072,0479;0,0440115
3073,0120;0,0441778
3073,9763;0,0443419
3074,9404;0,0444985
3075,9048;0,0446441
3076,8689;0,0447784
3077,8333;0,0449044
3078,7974;0,0450269
3079,7617;0,0451504
3080,7258;0,0452781
3081,6902;0,045412
3082,6543;0,0455532
3083,6187;0,0457016
3084,5828;0,0458563
3085,5471;0,0460152
3086,5112;0,0461757
3087,4756;0,0463357
3088,4397;0,0464936
3089,4041;0,0466487
3090,3682;0,0468006
3091,3325;0,0469501
3092,2966;0,0470996
3093,2610;0,0472536
3094,2251;0,0474163
3095,1895;0,0475887
3096,1536;0,0477661
3097,1179;0,047939
3098,0820;0,0480977
3099,0464;0,0482383
3100,0105;0,0483658
3100,9749;0,0484925
3101,9390;0,048632
3102,9033;0,0487924
3103,8674;0,0489723
3104,8318;0,049163
3105,7959;0,0493542
3106,7603;0,0495388
3107,7244;0,0497157
3108,6887;0,0498882
3109,6528;0,0500611
3110,6172;0,050237
3111,5813;0,0504157
3112,5457;0,0505956
3113,5098;0,0507746
3114,4741;0,0509524
3115,4382;0,0511298
3116,4026;0,0513089
3117,3667;0,0514914
3118,3311;0,0516786
3119,2952;0,0518697
3120,2595;0,052062
3121,2236;0,0522512
3122,1880;0,0524327
3123,1521;0,0526045
3124,1165;0,0527693
3125,0806;0,0529338
3126,0449;0,0531066
3127,0090;0,0532935
3127,9734;0,0534943
3128,9375;0,0537026
3129,9019;0,0539092
3130,8660;0,0541065
3131,8303;0,0542922
3132,7944;0,0544701
3133,7588;0,0546476
3134,7229;0,0548324
3135,6873;0,0550291
3136,6514;0,0552382
3137,6157;0,0554555
3138,5798;0,0556737
3139,5442;0,0558844
3140,5083;0,0560818
3141,4727;0,0562654
3142,4368;0,0564407
3143,4011;0,056617
3144,3652;0,0568031
3145,3296;0,0570028
3146,2937;0,0572139
3147,2581;0,0574314
3148,2222;0,0576506
3149,1865;0,0578705
3150,1506;0,0580921
3151,1150;0,0583165
3152,0791;0,0585418
3153,0435;0,0587634
3154,0076;0,0589759
3154,9719;0,0591765
3155,9360;0,0593663
3156,9004;0,0595499
3157,8645;0,0597337
3158,8289;0,0599244
3159,7930;0,0601275
3160,7573;0,0603459
3161,7214;0,060579
3162,6858;0,0608218
3163,6499;0,0610665
3164,6143;0,0613046
3165,5784;0,0615301
3166,5427;0,0617415
3167,5068;0,0619414
3168,4712;0,062135
3169,4353;0,0622838
3170,3997;0,0624784
3171,3638;0,0626772
3172,3281;0,0628798
3173,2922;0,0630851
3174,2566;0,0632921
3175,2207;0,0635008
3176,1851;0,0637127
3177,1492;0,0639303
3178,1135;0,0641547
3179,0776;0,0643839
3180,0420;0,0646127
3181,0061;0,0648346
3181,9705;0,0650463
3182,9346;0,0652503
3183,8989;0,0654544
3184,8630;0,0656674
3185,8274;0,0658932
3186,7915;0,0661275
3187,7559;0,0663603
3188,7200;0,0665819
3189,6843;0,0667894
3190,6484;0,0669881
3191,6128;0,0671878
3192,5769;0,0673961
3193,5413;0,0676134
3194,5054;0,0678331
3195,4697;0,068046
3196,4338;0,0682465
3197,3982;0,0684356
3198,3623;0,06862
3199,3267;0,068808
3200,2908;0,0690056
3201,2551;0,0692147
3202,2192;0,069433
3203,1836;0,0696561
3204,1477;0,0698785
3205,1121;0,0700948
3206,0762;0,0703016
3207,0405;0,0704985
3208,0046;0,0706887
3208,9690;0,070878
3209,9331;0,071073
3210,8975;0,0712784
3211,8616;0,0714951
3212,8259;0,0717202
3213,7900;0,0719474
3214,7544;0,0721687
3215,7185;0,0723772
3216,6829;0,0725688
3217,6470;0,0727449
3218,6113;0,0729128
3219,5754;0,073083
3220,5398;0,0732654
3221,5039;0,0734636
3222,4683;0,0736742
3223,4324;0,0738876
3224,3967;0,0740945
3225,3608;0,0742899
3226,3252;0,0744764
3227,2893;0,074661
3228,2537;0,074851
3229,2178;0,0750488
3230,1821;0,0752508
3231,1462;0,0754495
3232,1106;0,0756383
3233,0747;0,075815
3234,0391;0,0759832
3235,0032;0,0761499
3235,9675;0,0763221
3236,9316;0,0765046
3237,8960;0,076699
3238,8601;0,0769046
3239,8245;0,07712
3240,7886;0,0773423
3241,7529;0,0775669
3242,7170;0,0777866
3243,6814;0,0779937
3244,6455;0,0781836
3245,6099;0,078359
3246,5740;0,07853
3247,5383;0,0787105
3248,5024;0,0789102
3249,4668;0,0791299
3250,4309;0,0793596
3251,3953;0,0795842
3252,3594;0,0797917
3253,3237;0,0799801
3254,2878;0,0801592
3255,2522;0,0803453
3256,2163;0,0805531
3257,1807;0,0807878
3258,1448;0,0810432
3259,1091;0,0813051
3260,0732;0,0815571
3261,0376;0,081788
3262,0017;0,0819949
3262,9661;0,082184
3263,9302;0,0823667
3264,8945;0,0825543
3265,8586;0,082753
3266,8230;0,0829615
3267,7871;0,0831733
3268,7515;0,0833791
3269,7156;0,0835712
3270,6799;0,0837443
3271,6440;0,0838955
3272,6084;0,0840238
3273,5725;0,0841305
3274,5369;0,0842211
3275,5010;0,0843042
3276,4653;0,08439
3277,4294;0,0844858
3278,3938;0,0845934
3279,3579;0,0847097
3280,3223;0,0848286
3281,2864;0,0849443
3282,2507;0,0850524
3283,2148;0,0851498
3284,1792;0,0852342
3285,1433;0,0853044
3286,1077;0,0853615
3287,0718;0,0854094
3288,0361;0,0854533
3289,0002;0,0854966
3289,9646;0,0855393
3290,9287;0,085579
3291,8931;0,0856129
3292,8572;0,0856404
3293,8215;0,0856628
3294,7856;0,085682
3295,7500;0,0856985
3296,7141;0,0857122
3297,6785;0,0857239
3298,6426;0,085737
3299,6069;0,0857563
3300,5710;0,0857851
3301,5354;0,0858221
3302,4995;0,0858609
3303,4639;0,0858922
3304,4280;0,085908
3305,3923;0,0859054
3306,3564;0,0858882
3307,3208;0,0858652
3308,2849;0,0858466
3309,2493;0,0858412
3310,2134;0,0858535
3311,1777;0,0858845
3312,1418;0,0859327
3313,1062;0,0859955
3314,0703;0,0860702
3315,0347;0,0861546
3315,9988;0,086247
3316,9631;0,086347
3317,9272;0,0864548
3318,8916;0,0865704
3319,8557;0,0866921
3320,8201;0,0868149
3321,7842;0,0869317
3322,7485;0,0870356
3323,7126;0,0871236
3324,6770;0,0871989
3325,6411;0,0872692
3326,6055;0,0873436
3327,5696;0,0874276
3328,5339;0,0875204
3329,4980;0,0876157
3330,4624;0,0877039
3331,4265;0,0877762
3332,3909;0,0878274
3333,3550;0,087857
3334,3193;0,0878683
3335,2834;0,087866
3336,2478;0,0878537
3337,2119;0,0878311
3338,1763;0,0877944
3339,1404;0,0877379
3340,1047;0,087657
3341,0688;0,0875509
3342,0332;0,0874235
3342,9973;0,0872822
3343,9617;0,087135
3344,9258;0,0869872
3345,8901;0,0868401
3346,8542;0,086691
3347,8186;0,0865355
3348,7827;0,0863706
3349,7471;0,0861964
3350,7112;0,0860159
3351,6755;0,0858338
3352,6396;0,0856535
3353,6040;0,0854763
3354,5681;0,0853005
3355,5325;0,0851233
3356,4966;0,0849417
3357,4609;0,0847541
3358,4250;0,0845611
3359,3894;0,0843654
3360,3535;0,0841719
3361,3179;0,0839858
3362,2820;0,083811
3363,2463;0,0836477
3364,2104;0,0834912
3365,1748;0,0833331
3366,1389;0,0831648
3367,1033;0,0829812
3368,0674;0,0827832
3369,0317;0,0825768
3369,9958;0,0823699
3370,9602;0,0821678
3371,9243;0,0819712
3372,8887;0,0817757
3373,8528;0,0815744
3374,8171;0,0813623
3375,7813;0,0811393
3376,7456;0,0809118
3377,7097;0,0806906
3378,6741;0,0804862
3379,6382;0,080304
3380,6025;0,0801408
3381,5667;0,0799871
3382,5310;0,079831
3383,4951;0,0796647
3384,4595;0,0794869
3385,4236;0,0793017
3386,3879;0,0791147
3387,3521;0,0789291
3388,3164;0,0787456
3389,2805;0,0785634
3390,2449;0,0783831
3391,2090;0,0782052
3392,1733;0,078028
3393,1375;0,077846
3394,1018;0,0776524
3395,0659;0,0774443
3396,0303;0,0772278
3396,9944;0,0770167
3397,9587;0,076826
3398,9229;0,0766613
3399,8872;0,0765137
3400,8513;0,0763637
3401,8157;0,0761919
3402,7798;0,0759902
3403,7441;0,0757657
3404,7083;0,0755348
3405,6726;0,0753123
3406,6367;0,0751029
3407,6011;0,0749005
3408,5652;0,0746941
3409,5295;0,0744763
3410,4937;0,0742476
3411,4580;0,0740147
3412,4221;0,0737845
3413,3865;0,0735593
3414,3506;0,073335
3415,3149;0,0731034
3416,2791;0,0728573
3417,2434;0,0725928
3418,2075;0,0723115
3419,1719;0,072019
3420,1360;0,0717232
3421,1003;0,0714327
3422,0645;0,0711544
3423,0288;0,0708922
3423,9929;0,0706464
3424,9573;0,0704136
3425,9214;0,0701876
3426,8857;0,0699607
3427,8499;0,0697258
3428,8142;0,0694783
3429,7783;0,0692172
3430,7427;0,0689439
3431,7068;0,0686616
3432,6711;0,0683748
3433,6353;0,0680896
3434,5996;0,0678131
3435,5637;0,0675512
3436,5281;0,0673048
3437,4922;0,0670685
3438,4565;0,066833
3439,4207;0,0665906
3440,3850;0,0663397
3441,3491;0,0660847
3442,3135;0,0658306
3443,2776;0,0655764
3444,2419;0,065314
3445,2061;0,0650333
3446,1704;0,0647308
3447,1345;0,0644144
3448,0989;0,0640991
3449,0630;0,0637977
3450,0273;0,0635134
3450,9915;0,0632423
3451,9558;0,0629793
3452,9199;0,0627235
3453,8843;0,0624777
3454,8484;0,0622428
3455,8127;0,0620136
3456,7769;0,0617794
3457,7412;0,0615299
3458,7053;0,0612611
3459,6697;0,0609778
3460,6338;0,0606905
3461,5981;0,0604084
3462,5623;0,0601349
3463,5266;0,0598671
3464,4907;0,0595989
3465,4551;0,0593267
3466,4192;0,0590517
3467,3835;0,0587793
3468,3477;0,058515
3469,3120;0,0582599
3470,2761;0,0580085
3471,2405;0,0577507
3472,2046;0,0574788
3473,1689;0,0571934
3474,1331;0,0569052
3475,0974;0,0566292
3476,0615;0,0563747
3477,0259;0,0561381
3477,9900;0,0559052
3478,9543;0,0556607
3479,9185;0,0553987
3480,8828;0,0551266
3481,8469;0,0548593
3482,8113;0,0546057
3483,7754;0,0543606
3484,7397;0,0541084
3485,7039;0,0538347
3486,6682;0,0535382
3487,6323;0,0532336
3488,5967;0,0529438
3489,5608;0,0526854
3490,5251;0,0524593
3491,4893;0,0522501
3492,4536;0,0520367
3493,4177;0,051804
3494,3821;0,0515514
3495,3462;0,0512932
3496,3105;0,0510485
3497,2747;0,0508263
3498,2390;0,0506163
3499,2031;0,0503917
3500,1675;0,0501237
3501,1316;0,0498009
3502,0959;0,0494428
3503,0601;0,0490953
3504,0244;0,0488028
3504,9885;0,0485793
3505,9529;0,0484011
3506,9170;0,048225
3507,8813;0,0480141
3508,8455;0,0477565
3509,8098;0,0474696
3510,7739;0,0471854
3511,7383;0,0469273
3512,7024;0,0466979
3513,6667;0,0464835
3514,6309;0,0462693
3515,5952;0,0460509
3516,5593;0,0458353
3517,5237;0,0456324
3518,4878;0,0454446
3519,4521;0,0452625
3520,4163;0,0450704
3521,3806;0,0448551
3522,3447;0,0446138
3523,3091;0,0443524
3524,2732;0,0440787
3525,2375;0,0437952
3526,2017;0,0435003
3527,1660;0,0431976
3528,1301;0,0429022
3529,0945;0,0426362
3530,0586;0,0424141
3531,0229;0,0422297
3531,9871;0,0420573
3532,9514;0,0418649
3533,9155;0,0416316
3534,8799;0,0413601
3535,8440;0,0410767
3536,8083;0,0408176
3537,7725;0,0406095
3538,7368;0,0404555
3539,7009;0,0403359
3540,6653;0,0402178
3541,6294;0,0400656
3542,5938;0,0398505
3543,5579;0,0395605
3544,5222;0,0392127
3545,4863;0,0388529
3546,4507;0,0385318
3547,4148;0,0382723
3548,3792;0,0380569
3549,3433;0,0378435
3550,3076;0,0375942
3551,2717;0,0372991
3552,2361;0,0369851
3553,2002;0,0366994
3554,1646;0,0364769
3555,1287;0,0363165
3556,0930;0,0361866
3557,0571;0,0360505
3558,0215;0,035893
3558,9856;0,035731
3559,9500;0,0356011
3560,9141;0,0355291
3561,8784;0,0355014
3562,8425;0,0354569
3563,8069;0,0353022
3564,7710;0,0349477
3565,7354;0,0343743
3566,6995;0,0336986
3567,6638;0,033125
3568,6279;0,0327849
3569,5923;0,0326569
3570,5564;0,0326336
3571,5208;0,0326113
3572,4849;0,0325293
3573,4492;0,0323745
3574,4133;0,0321678
3575,3777;0,0319412
3576,3418;0,0317173
3577,3062;0,0315039
3578,2703;0,0313075
3579,2346;0,0311456
3580,1987;0,0310442
3581,1631;0,0310153
3582,1272;0,0310364
3583,0916;0,0310453
3584,0557;0,0309548
3585,0200;0,0306867
3585,9841;0,0302321
3586,9485;0,0297054
3587,9126;0,0292987
3588,8770;0,0291274
3589,8411;0,0291515
3590,8054;0,0292405
3591,7695;0,0292677
3592,7339;0,0291607
3593,6980;0,0289218
3594,6624;0,0286193
3595,6265;0,0283384
3596,5908;0,0281187
3597,5549;0,0279377
3598,5193;0,0277512
3599,4834;0,0275434
3600,4478;0,0273457
3601,4119;0,0272057
3602,3762;0,0271392
3603,3403;0,0271099
3604,3047;0,0270492
3605,2688;0,0268925
3606,2332;0,0266135
3607,1973;0,0262423
3608,1616;0,0258511
3609,1257;0,0255049
3610,0901;0,0252243
3611,0542;0,0249959
3612,0186;0,0248071
3612,9827;0,0246621
3613,9470;0,0245653
3614,9111;0,0244952
3615,8755;0,0243981
3616,8396;0,0242128
3617,8040;0,0239194
3618,7681;0,0235835
3619,7324;0,0233401
3620,6965;0,0232999
3621,6609;0,0234699
3622,6250;0,0237671
3623,5894;0,0240782
3624,5535;0,0242899
3625,5178;0,0242901
3626,4819;0,0239749
3627,4463;0,0233185
3628,4104;0,0224874
3629,3748;0,0217909
3630,3389;0,0214049
3631,3032;0,0212599
3632,2673;0,0211932
3633,2317;0,0210887
3634,1958;0,0209115
3635,1602;0,0206868
3636,1243;0,020461
3637,0886;0,0202646
3638,0527;0,0201006
3639,0171;0,0199613
3639,9812;0,0198532
3640,9456;0,0198047
3641,9097;0,0198491
3642,8740;0,019996
3643,8381;0,0202128
3644,8025;0,0204165
3645,7666;0,020466
3646,7310;0,0201679
3647,6951;0,0193848
3648,6594;0,0182947
3649,6235;0,0174052
3650,5879;0,017035
3651,5520;0,0170735
3652,5164;0,0172537
3653,4805;0,0173692
3654,4448;0,0173208
3655,4089;0,0171182
3656,3733;0,0168629
3657,3374;0,0166773
3658,3018;0,0166116
3659,2659;0,0166253
3660,2302;0,0166503
3661,1943;0,0166574
3662,1587;0,0166743
3663,1228;0,0167537
3664,0872;0,0169179
3665,0513;0,0171276
3666,0156;0,0172935
3666,9797;0,0173197
3667,9441;0,017168
3668,9082;0,01692
3669,8726;0,016748
3670,8367;0,0167579
3671,8010;0,0168804
3672,7651;0,0169293
3673,7295;0,0167258
3674,6936;0,0162244
3675,6580;0,015604
3676,6221;0,0151562
3677,5864;0,0150194
3678,5505;0,0151182
3679,5149;0,015317
3680,4790;0,0155345
3681,4434;0,0157577
3682,4075;0,0160056
3683,3718;0,0162874
3684,3359;0,0165765
3685,3003;0,0168085
3686,2644;0,0168981
3687,2288;0,0167738
3688,1929;0,0164441
3689,1572;0,0160522
3690,1213;0,0157964
3691,0857;0,0157624
3692,0498;0,0158965
3693,0142;0,016108
3693,9783;0,0163381
3694,9426;0,0165633
3695,9067;0,0167723
3696,8711;0,0169456
3697,8352;0,0170493
3698,7996;0,017048
3699,7637;0,0169313
3700,7280;0,0167401
3701,6921;0,0165661
3702,6565;0,0165037
3703,6206;0,0165913
3704,5850;0,0167986
3705,5491;0,0170545
3706,5134;0,0172743
3707,4775;0,0173631
3708,4419;0,0172164
3709,4060;0,0167601
3710,3704;0,0160527
3711,3345;0,0153371
3712,2988;0,0148819
3713,2629;0,0147764
3714,2273;0,0149393
3715,1914;0,0152416
3716,1558;0,0155801
3717,1199;0,0158939
3718,0842;0,0161598
3719,0483;0,0163826
3720,0127;0,0165788
3720,9768;0,0167558
3721,9412;0,0169011
3722,9053;0,0169936
3723,8696;0,0170302
3724,8337;0,0170438
3725,7981;0,0170891
3726,7622;0,0172057
3727,7266;0,0173946
3728,6907;0,0176229
3729,6550;0,017842
3730,6191;0,0179968
3731,5835;0,0180227
3732,5476;0,0178455
3733,5120;0,0174178
3734,4761;0,016805
3735,4404;0,016219
3736,4045;0,0158812
3737,3689;0,0158603
3738,3330;0,0160773
3739,2974;0,0163957
3740,2615;0,0166759
3741,2258;0,0167899
3742,1899;0,0166458
3743,1543;0,0162622
3744,1184;0,0158344
3745,0828;0,0156192
3746,0469;0,0156921
3747,0112;0,0158972
3747,9753;0,0159852
3748,9397;0,0157491
3749,9038;0,015162
3750,8682;0,0144864
3751,8323;0,0140955
3752,7966;0,0141142
3753,7607;0,0143886
3754,7251;0,0146981
3755,6892;0,0148825
3756,6536;0,0148699
3757,6177;0,0146899
3758,5820;0,014465
3759,5461;0,0143379
3760,5105;0,0143744
3761,4746;0,0145403
3762,4390;0,014755
3763,4031;0,0149452
3764,3674;0,0150676
3765,3315;0,0151064
3766,2959;0,0150611
3767,2600;0,0149362
3768,2244;0,014745
3769,1885;0,0145259
3770,1528;0,0143462
3771,1169;0,0142749
3772,0813;0,0143401
3773,0454;0,0145122
3774,0098;0,0147222
3774,9739;0,0148911
3775,9382;0,014957
3776,9023;0,0148995
3777,8667;0,0147574
3778,8308;0,0146153
3779,7952;0,0145467
3780,7593;0,0145627
3781,7236;0,0146182
3782,6877;0,0146564
3783,6521;0,014645
3784,6162;0,0145877
3785,5806;0,0145138
3786,5447;0,014459
3787,5090;0,0144494
3788,4731;0,0144963
3789,4375;0,0145979
3790,4016;0,0147408
3791,3660;0,0149014
3792,3301;0,0150538
3793,2944;0,015181
3794,2585;0,0152863
3795,2229;0,0153897
3796,1870;0,0155044
3797,1514;0,01561
3798,1155;0,0156477
3799,0798;0,0155545
3800,0439;0,0153244
3801,0083;0,0150478
3801,9724;0,0148536
3802,9368;0,0147898
3803,9009;0,0147848
3804,8652;0,0147235
3805,8293;0,0145474
3806,7937;0,0143168
3807,7578;0,0141818
3808,7222;0,0142619
3809,6863;0,0145535
3810,6506;0,0149554
3811,6147;0,015344
3812,5791;0,0156222
3813,5432;0,015747
3814,5076;0,0157489
3815,4717;0,0157146
3816,4360;0,015708
3817,4001;0,0157002
3818,3645;0,0155923
3819,3286;0,0153122
3820,2930;0,0149069
3821,2571;0,0145404
3822,2214;0,0143621
3823,1855;0,0143925
3824,1499;0,0145503
3825,1140;0,0147414
3826,0784;0,0149084
3827,0425;0,0150362
3828,0068;0,0151354
3828,9709;0,0152234
3829,9353;0,0153131
3830,8994;0,0154126
3831,8638;0,0155272
3832,8279;0,0156548
3833,7922;0,0157745
3834,7563;0,0158402
3835,7207;0,0157938
3836,6848;0,0156014
3837,6492;0,015296
3838,6133;0,0149753
3839,5776;0,0147336
3840,5417;0,0145968
3841,5061;0,0145319
3842,4702;0,0145038
3843,4346;0,0145158
3844,3987;0,0146084
3845,3630;0,0148277
3846,3271;0,0151906
3847,2915;0,0156723
3848,2556;0,0162081
3849,2200;0,0166931
3850,1841;0,0169672
3851,1484;0,0168192
3852,1125;0,0161192
3853,0769;0,015103
3854,0410;0,0143197
3855,0054;0,014062
3855,9695;0,0142142
3856,9338;0,0145605
3857,8979;0,0149502
3858,8623;0,0152937
3859,8264;0,0155314
3860,7908;0,0156272
3861,7549;0,0155889
3862,7192;0,0154865
3863,6833;0,0154245
3864,6477;0,0154685
3865,6118;0,0156017
3866,5762;0,0157478
3867,5403;0,0158194
3868,5046;0,0157566
3869,4688;0,0155526
3870,4331;0,0152635
3871,3972;0,0149861
3872,3616;0,014809
3873,3257;0,0147754
3874,2900;0,0148768
3875,2542;0,0150679
3876,2185;0,0152848
3877,1826;0,0154638
3878,1470;0,0155604
3879,1111;0,0155681
3880,0754;0,0155195
3881,0396;0,0154572
3882,0039;0,0153945
3882,9680;0,0153137
3883,9324;0,0152058
3884,8965;0,0151048
3885,8608;0,0150703
3886,8250;0,0151301
3887,7893;0,0152446
3888,7534;0,0153272
3889,7178;0,0153014
3890,6819;0,0151644
3891,6462;0,0150133
3892,6104;0,0149816
3893,5747;0,0151301
3894,5388;0,0154136
3895,5032;0,0157358
3896,4673;0,0160068
3897,4316;0,0161709
3898,3958;0,0162145
3899,3601;0,0161561
3900,3242;0,0160169
3901,2886;0,0157986
3902,2527;0,0155013
3903,2170;0,0151661
3904,1812;0,0148772
3905,1455;0,0147091
3906,1096;0,014677
3907,0740;0,0147433
3908,0381;0,0148542
3909,0024;0,0149716
3909,9666;0,0150838
3910,9309;0,0151993
3911,8950;0,0153284
3912,8594;0,0154644
3913,8235;0,0155776
3914,7878;0,0156275
3915,7520;0,0155899
3916,7163;0,0154834
3917,6804;0,0153672
3918,6448;0,0153017
3919,6089;0,0153058
3920,5732;0,01535
3921,5374;0,0153849
3922,5017;0,0153757
3923,4658;0,0153269
3924,4302;0,0152793
3925,3943;0,0152791
3926,3586;0,0153411
3927,3228;0,0154377
3928,2871;0,0155166
3929,2512;0,0155288
3930,2156;0,0154553
3931,1797;0,0153206
3932,1440;0,0151813
3933,1082;0,015092
3934,0725;0,0150765
3935,0366;0,0151277
3936,0010;0,0152214
3936,9651;0,0153292
3937,9294;0,0154229
3938,8936;0,0154787
3939,8579;0,0154843
3940,8220;0,0154482
3941,7864;0,015401
3942,7505;0,0153806
3943,7148;0,0154065
3944,6790;0,0154653
3945,6433;0,0155192
3946,6074;0,0155286
3947,5718;0,015477
3948,5359;0,0153823
3949,5002;0,0152875
3950,4644;0,0152333
3951,4287;0,0152334
3952,3928;0,0152727
3953,3572;0,0153235
3954,3213;0,0153634
3955,2856;0,0153844
3956,2498;0,0153901
3957,2141;0,0153876
3958,1782;0,0153803
3959,1426;0,0153668
3960,1067;0,0153464
3961,0710;0,015324
3962,0352;0,0153097
3962,9995;0,0153133
3963,9636;0,0153372
3964,9280;0,015374
3965,8921;0,0154105
3966,8564;0,0154345
3967,8206;0,0154404
3968,7849;0,0154315
3969,7490;0,0154165
3970,7134;0,0154042
3971,6775;0,0153985
3972,6418;0,0153979
3973,6060;0,0153987
3974,5703;0,0153987
3975,5344;0,0153996
3976,4988;0,015405
3977,4629;0,0154174
3978,4272;0,0154354
3979,3914;0,0154541
3980,3557;0,0154677
3981,3198;0,0154729
3982,2842;0,0154707
3983,2483;0,0154651
3984,2126;0,0154603
3985,1768;0,0154582
3986,1411;0,0154583
3987,1052;0,0154595
3988,0696;0,015462
3989,0337;0,0154671
3989,9980;0,0154753
3990,9622;0,015484
3991,9265;0,0154878
3992,8906;0,0154816
3993,8550;0,0154651
3994,8191;0,015444
3995,7834;0,0154274
3996,7476;0,0154221
3997,7119;0,0154293
3998,6760;0,0154444
3999,6404;0,0154614
4000,6045;0,0154379

##### Extended Information
[Comments]
Sample name
Comment
Username
Division
Organization;UNIVERSIDAD INDUSTRIAL DE SANTANDER

[Detailed Information]
Creation date;26/03/2025 8:13 p.m.

Data array type;Linear data array
Horizontal axis;Wavenumber [cm-1]
Vertical axis;Abs
Start;399,193 cm-1
End;4000,6 cm-1
Data interval;0,964233 cm-1
Data points;3736    

[Measurement Information]
Model name;FT/IR-4X1typeA
Serial No.;A035162111

Accessory;ATR PRO 4X
Accessory S/N;A021162126
Incident angle;45 deg

Measurement date;26/03/2025 8:12 p.m.

Light source;Standard
Detector;TGS
Accumulation;40
Resolution;4 cm-1
Zero filling;On
Apodization;Cosine
Gain;Auto (8)
Aperture;Auto (7 mm)
Scan speed;Auto (2 mm/sec)
Filter;Auto (12800 Hz)

