TITLE;
DATA TYPE;INFRARED SPECTRUM
ORIGIN;JASCO
OWNER;
DATE;25/03/26
TIME;19:12:12
SPECTROMETER/DATA SYSTEM;
LOCALE;9226
RESOLUTION;
DELTAX;0,964233
XUNITS;1/CM
YUNITS;ABSORBANCE
FIRSTX;  399,1927
LASTX; 4000,6047
NPOINTS;    3736
FIRSTY;     0,22539
MAXY;     0,26827
MINY;    -0,00085
XYDATA
399,1927;0,225387
400,1569;0,223618
401,1211;0,222545
402,0854;0,222092
403,0496;0,222065
404,0138;0,222288
404,9781;0,222615
405,9423;0,22291
406,9065;0,223057
407,8708;0,222996
408,8350;0,222753
409,7992;0,222439
410,7635;0,222195
411,7277;0,222114
412,6919;0,222182
413,6562;0,222289
414,6204;0,222306
415,5846;0,222172
416,5489;0,221984
417,5131;0,222058
418,4773;0,222815
419,4416;0,224323
420,4058;0,226031
421,3700;0,227258
422,3343;0,227697
423,2985;0,227409
424,2627;0,226667
425,2270;0,22586
426,1912;0,225365
427,1554;0,225392
428,1197;0,225911
429,0839;0,226698
430,0481;0,227463
431,0124;0,227973
431,9766;0,228117
432,9408;0,227923
433,9051;0,227504
434,8693;0,227001
435,8335;0,226531
436,7978;0,226157
437,7620;0,225891
438,7262;0,225699
439,6905;0,225517
440,6547;0,225273
441,6189;0,224923
442,5832;0,224485
443,5474;0,22406
444,5116;0,223776
445,4759;0,223704
446,4401;0,223796
447,4043;0,223904
448,3686;0,223861
449,3328;0,223569
450,2970;0,223051
451,2613;0,22244
452,2255;0,221887
453,1897;0,221468
454,1540;0,221147
455,1182;0,220825
456,0824;0,220425
457,0467;0,219967
458,0109;0,21957
458,9751;0,219345
459,9394;0,21929
460,9036;0,219301
461,8678;0,219273
462,8321;0,219179
463,7963;0,219075
464,7605;0,219061
465,7248;0,219203
466,6890;0,219484
467,6532;0,219812
468,6175;0,220074
469,5817;0,220204
470,5459;0,220205
471,5102;0,220141
472,4744;0,220083
473,4386;0,220065
474,4029;0,220082
475,3671;0,220123
476,3313;0,220216
477,2956;0,220417
478,2598;0,220766
479,2240;0,221229
480,1883;0,221677
481,1525;0,221927
482,1167;0,221833
483,0810;0,221377
484,0452;0,220708
485,0094;0,220068
485,9737;0,21966
486,9379;0,219545
487,9021;0,219656
488,8664;0,21988
489,8306;0,220148
490,7948;0,220453
491,7591;0,22082
492,7233;0,221242
493,6875;0,221641
494,6518;0,221903
495,6160;0,221939
496,5802;0,22174
497,5445;0,221377
498,5087;0,220966
499,4729;0,220621
500,4372;0,220419
501,4014;0,220392
502,3656;0,22054
503,3299;0,220847
504,2941;0,221289
505,2583;0,221835
506,2226;0,222434
507,1868;0,223018
508,1510;0,22352
509,1153;0,223899
510,0795;0,224163
511,0437;0,224355
512,0080;0,224529
512,9722;0,224734
513,9365;0,225003
514,9007;0,225356
515,8649;0,225799
516,8292;0,226306
517,7934;0,226799
518,7576;0,227169
519,7219;0,227323
520,6861;0,227238
521,6503;0,226963
522,6146;0,226584
523,5788;0,226186
524,5430;0,225828
525,5073;0,225532
526,4715;0,22529
527,4357;0,225078
528,4000;0,224871
529,3642;0,224642
530,3284;0,224352
531,2927;0,223959
532,2569;0,223436
533,2211;0,222803
534,1854;0,222132
535,1496;0,221518
536,1138;0,22103
537,0781;0,220677
538,0423;0,220413
539,0065;0,220181
539,9708;0,219962
540,9350;0,219785
541,8992;0,219698
542,8635;0,219728
543,8277;0,219852
544,7919;0,220011
545,7562;0,220148
546,7204;0,220246
547,6846;0,220334
548,6489;0,22046
549,6131;0,220658
550,5773;0,220941
551,5416;0,221305
552,5058;0,22174
553,4700;0,222228
554,4343;0,222722
555,3985;0,223143
556,3627;0,223388
557,3270;0,223368
558,2912;0,223032
559,2554;0,222375
560,2197;0,221428
561,1839;0,220254
562,1481;0,218942
563,1124;0,217609
564,0766;0,216382
565,0408;0,215365
566,0051;0,214606
566,9693;0,214077
567,9335;0,213695
568,8978;0,213363
569,8620;0,213013
570,8262;0,212623
571,7905;0,212208
572,7547;0,211791
573,7189;0,21139
574,6832;0,211015
575,6474;0,210668
576,6116;0,210345
577,5759;0,210028
578,5401;0,209688
579,5043;0,209291
580,4686;0,208811
581,4328;0,208246
582,3970;0,207621
583,3613;0,206988
584,3255;0,206402
585,2897;0,205912
586,2540;0,205546
587,2182;0,205303
588,1824;0,205161
589,1467;0,205084
590,1109;0,205034
591,0751;0,204979
592,0394;0,204901
593,0036;0,204789
593,9678;0,20463
594,9321;0,204409
595,8963;0,204108
596,8605;0,203721
597,8248;0,203263
598,7890;0,20277
599,7532;0,202277
600,7175;0,20181
601,6817;0,201365
602,6459;0,20092
603,6102;0,200453
604,5744;0,199952
605,5386;0,199416
606,5029;0,198842
607,4671;0,19822
608,4313;0,19753
609,3956;0,19676
610,3598;0,195924
611,3240;0,19507
612,2883;0,194262
613,2525;0,193548
614,2167;0,192931
615,1810;0,192351
616,1452;0,191703
617,1094;0,190882
618,0737;0,189835
619,0379;0,188589
620,0021;0,18723
620,9664;0,185851
621,9306;0,184517
622,8948;0,183255
623,8591;0,182074
624,8233;0,180976
625,7875;0,179989
626,7518;0,17913
627,7160;0,178401
628,6802;0,177777
629,6445;0,177209
630,6087;0,17664
631,5729;0,176022
632,5372;0,175332
633,5014;0,174576
634,4656;0,173793
635,4299;0,173034
636,3941;0,17235
637,3583;0,171772
638,3226;0,171305
639,2868;0,170923
640,2510;0,170586
641,2153;0,170256
642,1795;0,169912
643,1437;0,16956
644,1080;0,169224
645,0722;0,168926
646,0364;0,168662
647,0007;0,168402
647,9649;0,168102
648,9291;0,167736
649,8934;0,167328
650,8576;0,166943
651,8218;0,166654
652,7861;0,166509
653,7503;0,166506
654,7145;0,16661
655,6788;0,166773
656,6430;0,166953
657,6072;0,16712
658,5715;0,167231
659,5357;0,167232
660,4999;0,16708
661,4642;0,166786
662,4284;0,166425
663,3926;0,166097
664,3569;0,16588
665,3211;0,165802
666,2853;0,165801
667,2496;0,165612
668,2138;0,164788
669,1780;0,1632
670,1423;0,161319
671,1065;0,159575
672,0707;0,157997
673,0350;0,156441
673,9992;0,154804
674,9634;0,153087
675,9277;0,15137
676,8919;0,149748
677,8561;0,14827
678,8204;0,146936
679,7846;0,145738
680,7488;0,144683
681,7131;0,143777
682,6773;0,142998
683,6415;0,142291
684,6058;0,141599
685,5700;0,140896
686,5342;0,140192
687,4985;0,139517
688,4627;0,138896
689,4269;0,138336
690,3912;0,137835
691,3554;0,137393
692,3196;0,137009
693,2839;0,136675
694,2481;0,136367
695,2123;0,13605
696,1766;0,135695
697,1408;0,135294
698,1050;0,134858
699,0693;0,134411
700,0335;0,133972
700,9977;0,133541
701,9620;0,133099
702,9262;0,132619
703,8904;0,132078
704,8547;0,131477
705,8189;0,130835
706,7831;0,130184
707,7474;0,129552
708,7116;0,128945
709,6758;0,128346
710,6401;0,12772
711,6043;0,127037
712,5685;0,12629
713,5328;0,1255
714,4970;0,124713
715,4612;0,123853
716,4255;0,123186
717,3897;0,122546
718,3539;0,121853
719,3182;0,121028
720,2824;0,120029
721,2466;0,11889
722,2109;0,117697
723,1751;0,116546
724,1393;0,115497
725,1036;0,114561
726,0678;0,113711
727,0320;0,112908
727,9963;0,112127
728,9605;0,11136
729,9247;0,110613
730,8890;0,109894
731,8532;0,109202
732,8174;0,10853
733,7817;0,107871
734,7459;0,10723
735,7101;0,106621
736,6744;0,10607
737,6386;0,105589
738,6028;0,105177
739,5671;0,104806
740,5313;0,104439
741,4955;0,104043
742,4598;0,103605
743,4240;0,10314
744,3882;0,102677
745,3525;0,102242
746,3167;0,101843
747,2809;0,101469
748,2452;0,101095
749,2094;0,100703
750,1736;0,100285
751,1379;0,0998522
752,1021;0,0994204
753,0663;0,0990049
754,0306;0,098611
754,9948;0,0982327
755,9590;0,0978559
756,9233;0,0974655
757,8875;0,0970521
758,8517;0,0966172
759,8160;0,0961743
760,7802;0,0957422
761,7444;0,0953357
762,7087;0,0949553
763,6729;0,0945843
764,6371;0,0941952
765,6014;0,0937633
766,5656;0,0932789
767,5298;0,0927521
768,4941;0,0922068
769,4583;0,0916685
770,4225;0,0911542
771,3868;0,0906683
772,3510;0,0902059
773,3152;0,0897581
774,2795;0,0893165
775,2437;0,0888758
776,2079;0,0884337
777,1722;0,08799
778,1364;0,087546
779,1006;0,0871022
780,0649;0,0866574
781,0291;0,0862088
781,9933;0,0857536
782,9576;0,0852917
783,9218;0,0848267
784,8860;0,084364
785,8503;0,0839088
786,8145;0,0834647
787,7787;0,0830354
788,7430;0,0826269
789,7072;0,0822491
790,6714;0,0819127
791,6357;0,0816248
792,5999;0,0813835
793,5641;0,0811763
794,5284;0,0809827
795,4926;0,0807813
796,4568;0,0805567
797,4211;0,080305
798,3853;0,080033
799,3495;0,0797529
800,3138;0,0794749
801,2780;0,0792026
802,2422;0,0789339
803,2065;0,078667
804,1707;0,078405
805,1349;0,0781563
806,0992;0,0779285
807,0634;0,0777227
808,0276;0,0775318
808,9919;0,0773459
809,9561;0,0771604
810,9203;0,0769799
811,8846;0,0768134
812,8488;0,0766653
813,8130;0,0765293
814,7773;0,0763907
815,7415;0,0762378
816,7057;0,0760727
817,6700;0,075914
818,6342;0,0757879
819,5984;0,0757124
820,5627;0,0756872
821,5269;0,0756937
822,4911;0,0757064
823,4554;0,0757078
824,4196;0,0756958
825,3839;0,0756812
826,3481;0,0756772
827,3123;0,0756876
828,2766;0,0757032
829,2408;0,0757046
830,2050;0,0756711
831,1693;0,0755893
832,1335;0,0754573
833,0977;0,0752848
834,0620;0,0750892
835,0262;0,0748901
835,9904;0,0747038
836,9547;0,0745384
837,9189;0,0743922
838,8831;0,0742555
839,8474;0,0741162
840,8116;0,0739662
841,7758;0,0738055
842,7401;0,0736412
843,7043;0,0734823
844,6685;0,0733338
845,6328;0,0731941
846,5970;0,0730576
847,5612;0,0729204
848,5255;0,0727864
849,4897;0,0726676
850,4539;0,0725791
851,4182;0,0725318
852,3824;0,0725251
853,3466;0,0725463
854,3109;0,0725759
855,2751;0,0725952
856,2393;0,0725934
857,2036;0,0725687
858,1678;0,0725251
859,1320;0,0724683
860,0963;0,0724029
861,0605;0,0723341
862,0247;0,07227
862,9890;0,0722223
863,9532;0,0722027
864,9174;0,0722166
865,8817;0,072259
866,8459;0,072316
867,8101;0,0723714
868,7744;0,0724152
869,7386;0,0724485
870,7028;0,0724822
871,6671;0,0725293
872,6313;0,072598
873,5955;0,0726867
874,5598;0,0727859
875,5240;0,0728846
876,4882;0,0729778
877,4525;0,0730719
878,4167;0,0731856
879,3809;0,0733464
880,3452;0,0735831
881,3094;0,0739182
882,2736;0,0743628
883,2379;0,0749154
884,2021;0,0755667
885,1663;0,0763057
886,1306;0,0771245
887,0948;0,0780195
888,0590;0,0789884
889,0233;0,0800244
889,9875;0,0811115
890,9517;0,0822217
891,9160;0,0833164
892,8802;0,0843486
893,8444;0,0852685
894,8087;0,0860308
895,7729;0,0866022
896,7371;0,086969
897,7014;0,0871396
898,6656;0,0871398
899,6298;0,0870029
900,5941;0,0867583
901,5583;0,0864255
902,5225;0,0860158
903,4868;0,0855419
904,4510;0,0850275
905,4152;0,0845112
906,3795;0,0840412
907,3437;0,083663
908,3079;0,0834055
909,2722;0,0832745
910,2364;0,0832549
911,2007;0,0833223
912,1649;0,0834569
913,1292;0,083654
914,0934;0,0839249
915,0576;0,0842884
916,0219;0,0847561
916,9861;0,0853205
917,9503;0,0859512
918,9146;0,0866039
919,8788;0,0872365
920,8430;0,0878235
921,8073;0,0883614
922,7715;0,0888613
923,7357;0,0893349
924,7000;0,0897819
925,6642;0,0901884
926,6284;0,090535
927,5927;0,0908092
928,5569;0,0910132
929,5211;0,0911637
930,4854;0,0912848
931,4496;0,0913995
932,4138;0,0915257
933,3781;0,0916758
934,3423;0,0918586
935,3065;0,092081
936,2708;0,0923479
937,2350;0,0926622
938,1992;0,0930258
939,1635;0,0934403
940,1277;0,0939076
941,0919;0,0944302
942,0562;0,0950123
943,0204;0,0956617
943,9846;0,0963913
944,9489;0,0972182
945,9131;0,0981582
946,8773;0,0992191
947,8416;0,100397
948,8058;0,101681
949,7700;0,103058
950,7343;0,104525
951,6985;0,106088
952,6627;0,107754
953,6270;0,109527
954,5912;0,111405
955,5554;0,113376
956,5197;0,115432
957,4839;0,117567
958,4481;0,119778
959,4124;0,122055
960,3766;0,124386
961,3408;0,126752
962,3051;0,129141
963,2693;0,131548
964,2335;0,133975
965,1978;0,136433
966,1620;0,138931
967,1262;0,141483
968,0905;0,144107
969,0547;0,146831
970,0189;0,149689
970,9832;0,152716
971,9474;0,155943
972,9116;0,15939
973,8759;0,163072
974,8401;0,166994
975,8043;0,171158
976,7686;0,175552
977,7328;0,180148
978,6970;0,184894
979,6613;0,189709
980,6255;0,194484
981,5897;0,1991
982,5540;0,203438
983,5182;0,207407
984,4824;0,210958
985,4467;0,214091
986,4109;0,216842
987,3751;0,219266
988,3394;0,221417
989,3036;0,223333
990,2678;0,22503
991,2321;0,226511
992,1963;0,227779
993,1605;0,228843
994,1248;0,229726
995,0890;0,230455
996,0532;0,23106
997,0175;0,231564
997,9817;0,231983
998,9459;0,232333
999,9102;0,232639
1000,8744;0,232945
1001,8386;0,233312
1002,8029;0,23381
1003,7671;0,234505
1004,7313;0,235441
1005,6956;0,236635
1006,6598;0,238079
1007,6240;0,239752
1008,5883;0,241629
1009,5525;0,243684
1010,5167;0,24589
1011,4810;0,248209
1012,4452;0,250591
1013,4094;0,25297
1014,3737;0,255271
1015,3379;0,257428
1016,3021;0,259386
1017,2664;0,261115
1018,2306;0,262607
1019,1948;0,263869
1020,1591;0,264922
1021,1233;0,26579
1022,0875;0,266502
1023,0518;0,267081
1024,0160;0,267547
1024,9802;0,267905
1025,9445;0,268151
1026,9087;0,26827
1027,8729;0,268248
1028,8372;0,268067
1029,8014;0,267707
1030,7656;0,267134
1031,7299;0,266297
1032,6941;0,265143
1033,6583;0,263635
1034,6226;0,261783
1035,5868;0,259658
1036,5510;0,257383
1037,5153;0,255117
1038,4795;0,253011
1039,4437;0,251178
1040,4080;0,249677
1041,3722;0,248506
1042,3364;0,247612
1043,3007;0,246907
1044,2649;0,246293
1045,2291;0,245679
1046,1934;0,244997
1047,1576;0,244207
1048,1218;0,243288
1049,0861;0,242226
1050,0503;0,241006
1051,0145;0,239604
1051,9788;0,237998
1052,9430;0,236175
1053,9072;0,234134
1054,8715;0,231883
1055,8357;0,229422
1056,7999;0,226738
1057,7642;0,223808
1058,7284;0,220608
1059,6926;0,217138
1060,6569;0,213449
1061,6211;0,209641
1062,5853;0,205854
1063,5496;0,202231
1064,5138;0,198885
1065,4780;0,195872
1066,4423;0,193189
1067,4065;0,190793
1068,3707;0,188627
1069,3350;0,186635
1070,2992;0,184775
1071,2634;0,183
1072,2277;0,181257
1073,1919;0,179477
1074,1561;0,177596
1075,1204;0,175564
1076,0846;0,173363
1077,0488;0,171012
1078,0131;0,168557
1078,9773;0,166065
1079,9415;0,163604
1080,9058;0,16124
1081,8700;0,159024
1082,8342;0,156987
1083,7985;0,155141
1084,7627;0,153485
1085,7269;0,152009
1086,6912;0,150703
1087,6554;0,149559
1088,6196;0,148572
1089,5839;0,147734
1090,5481;0,147041
1091,5123;0,146488
1092,4766;0,146076
1093,4408;0,145807
1094,4050;0,14568
1095,3693;0,145681
1096,3335;0,145787
1097,2977;0,145961
1098,2620;0,146164
1099,2262;0,14636
1100,1904;0,146518
1101,1547;0,146609
1102,1189;0,146611
1103,0831;0,146507
1104,0474;0,146286
1105,0116;0,145948
1105,9758;0,145504
1106,9401;0,144967
1107,9043;0,144349
1108,8685;0,143642
1109,8328;0,142823
1110,7970;0,141853
1111,7612;0,140694
1112,7255;0,13933
1113,6897;0,137781
1114,6539;0,136113
1115,6182;0,134418
1116,5824;0,132794
1117,5466;0,131311
1118,5109;0,129989
1119,4751;0,128796
1120,4393;0,127658
1121,4036;0,126481
1122,3678;0,12518
1123,3320;0,123689
1124,2963;0,121979
1125,2605;0,120054
1126,2247;0,117947
1127,1890;0,115711
1128,1532;0,113403
1129,1174;0,11108
1130,0817;0,108784
1131,0459;0,106546
1132,0101;0,104389
1132,9744;0,102337
1133,9386;0,100422
1134,9028;0,0986876
1135,8671;0,0971826
1136,8313;0,0959531
1137,7955;0,0950298
1138,7598;0,0944198
1139,7240;0,0941045
1140,6882;0,0940448
1141,6525;0,0941901
1142,6167;0,094489
1143,5809;0,0948981
1144,5452;0,0953861
1145,5094;0,0959338
1146,4736;0,0965313
1147,4379;0,0971725
1148,4021;0,0978511
1149,3663;0,098556
1150,3306;0,0992687
1151,2948;0,0999606
1152,2590;0,100593
1153,2233;0,101119
1154,1875;0,101486
1155,1517;0,101639
1156,1160;0,101527
1157,0802;0,101106
1158,0444;0,100338
1159,0087;0,0991936
1159,9729;0,0976477
1160,9371;0,0956848
1161,9014;0,0933038
1162,8656;0,090526
1163,8298;0,0874019
1164,7941;0,0840131
1165,7583;0,0804676
1166,7225;0,0768878
1167,6868;0,0733941
1168,6510;0,0700882
1169,6152;0,0670403
1170,5795;0,0642854
1171,5437;0,0618278
1172,5079;0,0596533
1173,4722;0,0577403
1174,4364;0,0560682
1175,4006;0,0546174
1176,3649;0,0533678
1177,3291;0,0522962
1178,2933;0,0513789
1179,2576;0,0505953
1180,2218;0,0499317
1181,1860;0,0493797
1182,1503;0,0489331
1183,1145;0,0485834
1184,0787;0,0483207
1185,0430;0,0481372
1186,0072;0,0480329
1186,9714;0,0480171
1187,9357;0,0481045
1188,8999;0,0483085
1189,8641;0,0486337
1190,8284;0,0490739
1191,7926;0,0496148
1192,7568;0,0502393
1193,7211;0,0509331
1194,6853;0,051686
1195,6495;0,0524898
1196,6138;0,0533347
1197,5780;0,0542059
1198,5422;0,0550843
1199,5065;0,0558782
1200,4707;0,056723
1201,4349;0,0575299
1202,3992;0,0582959
1203,3634;0,0590218
1204,3276;0,0597078
1205,2919;0,0603533
1206,2561;0,0609596
1207,2203;0,0615348
1208,1846;0,0620974
1209,1488;0,0626759
1210,1130;0,0633032
1211,0773;0,0640085
1212,0415;0,06481
1213,0057;0,0657114
1213,9700;0,0667034
1214,9342;0,0677673
1215,8984;0,0688808
1216,8627;0,0700212
1217,8269;0,071168
1218,7911;0,072305
1219,7554;0,0734206
1220,7196;0,0745066
1221,6838;0,0755571
1222,6481;0,076566
1223,6123;0,0775267
1224,5765;0,0784334
1225,5408;0,0792827
1226,5050;0,0800757
1227,4692;0,0808169
1228,4335;0,0815125
1229,3977;0,0821667
1230,3619;0,0827783
1231,3262;0,0833397
1232,2904;0,0838383
1233,2546;0,0842604
1234,2189;0,084597
1235,1831;0,0848484
1236,1473;0,0850251
1237,1116;0,0851432
1238,0758;0,0852182
1239,0400;0,0852577
1240,0043;0,0852606
1240,9685;0,0852196
1241,9327;0,0851275
1242,8970;0,0849818
1243,8612;0,0847843
1244,8254;0,0845378
1245,7897;0,0842431
1246,7539;0,0838985
1247,7181;0,0835031
1248,6824;0,0830615
1249,6466;0,0825845
1250,6108;0,0820879
1251,5751;0,0815883
1252,5393;0,0810986
1253,5035;0,0806255
1254,4678;0,0801683
1255,4320;0,0797195
1256,3962;0,0792669
1257,3605;0,0787968
1258,3247;0,0782987
1259,2889;0,0777675
1260,2532;0,0772028
1261,2174;0,0766059
1262,1816;0,075976
1263,1459;0,0753093
1264,1101;0,0746013
1265,0743;0,0738506
1266,0386;0,0730595
1267,0028;0,072233
1267,9670;0,0713757
1268,9313;0,0704905
1269,8955;0,069581
1270,8597;0,0686535
1271,8240;0,0677187
1272,7882;0,0667892
1273,7524;0,0658769
1274,7167;0,0649902
1275,6809;0,0641342
1276,6451;0,0633106
1277,6094;0,0625174
1278,5736;0,0617491
1279,5378;0,0609977
1280,5021;0,0602564
1281,4663;0,0595244
1282,4305;0,0588082
1283,3948;0,0581199
1284,3590;0,0574729
1285,3232;0,0568788
1286,2875;0,0563473
1287,2517;0,0558874
1288,2159;0,0555077
1289,1802;0,0552142
1290,1444;0,0550072
1291,1086;0,0548803
1292,0729;0,0548229
1293,0371;0,0548255
1294,0013;0,0548839
1294,9656;0,0550007
1295,9298;0,0551826
1296,8940;0,0554366
1297,8583;0,0557662
1298,8225;0,0561696
1299,7867;0,0566395
1300,7510;0,0571648
1301,7152;0,057735
1302,6794;0,0583429
1303,6437;0,0589874
1304,6079;0,0596728
1305,5721;0,0604036
1306,5364;0,0611779
1307,5006;0,0619854
1308,4648;0,0628104
1309,4291;0,0636386
1310,3933;0,0644604
1311,3575;0,0652691
1312,3218;0,0660544
1313,2860;0,0667962
1314,2502;0,0674642
1315,2145;0,0680228
1316,1787;0,0684387
1317,1429;0,0686906
1318,1072;0,0687772
1319,0714;0,0687231
1320,0356;0,0685737
1320,9999;0,0683804
1321,9641;0,0681827
1322,9283;0,0680003
1323,8926;0,0678359
1324,8568;0,067685
1325,8210;0,0675436
1326,7853;0,0674121
1327,7495;0,0672913
1328,7137;0,0671784
1329,6780;0,0670624
1330,6422;0,0669263
1331,6064;0,0667531
1332,5707;0,0665312
1333,5349;0,0662557
1334,4991;0,0659225
1335,4634;0,0655202
1336,4276;0,0650287
1337,3918;0,0644296
1338,3561;0,0637291
1339,3203;0,0629788
1340,2845;0,0622634
1341,2488;0,0616545
1342,2130;0,0611745
1343,1772;0,0608028
1344,1415;0,0605056
1345,1057;0,0602616
1346,0699;0,0600698
1347,0342;0,0599455
1347,9984;0,0599088
1348,9626;0,0599741
1349,9269;0,060143
1350,8911;0,0604043
1351,8553;0,0607394
1352,8196;0,0611307
1353,7838;0,061569
1354,7480;0,0620547
1355,7123;0,0625911
1356,6765;0,0631743
1357,6407;0,0637889
1358,6050;0,064412
1359,5692;0,0650216
1360,5334;0,0656011
1361,4977;0,0661418
1362,4619;0,0666468
1363,4261;0,0671316
1364,3904;0,0676114
1365,3546;0,0680849
1366,3188;0,068533
1367,2831;0,0689294
1368,2473;0,0692501
1369,2115;0,0694768
1370,1758;0,069593
1371,1400;0,069577
1372,1042;0,0694004
1373,0685;0,0690409
1374,0327;0,0685088
1374,9969;0,0678588
1375,9612;0,0671583
1376,9254;0,0664332
1377,8896;0,0656532
1378,8539;0,0647707
1379,8181;0,063774
1380,7823;0,06271
1381,7466;0,0616552
1382,7108;0,0606575
1383,6750;0,0597012
1384,6393;0,0587244
1385,6035;0,0576781
1386,5677;0,0565928
1387,5320;0,0555942
1388,4962;0,0548194
1389,4604;0,0543086
1390,4247;0,0539941
1391,3889;0,053773
1392,3531;0,0535718
1393,3174;0,0533676
1394,2816;0,053175
1395,2458;0,0530213
1396,2101;0,0529239
1397,1743;0,0528884
1398,1385;0,0529199
1399,1028;0,0530278
1400,0670;0,0532159
1401,0313;0,0534712
1401,9955;0,0537662
1402,9597;0,0540737
1403,9240;0,0543829
1404,8882;0,0547047
1405,8524;0,055062
1406,8167;0,0554713
1407,7809;0,0559306
1408,7451;0,0564288
1409,7094;0,056963
1410,6736;0,0575445
1411,6378;0,0581858
1412,6021;0,0588785
1413,5663;0,0595863
1414,5305;0,0602583
1415,4948;0,0608493
1416,4590;0,0613314
1417,4232;0,0616975
1418,3875;0,0619694
1419,3517;0,0622012
1420,3159;0,0624358
1421,2802;0,0626517
1422,2444;0,062776
1423,2086;0,0627451
1424,1729;0,0625452
1425,1371;0,0622051
1426,1013;0,061755
1427,0656;0,0611899
1428,0298;0,0604774
1428,9940;0,0596107
1429,9583;0,0586587
1430,9225;0,0577416
1431,8867;0,0569356
1432,8510;0,0562078
1433,8152;0,0554397
1434,7794;0,0545113
1435,7437;0,0534121
1436,7079;0,0523197
1437,6721;0,0515023
1438,6364;0,0510834
1439,6006;0,050975
1440,5648;0,0510177
1441,5291;0,0511061
1442,4933;0,0512131
1443,4575;0,0513567
1444,4218;0,0515561
1445,3860;0,0518071
1446,3502;0,0520865
1447,3145;0,0523771
1448,2787;0,0526859
1449,2429;0,0530359
1450,2072;0,0534336
1451,1714;0,0538489
1452,1356;0,0542241
1453,0999;0,0544976
1454,0641;0,0546138
1455,0283;0,0545046
1455,9926;0,0540806
1456,9568;0,0533638
1457,9210;0,052681
1458,8853;0,0523741
1459,8495;0,0524112
1460,8137;0,0525418
1461,7780;0,0525296
1462,7422;0,0522065
1463,7064;0,0514823
1464,6707;0,0504081
1465,6349;0,049207
1466,5991;0,0481198
1467,5634;0,0472088
1468,5276;0,0463554
1469,4918;0,0453697
1470,4561;0,0440607
1471,4203;0,0422876
1472,3845;0,040082
1473,3488;0,0377735
1474,3130;0,0358047
1475,2772;0,0343569
1476,2415;0,0333209
1477,2057;0,0325195
1478,1699;0,0318344
1479,1342;0,0312125
1480,0984;0,0306413
1481,0626;0,030133
1482,0269;0,0297154
1482,9911;0,0294159
1483,9553;0,0292428
1484,9196;0,029176
1485,8838;0,029176
1486,8480;0,0291971
1487,8123;0,0292019
1488,7765;0,0291906
1489,7407;0,0292312
1490,7050;0,0294148
1491,6692;0,0297631
1492,6334;0,0302263
1493,5977;0,0307499
1494,5619;0,0313165
1495,5261;0,031944
1496,4904;0,0326558
1497,4546;0,0334527
1498,4188;0,0343151
1499,3831;0,0352131
1500,3473;0,0360964
1501,3115;0,0368965
1502,2758;0,0375515
1503,2400;0,0380289
1504,2042;0,0383281
1505,1685;0,0384403
1506,1327;0,0382741
1507,0969;0,0377457
1508,0612;0,0370928
1509,0254;0,0366431
1509,9896;0,0364019
1510,9539;0,0362101
1511,9181;0,035947
1512,8823;0,0355597
1513,8466;0,0350371
1514,8108;0,0343925
1515,7750;0,0336596
1516,7393;0,0328851
1517,7035;0,0321034
1518,6677;0,0313143
1519,6320;0,0304959
1520,5962;0,0296516
1521,5604;0,0288439
1522,5247;0,0281591
1523,4889;0,0276301
1524,4531;0,0272235
1525,4174;0,0268984
1526,3816;0,0266555
1527,3458;0,0265238
1528,3101;0,0265126
1529,2743;0,0265866
1530,2385;0,0266879
1531,2028;0,0267726
1532,1670;0,0268385
1533,1312;0,0269291
1534,0955;0,0270996
1535,0597;0,0273605
1536,0239;0,027664
1536,9882;0,0279489
1537,9524;0,0281799
1538,9166;0,0283284
1539,8809;0,0283044
1540,8451;0,0280249
1541,8093;0,0276607
1542,7736;0,0274714
1543,7378;0,0274884
1544,7020;0,0276192
1545,6663;0,0277973
1546,6305;0,0279965
1547,5947;0,0282
1548,5590;0,0283863
1549,5232;0,0285409
1550,4874;0,0286749
1551,4517;0,0288263
1552,4159;0,0290324
1553,3801;0,029292
1554,3444;0,0295541
1555,3086;0,0297339
1556,2728;0,0297199
1557,2371;0,0293676
1558,2013;0,0286386
1559,1655;0,0279555
1560,1298;0,0278814
1561,0940;0,0283982
1562,0582;0,0291628
1563,0225;0,0299208
1563,9867;0,0305604
1564,9509;0,0310515
1565,9152;0,0314026
1566,8794;0,031645
1567,8436;0,0318377
1568,8079;0,0320661
1569,7721;0,032407
1570,7363;0,0328741
1571,7006;0,033411
1572,6648;0,0339446
1573,6290;0,0344368
1574,5933;0,0348996
1575,5575;0,0353766
1576,5217;0,0359155
1577,4860;0,0365498
1578,4502;0,0372813
1579,4144;0,0380771
1580,3787;0,0389005
1581,3429;0,0397341
1582,3071;0,0405785
1583,2714;0,0414388
1584,2356;0,0423183
1585,1998;0,0432184
1586,1641;0,0441371
1587,1283;0,0450619
1588,0925;0,0459663
1589,0568;0,0468137
1590,0210;0,047567
1590,9852;0,0481962
1591,9495;0,0486777
1592,9137;0,0489932
1593,8779;0,0491359
1594,8422;0,0491213
1595,8064;0,04899
1596,7706;0,0487934
1597,7349;0,0485726
1598,6991;0,0483481
1599,6633;0,0481242
1600,6276;0,0479011
1601,5918;0,047686
1602,5560;0,0474951
1603,5203;0,0473452
1604,4845;0,0472395
1605,4487;0,0471612
1606,4130;0,0470824
1607,3772;0,0469868
1608,3414;0,0468933
1609,3057;0,0468559
1610,2699;0,0469261
1611,2341;0,0471069
1612,1984;0,0473447
1613,1626;0,0475596
1614,1268;0,0476839
1615,0911;0,0476947
1616,0553;0,0476511
1617,0195;0,0476893
1617,9838;0,0479128
1618,9480;0,0482923
1619,9122;0,0487131
1620,8765;0,0490733
1621,8407;0,049329
1622,8049;0,0494962
1623,7692;0,0496283
1624,7334;0,0497754
1625,6976;0,0499514
1626,6619;0,0501439
1627,6261;0,0503505
1628,5903;0,0505925
1629,5546;0,05089
1630,5188;0,0512295
1631,4830;0,0515602
1632,4473;0,0518144
1633,4115;0,0519207
1634,3757;0,0518094
1635,3400;0,051472
1636,3042;0,0510749
1637,2684;0,0508692
1638,2327;0,0509326
1639,1969;0,0511677
1640,1611;0,0514575
1641,1254;0,0517322
1642,0896;0,0519555
1643,0538;0,0520948
1644,0181;0,0521018
1644,9823;0,0519206
1645,9465;0,0515584
1646,9108;0,0511727
1647,8750;0,0509623
1648,8392;0,0509392
1649,8035;0,0509197
1650,7677;0,050639
1651,7319;0,0498072
1652,6962;0,0483049
1653,6604;0,0466676
1654,6246;0,0457555
1655,5889;0,0456544
1656,5531;0,0458916
1657,5173;0,0460834
1658,4816;0,046052
1659,4458;0,0457379
1660,4100;0,0451405
1661,3743;0,0443271
1662,3385;0,0434604
1663,3027;0,0427376
1664,2670;0,0422517
1665,2312;0,0419443
1666,1954;0,0416714
1667,1597;0,0412765
1668,1239;0,0406444
1669,0881;0,039777
1670,0524;0,0388374
1671,0166;0,0380253
1671,9808;0,0373842
1672,9451;0,0367967
1673,9093;0,0361303
1674,8735;0,0353646
1675,8378;0,0346236
1676,8020;0,0340744
1677,7662;0,0337774
1678,7305;0,0336506
1679,6947;0,0335435
1680,6589;0,0333019
1681,6232;0,0327794
1682,5874;0,0318624
1683,5516;0,0306215
1684,5159;0,0294379
1685,4801;0,02868
1686,4443;0,0283378
1687,4086;0,0281829
1688,3728;0,0280324
1689,3370;0,0278223
1690,3013;0,0275723
1691,2655;0,0273301
1692,2297;0,0271315
1693,1940;0,0269877
1694,1582;0,0268864
1695,1224;0,0267933
1696,0867;0,0266514
1697,0509;0,0263967
1698,0151;0,0260071
1698,9794;0,0255583
1699,9436;0,0252124
1700,9078;0,0251079
1701,8721;0,0252585
1702,8363;0,0255692
1703,8005;0,0259219
1704,7648;0,0262409
1705,7290;0,0265168
1706,6932;0,0267962
1707,6575;0,027143
1708,6217;0,027595
1709,5859;0,028149
1710,5502;0,0287758
1711,5144;0,0294387
1712,4786;0,030101
1713,4429;0,0307257
1714,4071;0,0312743
1715,3713;0,0317096
1716,3356;0,0320231
1717,2998;0,0322877
1718,2640;0,0326371
1719,2283;0,0331384
1720,1925;0,0337491
1721,1567;0,0343884
1722,1210;0,0349963
1723,0852;0,0355471
1724,0494;0,0360429
1725,0137;0,0365056
1725,9779;0,036965
1726,9421;0,0374421
1727,9064;0,0379329
1728,8706;0,0384019
1729,8348;0,0387844
1730,7991;0,0389933
1731,7633;0,0389378
1732,7275;0,0385874
1733,6918;0,0380693
1734,6560;0,0376276
1735,6202;0,0373927
1736,5845;0,0372813
1737,5487;0,0371177
1738,5129;0,0367642
1739,4772;0,0361773
1740,4414;0,0354158
1741,4056;0,0345985
1742,3699;0,0338213
1743,3341;0,0331009
1744,2983;0,0323941
1745,2626;0,0316438
1746,2268;0,0307954
1747,1910;0,0297804
1748,1553;0,0285217
1749,1195;0,0270095
1750,0837;0,0253936
1751,0480;0,0239261
1752,0122;0,022766
1752,9764;0,021885
1753,9407;0,0211443
1754,9049;0,0204097
1755,8691;0,0196208
1756,8334;0,018799
1757,7976;0,0180026
1758,7618;0,0172634
1759,7261;0,0165597
1760,6903;0,0158517
1761,6545;0,0151383
1762,6188;0,0144723
1763,5830;0,0139122
1764,5472;0,0134692
1765,5115;0,0131036
1766,4757;0,0127624
1767,4399;0,0124115
1768,4042;0,0120428
1769,3684;0,0116571
1770,3326;0,0112449
1771,2969;0,0107954
1772,2611;0,010339
1773,2253;0,00995827
1774,1896;0,00972337
1775,1538;0,00962936
1776,1180;0,00960948
1777,0823;0,00958697
1778,0465;0,00951162
1779,0107;0,00937153
1779,9750;0,00918622
1780,9392;0,00898642
1781,9034;0,00879335
1782,8677;0,00861546
1783,8319;0,00846267
1784,7961;0,00835666
1785,7604;0,00832072
1786,7246;0,00835837
1787,6888;0,00844358
1788,6531;0,00853007
1789,6173;0,00856741
1790,5815;0,00851588
1791,5458;0,0083682
1792,5100;0,00817368
1793,4742;0,00801739
1794,4385;0,00794888
1795,4027;0,00794857
1796,3669;0,00796111
1797,3312;0,00793822
1798,2954;0,00785837
1799,2596;0,0077292
1800,2239;0,00758112
1801,1881;0,00745198
1802,1523;0,00736734
1803,1166;0,0073298
1804,0808;0,00732454
1805,0450;0,00733174
1806,0093;0,00733452
1806,9735;0,00732052
1807,9377;0,00728062
1808,9020;0,00720958
1809,8662;0,00711011
1810,8304;0,00699659
1811,7947;0,00689084
1812,7589;0,00680981
1813,7231;0,00675665
1814,6874;0,00672299
1815,6516;0,00669828
1816,6158;0,00667797
1817,5801;0,00666589
1818,5443;0,00666976
1819,5085;0,00669283
1820,4728;0,00672889
1821,4370;0,00676547
1822,4012;0,00679178
1823,3655;0,00680472
1824,3297;0,00680863
1825,2939;0,0068077
1826,2582;0,00679642
1827,2224;0,00675758
1828,1866;0,00667366
1829,1509;0,00654668
1830,1151;0,00641035
1831,0793;0,00631367
1832,0436;0,0062833
1833,0078;0,00630536
1833,9720;0,00634327
1834,9363;0,0063674
1835,9005;0,00637264
1836,8647;0,00637706
1837,8290;0,00640371
1838,7932;0,00645811
1839,7574;0,00652086
1840,7217;0,00655998
1841,6859;0,00654926
1842,6501;0,00648097
1843,6144;0,00637196
1844,5786;0,00626009
1845,5428;0,00618144
1846,5071;0,00614234
1847,4713;0,00611956
1848,4355;0,00608669
1849,3998;0,00603608
1850,3640;0,00598131
1851,3282;0,00594444
1852,2925;0,00593964
1853,2567;0,00596501
1854,2209;0,00600677
1855,1852;0,00604969
1856,1494;0,0060847
1857,1136;0,00610974
1858,0779;0,0061257
1859,0421;0,00613331
1860,0063;0,00613363
1860,9706;0,00613009
1861,9348;0,00612793
1862,8990;0,00613049
1863,8633;0,00613605
1864,8275;0,00613838
1865,7917;0,0061298
1866,7560;0,00610334
1867,7202;0,00605522
1868,6844;0,00599095
1869,6487;0,00592773
1870,6129;0,00588227
1871,5771;0,00585644
1872,5414;0,00583908
1873,5056;0,00581793
1874,4698;0,00578796
1875,4341;0,00575209
1876,3983;0,00571826
1877,3625;0,00569557
1878,3268;0,00569139
1879,2910;0,00570901
1880,2552;0,00574657
1881,2195;0,00579713
1882,1837;0,00585012
1883,1479;0,00589411
1884,1122;0,00591983
1885,0764;0,00592155
1886,0406;0,00589697
1887,0049;0,00584722
1887,9691;0,00577846
1888,9333;0,00570416
1889,8976;0,00564388
1890,8618;0,00561534
1891,8260;0,00562419
1892,7903;0,00566005
1893,7545;0,00570154
1894,7188;0,00572595
1895,6830;0,00571934
1896,6472;0,00568254
1897,6115;0,00562902
1898,5757;0,00557611
1899,5399;0,00553719
1900,5042;0,00552006
1901,4684;0,00552908
1902,4326;0,00556568
1903,3969;0,00562535
1904,3611;0,00569372
1905,3253;0,00574721
1906,2896;0,00576096
1907,2538;0,00572182
1908,2180;0,00563978
1909,1823;0,00554839
1910,1465;0,0054888
1911,1107;0,0054852
1912,0750;0,00553092
1913,0392;0,00559582
1914,0034;0,00564611
1914,9677;0,00566179
1915,9319;0,00564345
1916,8961;0,00560763
1917,8604;0,00557331
1918,8246;0,00554759
1919,7888;0,0055212
1920,7531;0,00547756
1921,7173;0,00540758
1922,6815;0,00531901
1923,6458;0,0052338
1924,6100;0,00517484
1925,5742;0,00515209
1926,5385;0,00515978
1927,5027;0,00518585
1928,4669;0,00522322
1929,4312;0,00527283
1930,3954;0,00533667
1931,3596;0,00540769
1932,3239;0,00546612
1933,2881;0,00548808
1934,2523;0,00546065
1935,2166;0,00539197
1936,1808;0,00530704
1937,1450;0,00523146
1938,1093;0,00517595
1939,0735;0,00513409
1940,0377;0,00509365
1941,0020;0,00505111
1941,9662;0,0050172
1942,9304;0,00500661
1943,8947;0,0050195
1944,8589;0,00503374
1945,8231;0,00501788
1946,7874;0,00495347
1947,7516;0,00484852
1948,7158;0,00473284
1949,6801;0,00463833
1950,6443;0,00457686
1951,6085;0,00453121
1952,5728;0,00446585
1953,5370;0,00434981
1954,5012;0,00417638
1955,4655;0,00396814
1956,4297;0,0037664
1957,3939;0,00361339
1958,3582;0,00353731
1959,3224;0,00354534
1960,2866;0,0036244
1961,2509;0,00374716
1962,2151;0,00387974
1963,1793;0,00398758
1964,1436;0,00403891
1965,1078;0,00400986
1966,0720;0,00389552
1967,0363;0,00372282
1968,0005;0,00354973
1968,9647;0,00343868
1969,9290;0,0034156
1970,8932;0,00344384
1971,8574;0,00343537
1972,8217;0,00330133
1973,7859;0,00302309
1974,7501;0,00270207
1975,7144;0,00253852
1976,6786;0,00272142
1977,6428;0,00329112
1978,6071;0,0040865
1979,5713;0,00483043
1980,5355;0,00528568
1981,4998;0,00536468
1982,4640;0,00513899
1983,4282;0,00477169
1984,3925;0,00442597
1985,3567;0,00419753
1986,3209;0,00409938
1987,2852;0,00409617
1988,2494;0,00415373
1989,2136;0,00426511
1990,1779;0,0044388
1991,1421;0,00466711
1992,1063;0,00490824
1993,0706;0,00510185
1994,0348;0,00520353
1994,9990;0,00520532
1995,9633;0,00512802
1996,9275;0,00499954
1997,8917;0,0048409
1998,8560;0,00466927
1999,8202;0,00450988
2000,7844;0,00439856
2001,7487;0,00436385
2002,7129;0,00439885
2003,6771;0,00444827
2004,6414;0,00443231
2005,6056;0,00430455
2006,5698;0,00410753
2007,5341;0,00397229
2008,4983;0,0040417
2009,4625;0,00436518
2010,4268;0,00484775
2011,3910;0,00529636
2012,3552;0,00553084
2013,3195;0,00548538
2014,2837;0,00523984
2015,2479;0,00496578
2016,2122;0,00482084
2017,1764;0,00485855
2018,1406;0,00501385
2019,1049;0,00516593
2020,0691;0,00521851
2021,0333;0,00513768
2021,9976;0,00494016
2022,9618;0,00466561
2023,9260;0,0043634
2024,8903;0,00409387
2025,8545;0,00392276
2026,8187;0,00389482
2027,7830;0,0040018
2028,7472;0,00417762
2029,7114;0,00433738
2030,6757;0,00443839
2031,6399;0,00451468
2032,6041;0,00465084
2033,5684;0,00491068
2034,5326;0,0052789
2035,4968;0,00566723
2036,4611;0,00597885
2037,4253;0,00617359
2038,3895;0,00628047
2039,3538;0,00635512
2040,3180;0,00642359
2041,2822;0,00646027
2042,2465;0,00641839
2043,2107;0,00628673
2044,1749;0,00612301
2045,1392;0,00603317
2046,1034;0,0061077
2047,0676;0,00635715
2048,0320;0,00669557
2048,9961;0,00699048
2049,9604;0,00714363
2050,9246;0,00714095
2051,8889;0,00704429
2052,8530;0,0069455
2053,8174;0,00691714
2054,7815;0,00698237
2055,7458;0,00711371
2056,7100;0,00725707
2057,6743;0,00736528
2058,6384;0,0074206
2059,6028;0,0074352
2060,5669;0,00743403
2061,5313;0,0074344
2062,4954;0,00743533
2063,4597;0,00742221
2064,4238;0,00738232
2065,3882;0,00731961
2066,3523;0,00725745
2067,3167;0,00722656
2068,2808;0,0072466
2069,2451;0,00731408
2070,2092;0,00740433
2071,1736;0,00748584
2072,1377;0,00753706
2073,1021;0,00755497
2074,0662;0,00754967
2075,0305;0,00753099
2075,9946;0,00749883
2076,9590;0,00744555
2077,9231;0,00736804
2078,8875;0,00727822
2079,8516;0,00720213
2080,8159;0,0071671
2081,7800;0,00718672
2082,7444;0,00725468
2083,7085;0,00735108
2084,6729;0,00745452
2085,6370;0,00754974
2086,6013;0,00762571
2087,5654;0,0076692
2088,5298;0,00766318
2089,4939;0,00759516
2090,4583;0,00747045
2091,4224;0,00731897
2092,3867;0,00718773
2093,3508;0,00712152
2094,3152;0,00714295
2095,2793;0,00724396
2096,2437;0,00739354
2097,2078;0,00755438
2098,1721;0,00769622
2099,1362;0,00779878
2100,1006;0,00784883
2101,0647;0,00783831
2102,0291;0,00777174
2102,9932;0,00766969
2103,9575;0,00756605
2104,9216;0,00749495
2105,8860;0,00747537
2106,8501;0,00750418
2107,8145;0,00756225
2108,7786;0,00762807
2109,7429;0,00768813
2110,7070;0,00773758
2111,6714;0,00777358
2112,6355;0,00778955
2113,5999;0,00777666
2114,5640;0,00773087
2115,5283;0,00765894
2116,4924;0,00757726
2117,4568;0,0075039
2118,4209;0,00744933
2119,3853;0,00741226
2120,3494;0,00738297
2121,3137;0,00735162
2122,2778;0,00731625
2123,2422;0,00728565
2124,2063;0,00727587
2125,1707;0,00730188
2126,1348;0,00736842
2127,0991;0,00746475
2128,0632;0,00756656
2129,0276;0,00764526
2129,9917;0,00768033
2130,9561;0,00766841
2131,9202;0,00762372
2132,8845;0,00756926
2133,8486;0,00752395
2134,8130;0,00749357
2135,7771;0,00747119
2136,7415;0,00744563
2137,7056;0,0074106
2138,6699;0,00736828
2139,6340;0,00732761
2140,5984;0,00730142
2141,5625;0,00730436
2142,5269;0,00734922
2143,4910;0,00743897
2144,4553;0,00755712
2145,4194;0,00766524
2146,3838;0,007715
2147,3479;0,0076723
2148,3123;0,00753877
2149,2764;0,00735443
2150,2407;0,00717739
2151,2048;0,0070529
2152,1692;0,00699203
2153,1333;0,00697294
2154,0977;0,00696185
2155,0618;0,00693873
2156,0261;0,00691267
2156,9902;0,00692017
2157,9546;0,0070071
2158,9187;0,00720299
2159,8831;0,00750254
2160,8472;0,00786454
2161,8115;0,00822294
2162,7756;0,00850044
2163,7400;0,00862514
2164,7041;0,00855432
2165,6685;0,00829879
2166,6326;0,00793004
2167,5969;0,00755764
2168,5610;0,00728486
2169,5254;0,00716703
2170,4895;0,00719495
2171,4539;0,00731021
2172,4180;0,00744273
2173,3823;0,00755002
2174,3464;0,00763615
2175,3108;0,00773783
2176,2749;0,00788542
2177,2393;0,00806534
2178,2034;0,00821129
2179,1677;0,00823359
2180,1318;0,00807158
2181,0962;0,00773847
2182,0603;0,00732826
2183,0247;0,00697462
2183,9888;0,00678467
2184,9531;0,00679107
2185,9172;0,00695067
2186,8816;0,00718225
2187,8457;0,00741164
2188,8101;0,00759579
2189,7742;0,0077189
2190,7385;0,0077751
2191,7026;0,00775855
2192,6670;0,00766986
2193,6311;0,0075295
2194,5955;0,00738027
2195,5596;0,00727038
2196,5239;0,00722655
2197,4880;0,00723752
2198,4524;0,00726236
2199,4165;0,00725911
2200,3809;0,00721378
2201,3450;0,00714892
2202,3093;0,00710686
2203,2734;0,00712055
2204,2378;0,0071925
2205,2019;0,00729395
2206,1663;0,00738203
2207,1304;0,00742225
2208,0947;0,00740383
2209,0588;0,00734235
2210,0232;0,00727165
2210,9873;0,00722997
2211,9517;0,00724528
2212,9158;0,00732381
2213,8801;0,00744566
2214,8442;0,00757064
2215,8086;0,00765337
2216,7727;0,00766193
2217,7371;0,00759131
2218,7012;0,00746532
2219,6655;0,00732676
2220,6296;0,00722119
2221,5940;0,00718154
2222,5581;0,00721836
2223,5225;0,00731758
2224,4866;0,00744569
2225,4509;0,00756118
2226,4150;0,00762929
2227,3794;0,00763459
2228,3435;0,00758679
2229,3079;0,00751433
2230,2720;0,0074502
2231,2363;0,00741713
2232,2004;0,00742013
2233,1648;0,00744926
2234,1289;0,00748885
2235,0933;0,0075262
2236,0574;0,00755407
2237,0217;0,00756746
2237,9858;0,00755939
2238,9502;0,00752132
2239,9143;0,00744967
2240,8787;0,00735437
2241,8428;0,00726203
2242,8071;0,00720822
2243,7712;0,00722005
2244,7356;0,00729792
2245,6997;0,0074089
2246,6641;0,00749922
2247,6282;0,00752209
2248,5925;0,00746552
2249,5566;0,00736259
2250,5210;0,00727594
2251,4851;0,0072643
2252,4495;0,00735071
2253,4136;0,00751105
2254,3779;0,00768875
2255,3420;0,00782517
2256,3064;0,00788615
2257,2705;0,00787044
2258,2349;0,00780051
2259,1990;0,00770696
2260,1633;0,00761756
2261,1274;0,00755336
2262,0918;0,00752745
2263,0559;0,00754258
2264,0203;0,0075889
2264,9844;0,00764657
2265,9487;0,00769486
2266,9128;0,00772264
2267,8772;0,007732
2268,8413;0,00773203
2269,8057;0,00772801
2270,7698;0,00771564
2271,7341;0,00768548
2272,6982;0,00763328
2273,6626;0,00756651
2274,6267;0,00750094
2275,5911;0,00745043
2276,5552;0,00741926
2277,5195;0,00740381
2278,4836;0,00740116
2279,4480;0,00741564
2280,4121;0,00745621
2281,3765;0,00752687
2282,3406;0,00761925
2283,3049;0,0077151
2284,2690;0,00779751
2285,2334;0,00786215
2286,1975;0,00791957
2287,1619;0,00798681
2288,1260;0,00807458
2289,0903;0,00817958
2290,0544;0,00828685
2291,0188;0,00837944
2291,9829;0,00844795
2292,9473;0,00849388
2293,9114;0,00852604
2294,8757;0,00855429
2295,8398;0,00858483
2296,8042;0,00861918
2297,7683;0,0086555
2298,7327;0,00869016
2299,6968;0,00871866
2300,6611;0,00873678
2301,6252;0,00874269
2302,5896;0,00873936
2303,5537;0,00873576
2304,5181;0,00874444
2305,4822;0,00877547
2306,4465;0,00882869
2307,4106;0,00888884
2308,3750;0,00892796
2309,3391;0,00891669
2310,3035;0,00884037
2311,2676;0,00871107
2312,2319;0,00856579
2313,1960;0,00844875
2314,1604;0,00838758
2315,1245;0,00837933
2316,0889;0,00839592
2317,0530;0,00840471
2318,0173;0,0083909
2318,9814;0,00836771
2319,9458;0,0083677
2320,9099;0,00841978
2321,8743;0,00852769
2322,8384;0,00866561
2323,8027;0,00879144
2324,7668;0,00886537
2325,7312;0,00886311
2326,6953;0,00878174
2327,6597;0,0086398
2328,6238;0,00847276
2329,5881;0,00832453
2330,5522;0,00823528
2331,5166;0,00822604
2332,4807;0,00828626
2333,4451;0,00837533
2334,4092;0,00844319
2335,3735;0,00846009
2336,3376;0,0084377
2337,3020;0,00842668
2338,2661;0,00848738
2339,2305;0,00864597
2340,1946;0,00886112
2341,1589;0,00902359
2342,1230;0,00900269
2343,0874;0,00874807
2344,0515;0,00839159
2345,0159;0,00819428
2345,9800;0,00832312
2346,9443;0,00871742
2347,9084;0,00917524
2348,8728;0,00951114
2349,8369;0,00964912
2350,8013;0,00963363
2351,7654;0,00957846
2352,7297;0,00957668
2353,6938;0,00962699
2354,6582;0,0096519
2355,6223;0,00959229
2356,5867;0,00945969
2357,5508;0,00930262
2358,5151;0,00915742
2359,4792;0,00903563
2360,4436;0,00893382
2361,4077;0,00883749
2362,3721;0,00871944
2363,3362;0,00855053
2364,3005;0,00832101
2365,2646;0,00805025
2366,2290;0,00777186
2367,1931;0,00750842
2368,1575;0,00725944
2369,1216;0,00701047
2370,0859;0,00675182
2371,0500;0,00649195
2372,0144;0,00625895
2372,9785;0,00609171
2373,9429;0,00602627
2374,9070;0,00608249
2375,8713;0,00625609
2376,8354;0,00651898
2377,7998;0,00682792
2378,7639;0,0071371
2379,7283;0,00740931
2380,6924;0,00762184
2381,6567;0,00776668
2382,6208;0,00784726
2383,5852;0,00787421
2384,5493;0,007862
2385,5137;0,00782668
2386,4778;0,0077842
2387,4421;0,00774862
2388,4063;0,00772989
2389,3706;0,00773149
2390,3347;0,00774938
2391,2991;0,00777356
2392,2632;0,00779288
2393,2275;0,00780127
2394,1917;0,0078019
2395,1560;0,00780613
2396,1201;0,00782694
2397,0845;0,00787022
2398,0486;0,00793025
2399,0129;0,00799054
2399,9771;0,00803315
2400,9414;0,00804934
2401,9055;0,00804421
2402,8699;0,00803388
2403,8340;0,00803566
2404,7983;0,00805824
2405,7625;0,00809779
2406,7268;0,00814161
2407,6909;0,00817712
2408,6553;0,00819914
2409,6194;0,00821096
2410,5837;0,00822049
2411,5479;0,00823415
2412,5122;0,00825349
2413,4763;0,0082761
2414,4407;0,00829908
2415,4048;0,00832153
2416,3691;0,00834446
2417,3333;0,00836877
2418,2976;0,00839376
2419,2617;0,00841785
2420,2261;0,00844077
2421,1902;0,00846481
2422,1545;0,00849431
2423,1187;0,00853244
2424,0830;0,0085783
2425,0471;0,00862636
2426,0115;0,00866872
2426,9756;0,00869903
2427,9399;0,00871567
2428,9041;0,00872254
2429,8684;0,00872723
2430,8325;0,00873731
2431,7969;0,00875642
2432,7610;0,00878204
2433,7253;0,00880613
2434,6895;0,0088191
2435,6538;0,00881523
2436,6179;0,00879663
2437,5823;0,0087732
2438,5464;0,00875822
2439,5107;0,00876223
2440,4749;0,00878888
2441,4392;0,00883483
2442,4033;0,00889276
2443,3677;0,00895475
2444,3318;0,00901375
2445,2961;0,0090635
2446,2603;0,0090987
2447,2246;0,00911668
2448,1887;0,00911937
2449,1531;0,00911343
2450,1172;0,00910733
2451,0815;0,00910711
2452,0457;0,0091139
2453,0100;0,00912498
2453,9741;0,00913743
2454,9385;0,00915108
2455,9026;0,00916833
2456,8669;0,00919129
2457,8311;0,00921906
2458,7954;0,00924766
2459,7595;0,0092728
2460,7239;0,00929317
2461,6880;0,00931148
2462,6523;0,0093324
2463,6165;0,009359
2464,5808;0,00939041
2465,5449;0,00942237
2466,5093;0,00945015
2467,4734;0,00947182
2468,4377;0,00948944
2469,4019;0,00950756
2470,3662;0,00952989
2471,3303;0,00955635
2472,2947;0,00958266
2473,2588;0,0096028
2474,2231;0,00961296
2475,1873;0,0096144
2476,1516;0,00961337
2477,1157;0,00961801
2478,0801;0,00963434
2479,0442;0,00966385
2480,0085;0,00970367
2480,9727;0,00974858
2481,9370;0,00979303
2482,9011;0,00983209
2483,8655;0,00986187
2484,8296;0,00988054
2485,7939;0,00988975
2486,7581;0,00989527
2487,7224;0,00990513
2488,6865;0,00992549
2489,6509;0,00995671
2490,6150;0,00999283
2491,5793;0,010025
2492,5435;0,0100471
2493,5078;0,0100586
2494,4719;0,0100633
2495,4363;0,0100648
2496,4004;0,0100629
2497,3647;0,0100542
2498,3289;0,0100369
2499,2932;0,0100153
2500,2573;0,0100011
2501,2217;0,0100078
2502,1858;0,0100436
2503,1501;0,0101054
2504,1143;0,0101794
2505,0786;0,0102475
2506,0427;0,0102952
2507,0071;0,0103169
2507,9712;0,0103171
2508,9355;0,0103057
2509,8997;0,0102923
2510,8640;0,0102822
2511,8281;0,0102756
2512,7925;0,0102692
2513,7566;0,010261
2514,7209;0,0102529
2515,6851;0,0102513
2516,6494;0,0102641
2517,6135;0,0102956
2518,5779;0,010343
2519,5420;0,010396
2520,5063;0,0104408
2521,4705;0,0104667
2522,4348;0,0104703
2523,3989;0,0104563
2524,3633;0,0104342
2525,3274;0,0104135
2526,2917;0,0104008
2527,2559;0,0104001
2528,2202;0,0104127
2529,1843;0,0104373
2530,1487;0,0104689
2531,1128;0,0104993
2532,0771;0,0105198
2533,0413;0,0105254
2534,0056;0,0105186
2534,9697;0,0105081
2535,9341;0,0105039
2536,8982;0,0105122
2537,8625;0,0105318
2538,8267;0,0105567
2539,7910;0,0105808
2540,7551;0,010601
2541,7195;0,0106185
2542,6836;0,0106358
2543,6479;0,0106543
2544,6121;0,0106734
2545,5764;0,0106909
2546,5405;0,0107043
2547,5049;0,010712
2548,4690;0,0107132
2549,4333;0,0107088
2550,3975;0,0107022
2551,3618;0,010699
2552,3259;0,0107053
2553,2903;0,0107248
2554,2544;0,0107562
2555,2188;0,0107933
2556,1829;0,0108271
2557,1472;0,0108502
2558,1113;0,0108588
2559,0757;0,0108536
2560,0398;0,0108388
2561,0042;0,0108204
2561,9683;0,0108047
2562,9326;0,0107977
2563,8967;0,0108032
2564,8611;0,0108218
2565,8252;0,0108506
2566,7896;0,010884
2567,7537;0,0109156
2568,7180;0,0109407
2569,6821;0,0109574
2570,6465;0,0109665
2571,6106;0,0109707
2572,5750;0,0109732
2573,5391;0,0109771
2574,5034;0,0109849
2575,4675;0,0109982
2576,4319;0,0110172
2577,3960;0,0110413
2578,3604;0,0110685
2579,3245;0,0110964
2580,2888;0,0111217
2581,2529;0,0111398
2582,2173;0,0111464
2583,1814;0,0111399
2584,1458;0,0111239
2585,1099;0,0111082
2586,0742;0,0111055
2587,0383;0,0111253
2588,0027;0,0111684
2588,9668;0,0112251
2589,9312;0,0112794
2590,8953;0,0113173
2591,8596;0,0113331
2592,8237;0,0113323
2593,7881;0,011327
2594,7522;0,0113298
2595,7166;0,0113474
2596,6807;0,0113782
2597,6450;0,0114148
2598,6091;0,0114484
2599,5735;0,0114727
2600,5376;0,0114873
2601,5020;0,0114967
2602,4661;0,0115088
2603,4304;0,0115298
2604,3945;0,0115611
2605,3589;0,0115974
2606,3230;0,0116297
2607,2874;0,0116504
2608,2515;0,0116583
2609,2158;0,0116607
2610,1799;0,0116704
2611,1443;0,0116982
2612,1084;0,0117472
2613,0728;0,0118099
2614,0369;0,0118725
2615,0012;0,0119222
2615,9653;0,0119535
2616,9297;0,0119709
2617,8938;0,0119854
2618,8582;0,0120084
2619,8223;0,0120458
2620,7866;0,0120955
2621,7507;0,0121494
2622,7151;0,012198
2623,6792;0,0122352
2624,6436;0,0122604
2625,6077;0,0122787
2626,5720;0,0122976
2627,5361;0,0123242
2628,5005;0,012362
2629,4646;0,0124103
2630,4290;0,0124647
2631,3931;0,0125189
2632,3574;0,0125669
2633,3215;0,0126041
2634,2859;0,0126285
2635,2500;0,0126415
2636,2144;0,0126479
2637,1785;0,0126554
2638,1428;0,0126728
2639,1069;0,0127066
2640,0713;0,0127579
2641,0354;0,012821
2641,9998;0,0128858
2642,9639;0,0129419
2643,9282;0,0129833
2644,8923;0,0130108
2645,8567;0,0130303
2646,8208;0,0130487
2647,7852;0,0130707
2648,7493;0,0130969
2649,7136;0,0131252
2650,6777;0,0131532
2651,6421;0,0131804
2652,6062;0,013208
2653,5706;0,0132377
2654,5347;0,0132703
2655,4990;0,0133048
2656,4631;0,0133387
2657,4275;0,0133696
2658,3916;0,0133962
2659,3560;0,0134189
2660,3201;0,0134393
2661,2844;0,0134598
2662,2485;0,0134818
2663,2129;0,0135057
2664,1770;0,0135312
2665,1414;0,0135578
2666,1055;0,0135862
2667,0698;0,0136175
2668,0339;0,0136523
2668,9983;0,0136897
2669,9624;0,013727
2670,9268;0,0137611
2671,8909;0,0137902
2672,8552;0,0138154
2673,8193;0,0138397
2674,7837;0,0138656
2675,7478;0,0138933
2676,7122;0,0139205
2677,6763;0,0139444
2678,6406;0,0139649
2679,6047;0,0139856
2680,5691;0,0140129
2681,5332;0,014052
2682,4976;0,0141037
2683,4617;0,0141635
2684,4260;0,0142241
2685,3901;0,0142793
2686,3545;0,0143266
2687,3186;0,0143679
2688,2830;0,0144068
2689,2471;0,0144467
2690,2114;0,0144886
2691,1755;0,0145315
2692,1399;0,0145734
2693,1040;0,0146124
2694,0684;0,0146472
2695,0325;0,0146776
2695,9968;0,014705
2696,9609;0,0147319
2697,9253;0,0147613
2698,8894;0,0147952
2699,8538;0,0148335
2700,8179;0,0148743
2701,7822;0,0149155
2702,7463;0,0149561
2703,7107;0,0149971
2704,6748;0,0150397
2705,6392;0,0150842
2706,6033;0,0151292
2707,5676;0,0151734
2708,5317;0,015217
2709,4961;0,0152627
2710,4602;0,0153133
2711,4246;0,0153691
2712,3887;0,0154263
2713,3530;0,0154785
2714,3171;0,0155202
2715,2815;0,0155504
2716,2456;0,0155732
2717,2100;0,0155957
2718,1741;0,0156245
2719,1384;0,0156626
2720,1025;0,0157089
2721,0669;0,0157589
2722,0310;0,0158068
2722,9954;0,0158475
2723,9595;0,0158784
2724,9238;0,0159009
2725,8879;0,01592
2726,8523;0,0159433
2727,8164;0,0159775
2728,7808;0,0160266
2729,7449;0,0160892
2730,7092;0,0161593
2731,6733;0,0162276
2732,6377;0,0162849
2733,6018;0,0163242
2734,5662;0,0163434
2735,5303;0,016346
2736,4946;0,0163394
2737,4587;0,0163329
2738,4231;0,016334
2739,3872;0,016347
2740,3516;0,0163718
2741,3157;0,0164057
2742,2800;0,0164448
2743,2441;0,0164848
2744,2085;0,0165221
2745,1726;0,0165537
2746,1370;0,0165784
2747,1011;0,0165981
2748,0654;0,0166174
2749,0295;0,0166426
2749,9939;0,0166782
2750,9580;0,0167244
2751,9224;0,0167768
2752,8865;0,0168288
2753,8508;0,0168747
2754,8149;0,016913
2755,7793;0,0169465
2756,7434;0,0169795
2757,7078;0,0170157
2758,6719;0,0170563
2759,6362;0,0171002
2760,6003;0,0171457
2761,5647;0,0171916
2762,5288;0,0172375
2763,4932;0,0172828
2764,4573;0,0173266
2765,4216;0,0173684
2766,3857;0,0174088
2767,3501;0,0174502
2768,3142;0,0174956
2769,2786;0,0175461
2770,2427;0,0176002
2771,2070;0,0176537
2772,1711;0,0177023
2773,1355;0,0177444
2774,0996;0,0177821
2775,0640;0,0178205
2776,0281;0,017865
2776,9924;0,0179194
2777,9565;0,017984
2778,9209;0,0180571
2779,8850;0,0181353
2780,8494;0,0182156
2781,8135;0,0182956
2782,7778;0,0183738
2783,7419;0,0184488
2784,7063;0,0185189
2785,6704;0,0185819
2786,6348;0,0186361
2787,5989;0,0186822
2788,5632;0,0187247
2789,5273;0,0187722
2790,4917;0,0188352
2791,4558;0,0189208
2792,4202;0,0190296
2793,3843;0,0191533
2794,3486;0,0192783
2795,3127;0,0193909
2796,2771;0,0194836
2797,2412;0,0195576
2798,2056;0,0196218
2799,1697;0,0196877
2800,1340;0,0197649
2801,0981;0,0198576
2802,0625;0,0199648
2803,0266;0,020083
2803,9910;0,0202082
2804,9551;0,0203375
2805,9194;0,0204679
2806,8835;0,0205964
2807,8479;0,02072
2808,8120;0,0208373
2809,7764;0,0209507
2810,7405;0,0210656
2811,7048;0,0211886
2812,6689;0,0213238
2813,6333;0,0214705
2814,5974;0,0216246
2815,5618;0,0217819
2816,5259;0,0219409
2817,4902;0,0221037
2818,4543;0,0222735
2819,4187;0,0224514
2820,3828;0,0226355
2821,3472;0,0228226
2822,3113;0,0230111
2823,2756;0,0232032
2824,2397;0,0234035
2825,2041;0,0236155
2826,1682;0,02384
2827,1326;0,024075
2828,0967;0,0243186
2829,0610;0,0245718
2830,0251;0,0248386
2830,9895;0,0251239
2831,9536;0,0254296
2832,9180;0,025753
2833,8821;0,026088
2834,8464;0,0264286
2835,8105;0,0267733
2836,7749;0,0271268
2837,7390;0,0274994
2838,7034;0,0279043
2839,6675;0,0283542
2840,6318;0,0288582
2841,5959;0,0294213
2842,5603;0,0300445
2843,5244;0,0307249
2844,4888;0,0314541
2845,4529;0,0322148
2846,4172;0,0329765
2847,3813;0,0336952
2848,3457;0,0343187
2849,3098;0,0347986
2850,2742;0,0351048
2851,2383;0,0352353
2852,2026;0,0352171
2853,1667;0,0350966
2854,1311;0,034925
2855,0952;0,0347448
2856,0596;0,0345838
2857,0237;0,0344566
2857,9880;0,0343697
2858,9521;0,0343267
2859,9165;0,034329
2860,8806;0,0343754
2861,8450;0,0344608
2862,8091;0,0345784
2863,7734;0,0347223
2864,7375;0,0348899
2865,7019;0,0350809
2866,6660;0,0352934
2867,6304;0,0355201
2868,5945;0,0357476
2869,5588;0,0359602
2870,5229;0,0361468
2871,4873;0,0363054
2872,4514;0,0364431
2873,4158;0,0365716
2874,3799;0,0367009
2875,3442;0,0368353
2876,3083;0,0369732
2877,2727;0,0371106
2878,2368;0,0372442
2879,2012;0,0373736
2880,1653;0,0375009
2881,1296;0,0376293
2882,0938;0,0377622
2883,0581;0,037901
2884,0222;0,0380449
2884,9866;0,038191
2885,9507;0,0383353
2886,9150;0,0384749
2887,8792;0,0386097
2888,8435;0,0387428
2889,8076;0,0388775
2890,7720;0,0390149
2891,7361;0,0391527
2892,7004;0,0392868
2893,6646;0,0394145
2894,6289;0,0395368
2895,5930;0,0396578
2896,5574;0,0397815
2897,5215;0,0399093
2898,4858;0,0400387
2899,4500;0,0401659
2900,4143;0,0402883
2901,3784;0,0404069
2902,3428;0,0405262
2903,3069;0,0406532
2904,2712;0,0407949
2905,2354;0,0409582
2906,1997;0,0411486
2907,1638;0,0413709
2908,1282;0,0416299
2909,0923;0,0419312
2910,0566;0,0422809
2911,0208;0,0426829
2911,9851;0,0431343
2912,9492;0,0436202
2913,9136;0,0441113
2914,8777;0,0445676
2915,8420;0,0449476
2916,8062;0,0452186
2917,7705;0,0453649
2918,7346;0,0453889
2919,6990;0,0453055
2920,6631;0,0451349
2921,6274;0,044896
2922,5916;0,0446043
2923,5559;0,0442718
2924,5200;0,0439086
2925,4844;0,0435232
2926,4485;0,0431224
2927,4128;0,0427122
2928,3770;0,0422984
2929,3413;0,0418883
2930,3054;0,0414894
2931,2698;0,0411073
2932,2339;0,0407427
2933,1982;0,0403903
2934,1624;0,0400412
2935,1267;0,0396872
2936,0908;0,039325
2937,0552;0,0389563
2938,0193;0,0385857
2938,9836;0,0382161
2939,9478;0,0378465
2940,9121;0,0374721
2941,8762;0,0370884
2942,8406;0,036694
2943,8047;0,0362935
2944,7690;0,0358961
2945,7332;0,0355125
2946,6975;0,0351513
2947,6616;0,034816
2948,6260;0,0345041
2949,5901;0,0342084
2950,5544;0,0339199
2951,5186;0,0336308
2952,4829;0,0333378
2953,4470;0,0330422
2954,4114;0,0327493
2955,3755;0,0324647
2956,3398;0,0321917
2957,3040;0,0319297
2958,2683;0,0316756
2959,2324;0,0314258
2960,1968;0,0311781
2961,1609;0,0309324
2962,1252;0,0306893
2963,0894;0,0304484
2964,0537;0,0302082
2965,0178;0,0299671
2965,9822;0,029724
2966,9463;0,029479
2967,9106;0,0292318
2968,8748;0,0289806
2969,8391;0,0287225
2970,8032;0,0284555
2971,7676;0,0281819
2972,7317;0,0279094
2973,6960;0,0276485
2974,6602;0,0274087
2975,6245;0,0271933
2976,5886;0,0269992
2977,5530;0,0268196
2978,5171;0,0266485
2979,4814;0,0264834
2980,4456;0,0263252
2981,4099;0,0261752
2982,3740;0,0260338
2983,3384;0,0259
2984,3025;0,0257737
2985,2668;0,0256563
2986,2310;0,0255497
2987,1953;0,0254543
2988,1594;0,0253674
2989,1238;0,0252851
2990,0879;0,0252047
2991,0522;0,025127
2992,0164;0,0250563
2992,9807;0,0249976
2993,9448;0,0249539
2994,9092;0,0249261
2995,8733;0,0249133
2996,8376;0,024914
2997,8018;0,0249268
2998,7661;0,0249485
2999,7302;0,024975
3000,6946;0,0250023
3001,6587;0,0250296
3002,6230;0,0250608
3003,5872;0,0251029
3004,5515;0,0251614
3005,5156;0,0252365
3006,4800;0,0253212
3007,4441;0,0254038
3008,4084;0,0254732
3009,3726;0,0255224
3010,3369;0,0255513
3011,3010;0,0255656
3012,2654;0,0255753
3013,2295;0,0255917
3014,1938;0,0256252
3015,1580;0,0256828
3016,1223;0,0257664
3017,0864;0,0258712
3018,0508;0,0259872
3019,0149;0,0261017
3019,9792;0,0262045
3020,9434;0,0262918
3021,9077;0,026368
3022,8718;0,0264439
3023,8362;0,0265319
3024,8003;0,0266406
3025,7646;0,0267716
3026,7288;0,0269188
3027,6931;0,0270713
3028,6572;0,027217
3029,6216;0,0273461
3030,5857;0,0274543
3031,5500;0,0275444
3032,5142;0,027626
3033,4785;0,027713
3034,4426;0,0278181
3035,4070;0,0279474
3036,3711;0,0280979
3037,3354;0,028259
3038,2996;0,0284183
3039,2639;0,028568
3040,2280;0,0287085
3041,1924;0,0288464
3042,1565;0,0289896
3043,1208;0,029142
3044,0850;0,0293015
3045,0493;0,029463
3046,0134;0,0296225
3046,9778;0,02978
3047,9419;0,0299392
3048,9063;0,0301036
3049,8704;0,0302744
3050,8347;0,0304486
3051,7988;0,0306216
3052,7632;0,0307898
3053,7273;0,0309521
3054,6917;0,0311101
3055,6558;0,0312673
3056,6201;0,0314276
3057,5842;0,0315947
3058,5486;0,0317718
3059,5127;0,0319601
3060,4771;0,032158
3061,4412;0,0323592
3062,4055;0,0325539
3063,3696;0,0327324
3064,3340;0,0328898
3065,2981;0,0330295
3066,2625;0,0331628
3067,2266;0,0333036
3068,1909;0,0334617
3069,1550;0,0336394
3070,1194;0,0338316
3071,0835;0,0340311
3072,0479;0,0342317
3073,0120;0,0344303
3073,9763;0,0346252
3074,9404;0,0348141
3075,9048;0,0349935
3076,8689;0,035161
3077,8333;0,0353178
3078,7974;0,035469
3079,7617;0,0356215
3080,7258;0,0357811
3081,6902;0,0359496
3082,6543;0,0361256
3083,6187;0,0363058
3084,5828;0,0364871
3085,5471;0,036667
3086,5112;0,0368435
3087,4756;0,0370153
3088,4397;0,0371826
3089,4041;0,0373489
3090,3682;0,0375202
3091,3325;0,0377035
3092,2966;0,0379032
3093,2610;0,0381181
3094,2251;0,0383413
3095,1895;0,0385622
3096,1536;0,0387711
3097,1179;0,0389634
3098,0820;0,0391412
3099,0464;0,0393127
3100,0105;0,0394884
3100,9749;0,0396769
3101,9390;0,0398805
3102,9033;0,0400949
3103,8674;0,0403112
3104,8318;0,0405211
3105,7959;0,0407212
3106,7603;0,0409152
3107,7244;0,0411113
3108,6887;0,0413175
3109,6528;0,0415362
3110,6172;0,0417633
3111,5813;0,0419913
3112,5457;0,042214
3113,5098;0,0424306
3114,4741;0,042645
3115,4382;0,0428614
3116,4026;0,0430795
3117,3667;0,0432935
3118,3311;0,0434964
3119,2952;0,0436856
3120,2595;0,0438672
3121,2236;0,0440531
3122,1880;0,0442552
3123,1521;0,0444782
3124,1165;0,044717
3125,0806;0,0449603
3126,0449;0,0451967
3127,0090;0,0454204
3127,9734;0,0456324
3128,9375;0,0458386
3129,9019;0,0460467
3130,8660;0,0462636
3131,8303;0,0464941
3132,7944;0,0467392
3133,7588;0,0469951
3134,7229;0,047253
3135,6873;0,0475022
3136,6514;0,0477351
3137,6157;0,0479522
3138,5798;0,0481621
3139,5442;0,0483776
3140,5083;0,0486083
3141,4727;0,0488549
3142,4368;0,0491099
3143,4011;0,0493626
3144,3652;0,0496071
3145,3296;0,0498449
3146,2937;0,0500835
3147,2581;0,05033
3148,2222;0,0505855
3149,1865;0,050844
3150,1506;0,0510959
3151,1150;0,0513337
3152,0791;0,0515572
3153,0435;0,0517731
3154,0076;0,0519918
3154,9719;0,0522221
3155,9360;0,0524666
3156,9004;0,0527221
3157,8645;0,0529819
3158,8289;0,0532401
3159,7930;0,0534948
3160,7573;0,0537481
3161,7214;0,0540038
3162,6858;0,0542641
3163,6499;0,0545274
3164,6143;0,0547897
3165,5784;0,055047
3166,5427;0,0552989
3167,5068;0,0555491
3168,4712;0,0558038
3169,4353;0,0560466
3170,3997;0,0563207
3171,3638;0,0566
3172,3281;0,0568758
3173,2922;0,0571396
3174,2566;0,0573865
3175,2207;0,0576176
3176,1851;0,0578396
3177,1492;0,0580613
3178,1135;0,05829
3179,0776;0,0585286
3180,0420;0,058775
3181,0061;0,0590244
3181,9705;0,059273
3182,9346;0,0595196
3183,8989;0,0597654
3184,8630;0,0600116
3185,8274;0,0602575
3186,7915;0,0605009
3187,7559;0,0607403
3188,7200;0,060977
3189,6843;0,0612148
3190,6484;0,0614571
3191,6128;0,0617031
3192,5769;0,0619467
3193,5413;0,0621799
3194,5054;0,0623978
3195,4697;0,062603
3196,4338;0,0628044
3197,3982;0,0630124
3198,3623;0,0632329
3199,3267;0,063464
3200,2908;0,063699
3201,2551;0,0639308
3202,2192;0,0641559
3203,1836;0,064375
3204,1477;0,0645912
3205,1121;0,0648079
3206,0762;0,0650275
3207,0405;0,0652514
3208,0046;0,0654797
3208,9690;0,06571
3209,9331;0,0659373
3210,8975;0,0661569
3211,8616;0,0663671
3212,8259;0,0665719
3213,7900;0,0667788
3214,7544;0,066994
3215,7185;0,0672166
3216,6829;0,0674379
3217,6470;0,0676461
3218,6113;0,0678333
3219,5754;0,068001
3220,5398;0,0681595
3221,5039;0,0683227
3222,4683;0,0685012
3223,4324;0,0686991
3224,3967;0,0689136
3225,3608;0,0691383
3226,3252;0,069365
3227,2893;0,069586
3228,2537;0,0697958
3229,2178;0,069993
3230,1821;0,0701814
3231,1462;0,0703682
3232,1106;0,0705602
3233,0747;0,0707597
3234,0391;0,0709635
3235,0032;0,0711651
3235,9675;0,0713606
3236,9316;0,0715508
3237,8960;0,0717413
3238,8601;0,0719374
3239,8245;0,0721397
3240,7886;0,0723429
3241,7529;0,0725387
3242,7170;0,0727212
3243,6814;0,0728914
3244,6455;0,0730569
3245,6099;0,0732286
3246,5740;0,0734151
3247,5383;0,0736183
3248,5024;0,0738331
3249,4668;0,0740512
3250,4309;0,0742644
3251,3953;0,0744687
3252,3594;0,0746643
3253,3237;0,0748545
3254,2878;0,0750436
3255,2522;0,0752354
3256,2163;0,0754327
3257,1807;0,0756371
3258,1448;0,0758488
3259,1091;0,0760654
3260,0732;0,0762821
3261,0376;0,0764933
3262,0017;0,0766947
3262,9661;0,0768856
3263,9302;0,0770695
3264,8945;0,0772514
3265,8586;0,0774358
3266,8230;0,0776246
3267,7871;0,0778158
3268,7515;0,0780044
3269,7156;0,0781824
3270,6799;0,0783398
3271,6440;0,0784676
3272,6084;0,0785614
3273,5725;0,0786251
3274,5369;0,0786714
3275,5010;0,0787171
3276,4653;0,0787764
3277,4294;0,0788549
3278,3938;0,0789484
3279,3579;0,0790471
3280,3223;0,0791407
3281,2864;0,0792241
3282,2507;0,0792985
3283,2148;0,07937
3284,1792;0,0794457
3285,1433;0,07953
3286,1077;0,0796215
3287,0718;0,0797131
3288,0361;0,0797943
3289,0002;0,0798552
3289,9646;0,0798912
3290,9287;0,0799048
3291,8931;0,0799031
3292,8572;0,079894
3293,8215;0,0798819
3294,7856;0,0798684
3295,7500;0,0798544
3296,7141;0,0798443
3297,6785;0,0798454
3298,6426;0,079865
3299,6069;0,0799054
3300,5710;0,0799612
3301,5354;0,0800213
3302,4995;0,0800733
3303,4639;0,0801082
3304,4280;0,0801224
3305,3923;0,0801173
3306,3564;0,080097
3307,3208;0,0800675
3308,2849;0,0800361
3309,2493;0,0800112
3310,2134;0,0800014
3311,1777;0,0800126
3312,1418;0,0800464
3313,1062;0,0800996
3314,0703;0,0801658
3315,0347;0,0802388
3315,9988;0,080316
3316,9631;0,0803999
3317,9272;0,0804956
3318,8916;0,0806068
3319,8557;0,0807313
3320,8201;0,0808593
3321,7842;0,0809763
3322,7485;0,0810693
3323,7126;0,0811341
3324,6770;0,081178
3325,6411;0,0812173
3326,6055;0,0812702
3327,5696;0,0813481
3328,5339;0,0814513
3329,4980;0,0815685
3330,4624;0,0816818
3331,4265;0,0817732
3332,3909;0,0818303
3333,3550;0,0818497
3334,3193;0,081837
3335,2834;0,0818037
3336,2478;0,0817615
3337,2119;0,0817168
3338,1763;0,0816683
3339,1404;0,0816088
3340,1047;0,0815308
3341,0688;0,0814321
3342,0332;0,0813181
3342,9973;0,0811996
3343,9617;0,0810868
3344,9258;0,0809837
3345,8901;0,0808855
3346,8542;0,0807811
3347,8186;0,0806581
3348,7827;0,0805088
3349,7471;0,0803332
3350,7112;0,0801384
3351,6755;0,0799362
3352,6396;0,079738
3353,6040;0,0795521
3354,5681;0,0793814
3355,5325;0,0792246
3356,4966;0,0790781
3357,4609;0,078939
3358,4250;0,0788059
3359,3894;0,0786794
3360,3535;0,0785589
3361,3179;0,0784413
3362,2820;0,0783194
3363,2463;0,0781837
3364,2104;0,078026
3365,1748;0,0778439
3366,1389;0,0776429
3367,1033;0,0774347
3368,0674;0,0772322
3369,0317;0,0770437
3369,9958;0,0768697
3370,9602;0,076704
3371,9243;0,0765387
3372,8887;0,0763698
3373,8528;0,0761986
3374,8171;0,0760301
3375,7813;0,0758683
3376,7456;0,0757132
3377,7097;0,0755601
3378,6741;0,0754019
3379,6382;0,0752326
3380,6025;0,0750495
3381,5667;0,0748542
3382,5310;0,0746528
3383,4951;0,0744556
3384,4595;0,0742753
3385,4236;0,074122
3386,3879;0,0739974
3387,3521;0,0738913
3388,3164;0,0737843
3389,2805;0,0736564
3390,2449;0,0734972
3391,2090;0,0733108
3392,1733;0,0731139
3393,1375;0,0729246
3394,1018;0,0727523
3395,0659;0,0725928
3396,0303;0,072433
3396,9944;0,0722597
3397,9587;0,0720667
3398,9229;0,0718561
3399,8872;0,0716351
3400,8513;0,0714106
3401,8157;0,0711866
3402,7798;0,0709645
3403,7441;0,070745
3404,7083;0,0705294
3405,6726;0,07032
3406,6367;0,0701178
3407,6011;0,069921
3408,5652;0,0697235
3409,5295;0,0695166
3410,4937;0,0692927
3411,4580;0,0690514
3412,4221;0,0688014
3413,3865;0,0685581
3414,3506;0,0683334
3415,3149;0,0681273
3416,2791;0,0679246
3417,2434;0,0677016
3418,2075;0,0674391
3419,1719;0,0671338
3420,1360;0,0668021
3421,1003;0,0664713
3422,0645;0,0661648
3423,0288;0,0658913
3423,9929;0,0656444
3424,9573;0,0654104
3425,9214;0,0651782
3426,8857;0,0649437
3427,8499;0,0647091
3428,8142;0,0644786
3429,7783;0,0642529
3430,7427;0,0640269
3431,7068;0,0637911
3432,6711;0,0635364
3433,6353;0,0632596
3434,5996;0,0629658
3435,5637;0,0626652
3436,5281;0,0623676
3437,4922;0,0620776
3438,4565;0,0617941
3439,4207;0,0615158
3440,3850;0,0612444
3441,3491;0,060984
3442,3135;0,0607339
3443,2776;0,0604824
3444,2419;0,060209
3445,2061;0,0598952
3446,1704;0,0595399
3447,1345;0,0591641
3448,0989;0,0588015
3449,0630;0,0584771
3450,0273;0,0581936
3450,9915;0,0579339
3451,9558;0,0576759
3452,9199;0,0574058
3453,8843;0,0571243
3454,8484;0,0568407
3455,8127;0,0565629
3456,7769;0,0562911
3457,7412;0,0560185
3458,7053;0,0557387
3459,6697;0,0554504
3460,6338;0,0551577
3461,5981;0,0548651
3462,5623;0,0545727
3463,5266;0,0542751
3464,4907;0,0539652
3465,4551;0,0536406
3466,4192;0,0533069
3467,3835;0,0529766
3468,3477;0,0526623
3469,3120;0,0523692
3470,2761;0,0520907
3471,2405;0,0518117
3472,2046;0,0515178
3473,1689;0,0512056
3474,1331;0,0508859
3475,0974;0,0505779
3476,0615;0,050295
3477,0259;0,0500345
3477,9900;0,0497777
3478,9543;0,0495008
3479,9185;0,0491908
3480,8828;0,0488552
3481,8469;0,0485178
3482,8113;0,048202
3483,7754;0,0479146
3484,7397;0,047642
3485,7039;0,0473616
3486,6682;0,0470582
3487,6323;0,0467358
3488,5967;0,0464153
3489,5608;0,0461198
3490,5251;0,0458578
3491,4893;0,0456161
3492,4536;0,0453674
3493,4177;0,0450884
3494,3821;0,0447767
3495,3462;0,0444563
3496,3105;0,044165
3497,2747;0,0439278
3498,2390;0,0437375
3499,2031;0,0435544
3500,1675;0,0433266
3501,1316;0,0430189
3502,0959;0,042638
3503,0601;0,0422327
3504,0244;0,0418628
3504,9885;0,0415584
3505,9529;0,0413044
3506,9170;0,0410575
3507,8813;0,0407762
3508,8455;0,0404456
3509,8098;0,0400834
3510,7739;0,0397253
3511,7383;0,0393999
3512,7024;0,0391151
3513,6667;0,0388612
3514,6309;0,0386254
3515,5952;0,0384014
3516,5593;0,0381892
3517,5237;0,0379881
3518,4878;0,0377905
3519,4521;0,0375827
3520,4163;0,0373513
3521,3806;0,0370902
3522,3447;0,0368036
3523,3091;0,0365011
3524,2732;0,0361898
3525,2375;0,0358689
3526,2017;0,0355331
3527,1660;0,0351818
3528,1301;0,034826
3529,0945;0,0344854
3530,0586;0,0341773
3531,0229;0,0339045
3531,9871;0,0336536
3532,9514;0,0334026
3533,9155;0,033132
3534,8799;0,0328352
3535,8440;0,0325239
3536,8083;0,032225
3537,7725;0,0319695
3538,7368;0,0317768
3539,7009;0,0316434
3540,6653;0,03154
3541,6294;0,0314171
3542,5938;0,0312188
3543,5579;0,0309077
3544,5222;0,0304926
3545,4863;0,0300366
3546,4507;0,0296228
3547,4148;0,0292973
3548,3792;0,0290431
3549,3433;0,0288004
3550,3076;0,0285107
3551,2717;0,0281542
3552,2361;0,0277628
3553,2002;0,0273994
3554,1646;0,0271137
3555,1287;0,0269097
3556,0930;0,0267523
3557,0571;0,0265991
3558,0215;0,0264324
3558,9856;0,0262699
3559,9500;0,0261495
3560,9141;0,026094
3561,8784;0,0260822
3562,8425;0,0260425
3563,8069;0,0258693
3564,7710;0,02546
3565,7354;0,0247854
3566,6995;0,0239637
3567,6638;0,0232221
3568,6279;0,0227261
3569,5923;0,0224774
3570,5564;0,0223729
3571,5208;0,0223021
3572,4849;0,0221943
3573,4492;0,0220252
3574,4133;0,0218042
3575,3777;0,0215538
3576,3418;0,0212933
3577,3062;0,021035
3578,2703;0,0207935
3579,2346;0,0205935
3580,1987;0,0204627
3581,1631;0,020411
3582,1272;0,020413
3583,0916;0,0204058
3584,0557;0,0203034
3585,0200;0,0200258
3585,9841;0,0195512
3586,9485;0,0189736
3587,9126;0,0184757
3588,8770;0,0181904
3589,8411;0,0181063
3590,8054;0,0181123
3591,7695;0,0180872
3592,7339;0,0179562
3593,6980;0,0177133
3594,6624;0,0174149
3595,6265;0,0171344
3596,5908;0,0169033
3597,5549;0,0166919
3598,5193;0,0164475
3599,4834;0,0161487
3600,4478;0,0158318
3601,4119;0,015564
3602,3762;0,0153866
3603,3403;0,0152818
3604,3047;0,0151855
3605,2688;0,0150253
3606,2332;0,0147592
3607,1973;0,0144018
3608,1616;0,014018
3609,1257;0,013679
3610,0901;0,0134167
3611,0542;0,0132209
3612,0186;0,0130682
3612,9827;0,0129441
3613,9470;0,012837
3614,9111;0,012719
3615,8755;0,0125388
3616,8396;0,0122416
3617,8040;0,0118168
3618,7681;0,0113445
3619,7324;0,0109812
3620,6965;0,010857
3621,6609;0,0109818
3622,6250;0,0112573
3623,5894;0,0115463
3624,5535;0,0117177
3625,5178;0,0116542
3626,4819;0,0112623
3627,4463;0,0105377
3628,4104;0,0096676
3629,3748;0,00896927
3630,3389;0,00861172
3631,3032;0,00850645
3632,2673;0,00846883
3633,2317;0,00836881
3634,1958;0,00816985
3635,1602;0,00790657
3636,1243;0,00763939
3637,0886;0,00741122
3638,0527;0,00723117
3639,0171;0,00709087
3639,9812;0,00699103
3640,9456;0,00695093
3641,9097;0,00699296
3642,8740;0,0071175
3643,8381;0,00728858
3644,8025;0,00743258
3645,7666;0,0074366
3646,7310;0,00714989
3647,6951;0,0064564
3648,6594;0,00548045
3649,6235;0,00463467
3650,5879;0,00421547
3651,5520;0,00415559
3652,5164;0,00422724
3653,4805;0,00424509
3654,4448;0,00412166
3655,4089;0,00386761
3656,3733;0,0035705
3657,3374;0,00333301
3658,3018;0,00319819
3659,2659;0,00313628
3660,2302;0,00309776
3661,1943;0,00306733
3662,1587;0,00307407
3663,1228;0,00315824
3664,0872;0,00332621
3665,0513;0,003533
3666,0156;0,00370068
3666,9797;0,00375413
3667,9441;0,00366065
3668,9082;0,00346586
3669,8726;0,00328069
3670,8367;0,00318586
3671,8010;0,00315193
3672,7651;0,00306899
3673,7295;0,00283178
3674,6936;0,00242257
3675,6580;0,00196105
3676,6221;0,00163039
3677,5864;0,00151085
3678,5505;0,00154418
3679,5149;0,00163929
3680,4790;0,0017521
3681,4434;0,00188905
3682,4075;0,00207062
3683,3718;0,00229457
3684,3359;0,00252308
3685,3003;0,00269486
3686,2644;0,00274608
3687,2288;0,00263274
3688,1929;0,00236445
3689,1572;0,0020374
3690,1213;0,00179313
3691,0857;0,00170622
3692,0498;0,00174929
3693,0142;0,00185788
3693,9783;0,00198626
3694,9426;0,00211503
3695,9067;0,00223455
3696,8711;0,00232889
3697,8352;0,00237214
3698,7996;0,00233917
3699,7637;0,00222631
3700,7280;0,00207101
3701,6921;0,0019496
3702,6565;0,00193898
3703,6206;0,00206781
3704,5850;0,00230386
3705,5491;0,00257924
3706,5134;0,00281679
3707,4775;0,00293639
3708,4419;0,00285153
3709,4060;0,00249222
3710,3704;0,00188694
3711,3345;0,00122929
3712,2988;0,000769878
3713,2629;0,000623578
3714,2273;0,000740746
3715,1914;0,00100793
3716,1558;0,00132528
3717,1199;0,00162875
3718,0842;0,00188637
3719,0483;0,00208862
3720,0127;0,00223796
3720,9768;0,00233791
3721,9412;0,00238667
3722,9053;0,00238198
3723,8696;0,00233602
3724,8337;0,00228524
3725,7981;0,00227804
3726,7622;0,00234536
3727,7266;0,00248162
3728,6907;0,00265131
3729,6550;0,00280669
3730,6191;0,0028975
3731,5835;0,00286792
3732,5476;0,00265584
3733,5120;0,0022272
3734,4761;0,00165682
3735,4404;0,001156
3736,4045;0,000931209
3737,3689;0,00102123
3738,3330;0,0013098
3739,2974;0,0016333
3740,2615;0,00185203
3741,2258;0,0018747
3742,1899;0,00167816
3743,1543;0,00134456
3744,1184;0,00106583
3745,0828;0,00101974
3746,0469;0,00120547
3747,0112;0,00145446
3747,9753;0,00156166
3748,9397;0,00138391
3749,9038;0,000922547
3750,8682;0,000389043
3751,8323;7,77483E-05
3752,7966;9,58667E-05
3753,7607;0,000324002
3754,7251;0,000582192
3755,6892;0,000742247
3756,6536;0,000751957
3757,6177;0,000633846
3758,5820;0,000472047
3759,5461;0,000365599
3760,5105;0,000365602
3761,4746;0,000455227
3762,4390;0,000581262
3763,4031;0,000692209
3764,3674;0,000755487
3765,3315;0,000756781
3766,2959;0,000692556
3767,2600;0,000565273
3768,2244;0,000387821
3769,1885;0,000194352
3770,1528;4,13397E-05
3771,1169;-1,57182E-05
3772,0813;4,38718E-05
3773,0454;0,000193147
3774,0098;0,00037414
3774,9739;0,000524588
3775,9382;0,000598635
3776,9023;0,000580666
3777,8667;0,000493762
3778,8308;0,000392985
3779,7952;0,000333459
3780,7593;0,000334316
3781,7236;0,000372983
3782,6877;0,000408338
3783,6521;0,000406357
3784,6162;0,000354374
3785,5806;0,000264333
3786,5447;0,00016684
3787,5090;9,86399E-05
3788,4731;8,83781E-05
3789,4375;0,000146383
3790,4016;0,000262348
3791,3660;0,000411927
3792,3301;0,000569545
3793,2944;0,000721017
3794,2585;0,000867991
3795,2229;0,00101878
3796,1870;0,00116913
3797,1514;0,00128785
3798,1155;0,00132245
3799,0798;0,00122803
3800,0439;0,00100952
3801,0083;0,000744784
3801,9724;0,000538943
3802,9368;0,000431233
3803,9009;0,000364342
3804,8652;0,000248032
3805,8293;4,61874E-05
3806,7937;-0,000175691
3807,7578;-0,000284818
3808,7222;-0,000190054
3809,6863;8,32748E-05
3810,6506;0,00042715
3811,6147;0,000729186
3812,5791;0,000922006
3813,5432;0,000999011
3814,5076;0,00100943
3815,4717;0,00102473
3816,4360;0,00107748
3817,4001;0,00112396
3818,3645;0,00107462
3819,3286;0,000868372
3820,2930;0,000540719
3821,2571;0,000225068
3822,2214;5,31935E-05
3823,1855;5,31713E-05
3824,1499;0,000159282
3825,1140;0,000287653
3826,0784;0,000387713
3827,0425;0,000451327
3828,0068;0,000498062
3828,9709;0,000554324
3829,9353;0,00063853
3830,8994;0,00075666
3831,8638;0,000903128
3832,8279;0,0010603
3833,7922;0,00119648
3834,7563;0,00126814
3835,7207;0,00123193
3836,6848;0,00106846
3837,6492;0,000807801
3838,6133;0,000527227
3839,5776;0,00030281
3840,5417;0,000159734
3841,5061;7,76528E-05
3842,4702;3,55968E-05
3843,4346;4,44552E-05
3844,3987;0,000141839
3845,3630;0,00035903
3846,3271;0,000689668
3847,2915;0,00108291
3848,2556;0,00145646
3849,2200;0,00170898
3850,1841;0,00172098
3851,1484;0,0013664
3852,1125;0,00061268
3853,0769;-0,000279262
3854,0410;-0,000834842
3855,0054;-0,000850143
3855,9695;-0,00050082
3856,9338;-3,96613E-05
3857,8979;0,000374066
3858,8623;0,000673332
3859,8264;0,00084377
3860,7908;0,000897076
3861,7549;0,000862335
3862,7192;0,000786608
3863,6833;0,000726127
3864,6477;0,000718913
3865,6118;0,000762565
3866,5762;0,000820465
3867,5403;0,000844342
3868,5046;0,000794179
3869,4688;0,000654139
3870,4331;0,000446238
3871,3972;0,000229172
3872,3616;7,12153E-05
3873,3257;1,4793E-05
3874,2900;6,10234E-05
3875,2542;0,000178802
3876,2185;0,000324425
3877,1826;0,000459051
3878,1470;0,000559326
3879,1111;0,000619451
3880,0754;0,000643816
3881,0396;0,000633258
3882,0039;0,00057758
3882,9680;0,000467719
3883,9324;0,000321004
3884,8965;0,000190987
3885,8608;0,0001384
3886,8250;0,000181169
3887,7893;0,000274309
3888,7534;0,000339794
3889,7178;0,000319502
3890,6819;0,000220286
3891,6462;0,000122742
3892,6104;0,000126272
3893,5747;0,000266491
3894,5388;0,000494211
3895,5032;0,00072452
3896,4673;0,000889096
3897,4316;0,000957566
3898,3958;0,000934853
3899,3601;0,00084447
3900,3242;0,000704641
3901,2886;0,0005154
3902,2527;0,00027461
3903,2170;9,38639E-06
3904,1812;-0,000218978
3905,1455;-0,000352775
3906,1096;-0,000377377
3907,0740;-0,00032067
3908,0381;-0,000223484
3909,0024;-0,00011383
3909,9666;3,43833E-07
3910,9309;0,000122614
3911,8950;0,00025298
3912,8594;0,000376887
3913,8235;0,000465861
3914,7878;0,000490412
3915,7520;0,000440145
3916,7163;0,000339898
3917,6804;0,000244239
3918,6448;0,000203861
3919,6089;0,00023035
3920,5732;0,000292066
3921,5374;0,000340172
3922,5017;0,000340953
3923,4658;0,000296641
3924,4302;0,000243933
3925,3943;0,000227273
3926,3586;0,000265188
3927,3228;0,000337862
3928,2871;0,000401512
3929,2512;0,000413358
3930,2156;0,000353504
3931,1797;0,000237106
3932,1440;0,00010856
3933,1082;1,64307E-05
3934,0725;-1,22461E-05
3935,0366;2,17976E-05
3936,0010;0,000100144
3936,9651;0,000197947
3937,9294;0,000289603
3938,8936;0,000352007
3939,8579;0,000370095
3940,8220;0,000344842
3941,7864;0,000297324
3942,7505;0,00026033
3943,7148;0,00025857
3944,6790;0,000291966
3945,6433;0,00033598
3946,6074;0,000356905
3947,5718;0,000331282
3948,5359;0,000259719
3949,5002;0,000167483
3950,4644;8,94863E-05
3951,4287;4,99786E-05
3952,3928;5,27046E-05
3953,3572;8,54588E-05
3954,3213;0,000130436
3955,2856;0,000171988
3956,2498;0,000199582
3957,2141;0,000207641
3958,1782;0,000194641
3959,1426;0,000162977
3960,1067;0,000119393
3961,0710;7,44696E-05
3962,0352;3,98865E-05
3962,9995;2,4184E-05
3963,9636;2,95048E-05
3964,9280;5,15644E-05
3965,8921;8,21406E-05
3966,8564;0,000112487
3967,8206;0,000135848
3968,7849;0,000148628
3969,7490;0,00015044
3970,7134;0,000143398
3971,6775;0,000130989
3972,6418;0,000116796
3973,6060;0,00010335
3974,5703;9,15788E-05
3975,5344;8,12401E-05
3976,4988;7,22048E-05
3977,4629;6,55815E-05
3978,4272;6,35751E-05
3979,3914;6,7814E-05
3980,3557;7,72912E-05
3981,3198;8,78188E-05
3982,2842;9,41847E-05
3983,2483;9,39145E-05
3984,2126;8,96593E-05
3985,1768;8,78166E-05
3986,1411;9,39419E-05
3987,1052;0,000108155
3988,0696;0,000124011
3989,0337;0,000132271
3989,9980;0,000127087
3990,9622;0,00011054
3991,9265;9,18249E-05
3992,8906;8,14429E-05
3993,8550;8,42969E-05
3994,8191;9,63235E-05
3995,7834;0,000106853
3996,7476;0,000105177
3997,7119;8,71795E-05
3998,6760;5,80217E-05
3999,6404;2,9487E-05
4000,6045;7,71509E-05

##### Extended Information
[Comments]
Sample name
Comment
Username
Division
Organization;UNIVERSIDAD INDUSTRIAL DE SANTANDER

[Detailed Information]
Creation date;26/03/2025 7:12 p.m.

Data array type;Linear data array
Horizontal axis;Wavenumber [cm-1]
Vertical axis;Abs
Start;399,193 cm-1
End;4000,6 cm-1
Data interval;0,964233 cm-1
Data points;3736    

[Measurement Information]
Model name;FT/IR-4X1typeA
Serial No.;A035162111

Accessory;ATR PRO 4X
Accessory S/N;A021162126
Incident angle;45 deg

Measurement date;26/03/2025 7:11 p.m.

Light source;Standard
Detector;TGS
Accumulation;40
Resolution;4 cm-1
Zero filling;On
Apodization;Cosine
Gain;Auto (8)
Aperture;Auto (7 mm)
Scan speed;Auto (2 mm/sec)
Filter;Auto (12800 Hz)

