TITLE;
DATA TYPE;INFRARED SPECTRUM
ORIGIN;JASCO
OWNER;
DATE;25/03/26
TIME;20:05:44
SPECTROMETER/DATA SYSTEM;
LOCALE;9226
RESOLUTION;
DELTAX;0,964233
XUNITS;1/CM
YUNITS;ABSORBANCE
FIRSTX;  399,1927
LASTX; 4000,6047
NPOINTS;    3736
FIRSTY;     0,14448
MAXY;     0,22012
MINY;     0,01402
XYDATA
399,1927;0,144481
400,1569;0,142294
401,1211;0,141204
402,0854;0,14099
403,0496;0,141232
404,0138;0,141584
404,9781;0,141844
405,9423;0,141935
406,9065;0,141848
407,8708;0,14159
408,8350;0,141188
409,7992;0,140741
410,7635;0,140465
411,7277;0,140631
412,6919;0,14141
413,6562;0,14275
414,6204;0,144403
415,5846;0,146008
416,5489;0,147162
417,5131;0,147504
418,4773;0,146992
419,4416;0,146175
420,4058;0,145807
421,3700;0,146145
422,3343;0,146927
423,2985;0,147765
424,2627;0,148381
425,2270;0,148689
426,1912;0,148785
427,1554;0,148859
428,1197;0,149058
429,0839;0,149386
430,0481;0,149711
431,0124;0,14985
431,9766;0,1497
432,9408;0,149321
433,9051;0,14894
434,8693;0,148835
435,8335;0,149183
436,7978;0,149952
437,7620;0,150931
438,7262;0,151854
439,6905;0,152527
440,6547;0,152858
441,6189;0,152828
442,5832;0,152443
443,5474;0,151733
444,5116;0,150774
445,4759;0,149715
446,4401;0,148747
447,4043;0,14803
448,3686;0,147631
449,3328;0,147505
450,2970;0,14753
451,2613;0,147587
452,2255;0,147631
453,1897;0,147699
454,1540;0,147845
455,1182;0,148054
456,0824;0,148201
457,0467;0,148098
458,0109;0,147632
458,9751;0,146904
459,9394;0,146187
460,9036;0,145739
461,8678;0,145664
462,8321;0,1459
463,7963;0,146292
464,7605;0,146656
465,7248;0,146853
466,6890;0,146835
467,6532;0,146635
468,6175;0,146317
469,5817;0,145934
470,5459;0,145522
471,5102;0,145121
472,4744;0,1448
473,4386;0,144632
474,4029;0,144644
475,3671;0,144793
476,3313;0,144992
477,2956;0,145169
478,2598;0,145298
479,2240;0,145406
480,1883;0,145544
481,1525;0,145741
482,1167;0,145979
483,0810;0,146206
484,0452;0,146383
485,0094;0,146531
485,9737;0,146724
486,9379;0,147033
487,9021;0,147479
488,8664;0,148002
489,8306;0,148489
490,7948;0,148824
491,7591;0,148954
492,7233;0,148923
493,6875;0,148864
494,6518;0,148926
495,6160;0,149195
496,5802;0,149655
497,5445;0,150209
498,5087;0,150733
499,4729;0,151142
500,4372;0,15142
501,4014;0,151629
502,3656;0,15185
503,3299;0,152116
504,2941;0,15239
505,2583;0,1526
506,2226;0,152717
507,1868;0,152791
508,1510;0,152939
509,1153;0,153264
510,0795;0,153786
511,0437;0,154424
512,0080;0,155046
512,9722;0,155546
513,9365;0,155889
514,9007;0,156116
515,8649;0,156306
516,8292;0,156535
517,7934;0,156841
518,7576;0,15722
519,7219;0,157637
520,6861;0,158053
521,6503;0,158428
522,6146;0,158724
523,5788;0,158908
524,5430;0,158968
525,5073;0,158933
526,4715;0,158864
527,4357;0,158816
528,4000;0,1588
529,3642;0,158779
530,3284;0,158719
531,2927;0,158616
532,2569;0,158518
533,2211;0,15849
534,1854;0,158559
535,1496;0,158683
536,1138;0,158763
537,0781;0,158704
538,0423;0,158489
539,0065;0,158196
539,9708;0,157966
540,9350;0,157924
541,8992;0,158111
542,8635;0,158463
543,8277;0,158853
544,7919;0,159154
545,7562;0,159308
546,7204;0,159362
547,6846;0,159441
548,6489;0,159683
549,6131;0,160163
550,5773;0,160854
551,5416;0,161646
552,5058;0,162399
553,4700;0,163021
554,4343;0,163497
555,3985;0,163877
556,3627;0,164218
557,3270;0,164521
558,2912;0,16471
559,2554;0,164671
560,2197;0,164321
561,1839;0,163666
562,1481;0,162793
563,1124;0,161824
564,0766;0,160854
565,0408;0,159917
566,0051;0,159016
566,9693;0,15816
567,9335;0,157393
568,8978;0,156784
569,8620;0,156378
570,8262;0,156167
571,7905;0,156094
572,7547;0,156087
573,7189;0,156091
574,6832;0,156071
575,6474;0,156007
576,6116;0,155882
577,5759;0,155681
578,5401;0,155413
579,5043;0,155115
580,4686;0,15485
581,4328;0,154673
582,3970;0,15461
583,3613;0,154645
584,3255;0,154733
585,2897;0,154832
586,2540;0,154917
587,2182;0,154979
588,1824;0,155019
589,1467;0,155036
590,1109;0,155025
591,0751;0,154981
592,0394;0,1549
593,0036;0,154777
593,9678;0,154601
594,9321;0,154362
595,8963;0,154068
596,8605;0,153747
597,8248;0,153446
598,7890;0,153199
599,7532;0,153008
600,7175;0,152833
601,6817;0,152618
602,6459;0,152328
603,6102;0,151968
604,5744;0,15157
605,5386;0,151161
606,5029;0,150736
607,4671;0,150262
608,4313;0,149709
609,3956;0,149088
610,3598;0,148458
611,3240;0,147889
612,2883;0,147419
613,2525;0,147023
614,2167;0,146616
615,1810;0,146104
616,1452;0,145434
617,1094;0,144626
618,0737;0,143752
619,0379;0,142885
620,0021;0,142045
620,9664;0,141198
621,9306;0,140293
622,8948;0,139314
623,8591;0,1383
624,8233;0,137334
625,7875;0,136487
626,7518;0,135788
627,7160;0,135204
628,6802;0,13467
629,6445;0,134121
630,6087;0,133522
631,5729;0,132871
632,5372;0,132183
633,5014;0,131482
634,4656;0,130787
635,4299;0,130114
636,3941;0,129467
637,3583;0,12885
638,3226;0,128263
639,2868;0,127716
640,2510;0,127219
641,2153;0,126777
642,1795;0,126375
643,1437;0,125972
644,1080;0,125515
645,0722;0,124964
646,0364;0,124324
647,0007;0,123645
647,9649;0,123014
648,9291;0,122511
649,8934;0,122185
650,8576;0,122037
651,8218;0,122037
652,7861;0,122146
653,7503;0,12233
654,7145;0,122559
655,6788;0,122805
656,6430;0,123045
657,6072;0,123263
658,5715;0,123452
659,5357;0,123609
660,4999;0,123731
661,4642;0,123821
662,4284;0,123889
663,3926;0,123939
664,3569;0,123939
665,3211;0,123777
666,2853;0,123233
667,2496;0,122058
668,2138;0,120331
669,1780;0,118676
670,1423;0,117598
671,1065;0,116972
672,0707;0,11643
673,0350;0,115703
673,9992;0,114661
674,9634;0,113314
675,9277;0,111798
676,8919;0,110301
677,8561;0,108944
678,8204;0,107732
679,7846;0,106615
680,7488;0,105571
681,7131;0,10464
682,6773;0,103888
683,6415;0,103344
684,6058;0,102976
685,5700;0,102702
686,5342;0,102436
687,4985;0,102129
688,4627;0,101778
689,4269;0,10142
690,3912;0,1011
691,3554;0,10084
692,3196;0,100639
693,2839;0,100472
694,2481;0,100317
695,2123;0,100161
696,1766;0,100003
697,1408;0,0998448
698,1050;0,0996835
699,0693;0,0995081
700,0335;0,0993038
700,9977;0,0990578
701,9620;0,0987632
702,9262;0,0984205
703,8904;0,0980399
704,8547;0,0976384
705,8189;0,0972382
706,7831;0,0968583
707,7474;0,096504
708,7116;0,0961608
709,6758;0,0957992
710,6401;0,0953892
711,6043;0,0949166
712,5685;0,094391
713,5328;0,0938376
714,4970;0,093278
715,4612;0,0927831
716,4255;0,0921685
717,3897;0,0914824
718,3539;0,0907151
719,3182;0,0898986
720,2824;0,0890992
721,2466;0,0883817
722,2109;0,0877699
723,1751;0,0872339
724,1393;0,0867139
725,1036;0,0861568
726,0678;0,0855427
727,0320;0,0848883
727,9963;0,0842299
728,9605;0,0835986
729,9247;0,0830045
730,8890;0,0824389
731,8532;0,081889
732,8174;0,0813513
733,7817;0,0808343
734,7459;0,0803513
735,7101;0,0799083
736,6744;0,0794986
737,6386;0,0791046
738,6028;0,0787072
739,5671;0,0782963
740,5313;0,0778759
741,4955;0,0774608
742,4598;0,0770669
743,4240;0,0766994
744,3882;0,0763488
745,3525;0,0759953
746,3167;0,0756206
747,2809;0,0752187
748,2452;0,0747986
749,2094;0,0743781
750,1736;0,073973
751,1379;0,0735901
752,1021;0,0732263
753,0663;0,0728741
754,0306;0,072527
754,9948;0,0721822
755,9590;0,0718394
756,9233;0,0714984
757,8875;0,0711594
758,8517;0,0708231
759,8160;0,0704922
760,7802;0,0701697
761,7444;0,0698569
762,7087;0,0695515
763,6729;0,0692483
764,6371;0,0689426
765,6014;0,0686348
766,5656;0,0683315
767,5298;0,0680429
768,4941;0,0677771
769,4583;0,0675343
770,4225;0,0673046
771,3868;0,0670712
772,3510;0,0668181
773,3152;0,0665372
774,2795;0,0662335
775,2437;0,0659245
776,2079;0,0656354
777,1722;0,0653908
778,1364;0,0652057
779,1006;0,0650788
780,0649;0,0649903
781,0291;0,0649064
781,9933;0,0647884
782,9576;0,064605
783,9218;0,0643418
784,8860;0,0640059
785,8503;0,0636232
786,8145;0,063232
787,7787;0,062873
788,7430;0,0625801
789,7072;0,0623715
790,6714;0,0622446
791,6357;0,0621764
792,5999;0,0621307
793,5641;0,0620695
794,5284;0,0619662
795,4926;0,061812
796,4568;0,0616156
797,4211;0,0613961
798,3853;0,0611747
799,3495;0,0609681
800,3138;0,060786
801,2780;0,0606307
802,2422;0,0604978
803,2065;0,0603782
804,1707;0,0602615
805,1349;0,0601409
806,0992;0,0600163
807,0634;0,0598939
808,0276;0,0597812
808,9919;0,0596813
809,9561;0,0595911
810,9203;0,0595037
811,8846;0,0594144
812,8488;0,0593255
813,8130;0,0592445
814,7773;0,059179
815,7415;0,0591306
816,7057;0,0590928
817,6700;0,0590545
818,6342;0,0590066
819,5984;0,0589472
820,5627;0,0588817
821,5269;0,0588197
822,4911;0,0587682
823,4554;0,0587276
824,4196;0,0586922
825,3839;0,0586545
826,3481;0,0586109
827,3123;0,0585647
828,2766;0,0585229
829,2408;0,058489
830,2050;0,0584552
831,1693;0,0584024
832,1335;0,0583083
833,0977;0,0581611
834,0620;0,0579686
835,0262;0,0577557
835,9904;0,057551
836,9547;0,05737
837,9189;0,0572078
838,8831;0,0570462
839,8474;0,0568691
840,8116;0,0566762
841,7758;0,0564835
842,7401;0,0563122
843,7043;0,0561728
844,6685;0,0560589
845,6328;0,0559531
846,5970;0,0558415
847,5612;0,0557261
848,5255;0,0556249
849,4897;0,0555609
850,4539;0,0555455
851,4182;0,0555688
852,3824;0,0556021
853,3466;0,0556111
854,3109;0,0555722
855,2751;0,0554835
856,2393;0,0553629
857,2036;0,0552382
858,1678;0,0551339
859,1320;0,0550644
860,0963;0,0550329
861,0605;0,0550377
862,0247;0,0550755
862,9890;0,0551426
863,9532;0,0552318
864,9174;0,0553312
865,8817;0,0554271
866,8459;0,0555111
867,8101;0,0555852
868,7744;0,0556622
869,7386;0,0557599
870,7028;0,0558919
871,6671;0,0560613
872,6313;0,0562587
873,5955;0,0564658
874,5598;0,0566608
875,5240;0,0568254
876,4882;0,0569508
877,4525;0,0570413
878,4167;0,0571142
879,3809;0,0571951
880,3452;0,0573094
881,3094;0,0574755
882,2736;0,0577011
883,2379;0,0579872
884,2021;0,0583333
885,1663;0,0587417
886,1306;0,0592175
887,0948;0,0597642
888,0590;0,0603788
889,0233;0,0610501
889,9875;0,0617604
890,9517;0,062488
891,9160;0,063209
892,8802;0,0638966
893,8444;0,0645207
894,8087;0,0650495
895,7729;0,0654541
896,7371;0,0657145
897,7014;0,0658245
898,6656;0,0657921
899,6298;0,0656358
900,5941;0,0653786
901,5583;0,0650426
902,5225;0,064649
903,4868;0,0642193
904,4510;0,0637776
905,4152;0,0633506
906,3795;0,0629627
907,3437;0,0626313
908,3079;0,0623643
909,2722;0,0621627
910,2364;0,0620254
911,2007;0,0619529
912,1649;0,0619464
913,1292;0,0620037
914,0934;0,0621155
915,0576;0,062265
916,0219;0,0624336
916,9861;0,0626077
917,9503;0,0627844
918,9146;0,0629711
919,8788;0,0631807
920,8430;0,0634229
921,8073;0,0636964
922,7715;0,0639848
923,7357;0,0642593
924,7000;0,0644891
925,6642;0,0646538
926,6284;0,0647536
927,5927;0,0648096
928,5569;0,0648537
929,5211;0,0649139
930,4854;0,0650035
931,4496;0,0651212
932,4138;0,0652599
933,3781;0,0654178
934,3423;0,0656018
935,3065;0,0658219
936,2708;0,0660808
937,2350;0,0663682
938,1992;0,066666
939,1635;0,06696
940,1277;0,0672516
941,0919;0,06756
942,0562;0,0679146
943,0204;0,0683416
943,9846;0,0688535
944,9489;0,0694478
945,9131;0,0701131
946,8773;0,0708378
947,8416;0,071615
948,8058;0,0724416
949,7700;0,0733135
950,7343;0,0742223
951,6985;0,0751562
952,6627;0,0761072
953,6270;0,0770774
954,5912;0,0780815
955,5554;0,0791423
956,5197;0,0802801
957,4839;0,0815038
958,4481;0,082807
959,4124;0,0841737
960,3766;0,0855866
961,3408;0,0870363
962,3051;0,0885215
963,2693;0,0900452
964,2335;0,0916074
965,1978;0,0932033
966,1620;0,0948276
967,1262;0,0964833
968,0905;0,0981878
969,0547;0,099972
970,0189;0,101872
970,9832;0,10392
971,9474;0,106138
972,9116;0,108542
973,8759;0,111144
974,8401;0,113965
975,8043;0,117025
976,7686;0,120336
977,7328;0,123889
978,6970;0,127645
979,6613;0,131529
980,6255;0,135439
981,5897;0,139256
982,5540;0,142857
983,5182;0,146135
984,4824;0,149016
985,4467;0,151473
986,4109;0,153525
987,3751;0,155234
988,3394;0,156679
989,3036;0,157938
990,2678;0,159066
991,2321;0,160097
992,1963;0,161043
993,1605;0,161912
994,1248;0,162714
995,0890;0,163465
996,0532;0,164183
997,0175;0,164881
997,9817;0,165564
998,9459;0,166224
999,9102;0,166852
1000,8744;0,167446
1001,8386;0,168023
1002,8029;0,168622
1003,7671;0,169305
1004,7313;0,170135
1005,6956;0,171169
1006,6598;0,172439
1007,6240;0,173953
1008,5883;0,175698
1009,5525;0,177645
1010,5167;0,179759
1011,4810;0,182
1012,4452;0,184325
1013,4094;0,186691
1014,3737;0,189054
1015,3379;0,191375
1016,3021;0,193623
1017,2664;0,195783
1018,2306;0,197851
1019,1948;0,199835
1020,1591;0,201753
1021,1233;0,203626
1022,0875;0,205474
1023,0518;0,20731
1024,0160;0,209139
1024,9802;0,210957
1025,9445;0,212747
1026,9087;0,21448
1027,8729;0,216112
1028,8372;0,217582
1029,8014;0,218807
1030,7656;0,219689
1031,7299;0,220123
1032,6941;0,220013
1033,6583;0,219292
1034,6226;0,217955
1035,5868;0,216073
1036,5510;0,213799
1037,5153;0,211346
1038,4795;0,208949
1039,4437;0,206819
1040,4080;0,205104
1041,3722;0,203872
1042,3364;0,203112
1043,3007;0,202754
1044,2649;0,202694
1045,2291;0,202812
1046,1934;0,202992
1047,1576;0,20313
1048,1218;0,203153
1049,0861;0,203008
1050,0503;0,20267
1051,0145;0,202121
1051,9788;0,201351
1052,9430;0,20035
1053,9072;0,199112
1054,8715;0,197635
1055,8357;0,195906
1056,7999;0,193892
1057,7642;0,19153
1058,7284;0,188748
1059,6926;0,185499
1060,6569;0,181801
1061,6211;0,177755
1062,5853;0,173537
1063,5496;0,169345
1064,5138;0,165353
1065,4780;0,161668
1066,4423;0,158329
1067,4065;0,155318
1068,3707;0,152591
1069,3350;0,150101
1070,2992;0,147806
1071,2634;0,145666
1072,2277;0,143638
1073,1919;0,141671
1074,1561;0,139712
1075,1204;0,137718
1076,0846;0,135666
1077,0488;0,133562
1078,0131;0,13144
1078,9773;0,129353
1079,9415;0,127364
1080,9058;0,125528
1081,8700;0,12389
1082,8342;0,12247
1083,7985;0,121271
1084,7627;0,120276
1085,7269;0,119459
1086,6912;0,118788
1087,6554;0,118241
1088,6196;0,1178
1089,5839;0,117459
1090,5481;0,117222
1091,5123;0,117095
1092,4766;0,117086
1093,4408;0,117199
1094,4050;0,117434
1095,3693;0,117784
1096,3335;0,118231
1097,2977;0,118755
1098,2620;0,119328
1099,2262;0,11992
1100,1904;0,120499
1101,1547;0,121033
1102,1189;0,121486
1103,0831;0,121826
1104,0474;0,122031
1105,0116;0,122094
1105,9758;0,122023
1106,9401;0,121839
1107,9043;0,121551
1108,8685;0,121147
1109,8328;0,120583
1110,7970;0,119794
1111,7612;0,118726
1112,7255;0,117367
1113,6897;0,115766
1114,6539;0,114027
1115,6182;0,112281
1116,5824;0,110645
1117,5466;0,109189
1118,5109;0,107924
1119,4751;0,106811
1120,4393;0,105778
1121,4036;0,104739
1122,3678;0,103613
1123,3320;0,102328
1124,2963;0,100839
1125,2605;0,0991278
1126,2247;0,097214
1127,1890;0,0951467
1128,1532;0,0929924
1129,1174;0,0908176
1130,0817;0,0886735
1131,0459;0,086591
1132,0101;0,0845861
1132,9744;0,0826703
1133,9386;0,0808611
1134,9028;0,0791875
1135,8671;0,0776871
1136,8313;0,0763988
1137,7955;0,0753527
1138,7598;0,0745621
1139,7240;0,07402
1140,6882;0,0737012
1141,6525;0,0735684
1142,6167;0,0735813
1143,5809;0,0737044
1144,5452;0,0739112
1145,5094;0,0741856
1146,4736;0,0745201
1147,4379;0,074914
1148,4021;0,0753712
1149,3663;0,0758979
1150,3306;0,0764976
1151,2948;0,0771654
1152,2590;0,0778828
1153,2233;0,0786168
1154,1875;0,0793238
1155,1517;0,079957
1156,1160;0,0804713
1157,0802;0,0808234
1158,0444;0,0809659
1159,0087;0,0808406
1159,9729;0,0803778
1160,9371;0,0795054
1161,9014;0,0781686
1162,8656;0,076351
1163,8298;0,0740888
1164,7941;0,0714709
1165,7583;0,0686241
1166,7225;0,0656902
1167,6868;0,0628023
1168,6510;0,0600661
1169,6152;0,0575511
1170,5795;0,0552901
1171,5437;0,0532864
1172,5079;0,0515248
1173,4722;0,0499831
1174,4364;0,0486408
1175,4006;0,047482
1176,3649;0,0464946
1177,3291;0,0456655
1178,2933;0,0449775
1179,2576;0,0444082
1180,2218;0,0439329
1181,1860;0,0435302
1182,1503;0,0431869
1183,1145;0,0428995
1184,0787;0,0426723
1185,0430;0,0425118
1186,0072;0,0424227
1186,9714;0,0424057
1187,9357;0,0424591
1188,8999;0,0425822
1189,8641;0,0427773
1190,8284;0,0430486
1191,7926;0,0433991
1192,7568;0,0438258
1193,7211;0,0443196
1194,6853;0,0448665
1195,6495;0,0454516
1196,6138;0,046062
1197,5780;0,0466865
1198,5422;0,0473149
1199,5065;0,0479449
1200,4707;0,0485487
1201,4349;0,0491281
1202,3992;0,0496786
1203,3634;0,0501985
1204,3276;0,0506859
1205,2919;0,051138
1206,2561;0,0515516
1207,2203;0,0519285
1208,1846;0,0522793
1209,1488;0,0526261
1210,1130;0,0529996
1211,0773;0,0534321
1212,0415;0,0539491
1213,0057;0,0545626
1213,9700;0,0552685
1214,9342;0,0560493
1215,8984;0,0568788
1216,8627;0,057729
1217,8269;0,0585749
1218,7911;0,0593992
1219,7554;0,0601932
1220,7196;0,0609565
1221,6838;0,0616932
1222,6481;0,0624077
1223,6123;0,0631014
1224,5765;0,0637718
1225,5408;0,0644149
1226,5050;0,0650268
1227,4692;0,0656057
1228,4335;0,0661504
1229,3977;0,0666584
1230,3619;0,0671246
1231,3262;0,067542
1232,2904;0,0679048
1233,2546;0,0682113
1234,2189;0,0684648
1235,1831;0,0686722
1236,1473;0,0688407
1237,1116;0,0689754
1238,0758;0,0690786
1239,0400;0,0691504
1240,0043;0,0691902
1240,9685;0,069197
1241,9327;0,0691693
1242,8970;0,0691043
1243,8612;0,0689979
1244,8254;0,0688457
1245,7897;0,0686443
1246,7539;0,0683938
1247,7181;0,0680982
1248,6824;0,0677657
1249,6466;0,0674073
1250,6108;0,0670351
1251,5751;0,0666593
1252,5393;0,0662871
1253,5035;0,0659215
1254,4678;0,0655616
1255,4320;0,0652038
1256,3962;0,0648436
1257,3605;0,0644761
1258,3247;0,0640972
1259,2889;0,0637029
1260,2532;0,0632891
1261,2174;0,0628512
1262,1816;0,0623857
1263,1459;0,0618909
1264,1101;0,0613674
1265,0743;0,0608181
1266,0386;0,0602462
1267,0028;0,0596543
1267,9670;0,0590447
1268,9313;0,0584206
1269,8955;0,0577881
1270,8597;0,0571545
1271,8240;0,0565265
1272,7882;0,055907
1273,7524;0,0552954
1274,7167;0,0546902
1275,6809;0,0540925
1276,6451;0,0535065
1277,6094;0,0529375
1278,5736;0,0523867
1279,5378;0,0518494
1280,5021;0,0513163
1281,4663;0,0507791
1282,4305;0,0502356
1283,3948;0,0496918
1284,3590;0,0491604
1285,3232;0,0486575
1286,2875;0,0482002
1287,2517;0,0478032
1288,2159;0,0474765
1289,1802;0,047223
1290,1444;0,047037
1291,1086;0,0469074
1292,0729;0,0468232
1293,0371;0,0467799
1294,0013;0,0467815
1294,9656;0,0468392
1295,9298;0,0469653
1296,8940;0,0471678
1297,8583;0,0474483
1298,8225;0,0478022
1299,7867;0,0482219
1300,7510;0,0486984
1301,7152;0,0492228
1302,6794;0,0497878
1303,6437;0,0503888
1304,6079;0,051025
1305,5721;0,0516969
1306,5364;0,0524027
1307,5006;0,0531353
1308,4648;0,0538827
1309,4291;0,0546306
1310,3933;0,055365
1311,3575;0,0560714
1312,3218;0,0567321
1313,2860;0,0573237
1314,2502;0,0578183
1315,2145;0,0581884
1316,1787;0,0584128
1317,1429;0,0584839
1318,1072;0,058412
1319,0714;0,0582266
1320,0356;0,0579684
1320,9999;0,0576777
1321,9641;0,057384
1322,9283;0,0571054
1323,8926;0,0568534
1324,8568;0,0566371
1325,8210;0,0564632
1326,7853;0,056333
1327,7495;0,0562397
1328,7137;0,0561698
1329,6780;0,0561064
1330,6422;0,0560332
1331,6064;0,0559365
1332,5707;0,0558044
1333,5349;0,0556251
1334,4991;0,0553842
1335,4634;0,0550633
1336,4276;0,0546445
1337,3918;0,0541219
1338,3561;0,0535201
1339,3203;0,0528995
1340,2845;0,0523316
1341,2488;0,0518601
1342,2130;0,0514853
1343,1772;0,0511813
1344,1415;0,0509203
1345,1057;0,0506892
1346,0699;0,0504941
1347,0342;0,0503558
1347,9984;0,0502998
1348,9626;0,0503433
1349,9269;0,0504862
1350,8911;0,0507105
1351,8553;0,0509888
1352,8196;0,0512975
1353,7838;0,0516274
1354,7480;0,0519846
1355,7123;0,0523819
1356,6765;0,0528248
1357,6407;0,0533034
1358,6050;0,0537962
1359,5692;0,0542778
1360,5334;0,0547269
1361,4977;0,0551331
1362,4619;0,0555
1363,4261;0,0558405
1364,3904;0,0561676
1365,3546;0,0564869
1366,3188;0,0567946
1367,2831;0,0570791
1368,2473;0,0573222
1369,2115;0,0575011
1370,1758;0,0575903
1371,1400;0,0575635
1372,1042;0,0573972
1373,0685;0,0570834
1374,0327;0,0566457
1374,9969;0,0561384
1375,9612;0,0556122
1376,9254;0,0550773
1377,8896;0,0545013
1378,8539;0,0538425
1379,8181;0,0530882
1380,7823;0,0522726
1381,7466;0,0514564
1382,7108;0,0506838
1383,6750;0,0499527
1384,6393;0,0492232
1385,6035;0,0484607
1386,5677;0,0476873
1387,5320;0,0469916
1388,4962;0,0464651
1389,4604;0,0461294
1390,4247;0,0459355
1391,3889;0,0458108
1392,3531;0,0456969
1393,3174;0,0455663
1394,2816;0,0454264
1395,2458;0,04531
1396,2101;0,0452521
1397,1743;0,0452683
1398,1385;0,0453537
1399,1028;0,0454948
1400,0670;0,0456781
1401,0313;0,045892
1401,9955;0,0461263
1402,9597;0,0463739
1403,9240;0,0466341
1404,8882;0,0469123
1405,8524;0,0472155
1406,8167;0,0475461
1407,7809;0,0479016
1408,7451;0,0482813
1409,7094;0,0486908
1410,6736;0,04914
1411,6378;0,0496335
1412,6021;0,050163
1413,5663;0,0507095
1414,5305;0,051252
1415,4948;0,0517739
1416,4590;0,0522612
1417,4232;0,0527014
1418,3875;0,0530845
1419,3517;0,0534041
1420,3159;0,0536529
1421,2802;0,0538196
1422,2444;0,0538917
1423,2086;0,0538638
1424,1729;0,0537433
1425,1371;0,0535434
1426,1013;0,0532633
1427,0656;0,0528724
1428,0298;0,0523257
1428,9940;0,0516105
1429,9583;0,0507915
1430,9225;0,04999
1431,8867;0,0492989
1432,8510;0,0487147
1433,8152;0,0481451
1434,7794;0,0474707
1435,7437;0,0466451
1436,7079;0,0457767
1437,6721;0,0450662
1438,6364;0,0446248
1439,6006;0,044419
1440,5648;0,04436
1441,5291;0,0443809
1442,4933;0,044452
1443,4575;0,0445659
1444,4218;0,044721
1445,3860;0,0449114
1446,3502;0,0451276
1447,3145;0,0453615
1448,2787;0,0456092
1449,2429;0,0458678
1450,2072;0,0461321
1451,1714;0,0463947
1452,1356;0,0466449
1453,0999;0,0468599
1454,0641;0,0469885
1455,0283;0,0469374
1455,9926;0,0466124
1456,9568;0,0460767
1457,9210;0,0456121
1458,8853;0,04541
1459,8495;0,04541
1460,8137;0,0454685
1461,7780;0,0454546
1462,7422;0,0452457
1463,7064;0,0447448
1464,6707;0,0439594
1465,6349;0,0430469
1466,5991;0,0422002
1467,5634;0,041491
1468,5276;0,0408524
1469,4918;0,0401404
1470,4561;0,0391839
1471,4203;0,0378524
1472,3845;0,0361978
1473,3488;0,0345398
1474,3130;0,0332283
1475,2772;0,0323369
1476,2415;0,0317267
1477,2057;0,0312512
1478,1699;0,0308307
1479,1342;0,0304372
1480,0984;0,0300698
1481,0626;0,0297416
1482,0269;0,029473
1482,9911;0,0292809
1483,9553;0,0291662
1484,9196;0,0291073
1485,8838;0,0290626
1486,8480;0,0289863
1487,8123;0,0288632
1488,7765;0,0287497
1489,7407;0,0287518
1490,7050;0,0289219
1491,6692;0,029223
1492,6334;0,0295918
1493,5977;0,0299858
1494,5619;0,0303863
1495,5261;0,0307921
1496,4904;0,0312208
1497,4546;0,0316997
1498,4188;0,0322373
1499,3831;0,0328089
1500,3473;0,0333808
1501,3115;0,0339309
1502,2758;0,0344423
1503,2400;0,0348826
1504,2042;0,035176
1505,1685;0,0351761
1506,1327;0,0347244
1507,0969;0,0339221
1508,0612;0,0332055
1509,0254;0,0328067
1509,9896;0,0326145
1510,9539;0,0324769
1511,9181;0,0323035
1512,8823;0,0320399
1513,8466;0,0316518
1514,8108;0,0311345
1515,7750;0,0305273
1516,7393;0,0298985
1517,7035;0,0292987
1518,6677;0,0287261
1519,6320;0,0281444
1520,5962;0,0275415
1521,5604;0,026968
1522,5247;0,0265013
1523,4889;0,0261763
1524,4531;0,0259716
1525,4174;0,0258507
1526,3816;0,0257965
1527,3458;0,0258104
1528,3101;0,025889
1529,2743;0,0260101
1530,2385;0,0261354
1531,2028;0,0262281
1532,1670;0,0262804
1533,1312;0,0263357
1534,0955;0,0264654
1535,0597;0,0267084
1536,0239;0,0270467
1536,9882;0,0274223
1537,9524;0,0277462
1538,9166;0,0278938
1539,8809;0,0277606
1540,8451;0,0274425
1541,8093;0,0272338
1542,7736;0,0272649
1543,7378;0,0274503
1544,7020;0,027694
1545,6663;0,0279536
1546,6305;0,028217
1547,5947;0,0284788
1548,5590;0,0287305
1549,5232;0,0289632
1550,4874;0,0291773
1551,4517;0,0293902
1552,4159;0,0296289
1553,3801;0,0299116
1554,3444;0,0302317
1555,3086;0,0305483
1556,2728;0,0307798
1557,2371;0,0308224
1558,2013;0,0306802
1559,1655;0,0305906
1560,1298;0,0307409
1561,0940;0,0310691
1562,0582;0,0314737
1563,0225;0,0319079
1563,9867;0,0323488
1564,9509;0,0327735
1565,9152;0,0331589
1566,8794;0,0334978
1567,8436;0,033818
1568,8079;0,0341778
1569,7721;0,0346188
1570,7363;0,0351264
1571,7006;0,0356531
1572,6648;0,0361626
1573,6290;0,036645
1574,5933;0,0371132
1575,5575;0,0375971
1576,5217;0,0381249
1577,4860;0,0386954
1578,4502;0,0392869
1579,4144;0,0398901
1580,3787;0,0405107
1581,3429;0,0411517
1582,3071;0,0418049
1583,2714;0,0424562
1584,2356;0,0430973
1585,1998;0,0437309
1586,1641;0,0443634
1587,1283;0,0449917
1588,0925;0,0455971
1589,0568;0,0461515
1590,0210;0,0466258
1590,9852;0,0469954
1591,9495;0,0472386
1592,9137;0,0473376
1593,8779;0,0472871
1594,8422;0,0471044
1595,8064;0,0468286
1596,7706;0,0465034
1597,7349;0,0461588
1598,6991;0,0458055
1599,6633;0,0454423
1600,6276;0,0450683
1601,5918;0,04469
1602,5560;0,044321
1603,5203;0,0439741
1604,4845;0,043652
1605,4487;0,0433431
1606,4130;0,0430273
1607,3772;0,0426914
1608,3414;0,0423487
1609,3057;0,0420437
1610,2699;0,0418261
1611,2341;0,0417154
1612,1984;0,0416844
1613,1626;0,0416682
1614,1268;0,0415836
1615,0911;0,041368
1616,0553;0,0410475
1617,0195;0,0407546
1617,9838;0,0406111
1618,9480;0,0406214
1619,9122;0,040711
1620,8765;0,0407995
1621,8407;0,0408353
1622,8049;0,0408101
1623,7692;0,0407562
1624,7334;0,0407142
1625,6976;0,0406969
1626,6619;0,0406923
1627,6261;0,040694
1628,5903;0,0407182
1629,5546;0,0407911
1630,5188;0,0409225
1631,4830;0,0410894
1632,4473;0,0412317
1633,4115;0,0412552
1634,3757;0,041064
1635,3400;0,0406651
1636,3042;0,0402446
1637,2684;0,0399974
1638,2327;0,03994
1639,1969;0,0399918
1640,1611;0,0400921
1641,1254;0,0402171
1642,0896;0,0403522
1643,0538;0,040461
1644,0181;0,0404671
1644,9823;0,0402793
1645,9465;0,0398945
1646,9108;0,0394883
1647,8750;0,0392799
1648,8392;0,0393174
1649,8035;0,0394799
1650,7677;0,0395588
1651,7319;0,0392874
1652,6962;0,0385055
1653,6604;0,037529
1654,6246;0,0369068
1655,5889;0,0367204
1656,5531;0,0367474
1657,5173;0,0368113
1658,4816;0,0368146
1659,4458;0,0366918
1660,4100;0,0364002
1661,3743;0,0359558
1662,3385;0,0354649
1663,3027;0,0350641
1664,2670;0,0348139
1665,2312;0,0346711
1666,1954;0,0345323
1667,1597;0,0342789
1668,1239;0,0338256
1669,0881;0,0331972
1670,0524;0,0325532
1671,0166;0,0320589
1671,9808;0,0317365
1672,9451;0,0314875
1673,9093;0,0312041
1674,8735;0,0308499
1675,8378;0,0304816
1676,8020;0,0301957
1677,7662;0,030045
1678,7305;0,0300092
1679,6947;0,030019
1680,6589;0,0299728
1681,6232;0,0297387
1682,5874;0,0292023
1683,5516;0,028419
1684,5159;0,0276801
1685,4801;0,0272228
1686,4443;0,027023
1687,4086;0,0269523
1688,3728;0,0269263
1689,3370;0,0269198
1690,3013;0,0269379
1691,2655;0,0269872
1692,2297;0,027059
1693,1940;0,0271268
1694,1582;0,0271549
1695,1224;0,0271139
1696,0867;0,0269963
1697,0509;0,0268238
1698,0151;0,0266402
1698,9794;0,0264952
1699,9436;0,0264284
1700,9078;0,0264558
1701,8721;0,0265684
1702,8363;0,0267458
1703,8005;0,0269695
1704,7648;0,0272295
1705,7290;0,0275243
1706,6932;0,0278578
1707,6575;0,0282321
1708,6217;0,0286456
1709,5859;0,0290936
1710,5502;0,0295678
1711,5144;0,030053
1712,4786;0,0305236
1713,4429;0,030946
1714,4071;0,0312893
1715,3713;0,0315527
1716,3356;0,0317962
1717,2998;0,0321147
1718,2640;0,0325433
1719,2283;0,0330377
1720,1925;0,0335488
1721,1567;0,0340573
1722,1210;0,0345581
1723,0852;0,0350436
1724,0494;0,0355
1725,0137;0,0359155
1725,9779;0,0362883
1726,9421;0,036628
1727,9064;0,0369471
1728,8706;0,0372479
1729,8348;0,0375095
1730,7991;0,0376784
1731,7633;0,0376772
1732,7275;0,0374589
1733,6918;0,0370885
1734,6560;0,0367191
1735,6202;0,0364443
1736,5845;0,0362353
1737,5487;0,0360028
1738,5129;0,0356629
1739,4772;0,0351748
1740,4414;0,0345623
1741,4056;0,033901
1742,3699;0,0332626
1743,3341;0,0326687
1744,2983;0,0320957
1745,2626;0,0315046
1746,2268;0,0308542
1747,1910;0,0300981
1748,1553;0,0291984
1749,1195;0,0281742
1750,0837;0,0271385
1751,0480;0,0262347
1752,0122;0,0255261
1752,9764;0,0249691
1753,9407;0,0244726
1754,9049;0,0239612
1755,8691;0,0234107
1756,8334;0,0228482
1757,7976;0,0223186
1758,7618;0,021839
1759,7261;0,0213849
1760,6903;0,0209233
1761,6545;0,0204578
1762,6188;0,0200356
1763,5830;0,0197057
1764,5472;0,0194764
1765,5115;0,0193141
1766,4757;0,0191694
1767,4399;0,0190029
1768,4042;0,0187932
1769,3684;0,0185328
1770,3326;0,018222
1771,2969;0,017878
1772,2611;0,0175501
1773,2253;0,0173038
1774,1896;0,017175
1775,1538;0,0171487
1776,1180;0,0171786
1777,0823;0,0172143
1778,0465;0,0172187
1779,0107;0,0171789
1779,9750;0,0171092
1780,9392;0,0170375
1781,9034;0,0169836
1782,8677;0,0169482
1783,8319;0,0169236
1784,7961;0,0169084
1785,7604;0,0169124
1786,7246;0,0169461
1787,6888;0,0170071
1788,6531;0,017072
1789,6173;0,0170991
1790,5815;0,0170448
1791,5458;0,0168984
1792,5100;0,0167089
1793,4742;0,0165564
1794,4385;0,0164878
1795,4027;0,0164972
1796,3669;0,0165519
1797,3312;0,0166155
1798,2954;0,0166598
1799,2596;0,0166709
1800,2239;0,0166528
1801,1881;0,0166231
1802,1523;0,0165998
1803,1166;0,0165929
1804,0808;0,0166037
1805,0450;0,0166288
1806,0093;0,0166621
1806,9735;0,0166936
1807,9377;0,0167109
1808,9020;0,0167031
1809,8662;0,0166696
1810,8304;0,0166247
1811,7947;0,0165916
1812,7589;0,0165875
1813,7231;0,0166134
1814,6874;0,0166545
1815,6516;0,0166899
1816,6158;0,0167052
1817,5801;0,0167033
1818,5443;0,0167021
1819,5085;0,0167214
1820,4728;0,0167671
1821,4370;0,0168274
1822,4012;0,0168816
1823,3655;0,0169145
1824,3297;0,0169259
1825,2939;0,0169273
1826,2582;0,0169255
1827,2224;0,0169117
1828,1866;0,0168673
1829,1509;0,016785
1830,1151;0,0166867
1831,0793;0,0166141
1832,0436;0,0165974
1833,0078;0,0166365
1833,9720;0,0167084
1834,9363;0,0167846
1835,9005;0,0168471
1836,8647;0,0168968
1837,8290;0,0169493
1838,7932;0,0170196
1839,7574;0,0171068
1840,7217;0,0171916
1841,6859;0,0172425
1842,6501;0,0172316
1843,6144;0,0171558
1844,5786;0,0170467
1845,5428;0,0169494
1846,5071;0,016888
1847,4713;0,0168597
1848,4355;0,0168517
1849,3998;0,0168548
1850,3640;0,0168666
1851,3282;0,0168868
1852,2925;0,0169128
1853,2567;0,0169385
1854,2209;0,016959
1855,1852;0,0169771
1856,1494;0,0170041
1857,1136;0,0170528
1858,0779;0,017127
1859,0421;0,0172152
1860,0063;0,017294
1860,9706;0,0173423
1861,9348;0,0173539
1862,8990;0,0173403
1863,8633;0,0173209
1864,8275;0,0173103
1865,7917;0,0173101
1866,7560;0,0173113
1867,7202;0,017304
1868,6844;0,017289
1869,6487;0,0172779
1870,6129;0,0172812
1871,5771;0,0172995
1872,5414;0,0173248
1873,5056;0,0173454
1874,4698;0,0173518
1875,4341;0,0173411
1876,3983;0,0173201
1877,3625;0,0173021
1878,3268;0,0173012
1879,2910;0,0173259
1880,2552;0,0173763
1881,2195;0,017444
1882,1837;0,0175148
1883,1479;0,0175732
1884,1122;0,0176085
1885,0764;0,0176188
1886,0406;0,0176111
1887,0049;0,0175978
1887,9691;0,0175918
1888,9333;0,0176011
1889,8976;0,0176259
1890,8618;0,0176603
1891,8260;0,0176965
1892,7903;0,0177285
1893,7545;0,0177517
1894,7188;0,0177623
1895,6830;0,017759
1896,6472;0,0177461
1897,6115;0,0177335
1898,5757;0,0177322
1899,5399;0,017748
1900,5042;0,017778
1901,4684;0,0178126
1902,4326;0,0178425
1903,3969;0,0178651
1904,3611;0,0178857
1905,3253;0,0179115
1906,2896;0,0179425
1907,2538;0,017968
1908,2180;0,017972
1909,1823;0,0179456
1910,1465;0,0178972
1911,1107;0,0178508
1912,0750;0,0178327
1913,0392;0,0178603
1914,0034;0,017939
1914,9677;0,0180648
1915,9319;0,0182271
1916,8961;0,0184073
1917,8604;0,0185777
1918,8246;0,0187071
1919,7888;0,0187727
1920,7531;0,0187683
1921,7173;0,0187056
1922,6815;0,018607
1923,6458;0,0184956
1924,6100;0,0183874
1925,5742;0,0182905
1926,5385;0,0182154
1927,5027;0,0181827
1928,4669;0,0182202
1929,4312;0,0183468
1930,3954;0,0185518
1931,3596;0,0187906
1932,3239;0,0190035
1933,2881;0,0191493
1934,2523;0,0192261
1935,2166;0,0192677
1936,1808;0,0193179
1937,1450;0,019403
1938,1093;0,0195205
1939,0735;0,0196482
1940,0377;0,0197598
1941,0020;0,0198355
1941,9662;0,0198645
1942,9304;0,0198436
1943,8947;0,0197789
1944,8589;0,0196904
1945,8231;0,0196126
1946,7874;0,0195857
1947,7516;0,0196397
1948,7158;0,0197781
1949,6801;0,0199714
1950,6443;0,0201676
1951,6085;0,0203139
1952,5728;0,0203801
1953,5370;0,0203698
1954,5012;0,0203186
1955,4655;0,0202825
1956,4297;0,0203208
1957,3939;0,0204771
1958,3582;0,0207611
1959,3224;0,0211372
1960,2866;0,0215283
1961,2509;0,0218415
1962,2151;0,0220053
1963,1793;0,0219988
1964,1436;0,0218561
1965,1078;0,0216499
1966,0720;0,0214611
1967,0363;0,0213462
1968,0005;0,0213164
1968,9647;0,021345
1969,9290;0,0213959
1970,8932;0,0214551
1971,8574;0,0215409
1972,8217;0,0216903
1973,7859;0,0219296
1974,7501;0,0222464
1975,7144;0,0225826
1976,6786;0,0228597
1977,6428;0,0230221
1978,6071;0,0230669
1979,5713;0,0230358
1980,5355;0,0229797
1981,4998;0,0229264
1982,4640;0,0228711
1983,4282;0,0227883
1984,3925;0,0226553
1985,3567;0,0224729
1986,3209;0,0222728
1987,2852;0,0221083
1988,2494;0,0220326
1989,2136;0,0220737
1990,1779;0,0222172
1991,1421;0,022407
1992,1063;0,0225703
1993,0706;0,0226575
1994,0348;0,02267
1994,9990;0,0226531
1995,9633;0,0226619
1996,9275;0,0227224
1997,8917;0,0228137
1998,8560;0,0228826
1999,8202;0,0228861
2000,7844;0,0228351
2001,7487;0,0228053
2002,7129;0,0229007
2003,6771;0,0231889
2004,6414;0,023645
2005,6056;0,024144
2006,5698;0,0245185
2007,5341;0,0246546
2008,4983;0,0245603
2009,4625;0,0243518
2010,4268;0,024169
2011,3910;0,024087
2012,3552;0,024082
2013,3195;0,0240675
2014,2837;0,0239683
2015,2479;0,0237878
2016,2122;0,0236234
2017,1764;0,0236155
2018,1406;0,0238592
2019,1049;0,0243391
2020,0691;0,0249315
2021,0333;0,0254636
2021,9976;0,0257892
2022,9618;0,0258451
2023,9260;0,0256683
2024,8903;0,0253718
2025,8545;0,0250901
2026,8187;0,0249205
2027,7830;0,0248891
2028,7472;0,0249554
2029,7114;0,0250489
2030,6757;0,0251141
2031,6399;0,0251377
2032,6041;0,0251427
2033,5684;0,0251581
2034,5326;0,0251887
2035,4968;0,0252094
2036,4611;0,0251843
2037,4253;0,0250931
2038,3895;0,0249416
2039,3538;0,0247522
2040,3180;0,0245478
2041,2822;0,0243426
2042,2465;0,024147
2043,2107;0,0239759
2044,1749;0,0238477
2045,1392;0,0237685
2046,1034;0,0237155
2047,0676;0,0236382
2048,0320;0,0234862
2048,9961;0,0232478
2049,9604;0,0229633
2050,9246;0,0227018
2051,8889;0,0225195
2052,8530;0,0224286
2053,8174;0,0223937
2054,7815;0,0223553
2055,7458;0,0222675
2056,7100;0,0221265
2057,6743;0,0219733
2058,6384;0,0218677
2059,6028;0,0218532
2060,5669;0,0219339
2061,5313;0,0220733
2062,4954;0,0222138
2063,4597;0,022303
2064,4238;0,0223148
2065,3882;0,0222554
2066,3523;0,0221532
2067,3167;0,0220406
2068,2808;0,0219385
2069,2451;0,02185
2070,2092;0,0217662
2071,1736;0,0216752
2072,1377;0,0215713
2073,1021;0,0214576
2074,0662;0,0213445
2075,0305;0,021245
2075,9946;0,0211713
2076,9590;0,0211319
2077,9231;0,0211276
2078,8875;0,0211481
2079,8516;0,0211726
2080,8159;0,0211762
2081,7800;0,021142
2082,7444;0,0210726
2083,7085;0,020991
2084,6729;0,0209304
2085,6370;0,020917
2086,6013;0,0209564
2087,5654;0,0210324
2088,5298;0,0211182
2089,4939;0,0211924
2090,4583;0,021249
2091,4224;0,0212962
2092,3867;0,0213453
2093,3508;0,0214003
2094,3152;0,0214532
2095,2793;0,0214888
2096,2437;0,0214934
2097,2078;0,0214632
2098,1721;0,0214061
2099,1362;0,021339
2100,1006;0,0212813
2101,0647;0,0212506
2102,0291;0,0212556
2102,9932;0,0212929
2103,9575;0,0213461
2104,9216;0,0213907
2105,8860;0,0214048
2106,8501;0,0213796
2107,8145;0,0213248
2108,7786;0,0212633
2109,7429;0,0212191
2110,7070;0,0212054
2111,6714;0,0212197
2112,6355;0,0212488
2113,5999;0,0212782
2114,5640;0,0212999
2115,5283;0,0213136
2116,4924;0,0213238
2117,4568;0,0213372
2118,4209;0,021362
2119,3853;0,0214089
2120,3494;0,0214892
2121,3137;0,0216084
2122,2778;0,0217585
2123,2422;0,0219159
2124,2063;0,0220479
2125,1707;0,022127
2126,1348;0,0221451
2127,0991;0,0221206
2128,0632;0,0220943
2129,0276;0,0221177
2129,9917;0,0222371
2130,9561;0,0224782
2131,9202;0,022834
2132,8845;0,0232582
2133,8486;0,0236733
2134,8130;0,0239941
2135,7771;0,0241651
2136,7415;0,024188
2137,7056;0,0241232
2138,6699;0,0240589
2139,6340;0,024069
2140,5984;0,0241812
2141,5625;0,0243738
2142,5269;0,0245968
2143,4910;0,0248045
2144,4553;0,0249767
2145,4194;0,0251228
2146,3838;0,0252678
2147,3479;0,0254354
2148,3123;0,0256368
2149,2764;0,0258698
2150,2407;0,0261245
2151,2048;0,0263918
2152,1692;0,0266716
2153,1333;0,0269788
2154,0977;0,0273417
2155,0618;0,0277896
2156,0261;0,0283248
2156,9902;0,0288918
2157,9546;0,0293707
2158,9187;0,0296262
2159,8831;0,0295928
2160,8472;0,029321
2161,8115;0,0289404
2162,7756;0,0285786
2163,7400;0,0283016
2164,7041;0,0281009
2165,6685;0,0279222
2166,6326;0,0277113
2167,5969;0,0274502
2168,5610;0,027161
2169,5254;0,026883
2170,4895;0,026645
2171,4539;0,0264552
2172,4180;0,0263104
2173,3823;0,0262114
2174,3464;0,0261659
2175,3108;0,0261745
2176,2749;0,0262132
2177,2393;0,0262348
2178,2034;0,0261919
2179,1677;0,0260649
2180,1318;0,0258716
2181,0962;0,0256501
2182,0603;0,025428
2183,0247;0,025208
2183,9888;0,0249822
2184,9531;0,0247626
2185,9172;0,0245953
2186,8816;0,0245404
2187,8457;0,0246288
2188,8101;0,0248298
2189,7742;0,0250555
2190,7385;0,0252025
2191,7026;0,0252049
2192,6670;0,0250621
2193,6311;0,0248295
2194,5955;0,0245805
2195,5596;0,0243679
2196,5239;0,0242061
2197,4880;0,0240787
2198,4524;0,0239602
2199,4165;0,0238359
2200,3809;0,0237111
2201,3450;0,0236073
2202,3093;0,0235505
2203,2734;0,023558
2204,2378;0,0236269
2205,2019;0,0237324
2206,1663;0,0238363
2207,1304;0,0239043
2208,0947;0,0239221
2209,0588;0,0238989
2210,0232;0,0238554
2210,9873;0,0238047
2211,9517;0,0237419
2212,9158;0,0236514
2213,8801;0,0235287
2214,8442;0,0233945
2215,8086;0,0232886
2216,7727;0,0232423
2217,7371;0,0232511
2218,7012;0,0232725
2219,6655;0,0232548
2220,6296;0,023177
2221,5940;0,0230693
2222,5581;0,0229938
2223,5225;0,0229998
2224,4866;0,0230835
2225,4509;0,0231852
2226,4150;0,0232257
2227,3794;0,0231549
2228,3435;0,0229777
2229,3079;0,0227445
2230,2720;0,0225162
2231,2363;0,022335
2232,2004;0,0222184
2233,1648;0,022171
2234,1289;0,0221937
2235,0933;0,0222779
2236,0574;0,0223904
2237,0217;0,0224715
2237,9858;0,0224571
2238,9502;0,0223166
2239,9143;0,0220787
2240,8787;0,0218214
2241,8428;0,0216308
2242,8071;0,0215529
2243,7712;0,0215732
2244,7356;0,0216353
2245,6997;0,0216828
2246,6641;0,0216932
2247,6282;0,0216815
2248,5925;0,0216755
2249,5566;0,0216859
2250,5210;0,0216951
2251,4851;0,0216711
2252,4495;0,0215943
2253,4136;0,0214749
2254,3779;0,0213478
2255,3420;0,0212507
2256,3064;0,0212008
2257,2705;0,0211868
2258,2349;0,0211796
2259,1990;0,0211518
2260,1633;0,0210927
2261,1274;0,0210102
2262,0918;0,0209229
2263,0559;0,0208479
2264,0203;0,0207929
2264,9844;0,0207559
2265,9487;0,02073
2266,9128;0,0207098
2267,8772;0,0206935
2268,8413;0,0206814
2269,8057;0,0206717
2270,7698;0,0206589
2271,7341;0,0206353
2272,6982;0,0205959
2273,6626;0,0205428
2274,6267;0,0204855
2275,5911;0,0204364
2276,5552;0,0204045
2277,5195;0,020391
2278,4836;0,0203901
2279,4480;0,0203928
2280,4121;0,0203912
2281,3765;0,0203804
2282,3406;0,0203569
2283,3049;0,0203175
2284,2690;0,0202616
2285,2334;0,0201929
2286,1975;0,0201211
2287,1619;0,0200578
2288,1260;0,0200093
2289,0903;0,0199715
2290,0544;0,0199316
2291,0188;0,0198765
2291,9829;0,019803
2292,9473;0,0197215
2293,9114;0,0196508
2294,8757;0,0196066
2295,8398;0,0195934
2296,8042;0,0196044
2297,7683;0,0196287
2298,7327;0,0196601
2299,6968;0,0196991
2300,6611;0,0197469
2301,6252;0,0197982
2302,5896;0,0198396
2303,5537;0,0198555
2304,5181;0,0198383
2305,4822;0,0197961
2306,4465;0,0197509
2307,4106;0,0197298
2308,3750;0,0197535
2309,3391;0,0198288
2310,3035;0,0199479
2311,2676;0,0200942
2312,2319;0,0202485
2313,1960;0,0203946
2314,1604;0,0205213
2315,1245;0,0206233
2316,0889;0,0206991
2317,0530;0,0207477
2318,0173;0,020766
2318,9814;0,0207472
2319,9458;0,0206833
2320,9099;0,0205706
2321,8743;0,0204137
2322,8384;0,0202264
2323,8027;0,0200296
2324,7668;0,019847
2325,7312;0,0197012
2326,6953;0,0196081
2327,6597;0,0195718
2328,6238;0,0195805
2329,5881;0,0196046
2330,5522;0,0196045
2331,5166;0,0195478
2332,4807;0,0194281
2333,4451;0,0192709
2334,4092;0,0191174
2335,3735;0,0189985
2336,3376;0,0189151
2337,3020;0,0188358
2338,2661;0,0187153
2339,2305;0,0185246
2340,1946;0,0182777
2341,1589;0,018045
2342,1230;0,0179381
2343,0874;0,0180458
2344,0515;0,0183354
2345,0159;0,0186466
2345,9800;0,018834
2346,9443;0,0188841
2347,9084;0,0188832
2348,8728;0,0189248
2349,8369;0,0190508
2350,8013;0,0192426
2351,7654;0,0194505
2352,7297;0,0196432
2353,6938;0,0198387
2354,6582;0,0200698
2355,6223;0,0203172
2356,5867;0,0204989
2357,5508;0,0205296
2358,5151;0,0203799
2359,4792;0,0200886
2360,4436;0,0197343
2361,4077;0,0193963
2362,3721;0,0191327
2363,3362;0,0189733
2364,3005;0,01892
2365,2646;0,0189528
2366,2290;0,0190469
2367,1931;0,0191856
2368,1575;0,0193613
2369,1216;0,0195637
2370,0859;0,0197718
2371,0500;0,0199581
2372,0144;0,0200992
2372,9785;0,0201851
2373,9429;0,0202202
2374,9070;0,0202175
2375,8713;0,0201911
2376,8354;0,0201522
2377,7998;0,020108
2378,7639;0,0200638
2379,7283;0,0200256
2380,6924;0,0200011
2381,6567;0,0199984
2382,6208;0,020023
2383,5852;0,0200743
2384,5493;0,0201454
2385,5137;0,0202246
2386,4778;0,0203002
2387,4421;0,0203646
2388,4063;0,0204167
2389,3706;0,0204604
2390,3347;0,0205008
2391,2991;0,0205404
2392,2632;0,0205781
2393,2275;0,0206112
2394,1917;0,0206389
2395,1560;0,0206637
2396,1201;0,0206911
2397,0845;0,0207257
2398,0486;0,0207682
2399,0129;0,0208141
2399,9771;0,0208554
2400,9414;0,0208842
2401,9055;0,0208967
2402,8699;0,0208959
2403,8340;0,0208906
2404,7983;0,0208914
2405,7625;0,0209061
2406,7268;0,0209359
2407,6909;0,0209745
2408,6553;0,0210122
2409,6194;0,021041
2410,5837;0,0210595
2411,5479;0,0210733
2412,5122;0,021092
2413,4763;0,0211233
2414,4407;0,0211688
2415,4048;0,021223
2416,3691;0,0212762
2417,3333;0,0213197
2418,2976;0,0213498
2419,2617;0,0213688
2420,2261;0,0213827
2421,1902;0,0213973
2422,1545;0,0214152
2423,1187;0,0214354
2424,0830;0,021455
2425,0471;0,0214717
2426,0115;0,0214846
2426,9756;0,0214944
2427,9399;0,0215018
2428,9041;0,0215079
2429,8684;0,0215156
2430,8325;0,0215298
2431,7969;0,021556
2432,7610;0,0215973
2433,7253;0,0216502
2434,6895;0,0217049
2435,6538;0,0217484
2436,6179;0,0217716
2437,5823;0,0217744
2438,5464;0,0217659
2439,5107;0,0217597
2440,4749;0,0217664
2441,4392;0,0217887
2442,4033;0,0218214
2443,3677;0,0218554
2444,3318;0,0218831
2445,2961;0,0219015
2446,2603;0,0219123
2447,2246;0,0219188
2448,1887;0,0219241
2449,1531;0,0219304
2450,1172;0,0219394
2451,0815;0,0219529
2452,0457;0,0219723
2453,0100;0,0219964
2453,9741;0,0220217
2454,9385;0,0220428
2455,9026;0,0220557
2456,8669;0,0220609
2457,8311;0,0220636
2458,7954;0,022072
2459,7595;0,022093
2460,7239;0,022128
2461,6880;0,0221718
2462,6523;0,0222146
2463,6165;0,0222466
2464,5808;0,0222624
2465,5449;0,0222625
2466,5093;0,0222524
2467,4734;0,022239
2468,4377;0,0222283
2469,4019;0,022224
2470,3662;0,0222279
2471,3303;0,0222403
2472,2947;0,0222605
2473,2588;0,0222864
2474,2231;0,0223143
2475,1873;0,0223397
2476,1516;0,0223585
2477,1157;0,0223683
2478,0801;0,0223692
2479,0442;0,0223644
2480,0085;0,0223602
2480,9727;0,0223644
2481,9370;0,0223828
2482,9011;0,0224158
2483,8655;0,0224559
2484,8296;0,02249
2485,7939;0,0225059
2486,7581;0,0224995
2487,7224;0,0224789
2488,6865;0,0224612
2489,6509;0,0224634
2490,6150;0,0224932
2491,5793;0,022545
2492,5435;0,0226043
2493,5078;0,0226556
2494,4719;0,0226897
2495,4363;0,0227063
2496,4004;0,0227102
2497,3647;0,0227076
2498,3289;0,0227023
2499,2932;0,0226972
2500,2573;0,0226951
2501,2217;0,0226998
2502,1858;0,0227142
2503,1501;0,0227385
2504,1143;0,0227685
2505,0786;0,0227971
2506,0427;0,0228176
2507,0071;0,0228274
2507,9712;0,0228296
2508,9355;0,0228317
2509,8997;0,0228407
2510,8640;0,0228587
2511,8281;0,0228798
2512,7925;0,0228931
2513,7566;0,0228892
2514,7209;0,022867
2515,6851;0,0228367
2516,6494;0,0228149
2517,6135;0,0228151
2518,5779;0,0228394
2519,5420;0,0228768
2520,5063;0,0229107
2521,4705;0,0229289
2522,4348;0,0229317
2523,3989;0,0229298
2524,3633;0,0229364
2525,3274;0,0229574
2526,2917;0,0229871
2527,2559;0,0230122
2528,2202;0,0230198
2529,1843;0,0230054
2530,1487;0,0229749
2531,1128;0,0229408
2532,0771;0,022916
2533,0413;0,0229077
2534,0056;0,0229157
2534,9697;0,0229332
2535,9341;0,0229511
2536,8982;0,0229623
2537,8625;0,0229643
2538,8267;0,0229605
2539,7910;0,0229571
2540,7551;0,0229598
2541,7195;0,02297
2542,6836;0,0229843
2543,6479;0,0229974
2544,6121;0,0230064
2545,5764;0,0230131
2546,5405;0,0230231
2547,5049;0,0230415
2548,4690;0,0230685
2549,4333;0,023099
2550,3975;0,0231254
2551,3618;0,0231424
2552,3259;0,0231505
2553,2903;0,0231555
2554,2544;0,0231643
2555,2188;0,0231802
2556,1829;0,0232013
2557,1472;0,0232205
2558,1113;0,0232296
2559,0757;0,0232219
2560,0398;0,0231956
2561,0042;0,0231548
2561,9683;0,0231095
2562,9326;0,0230732
2563,8967;0,0230589
2564,8611;0,0230725
2565,8252;0,0231093
2566,7896;0,023154
2567,7537;0,023187
2568,7180;0,0231941
2569,6821;0,0231739
2570,6465;0,0231378
2571,6106;0,0231036
2572,5750;0,0230855
2573,5391;0,0230875
2574,5034;0,0231042
2575,4675;0,0231261
2576,4319;0,023146
2577,3960;0,0231618
2578,3604;0,0231747
2579,3245;0,0231861
2580,2888;0,0231962
2581,2529;0,0232051
2582,2173;0,0232144
2583,1814;0,0232271
2584,1458;0,0232444
2585,1099;0,023264
2586,0742;0,0232804
2587,0383;0,0232885
2588,0027;0,023287
2588,9668;0,0232802
2589,9312;0,0232746
2590,8953;0,0232754
2591,8596;0,0232837
2592,8237;0,0232966
2593,7881;0,0233103
2594,7522;0,0233225
2595,7166;0,0233337
2596,6807;0,0233462
2597,6450;0,0233624
2598,6091;0,023383
2599,5735;0,023406
2600,5376;0,0234273
2601,5020;0,0234423
2602,4661;0,0234487
2603,4304;0,0234483
2604,3945;0,0234471
2605,3589;0,0234519
2606,3230;0,0234661
2607,2874;0,0234875
2608,2515;0,0235094
2609,2158;0,0235251
2610,1799;0,0235322
2611,1443;0,0235337
2612,1084;0,0235349
2613,0728;0,0235398
2614,0369;0,0235497
2615,0012;0,0235634
2615,9653;0,0235799
2616,9297;0,0235987
2617,8938;0,0236196
2618,8582;0,0236407
2619,8223;0,0236589
2620,7866;0,0236718
2621,7507;0,0236793
2622,7151;0,0236839
2623,6792;0,0236889
2624,6436;0,0236963
2625,6077;0,0237063
2626,5720;0,0237185
2627,5361;0,0237335
2628,5005;0,0237531
2629,4646;0,0237781
2630,4290;0,0238068
2631,3931;0,0238347
2632,3574;0,023857
2633,3215;0,023871
2634,2859;0,0238783
2635,2500;0,0238837
2636,2144;0,0238928
2637,1785;0,0239098
2638,1428;0,0239354
2639,1069;0,0239674
2640,0713;0,0240021
2641,0354;0,0240358
2641,9998;0,0240659
2642,9639;0,0240913
2643,9282;0,0241121
2644,8923;0,0241291
2645,8567;0,024143
2646,8208;0,0241543
2647,7852;0,0241636
2648,7493;0,024172
2649,7136;0,0241816
2650,6777;0,0241946
2651,6421;0,0242122
2652,6062;0,0242336
2653,5706;0,0242558
2654,5347;0,0242748
2655,4990;0,024288
2656,4631;0,0242954
2657,4275;0,0243005
2658,3916;0,0243078
2659,3560;0,0243205
2660,3201;0,0243381
2661,2844;0,0243569
2662,2485;0,024372
2663,2129;0,0243807
2664,1770;0,0243848
2665,1414;0,0243893
2666,1055;0,0244
2667,0698;0,02442
2668,0339;0,0244478
2668,9983;0,0244794
2669,9624;0,0245104
2670,9268;0,0245387
2671,8909;0,0245648
2672,8552;0,0245898
2673,8193;0,0246142
2674,7837;0,0246367
2675,7478;0,0246555
2676,7122;0,0246698
2677,6763;0,0246805
2678,6406;0,0246903
2679,6047;0,0247032
2680,5691;0,0247229
2681,5332;0,024752
2682,4976;0,0247903
2683,4617;0,0248346
2684,4260;0,0248798
2685,3901;0,0249202
2686,3545;0,0249523
2687,3186;0,0249753
2688,2830;0,0249916
2689,2471;0,0250044
2690,2114;0,0250166
2691,1755;0,0250304
2692,1399;0,0250471
2693,1040;0,0250683
2694,0684;0,0250948
2695,0325;0,0251262
2695,9968;0,0251598
2696,9609;0,0251914
2697,9253;0,0252175
2698,8894;0,0252367
2699,8538;0,0252514
2700,8179;0,025266
2701,7822;0,025286
2702,7463;0,0253148
2703,7107;0,0253526
2704,6748;0,0253963
2705,6392;0,0254408
2706,6033;0,025481
2707,5676;0,0255143
2708,5317;0,0255415
2709,4961;0,0255657
2710,4602;0,0255902
2711,4246;0,0256164
2712,3887;0,0256431
2713,3530;0,0256685
2714,3171;0,0256915
2715,2815;0,0257133
2716,2456;0,0257354
2717,2100;0,0257583
2718,1741;0,0257807
2719,1384;0,0258006
2720,1025;0,0258173
2721,0669;0,0258328
2722,0310;0,0258498
2722,9954;0,0258701
2723,9595;0,0258933
2724,9238;0,0259171
2725,8879;0,0259401
2726,8523;0,025963
2727,8164;0,0259878
2728,7808;0,0260157
2729,7449;0,0260457
2730,7092;0,0260743
2731,6733;0,0260979
2732,6377;0,0261157
2733,6018;0,0261299
2734,5662;0,0261443
2735,5303;0,0261624
2736,4946;0,0261856
2737,4587;0,0262129
2738,4231;0,0262418
2739,3872;0,0262704
2740,3516;0,0262972
2741,3157;0,026322
2742,2800;0,0263446
2743,2441;0,0263649
2744,2085;0,0263818
2745,1726;0,0263939
2746,1370;0,0264001
2747,1011;0,0264009
2748,0654;0,0263992
2749,0295;0,0263998
2749,9939;0,0264081
2750,9580;0,0264275
2751,9224;0,0264581
2752,8865;0,0264966
2753,8508;0,0265378
2754,8149;0,026577
2755,7793;0,0266112
2756,7434;0,0266398
2757,7078;0,026664
2758,6719;0,0266857
2759,6362;0,026707
2760,6003;0,0267296
2761,5647;0,0267544
2762,5288;0,0267812
2763,4932;0,0268088
2764,4573;0,0268363
2765,4216;0,0268634
2766,3857;0,0268915
2767,3501;0,0269222
2768,3142;0,0269564
2769,2786;0,0269927
2770,2427;0,0270279
2771,2070;0,0270588
2772,1711;0,0270844
2773,1355;0,0271077
2774,0996;0,0271339
2775,0640;0,0271683
2776,0281;0,0272127
2776,9924;0,027264
2777,9565;0,0273162
2778,9209;0,0273629
2779,8850;0,0274008
2780,8494;0,027431
2781,8135;0,0274583
2782,7778;0,0274881
2783,7419;0,027524
2784,7063;0,0275661
2785,6704;0,0276115
2786,6348;0,0276561
2787,5989;0,0276976
2788,5632;0,0277369
2789,5273;0,0277781
2790,4917;0,0278266
2791,4558;0,0278855
2792,4202;0,027954
2793,3843;0,0280272
2794,3486;0,0280987
2795,3127;0,0281641
2796,2771;0,0282224
2797,2412;0,0282756
2798,2056;0,0283262
2799,1697;0,0283759
2800,1340;0,0284257
2801,0981;0,0284781
2802,0625;0,0285387
2803,0266;0,0286141
2803,9910;0,0287081
2804,9551;0,0288169
2805,9194;0,0289289
2806,8835;0,0290293
2807,8479;0,0291084
2808,8120;0,0291669
2809,7764;0,0292163
2810,7405;0,0292727
2811,7048;0,0293481
2812,6689;0,0294452
2813,6333;0,0295583
2814,5974;0,0296783
2815,5618;0,0297988
2816,5259;0,0299173
2817,4902;0,0300343
2818,4543;0,0301495
2819,4187;0,030261
2820,3828;0,0303672
2821,3472;0,0304694
2822,3113;0,0305727
2823,2756;0,030684
2824,2397;0,0308086
2825,2041;0,030947
2826,1682;0,0310963
2827,1326;0,0312526
2828,0967;0,0314142
2829,0610;0,0315824
2830,0251;0,0317593
2830,9895;0,031946
2831,9536;0,032141
2832,9180;0,0323418
2833,8821;0,0325471
2834,8464;0,0327573
2835,8105;0,0329753
2836,7749;0,0332043
2837,7390;0,033447
2838,7034;0,0337055
2839,6675;0,033982
2840,6318;0,0342806
2841,5959;0,0346066
2842,5603;0,034965
2843,5244;0,0353571
2844,4888;0,0357774
2845,4529;0,0362119
2846,4172;0,0366382
2847,3813;0,0370287
2848,3457;0,0373558
2849,3098;0,0375986
2850,2742;0,037748
2851,2383;0,0378093
2852,2026;0,0378009
2853,1667;0,0377481
2854,1311;0,0376758
2855,0952;0,0376025
2856,0596;0,0375381
2857,0237;0,0374859
2857,9880;0,0374473
2858,9521;0,0374252
2859,9165;0,0374243
2860,8806;0,0374485
2861,8450;0,0374981
2862,8091;0,0375691
2863,7734;0,0376556
2864,7375;0,037753
2865,7019;0,0378598
2866,6660;0,0379763
2867,6304;0,0381002
2868,5945;0,0382244
2869,5588;0,0383372
2870,5229;0,038428
2871,4873;0,0384929
2872,4514;0,038538
2873,4158;0,0385766
2874,3799;0,0386223
2875,3442;0,0386816
2876,3083;0,0387517
2877,2727;0,0388239
2878,2368;0,0388907
2879,2012;0,0389515
2880,1653;0,0390123
2881,1296;0,039081
2882,0938;0,0391611
2883,0581;0,039249
2884,0222;0,0393369
2884,9866;0,0394194
2885,9507;0,0394978
2886,9150;0,0395798
2887,8792;0,0396742
2888,8435;0,0397844
2889,8076;0,0399053
2890,7720;0,0400256
2891,7361;0,0401346
2892,7004;0,0402274
2893,6646;0,0403067
2894,6289;0,04038
2895,5930;0,0404545
2896,5574;0,040533
2897,5215;0,0406137
2898,4858;0,0406921
2899,4500;0,0407643
2900,4143;0,040829
2901,3784;0,040888
2902,3428;0,0409453
2903,3069;0,0410057
2904,2712;0,0410741
2905,2354;0,041154
2906,1997;0,0412476
2907,1638;0,0413554
2908,1282;0,0414777
2909,0923;0,0416159
2910,0566;0,0417731
2911,0208;0,0419525
2911,9851;0,0421543
2912,9492;0,0423713
2913,9136;0,0425877
2914,8777;0,0427807
2915,8420;0,0429271
2916,8062;0,0430095
2917,7705;0,0430212
2918,7346;0,0429661
2919,6990;0,042856
2920,6631;0,0427051
2921,6274;0,0425267
2922,5916;0,0423307
2923,5559;0,0421228
2924,5200;0,0419052
2925,4844;0,0416776
2926,4485;0,0414395
2927,4128;0,0411924
2928,3770;0,0409419
2929,3413;0,0406961
2930,3054;0,0404625
2931,2698;0,0402442
2932,2339;0,0400388
2933,1982;0,0398405
2934,1624;0,0396438
2935,1267;0,0394472
2936,0908;0,0392521
2937,0552;0,0390601
2938,0193;0,0388697
2938,9836;0,0386754
2939,9478;0,0384702
2940,9121;0,0382498
2941,8762;0,0380156
2942,8406;0,0377742
2943,8047;0,037535
2944,7690;0,0373058
2945,7332;0,0370909
2946,6975;0,0368908
2947,6616;0,0367033
2948,6260;0,036526
2949,5901;0,0363576
2950,5544;0,0361969
2951,5186;0,0360427
2952,4829;0,0358923
2953,4470;0,035742
2954,4114;0,0355891
2955,3755;0,0354327
2956,3398;0,0352756
2957,3040;0,0351221
2958,2683;0,0349764
2959,2324;0,0348395
2960,1968;0,0347087
2961,1609;0,0345784
2962,1252;0,0344433
2963,0894;0,0343011
2964,0537;0,0341531
2965,0178;0,0340034
2965,9822;0,0338556
2966,9463;0,0337103
2967,9106;0,0335641
2968,8748;0,0334111
2969,8391;0,0332459
2970,8032;0,0330673
2971,7676;0,0328801
2972,7317;0,0326939
2973,6960;0,0325193
2974,6602;0,0323634
2975,6245;0,0322278
2976,5886;0,0321085
2977,5530;0,031999
2978,5171;0,0318943
2979,4814;0,0317934
2980,4456;0,0316982
2981,4099;0,0316128
2982,3740;0,03154
2983,3384;0,0314809
2984,3025;0,0314338
2985,2668;0,031395
2986,2310;0,0313594
2987,1953;0,0313223
2988,1594;0,0312808
2989,1238;0,0312351
2990,0879;0,0311893
2991,0522;0,0311487
2992,0164;0,0311179
2992,9807;0,0310979
2993,9448;0,0310865
2994,9092;0,031081
2995,8733;0,0310807
2996,8376;0,0310878
2997,8018;0,0311051
2998,7661;0,0311324
2999,7302;0,0311643
3000,6946;0,0311923
3001,6587;0,0312094
3002,6230;0,0312148
3003,5872;0,0312152
3004,5515;0,0312211
3005,5156;0,0312406
3006,4800;0,0312746
3007,4441;0,0313168
3008,4084;0,031358
3009,3726;0,0313912
3010,3369;0,0314159
3011,3010;0,0314361
3012,2654;0,031458
3013,2295;0,0314853
3014,1938;0,0315187
3015,1580;0,0315575
3016,1223;0,0316019
3017,0864;0,0316537
3018,0508;0,0317145
3019,0149;0,0317835
3019,9792;0,0318563
3020,9434;0,0319269
3021,9077;0,0319908
3022,8718;0,0320479
3023,8362;0,0321018
3024,8003;0,0321578
3025,7646;0,0322194
3026,7288;0,0322865
3027,6931;0,0323562
3028,6572;0,0324251
3029,6216;0,0324909
3030,5857;0,0325528
3031,5500;0,0326119
3032,5142;0,0326707
3033,4785;0,0327331
3034,4426;0,0328039
3035,4070;0,0328864
3036,3711;0,0329804
3037,3354;0,033081
3038,2996;0,0331799
3039,2639;0,0332703
3040,2280;0,0333504
3041,1924;0,0334249
3042,1565;0,0335013
3043,1208;0,0335851
3044,0850;0,0336752
3045,0493;0,0337658
3046,0134;0,0338503
3046,9778;0,0339265
3047,9419;0,0339983
3048,9063;0,0340729
3049,8704;0,0341558
3050,8347;0,0342479
3051,7988;0,0343457
3052,7632;0,034445
3053,7273;0,034544
3054,6917;0,0346437
3055,6558;0,0347469
3056,6201;0,0348554
3057,5842;0,0349686
3058,5486;0,0350837
3059,5127;0,0351975
3060,4771;0,0353065
3061,4412;0,035408
3062,4055;0,0355003
3063,3696;0,035583
3064,3340;0,0356587
3065,2981;0,0357324
3066,2625;0,0358102
3067,2266;0,0358975
3068,1909;0,0359966
3069,1550;0,0361072
3070,1194;0,0362264
3071,0835;0,0363507
3072,0479;0,0364761
3073,0120;0,0365985
3073,9763;0,0367141
3074,9404;0,03682
3075,9048;0,0369155
3076,8689;0,0370018
3077,8333;0,0370822
3078,7974;0,0371609
3079,7617;0,0372424
3080,7258;0,0373303
3081,6902;0,0374274
3082,6543;0,0375339
3083,6187;0,0376474
3084,5828;0,0377633
3085,5471;0,037877
3086,5112;0,0379858
3087,4756;0,0380911
3088,4397;0,0381966
3089,4041;0,0383061
3090,3682;0,0384203
3091,3325;0,038537
3092,2966;0,0386531
3093,2610;0,0387677
3094,2251;0,0388826
3095,1895;0,0389999
3096,1536;0,0391192
3097,1179;0,0392359
3098,0820;0,0393447
3099,0464;0,0394433
3100,0105;0,039536
3100,9749;0,0396322
3101,9390;0,0397407
3102,9033;0,0398638
3103,8674;0,039996
3104,8318;0,0401273
3105,7959;0,0402496
3106,7603;0,0403616
3107,7244;0,0404691
3108,6887;0,0405809
3109,6528;0,0407031
3110,6172;0,0408358
3111,5813;0,0409735
3112,5457;0,0411092
3113,5098;0,0412382
3114,4741;0,0413603
3115,4382;0,0414794
3116,4026;0,0416003
3117,3667;0,0417264
3118,3311;0,0418578
3119,2952;0,0419915
3120,2595;0,0421234
3121,2236;0,04225
3122,1880;0,0423705
3123,1521;0,042487
3124,1165;0,0426045
3125,0806;0,0427279
3126,0449;0,0428599
3127,0090;0,0429993
3127,9734;0,0431415
3128,9375;0,0432812
3129,9019;0,0434152
3130,8660;0,0435441
3131,8303;0,0436715
3132,7944;0,0438012
3133,7588;0,0439346
3134,7229;0,0440711
3135,6873;0,0442097
3136,6514;0,0443504
3137,6157;0,0444943
3138,5798;0,0446418
3139,5442;0,0447898
3140,5083;0,0449328
3141,4727;0,0450661
3142,4368;0,0451896
3143,4011;0,0453088
3144,3652;0,0454318
3145,3296;0,0455651
3146,2937;0,0457098
3147,2581;0,0458631
3148,2222;0,0460214
3149,1865;0,0461836
3150,1506;0,0463503
3151,1150;0,046521
3152,0791;0,0466904
3153,0435;0,0468501
3154,0076;0,0469918
3154,9719;0,0471135
3155,9360;0,0472212
3156,9004;0,0473262
3157,8645;0,0474402
3158,8289;0,0475694
3159,7930;0,0477129
3160,7573;0,0478644
3161,7214;0,0480164
3162,6858;0,0481643
3163,6499;0,0483077
3164,6143;0,0484503
3165,5784;0,0485964
3166,5427;0,0487483
3167,5068;0,0489038
3168,4712;0,0490577
3169,4353;0,049202
3170,3997;0,0493408
3171,3638;0,0494757
3172,3281;0,0496144
3173,2922;0,0497628
3174,2566;0,0499213
3175,2207;0,0500843
3176,1851;0,0502442
3177,1492;0,0503966
3178,1135;0,0505425
3179,0776;0,0506868
3180,0420;0,050833
3181,0061;0,0509801
3181,9705;0,0511241
3182,9346;0,0512618
3183,8989;0,0513948
3184,8630;0,0515292
3185,8274;0,0516716
3186,7915;0,0518239
3187,7559;0,0519831
3188,7200;0,0521437
3189,6843;0,0523023
3190,6484;0,052459
3191,6128;0,0526154
3192,5769;0,052771
3193,5413;0,0529215
3194,5054;0,0530619
3195,4697;0,0531908
3196,4338;0,0533131
3197,3982;0,0534376
3198,3623;0,0535729
3199,3267;0,0537218
3200,2908;0,0538812
3201,2551;0,054045
3202,2192;0,0542077
3203,1836;0,054367
3204,1477;0,0545228
3205,1121;0,0546759
3206,0762;0,0548259
3207,0405;0,0549716
3208,0046;0,0551118
3208,9690;0,0552465
3209,9331;0,0553777
3210,8975;0,0555093
3211,8616;0,0556464
3212,8259;0,0557926
3213,7900;0,0559483
3214,7544;0,0561084
3215,7185;0,0562646
3216,6829;0,0564092
3217,6470;0,0565399
3218,6113;0,056662
3219,5754;0,0567857
3220,5398;0,0569207
3221,5039;0,0570699
3222,4683;0,0572285
3223,4324;0,0573876
3224,3967;0,0575403
3225,3608;0,0576852
3226,3252;0,0578263
3227,2893;0,0579692
3228,2537;0,0581164
3229,2178;0,0582663
3230,1821;0,0584152
3231,1462;0,0585607
3232,1106;0,058703
3233,0747;0,0588446
3234,0391;0,0589871
3235,0032;0,0591306
3235,9675;0,059274
3236,9316;0,0594178
3237,8960;0,0595648
3238,8601;0,0597188
3239,8245;0,0598809
3240,7886;0,060047
3241,7529;0,0602091
3242,7170;0,0603602
3243,6814;0,060499
3244,6455;0,0606323
3245,6099;0,0607707
3246,5740;0,0609228
3247,5383;0,0610893
3248,5024;0,0612635
3249,4668;0,0614359
3250,4309;0,0615998
3251,3953;0,0617558
3252,3594;0,0619103
3253,3237;0,0620721
3254,2878;0,0622464
3255,2522;0,0624329
3256,2163;0,0626252
3257,1807;0,0628147
3258,1448;0,0629943
3259,1091;0,0631607
3260,0732;0,0633152
3261,0376;0,0634625
3262,0017;0,0636084
3262,9661;0,0637578
3263,9302;0,0639142
3264,8945;0,0640792
3265,8586;0,0642525
3266,8230;0,0644313
3267,7871;0,0646105
3268,7515;0,0647827
3269,7156;0,0649399
3270,6799;0,0650756
3271,6440;0,0651864
3272,6084;0,0652736
3273,5725;0,0653429
3274,5369;0,0654032
3275,5010;0,065465
3276,4653;0,0655368
3277,4294;0,065623
3278,3938;0,065722
3279,3579;0,0658267
3280,3223;0,0659278
3281,2864;0,0660178
3282,2507;0,0660937
3283,2148;0,0661576
3284,1792;0,0662143
3285,1433;0,0662682
3286,1077;0,0663212
3287,0718;0,0663734
3288,0361;0,0664243
3289,0002;0,0664732
3289,9646;0,0665186
3290,9287;0,0665576
3291,8931;0,0665858
3292,8572;0,066599
3293,8215;0,0665959
3294,7856;0,0665797
3295,7500;0,0665578
3296,7141;0,0665395
3297,6785;0,0665327
3298,6426;0,0665417
3299,6069;0,0665659
3300,5710;0,0666016
3301,5354;0,0666428
3302,4995;0,0666831
3303,4639;0,0667165
3304,4280;0,0667379
3305,3923;0,0667437
3306,3564;0,0667327
3307,3208;0,066707
3308,2849;0,0666727
3309,2493;0,0666389
3310,2134;0,0666162
3311,1777;0,0666144
3312,1418;0,0666408
3313,1062;0,0666982
3314,0703;0,0667844
3315,0347;0,0668921
3315,9988;0,06701
3316,9631;0,0671255
3317,9272;0,0672291
3318,8916;0,0673173
3319,8557;0,0673936
3320,8201;0,0674668
3321,7842;0,0675461
3322,7485;0,0676371
3323,7126;0,0677392
3324,6770;0,0678471
3325,6411;0,0679541
3326,6055;0,0680567
3327,5696;0,0681551
3328,5339;0,0682522
3329,4980;0,0683497
3330,4624;0,0684452
3331,4265;0,0685314
3332,3909;0,068599
3333,3550;0,0686404
3334,3193;0,0686538
3335,2834;0,0686428
3336,2478;0,0686146
3337,2119;0,0685754
3338,1763;0,068528
3339,1404;0,0684714
3340,1047;0,0684034
3341,0688;0,0683234
3342,0332;0,0682331
3342,9973;0,0681347
3343,9617;0,0680285
3344,9258;0,0679111
3345,8901;0,0677772
3346,8542;0,067623
3347,8186;0,0674503
3348,7827;0,0672674
3349,7471;0,067086
3350,7112;0,0669163
3351,6755;0,0667614
3352,6396;0,0666174
3353,6040;0,0664755
3354,5681;0,0663282
3355,5325;0,0661725
3356,4966;0,0660112
3357,4609;0,0658498
3358,4250;0,0656933
3359,3894;0,0655441
3360,3535;0,065402
3361,3179;0,0652656
3362,2820;0,065132
3363,2463;0,0649968
3364,2104;0,0648541
3365,1748;0,0646981
3366,1389;0,0645262
3367,1033;0,0643408
3368,0674;0,064149
3369,0317;0,06396
3369,9958;0,0637812
3370,9602;0,0636165
3371,9243;0,0634665
3372,8887;0,0633289
3373,8528;0,063199
3374,8171;0,0630693
3375,7813;0,06293
3376,7456;0,0627732
3377,7097;0,0625966
3378,6741;0,0624058
3379,6382;0,0622129
3380,6025;0,0620302
3381,5667;0,0618651
3382,5310;0,0617179
3383,4951;0,0615846
3384,4595;0,0614603
3385,4236;0,0613416
3386,3879;0,0612258
3387,3521;0,0611084
3388,3164;0,0609837
3389,2805;0,0608466
3390,2449;0,0606967
3391,2090;0,0605386
3392,1733;0,0603793
3393,1375;0,0602225
3394,1018;0,0600672
3395,0659;0,0599102
3396,0303;0,0597513
3396,9944;0,0595964
3397,9587;0,0594545
3398,9229;0,0593307
3399,8872;0,0592204
3400,8513;0,0591095
3401,8157;0,0589821
3402,7798;0,0588289
3403,7441;0,0586529
3404,7083;0,0584671
3405,6726;0,0582871
3406,6367;0,0581229
3407,6011;0,0579738
3408,5652;0,0578302
3409,5295;0,0576791
3410,4937;0,0575109
3411,4580;0,0573246
3412,4221;0,0571272
3413,3865;0,0569295
3414,3506;0,056739
3415,3149;0,0565548
3416,2791;0,0563674
3417,2434;0,0561652
3418,2075;0,0559425
3419,1719;0,0557043
3420,1360;0,0554655
3421,1003;0,0552419
3422,0645;0,055041
3423,0288;0,0548584
3423,9929;0,0546821
3424,9573;0,0545008
3425,9214;0,0543099
3426,8857;0,0541123
3427,8499;0,0539138
3428,8142;0,0537191
3429,7783;0,0535279
3430,7427;0,0533362
3431,7068;0,0531395
3432,6711;0,052936
3433,6353;0,0527276
3434,5996;0,0525188
3435,5637;0,0523137
3436,5281;0,0521134
3437,4922;0,0519157
3438,4565;0,0517176
3439,4207;0,0515185
3440,3850;0,0513209
3441,3491;0,0511277
3442,3135;0,0509376
3443,2776;0,050742
3444,2419;0,0505284
3445,2061;0,050288
3446,1704;0,0500247
3447,1345;0,0497561
3448,0989;0,0495057
3449,0630;0,0492892
3450,0273;0,0491073
3450,9915;0,0489476
3451,9558;0,0487929
3452,9199;0,0486296
3453,8843;0,0484521
3454,8484;0,048262
3455,8127;0,0480637
3456,7769;0,0478609
3457,7412;0,0476547
3458,7053;0,0474447
3459,6697;0,0472315
3460,6338;0,0470173
3461,5981;0,0468058
3462,5623;0,0465995
3463,5266;0,0463972
3464,4907;0,0461942
3465,4551;0,0459842
3466,4192;0,0457636
3467,3835;0,0455351
3468,3477;0,0453071
3469,3120;0,0450894
3470,2761;0,0448868
3471,2405;0,0446966
3472,2046;0,0445115
3473,1689;0,0443253
3474,1331;0,0441375
3475,0974;0,0439519
3476,0615;0,043771
3477,0259;0,0435916
3477,9900;0,0434057
3478,9543;0,0432068
3479,9185;0,042996
3480,8828;0,0427834
3481,8469;0,0425799
3482,8113;0,0423881
3483,7754;0,0421986
3484,7397;0,041997
3485,7039;0,0417753
3486,6682;0,0415391
3487,6323;0,0413073
3488,5967;0,0411009
3489,5608;0,0409307
3490,5251;0,0407897
3491,4893;0,0406572
3492,4536;0,0405102
3493,4177;0,0403355
3494,3821;0,0401374
3495,3462;0,0399356
3496,3105;0,039753
3497,2747;0,0395988
3498,2390;0,0394602
3499,2031;0,0393077
3500,1675;0,0391112
3501,1316;0,0388604
3502,0959;0,0385769
3503,0601;0,0383053
3504,0244;0,0380845
3504,9885;0,0379216
3505,9529;0,0377907
3506,9170;0,0376528
3507,8813;0,03748
3508,8455;0,0372711
3509,8098;0,03705
3510,7739;0,0368482
3511,7383;0,0366832
3512,7024;0,0365504
3513,6667;0,0364315
3514,6309;0,0363093
3515,5952;0,0361775
3516,5593;0,0360402
3517,5237;0,0359038
3518,4878;0,0357687
3519,4521;0,0356265
3520,4163;0,0354662
3521,3806;0,035282
3522,3447;0,0350784
3523,3091;0,0348666
3524,2732;0,0346551
3525,2375;0,0344443
3526,2017;0,0342292
3527,1660;0,0340106
3528,1301;0,0338015
3529,0945;0,0336217
3530,0586;0,0334832
3531,0229;0,0333792
3531,9871;0,0332843
3532,9514;0,0331672
3533,9155;0,033006
3534,8799;0,0328004
3535,8440;0,0325738
3536,8083;0,0323629
3537,7725;0,0321985
3538,7368;0,0320913
3539,7009;0,0320283
3540,6653;0,0319787
3541,6294;0,0319028
3542,5938;0,0317634
3543,5579;0,0315426
3544,5222;0,0312583
3545,4863;0,0309627
3546,4507;0,0307115
3547,4148;0,030526
3548,3792;0,0303839
3549,3433;0,0302388
3550,3076;0,0300518
3551,2717;0,0298156
3552,2361;0,0295613
3553,2002;0,0293392
3554,1646;0,0291832
3555,1287;0,0290894
3556,0930;0,0290242
3557,0571;0,0289518
3558,0215;0,0288585
3558,9856;0,0287615
3559,9500;0,0286956
3560,9141;0,0286823
3561,8784;0,028703
3562,8425;0,0286938
3563,8069;0,0285629
3564,7710;0,0282333
3565,7354;0,0277124
3566,6995;0,0271361
3567,6638;0,0266893
3568,6279;0,0264564
3569,5923;0,0263891
3570,5564;0,0263897
3571,5208;0,0263797
3572,4849;0,0263194
3573,4492;0,0262045
3574,4133;0,0260534
3575,3777;0,0258894
3576,3418;0,0257251
3577,3062;0,0255615
3578,2703;0,0254013
3579,2346;0,025261
3580,1987;0,0251656
3581,1631;0,0251299
3582,1272;0,025138
3583,0916;0,0251374
3584,0557;0,0250505
3585,0200;0,0248069
3585,9841;0,0244016
3586,9485;0,0239387
3587,9126;0,0235761
3588,8770;0,0233934
3589,8411;0,0233476
3590,8054;0,0233391
3591,7695;0,0232811
3592,7339;0,0231307
3593,6980;0,0229013
3594,6624;0,02265
3595,6265;0,0224336
3596,5908;0,0222646
3597,5549;0,0221123
3598,5193;0,0219451
3599,4834;0,0217682
3600,4478;0,0216265
3601,4119;0,0215669
3602,3762;0,0215961
3603,3403;0,0216729
3604,3047;0,0217322
3605,2688;0,0217194
3606,2332;0,0216185
3607,1973;0,0214648
3608,1616;0,021321
3609,1257;0,0212265
3610,0901;0,0211696
3611,0542;0,0211101
3612,0186;0,02102
3612,9827;0,0209023
3613,9470;0,0207762
3614,9111;0,0206469
3615,8755;0,0204868
3616,8396;0,0202481
3617,8040;0,0199054
3618,7681;0,0195038
3619,7324;0,0191559
3620,6965;0,0189671
3621,6609;0,0189671
3622,6250;0,0191156
3623,5894;0,0193407
3624,5535;0,0195539
3625,5178;0,0196455
3626,4819;0,019497
3627,4463;0,0190594
3628,4104;0,0184629
3629,3748;0,01796
3630,3389;0,0176897
3631,3032;0,0176062
3632,2673;0,0176035
3633,2317;0,0176074
3634,1958;0,0175899
3635,1602;0,0175573
3636,1243;0,0175297
3637,0886;0,0175209
3638,0527;0,0175311
3639,0171;0,0175555
3639,9812;0,0175983
3640,9456;0,0176798
3641,9097;0,0178265
3642,8740;0,018051
3643,8381;0,018332
3644,8025;0,0185983
3645,7666;0,0187164
3646,7310;0,0185085
3647,6951;0,017882
3648,6594;0,0170486
3649,6235;0,0164388
3650,5879;0,0162432
3651,5520;0,0163263
3652,5164;0,0164865
3653,4805;0,0165849
3654,4448;0,0165522
3655,4089;0,0163915
3656,3733;0,0161786
3657,3374;0,0160131
3658,3018;0,0159437
3659,2659;0,0159487
3660,2302;0,0159803
3661,1943;0,0160135
3662,1587;0,0160634
3663,1228;0,0161667
3664,0872;0,0163438
3665,0513;0,0165688
3666,0156;0,0167692
3666,9797;0,0168545
3667,9441;0,0167758
3668,9082;0,0165937
3669,8726;0,0164596
3670,8367;0,0164711
3671,8010;0,0165717
3672,7651;0,0165971
3673,7295;0,0163808
3674,6936;0,0158768
3675,6580;0,015252
3676,6221;0,0147765
3677,5864;0,0145775
3678,5505;0,0145958
3679,5149;0,0147209
3680,4790;0,0148811
3681,4434;0,015055
3682,4075;0,0152502
3683,3718;0,0154755
3684,3359;0,0157153
3685,3003;0,0159149
3686,2644;0,0159822
3687,2288;0,0158216
3688,1929;0,0154188
3689,1572;0,0149136
3690,1213;0,0145159
3691,0857;0,0143234
3692,0498;0,0142947
3693,0142;0,0143501
3693,9783;0,0144377
3694,9426;0,014538
3695,9067;0,0146461
3696,8711;0,0147524
3697,8352;0,01483
3698,7996;0,0148392
3699,7637;0,0147517
3700,7280;0,0145852
3701,6921;0,0144159
3702,6565;0,0143403
3703,6206;0,0144129
3704,5850;0,014621
3705,5491;0,014904
3706,5134;0,0151778
3707,4775;0,0153474
3708,4419;0,0153245
3709,4060;0,0150799
3710,3704;0,0147122
3711,3345;0,014418
3712,2988;0,0143271
3713,2629;0,0144154
3714,2273;0,0145861
3715,1914;0,0147568
3716,1558;0,0148789
3717,1199;0,0149307
3718,0842;0,0149122
3719,0483;0,0148437
3720,0127;0,0147532
3720,9768;0,0146556
3721,9412;0,0145415
3722,9053;0,0143936
3723,8696;0,0142198
3724,8337;0,0140718
3725,7981;0,0140226
3726,7622;0,0141213
3727,7266;0,0143675
3728,6907;0,0147205
3729,6550;0,0151162
3730,6191;0,0154741
3731,5835;0,015697
3732,5476;0,0156858
3733,5120;0,0153989
3734,4761;0,0149394
3735,4404;0,0145415
3736,4045;0,0143978
3737,3689;0,0145396
3738,3330;0,0148913
3739,2974;0,0153547
3740,2615;0,01583
3741,2258;0,0162062
3742,1899;0,0163747
3743,1543;0,0163014
3744,1184;0,0161089
3745,0828;0,0160031
3746,0469;0,0160745
3747,0112;0,0162361
3747,9753;0,016312
3748,9397;0,0161397
3749,9038;0,0156949
3750,8682;0,0151836
3751,8323;0,0148843
3752,7966;0,0148746
3753,7607;0,0150386
3754,7251;0,0152271
3755,6892;0,0153315
3756,6536;0,0152991
3757,6177;0,0151528
3758,5820;0,0149894
3759,5461;0,0149183
3760,5105;0,0149814
3761,4746;0,0151415
3762,4390;0,0153292
3763,4031;0,0154848
3764,3674;0,0155751
3765,3315;0,0155918
3766,2959;0,0155418
3767,2600;0,0154353
3768,2244;0,0152846
3769,1885;0,0151159
3770,1528;0,0149758
3771,1169;0,0149142
3772,0813;0,0149543
3773,0454;0,0150801
3774,0098;0,0152451
3774,9739;0,0153907
3775,9382;0,0154641
3776,9023;0,0154418
3777,8667;0,0153498
3778,8308;0,015253
3779,7952;0,0152065
3780,7593;0,0152141
3781,7236;0,0152386
3782,6877;0,0152379
3783,6521;0,0151935
3784,6162;0,0151162
3785,5806;0,0150357
3786,5447;0,0149834
3787,5090;0,0149801
3788,4731;0,0150341
3789,4375;0,0151427
3790,4016;0,0152925
3791,3660;0,015459
3792,3301;0,0156125
3793,2944;0,0157316
3794,2585;0,0158179
3795,2229;0,0158963
3796,1870;0,0159908
3797,1514;0,0160919
3798,1155;0,0161456
3799,0798;0,0160845
3800,0439;0,0158922
3801,0083;0,0156458
3801,9724;0,0154636
3802,9368;0,0153941
3803,9009;0,0153815
3804,8652;0,0153293
3805,8293;0,0151833
3806,7937;0,0149854
3807,7578;0,0148558
3808,7222;0,0148975
3809,6863;0,0151214
3810,6506;0,0154615
3811,6147;0,0158231
3812,5791;0,0161143
3813,5432;0,0162737
3814,5076;0,016305
3815,4717;0,0162788
3816,4360;0,0162646
3817,4001;0,0162541
3818,3645;0,0161701
3819,3286;0,0159469
3820,2930;0,0156133
3821,2571;0,0152936
3822,2214;0,015105
3823,1855;0,0150703
3824,1499;0,0151415
3825,1140;0,0152621
3826,0784;0,0153968
3827,0425;0,015532
3828,0068;0,0156652
3828,9709;0,0157954
3829,9353;0,0159206
3830,8994;0,0160419
3831,8638;0,0161649
3832,8279;0,0162914
3833,7922;0,0164046
3834,7563;0,0164609
3835,7207;0,0164033
3836,6848;0,0162011
3837,6492;0,0158916
3838,6133;0,015573
3839,5776;0,0153351
3840,5417;0,0152012
3841,5061;0,015143
3842,4702;0,0151298
3843,4346;0,0151593
3844,3987;0,0152557
3845,3630;0,0154501
3846,3271;0,0157601
3847,2915;0,0161798
3848,2556;0,0166741
3849,2200;0,0171637
3850,1841;0,0175013
3851,1484;0,0174751
3852,1125;0,0169447
3853,0769;0,016102
3854,0410;0,0154029
3855,0054;0,015087
3855,9695;0,0150872
3856,9338;0,0152714
3857,8979;0,0155428
3858,8623;0,015825
3859,8264;0,0160449
3860,7908;0,0161443
3861,7549;0,0161152
3862,7192;0,0160237
3863,6833;0,0159743
3864,6477;0,0160285
3865,6118;0,016164
3866,5762;0,0163042
3867,5403;0,0163674
3868,5046;0,0163029
3869,4688;0,0161125
3870,4331;0,0158532
3871,3972;0,0156095
3872,3616;0,0154516
3873,3257;0,015412
3874,2900;0,0154871
3875,2542;0,0156468
3876,2185;0,0158422
3877,1826;0,0160161
3878,1470;0,0161205
3879,1111;0,0161386
3880,0754;0,0160944
3881,0396;0,016031
3882,0039;0,0159729
3882,9680;0,0159167
3883,9324;0,0158579
3884,8965;0,0158158
3885,8608;0,0158228
3886,8250;0,015885
3887,7893;0,0159612
3888,7534;0,0159808
3889,7178;0,0158891
3890,6819;0,0157005
3891,6462;0,0155182
3892,6104;0,0154676
3893,5747;0,0155973
3894,5388;0,0158604
3895,5032;0,0161683
3896,4673;0,016437
3897,4316;0,0166083
3898,3958;0,0166615
3899,3601;0,0166106
3900,3242;0,0164789
3901,2886;0,0162751
3902,2527;0,0160071
3903,2170;0,0157165
3904,1812;0,0154761
3905,1455;0,0153429
3906,1096;0,0153226
3907,0740;0,0153802
3908,0381;0,015472
3909,0024;0,0155681
3909,9666;0,0156607
3910,9309;0,0157587
3911,8950;0,015872
3912,8594;0,0159951
3913,8235;0,0161005
3914,7878;0,0161505
3915,7520;0,0161235
3916,7163;0,0160376
3917,6804;0,0159462
3918,6448;0,0158989
3919,6089;0,0159054
3920,5732;0,0159345
3921,5374;0,0159417
3922,5017;0,0159005
3923,4658;0,0158236
3924,4302;0,0157571
3925,3943;0,0157475
3926,3586;0,0158058
3927,3228;0,0159009
3928,2871;0,0159788
3929,2512;0,0159919
3930,2156;0,0159242
3931,1797;0,0158039
3932,1440;0,0156875
3933,1082;0,0156236
3934,0725;0,0156278
3935,0366;0,0156878
3936,0010;0,0157793
3936,9651;0,015877
3937,9294;0,0159565
3938,8936;0,0159967
3939,8579;0,015986
3940,8220;0,0159324
3941,7864;0,0158658
3942,7505;0,0158246
3943,7148;0,015831
3944,6790;0,0158765
3945,6433;0,0159281
3946,6074;0,0159496
3947,5718;0,0159224
3948,5359;0,0158583
3949,5002;0,0157911
3950,4644;0,0157532
3951,4287;0,0157552
3952,3928;0,0157849
3953,3572;0,0158214
3954,3213;0,0158496
3955,2856;0,0158664
3956,2498;0,0158774
3957,2141;0,0158873
3958,1782;0,0158945
3959,1426;0,0158927
3960,1067;0,0158777
3961,0710;0,0158543
3962,0352;0,0158352
3962,9995;0,0158332
3963,9636;0,0158526
3964,9280;0,0158859
3965,8921;0,0159188
3966,8564;0,0159381
3967,8206;0,0159391
3968,7849;0,0159271
3969,7490;0,0159138
3970,7134;0,0159096
3971,6775;0,0159183
3972,6418;0,0159356
3973,6060;0,0159537
3974,5703;0,015966
3975,5344;0,0159708
3976,4988;0,0159711
3977,4629;0,0159708
3978,4272;0,0159716
3979,3914;0,0159719
3980,3557;0,0159688
3981,3198;0,0159608
3982,2842;0,0159501
3983,2483;0,0159412
3984,2126;0,0159373
3985,1768;0,0159384
3986,1411;0,0159414
3987,1052;0,0159429
3988,0696;0,0159425
3989,0337;0,0159436
3989,9980;0,0159502
3990,9622;0,0159627
3991,9265;0,0159756
3992,8906;0,0159806
3993,8550;0,0159725
3994,8191;0,0159532
3995,7834;0,0159321
3996,7476;0,0159208
3997,7119;0,0159261
3998,6760;0,0159473
3999,6404;0,0159772
4000,6045;0,0159087

##### Extended Information
[Comments]
Sample name
Comment
Username
Division
Organization;UNIVERSIDAD INDUSTRIAL DE SANTANDER

[Detailed Information]
Creation date;26/03/2025 8:05 p.m.

Data array type;Linear data array
Horizontal axis;Wavenumber [cm-1]
Vertical axis;Abs
Start;399,193 cm-1
End;4000,6 cm-1
Data interval;0,964233 cm-1
Data points;3736    

[Measurement Information]
Model name;FT/IR-4X1typeA
Serial No.;A035162111

Accessory;ATR PRO 4X
Accessory S/N;A021162126
Incident angle;45 deg

Measurement date;26/03/2025 8:05 p.m.

Light source;Standard
Detector;TGS
Accumulation;40
Resolution;4 cm-1
Zero filling;On
Apodization;Cosine
Gain;Auto (8)
Aperture;Auto (7 mm)
Scan speed;Auto (2 mm/sec)
Filter;Auto (12800 Hz)

