TITLE;
DATA TYPE;INFRARED SPECTRUM
ORIGIN;JASCO
OWNER;
DATE;25/03/26
TIME;19:47:40
SPECTROMETER/DATA SYSTEM;
LOCALE;9226
RESOLUTION;
DELTAX;0,964233
XUNITS;1/CM
YUNITS;ABSORBANCE
FIRSTX;  399,1927
LASTX; 4000,6047
NPOINTS;    3736
FIRSTY;     0,19012
MAXY;     0,29222
MINY;     0,01324
XYDATA
399,1927;0,190116
400,1569;0,190915
401,1211;0,191277
402,0854;0,191534
403,0496;0,191823
404,0138;0,192074
404,9781;0,192101
405,9423;0,191754
406,9065;0,191092
407,8708;0,190455
408,8350;0,190338
409,7992;0,191118
410,7635;0,192781
411,7277;0,194833
412,6919;0,196542
413,6562;0,197355
414,6204;0,197136
415,5846;0,196138
416,5489;0,194894
417,5131;0,19415
418,4773;0,194591
419,4416;0,196243
420,4058;0,198313
421,3700;0,200039
422,3343;0,201255
423,2985;0,20216
424,2627;0,202978
425,2270;0,20381
426,1912;0,204636
427,1554;0,205391
428,1197;0,206036
429,0839;0,206573
430,0481;0,207016
431,0124;0,207356
431,9766;0,207562
432,9408;0,207627
433,9051;0,207607
434,8693;0,207611
435,8335;0,207741
436,7978;0,208001
437,7620;0,208267
438,7262;0,208358
439,6905;0,208138
440,6547;0,207617
441,6189;0,206975
442,5832;0,2065
443,5474;0,206425
444,5116;0,20677
445,4759;0,207326
446,4401;0,207801
447,4043;0,207988
448,3686;0,207829
449,3328;0,207385
450,2970;0,206756
451,2613;0,206021
452,2255;0,205215
453,1897;0,204356
454,1540;0,203486
455,1182;0,202696
456,0824;0,202128
457,0467;0,201923
458,0109;0,202132
458,9751;0,202653
459,9394;0,203272
460,9036;0,203798
461,8678;0,204131
462,8321;0,204267
463,7963;0,20426
464,7605;0,204181
465,7248;0,204082
466,6890;0,203955
467,6532;0,203733
468,6175;0,203333
469,5817;0,202729
470,5459;0,202023
471,5102;0,20145
472,4744;0,201281
473,4386;0,201656
474,4029;0,202497
475,3671;0,203586
476,3313;0,2047
477,2956;0,205681
478,2598;0,206427
479,2240;0,206865
480,1883;0,206951
481,1525;0,206711
482,1167;0,206261
483,0810;0,205801
484,0452;0,205536
485,0094;0,205584
485,9737;0,205923
486,9379;0,206435
487,9021;0,206999
488,8664;0,207534
489,8306;0,207994
490,7948;0,208337
491,7591;0,208519
492,7233;0,20854
493,6875;0,208484
494,6518;0,208503
495,6160;0,208736
496,5802;0,209227
497,5445;0,209889
498,5087;0,210553
499,4729;0,211042
500,4372;0,211253
501,4014;0,211191
502,3656;0,210952
503,3299;0,210665
504,2941;0,210441
505,2583;0,210356
506,2226;0,210466
507,1868;0,210807
508,1510;0,211386
509,1153;0,212155
510,0795;0,213022
511,0437;0,213886
512,0080;0,214674
512,9722;0,215355
513,9365;0,215928
514,9007;0,216406
515,8649;0,216808
516,8292;0,217161
517,7934;0,217503
518,7576;0,217871
519,7219;0,218276
520,6861;0,218696
521,6503;0,219089
522,6146;0,219403
523,5788;0,219595
524,5430;0,21964
525,5073;0,219545
526,4715;0,219355
527,4357;0,21914
528,4000;0,218969
529,3642;0,218881
530,3284;0,218872
531,2927;0,218902
532,2569;0,218912
533,2211;0,218836
534,1854;0,218633
535,1496;0,218299
536,1138;0,217868
537,0781;0,217407
538,0423;0,216993
539,0065;0,21669
539,9708;0,216532
540,9350;0,216505
541,8992;0,216559
542,8635;0,216638
543,8277;0,21671
544,7919;0,216792
545,7562;0,216946
546,7204;0,217236
547,6846;0,217687
548,6489;0,218253
549,6131;0,218847
550,5773;0,219381
551,5416;0,219817
552,5058;0,220172
553,4700;0,22051
554,4343;0,220896
555,3985;0,221364
556,3627;0,221883
557,3270;0,222349
558,2912;0,222603
559,2554;0,222469
560,2197;0,221827
561,1839;0,220679
562,1481;0,219165
563,1124;0,21753
564,0766;0,21602
565,0408;0,214795
566,0051;0,21388
566,9693;0,213195
567,9335;0,212629
568,8978;0,212114
569,8620;0,211648
570,8262;0,211265
571,7905;0,210987
572,7547;0,210785
573,7189;0,210598
574,6832;0,210367
575,6474;0,210069
576,6116;0,209732
577,5759;0,209415
578,5401;0,209168
579,5043;0,20901
580,4686;0,208925
581,4328;0,208879
582,3970;0,208839
583,3613;0,208787
584,3255;0,208718
585,2897;0,208635
586,2540;0,208537
587,2182;0,208423
588,1824;0,208296
589,1467;0,208169
590,1109;0,208062
591,0751;0,207992
592,0394;0,207956
593,0036;0,207921
593,9678;0,207836
594,9321;0,207658
595,8963;0,207367
596,8605;0,206982
597,8248;0,206535
598,7890;0,206056
599,7532;0,205551
600,7175;0,205006
601,6817;0,204406
602,6459;0,203764
603,6102;0,203126
604,5744;0,202542
605,5386;0,202033
606,5029;0,201573
607,4671;0,2011
608,4313;0,200554
609,3956;0,19991
610,3598;0,199193
611,3240;0,198449
612,2883;0,197712
613,2525;0,19698
614,2167;0,196218
615,1810;0,195384
616,1452;0,194448
617,1094;0,193409
618,0737;0,192294
619,0379;0,191135
620,0021;0,189963
620,9664;0,188794
621,9306;0,187636
622,8948;0,186492
623,8591;0,185365
624,8233;0,184273
625,7875;0,183219
626,7518;0,182221
627,7160;0,181292
628,6802;0,180429
629,6445;0,179614
630,6087;0,178821
631,5729;0,178025
632,5372;0,17722
633,5014;0,176411
634,4656;0,175609
635,4299;0,174813
636,3941;0,17401
637,3583;0,173192
638,3226;0,172372
639,2868;0,171599
640,2510;0,170933
641,2153;0,170412
642,1795;0,17002
643,1437;0,169678
644,1080;0,16928
645,0722;0,168736
646,0364;0,168024
647,0007;0,167199
647,9649;0,166372
648,9291;0,165662
649,8934;0,165144
650,8576;0,164821
651,8218;0,164639
652,7861;0,164534
653,7503;0,164475
654,7145;0,164478
655,6788;0,164584
656,6430;0,164815
657,6072;0,165143
658,5715;0,16548
659,5357;0,165726
660,4999;0,165819
661,4642;0,165784
662,4284;0,165709
663,3926;0,165675
664,3569;0,165675
665,3211;0,165556
666,2853;0,164982
667,2496;0,163531
668,2138;0,161176
669,1780;0,158685
670,1423;0,156821
671,1065;0,15557
672,0707;0,154548
673,0350;0,153456
673,9992;0,152156
674,9634;0,150646
675,9277;0,149031
676,8919;0,147437
677,8561;0,145931
678,8204;0,144509
679,7846;0,14315
680,7488;0,141867
681,7131;0,140706
682,6773;0,139704
683,6415;0,138864
684,6058;0,138166
685,5700;0,137586
686,5342;0,137106
687,4985;0,136707
688,4627;0,136366
689,4269;0,136059
690,3912;0,135775
691,3554;0,135522
692,3196;0,13531
693,2839;0,135133
694,2481;0,134966
695,2123;0,134772
696,1766;0,134524
697,1408;0,134218
698,1050;0,133868
699,0693;0,133491
700,0335;0,133094
700,9977;0,132671
701,9620;0,132214
702,9262;0,131721
703,8904;0,131204
704,8547;0,130682
705,8189;0,130171
706,7831;0,129676
707,7474;0,129195
708,7116;0,128718
709,6758;0,128228
710,6401;0,127709
711,6043;0,127144
712,5685;0,126519
713,5328;0,125827
714,4970;0,125072
715,4612;0,124379
716,4255;0,123496
717,3897;0,122565
718,3539;0,121609
719,3182;0,120664
720,2824;0,119775
721,2466;0,118971
722,2109;0,118248
723,1751;0,117569
724,1393;0,116883
725,1036;0,116155
726,0678;0,115377
727,0320;0,114566
727,9963;0,113753
728,9605;0,112963
729,9247;0,112206
730,8890;0,111479
731,8532;0,11078
732,8174;0,110107
733,7817;0,109461
734,7459;0,108841
735,7101;0,108243
736,6744;0,107666
737,6386;0,107113
738,6028;0,10659
739,5671;0,106102
740,5313;0,105652
741,4955;0,10524
742,4598;0,104856
743,4240;0,104483
744,3882;0,104093
745,3525;0,103651
746,3167;0,103133
747,2809;0,10254
748,2452;0,101903
749,2094;0,101273
750,1736;0,100696
751,1379;0,100187
752,1021;0,0997237
753,0663;0,0992579
754,0306;0,098745
754,9948;0,0981688
755,9590;0,0975513
756,9233;0,0969415
757,8875;0,0963909
758,8517;0,0959306
759,8160;0,09556
760,7802;0,0952503
761,7444;0,0949591
762,7087;0,0946472
763,6729;0,0942905
764,6371;0,0938834
765,6014;0,0934363
766,5656;0,0929699
767,5298;0,09251
768,4941;0,0920837
769,4583;0,0917145
770,4225;0,0914148
771,3868;0,0911786
772,3510;0,0909788
773,3152;0,0907726
774,2795;0,0905165
775,2437;0,0901848
776,2079;0,0897817
777,1722;0,0893406
778,1364;0,0889078
779,1006;0,0885195
780,0649;0,0881834
781,0291;0,0878763
781,9933;0,0875572
782,9576;0,0871909
783,9218;0,0867683
784,8860;0,0863138
785,8503;0,0858756
786,8145;0,0855037
787,7787;0,0852266
788,7430;0,0850381
789,7072;0,0849005
790,6714;0,0847637
791,6357;0,0845891
792,5999;0,0843673
793,5641;0,0841185
794,5284;0,0838767
795,4926;0,0836662
796,4568;0,0834862
797,4211;0,0833128
798,3853;0,0831162
799,3495;0,0828817
800,3138;0,0826209
801,2780;0,0823655
802,2422;0,082149
803,2065;0,0819877
804,1707;0,0818724
805,1349;0,0817745
806,0992;0,0816619
807,0634;0,0815145
808,0276;0,081331
808,9919;0,0811246
809,9561;0,0809129
810,9203;0,0807073
811,8846;0,0805093
812,8488;0,0803145
813,8130;0,0801193
814,7773;0,0799252
815,7415;0,0797383
816,7057;0,079565
817,6700;0,079409
818,6342;0,079272
819,5984;0,0791576
820,5627;0,0790723
821,5269;0,0790212
822,4911;0,079001
823,4554;0,0789961
824,4196;0,0789843
825,3839;0,0789494
826,3481;0,0788922
827,3123;0,0788298
828,2766;0,0787823
829,2408;0,0787546
830,2050;0,0787277
831,1693;0,078666
832,1335;0,0785372
833,0977;0,0783307
834,0620;0,078063
835,0262;0,077766
835,9904;0,077469
836,9547;0,077186
837,9189;0,0769162
838,8831;0,0766544
839,8474;0,0764011
840,8116;0,0761654
841,7758;0,0759578
842,7401;0,0757817
843,7043;0,0756303
844,6685;0,0754913
845,6328;0,0753568
846,5970;0,0752287
847,5612;0,0751175
848,5255;0,0750342
849,4897;0,0749815
850,4539;0,0749516
851,4182;0,0749306
852,3824;0,0749078
853,3466;0,0748816
854,3109;0,0748601
855,2751;0,0748541
856,2393;0,0748691
857,2036;0,0749011
858,1678;0,0749385
859,1320;0,0749682
860,0963;0,0749826
861,0605;0,0749835
862,0247;0,0749815
862,9890;0,0749935
863,9532;0,0750383
864,9174;0,0751333
865,8817;0,0752895
866,8459;0,0755075
867,8101;0,0757756
868,7744;0,0760705
869,7386;0,0763623
870,7028;0,0766207
871,6671;0,076821
872,6313;0,0769478
873,5955;0,0769972
874,5598;0,0769781
875,5240;0,0769128
876,4882;0,0768331
877,4525;0,0767737
878,4167;0,0767629
879,3809;0,0768167
880,3452;0,0769408
881,3094;0,0771369
882,2736;0,0774103
883,2379;0,0777713
884,2021;0,0782307
885,1663;0,0787922
886,1306;0,0794497
887,0948;0,0801916
888,0590;0,081008
889,0233;0,0818933
889,9875;0,0828418
890,9517;0,0838378
891,9160;0,0848495
892,8802;0,0858305
893,8444;0,0867305
894,8087;0,0875061
895,7729;0,0881267
896,7371;0,0885726
897,7014;0,0888311
898,6656;0,0888939
899,6298;0,0887616
900,5941;0,0884495
901,5583;0,0879909
902,5225;0,0874341
903,4868;0,0868329
904,4510;0,086237
905,4152;0,085685
906,3795;0,0852028
907,3437;0,0848065
908,3079;0,0845062
909,2722;0,0843079
910,2364;0,084214
911,2007;0,0842215
912,1649;0,0843219
913,1292;0,0845032
914,0934;0,0847542
915,0576;0,0850689
916,0219;0,0854469
916,9861;0,0858885
917,9503;0,0863864
918,9146;0,0869188
919,8788;0,0874505
920,8430;0,0879438
921,8073;0,0883731
922,7715;0,0887354
923,7357;0,0890488
924,7000;0,0893397
925,6642;0,0896269
926,6284;0,0899113
927,5927;0,0901783
928,5569;0,0904102
929,5211;0,0905993
930,4854;0,0907544
931,4496;0,0908969
932,4138;0,0910515
933,3781;0,0912366
934,3423;0,0914605
935,3065;0,0917239
936,2708;0,0920249
937,2350;0,0923643
938,1992;0,0927472
939,1635;0,0931818
940,1277;0,0936769
941,0919;0,0942373
942,0562;0,0948617
943,0204;0,0955415
943,9846;0,0962655
944,9489;0,0970268
945,9131;0,0978297
946,8773;0,098692
947,8416;0,0996391
948,8058;0,100694
949,7700;0,101865
950,7343;0,103148
951,6985;0,104526
952,6627;0,105985
953,6270;0,10752
954,5912;0,109139
955,5554;0,110854
956,5197;0,112676
957,4839;0,114605
958,4481;0,116631
959,4124;0,118738
960,3766;0,12091
961,3408;0,123135
962,3051;0,125411
963,2693;0,127741
964,2335;0,130131
965,1978;0,132587
966,1620;0,135113
967,1262;0,137714
968,0905;0,140396
969,0547;0,143175
970,0189;0,146082
970,9832;0,14916
971,9474;0,152456
972,9116;0,156015
973,8759;0,159867
974,8401;0,164029
975,8043;0,168499
976,7686;0,173263
977,7328;0,178289
978,6970;0,183524
979,6613;0,188882
980,6255;0,194245
981,5897;0,199466
982,5540;0,204384
983,5182;0,208858
984,4824;0,212786
985,4467;0,216122
986,4109;0,218879
987,3751;0,221118
988,3394;0,222927
989,3036;0,224407
990,2678;0,225655
991,2321;0,226744
992,1963;0,227719
993,1605;0,228599
994,1248;0,229381
995,0890;0,230065
996,0532;0,230664
997,0175;0,23121
997,9817;0,231745
998,9459;0,232301
999,9102;0,232899
1000,8744;0,233544
1001,8386;0,234243
1002,8029;0,235016
1003,7671;0,235903
1004,7313;0,236953
1005,6956;0,23822
1006,6598;0,239741
1007,6240;0,241543
1008,5883;0,243634
1009,5525;0,246004
1010,5167;0,248626
1011,4810;0,251452
1012,4452;0,254413
1013,4094;0,257426
1014,3737;0,260413
1015,3379;0,263312
1016,3021;0,266087
1017,2664;0,268729
1018,2306;0,271247
1019,1948;0,273653
1020,1591;0,275953
1021,1233;0,278147
1022,0875;0,28023
1023,0518;0,282199
1024,0160;0,284056
1024,9802;0,285801
1025,9445;0,287423
1026,9087;0,2889
1027,8729;0,290186
1028,8372;0,291219
1029,8014;0,291924
1030,7656;0,292219
1031,7299;0,29202
1032,6941;0,29126
1033,6583;0,289906
1034,6226;0,287983
1035,5868;0,285586
1036,5510;0,282882
1037,5153;0,280084
1038,4795;0,277411
1039,4437;0,275048
1040,4080;0,273115
1041,3722;0,271646
1042,3364;0,270602
1043,3007;0,269883
1044,2649;0,269365
1045,2291;0,268926
1046,1934;0,268467
1047,1576;0,267918
1048,1218;0,267228
1049,0861;0,266357
1050,0503;0,265264
1051,0145;0,26391
1051,9788;0,262268
1052,9430;0,260335
1053,9072;0,258129
1054,8715;0,255677
1055,8357;0,252986
1056,7999;0,25003
1057,7642;0,246747
1058,7284;0,24307
1059,6926;0,238969
1060,6569;0,234485
1061,6211;0,229743
1062,5853;0,224923
1063,5496;0,220214
1064,5138;0,215765
1065,4780;0,211657
1066,4423;0,20791
1067,4065;0,204499
1068,3707;0,201379
1069,3350;0,198499
1070,2992;0,195809
1071,2634;0,193256
1072,2277;0,190786
1073,1919;0,188345
1074,1561;0,18589
1075,1204;0,183389
1076,0846;0,180828
1077,0488;0,178218
1078,0131;0,175591
1078,9773;0,173007
1079,9415;0,170535
1080,9058;0,16824
1081,8700;0,166168
1082,8342;0,16434
1083,7985;0,162752
1084,7627;0,161383
1085,7269;0,160211
1086,6912;0,159212
1087,6554;0,158365
1088,6196;0,157656
1089,5839;0,15708
1090,5481;0,15664
1091,5123;0,156343
1092,4766;0,156195
1093,4408;0,156194
1094,4050;0,156323
1095,3693;0,156561
1096,3335;0,156885
1097,2977;0,157276
1098,2620;0,157717
1099,2262;0,158187
1100,1904;0,158655
1101,1547;0,159078
1102,1189;0,159405
1103,0831;0,159593
1104,0474;0,159615
1105,0116;0,159465
1105,9758;0,159157
1106,9401;0,15871
1107,9043;0,158133
1108,8685;0,157411
1109,8328;0,15651
1110,7970;0,155387
1111,7612;0,154014
1112,7255;0,1524
1113,6897;0,150594
1114,6539;0,148683
1115,6182;0,14677
1116,5824;0,14495
1117,5466;0,143286
1118,5109;0,1418
1119,4751;0,140463
1120,4393;0,139206
1121,4036;0,137935
1122,3678;0,136552
1123,3320;0,134978
1124,2963;0,133167
1125,2605;0,131114
1126,2247;0,128848
1127,1890;0,126423
1128,1532;0,123901
1129,1174;0,121343
1130,0817;0,1188
1131,0459;0,116307
1132,0101;0,113893
1132,9744;0,111582
1133,9386;0,109403
1134,9028;0,107393
1135,8671;0,105593
1136,8313;0,104036
1137,7955;0,10274
1138,7598;0,101706
1139,7240;0,100913
1140,6882;0,100336
1141,6525;0,0999451
1142,6167;0,0997116
1143,5809;0,0996109
1144,5452;0,0996216
1145,5094;0,0997276
1146,4736;0,0999201
1147,4379;0,100199
1148,4021;0,100572
1149,3663;0,101047
1150,3306;0,101624
1151,2948;0,10229
1152,2590;0,103013
1153,2233;0,103747
1154,1875;0,104431
1155,1517;0,105003
1156,1160;0,105402
1157,0802;0,105571
1158,0444;0,105451
1159,0087;0,104978
1159,9729;0,104085
1160,9371;0,102711
1161,9014;0,100819
1162,8656;0,0984158
1163,8298;0,0955595
1164,7941;0,0923549
1165,7583;0,0889361
1166,7225;0,0854443
1167,6868;0,082007
1168,6510;0,078726
1169,6152;0,075673
1170,5795;0,0728912
1171,5437;0,0704006
1172,5079;0,0682039
1173,4722;0,0662906
1174,4364;0,0646409
1175,4006;0,063228
1176,3649;0,0620222
1177,3291;0,0609947
1178,2933;0,0601212
1179,2576;0,059384
1180,2218;0,058771
1181,1860;0,0582728
1182,1503;0,0578813
1183,1145;0,0575881
1184,0787;0,057386
1185,0430;0,0572694
1186,0072;0,0572352
1186,9714;0,0572828
1187,9357;0,0574146
1188,8999;0,0576361
1189,8641;0,0579542
1190,8284;0,0583738
1191,7926;0,0588947
1192,7568;0,0595094
1193,7211;0,0602054
1194,6853;0,0609695
1195,6495;0,0617914
1196,6138;0,0626635
1197,5780;0,0635769
1198,5422;0,0645176
1199,5065;0,0654152
1200,4707;0,0663572
1201,4349;0,067272
1202,3992;0,0681525
1203,3634;0,068998
1204,3276;0,0698089
1205,2919;0,0705847
1206,2561;0,0713256
1207,2203;0,0720391
1208,1846;0,0727443
1209,1488;0,0734719
1210,1130;0,0742567
1211,0773;0,0751279
1212,0415;0,0761003
1213,0057;0,0771722
1213,9700;0,0783282
1214,9342;0,0795461
1215,8984;0,0808021
1216,8627;0,0820739
1217,8269;0,083341
1218,7911;0,0845857
1219,7554;0,0857939
1220,7196;0,0869559
1221,6838;0,0880673
1222,6481;0,0891275
1223,6123;0,0901385
1224,5765;0,0911031
1225,5408;0,0920232
1226,5050;0,0928984
1227,4692;0,0937257
1228,4335;0,0944997
1229,3977;0,0952135
1230,3619;0,0958602
1231,3262;0,0964345
1232,2904;0,0969335
1233,2546;0,0973573
1234,2189;0,0977088
1235,1831;0,0979937
1236,1473;0,0982204
1237,1116;0,098399
1238,0758;0,098539
1239,0400;0,0986466
1240,0043;0,098722
1240,9685;0,0987591
1241,9327;0,0987474
1242,8970;0,098676
1243,8612;0,0985359
1244,8254;0,0983232
1245,7897;0,0980389
1246,7539;0,0976894
1247,7181;0,0972853
1248,6824;0,0968405
1249,6466;0,0963693
1250,6108;0,0958846
1251,5751;0,0953953
1252,5393;0,0949064
1253,5035;0,0944199
1254,4678;0,0939351
1255,4320;0,0934488
1256,3962;0,0929547
1257,3605;0,0924427
1258,3247;0,0919017
1259,2889;0,0913216
1260,2532;0,0906952
1261,2174;0,0900178
1262,1816;0,089285
1263,1459;0,0884926
1264,1101;0,0876373
1265,0743;0,0867204
1266,0386;0,0857491
1267,0028;0,0847344
1267,9670;0,0836866
1268,9313;0,0826119
1269,8955;0,0815125
1270,8597;0,0803908
1271,8240;0,0792531
1272,7882;0,0781121
1273,7524;0,0769844
1274,7167;0,075887
1275,6809;0,0748333
1276,6451;0,0738301
1277,6094;0,0728765
1278,5736;0,0719638
1279,5378;0,0710792
1280,5021;0,070211
1281,4663;0,0693551
1282,4305;0,068517
1283,3948;0,06771
1284,3590;0,0669488
1285,3232;0,0662453
1286,2875;0,0656065
1287,2517;0,0650367
1288,2159;0,0645404
1289,1802;0,0641226
1290,1444;0,0637874
1291,1086;0,0635357
1292,0729;0,0633661
1293,0371;0,063277
1294,0013;0,0632694
1294,9656;0,0633465
1295,9298;0,0635122
1296,8940;0,0637681
1297,8583;0,0641122
1298,8225;0,0645396
1299,7867;0,0650439
1300,7510;0,0656171
1301,7152;0,0662512
1302,6794;0,0669377
1303,6437;0,0676695
1304,6079;0,0684424
1305,5721;0,0692542
1306,5364;0,070102
1307,5006;0,0709806
1308,4648;0,0718822
1309,4291;0,072797
1310,3933;0,0737129
1311,3575;0,0746125
1312,3218;0,0754703
1313,2860;0,0762525
1314,2502;0,076922
1315,2145;0,0774446
1316,1787;0,0777945
1317,1429;0,077959
1318,1072;0,0779435
1319,0714;0,0777751
1320,0356;0,0774992
1320,9999;0,0771667
1321,9641;0,0768198
1322,9283;0,0764854
1323,8926;0,0761772
1324,8568;0,0759026
1325,8210;0,0756667
1326,7853;0,0754725
1327,7495;0,0753173
1328,7137;0,07519
1329,6780;0,0750709
1330,6422;0,0749358
1331,6064;0,0747633
1332,5707;0,0745412
1333,5349;0,074267
1334,4991;0,073941
1335,4634;0,0735563
1336,4276;0,0730936
1337,3918;0,0725283
1338,3561;0,0718536
1339,3203;0,0711066
1340,2845;0,0703653
1341,2488;0,0697077
1342,2130;0,0691722
1343,1772;0,068754
1344,1415;0,0684291
1345,1057;0,0681768
1346,0699;0,067992
1347,0342;0,0678847
1347,9984;0,0678745
1348,9626;0,0679785
1349,9269;0,0682018
1350,8911;0,0685323
1351,8553;0,0689462
1352,8196;0,0694188
1353,7838;0,0699363
1354,7480;0,0704996
1355,7123;0,0711164
1356,6765;0,0717889
1357,6407;0,0725071
1358,6050;0,0732517
1359,5692;0,0740009
1360,5334;0,0747316
1361,4977;0,0754194
1362,4619;0,0760453
1363,4261;0,0766073
1364,3904;0,0771202
1365,3546;0,0775996
1366,3188;0,0780497
1367,2831;0,078462
1368,2473;0,0788199
1369,2115;0,0791019
1370,1758;0,0792823
1371,1400;0,0793304
1372,1042;0,0792134
1373,0685;0,0789097
1374,0327;0,0784336
1374,9969;0,0778422
1375,9612;0,0771989
1376,9254;0,0765208
1377,8896;0,0757668
1378,8539;0,0748805
1379,8181;0,0738464
1380,7823;0,0727174
1381,7466;0,0715864
1382,7108;0,0705216
1383,6750;0,0695217
1384,6393;0,0685266
1385,6035;0,067477
1386,5677;0,0663885
1387,5320;0,0653777
1388,4962;0,0645837
1389,4604;0,0640568
1390,4247;0,0637404
1391,3889;0,0635362
1392,3531;0,0633661
1393,3174;0,0631959
1394,2816;0,0630317
1395,2458;0,0629008
1396,2101;0,0628278
1397,1743;0,0628224
1398,1385;0,0628854
1399,1028;0,0630172
1400,0670;0,0632157
1401,0313;0,0634699
1401,9955;0,0637596
1402,9597;0,0640663
1403,9240;0,0643844
1404,8882;0,0647265
1405,8524;0,0651148
1406,8167;0,0655633
1407,7809;0,0660685
1408,7451;0,0666175
1409,7094;0,0672032
1410,6736;0,0678304
1411,6378;0,0685059
1412,6021;0,0692233
1413,5663;0,0699566
1414,5305;0,0706687
1415,4948;0,0713229
1416,4590;0,0718891
1417,4232;0,0723474
1418,3875;0,0727016
1419,3517;0,0729865
1420,3159;0,0732331
1421,2802;0,0734204
1422,2444;0,0734852
1423,2086;0,0733741
1424,1729;0,073082
1425,1371;0,072646
1426,1013;0,0721026
1427,0656;0,071446
1428,0298;0,070634
1428,9940;0,0696489
1429,9583;0,0685586
1430,9225;0,0674987
1431,8867;0,0665687
1432,8510;0,0657509
1433,8152;0,0649241
1434,7794;0,0639479
1435,7437;0,0627859
1436,7079;0,0616044
1437,6721;0,0606816
1438,6364;0,0601614
1439,6006;0,0599756
1440,5648;0,059979
1441,5291;0,0600702
1442,4933;0,0602172
1443,4575;0,0604298
1444,4218;0,0607221
1445,3860;0,0610892
1446,3502;0,0615051
1447,3145;0,0619374
1448,2787;0,0623633
1449,2429;0,062776
1450,2072;0,0631743
1451,1714;0,0635487
1452,1356;0,0638754
1453,0999;0,0641189
1454,0641;0,0642265
1455,0283;0,0641116
1455,9926;0,0636679
1456,9568;0,0629329
1457,9210;0,0622489
1458,8853;0,0619305
1459,8495;0,0619305
1460,8137;0,0620198
1461,7780;0,061984
1462,7422;0,0616547
1463,7064;0,0609231
1464,6707;0,0598205
1465,6349;0,0585627
1466,5991;0,0573977
1467,5634;0,0564021
1468,5276;0,0554684
1469,4918;0,054405
1470,4561;0,0530076
1471,4203;0,0511286
1472,3845;0,0488274
1473,3488;0,046485
1474,3130;0,0445544
1475,2772;0,0431732
1476,2415;0,042193
1477,2057;0,0414283
1478,1699;0,0407691
1479,1342;0,0401723
1480,0984;0,0396316
1481,0626;0,0391608
1482,0269;0,0387861
1482,9911;0,0385322
1483,9553;0,0384052
1484,9196;0,0383849
1485,8838;0,0384309
1486,8480;0,0384983
1487,8123;0,0385577
1488,7765;0,0386245
1489,7407;0,0387685
1490,7050;0,0390563
1491,6692;0,0394888
1492,6334;0,0400206
1493,5977;0,0406134
1494,5619;0,0412609
1495,5261;0,041986
1496,4904;0,0428193
1497,4546;0,0437686
1498,4188;0,0448012
1499,3831;0,045859
1500,3473;0,0468808
1501,3115;0,0478136
1502,2758;0,0486187
1503,2400;0,0492745
1504,2042;0,0497698
1505,1685;0,0500708
1506,1327;0,0500745
1507,0969;0,0497064
1508,0612;0,0491709
1509,0254;0,0487458
1509,9896;0,048456
1510,9539;0,0481935
1511,9181;0,0478635
1512,8823;0,0474049
1513,8466;0,0467785
1514,8108;0,0459734
1515,7750;0,0450243
1516,7393;0,0440054
1517,7035;0,042982
1518,6677;0,0419645
1519,6320;0,0409224
1520,5962;0,0398567
1521,5604;0,038856
1522,5247;0,038047
1523,4889;0,0374859
1524,4531;0,03713
1525,4174;0,0369043
1526,3816;0,0367666
1527,3458;0,0367156
1528,3101;0,0367558
1529,2743;0,03687
1530,2385;0,0370223
1531,2028;0,0371786
1532,1670;0,0373283
1533,1312;0,0374938
1534,0955;0,0377126
1535,0597;0,0379965
1536,0239;0,0383153
1536,9882;0,0386195
1537,9524;0,0388631
1538,9166;0,0389996
1539,8809;0,0389816
1540,8451;0,0388451
1541,8093;0,0387722
1542,7736;0,0388799
1543,7378;0,0391128
1544,7020;0,0393863
1545,6663;0,0396662
1546,6305;0,0399518
1547,5947;0,0402435
1548,5590;0,0405286
1549,5232;0,0407896
1550,4874;0,0410229
1551,4517;0,0412497
1552,4159;0,0415016
1553,3801;0,0417899
1554,3444;0,0420867
1555,3086;0,042326
1556,2728;0,0424086
1557,2371;0,0422197
1558,2013;0,0417783
1559,1655;0,0414561
1560,1298;0,0416153
1561,0940;0,0421694
1562,0582;0,0428708
1563,0225;0,0435656
1563,9867;0,0441912
1564,9509;0,0447282
1565,9152;0,0451777
1566,8794;0,0455647
1567,8436;0,045947
1568,8079;0,0464017
1569,7721;0,0469722
1570,7363;0,047628
1571,7006;0,0482933
1572,6648;0,0489078
1573,6290;0,0494587
1574,5933;0,0499839
1575,5575;0,0505542
1576,5217;0,0512296
1577,4860;0,0520137
1578,4502;0,0528633
1579,4144;0,0537355
1580,3787;0,0546095
1581,3429;0,0554811
1582,3071;0,0563505
1583,2714;0,0572171
1584,2356;0,058083
1585,1998;0,0589547
1586,1641;0,0598353
1587,1283;0,0607129
1588,0925;0,0615558
1589,0568;0,0623212
1590,0210;0,0629688
1590,9852;0,063468
1591,9495;0,0637953
1592,9137;0,0639327
1593,8779;0,0638756
1594,8422;0,0636458
1595,8064;0,0632914
1596,7706;0,0628679
1597,7349;0,0624152
1598,6991;0,0619499
1599,6633;0,0614739
1600,6276;0,06099
1601,5918;0,0605115
1602,5560;0,060061
1603,5203;0,0596585
1604,4845;0,059306
1605,4487;0,0589822
1606,4130;0,0586527
1607,3772;0,0582937
1608,3414;0,0579197
1609,3057;0,0575887
1610,2699;0,0573658
1611,2341;0,0572715
1612,1984;0,0572642
1613,1626;0,0572619
1614,1268;0,0571775
1615,0911;0,0569659
1616,0553;0,0566847
1617,0195;0,0564943
1617,9838;0,0565173
1618,9480;0,0567253
1619,9122;0,0569993
1620,8765;0,0572306
1621,8407;0,0573654
1622,8049;0,0574133
1623,7692;0,0574332
1624,7334;0,0574858
1625,6976;0,0575882
1626,6619;0,0577206
1627,6261;0,0578666
1628,5903;0,0580346
1629,5546;0,0582416
1630,5188;0,058484
1631,4830;0,0587247
1632,4473;0,0589002
1633,4115;0,0589303
1634,3757;0,0587437
1635,3400;0,0583632
1636,3042;0,0579838
1637,2684;0,0578176
1638,2327;0,0578839
1639,1969;0,0580762
1640,1611;0,0583031
1641,1254;0,058522
1642,0896;0,0587123
1643,0538;0,0588408
1644,0181;0,0588419
1644,9823;0,0586351
1645,9465;0,0582202
1646,9108;0,0577774
1647,8750;0,057536
1648,8392;0,0575329
1649,8035;0,0576058
1650,7677;0,0574978
1651,7319;0,0569002
1652,6962;0,055645
1653,6604;0,0541788
1654,6246;0,0532718
1655,5889;0,0530313
1656,5531;0,0530908
1657,5173;0,0531497
1658,4816;0,0530563
1659,4458;0,0527357
1660,4100;0,0521556
1661,3743;0,0513583
1662,3385;0,0504994
1663,3027;0,0497778
1664,2670;0,049286
1665,2312;0,0489628
1666,1954;0,0486585
1667,1597;0,0482064
1668,1239;0,0474891
1669,0881;0,0465335
1670,0524;0,045547
1671,0166;0,0447508
1671,9808;0,044174
1672,9451;0,0436769
1673,9093;0,0431125
1674,8735;0,0424506
1675,8378;0,041803
1676,8020;0,0413263
1677,7662;0,0410818
1678,7305;0,0410022
1679,6947;0,0409512
1680,6589;0,0407692
1681,6232;0,0402812
1682,5874;0,039351
1683,5516;0,03808
1684,5159;0,0369075
1685,4801;0,0361968
1686,4443;0,0358983
1687,4086;0,0357767
1688,3728;0,0356659
1689,3370;0,0355152
1690,3013;0,0353458
1691,2655;0,0351961
1692,2297;0,035086
1693,1940;0,0350059
1694,1582;0,0349237
1695,1224;0,034799
1696,0867;0,0345968
1697,0509;0,0343034
1698,0151;0,0339462
1698,9794;0,0336059
1699,9436;0,0333925
1700,9078;0,033378
1701,8721;0,0335524
1702,8363;0,0338477
1703,8005;0,0341908
1704,7648;0,0345392
1705,7290;0,0348911
1706,6932;0,0352758
1707,6575;0,0357302
1708,6217;0,0362741
1709,5859;0,0369037
1710,5502;0,0375989
1711,5144;0,0383288
1712,4786;0,039053
1713,4429;0,0397231
1714,4071;0,0402935
1715,3713;0,0407451
1716,3356;0,0411249
1717,2998;0,0415488
1718,2640;0,0421105
1719,2283;0,0428029
1720,1925;0,0435611
1721,1567;0,0443269
1722,1210;0,0450651
1723,0852;0,045756
1724,0494;0,0463922
1725,0137;0,0469818
1725,9779;0,0475487
1726,9421;0,0481198
1727,9064;0,0487049
1728,8706;0,0492817
1729,8348;0,0497882
1730,7991;0,0501201
1731,7633;0,0501495
1732,7275;0,049806
1733,6918;0,0492061
1734,6560;0,0486194
1735,6202;0,0482134
1736,5845;0,0479351
1737,5487;0,0476252
1738,5129;0,0471459
1739,4772;0,0464433
1740,4414;0,045565
1741,4056;0,0446256
1742,3699;0,0437202
1743,3341;0,0428658
1744,2983;0,04202
1745,2626;0,0411294
1746,2268;0,0401424
1747,1910;0,038993
1748,1553;0,0376065
1749,1195;0,0359785
1750,0837;0,0342636
1751,0480;0,0327112
1752,0122;0,0314742
1752,9764;0,0305246
1753,9407;0,0297294
1754,9049;0,0289586
1755,8691;0,0281494
1756,8334;0,0273155
1757,7976;0,0265048
1758,7618;0,0257384
1759,7261;0,0249885
1760,6903;0,0242186
1761,6545;0,0234443
1762,6188;0,0227413
1763,5830;0,0221855
1764,5472;0,0217911
1765,5115;0,0215084
1766,4757;0,021264
1767,4399;0,0209976
1768,4042;0,020675
1769,3684;0,0202813
1770,3326;0,0198139
1771,2969;0,0192959
1772,2611;0,0187993
1773,2253;0,0184234
1774,1896;0,0182226
1775,1538;0,0181711
1776,1180;0,0181958
1777,0823;0,0182226
1778,0465;0,018204
1779,0107;0,0181268
1779,9750;0,0180076
1780,9392;0,0178728
1781,9034;0,017738
1782,8677;0,0176063
1783,8319;0,0174854
1784,7961;0,0173998
1785,7604;0,0173811
1786,7246;0,017442
1787,6888;0,0175614
1788,6531;0,0176874
1789,6173;0,0177537
1790,5815;0,0177046
1791,5458;0,017535
1792,5100;0,0173176
1793,4742;0,0171574
1794,4385;0,0171048
1795,4027;0,0171334
1796,3669;0,0171842
1797,3312;0,0172066
1798,2954;0,0171749
1799,2596;0,0170911
1800,2239;0,01698
1801,1881;0,0168741
1802,1523;0,0167966
1803,1166;0,0167536
1804,0808;0,0167407
1805,0450;0,0167497
1806,0093;0,0167715
1806,9735;0,0167932
1807,9377;0,0167984
1808,9020;0,016771
1809,8662;0,0167052
1810,8304;0,0166128
1811,7947;0,016519
1812,7589;0,0164466
1813,7231;0,016404
1814,6874;0,0163861
1815,6516;0,0163826
1816,6158;0,0163879
1817,5801;0,0164047
1818,5443;0,01644
1819,5085;0,0164957
1820,4728;0,0165632
1821,4370;0,0166264
1822,4012;0,0166709
1823,3655;0,0166924
1824,3297;0,0166971
1825,2939;0,0166932
1826,2582;0,016676
1827,2224;0,0166252
1828,1866;0,0165193
1829,1509;0,016362
1830,1151;0,0161969
1831,0793;0,0160854
1832,0436;0,0160618
1833,0078;0,0161137
1833,9720;0,0162009
1834,9363;0,0162832
1835,9005;0,0163404
1836,8647;0,0163778
1837,8290;0,0164163
1838,7932;0,0164711
1839,7574;0,016536
1840,7217;0,0165846
1841,6859;0,0165839
1842,6501;0,0165131
1843,6144;0,0163847
1844,5786;0,016248
1845,5428;0,0161556
1846,5071;0,0161228
1847,4713;0,0161274
1848,4355;0,0161377
1849,3998;0,0161353
1850,3640;0,0161183
1851,3282;0,016095
1852,2925;0,0160745
1853,2567;0,0160625
1854,2209;0,0160633
1855,1852;0,0160835
1856,1494;0,0161286
1857,1136;0,0161949
1858,0779;0,0162635
1859,0421;0,0163054
1860,0063;0,0162991
1860,9706;0,0162488
1861,9348;0,0161858
1862,8990;0,0161508
1863,8633;0,0161687
1864,8275;0,0162335
1865,7917;0,0163095
1866,7560;0,0163472
1867,7202;0,0163132
1868,6844;0,0162206
1869,6487;0,0161231
1870,6129;0,016068
1871,5771;0,0160625
1872,5414;0,0160818
1873,5056;0,0160967
1874,4698;0,0160917
1875,4341;0,0160712
1876,3983;0,0160526
1877,3625;0,0160524
1878,3268;0,0160738
1879,2910;0,0161062
1880,2552;0,0161342
1881,2195;0,0161481
1882,1837;0,0161486
1883,1479;0,0161423
1884,1122;0,0161352
1885,0764;0,0161279
1886,0406;0,0161186
1887,0049;0,0161081
1887,9691;0,016103
1888,9333;0,0161119
1889,8976;0,0161367
1890,8618;0,0161655
1891,8260;0,0161765
1892,7903;0,0161508
1893,7545;0,0160847
1894,7188;0,0159952
1895,6830;0,0159147
1896,6472;0,0158748
1897,6115;0,0158869
1898,5757;0,0159366
1899,5399;0,0159939
1900,5042;0,016033
1901,4684;0,016047
1902,4326;0,0160497
1903,3969;0,0160639
1904,3611;0,0161023
1905,3253;0,016155
1906,2896;0,0161922
1907,2538;0,0161812
1908,2180;0,0161066
1909,1823;0,0159833
1910,1465;0,0158506
1911,1107;0,0157502
1912,0750;0,0157057
1913,0392;0,015718
1914,0034;0,0157759
1914,9677;0,0158655
1915,9319;0,0159725
1916,8961;0,0160781
1917,8604;0,0161567
1918,8246;0,0161828
1919,7888;0,0161433
1920,7531;0,0160448
1921,7173;0,0159108
1922,6815;0,0157734
1923,6458;0,0156616
1924,6100;0,0155906
1925,5742;0,0155601
1926,5385;0,0155613
1927,5027;0,0155857
1928,4669;0,0156281
1929,4312;0,0156824
1930,3954;0,0157366
1931,3596;0,015773
1932,3239;0,0157739
1933,2881;0,0157297
1934,2523;0,0156421
1935,2166;0,0155213
1936,1808;0,0153817
1937,1450;0,0152391
1938,1093;0,0151124
1939,0735;0,015025
1940,0377;0,0150023
1941,0020;0,015058
1941,9662;0,0151759
1942,9304;0,0153026
1943,8947;0,0153685
1944,8589;0,0153257
1945,8231;0,0151724
1946,7874;0,0149482
1947,7516;0,0147122
1948,7158;0,0145176
1949,6801;0,014395
1950,6443;0,0143464
1951,6085;0,0143527
1952,5728;0,0143865
1953,5370;0,0144207
1954,5012;0,0144321
1955,4655;0,014403
1956,4297;0,0143258
1957,3939;0,0142108
1958,3582;0,0140904
1959,3224;0,0140127
1960,2866;0,0140218
1961,2509;0,0141323
1962,2151;0,0143134
1963,1793;0,0144935
1964,1436;0,0145835
1965,1078;0,0145121
1966,0720;0,0142648
1967,0363;0,0139072
1968,0005;0,0135679
1968,9647;0,0133774
1969,9290;0,0133982
1970,8932;0,0135938
1971,8574;0,0138501
1972,8217;0,0140341
1973,7859;0,014063
1974,7501;0,0139503
1975,7144;0,0137969
1976,6786;0,0137243
1977,6428;0,0137896
1978,6071;0,0139501
1979,5713;0,014103
1980,5355;0,014162
1981,4998;0,0141097
1982,4640;0,013998
1983,4282;0,0139123
1984,3925;0,0139246
1985,3567;0,0140617
1986,3209;0,0142981
1987,2852;0,0145763
1988,2494;0,014836
1989,2136;0,0150348
1990,1779;0,0151547
1991,1421;0,0151984
1992,1063;0,0151829
1993,0706;0,0151338
1994,0348;0,0150796
1994,9990;0,0150428
1995,9633;0,0150308
1996,9275;0,0150288
1997,8917;0,0150019
1998,8560;0,0149096
1999,8202;0,0147315
2000,7844;0,0144897
2001,7487;0,0142545
2002,7129;0,0141271
2003,6771;0,0142012
2004,6414;0,0145186
2005,6056;0,0150336
2006,5698;0,0156136
2007,5341;0,0160894
2008,4983;0,0163368
2009,4625;0,0163365
2010,4268;0,0161717
2011,3910;0,0159683
2012,3552;0,0158195
2013,3195;0,015742
2014,2837;0,0156854
2015,2479;0,0155848
2016,2122;0,0154205
2017,1764;0,0152397
2018,1406;0,0151223
2019,1049;0,0151191
2020,0691;0,0152158
2021,0333;0,0153479
2021,9976;0,0154487
2022,9618;0,0154885
2023,9260;0,0154813
2024,8903;0,015461
2025,8545;0,015451
2026,8187;0,0154532
2027,7830;0,0154592
2028,7472;0,0154689
2029,7114;0,0154949
2030,6757;0,0155542
2031,6399;0,0156569
2032,6041;0,0158033
2033,5684;0,0159883
2034,5326;0,016202
2035,4968;0,0164244
2036,4611;0,0166229
2037,4253;0,0167626
2038,3895;0,0168253
2039,3538;0,0168223
2040,3180;0,0167873
2041,2822;0,0167522
2042,2465;0,0167253
2043,2107;0,0166934
2044,1749;0,016647
2045,1392;0,0166066
2046,1034;0,0166229
2047,0676;0,0167428
2048,0320;0,0169664
2048,9961;0,0172336
2049,9604;0,0174565
2050,9246;0,0175713
2051,8889;0,0175699
2052,8530;0,0174955
2053,8174;0,017415
2054,7815;0,0173855
2055,7458;0,0174311
2056,7100;0,0175376
2057,6743;0,017665
2058,6384;0,0177698
2059,6028;0,0178255
2060,5669;0,0178356
2061,5313;0,0178331
2062,4954;0,0178651
2063,4597;0,0179657
2064,4238;0,0181294
2065,3882;0,0183057
2066,3523;0,0184237
2067,3167;0,0184351
2068,2808;0,0183466
2069,2451;0,0182193
2070,2092;0,0181348
2071,1736;0,0181471
2072,1377;0,018252
2073,1021;0,0183922
2074,0662;0,0184944
2075,0305;0,0185134
2075,9946;0,0184553
2076,9590;0,0183677
2077,9231;0,0183092
2078,8875;0,0183176
2079,8516;0,0183955
2080,8159;0,0185173
2081,7800;0,0186483
2082,7444;0,0187617
2083,7085;0,0188469
2084,6729;0,0189065
2085,6370;0,0189461
2086,6013;0,0189656
2087,5654;0,0189564
2088,5298;0,0189069
2089,4939;0,0188131
2090,4583;0,0186874
2091,4224;0,018559
2092,3867;0,0184643
2093,3508;0,0184327
2094,3152;0,0184743
2095,2793;0,0185777
2096,2437;0,0187177
2097,2078;0,0188685
2098,1721;0,0190128
2099,1362;0,0191423
2100,1006;0,0192521
2101,0647;0,0193367
2102,0291;0,0193889
2102,9932;0,0194029
2103,9575;0,0193787
2104,9216;0,0193245
2105,8860;0,0192569
2106,8501;0,0191994
2107,8145;0,0191775
2108,7786;0,0192095
2109,7429;0,0192958
2110,7070;0,0194134
2111,6714;0,0195214
2112,6355;0,0195768
2113,5999;0,0195545
2114,5640;0,0194574
2115,5283;0,0193136
2116,4924;0,0191618
2117,4568;0,0190345
2118,4209;0,0189501
2119,3853;0,0189142
2120,3494;0,0189245
2121,3137;0,0189754
2122,2778;0,0190567
2123,2422;0,0191518
2124,2063;0,0192392
2125,1707;0,0192983
2126,1348;0,0193164
2127,0991;0,0192916
2128,0632;0,0192291
2129,0276;0,0191354
2129,9917;0,019016
2130,9561;0,0188804
2131,9202;0,0187492
2132,8845;0,0186578
2133,8486;0,0186468
2134,8130;0,0187412
2135,7771;0,0189281
2136,7415;0,0191508
2137,7056;0,0193274
2138,6699;0,0193885
2139,6340;0,0193119
2140,5984;0,0191365
2141,5625;0,018946
2142,5269;0,0188285
2143,4910;0,018835
2144,4553;0,0189593
2145,4194;0,0191504
2146,3838;0,0193485
2147,3479;0,0195156
2148,3123;0,0196426
2149,2764;0,0197286
2150,2407;0,0197577
2151,2048;0,0196956
2152,1692;0,0195136
2153,1333;0,0192223
2154,0977;0,0188888
2155,0618;0,0186249
2156,0261;0,0185466
2156,9902;0,0187203
2157,9546;0,0191169
2158,9187;0,0196084
2159,8831;0,0200249
2160,8472;0,0202369
2161,8115;0,0202037
2162,7756;0,0199707
2163,7400;0,0196402
2164,7041;0,0193322
2165,6685;0,0191409
2166,6326;0,0190982
2167,5969;0,0191646
2168,5610;0,0192568
2169,5254;0,0192984
2170,4895;0,0192614
2171,4539;0,0191776
2172,4180;0,0191147
2173,3823;0,0191339
2174,3464;0,019255
2175,3108;0,019447
2176,2749;0,0196479
2177,2393;0,0197969
2178,2034;0,0198589
2179,1677;0,0198318
2180,1318;0,0197413
2181,0962;0,019631
2182,0603;0,0195494
2183,0247;0,0195351
2183,9888;0,0196005
2184,9531;0,0197238
2185,9172;0,0198562
2186,8816;0,0199431
2187,8457;0,0199511
2188,8101;0,0198827
2189,7742;0,0197718
2190,7385;0,0196604
2191,7026;0,0195751
2192,6670;0,0195184
2193,6311;0,0194821
2194,5955;0,0194676
2195,5596;0,0194951
2196,5239;0,0195894
2197,4880;0,0197509
2198,4524;0,0199369
2199,4165;0,0200723
2200,3809;0,0200886
2201,3450;0,0199675
2202,3093;0,0197571
2203,2734;0,0195496
2204,2378;0,0194326
2205,2019;0,0194456
2206,1663;0,0195694
2207,1304;0,0197482
2208,0947;0,0199254
2209,0588;0,0200683
2210,0232;0,0201684
2210,9873;0,0202271
2211,9517;0,0202422
2212,9158;0,0202071
2213,8801;0,0201216
2214,8442;0,0200024
2215,8086;0,0198842
2216,7727;0,019809
2217,7371;0,0198094
2218,7012;0,0198945
2219,6655;0,0200442
2220,6296;0,0202147
2221,5940;0,020353
2222,5581;0,0204175
2223,5225;0,0203945
2224,4866;0,0203039
2225,4509;0,0201892
2226,4150;0,0200943
2227,3794;0,020043
2228,3435;0,0200292
2229,3079;0,0200273
2230,2720;0,0200135
2231,2363;0,019983
2232,2004;0,0199531
2233,1648;0,0199496
2234,1289;0,0199874
2235,0933;0,0200585
2236,0574;0,0201335
2237,0217;0,0201774
2237,9858;0,0201664
2238,9502;0,020099
2239,9143;0,019995
2240,8787;0,0198851
2241,8428;0,0197982
2242,8071;0,0197523
2243,7712;0,019751
2244,7356;0,0197863
2245,6997;0,0198434
2246,6641;0,019905
2247,6282;0,0199545
2248,5925;0,0199787
2249,5566;0,0199714
2250,5210;0,0199366
2251,4851;0,0198898
2252,4495;0,019855
2253,4136;0,019855
2254,3779;0,0198995
2255,3420;0,019976
2256,3064;0,0200514
2257,2705;0,020085
2258,2349;0,0200478
2259,1990;0,0199377
2260,1633;0,0197819
2261,1274;0,0196256
2262,0918;0,0195129
2263,0559;0,0194702
2264,0203;0,0195002
2264,9844;0,0195865
2265,9487;0,0197048
2266,9128;0,0198307
2267,8772;0,0199438
2268,8413;0,0200279
2269,8057;0,0200724
2270,7698;0,0200749
2271,7341;0,0200431
2272,6982;0,0199931
2273,6626;0,0199427
2274,6267;0,0199055
2275,5911;0,0198884
2276,5552;0,0198934
2277,5195;0,0199206
2278,4836;0,0199701
2279,4480;0,0200405
2280,4121;0,0201272
2281,3765;0,0202221
2282,3406;0,0203156
2283,3049;0,0203988
2284,2690;0,0204648
2285,2334;0,0205095
2286,1975;0,0205335
2287,1619;0,0205442
2288,1260;0,0205549
2289,0903;0,0205805
2290,0544;0,0206292
2291,0188;0,0206959
2291,9829;0,0207629
2292,9473;0,0208084
2293,9114;0,0208194
2294,8757;0,0208011
2295,8398;0,020776
2296,8042;0,0207746
2297,7683;0,0208219
2298,7327;0,0209292
2299,6968;0,0210922
2300,6611;0,0212961
2301,6252;0,0215216
2302,5896;0,0217513
2303,5537;0,021972
2304,5181;0,0221771
2305,4822;0,022367
2306,4465;0,0225461
2307,4106;0,0227181
2308,3750;0,0228787
2309,3391;0,0230147
2310,3035;0,0231112
2311,2676;0,0231645
2312,2319;0,0231919
2313,1960;0,0232284
2314,1604;0,0233108
2315,1245;0,0234591
2316,0889;0,0236673
2317,0530;0,0239058
2318,0173;0,0241323
2318,9814;0,0243054
2319,9458;0,0243936
2320,9099;0,0243786
2321,8743;0,0242552
2322,8384;0,0240342
2323,8027;0,0237472
2324,7668;0,0234457
2325,7312;0,0231871
2326,6953;0,0230138
2327,6597;0,0229354
2328,6238;0,0229238
2329,5881;0,0229261
2330,5522;0,0228894
2331,5166;0,0227868
2332,4807;0,022625
2333,4451;0,0224304
2334,4092;0,0222232
2335,3735;0,0220012
2336,3376;0,0217443
2337,3020;0,0214366
2338,2661;0,0210887
2339,2305;0,0207451
2340,1946;0,0204741
2341,1589;0,0203553
2342,1230;0,0204616
2343,0874;0,020808
2344,0515;0,0212808
2345,0159;0,0216723
2345,9800;0,0218543
2346,9443;0,0218806
2347,9084;0,0219091
2348,8728;0,0220715
2349,8369;0,0223963
2350,8013;0,0228003
2351,7654;0,0231344
2352,7297;0,0232747
2353,6938;0,0232073
2354,6582;0,0230182
2355,6223;0,0227869
2356,5867;0,022525
2357,5508;0,022229
2358,5151;0,021949
2359,4792;0,0217739
2360,4436;0,0217528
2361,4077;0,0218515
2362,3721;0,0219897
2363,3362;0,0221079
2364,3005;0,0222002
2365,2646;0,022299
2366,2290;0,0224399
2367,1931;0,0226359
2368,1575;0,0228726
2369,1216;0,0231165
2370,0859;0,02333
2371,0500;0,0234832
2372,0144;0,0235604
2372,9785;0,0235604
2373,9429;0,0234912
2374,9070;0,0233645
2375,8713;0,0231913
2376,8354;0,0229808
2377,7998;0,0227427
2378,7639;0,022489
2379,7283;0,0222361
2380,6924;0,022002
2381,6567;0,0218015
2382,6208;0,0216415
2383,5852;0,0215196
2384,5493;0,0214277
2385,5137;0,0213585
2386,4778;0,0213092
2387,4421;0,0212823
2388,4063;0,02128
2389,3706;0,0212988
2390,3347;0,0213276
2391,2991;0,0213523
2392,2632;0,0213641
2393,2275;0,0213645
2394,1917;0,0213635
2395,1560;0,0213724
2396,1201;0,0213956
2397,0845;0,0214278
2398,0486;0,0214588
2399,0129;0,0214816
2399,9771;0,0214976
2400,9414;0,0215152
2401,9055;0,0215444
2402,8699;0,0215902
2403,8340;0,0216488
2404,7983;0,02171
2405,7625;0,0217606
2406,7268;0,0217907
2407,6909;0,0217971
2408,6553;0,0217856
2409,6194;0,0217702
2410,5837;0,0217688
2411,5479;0,0217956
2412,5122;0,0218542
2413,4763;0,021934
2414,4407;0,0220134
2415,4048;0,0220699
2416,3691;0,022091
2417,3333;0,0220801
2418,2976;0,0220529
2419,2617;0,0220279
2420,2261;0,0220154
2421,1902;0,0220138
2422,1545;0,0220145
2423,1187;0,0220105
2424,0830;0,0220042
2425,0471;0,0220065
2426,0115;0,0220305
2426,9756;0,0220828
2427,9399;0,0221593
2428,9041;0,0222469
2429,8684;0,0223295
2430,8325;0,0223947
2431,7969;0,0224368
2432,7610;0,0224574
2433,7253;0,0224634
2434,6895;0,0224647
2435,6538;0,022471
2436,6179;0,0224889
2437,5823;0,0225201
2438,5464;0,0225609
2439,5107;0,0226051
2440,4749;0,0226477
2441,4392;0,0226874
2442,4033;0,0227267
2443,3677;0,0227692
2444,3318;0,0228162
2445,2961;0,0228661
2446,2603;0,0229154
2447,2246;0,0229607
2448,1887;0,0230005
2449,1531;0,0230348
2450,1172;0,023064
2451,0815;0,0230881
2452,0457;0,0231064
2453,0100;0,0231175
2453,9741;0,0231209
2454,9385;0,0231168
2455,9026;0,0231077
2456,8669;0,0230987
2457,8311;0,0230969
2458,7954;0,0231094
2459,7595;0,0231394
2460,7239;0,0231839
2461,6880;0,0232335
2462,6523;0,0232759
2463,6165;0,0233016
2464,5808;0,0233076
2465,5449;0,0232991
2466,5093;0,0232853
2467,4734;0,0232758
2468,4377;0,023277
2469,4019;0,0232913
2470,3662;0,0233191
2471,3303;0,0233599
2472,2947;0,0234128
2473,2588;0,0234748
2474,2231;0,0235396
2475,1873;0,0235973
2476,1516;0,0236367
2477,1157;0,0236495
2478,0801;0,0236334
2479,0442;0,0235959
2480,0085;0,0235528
2480,9727;0,0235243
2481,9370;0,0235277
2482,9011;0,0235699
2483,8655;0,023644
2484,8296;0,0237317
2485,7939;0,0238115
2486,7581;0,0238678
2487,7224;0,0238964
2488,6865;0,0239032
2489,6509;0,0238985
2490,6150;0,0238909
2491,5793;0,0238857
2492,5435;0,0238861
2493,5078;0,0238954
2494,4719;0,0239158
2495,4363;0,0239459
2496,4004;0,0239782
2497,3647;0,0240013
2498,3289;0,0240062
2499,2932;0,0239913
2500,2573;0,0239647
2501,2217;0,0239405
2502,1858;0,0239314
2503,1501;0,023944
2504,1143;0,0239771
2505,0786;0,0240234
2506,0427;0,0240734
2507,0071;0,0241183
2507,9712;0,024152
2508,9355;0,024173
2509,8997;0,0241847
2510,8640;0,0241942
2511,8281;0,0242091
2512,7925;0,0242335
2513,7566;0,0242649
2514,7209;0,0242946
2515,6851;0,0243118
2516,6494;0,0243094
2517,6135;0,024289
2518,5779;0,0242619
2519,5420;0,0242458
2520,5063;0,0242567
2521,4705;0,0243007
2522,4348;0,0243692
2523,3989;0,0244418
2524,3633;0,0244957
2525,3274;0,0245177
2526,2917;0,0245105
2527,2559;0,0244899
2528,2202;0,0244748
2529,1843;0,0244767
2530,1487;0,0244944
2531,1128;0,0245176
2532,0771;0,0245346
2533,0413;0,0245394
2534,0056;0,0245337
2534,9697;0,0245244
2535,9341;0,0245195
2536,8982;0,0245243
2537,8625;0,0245399
2538,8267;0,0245625
2539,7910;0,0245857
2540,7551;0,024603
2541,7195;0,024612
2542,6836;0,0246165
2543,6479;0,0246244
2544,6121;0,0246427
2545,5764;0,0246721
2546,5405;0,024706
2547,5049;0,0247348
2548,4690;0,0247516
2549,4333;0,0247562
2550,3975;0,0247536
2551,3618;0,0247499
2552,3259;0,0247486
2553,2903;0,0247506
2554,2544;0,0247564
2555,2188;0,0247676
2556,1829;0,0247858
2557,1472;0,0248099
2558,1113;0,0248342
2559,0757;0,0248498
2560,0398;0,0248494
2561,0042;0,0248314
2561,9683;0,0248019
2562,9326;0,024773
2563,8967;0,0247577
2564,8611;0,024764
2565,8252;0,0247912
2566,7896;0,0248304
2567,7537;0,0248687
2568,7180;0,0248957
2569,6821;0,0249092
2570,6465;0,024916
2571,6106;0,0249272
2572,5750;0,0249518
2573,5391;0,0249921
2574,5034;0,0250427
2575,4675;0,0250941
2576,4319;0,0251372
2577,3960;0,0251661
2578,3604;0,0251784
2579,3245;0,025175
2580,2888;0,0251599
2581,2529;0,0251404
2582,2173;0,025126
2583,1814;0,0251254
2584,1458;0,025143
2585,1099;0,025176
2586,0742;0,0252164
2587,0383;0,0252553
2588,0027;0,0252877
2588,9668;0,0253154
2589,9312;0,0253449
2590,8953;0,0253828
2591,8596;0,0254309
2592,8237;0,0254834
2593,7881;0,0255285
2594,7522;0,0255539
2595,7166;0,0255536
2596,6807;0,0255322
2597,6450;0,0255043
2598,6091;0,0254889
2599,5735;0,0255
2600,5376;0,0255398
2601,5020;0,0255978
2602,4661;0,0256572
2603,4304;0,0257041
2604,3945;0,0257352
2605,3589;0,0257577
2606,3230;0,0257831
2607,2874;0,0258184
2608,2515;0,0258614
2609,2158;0,025902
2610,1799;0,0259301
2611,1443;0,0259422
2612,1084;0,0259443
2613,0728;0,0259477
2614,0369;0,0259626
2615,0012;0,025992
2615,9653;0,0260313
2616,9297;0,0260733
2617,8938;0,0261139
2618,8582;0,0261547
2619,8223;0,0262014
2620,7866;0,026257
2621,7507;0,0263179
2622,7151;0,0263727
2623,6792;0,0264083
2624,6436;0,0264176
2625,6077;0,0264045
2626,5720;0,0263839
2627,5361;0,0263743
2628,5005;0,0263887
2629,4646;0,0264291
2630,4290;0,0264856
2631,3931;0,0265432
2632,3574;0,0265892
2633,3215;0,0266196
2634,2859;0,0266388
2635,2500;0,0266561
2636,2144;0,0266794
2637,1785;0,0267115
2638,1428;0,0267499
2639,1069;0,0267896
2640,0713;0,0268264
2641,0354;0,026859
2641,9998;0,0268891
2642,9639;0,0269195
2643,9282;0,0269527
2644,8923;0,0269898
2645,8567;0,0270307
2646,8208;0,0270739
2647,7852;0,0271174
2648,7493;0,0271592
2649,7136;0,027198
2650,6777;0,0272337
2651,6421;0,0272674
2652,6062;0,0273003
2653,5706;0,0273327
2654,5347;0,0273631
2655,4990;0,0273891
2656,4631;0,0274087
2657,4275;0,027422
2658,3916;0,0274314
2659,3560;0,0274405
2660,3201;0,0274525
2661,2844;0,0274689
2662,2485;0,0274894
2663,2129;0,0275128
2664,1770;0,0275385
2665,1414;0,0275667
2666,1055;0,0275989
2667,0698;0,0276358
2668,0339;0,0276773
2668,9983;0,0277213
2669,9624;0,0277649
2670,9268;0,0278052
2671,8909;0,0278412
2672,8552;0,0278737
2673,8193;0,0279052
2674,7837;0,0279378
2675,7478;0,0279723
2676,7122;0,0280074
2677,6763;0,0280407
2678,6406;0,0280714
2679,6047;0,0281009
2680,5691;0,0281328
2681,5332;0,0281707
2682,4976;0,0282156
2683,4617;0,0282649
2684,4260;0,0283135
2685,3901;0,0283563
2686,3545;0,0283916
2687,3186;0,0284215
2688,2830;0,0284509
2689,2471;0,0284849
2690,2114;0,0285259
2691,1755;0,0285729
2692,1399;0,0286214
2693,1040;0,0286665
2694,0684;0,0287045
2695,0325;0,0287351
2695,9968;0,0287612
2696,9609;0,0287874
2697,9253;0,0288183
2698,8894;0,028856
2699,8538;0,0289009
2700,8179;0,028951
2701,7822;0,0290039
2702,7463;0,0290569
2703,7107;0,0291072
2704,6748;0,0291521
2705,6392;0,0291894
2706,6033;0,0292188
2707,5676;0,0292427
2708,5317;0,0292663
2709,4961;0,0292953
2710,4602;0,0293348
2711,4246;0,0293865
2712,3887;0,0294486
2713,3530;0,0295165
2714,3171;0,0295842
2715,2815;0,0296465
2716,2456;0,0297002
2717,2100;0,0297454
2718,1741;0,0297851
2719,1384;0,0298231
2720,1025;0,0298612
2721,0669;0,029898
2722,0310;0,0299296
2722,9954;0,0299526
2723,9595;0,0299679
2724,9238;0,029982
2725,8879;0,0300037
2726,8523;0,0300402
2727,8164;0,0300919
2728,7808;0,0301523
2729,7449;0,0302115
2730,7092;0,0302608
2731,6733;0,0302966
2732,6377;0,0303201
2733,6018;0,0303359
2734,5662;0,0303486
2735,5303;0,0303621
2736,4946;0,0303795
2737,4587;0,0304034
2738,4231;0,0304361
2739,3872;0,030478
2740,3516;0,0305271
2741,3157;0,0305785
2742,2800;0,0306258
2743,2441;0,0306634
2744,2085;0,0306888
2745,1726;0,0307036
2746,1370;0,0307124
2747,1011;0,0307217
2748,0654;0,0307365
2749,0295;0,0307595
2749,9939;0,030791
2750,9580;0,0308308
2751,9224;0,0308785
2752,8865;0,0309338
2753,8508;0,0309949
2754,8149;0,0310575
2755,7793;0,0311156
2756,7434;0,0311645
2757,7078;0,0312038
2758,6719;0,0312377
2759,6362;0,0312726
2760,6003;0,0313132
2761,5647;0,0313589
2762,5288;0,031405
2763,4932;0,0314462
2764,4573;0,031481
2765,4216;0,0315137
2766,3857;0,0315523
2767,3501;0,031604
2768,3142;0,0316704
2769,2786;0,0317456
2770,2427;0,0318188
2771,2070;0,0318795
2772,1711;0,0319228
2773,1355;0,0319525
2774,0996;0,0319797
2775,0640;0,0320169
2776,0281;0,032072
2776,9924;0,0321441
2777,9565;0,0322249
2778,9209;0,0323038
2779,8850;0,032374
2780,8494;0,032436
2781,8135;0,0324961
2782,7778;0,0325612
2783,7419;0,032633
2784,7063;0,0327067
2785,6704;0,0327736
2786,6348;0,0328271
2787,5989;0,0328675
2788,5632;0,0329025
2789,5273;0,0329434
2790,4917;0,0329995
2791,4558;0,0330735
2792,4202;0,0331612
2793,3843;0,0332555
2794,3486;0,033351
2795,3127;0,0334466
2796,2771;0,0335451
2797,2412;0,0336498
2798,2056;0,0337609
2799,1697;0,0338756
2800,1340;0,0339895
2801,0981;0,0341008
2802,0625;0,0342114
2803,0266;0,0343255
2803,9910;0,0344461
2804,9551;0,0345718
2805,9194;0,0346972
2806,8835;0,0348164
2807,8479;0,0349275
2808,8120;0,0350349
2809,7764;0,035147
2810,7405;0,0352715
2811,7048;0,0354106
2812,6689;0,0355604
2813,6333;0,0357142
2814,5974;0,0358675
2815,5618;0,0360206
2816,5259;0,0361779
2817,4902;0,0363432
2818,4543;0,0365165
2819,4187;0,0366939
2820,3828;0,0368708
2821,3472;0,0370474
2822,3113;0,0372296
2823,2756;0,0374269
2824,2397;0,0376461
2825,2041;0,0378871
2826,1682;0,038142
2827,1326;0,0384003
2828,0967;0,0386549
2829,0610;0,0389063
2830,0251;0,0391616
2830,9895;0,03943
2831,9536;0,0397171
2832,9180;0,0400221
2833,8821;0,0403402
2834,8464;0,040666
2835,8105;0,0409981
2836,7749;0,0413401
2837,7390;0,0416998
2838,7034;0,0420864
2839,6675;0,0425084
2840,6318;0,0429726
2841,5959;0,0434838
2842,5603;0,044044
2843,5244;0,04465
2844,4888;0,0452905
2845,4529;0,0459442
2846,4172;0,0465797
2847,3813;0,0471595
2848,3457;0,047647
2849,3098;0,0480149
2850,2742;0,0482524
2851,2383;0,0483674
2852,2026;0,048384
2853,1667;0,048335
2854,1311;0,0482529
2855,0952;0,0481637
2856,0596;0,0480841
2857,0237;0,0480238
2857,9880;0,0479887
2858,9521;0,0479842
2859,9165;0,0480147
2860,8806;0,0480814
2861,8450;0,048181
2862,8091;0,0483058
2863,7734;0,0484476
2864,7375;0,0486016
2865,7019;0,0487677
2866,6660;0,048948
2867,6304;0,0491422
2868,5945;0,0493429
2869,5588;0,049536
2870,5229;0,0497058
2871,4873;0,0498418
2872,4514;0,0499431
2873,4158;0,0500186
2874,3799;0,0500813
2875,3442;0,0501432
2876,3083;0,0502113
2877,2727;0,0502879
2878,2368;0,0503725
2879,2012;0,0504641
2880,1653;0,0505611
2881,1296;0,0506617
2882,0938;0,0507643
2883,0581;0,0508693
2884,0222;0,0509793
2884,9866;0,0510983
2885,9507;0,0512278
2886,9150;0,0513652
2887,8792;0,051504
2888,8435;0,0516374
2889,8076;0,0517629
2890,7720;0,0518832
2891,7361;0,0520045
2892,7004;0,0521323
2893,6646;0,0522679
2894,6289;0,0524085
2895,5930;0,0525491
2896,5574;0,0526858
2897,5215;0,0528168
2898,4858;0,0529424
2899,4500;0,0530635
2900,4143;0,0531816
2901,3784;0,0532985
2902,3428;0,053417
2903,3069;0,0535406
2904,2712;0,0536727
2905,2354;0,0538164
2906,1997;0,0539745
2907,1638;0,0541504
2908,1282;0,0543487
2909,0923;0,0545745
2910,0566;0,0548327
2911,0208;0,0551252
2911,9851;0,0554486
2912,9492;0,0557915
2913,9136;0,0561344
2914,8777;0,0564509
2915,8420;0,0567124
2916,8062;0,0568948
2917,7705;0,0569842
2918,7346;0,0569796
2919,6990;0,0568908
2920,6631;0,0567339
2921,6274;0,0565245
2922,5916;0,0562744
2923,5559;0,0559907
2924,5200;0,0556791
2925,4844;0,0553458
2926,4485;0,0549998
2927,4128;0,0546515
2928,3770;0,05431
2929,3413;0,0539805
2930,3054;0,0536625
2931,2698;0,0533508
2932,2339;0,0530391
2933,1982;0,0527232
2934,1624;0,0524034
2935,1267;0,0520832
2936,0908;0,0517663
2937,0552;0,0514527
2938,0193;0,0511385
2938,9836;0,0508174
2939,9478;0,050485
2940,9121;0,0501412
2941,8762;0,0497901
2942,8406;0,0494369
2943,8047;0,0490855
2944,7690;0,048738
2945,7332;0,0483966
2946,6975;0,0480659
2947,6616;0,0477528
2948,6260;0,0474638
2949,5901;0,0472016
2950,5544;0,0469631
2951,5186;0,0467404
2952,4829;0,0465249
2953,4470;0,0463096
2954,4114;0,0460911
2955,3755;0,0458689
2956,3398;0,0456439
2957,3040;0,0454166
2958,2683;0,045187
2959,2324;0,0449542
2960,1968;0,044717
2961,1609;0,0444749
2962,1252;0,0442285
2963,0894;0,0439806
2964,0537;0,0437342
2965,0178;0,0434914
2965,9822;0,0432512
2966,9463;0,0430095
2967,9106;0,0427612
2968,8748;0,042503
2969,8391;0,0422354
2970,8032;0,0419631
2971,7676;0,0416926
2972,7317;0,0414306
2973,6960;0,0411813
2974,6602;0,0409463
2975,6245;0,0407242
2976,5886;0,0405125
2977,5530;0,040309
2978,5171;0,0401133
2979,4814;0,0399277
2980,4456;0,0397563
2981,4099;0,0396033
2982,3740;0,0394701
2983,3384;0,0393547
2984,3025;0,0392519
2985,2668;0,0391563
2986,2310;0,0390637
2987,1953;0,0389732
2988,1594;0,0388866
2989,1238;0,0388071
2990,0879;0,0387381
2991,0522;0,0386815
2992,0164;0,0386371
2992,9807;0,0386029
2993,9448;0,0385764
2994,9092;0,0385566
2995,8733;0,0385454
2996,8376;0,0385465
2997,8018;0,0385628
2998,7661;0,0385931
2999,7302;0,0386315
3000,6946;0,0386694
3001,6587;0,0387006
3002,6230;0,0387255
3003,5872;0,0387515
3004,5515;0,0387896
3005,5156;0,0388471
3006,4800;0,0389228
3007,4441;0,0390067
3008,4084;0,0390847
3009,3726;0,0391453
3010,3369;0,0391851
3011,3010;0,0392091
3012,2654;0,0392275
3013,2295;0,0392496
3014,1938;0,039281
3015,1580;0,0393235
3016,1223;0,0393786
3017,0864;0,0394493
3018,0508;0,0395394
3019,0149;0,0396494
3019,9792;0,0397739
3020,9434;0,0399018
3021,9077;0,0400213
3022,8718;0,0401251
3023,8362;0,0402145
3024,8003;0,0402977
3025,7646;0,0403849
3026,7288;0,0404825
3027,6931;0,0405904
3028,6572;0,0407028
3029,6216;0,0408121
3030,5857;0,0409122
3031,5500;0,041002
3032,5142;0,0410862
3033,4785;0,0411742
3034,4426;0,0412761
3035,4070;0,0413983
3036,3711;0,0415399
3037,3354;0,0416925
3038,2996;0,0418441
3039,2639;0,0419851
3040,2280;0,0421139
3041,1924;0,0422373
3042,1565;0,0423661
3043,1208;0,0425076
3044,0850;0,0426611
3045,0493;0,042818
3046,0134;0,0429678
3046,9778;0,0431051
3047,9419;0,0432336
3048,9063;0,0433644
3049,8704;0,0435089
3050,8347;0,0436715
3051,7988;0,0438472
3052,7632;0,0440234
3053,7273;0,0441876
3054,6917;0,0443339
3055,6558;0,044466
3056,6201;0,0445953
3057,5842;0,0447344
3058,5486;0,0448906
3059,5127;0,0450631
3060,4771;0,0452442
3061,4412;0,0454236
3062,4055;0,0455927
3063,3696;0,0457471
3064,3340;0,0458872
3065,2981;0,0460171
3066,2625;0,046143
3067,2266;0,0462709
3068,1909;0,0464062
3069,1550;0,0465526
3070,1194;0,0467127
3071,0835;0,0468872
3072,0479;0,0470744
3073,0120;0,0472695
3073,9763;0,047465
3074,9404;0,0476517
3075,9048;0,0478219
3076,8689;0,0479719
3077,8333;0,0481031
3078,7974;0,0482219
3079,7617;0,048338
3080,7258;0,048461
3081,6902;0,0485988
3082,6543;0,0487552
3083,6187;0,0489291
3084,5828;0,0491143
3085,5471;0,0493009
3086,5112;0,0494789
3087,4756;0,0496425
3088,4397;0,0497922
3089,4041;0,0499342
3090,3682;0,0500763
3091,3325;0,0502239
3092,2966;0,0503781
3093,2610;0,0505368
3094,2251;0,0506976
3095,1895;0,0508601
3096,1536;0,0510254
3097,1179;0,0511939
3098,0820;0,0513641
3099,0464;0,0515328
3100,0105;0,0516975
3100,9749;0,0518587
3101,9390;0,05202
3102,9033;0,0521866
3103,8674;0,0523621
3104,8318;0,0525467
3105,7959;0,0527374
3106,7603;0,0529303
3107,7244;0,0531222
3108,6887;0,0533122
3109,6528;0,0535005
3110,6172;0,0536874
3111,5813;0,0538711
3112,5457;0,0540489
3113,5098;0,0542182
3114,4741;0,0543801
3115,4382;0,0545396
3116,4026;0,0547048
3117,3667;0,0548831
3118,3311;0,0550778
3119,2952;0,0552863
3120,2595;0,0555013
3121,2236;0,0557145
3122,1880;0,0559204
3123,1521;0,0561183
3124,1165;0,0563131
3125,0806;0,0565121
3126,0449;0,0567214
3127,0090;0,0569426
3127,9734;0,0571708
3128,9375;0,0573969
3129,9019;0,0576115
3130,8660;0,0578099
3131,8303;0,0579944
3132,7944;0,0581731
3133,7588;0,0583556
3134,7229;0,0585482
3135,6873;0,0587523
3136,6514;0,0589651
3137,6157;0,0591821
3138,5798;0,0593995
3139,5442;0,0596141
3140,5083;0,0598245
3141,4727;0,0600318
3142,4368;0,0602402
3143,4011;0,0604567
3144,3652;0,0606872
3145,3296;0,0609329
3146,2937;0,0611873
3147,2581;0,0614385
3148,2222;0,0616751
3149,1865;0,0618925
3150,1506;0,0620952
3151,1150;0,062294
3152,0791;0,0624996
3153,0435;0,0627172
3154,0076;0,0629456
3154,9719;0,0631795
3155,9360;0,0634143
3156,9004;0,0636482
3157,8645;0,0638824
3158,8289;0,0641195
3159,7930;0,0643608
3160,7573;0,0646064
3161,7214;0,0648552
3162,6858;0,0651051
3163,6499;0,0653541
3164,6143;0,0655996
3165,5784;0,0658391
3166,5427;0,0660709
3167,5068;0,0662953
3168,4712;0,0665158
3169,4353;0,0667258
3170,3997;0,0669572
3171,3638;0,0672002
3172,3281;0,0674515
3173,2922;0,0677018
3174,2566;0,0679399
3175,2207;0,0681591
3176,1851;0,0683617
3177,1492;0,0685592
3178,1135;0,0687664
3179,0776;0,0689928
3180,0420;0,069237
3181,0061;0,069488
3181,9705;0,0697317
3182,9346;0,0699601
3183,8989;0,0701745
3184,8630;0,0703842
3185,8274;0,0705994
3186,7915;0,0708248
3187,7559;0,071058
3188,7200;0,0712925
3189,6843;0,0715234
3190,6484;0,0717507
3191,6128;0,0719787
3192,5769;0,072212
3193,5413;0,0724516
3194,5054;0,0726937
3195,4697;0,0729317
3196,4338;0,0731602
3197,3982;0,0733782
3198,3623;0,0735898
3199,3267;0,0738013
3200,2908;0,0740178
3201,2551;0,0742401
3202,2192;0,0744642
3203,1836;0,0746845
3204,1477;0,0748969
3205,1121;0,0751017
3206,0762;0,0753038
3207,0405;0,0755098
3208,0046;0,0757239
3208,9690;0,0759455
3209,9331;0,0761694
3210,8975;0,0763893
3211,8616;0,0766015
3212,8259;0,0768066
3213,7900;0,0770076
3214,7544;0,077207
3215,7185;0,0774045
3216,6829;0,0775977
3217,6470;0,0777851
3218,6113;0,0779692
3219,5754;0,0781563
3220,5398;0,0783542
3221,5039;0,0785681
3222,4683;0,0787976
3223,4324;0,0790372
3224,3967;0,079278
3225,3608;0,0795114
3226,3252;0,079731
3227,2893;0,0799339
3228,2537;0,0801217
3229,2178;0,0802996
3230,1821;0,0804753
3231,1462;0,0806563
3232,1106;0,0808466
3233,0747;0,0810454
3234,0391;0,081248
3235,0032;0,0814492
3235,9675;0,0816476
3236,9316;0,0818466
3237,8960;0,0820526
3238,8601;0,0822701
3239,8245;0,0824979
3240,7886;0,0827295
3241,7529;0,0829572
3242,7170;0,0831767
3243,6814;0,0833902
3244,6455;0,0836048
3245,6099;0,0838282
3246,5740;0,0840646
3247,5383;0,0843128
3248,5024;0,0845672
3249,4668;0,0848209
3250,4309;0,0850675
3251,3953;0,0853032
3252,3594;0,0855279
3253,3237;0,0857456
3254,2878;0,0859637
3255,2522;0,0861894
3256,2163;0,0864265
3257,1807;0,0866722
3258,1448;0,0869184
3259,1091;0,0871556
3260,0732;0,0873789
3261,0376;0,0875911
3262,0017;0,087801
3262,9661;0,0880187
3263,9302;0,0882497
3264,8945;0,0884926
3265,8586;0,0887404
3266,8230;0,0889838
3267,7871;0,0892147
3268,7515;0,0894274
3269,7156;0,0896177
3270,6799;0,0897833
3271,6440;0,0899245
3272,6084;0,0900456
3273,5725;0,0901555
3274,5369;0,0902659
3275,5010;0,0903862
3276,4653;0,0905207
3277,4294;0,0906671
3278,3938;0,0908187
3279,3579;0,0909667
3280,3223;0,0911028
3281,2864;0,0912205
3282,2507;0,091316
3283,2148;0,0913898
3284,1792;0,0914479
3285,1433;0,0915002
3286,1077;0,0915566
3287,0718;0,0916215
3288,0361;0,0916911
3289,0002;0,0917554
3289,9646;0,091804
3290,9287;0,0918333
3291,8931;0,0918475
3292,8572;0,0918553
3293,8215;0,0918628
3294,7856;0,0918707
3295,7500;0,0918752
3296,7141;0,0918742
3297,6785;0,091871
3298,6426;0,091873
3299,6069;0,0918871
3300,5710;0,091914
3301,5354;0,0919478
3302,4995;0,0919797
3303,4639;0,092004
3304,4280;0,0920198
3305,3923;0,09203
3306,3564;0,092036
3307,3208;0,0920362
3308,2849;0,0920268
3309,2493;0,0920078
3310,2134;0,0919862
3311,1777;0,0919754
3312,1418;0,0919889
3313,1062;0,0920331
3314,0703;0,0921038
3315,0347;0,0921899
3315,9988;0,0922804
3316,9631;0,092371
3317,9272;0,092466
3318,8916;0,0925722
3319,8557;0,0926928
3320,8201;0,0928222
3321,7842;0,0929485
3322,7485;0,09306
3323,7126;0,0931519
3324,6770;0,0932288
3325,6411;0,093301
3326,6055;0,0933792
3327,5696;0,093469
3328,5339;0,0935691
3329,4980;0,0936734
3330,4624;0,0937727
3331,4265;0,0938579
3332,3909;0,0939214
3333,3550;0,0939592
3334,3193;0,0939713
3335,2834;0,0939606
3336,2478;0,0939309
3337,2119;0,0938833
3338,1763;0,0938165
3339,1404;0,0937281
3340,1047;0,0936186
3341,0688;0,0934927
3342,0332;0,093358
3342,9973;0,0932207
3343,9617;0,0930821
3344,9258;0,092939
3345,8901;0,0927862
3346,8542;0,0926215
3347,8186;0,0924468
3348,7827;0,0922664
3349,7471;0,0920838
3350,7112;0,0918985
3351,6755;0,0917073
3352,6396;0,0915076
3353,6040;0,0913009
3354,5681;0,0910934
3355,5325;0,0908931
3356,4966;0,0907055
3357,4609;0,0905298
3358,4250;0,0903601
3359,3894;0,0901887
3360,3535;0,0900104
3361,3179;0,0898248
3362,2820;0,0896351
3363,2463;0,089445
3364,2104;0,0892558
3365,1748;0,0890657
3366,1389;0,0888704
3367,1033;0,0886655
3368,0674;0,0884476
3369,0317;0,0882156
3369,9958;0,0879718
3370,9602;0,0877219
3371,9243;0,0874756
3372,8887;0,0872436
3373,8528;0,0870342
3374,8171;0,0868483
3375,7813;0,0866793
3376,7456;0,0865152
3377,7097;0,086345
3378,6741;0,0861631
3379,6382;0,0859701
3380,6025;0,08577
3381,5667;0,0855662
3382,5310;0,0853605
3383,4951;0,0851545
3384,4595;0,0849523
3385,4236;0,08476
3386,3879;0,0845828
3387,3521;0,0844201
3388,3164;0,0842644
3389,2805;0,0841041
3390,2449;0,0839285
3391,2090;0,0837337
3392,1733;0,083524
3393,1375;0,0833088
3394,1018;0,0830987
3395,0659;0,0829001
3396,0303;0,0827135
3396,9944;0,0825335
3397,9587;0,0823499
3398,9229;0,0821511
3399,8872;0,0819282
3400,8513;0,0816793
3401,8157;0,0814117
3402,7798;0,0811397
3403,7441;0,080879
3404,7083;0,0806399
3405,6726;0,0804239
3406,6367;0,0802232
3407,6011;0,0800249
3408,5652;0,0798164
3409,5295;0,0795896
3410,4937;0,0793441
3411,4580;0,0790875
3412,4221;0,078832
3413,3865;0,0785885
3414,3506;0,0783588
3415,3149;0,0781324
3416,2791;0,0778894
3417,2434;0,0776109
3418,2075;0,0772894
3419,1719;0,0769359
3420,1360;0,0765763
3421,1003;0,0762396
3422,0645;0,0759434
3423,0288;0,0756883
3423,9929;0,0754603
3424,9573;0,0752407
3425,9214;0,0750133
3426,8857;0,0747682
3427,8499;0,0745024
3428,8142;0,0742179
3429,7783;0,0739201
3430,7427;0,0736156
3431,7068;0,0733099
3432,6711;0,0730072
3433,6353;0,0727102
3434,5996;0,0724212
3435,5637;0,0721411
3436,5281;0,0718688
3437,4922;0,0716006
3438,4565;0,071332
3439,4207;0,0710607
3440,3850;0,0707885
3441,3491;0,0705179
3442,3135;0,070247
3443,2776;0,069966
3444,2419;0,0696601
3445,2061;0,0693197
3446,1704;0,0689503
3447,1345;0,0685736
3448,0989;0,0682154
3449,0630;0,0678904
3450,0273;0,0675936
3450,9915;0,0673078
3451,9558;0,0670166
3452,9199;0,0667157
3453,8843;0,0664137
3454,8484;0,066124
3455,8127;0,0658526
3456,7769;0,065593
3457,7412;0,0653289
3458,7053;0,0650446
3459,6697;0,0647345
3460,6338;0,0644058
3461,5981;0,0640751
3462,5623;0,0637584
3463,5266;0,0634623
3464,4907;0,0631818
3465,4551;0,0629037
3466,4192;0,0626161
3467,3835;0,0623149
3468,3477;0,0620052
3469,3120;0,061696
3470,2761;0,0613911
3471,2405;0,0610869
3472,2046;0,0607759
3473,1689;0,0604573
3474,1331;0,0601414
3475,0974;0,0598461
3476,0615;0,059583
3477,0259;0,0593459
3477,9900;0,0591115
3478,9543;0,0588517
3479,9185;0,058552
3480,8828;0,0582222
3481,8469;0,0578913
3482,8113;0,0575872
3483,7754;0,0573173
3484,7397;0,0570652
3485,7039;0,0568036
3486,6682;0,0565133
3487,6323;0,0561955
3488,5967;0,0558698
3489,5608;0,0555607
3490,5251;0,0552803
3491,4893;0,0550213
3492,4536;0,0547634
3493,4177;0,0544884
3494,3821;0,054195
3495,3462;0,053903
3496,3105;0,053642
3497,2747;0,053429
3498,2390;0,0532517
3499,2031;0,0530694
3500,1675;0,0528323
3501,1316;0,0525109
3502,0959;0,0521195
3503,0601;0,0517143
3504,0244;0,051358
3504,9885;0,0510769
3505,9529;0,050847
3506,9170;0,0506151
3507,8813;0,0503334
3508,8455;0,0499885
3509,8098;0,0496076
3510,7739;0,0492395
3511,7383;0,0489216
3512,7024;0,0486613
3513,6667;0,0484415
3514,6309;0,0482395
3515,5952;0,0480429
3516,5593;0,0478517
3517,5237;0,0476702
3518,4878;0,0474959
3519,4521;0,0473168
3520,4163;0,0471169
3521,3806;0,0468858
3522,3447;0,0466242
3523,3091;0,0463407
3524,2732;0,0460414
3525,2375;0,0457234
3526,2017;0,0453802
3527,1660;0,0450145
3528,1301;0,0446481
3529,0945;0,0443159
3530,0586;0,0440458
3531,0229;0,0438396
3531,9871;0,04367
3532,9514;0,0434934
3533,9155;0,0432709
3534,8799;0,0429874
3535,8440;0,0426616
3536,8083;0,0423396
3537,7725;0,0420727
3538,7368;0,0418914
3539,7009;0,0417914
3540,6653;0,041735
3541,6294;0,0416616
3542,5938;0,0415056
3543,5579;0,0412228
3544,5222;0,0408188
3545,4863;0,0403579
3546,4507;0,0399279
3547,4148;0,0395826
3548,3792;0,0393149
3549,3433;0,0390738
3550,3076;0,038805
3551,2717;0,0384854
3552,2361;0,0381384
3553,2002;0,0378172
3554,1646;0,0375657
3555,1287;0,0373879
3556,0930;0,0372508
3557,0571;0,037113
3558,0215;0,0369549
3558,9856;0,036795
3559,9500;0,0366771
3560,9141;0,0366344
3561,8784;0,0366517
3562,8425;0,0366517
3563,8069;0,0365096
3564,7710;0,0361013
3565,7354;0,0353969
3566,6995;0,034548
3567,6638;0,0338208
3568,6279;0,033385
3569,5923;0,0332149
3570,5564;0,0331759
3571,5208;0,0331364
3572,4849;0,0330175
3573,4492;0,0328013
3574,4133;0,0325176
3575,3777;0,032214
3576,3418;0,031924
3577,3062;0,0316574
3578,2703;0,0314154
3579,2346;0,0312136
3580,1987;0,0310833
3581,1631;0,031048
3582,1272;0,0310927
3583,0916;0,0311489
3584,0557;0,0311026
3585,0200;0,0308298
3585,9841;0,0302749
3586,9485;0,0295408
3587,9126;0,0288633
3588,8770;0,0284275
3589,8411;0,0282413
3590,8054;0,0281865
3591,7695;0,0281269
3592,7339;0,0279734
3593,6980;0,0277123
3594,6624;0,0273978
3595,6265;0,0271006
3596,5908;0,026845
3597,5549;0,0265983
3598,5193;0,0263172
3599,4834;0,0260043
3600,4478;0,025722
3601,4119;0,0255468
3602,3762;0,0255058
3603,3403;0,0255542
3604,3047;0,0256044
3605,2688;0,0255735
3606,2332;0,0254262
3607,1973;0,0251963
3608,1616;0,0249646
3609,1257;0,0247962
3610,0901;0,0246948
3611,0542;0,0246172
3612,0186;0,024522
3612,9827;0,0243983
3613,9470;0,0242559
3614,9111;0,0240913
3615,8755;0,0238644
3616,8396;0,0235098
3617,8040;0,0229899
3618,7681;0,0223629
3619,7324;0,0217929
3620,6965;0,0214493
3621,6609;0,0213928
3622,6250;0,0215643
3623,5894;0,0218442
3624,5535;0,0220917
3625,5178;0,0221518
3626,4819;0,0218737
3627,4463;0,0212079
3628,4104;0,0203489
3629,3748;0,0196616
3630,3389;0,0193454
3631,3032;0,0193149
3632,2673;0,0193842
3633,2317;0,0194226
3634,1958;0,019388
3635,1602;0,0193041
3636,1243;0,0192188
3637,0886;0,0191651
3638,0527;0,019146
3639,0171;0,0191506
3639,9812;0,0191797
3640,9456;0,0192563
3641,9097;0,0194104
3642,8740;0,0196513
3643,8381;0,019946
3644,8025;0,0202067
3645,7666;0,0202827
3646,7310;0,0199768
3647,6951;0,0191778
3648,6594;0,0181178
3649,6235;0,0173197
3650,5879;0,0170552
3651,5520;0,0171705
3652,5164;0,0173892
3653,4805;0,0175078
3654,4448;0,0174264
3655,4089;0,0171556
3656,3733;0,0168091
3657,3374;0,0165327
3658,3018;0,0163981
3659,2659;0,0163733
3660,2302;0,0163858
3661,1943;0,0163961
3662,1587;0,0164224
3663,1228;0,016513
3664,0872;0,0166923
3665,0513;0,0169247
3666,0156;0,0171204
3666,9797;0,017175
3667,9441;0,0170367
3668,9082;0,0167766
3669,8726;0,0165663
3670,8367;0,0165174
3671,8010;0,016566
3672,7651;0,0165281
3673,7295;0,0162283
3674,6936;0,0156361
3675,6580;0,0149525
3676,6221;0,0144736
3677,5864;0,0143167
3678,5505;0,0143844
3679,5149;0,0145347
3680,4790;0,0146926
3681,4434;0,0148577
3682,4075;0,0150641
3683,3718;0,0153317
3684,3359;0,0156324
3685,3003;0,0158814
3686,2644;0,0159517
3687,2288;0,0157209
3688,1929;0,0151726
3689,1572;0,0144924
3690,1213;0,0139679
3691,0857;0,0137414
3692,0498;0,013752
3693,0142;0,0138734
3693,9783;0,0140189
3694,9426;0,0141559
3695,9067;0,0142807
3696,8711;0,014386
3697,8352;0,0144428
3698,7996;0,0144051
3699,7637;0,0142424
3700,7280;0,0139844
3701,6921;0,0137365
3702,6565;0,013628
3703,6206;0,0137273
3704,5850;0,0140071
3705,5491;0,0143753
3706,5134;0,0147162
3707,4775;0,0149133
3708,4419;0,0148691
3709,4060;0,0145568
3710,3704;0,0140947
3711,3345;0,01372
3712,2988;0,013603
3713,2629;0,0137262
3714,2273;0,0139657
3715,1914;0,0142049
3716,1558;0,0143735
3717,1199;0,0144436
3718,0842;0,0144208
3719,0483;0,014334
3720,0127;0,0142177
3720,9768;0,0140881
3721,9412;0,0139343
3722,9053;0,0137382
3723,8696;0,0135118
3724,8337;0,0133165
3725,7981;0,0132356
3726,7622;0,0133223
3727,7266;0,0135713
3728,6907;0,0139317
3729,6550;0,0143328
3730,6191;0,0146952
3731,5835;0,0149283
3732,5476;0,0149354
3733,5120;0,0146657
3734,4761;0,0142113
3735,4404;0,013821
3736,4045;0,0137235
3737,3689;0,0139631
3738,3330;0,0144329
3739,2974;0,0149816
3740,2615;0,0154646
3741,2258;0,0157517
3742,1899;0,0157522
3743,1543;0,015493
3744,1184;0,0151829
3745,0828;0,015084
3746,0469;0,0152654
3747,0112;0,0155665
3747,9753;0,0157424
3748,9397;0,015595
3749,9038;0,0151026
3750,8682;0,0145188
3751,8323;0,0141963
3752,7966;0,0142514
3753,7607;0,0145444
3754,7251;0,0148779
3755,6892;0,0151056
3756,6536;0,015154
3757,6177;0,0150347
3758,5820;0,0148452
3759,5461;0,014714
3760,5105;0,0147143
3761,4746;0,014833
3762,4390;0,0150085
3763,4031;0,0151752
3764,3674;0,0152852
3765,3315;0,0153117
3766,2959;0,0152449
3767,2600;0,0150878
3768,2244;0,0148615
3769,1885;0,0146145
3770,1528;0,0144206
3771,1169;0,014348
3772,0813;0,0144215
3773,0454;0,0146104
3774,0098;0,0148464
3774,9739;0,0150506
3775,9382;0,0151556
3776,9023;0,0151301
3777,8667;0,0150014
3778,8308;0,0148511
3779,7952;0,0147618
3780,7593;0,0147606
3781,7236;0,0148126
3782,6877;0,01486
3783,6521;0,0148602
3784,6162;0,0148056
3785,5806;0,0147219
3786,5447;0,0146524
3787,5090;0,0146354
3788,4731;0,0146896
3789,4375;0,0148092
3790,4016;0,0149684
3791,3660;0,0151305
3792,3301;0,0152637
3793,2944;0,0153577
3794,2585;0,0154329
3795,2229;0,0155282
3796,1870;0,0156663
3797,1514;0,0158197
3798,1155;0,0159105
3799,0798;0,0158547
3800,0439;0,015635
3801,0083;0,0153446
3801,9724;0,015125
3802,9368;0,0150342
3803,9009;0,0150042
3804,8652;0,0149197
3805,8293;0,0147247
3806,7937;0,0144841
3807,7578;0,0143506
3808,7222;0,0144394
3809,6863;0,0147385
3810,6506;0,0151402
3811,6147;0,0155185
3812,5791;0,015779
3813,5432;0,0158875
3814,5076;0,0158875
3815,4717;0,0158736
3816,4360;0,0159012
3817,4001;0,0159204
3818,3645;0,0158167
3819,3286;0,0155198
3820,2930;0,0150947
3821,2571;0,0147225
3822,2214;0,0145513
3823,1855;0,0145844
3824,1499;0,0147253
3825,1140;0,0148775
3826,0784;0,0149948
3827,0425;0,0150805
3828,0068;0,0151641
3828,9709;0,0152727
3829,9353;0,0154161
3830,8994;0,0155889
3831,8638;0,0157803
3832,8279;0,0159751
3833,7922;0,0161449
3834,7563;0,0162405
3835,7207;0,0162021
3836,6848;0,0159948
3837,6492;0,0156529
3838,6133;0,01528
3839,5776;0,0149815
3840,5417;0,0147964
3841,5061;0,0147026
3842,4702;0,0146718
3843,4346;0,0147079
3844,3987;0,0148453
3845,3630;0,0151189
3846,3271;0,0155339
3847,2915;0,0160549
3848,2556;0,0166078
3849,2200;0,0170768
3850,1841;0,0172902
3851,1484;0,0170367
3852,1125;0,0162245
3853,0769;0,0151638
3854,0410;0,014435
3855,0054;0,0142794
3855,9695;0,0145214
3856,9338;0,0149234
3857,8979;0,0153383
3858,8623;0,0156868
3859,8264;0,0159191
3860,7908;0,016007
3861,7549;0,0159634
3862,7192;0,0158604
3863,6833;0,0158021
3864,6477;0,0158525
3865,6118;0,0159944
3866,5762;0,0161513
3867,5403;0,0162349
3868,5046;0,0161815
3869,4688;0,0159794
3870,4331;0,015681
3871,3972;0,0153841
3872,3616;0,0151837
3873,3257;0,0151308
3874,2900;0,0152227
3875,2542;0,0154156
3876,2185;0,0156437
3877,1826;0,0158386
3878,1470;0,0159511
3879,1111;0,0159714
3880,0754;0,0159313
3881,0396;0,0158736
3882,0039;0,0158119
3882,9680;0,0157282
3883,9324;0,0156132
3884,8965;0,0155031
3885,8608;0,0154606
3886,8250;0,0155148
3887,7893;0,0156228
3888,7534;0,0156908
3889,7178;0,0156369
3890,6819;0,0154603
3891,6462;0,0152708
3892,6104;0,0152196
3893,5747;0,0153777
3894,5388;0,0156988
3895,5032;0,0160775
3896,4673;0,0164123
3897,4316;0,0166343
3898,3958;0,0167153
3899,3601;0,0166622
3900,3242;0,0164942
3901,2886;0,0162236
3902,2527;0,0158693
3903,2170;0,0154878
3904,1812;0,0151682
3905,1455;0,0149795
3906,1096;0,0149304
3907,0740;0,0149815
3908,0381;0,0150836
3909,0024;0,015205
3909,9666;0,015338
3910,9309;0,0154888
3911,8950;0,0156593
3912,8594;0,0158325
3913,8235;0,0159717
3914,7878;0,0160359
3915,7520;0,0160063
3916,7163;0,0159083
3917,6804;0,0158051
3918,6448;0,0157558
3919,6089;0,0157744
3920,5732;0,0158259
3921,5374;0,0158565
3922,5017;0,0158296
3923,4658;0,0157527
3924,4302;0,0156758
3925,3943;0,0156574
3926,3586;0,0157207
3927,3228;0,0158374
3928,2871;0,0159451
3929,2512;0,0159794
3930,2156;0,0159067
3931,1797;0,0157464
3932,1440;0,0155638
3933,1082;0,0154306
3934,0725;0,015387
3935,0366;0,0154339
3936,0010;0,015547
3936,9651;0,0156926
3937,9294;0,0158343
3938,8936;0,0159376
3939,8579;0,0159787
3940,8220;0,015957
3941,7864;0,0159014
3942,7505;0,0158581
3943,7148;0,0158599
3944,6790;0,0159047
3945,6433;0,0159565
3946,6074;0,01597
3947,5718;0,0159182
3948,5359;0,0158109
3949,5002;0,0156899
3950,4644;0,0156005
3951,4287;0,015564
3952,3928;0,0155718
3953,3572;0,0156002
3954,3213;0,0156302
3955,2856;0,0156564
3956,2498;0,0156839
3957,2141;0,0157171
3958,1782;0,0157512
3959,1426;0,0157728
3960,1067;0,0157691
3961,0710;0,0157378
3962,0352;0,0156915
3962,9995;0,0156508
3963,9636;0,0156332
3964,9280;0,0156433
3965,8921;0,0156729
3966,8564;0,0157067
3967,8206;0,0157316
3968,7849;0,015743
3969,7490;0,0157456
3970,7134;0,0157477
3971,6775;0,0157549
3972,6418;0,0157668
3973,6060;0,0157784
3974,5703;0,0157844
3975,5344;0,0157825
3976,4988;0,0157734
3977,4629;0,0157594
3978,4272;0,0157433
3979,3914;0,0157285
3980,3557;0,01572
3981,3198;0,0157229
3982,2842;0,0157391
3983,2483;0,0157646
3984,2126;0,0157909
3985,1768;0,0158093
3986,1411;0,015817
3987,1052;0,0158181
3988,0696;0,0158209
3989,0337;0,0158308
3989,9980;0,0158457
3990,9622;0,0158573
3991,9265;0,0158572
3992,8906;0,0158432
3993,8550;0,0158211
3994,8191;0,0158006
3995,7834;0,0157883
3996,7476;0,0157839
3997,7119;0,0157817
3998,6760;0,0157761
3999,6404;0,0157671
4000,6045;0,0157265

##### Extended Information
[Comments]
Sample name
Comment
Username
Division
Organization;UNIVERSIDAD INDUSTRIAL DE SANTANDER

[Detailed Information]
Creation date;26/03/2025 7:47 p.m.

Data array type;Linear data array
Horizontal axis;Wavenumber [cm-1]
Vertical axis;Abs
Start;399,193 cm-1
End;4000,6 cm-1
Data interval;0,964233 cm-1
Data points;3736    

[Measurement Information]
Model name;FT/IR-4X1typeA
Serial No.;A035162111

Accessory;ATR PRO 4X
Accessory S/N;A021162126
Incident angle;45 deg

Measurement date;26/03/2025 7:46 p.m.

Light source;Standard
Detector;TGS
Accumulation;40
Resolution;4 cm-1
Zero filling;On
Apodization;Cosine
Gain;Auto (8)
Aperture;Auto (7 mm)
Scan speed;Auto (2 mm/sec)
Filter;Auto (12800 Hz)

