TITLE;
DATA TYPE;INFRARED SPECTRUM
ORIGIN;JASCO
OWNER;
DATE;25/03/10
TIME;19:46:57
SPECTROMETER/DATA SYSTEM;
LOCALE;9226
RESOLUTION;
DELTAX;0,964233
XUNITS;1/CM
YUNITS;ABSORBANCE
FIRSTX;  399,1927
LASTX; 4000,6047
NPOINTS;    3736
FIRSTY;     0,18302
MAXY;     0,26808
MINY;     0,01497
XYDATA
399,1927;0,183016
400,1569;0,180546
401,1211;0,178419
402,0854;0,177061
403,0496;0,176569
404,0138;0,176852
404,9781;0,177628
405,9423;0,178449
406,9065;0,178849
407,8708;0,178589
408,8350;0,177813
409,7992;0,176984
410,7635;0,176638
411,7277;0,177074
412,6919;0,178179
413,6562;0,179536
414,6204;0,180696
415,5846;0,18139
416,5489;0,181608
417,5131;0,181663
418,4773;0,182106
419,4416;0,183249
420,4058;0,184708
421,3700;0,185823
422,3343;0,186272
423,2985;0,186129
424,2627;0,185704
425,2270;0,185391
426,1912;0,185503
427,1554;0,186125
428,1197;0,187091
429,0839;0,188112
430,0481;0,188931
431,0124;0,189435
431,9766;0,189683
432,9408;0,189831
433,9051;0,190004
434,8693;0,190192
435,8335;0,190244
436,7978;0,18997
437,7620;0,189277
438,7262;0,188246
439,6905;0,187098
440,6547;0,186108
441,6189;0,1855
442,5832;0,185341
443,5474;0,185498
444,5116;0,18572
445,4759;0,185802
446,4401;0,185684
447,4043;0,185415
448,3686;0,185056
449,3328;0,184611
450,2970;0,184059
451,2613;0,183417
452,2255;0,182796
453,1897;0,182361
454,1540;0,182243
455,1182;0,182444
456,0824;0,182805
457,0467;0,183069
458,0109;0,183034
458,9751;0,182697
459,9394;0,182233
460,9036;0,181813
461,8678;0,181482
462,8321;0,181184
463,7963;0,180853
464,7605;0,180496
465,7248;0,180212
466,6890;0,180122
467,6532;0,180281
468,6175;0,180627
469,5817;0,18101
470,5459;0,181265
471,5102;0,181309
472,4744;0,181181
473,4386;0,181008
474,4029;0,180904
475,3671;0,180899
476,3313;0,180956
477,2956;0,181028
478,2598;0,181096
479,2240;0,181177
480,1883;0,181295
481,1525;0,181467
482,1167;0,181695
483,0810;0,181977
484,0452;0,182325
485,0094;0,182756
485,9737;0,183275
486,9379;0,183856
487,9021;0,184433
488,8664;0,184925
489,8306;0,185256
490,7948;0,1854
491,7591;0,185405
492,7233;0,185392
493,6875;0,185504
494,6518;0,185833
495,6160;0,186376
496,5802;0,187046
497,5445;0,18772
498,5087;0,188288
499,4729;0,188696
500,4372;0,18895
501,4014;0,189105
502,3656;0,189219
503,3299;0,189324
504,2941;0,18942
505,2583;0,189507
506,2226;0,189619
507,1868;0,189827
508,1510;0,190205
509,1153;0,190775
510,0795;0,191477
511,0437;0,192192
512,0080;0,192805
512,9722;0,193261
513,9365;0,193589
514,9007;0,193877
515,8649;0,194219
516,8292;0,194657
517,7934;0,195155
518,7576;0,195626
519,7219;0,196002
520,6861;0,196278
521,6503;0,196494
522,6146;0,196684
523,5788;0,196841
524,5430;0,196916
525,5073;0,196856
526,4715;0,196654
527,4357;0,196371
528,4000;0,19611
529,3642;0,195952
530,3284;0,195921
531,2927;0,195976
532,2569;0,196033
533,2211;0,196004
534,1854;0,195835
535,1496;0,195533
536,1138;0,195161
537,0781;0,194804
538,0423;0,194526
539,0065;0,19434
539,9708;0,194211
540,9350;0,194095
541,8992;0,193972
542,8635;0,193878
543,8277;0,193884
544,7919;0,194063
545,7562;0,19444
546,7204;0,19497
547,6846;0,195555
548,6489;0,196096
549,6131;0,196542
550,5773;0,196909
551,5416;0,197257
552,5058;0,197653
553,4700;0,19813
554,4343;0,198672
555,3985;0,199222
556,3627;0,199691
557,3270;0,199987
558,2912;0,200024
559,2554;0,199739
560,2197;0,19911
561,1839;0,198172
562,1481;0,197024
563,1124;0,195807
564,0766;0,194666
565,0408;0,193699
566,0051;0,192936
566,9693;0,192347
567,9335;0,191864
568,8978;0,191429
569,8620;0,191009
570,8262;0,190608
571,7905;0,190246
572,7547;0,189944
573,7189;0,189715
574,6832;0,18956
575,6474;0,189464
576,6116;0,189397
577,5759;0,189323
578,5401;0,189212
579,5043;0,189054
580,4686;0,188863
581,4328;0,188667
582,3970;0,188496
583,3613;0,188366
584,3255;0,188271
585,2897;0,188198
586,2540;0,188141
587,2182;0,188108
588,1824;0,188121
589,1467;0,188195
590,1109;0,188315
591,0751;0,188433
592,0394;0,188479
593,0036;0,18839
593,9678;0,188145
594,9321;0,187762
595,8963;0,187291
596,8605;0,186777
597,8248;0,186256
598,7890;0,185743
599,7532;0,185245
600,7175;0,184762
601,6817;0,184297
602,6459;0,183853
603,6102;0,183438
604,5744;0,183053
605,5386;0,182698
606,5029;0,18236
607,4671;0,182014
608,4313;0,181627
609,3956;0,18117
610,3598;0,180629
611,3240;0,180018
612,2883;0,179367
613,2525;0,178711
614,2167;0,178068
615,1810;0,177423
616,1452;0,176736
617,1094;0,175953
618,0737;0,175031
619,0379;0,173961
620,0021;0,172769
620,9664;0,1715
621,9306;0,170206
622,8948;0,168938
623,8591;0,167744
624,8233;0,166658
625,7875;0,165707
626,7518;0,164891
627,7160;0,164193
628,6802;0,163579
629,6445;0,163008
630,6087;0,162435
631,5729;0,16182
632,5372;0,161148
633,5014;0,160439
634,4656;0,159748
635,4299;0,159139
636,3941;0,158653
637,3583;0,158283
638,3226;0,157981
639,2868;0,157679
640,2510;0,157326
641,2153;0,156911
642,1795;0,156464
643,1437;0,156038
644,1080;0,155676
645,0722;0,155396
646,0364;0,155175
647,0007;0,154969
647,9649;0,154732
648,9291;0,154446
649,8934;0,154135
650,8576;0,153849
651,8218;0,153637
652,7861;0,153522
653,7503;0,153496
654,7145;0,153537
655,6788;0,15363
656,6430;0,153772
657,6072;0,153957
658,5715;0,154149
659,5357;0,154267
660,4999;0,154225
661,4642;0,153988
662,4284;0,153612
663,3926;0,153213
664,3569;0,152903
665,3211;0,152753
666,2853;0,152751
667,2496;0,152699
668,2138;0,152185
669,1780;0,150989
670,1423;0,149432
671,1065;0,147898
672,0707;0,146454
673,0350;0,144988
673,9992;0,143395
674,9634;0,141655
675,9277;0,139847
676,8919;0,1381
677,8561;0,136508
678,8204;0,135096
679,7846;0,133831
680,7488;0,132677
681,7131;0,131613
682,6773;0,130636
683,6415;0,12975
684,6058;0,128956
685,5700;0,128253
686,5342;0,127632
687,4985;0,127071
688,4627;0,126542
689,4269;0,126021
690,3912;0,125498
691,3554;0,124977
692,3196;0,124471
693,2839;0,123985
694,2481;0,123517
695,2123;0,123059
696,1766;0,122605
697,1408;0,12215
698,1050;0,12169
699,0693;0,121219
700,0335;0,120732
700,9977;0,120224
701,9620;0,119694
702,9262;0,11915
703,8904;0,118601
704,8547;0,118059
705,8189;0,117531
706,7831;0,117018
707,7474;0,116515
708,7116;0,116009
709,6758;0,115489
710,6401;0,114941
711,6043;0,114358
712,5685;0,113743
713,5328;0,113112
714,4970;0,112495
715,4612;0,111846
716,4255;0,111337
717,3897;0,11086
718,3539;0,110349
719,3182;0,109734
720,2824;0,108971
721,2466;0,108081
722,2109;0,107135
723,1751;0,106214
724,1393;0,105363
725,1036;0,104581
726,0678;0,103832
727,0320;0,103076
727,9963;0,102291
728,9605;0,10148
729,9247;0,100664
730,8890;0,0998693
731,8532;0,0991223
732,8174;0,0984467
733,7817;0,0978593
734,7459;0,0973623
735,7101;0,0969355
736,6744;0,0965377
737,6386;0,0961205
738,6028;0,0956494
739,5671;0,0951205
740,5313;0,0945618
741,4955;0,0940175
742,4598;0,0935238
743,4240;0,0930892
744,3882;0,0926921
745,3525;0,0922941
746,3167;0,0918621
747,2809;0,0913848
748,2452;0,090875
749,2094;0,0903593
750,1736;0,0898603
751,1379;0,0893843
752,1021;0,0889198
753,0663;0,0884467
754,0306;0,0879498
754,9948;0,0874296
755,9590;0,0869032
756,9233;0,0863968
757,8875;0,0859326
758,8517;0,085518
759,8160;0,0851426
760,7802;0,084784
761,7444;0,08442
762,7087;0,0840411
763,6729;0,0836549
764,6371;0,0832805
765,6014;0,0829369
766,5656;0,08263
767,5298;0,0823486
768,4941;0,0820692
769,4583;0,0817685
770,4225;0,0814339
771,3868;0,0810686
772,3510;0,0806882
773,3152;0,0803129
774,2795;0,0799593
775,2437;0,0796348
776,2079;0,0793381
777,1722;0,0790605
778,1364;0,0787919
779,1006;0,0785236
780,0649;0,078252
781,0291;0,0779768
781,9933;0,0776989
782,9576;0,0774162
783,9218;0,0771228
784,8860;0,0768117
785,8503;0,0764807
786,8145;0,0761368
787,7787;0,0757972
788,7430;0,0754832
789,7072;0,075213
790,6714;0,0749939
791,6357;0,074821
792,5999;0,0746797
793,5641;0,0745513
794,5284;0,0744185
795,4926;0,074269
796,4568;0,0740979
797,4211;0,0739078
798,3853;0,0737092
799,3495;0,0735174
800,3138;0,073348
801,2780;0,073211
802,2422;0,0731056
803,2065;0,073019
804,1707;0,07293
805,1349;0,0728167
806,0992;0,0726656
807,0634;0,0724777
808,0276;0,0722681
808,9919;0,0720583
809,9561;0,0718667
810,9203;0,0717007
811,8846;0,0715557
812,8488;0,0714208
813,8130;0,0712857
814,7773;0,0711452
815,7415;0,0709986
816,7057;0,0708465
817,6700;0,070689
818,6342;0,0705268
819,5984;0,0703632
820,5627;0,0702031
821,5269;0,0700495
822,4911;0,0698997
823,4554;0,0697456
824,4196;0,0695796
825,3839;0,0694017
826,3481;0,0692228
827,3123;0,0690602
828,2766;0,0689289
829,2408;0,068833
830,2050;0,0687624
831,1693;0,0686967
832,1335;0,0686112
833,0977;0,0684835
834,0620;0,0682982
835,0262;0,068051
835,9904;0,0677512
836,9547;0,0674211
837,9189;0,0670904
838,8831;0,0667858
839,8474;0,0665205
840,8116;0,0662908
841,7758;0,0660812
842,7401;0,0658766
843,7043;0,0656723
844,6685;0,0654761
845,6328;0,065302
846,5970;0,06516
847,5612;0,0650501
848,5255;0,064964
849,4897;0,064891
850,4539;0,0648237
851,4182;0,0647579
852,3824;0,0646908
853,3466;0,0646184
854,3109;0,0645385
855,2751;0,0644554
856,2393;0,0643814
857,2036;0,0643316
858,1678;0,0643141
859,1320;0,0643235
860,0963;0,0643435
861,0605;0,0643592
862,0247;0,0643704
862,9890;0,0643954
863,9532;0,0644615
864,9174;0,0645875
865,8817;0,064771
866,8459;0,0649886
867,8101;0,0652101
868,7744;0,0654142
869,7386;0,0655978
870,7028;0,0657712
871,6671;0,065946
872,6313;0,066125
873,5955;0,0662995
874,5598;0,0664552
875,5240;0,0665816
876,4882;0,066679
877,4525;0,0667593
878,4167;0,0668431
879,3809;0,0669552
880,3452;0,0671188
881,3094;0,0673516
882,2736;0,0676641
883,2379;0,0680604
884,2021;0,0685408
885,1663;0,0691055
886,1306;0,0697551
887,0948;0,0704891
888,0590;0,0713027
889,0233;0,0721854
889,9875;0,0731212
890,9517;0,0740886
891,9160;0,0750599
892,8802;0,0759986
893,8444;0,076858
894,8087;0,0775858
895,7729;0,0781327
896,7371;0,0784638
897,7014;0,0785654
898,6656;0,0784444
899,6298;0,0781219
900,5941;0,0776256
901,5583;0,0769864
902,5225;0,0762387
903,4868;0,0754221
904,4510;0,0745795
905,4152;0,0737536
906,3795;0,07298
907,3437;0,0722848
908,3079;0,0716842
909,2722;0,0711864
910,2364;0,0707931
911,2007;0,0704997
912,1649;0,0702967
913,1292;0,0701716
914,0934;0,0701136
915,0576;0,0701168
916,0219;0,0701791
916,9861;0,0702978
917,9503;0,070465
918,9146;0,0706653
919,8788;0,0708804
920,8430;0,071095
921,8073;0,0713017
922,7715;0,0715009
923,7357;0,0716971
924,7000;0,0718941
925,6642;0,0720936
926,6284;0,0722957
927,5927;0,072501
928,5569;0,0727107
929,5211;0,0729255
930,4854;0,0731439
931,4496;0,0733629
932,4138;0,0735808
933,3781;0,0738006
934,3423;0,0740316
935,3065;0,0742878
936,2708;0,074585
937,2350;0,0749368
938,1992;0,0753517
939,1635;0,0758318
940,1277;0,0763744
941,0919;0,0769739
942,0562;0,0776252
943,0204;0,078326
943,9846;0,0790777
944,9489;0,0798847
945,9131;0,0807531
946,8773;0,0816894
947,8416;0,0826985
948,8058;0,0837825
949,7700;0,0849386
950,7343;0,0861596
951,6985;0,087437
952,6627;0,088768
953,6270;0,0901598
954,5912;0,09163
955,5554;0,0931975
956,5197;0,0948707
957,4839;0,0966381
958,4481;0,0984706
959,4124;0,100334
960,3766;0,102202
961,3408;0,104071
962,3051;0,105949
963,2693;0,107849
964,2335;0,109779
965,1978;0,111734
966,1620;0,113709
967,1262;0,115704
968,0905;0,117735
969,0547;0,119828
970,0189;0,122015
970,9832;0,12433
971,9474;0,126807
972,9116;0,129481
973,8759;0,132389
974,8401;0,135568
975,8043;0,139042
976,7686;0,142817
977,7328;0,146871
978,6970;0,151151
979,6613;0,155574
980,6255;0,160028
981,5897;0,164391
982,5540;0,168537
983,5182;0,172363
984,4824;0,175796
985,4467;0,178807
986,4109;0,181402
987,3751;0,183622
988,3394;0,185525
989,3036;0,187179
990,2678;0,188645
991,2321;0,189974
992,1963;0,191196
993,1605;0,192326
994,1248;0,193376
995,0890;0,194362
996,0532;0,195312
997,0175;0,196262
997,9817;0,197243
998,9459;0,198271
999,9102;0,199343
1000,8744;0,200452
1001,8386;0,201598
1002,8029;0,202803
1003,7671;0,204105
1004,7313;0,205556
1005,6956;0,207198
1006,6598;0,20906
1007,6240;0,211158
1008,5883;0,213498
1009,5525;0,216083
1010,5167;0,218907
1011,4810;0,221944
1012,4452;0,225141
1013,4094;0,22842
1014,3737;0,231691
1015,3379;0,234877
1016,3021;0,237925
1017,2664;0,240815
1018,2306;0,243548
1019,1948;0,24613
1020,1591;0,248567
1021,1233;0,250868
1022,0875;0,253045
1023,0518;0,255123
1024,0160;0,257132
1024,9802;0,259093
1025,9445;0,261002
1026,9087;0,262825
1027,8729;0,264504
1028,8372;0,265962
1029,8014;0,267111
1030,7656;0,267851
1031,7299;0,268084
1032,6941;0,267722
1033,6583;0,266721
1034,6226;0,265104
1035,5868;0,262976
1036,5510;0,260517
1037,5153;0,257943
1038,4795;0,255468
1039,4437;0,253266
1040,4080;0,25145
1041,3722;0,250065
1042,3364;0,249095
1043,3007;0,24847
1044,2649;0,248077
1045,2291;0,247786
1046,1934;0,247467
1047,1576;0,247017
1048,1218;0,246375
1049,0861;0,245512
1050,0503;0,244426
1051,0145;0,243116
1051,9788;0,241579
1052,9430;0,239808
1053,9072;0,237802
1054,8715;0,235569
1055,8357;0,233116
1056,7999;0,23043
1057,7642;0,227472
1058,7284;0,224182
1059,6926;0,220512
1060,6569;0,216464
1061,6211;0,212118
1062,5853;0,207626
1063,5496;0,203176
1064,5138;0,198943
1065,4780;0,195039
1066,4423;0,191501
1067,4065;0,188302
1068,3707;0,18538
1069,3350;0,182672
1070,2992;0,180126
1071,2634;0,177707
1072,2277;0,175378
1073,1919;0,1731
1074,1561;0,170829
1075,1204;0,16853
1076,0846;0,166189
1077,0488;0,163822
1078,0131;0,16147
1078,9773;0,159189
1079,9415;0,157037
1080,9058;0,155055
1081,8700;0,153269
1082,8342;0,15169
1083,7985;0,150316
1084,7627;0,149144
1085,7269;0,148161
1086,6912;0,14735
1087,6554;0,146683
1088,6196;0,146128
1089,5839;0,145655
1090,5481;0,145247
1091,5123;0,144902
1092,4766;0,144633
1093,4408;0,14446
1094,4050;0,1444
1095,3693;0,144456
1096,3335;0,144615
1097,2977;0,144856
1098,2620;0,145151
1099,2262;0,145472
1100,1904;0,145796
1101,1547;0,146097
1102,1189;0,146347
1103,0831;0,146515
1104,0474;0,14657
1105,0116;0,14649
1105,9758;0,146271
1106,9401;0,14592
1107,9043;0,14545
1108,8685;0,144861
1109,8328;0,14413
1110,7970;0,143214
1111,7612;0,142063
1112,7255;0,140656
1113,6897;0,139017
1114,6539;0,137228
1115,6182;0,135405
1116,5824;0,133664
1117,5466;0,132084
1118,5109;0,130685
1119,4751;0,129428
1120,4393;0,128229
1121,4036;0,126987
1122,3678;0,125605
1123,3320;0,12401
1124,2963;0,122159
1125,2605;0,120051
1126,2247;0,117715
1127,1890;0,115211
1128,1532;0,112611
1129,1174;0,109985
1130,0817;0,107385
1131,0459;0,104844
1132,0101;0,102379
1132,9744;0,100005
1133,9386;0,0977484
1134,9028;0,0956528
1135,8671;0,0937734
1136,8313;0,0921636
1137,7955;0,0908613
1138,7598;0,0898787
1139,7240;0,0892017
1140,6882;0,0887958
1141,6525;0,0886162
1142,6167;0,0886174
1143,5809;0,0887601
1144,5452;0,0890152
1145,5094;0,0893652
1146,4736;0,0898034
1147,4379;0,0903302
1148,4021;0,090948
1149,3663;0,0916553
1150,3306;0,0924419
1151,2948;0,0932873
1152,2590;0,0941607
1153,2233;0,0950242
1154,1875;0,0958341
1155,1517;0,0965429
1156,1160;0,0970982
1157,0802;0,0974419
1158,0444;0,0975097
1159,0087;0,0972321
1159,9729;0,0965397
1160,9371;0,0953724
1161,9014;0,0936931
1162,8656;0,0915013
1163,8298;0,0888431
1164,7941;0,0858111
1165,7583;0,0825341
1166,7225;0,0791567
1167,6868;0,0758172
1168,6510;0,0726274
1169,6152;0,069663
1170,5795;0,0669636
1171,5437;0,0645409
1172,5079;0,0623897
1173,4722;0,0604963
1174,4364;0,0588426
1175,4006;0,0574076
1176,3649;0,056168
1177,3291;0,0551009
1178,2933;0,0541865
1179,2576;0,0534087
1180,2218;0,0527548
1181,1860;0,0522123
1182,1503;0,0517677
1183,1145;0,0514081
1184,0787;0,0511239
1185,0430;0,0509111
1186,0072;0,0507723
1186,9714;0,0507137
1187,9357;0,0507423
1188,8999;0,0508643
1189,8641;0,051084
1190,8284;0,0514041
1191,7926;0,0518256
1192,7568;0,052346
1193,7211;0,0529576
1194,6853;0,0536469
1195,6495;0,0543957
1196,6138;0,0551841
1197,5780;0,055993
1198,5422;0,0568063
1199,5065;0,0575767
1200,4707;0,0583699
1201,4349;0,0591422
1202,3992;0,0598916
1203,3634;0,0606181
1204,3276;0,0613216
1205,2919;0,0620017
1206,2561;0,0626584
1207,2203;0,0632956
1208,1846;0,0639255
1209,1488;0,0645706
1210,1130;0,065261
1211,0773;0,0660266
1212,0415;0,0668872
1213,0057;0,0678462
1213,9700;0,06889
1214,9342;0,0699937
1215,8984;0,0711287
1216,8627;0,0722679
1217,8269;0,0733886
1218,7911;0,0744737
1219,7554;0,075512
1220,7196;0,0764994
1221,6838;0,0774373
1222,6481;0,0783304
1223,6123;0,0791828
1224,5765;0,0799955
1225,5408;0,0807664
1226,5050;0,0814925
1227,4692;0,0821723
1228,4335;0,0828067
1229,3977;0,0833981
1230,3619;0,0839476
1231,3262;0,0844536
1232,2904;0,0849117
1233,2546;0,0853165
1234,2189;0,0856646
1235,1831;0,0859573
1236,1473;0,0862008
1237,1116;0,0864042
1238,0758;0,0865751
1239,0400;0,0867154
1240,0043;0,08682
1240,9685;0,086879
1241,9327;0,0868823
1242,8970;0,086823
1243,8612;0,086699
1244,8254;0,0865107
1245,7897;0,0862595
1246,7539;0,0859479
1247,7181;0,0855816
1248,6824;0,0851706
1249,6466;0,0847285
1250,6108;0,0842691
1251,5751;0,0838032
1252,5393;0,083337
1253,5035;0,082872
1254,4678;0,082406
1255,4320;0,0819331
1256,3962;0,0814437
1257,3605;0,0809269
1258,3247;0,0803744
1259,2889;0,079784
1260,2532;0,0791594
1261,2174;0,0785068
1262,1816;0,0778288
1263,1459;0,0771228
1264,1101;0,0763833
1265,0743;0,0756055
1266,0386;0,0747879
1267,0028;0,0739309
1267,9670;0,073035
1268,9313;0,072101
1269,8955;0,0711337
1270,8597;0,0701444
1271,8240;0,06915
1272,7882;0,0681669
1273,7524;0,0672062
1274,7167;0,0662728
1275,6809;0,0653699
1276,6451;0,0645034
1277,6094;0,0636814
1278,5736;0,0629084
1279,5378;0,0621794
1280,5021;0,0614791
1281,4663;0,0607889
1282,4305;0,0600964
1283,3948;0,0594023
1284,3590;0,0587206
1285,3232;0,0580728
1286,2875;0,0574813
1287,2517;0,0569641
1288,2159;0,0565315
1289,1802;0,0561855
1290,1444;0,0559215
1291,1086;0,0557312
1292,0729;0,055607
1293,0371;0,0555459
1294,0013;0,0555501
1294,9656;0,0556248
1295,9298;0,0557756
1296,8940;0,0560056
1297,8583;0,0563156
1298,8225;0,0567047
1299,7867;0,0571704
1300,7510;0,0577073
1301,7152;0,0583064
1302,6794;0,0589565
1303,6437;0,0596477
1304,6079;0,0603743
1305,5721;0,0611338
1306,5364;0,0619234
1307,5006;0,0627364
1308,4648;0,0635628
1309,4291;0,0643913
1310,3933;0,0652118
1311,3575;0,0660138
1312,3218;0,0667821
1313,2860;0,0674938
1314,2502;0,0681197
1315,2145;0,0686276
1316,1787;0,0689879
1317,1429;0,0691795
1318,1072;0,0691981
1319,0714;0,069063
1320,0356;0,0688162
1320,9999;0,06851
1321,9641;0,0681903
1322,9283;0,0678872
1323,8926;0,0676158
1324,8568;0,067382
1325,8210;0,0671869
1326,7853;0,0670268
1327,7495;0,0668928
1328,7137;0,0667695
1329,6780;0,0666374
1330,6422;0,0664769
1331,6064;0,0662741
1332,5707;0,0660222
1333,5349;0,0657182
1334,4991;0,0653549
1335,4634;0,0649146
1336,4276;0,0643698
1337,3918;0,0637003
1338,3561;0,0629217
1339,3203;0,0621049
1340,2845;0,0613504
1341,2488;0,0607288
1342,2130;0,0602477
1343,1772;0,059872
1344,1415;0,0595615
1345,1057;0,0592956
1346,0699;0,0590787
1347,0342;0,0589317
1347,9984;0,0588784
1348,9626;0,0589321
1349,9269;0,0590894
1350,8911;0,0593327
1351,8553;0,0596399
1352,8196;0,0599951
1353,7838;0,0603964
1354,7480;0,0608538
1355,7123;0,0613765
1356,6765;0,0619597
1357,6407;0,0625808
1358,6050;0,0632079
1359,5692;0,0638122
1360,5334;0,0643762
1361,4977;0,0648973
1362,4619;0,0653877
1363,4261;0,065866
1364,3904;0,0663427
1365,3546;0,066812
1366,3188;0,0672562
1367,2831;0,0676537
1368,2473;0,0679847
1369,2115;0,0682318
1370,1758;0,0683769
1371,1400;0,0683974
1372,1042;0,0682674
1373,0685;0,0679723
1374,0327;0,0675321
1374,9969;0,0670056
1375,9612;0,0664505
1376,9254;0,0658724
1377,8896;0,0652218
1378,8539;0,0644393
1379,8181;0,0635113
1380,7823;0,062492
1381,7466;0,0614714
1382,7108;0,0605095
1383,6750;0,0595932
1384,6393;0,0586502
1385,6035;0,0576148
1386,5677;0,0565104
1387,5320;0,0554783
1388,4962;0,0546813
1389,4604;0,0541727
1390,4247;0,0538811
1391,3889;0,0536896
1392,3531;0,053504
1393,3174;0,0532802
1394,2816;0,0530272
1395,2458;0,0527919
1396,2101;0,0526281
1397,1743;0,052568
1398,1385;0,0526166
1399,1028;0,0527625
1400,0670;0,0529847
1401,0313;0,0532544
1401,9955;0,0535397
1402,9597;0,0538172
1403,9240;0,054084
1404,8882;0,0543627
1405,8524;0,0546883
1406,8167;0,0550828
1407,7809;0,0555431
1408,7451;0,0560537
1409,7094;0,0566077
1410,6736;0,0572143
1411,6378;0,0578861
1412,6021;0,0586173
1413,5663;0,0593771
1414,5305;0,0601212
1415,4948;0,060808
1416,4590;0,0614066
1417,4232;0,0619022
1418,3875;0,0623066
1419,3517;0,0626569
1420,3159;0,062975
1421,2802;0,0632308
1422,2444;0,0633625
1423,2086;0,0633253
1424,1729;0,0631211
1425,1371;0,0627877
1426,1013;0,0623545
1427,0656;0,0618044
1428,0298;0,061086
1428,9940;0,0601774
1429,9583;0,0591509
1430,9225;0,0581512
1431,8867;0,057284
1432,8510;0,0565304
1433,8152;0,0557639
1434,7794;0,0548395
1435,7437;0,0537257
1436,7079;0,0526064
1437,6721;0,0517715
1438,6364;0,0513518
1439,6006;0,0512562
1440,5648;0,0513275
1441,5291;0,0514622
1442,4933;0,0516285
1443,4575;0,0518382
1444,4218;0,0521101
1445,3860;0,0524487
1446,3502;0,0528403
1447,3145;0,0532651
1448,2787;0,053709
1449,2429;0,0541666
1450,2072;0,0546335
1451,1714;0,0550956
1452,1356;0,0555273
1453,0999;0,05589
1454,0641;0,0561232
1455,0283;0,0561232
1455,9926;0,0557647
1456,9568;0,0551005
1457,9210;0,0545311
1458,8853;0,0543792
1459,8495;0,0545538
1460,8137;0,0548046
1461,7780;0,0549173
1462,7422;0,0547224
1463,7064;0,0541052
1464,6707;0,0530987
1465,6349;0,0519382
1466,5991;0,0508928
1467,5634;0,050044
1468,5276;0,0492783
1469,4918;0,048392
1470,4561;0,0471578
1471,4203;0,0453887
1472,3845;0,0431163
1473,3488;0,0407617
1474,3130;0,0388589
1475,2772;0,0375686
1476,2415;0,0367134
1477,2057;0,0360795
1478,1699;0,0355423
1479,1342;0,0350511
1480,0984;0,0345962
1481,0626;0,0341933
1482,0269;0,0338746
1482,9911;0,0336705
1483,9553;0,0335881
1484,9196;0,0336011
1485,8838;0,0336577
1486,8480;0,0337001
1487,8123;0,0336981
1488,7765;0,0336958
1489,7407;0,0338097
1490,7050;0,0341213
1491,6692;0,0346047
1492,6334;0,035185
1493,5977;0,0358085
1494,5619;0,0364606
1495,5261;0,0371563
1496,4904;0,0379205
1497,4546;0,0387648
1498,4188;0,0396738
1499,3831;0,0406112
1500,3473;0,0415337
1501,3115;0,0423982
1502,2758;0,0431657
1503,2400;0,0437967
1504,2042;0,0442305
1505,1685;0,0443372
1506,1327;0,0439076
1507,0969;0,0429475
1508,0612;0,0419964
1509,0254;0,0414712
1509,9896;0,0412571
1510,9539;0,0411173
1511,9181;0,0409055
1512,8823;0,0405465
1513,8466;0,040002
1514,8108;0,0392709
1515,7750;0,0384044
1516,7393;0,0374927
1517,7035;0,036605
1518,6677;0,035737
1519,6320;0,0348292
1520,5962;0,0338549
1521,5604;0,0328927
1522,5247;0,0320807
1523,4889;0,0314936
1524,4531;0,031104
1525,4174;0,0308496
1526,3816;0,0306991
1527,3458;0,0306532
1528,3101;0,0307061
1529,2743;0,0308203
1530,2385;0,0309368
1531,2028;0,0310037
1532,1670;0,031013
1533,1312;0,0310241
1534,0955;0,0311304
1535,0597;0,0313741
1536,0239;0,0317141
1536,9882;0,0320664
1537,9524;0,0323362
1538,9166;0,0324084
1539,8809;0,0321656
1540,8451;0,0316854
1541,8093;0,0313417
1542,7736;0,031344
1543,7378;0,0315748
1544,7020;0,0318834
1545,6663;0,0322025
1546,6305;0,0325147
1547,5947;0,0328112
1548,5590;0,0330778
1549,5232;0,0333043
1550,4874;0,0335016
1551,4517;0,0337083
1552,4159;0,0339688
1553,3801;0,0342985
1554,3444;0,034665
1555,3086;0,034989
1556,2728;0,0351351
1557,2371;0,0349127
1558,2013;0,0342789
1559,1655;0,0337032
1560,1298;0,0336896
1561,0940;0,0341518
1562,0582;0,0348049
1563,0225;0,0354791
1563,9867;0,036105
1564,9509;0,0366527
1565,9152;0,0371058
1566,8794;0,0374636
1567,8436;0,0377628
1568,8079;0,0380847
1569,7721;0,0385099
1570,7363;0,0390502
1571,7006;0,0396491
1572,6648;0,0402391
1573,6290;0,0407846
1574,5933;0,0412924
1575,5575;0,0418075
1576,5217;0,0423901
1577,4860;0,0430713
1578,4502;0,0438334
1579,4144;0,0446413
1580,3787;0,0454729
1581,3429;0,0463214
1582,3071;0,0471862
1583,2714;0,0480658
1584,2356;0,0489587
1585,1998;0,0498655
1586,1641;0,0507842
1587,1283;0,0517016
1588,0925;0,0525894
1589,0568;0,0534102
1590,0210;0,0541271
1590,9852;0,0547075
1591,9495;0,0551207
1592,9137;0,0553383
1593,8779;0,0553482
1594,8422;0,0551718
1595,8064;0,0548657
1596,7706;0,0544962
1597,7349;0,0541091
1598,6991;0,0537171
1599,6633;0,0533117
1600,6276;0,0528843
1601,5918;0,0524435
1602,5560;0,0520176
1603,5203;0,0516384
1604,4845;0,0513188
1605,4487;0,0510413
1606,4130;0,0507688
1607,3772;0,0504736
1608,3414;0,0501702
1609,3057;0,0499205
1610,2699;0,0497925
1611,2341;0,049803
1612,1984;0,0499017
1613,1626;0,0499944
1614,1268;0,049979
1615,0911;0,0497965
1616,0553;0,0495097
1617,0195;0,0493112
1617,9838;0,049352
1618,9480;0,0496017
1619,9122;0,0499233
1620,8765;0,0501904
1621,8407;0,0503345
1622,8049;0,0503588
1623,7692;0,0503284
1624,7334;0,0503195
1625,6976;0,0503618
1626,6619;0,0504426
1627,6261;0,0505541
1628,5903;0,0507171
1629,5546;0,050957
1630,5188;0,0512671
1631,4830;0,0515963
1632,4473;0,0518562
1633,4115;0,0519293
1634,3757;0,0517
1635,3400;0,0511849
1636,3042;0,050662
1637,2684;0,0504386
1638,2327;0,0505339
1639,1969;0,0507924
1640,1611;0,051087
1641,1254;0,0513604
1642,0896;0,051588
1643,0538;0,0517357
1644,0181;0,051736
1644,9823;0,0515057
1645,9465;0,0510548
1646,9108;0,0505979
1647,8750;0,0503937
1648,8392;0,0504688
1649,8035;0,0506334
1650,7677;0,0506031
1651,7319;0,0500322
1652,6962;0,0487256
1653,6604;0,0472002
1654,6246;0,0463278
1655,5889;0,0461882
1656,5531;0,0463603
1657,5173;0,0465278
1658,4816;0,046538
1659,4458;0,0463123
1660,4100;0,0458125
1661,3743;0,0450827
1662,3385;0,0442953
1663,3027;0,0436682
1664,2670;0,0432964
1665,2312;0,0431081
1666,1954;0,0429419
1667,1597;0,0426196
1668,1239;0,0420074
1669,0881;0,0411193
1670,0524;0,0401743
1671,0166;0,0394238
1671,9808;0,0389139
1672,9451;0,0385016
1673,9093;0,0380288
1674,8735;0,0374537
1675,8378;0,0368803
1676,8020;0,0364653
1677,7662;0,0362784
1678,7305;0,0362654
1679,6947;0,0363038
1680,6589;0,0362439
1681,6232;0,0359106
1682,5874;0,0351477
1683,5516;0,0340225
1684,5159;0,0329607
1685,4801;0,0323358
1686,4443;0,0321123
1687,4086;0,0320711
1688,3728;0,0320592
1689,3370;0,0320284
1690,3013;0,0319933
1691,2655;0,0319831
1692,2297;0,0320108
1693,1940;0,0320634
1694,1582;0,0321067
1695,1224;0,0320941
1696,0867;0,0319819
1697,0509;0,0317532
1698,0151;0,0314468
1698,9794;0,0311622
1699,9436;0,031011
1700,9078;0,0310455
1701,8721;0,0312383
1702,8363;0,0315236
1703,8005;0,0318456
1704,7648;0,0321816
1705,7290;0,032541
1706,6932;0,0329495
1707,6575;0,0334254
1708,6217;0,0339689
1709,5859;0,0345667
1710,5502;0,0352014
1711,5144;0,0358526
1712,4786;0,0364926
1713,4429;0,0370835
1714,4071;0,037582
1715,3713;0,0379611
1716,3356;0,0382553
1717,2998;0,0385791
1718,2640;0,0390327
1719,2283;0,0396119
1720,1925;0,0402524
1721,1567;0,0408984
1722,1210;0,0415168
1723,0852;0,0420899
1724,0494;0,0426107
1725,0137;0,0430853
1725,9779;0,043532
1726,9421;0,0439723
1727,9064;0,0444157
1728,8706;0,0448467
1729,8348;0,0452153
1730,7991;0,0454308
1731,7633;0,045375
1732,7275;0,044983
1733,6918;0,0443732
1734,6560;0,0438087
1735,6202;0,0434407
1736,5845;0,0432058
1737,5487;0,0429484
1738,5129;0,0425376
1739,4772;0,0419199
1740,4414;0,041137
1741,4056;0,0402982
1742,3699;0,0395013
1743,3341;0,0387719
1744,2983;0,038075
1745,2626;0,037357
1746,2268;0,0365597
1747,1910;0,0356095
1748,1553;0,0344325
1749,1195;0,0330376
1750,0837;0,0315938
1751,0480;0,0303407
1752,0122;0,0293956
1752,9764;0,0286999
1753,9407;0,0281127
1754,9049;0,0275123
1755,8691;0,0268493
1756,8334;0,0261491
1757,7976;0,0254689
1758,7618;0,0248359
1759,7261;0,0242242
1760,6903;0,0235936
1761,6545;0,0229495
1762,6188;0,022355
1763,5830;0,0218779
1764,5472;0,0215348
1765,5115;0,0212885
1766,4757;0,0210825
1767,4399;0,020871
1768,4042;0,0206264
1769,3684;0,0203281
1770,3326;0,0199566
1771,2969;0,0195155
1772,2611;0,0190694
1773,2253;0,0187246
1774,1896;0,0185451
1775,1538;0,018507
1776,1180;0,0185348
1777,0823;0,0185526
1778,0465;0,0185135
1779,0107;0,0184107
1779,9750;0,0182727
1780,9392;0,0181396
1781,9034;0,0180346
1782,8677;0,0179581
1783,8319;0,0179053
1784,7961;0,0178845
1785,7604;0,0179132
1786,7246;0,017998
1787,6888;0,0181202
1788,6531;0,0182358
1789,6173;0,018287
1790,5815;0,0182244
1791,5458;0,0180471
1792,5100;0,0178318
1793,4742;0,0176865
1794,4385;0,0176588
1795,4027;0,0177173
1796,3669;0,0177977
1797,3312;0,017843
1798,2954;0,0178198
1799,2596;0,0177264
1800,2239;0,0175946
1801,1881;0,0174749
1802,1523;0,0174062
1803,1166;0,0173982
1804,0808;0,0174365
1805,0450;0,0174983
1806,0093;0,0175626
1806,9735;0,0176116
1807,9377;0,0176311
1808,9020;0,0176124
1809,8662;0,0175572
1810,8304;0,0174806
1811,7947;0,0174047
1812,7589;0,0173454
1813,7231;0,0173052
1814,6874;0,0172767
1815,6516;0,0172532
1816,6158;0,0172374
1817,5801;0,0172423
1818,5443;0,017282
1819,5085;0,0173581
1820,4728;0,0174543
1821,4370;0,0175451
1822,4012;0,0176092
1823,3655;0,0176417
1824,3297;0,0176541
1825,2939;0,0176602
1826,2582;0,0176556
1827,2224;0,0176136
1828,1866;0,0175058
1829,1509;0,0173367
1830,1151;0,0171615
1831,0793;0,0170544
1832,0436;0,0170497
1833,0078;0,0171236
1833,9720;0,0172224
1834,9363;0,0173009
1835,9005;0,0173454
1836,8647;0,0173775
1837,8290;0,0174331
1838,7932;0,0175294
1839,7574;0,0176475
1840,7217;0,0177417
1841,6859;0,0177623
1842,6501;0,0176814
1843,6144;0,0175193
1844,5786;0,0173458
1845,5428;0,0172297
1846,5071;0,0171858
1847,4713;0,017182
1848,4355;0,017182
1849,3998;0,0171726
1850,3640;0,0171651
1851,3282;0,0171807
1852,2925;0,0172331
1853,2567;0,0173177
1854,2209;0,0174131
1855,1852;0,017493
1856,1494;0,0175376
1857,1136;0,0175406
1858,0779;0,0175095
1859,0421;0,0174615
1860,0063;0,0174174
1860,9706;0,0173954
1861,9348;0,0174051
1862,8990;0,0174447
1863,8633;0,0175034
1864,8275;0,0175652
1865,7917;0,0176139
1866,7560;0,0176362
1867,7202;0,0176263
1868,6844;0,0175892
1869,6487;0,0175361
1870,6129;0,017474
1871,5771;0,0174008
1872,5414;0,0173126
1873,5056;0,0172129
1874,4698;0,0171182
1875,4341;0,0170562
1876,3983;0,0170536
1877,3625;0,0171188
1878,3268;0,0172326
1879,2910;0,017355
1880,2552;0,0174453
1881,2195;0,017483
1882,1837;0,017478
1883,1479;0,0174632
1884,1122;0,0174731
1885,0764;0,0175212
1886,0406;0,0175917
1887,0049;0,017649
1887,9691;0,0176591
1888,9333;0,0176124
1889,8976;0,0175329
1890,8618;0,0174607
1891,8260;0,0174241
1892,7903;0,0174251
1893,7545;0,0174459
1894,7188;0,0174655
1895,6830;0,0174741
1896,6472;0,017476
1897,6115;0,0174823
1898,5757;0,0174986
1899,5399;0,0175201
1900,5042;0,0175355
1901,4684;0,017536
1902,4326;0,0175219
1903,3969;0,0175029
1904,3611;0,0174909
1905,3253;0,0174927
1906,2896;0,0175064
1907,2538;0,0175253
1908,2180;0,0175445
1909,1823;0,0175648
1910,1465;0,0175912
1911,1107;0,0176242
1912,0750;0,0176553
1913,0392;0,01767
1914,0034;0,0176574
1914,9677;0,0176205
1915,9319;0,0175814
1916,8961;0,0175738
1917,8604;0,0176208
1918,8246;0,017713
1919,7888;0,017809
1920,7531;0,0178611
1921,7173;0,0178436
1922,6815;0,0177691
1923,6458;0,0176817
1924,6100;0,0176318
1925,5742;0,0176447
1926,5385;0,0177103
1927,5027;0,0177955
1928,4669;0,0178665
1929,4312;0,0179045
1930,3954;0,0179107
1931,3596;0,0178997
1932,3239;0,0178885
1933,2881;0,0178876
1934,2523;0,0179005
1935,2166;0,0179255
1936,1808;0,017957
1937,1450;0,0179846
1938,1093;0,0179937
1939,0735;0,0179718
1940,0377;0,017919
1941,0020;0,0178561
1941,9662;0,0178213
1942,9304;0,0178484
1943,8947;0,0179398
1944,8589;0,0180617
1945,8231;0,0181661
1946,7874;0,0182185
1947,7516;0,0182121
1948,7158;0,0181643
1949,6801;0,0181034
1950,6443;0,0180531
1951,6085;0,0180267
1952,5728;0,0180275
1953,5370;0,0180539
1954,5012;0,0180982
1955,4655;0,0181439
1956,4297;0,0181658
1957,3939;0,0181417
1958,3582;0,018068
1959,3224;0,0179692
1960,2866;0,0178882
1961,2509;0,017861
1962,2151;0,0178924
1963,1793;0,0179523
1964,1436;0,0179949
1965,1078;0,0179855
1966,0720;0,0179177
1967,0363;0,0178085
1968,0005;0,0176757
1968,9647;0,0175191
1969,9290;0,0173275
1970,8932;0,0171073
1971,8574;0,0169093
1972,8217;0,0168248
1973,7859;0,0169423
1974,7501;0,0172797
1975,7144;0,0177392
1976,6786;0,0181369
1977,6428;0,0183092
1978,6071;0,0182208
1979,5713;0,0179834
1980,5355;0,0177726
1981,4998;0,0177161
1982,4640;0,0178308
1983,4282;0,018033
1984,3925;0,0182009
1985,3567;0,0182495
1986,3209;0,0181755
1987,2852;0,01805
1988,2494;0,0179693
1989,2136;0,0180019
1990,1779;0,0181596
1991,1421;0,0184034
1992,1063;0,018673
1993,0706;0,018919
1994,0348;0,0191159
1994,9990;0,0192528
1995,9633;0,01932
1996,9275;0,0193061
1997,8917;0,0192094
1998,8560;0,0190515
1999,8202;0,0188798
2000,7844;0,0187511
2001,7487;0,0187061
2002,7129;0,0187555
2003,6771;0,0188855
2004,6414;0,0190755
2005,6056;0,0193116
2006,5698;0,019583
2007,5341;0,0198622
2008,4983;0,0200906
2009,4625;0,0201912
2010,4268;0,0201076
2011,3910;0,0198444
2012,3552;0,0194804
2013,3195;0,0191462
2014,2837;0,0189744
2015,2479;0,0190432
2016,2122;0,0193395
2017,1764;0,0197627
2018,1406;0,0201749
2019,1049;0,0204706
2020,0691;0,02062
2021,0333;0,020666
2021,9976;0,0206825
2022,9618;0,0207219
2023,9260;0,0207796
2024,8903;0,020794
2025,8545;0,0206866
2026,8187;0,0204216
2027,7830;0,0200455
2028,7472;0,0196806
2029,7114;0,0194711
2030,6757;0,0195106
2031,6399;0,0197909
2032,6041;0,0202027
2033,5684;0,0205884
2034,5326;0,0208198
2035,4968;0,0208548
2036,4611;0,0207432
2037,4253;0,0205842
2038,3895;0,0204664
2039,3538;0,0204242
2040,3180;0,0204279
2041,2822;0,0204105
2042,2465;0,0203157
2043,2107;0,0201383
2044,1749;0,0199318
2045,1392;0,0197797
2046,1034;0,0197488
2047,0676;0,0198515
2048,0320;0,0200405
2048,9961;0,0202387
2049,9604;0,0203821
2050,9246;0,0204446
2051,8889;0,0204332
2052,8530;0,020371
2053,8174;0,0202821
2054,7815;0,0201871
2055,7458;0,020105
2056,7100;0,0200531
2057,6743;0,0200425
2058,6384;0,0200712
2059,6028;0,0201238
2060,5669;0,0201784
2061,5313;0,0202205
2062,4954;0,0202517
2063,4597;0,0202874
2064,4238;0,0203419
2065,3882;0,0204117
2066,3523;0,0204706
2067,3167;0,0204832
2068,2808;0,0204274
2069,2451;0,020311
2070,2092;0,0201713
2071,1736;0,0200588
2072,1377;0,0200123
2073,1021;0,0200415
2074,0662;0,0201243
2075,0305;0,0202204
2075,9946;0,0202906
2076,9590;0,0203131
2077,9231;0,0202896
2078,8875;0,0202414
2079,8516;0,0201986
2080,8159;0,0201862
2081,7800;0,0202137
2082,7444;0,0202711
2083,7085;0,0203345
2084,6729;0,0203775
2085,6370;0,0203835
2086,6013;0,0203531
2087,5654;0,0203016
2088,5298;0,0202512
2089,4939;0,0202199
2090,4583;0,0202158
2091,4224;0,0202361
2092,3867;0,0202717
2093,3508;0,0203117
2094,3152;0,0203474
2095,2793;0,0203741
2096,2437;0,0203908
2097,2078;0,0203994
2098,1721;0,0204028
2099,1362;0,0204017
2100,1006;0,0203942
2101,0647;0,0203768
2102,0291;0,0203468
2102,9932;0,0203063
2103,9575;0,0202638
2104,9216;0,0202337
2105,8860;0,0202331
2106,8501;0,0202768
2107,8145;0,0203725
2108,7786;0,0205157
2109,7429;0,020687
2110,7070;0,0208532
2111,6714;0,0209746
2112,6355;0,0210178
2113,5999;0,0209692
2114,5640;0,0208437
2115,5283;0,0206801
2116,4924;0,0205266
2117,4568;0,0204203
2118,4209;0,020375
2119,3853;0,020381
2120,3494;0,0204196
2121,3137;0,0204779
2122,2778;0,0205546
2123,2422;0,0206515
2124,2063;0,0207584
2125,1707;0,020848
2126,1348;0,0208875
2127,0991;0,0208625
2128,0632;0,0207943
2129,0276;0,0207352
2129,9917;0,0207412
2130,9561;0,0208412
2131,9202;0,021022
2132,8845;0,0212404
2133,8486;0,0214507
2134,8130;0,0216264
2135,7771;0,0217587
2136,7415;0,0218385
2137,7056;0,0218442
2138,6699;0,021756
2139,6340;0,0215852
2140,5984;0,0213919
2141,5625;0,0212688
2142,5269;0,0212952
2143,4910;0,0214906
2144,4553;0,0218009
2145,4194;0,0221255
2146,3838;0,0223678
2147,3479;0,0224762
2148,3123;0,0224558
2149,2764;0,0223528
2150,2407;0,0222324
2151,2048;0,0221612
2152,1692;0,0221977
2153,1333;0,0223802
2154,0977;0,0227137
2155,0618;0,0231616
2156,0261;0,0236527
2156,9902;0,0241046
2157,9546;0,0244532
2158,9187;0,0246679
2159,8831;0,0247388
2160,8472;0,0246567
2161,8115;0,0244141
2162,7756;0,0240295
2163,7400;0,0235651
2164,7041;0,0231147
2165,6685;0,0227626
2166,6326;0,0225424
2167,5969;0,0224271
2168,5610;0,0223587
2169,5254;0,0222918
2170,4895;0,0222176
2171,4539;0,0221534
2172,4180;0,022113
2173,3823;0,0220854
2174,3464;0,022041
2175,3108;0,0219575
2176,2749;0,0218422
2177,2393;0,0217288
2178,2034;0,0216552
2179,1677;0,0216433
2180,1318;0,0216969
2181,0962;0,0218142
2182,0603;0,0219963
2183,0247;0,0222379
2183,9888;0,0225108
2184,9531;0,0227577
2185,9172;0,022912
2186,8816;0,0229299
2187,8457;0,0228142
2188,8101;0,0226121
2189,7742;0,0223912
2190,7385;0,0222106
2191,7026;0,0221046
2192,6670;0,0220803
2193,6311;0,0221202
2194,5955;0,0221846
2195,5596;0,0222168
2196,5239;0,0221601
2197,4880;0,0219863
2198,4524;0,0217204
2199,4165;0,0214409
2200,3809;0,021248
2201,3450;0,0212148
2202,3093;0,0213512
2203,2734;0,0215997
2204,2378;0,0218646
2205,2019;0,0220542
2206,1663;0,0221131
2207,1304;0,0220327
2208,0947;0,0218451
2209,0588;0,0216086
2210,0232;0,0213912
2210,9873;0,0212512
2211,9517;0,021218
2212,9158;0,0212783
2213,8801;0,0213809
2214,8442;0,0214601
2215,8086;0,0214706
2216,7727;0,021412
2217,7371;0,0213286
2218,7012;0,0212829
2219,6655;0,0213188
2220,6296;0,0214353
2221,5940;0,0215856
2222,5581;0,0217016
2223,5225;0,0217287
2224,4866;0,0216527
2225,4509;0,0215053
2226,4150;0,0213457
2227,3794;0,0212305
2228,3435;0,0211894
2229,3079;0,021216
2230,2720;0,0212806
2231,2363;0,0213504
2232,2004;0,0214065
2233,1648;0,0214452
2234,1289;0,0214689
2235,0933;0,0214756
2236,0574;0,021458
2237,0217;0,0214123
2237,9858;0,0213462
2238,9502;0,0212787
2239,9143;0,0212289
2240,8787;0,0212026
2241,8428;0,0211883
2242,8071;0,0211669
2243,7712;0,0211273
2244,7356;0,0210756
2245,6997;0,0210302
2246,6641;0,0210068
2247,6282;0,0210058
2248,5925;0,0210119
2249,5566;0,0210081
2250,5210;0,0209911
2251,4851;0,0209777
2252,4495;0,0209954
2253,4136;0,0210627
2254,3779;0,0211733
2255,3420;0,0212947
2256,3064;0,0213831
2257,2705;0,0214049
2258,2349;0,0213521
2259,1990;0,021244
2260,1633;0,0211147
2261,1274;0,0209967
2262,0918;0,0209087
2263,0559;0,0208529
2264,0203;0,020821
2264,9844;0,0208054
2265,9487;0,0208049
2266,9128;0,0208249
2267,8772;0,0208705
2268,8413;0,0209387
2269,8057;0,0210163
2270,7698;0,0210829
2271,7341;0,0211196
2272,6982;0,0211168
2273,6626;0,0210778
2274,6267;0,0210161
2275,5911;0,0209491
2276,5552;0,0208909
2277,5195;0,0208475
2278,4836;0,0208171
2279,4480;0,0207945
2280,4121;0,0207765
2281,3765;0,0207664
2282,3406;0,0207734
2283,3049;0,020808
2284,2690;0,0208751
2285,2334;0,0209694
2286,1975;0,0210755
2287,1619;0,0211741
2288,1260;0,0212503
2289,0903;0,0212996
2290,0544;0,0213282
2291,0188;0,0213484
2291,9829;0,0213715
2292,9473;0,0214033
2293,9114;0,0214428
2294,8757;0,0214855
2295,8398;0,0215268
2296,8042;0,0215643
2297,7683;0,0215973
2298,7327;0,0216246
2299,6968;0,0216421
2300,6611;0,0216425
2301,6252;0,0216187
2302,5896;0,0215697
2303,5537;0,0215055
2304,5181;0,0214472
2305,4822;0,0214191
2306,4465;0,0214349
2307,4106;0,0214855
2308,3750;0,0215357
2309,3391;0,0215385
2310,3035;0,0214598
2311,2676;0,0213006
2312,2319;0,021102
2313,1960;0,0209246
2314,1604;0,0208165
2315,1245;0,0207891
2316,0889;0,0208161
2317,0530;0,0208522
2318,0173;0,0208596
2318,9814;0,0208271
2319,9458;0,0207751
2320,9099;0,0207427
2321,8743;0,0207632
2322,8384;0,0208429
2323,8027;0,0209554
2324,7668;0,0210552
2325,7312;0,0211011
2326,6953;0,0210754
2327,6597;0,0209915
2328,6238;0,0208864
2329,5881;0,0208046
2330,5522;0,0207799
2331,5166;0,0208241
2332,4807;0,0209237
2333,4451;0,0210455
2334,4092;0,0211507
2335,3735;0,0212133
2336,3376;0,0212338
2337,3020;0,0212417
2338,2661;0,0212786
2339,2305;0,0213674
2340,1946;0,0214814
2341,1589;0,0215367
2342,1230;0,0214307
2343,0874;0,0211403
2344,0515;0,0208181
2345,0159;0,020726
2345,9800;0,0210046
2346,9443;0,0215526
2347,9084;0,0221318
2348,8728;0,022533
2349,8369;0,0226692
2350,8013;0,0225872
2351,7654;0,0224216
2352,7297;0,0223096
2353,6938;0,0223096
2354,6582;0,0223911
2355,6223;0,0224977
2356,5867;0,0225926
2357,5508;0,0226456
2358,5151;0,0226166
2359,4792;0,0224742
2360,4436;0,0222234
2361,4077;0,0218988
2362,3721;0,0215337
2363,3362;0,0211445
2364,3005;0,020742
2365,2646;0,0203476
2366,2290;0,0199903
2367,1931;0,0196906
2368,1575;0,0194496
2369,1216;0,0192537
2370,0859;0,0190875
2371,0500;0,0189458
2372,0144;0,0188384
2372,9785;0,0187855
2373,9429;0,0188093
2374,9070;0,0189227
2375,8713;0,0191237
2376,8354;0,0193953
2377,7998;0,019711
2378,7639;0,0200423
2379,7283;0,0203633
2380,6924;0,020653
2381,6567;0,0208959
2382,6208;0,0210823
2383,5852;0,0212096
2384,5493;0,0212827
2385,5137;0,0213131
2386,4778;0,0213166
2387,4421;0,0213106
2388,4063;0,0213108
2389,3706;0,0213289
2390,3347;0,0213694
2391,2991;0,0214276
2392,2632;0,0214905
2393,2275;0,0215408
2394,1917;0,0215642
2395,1560;0,0215569
2396,1201;0,0215281
2397,0845;0,0214959
2398,0486;0,0214795
2399,0129;0,0214889
2399,9771;0,0215217
2400,9414;0,0215664
2401,9055;0,02161
2402,8699;0,0216452
2403,8340;0,0216731
2404,7983;0,0217008
2405,7625;0,0217347
2406,7268;0,0217754
2407,6909;0,0218165
2408,6553;0,0218482
2409,6194;0,0218623
2410,5837;0,0218573
2411,5479;0,0218399
2412,5122;0,0218216
2413,4763;0,0218138
2414,4407;0,0218231
2415,4048;0,0218495
2416,3691;0,0218882
2417,3333;0,0219326
2418,2976;0,0219768
2419,2617;0,022016
2420,2261;0,022046
2421,1902;0,0220626
2422,1545;0,0220644
2423,1187;0,0220546
2424,0830;0,0220414
2425,0471;0,0220356
2426,0115;0,022046
2426,9756;0,0220754
2427,9399;0,0221202
2428,9041;0,0221732
2429,8684;0,0222266
2430,8325;0,022275
2431,7969;0,022315
2432,7610;0,0223462
2433,7253;0,0223706
2434,6895;0,0223938
2435,6538;0,0224224
2436,6179;0,0224608
2437,5823;0,022507
2438,5464;0,0225521
2439,5107;0,0225838
2440,4749;0,0225946
2441,4392;0,022587
2442,4033;0,022573
2443,3677;0,0225685
2444,3318;0,0225844
2445,2961;0,0226215
2446,2603;0,0226709
2447,2246;0,0227197
2448,1887;0,022757
2449,1531;0,0227779
2450,1172;0,0227836
2451,0815;0,0227799
2452,0457;0,0227739
2453,0100;0,0227725
2453,9741;0,0227794
2454,9385;0,0227939
2455,9026;0,0228104
2456,8669;0,0228202
2457,8311;0,0228155
2458,7954;0,0227945
2459,7595;0,0227638
2460,7239;0,0227369
2461,6880;0,0227284
2462,6523;0,0227469
2463,6165;0,0227913
2464,5808;0,0228509
2465,5449;0,022911
2466,5093;0,0229596
2467,4734;0,0229912
2468,4377;0,0230076
2469,4019;0,0230139
2470,3662;0,023015
2471,3303;0,0230135
2472,2947;0,0230107
2473,2588;0,0230086
2474,2231;0,0230108
2475,1873;0,0230212
2476,1516;0,023043
2477,1157;0,0230759
2478,0801;0,0231175
2479,0442;0,023163
2480,0085;0,0232078
2480,9727;0,0232469
2481,9370;0,023276
2482,9011;0,0232912
2483,8655;0,0232909
2484,8296;0,0232768
2485,7939;0,0232545
2486,7581;0,0232329
2487,7224;0,0232217
2488,6865;0,0232277
2489,6509;0,0232526
2490,6150;0,0232919
2491,5793;0,0233364
2492,5435;0,0233759
2493,5078;0,0234026
2494,4719;0,0234142
2495,4363;0,0234131
2496,4004;0,0234047
2497,3647;0,0233941
2498,3289;0,0233857
2499,2932;0,0233831
2500,2573;0,0233913
2501,2217;0,0234156
2502,1858;0,0234589
2503,1501;0,0235177
2504,1143;0,0235801
2505,0786;0,0236294
2506,0427;0,0236511
2507,0071;0,0236418
2507,9712;0,0236116
2508,9355;0,0235806
2509,8997;0,0235682
2510,8640;0,0235833
2511,8281;0,0236196
2512,7925;0,0236593
2513,7566;0,0236834
2514,7209;0,023681
2515,6851;0,0236542
2516,6494;0,0236153
2517,6135;0,0235797
2518,5779;0,0235585
2519,5420;0,0235558
2520,5063;0,0235696
2521,4705;0,0235959
2522,4348;0,023631
2523,3989;0,0236721
2524,3633;0,0237156
2525,3274;0,023756
2526,2917;0,0237865
2527,2559;0,0238017
2528,2202;0,0237999
2529,1843;0,0237843
2530,1487;0,0237613
2531,1128;0,0237382
2532,0771;0,0237202
2533,0413;0,02371
2534,0056;0,0237095
2534,9697;0,023721
2535,9341;0,0237479
2536,8982;0,0237916
2537,8625;0,0238487
2538,8267;0,0239082
2539,7910;0,023954
2540,7551;0,0239718
2541,7195;0,0239569
2542,6836;0,0239174
2543,6479;0,0238714
2544,6121;0,0238376
2545,5764;0,0238264
2546,5405;0,0238361
2547,5049;0,0238571
2548,4690;0,0238802
2549,4333;0,023902
2550,3975;0,0239254
2551,3618;0,0239537
2552,3259;0,0239858
2553,2903;0,0240153
2554,2544;0,0240347
2555,2188;0,0240403
2556,1829;0,0240353
2557,1472;0,0240266
2558,1113;0,0240203
2559,0757;0,0240182
2560,0398;0,0240172
2561,0042;0,0240131
2561,9683;0,0240031
2562,9326;0,0239881
2563,8967;0,023972
2564,8611;0,0239608
2565,8252;0,0239598
2566,7896;0,0239717
2567,7537;0,023995
2568,7180;0,0240233
2569,6821;0,0240484
2570,6465;0,0240639
2571,6106;0,0240689
2572,5750;0,0240687
2573,5391;0,0240707
2574,5034;0,0240799
2575,4675;0,0240956
2576,4319;0,0241136
2577,3960;0,0241304
2578,3604;0,0241465
2579,3245;0,0241656
2580,2888;0,0241906
2581,2529;0,0242192
2582,2173;0,0242442
2583,1814;0,0242573
2584,1458;0,0242554
2585,1099;0,024243
2586,0742;0,0242303
2587,0383;0,0242269
2588,0027;0,0242361
2588,9668;0,0242529
2589,9312;0,024267
2590,8953;0,0242685
2591,8596;0,0242548
2592,8237;0,0242334
2593,7881;0,0242193
2594,7522;0,0242283
2595,7166;0,0242682
2596,6807;0,0243337
2597,6450;0,024408
2598,6091;0,02447
2599,5735;0,0245056
2600,5376;0,0245134
2601,5020;0,0245044
2602,4661;0,0244944
2603,4304;0,0244953
2604,3945;0,0245104
2605,3589;0,0245359
2606,3230;0,0245658
2607,2874;0,0245962
2608,2515;0,0246263
2609,2158;0,0246565
2610,1799;0,0246858
2611,1443;0,0247114
2612,1084;0,0247301
2613,0728;0,0247402
2614,0369;0,0247421
2615,0012;0,0247391
2615,9653;0,0247364
2616,9297;0,0247403
2617,8938;0,0247564
2618,8582;0,0247869
2619,8223;0,0248287
2620,7866;0,0248738
2621,7507;0,0249129
2622,7151;0,0249399
2623,6792;0,0249555
2624,6436;0,024966
2625,6077;0,0249796
2626,5720;0,0250012
2627,5361;0,0250301
2628,5005;0,0250616
2629,4646;0,0250899
2630,4290;0,0251115
2631,3931;0,0251265
2632,3574;0,0251377
2633,3215;0,0251493
2634,2859;0,0251652
2635,2500;0,0251875
2636,2144;0,0252159
2637,1785;0,0252479
2638,1428;0,0252801
2639,1069;0,0253102
2640,0713;0,0253381
2641,0354;0,0253661
2641,9998;0,0253966
2642,9639;0,0254297
2643,9282;0,0254629
2644,8923;0,025492
2645,8567;0,0255143
2646,8208;0,0255299
2647,7852;0,0255421
2648,7493;0,0255556
2649,7136;0,0255734
2650,6777;0,0255963
2651,6421;0,025623
2652,6062;0,0256514
2653,5706;0,0256802
2654,5347;0,0257085
2655,4990;0,0257365
2656,4631;0,0257643
2657,4275;0,0257919
2658,3916;0,0258193
2659,3560;0,0258461
2660,3201;0,0258712
2661,2844;0,025893
2662,2485;0,0259096
2663,2129;0,0259205
2664,1770;0,0259275
2665,1414;0,0259347
2666,1055;0,0259467
2667,0698;0,0259661
2668,0339;0,0259924
2668,9983;0,0260223
2669,9624;0,0260525
2670,9268;0,0260819
2671,8909;0,0261122
2672,8552;0,0261465
2673,8193;0,0261856
2674,7837;0,0262265
2675,7478;0,0262635
2676,7122;0,0262911
2677,6763;0,0263073
2678,6406;0,026315
2679,6047;0,0263205
2680,5691;0,0263303
2681,5332;0,0263491
2682,4976;0,0263786
2683,4617;0,0264174
2684,4260;0,0264619
2685,3901;0,0265074
2686,3545;0,0265488
2687,3186;0,026583
2688,2830;0,0266097
2689,2471;0,0266321
2690,2114;0,0266554
2691,1755;0,0266839
2692,1399;0,0267196
2693,1040;0,026761
2694,0684;0,026805
2695,0325;0,026849
2695,9968;0,0268916
2696,9609;0,026933
2697,9253;0,0269734
2698,8894;0,0270124
2699,8538;0,0270486
2700,8179;0,0270804
2701,7822;0,0271071
2702,7463;0,0271298
2703,7107;0,0271511
2704,6748;0,0271746
2705,6392;0,0272033
2706,6033;0,0272383
2707,5676;0,0272786
2708,5317;0,0273213
2709,4961;0,0273627
2710,4602;0,0274
2711,4246;0,0274322
2712,3887;0,0274605
2713,3530;0,0274871
2714,3171;0,0275141
2715,2815;0,0275431
2716,2456;0,0275741
2717,2100;0,0276069
2718,1741;0,0276407
2719,1384;0,0276752
2720,1025;0,0277094
2721,0669;0,0277419
2722,0310;0,0277705
2722,9954;0,0277934
2723,9595;0,0278111
2724,9238;0,0278271
2725,8879;0,0278473
2726,8523;0,0278773
2727,8164;0,0279198
2728,7808;0,0279725
2729,7449;0,0280295
2730,7092;0,0280836
2731,6733;0,0281293
2732,6377;0,0281641
2733,6018;0,0281885
2734,5662;0,0282047
2735,5303;0,0282158
2736,4946;0,0282255
2737,4587;0,0282378
2738,4231;0,0282559
2739,3872;0,0282812
2740,3516;0,0283127
2741,3157;0,0283477
2742,2800;0,0283824
2743,2441;0,028413
2744,2085;0,0284359
2745,1726;0,0284479
2746,1370;0,028448
2747,1011;0,0284392
2748,0654;0,0284297
2749,0295;0,0284306
2749,9939;0,0284509
2750,9580;0,0284928
2751,9224;0,0285499
2752,8865;0,0286097
2753,8508;0,0286608
2754,8149;0,0286977
2755,7793;0,0287234
2756,7434;0,0287461
2757,7078;0,0287743
2758,6719;0,0288123
2759,6362;0,0288586
2760,6003;0,0289076
2761,5647;0,0289524
2762,5288;0,0289882
2763,4932;0,0290143
2764,4573;0,0290347
2765,4216;0,0290567
2766,3857;0,0290886
2767,3501;0,0291351
2768,3142;0,0291953
2769,2786;0,0292616
2770,2427;0,0293227
2771,2070;0,0293694
2772,1711;0,0293989
2773,1355;0,0294171
2774,0996;0,0294361
2775,0640;0,0294681
2776,0281;0,0295195
2776,9924;0,0295881
2777,9565;0,029665
2778,9209;0,0297392
2779,8850;0,0298038
2780,8494;0,0298581
2781,8135;0,0299067
2782,7778;0,0299551
2783,7419;0,0300065
2784,7063;0,03006
2785,6704;0,0301125
2786,6348;0,0301614
2787,5989;0,030207
2788,5632;0,030252
2789,5273;0,030301
2790,4917;0,0303576
2791,4558;0,0304236
2792,4202;0,0304978
2793,3843;0,0305765
2794,3486;0,0306546
2795,3127;0,0307279
2796,2771;0,0307947
2797,2412;0,0308583
2798,2056;0,0309256
2799,1697;0,0310045
2800,1340;0,0310999
2801,0981;0,0312106
2802,0625;0,0313299
2803,0266;0,0314487
2803,9910;0,0315596
2804,9551;0,03166
2805,9194;0,0317517
2806,8835;0,0318392
2807,8479;0,0319273
2808,8120;0,0320193
2809,7764;0,0321177
2810,7405;0,0322245
2811,7048;0,0323416
2812,6689;0,0324699
2813,6333;0,0326083
2814,5974;0,0327535
2815,5618;0,0329004
2816,5259;0,0330453
2817,4902;0,0331873
2818,4543;0,0333289
2819,4187;0,0334739
2820,3828;0,0336257
2821,3472;0,0337847
2822,3113;0,0339496
2823,2756;0,0341193
2824,2397;0,0342954
2825,2041;0,0344819
2826,1682;0,0346827
2827,1326;0,0348989
2828,0967;0,0351269
2829,0610;0,0353618
2830,0251;0,035601
2830,9895;0,0358472
2831,9536;0,0361071
2832,9180;0,0363869
2833,8821;0,0366873
2834,8464;0,0370021
2835,8105;0,0373224
2836,7749;0,0376432
2837,7390;0,0379686
2838,7034;0,0383122
2839,6675;0,038693
2840,6318;0,0391288
2841,5959;0,0396311
2842,5603;0,0402025
2843,5244;0,0408354
2844,4888;0,0415111
2845,4529;0,0421996
2846,4172;0,042861
2847,3813;0,0434501
2848,3457;0,043926
2849,3098;0,0442611
2850,2742;0,0444477
2851,2383;0,0444984
2852,2026;0,0444408
2853,1667;0,0443091
2854,1311;0,0441367
2855,0952;0,0439514
2856,0596;0,0437743
2857,0237;0,0436205
2857,9880;0,0435009
2858,9521;0,0434232
2859,9165;0,0433925
2860,8806;0,0434104
2861,8450;0,0434742
2862,8091;0,0435774
2863,7734;0,0437108
2864,7375;0,0438646
2865,7019;0,0440302
2866,6660;0,0442008
2867,6304;0,0443706
2868,5945;0,0445339
2869,5588;0,0446842
2870,5229;0,0448159
2871,4873;0,0449251
2872,4514;0,0450124
2873,4158;0,0450821
2874,3799;0,0451414
2875,3442;0,045198
2876,3083;0,0452578
2877,2727;0,045325
2878,2368;0,0454016
2879,2012;0,0454883
2880,1653;0,0455843
2881,1296;0,0456874
2882,0938;0,0457942
2883,0581;0,0459012
2884,0222;0,0460059
2884,9866;0,0461087
2885,9507;0,0462127
2886,9150;0,0463226
2887,8792;0,0464422
2888,8435;0,0465721
2889,8076;0,0467094
2890,7720;0,0468487
2891,7361;0,0469846
2892,7004;0,0471142
2893,6646;0,0472379
2894,6289;0,0473583
2895,5930;0,0474788
2896,5574;0,0476017
2897,5215;0,0477278
2898,4858;0,0478571
2899,4500;0,0479882
2900,4143;0,0481192
2901,3784;0,0482473
2902,3428;0,0483705
2903,3069;0,048489
2904,2712;0,0486065
2905,2354;0,0487309
2906,1997;0,0488723
2907,1638;0,0490414
2908,1282;0,049248
2909,0923;0,0495008
2910,0566;0,0498059
2911,0208;0,050164
2911,9851;0,0505663
2912,9492;0,0509913
2913,9136;0,0514065
2914,8777;0,0517739
2915,8420;0,0520589
2916,8062;0,0522378
2917,7705;0,0523006
2918,7346;0,0522498
2919,6990;0,0520974
2920,6631;0,0518621
2921,6274;0,0515662
2922,5916;0,0512329
2923,5559;0,0508817
2924,5200;0,0505247
2925,4844;0,0501649
2926,4485;0,0498006
2927,4128;0,0494304
2928,3770;0,0490577
2929,3413;0,0486913
2930,3054;0,0483409
2931,2698;0,0480126
2932,2339;0,0477058
2933,1982;0,047415
2934,1624;0,0471324
2935,1267;0,0468512
2936,0908;0,046567
2937,0552;0,0462777
2938,0193;0,0459831
2938,9836;0,0456836
2939,9478;0,0453799
2940,9121;0,0450714
2941,8762;0,0447567
2942,8406;0,044435
2943,8047;0,0441087
2944,7690;0,0437851
2945,7332;0,0434758
2946,6975;0,0431922
2947,6616;0,0429402
2948,6260;0,042717
2949,5901;0,0425116
2950,5544;0,0423112
2951,5186;0,0421065
2952,4829;0,0418966
2953,4470;0,0416876
2954,4114;0,0414878
2955,3755;0,0413013
2956,3398;0,0411248
2957,3040;0,0409489
2958,2683;0,0407632
2959,2324;0,0405626
2960,1968;0,0403497
2961,1609;0,0401323
2962,1252;0,0399187
2963,0894;0,0397122
2964,0537;0,0395107
2965,0178;0,0393092
2965,9822;0,0391045
2966,9463;0,0388967
2967,9106;0,0386879
2968,8748;0,0384785
2969,8391;0,0382657
2970,8032;0,0380458
2971,7676;0,0378185
2972,7317;0,0375899
2973,6960;0,0373715
2974,6602;0,0371735
2975,6245;0,0369987
2976,5886;0,0368406
2977,5530;0,0366875
2978,5171;0,0365308
2979,4814;0,036371
2980,4456;0,0362177
2981,4099;0,0360832
2982,3740;0,0359744
2983,3384;0,035889
2984,3025;0,0358175
2985,2668;0,0357503
2986,2310;0,0356827
2987,1953;0,0356167
2988,1594;0,0355564
2989,1238;0,0355044
2990,0879;0,035459
2991,0522;0,0354165
2992,0164;0,0353758
2992,9807;0,0353396
2993,9448;0,0353142
2994,9092;0,035305
2995,8733;0,035314
2996,8376;0,0353385
2997,8018;0,0353729
2998,7661;0,0354109
2999,7302;0,0354473
3000,6946;0,0354793
3001,6587;0,0355068
3002,6230;0,0355334
3003,5872;0,0355644
3004,5515;0,0356047
3005,5156;0,0356551
3006,4800;0,0357108
3007,4441;0,0357631
3008,4084;0,0358034
3009,3726;0,0358285
3010,3369;0,0358421
3011,3010;0,0358529
3012,2654;0,0358696
3013,2295;0,0358968
3014,1938;0,0359341
3015,1580;0,0359781
3016,1223;0,0360266
3017,0864;0,0360802
3018,0508;0,036141
3019,0149;0,0362104
3019,9792;0,0362868
3020,9434;0,0363662
3021,9077;0,0364452
3022,8718;0,0365235
3023,8362;0,0366049
3024,8003;0,0366952
3025,7646;0,0367977
3026,7288;0,0369104
3027,6931;0,0370249
3028,6572;0,0371298
3029,6216;0,0372154
3030,5857;0,0372778
3031,5500;0,0373218
3032,5142;0,0373586
3033,4785;0,037402
3034,4426;0,0374635
3035,4070;0,0375485
3036,3711;0,0376559
3037,3354;0,0377793
3038,2996;0,0379106
3039,2639;0,0380426
3040,2280;0,0381711
3041,1924;0,0382951
3042,1565;0,0384148
3043,1208;0,0385303
3044,0850;0,0386406
3045,0493;0,0387454
3046,0134;0,0388466
3046,9778;0,0389496
3047,9419;0,0390615
3048,9063;0,0391872
3049,8704;0,0393256
3050,8347;0,0394694
3051,7988;0,0396077
3052,7632;0,039732
3053,7273;0,0398407
3054,6917;0,0399402
3055,6558;0,0400418
3056,6201;0,0401562
3057,5842;0,0402877
3058,5486;0,0404333
3059,5127;0,0405848
3060,4771;0,0407332
3061,4412;0,0408713
3062,4055;0,0409957
3063,3696;0,0411064
3064,3340;0,041207
3065,2981;0,0413048
3066,2625;0,0414101
3067,2266;0,041533
3068,1909;0,0416793
3069,1550;0,0418465
3070,1194;0,0420234
3071,0835;0,0421945
3072,0479;0,042347
3073,0120;0,0424768
3073,9763;0,0425897
3074,9404;0,0426975
3075,9048;0,042811
3076,8689;0,0429344
3077,8333;0,0430647
3078,7974;0,0431961
3079,7617;0,0433253
3080,7258;0,0434543
3081,6902;0,0435883
3082,6543;0,0437306
3083,6187;0,043879
3084,5828;0,0440259
3085,5471;0,0441632
3086,5112;0,0442875
3087,4756;0,0444026
3088,4397;0,0445173
3089,4041;0,0446401
3090,3682;0,044775
3091,3325;0,0449196
3092,2966;0,0450683
3093,2610;0,0452162
3094,2251;0,0453615
3095,1895;0,0455054
3096,1536;0,0456499
3097,1179;0,045796
3098,0820;0,0459428
3099,0464;0,046089
3100,0105;0,046234
3100,9749;0,0463789
3101,9390;0,0465255
3102,9033;0,046675
3103,8674;0,0468271
3104,8318;0,0469807
3105,7959;0,0471348
3106,7603;0,047291
3107,7244;0,0474531
3108,6887;0,0476252
3109,6528;0,0478081
3110,6172;0,0479967
3111,5813;0,048181
3112,5457;0,0483513
3113,5098;0,0485045
3114,4741;0,0486469
3115,4382;0,0487909
3116,4026;0,0489472
3117,3667;0,0491167
3118,3311;0,0492904
3119,2952;0,0494559
3120,2595;0,0496064
3121,2236;0,0497457
3122,1880;0,0498852
3123,1521;0,0500354
3124,1165;0,0501992
3125,0806;0,0503721
3126,0449;0,0505476
3127,0090;0,0507235
3127,9734;0,0509033
3128,9375;0,0510923
3129,9019;0,0512917
3130,8660;0,0514969
3131,8303;0,0517002
3132,7944;0,0518957
3133,7588;0,0520828
3134,7229;0,0522651
3135,6873;0,0524471
3136,6514;0,05263
3137,6157;0,0528126
3138,5798;0,0529928
3139,5442;0,0531707
3140,5083;0,0533486
3141,4727;0,0535295
3142,4368;0,0537156
3143,4011;0,0539068
3144,3652;0,0541025
3145,3296;0,0543022
3146,2937;0,0545052
3147,2581;0,0547092
3148,2222;0,0549091
3149,1865;0,0550982
3150,1506;0,0552718
3151,1150;0,0554316
3152,0791;0,0555871
3153,0435;0,0557518
3154,0076;0,0559371
3154,9719;0,056145
3155,9360;0,0563672
3156,9004;0,0565905
3157,8645;0,0568044
3158,8289;0,0570072
3159,7930;0,0572056
3160,7573;0,057408
3161,7214;0,0576183
3162,6858;0,057833
3163,6499;0,0580454
3164,6143;0,0582512
3165,5784;0,0584517
3166,5427;0,0586521
3167,5068;0,0588563
3168,4712;0,0590639
3169,4353;0,0592436
3170,3997;0,0594502
3171,3638;0,059659
3172,3281;0,0598758
3173,2922;0,0601039
3174,2566;0,0603388
3175,2207;0,0605686
3176,1851;0,0607808
3177,1492;0,0609703
3178,1135;0,0611434
3179,0776;0,0613149
3180,0420;0,0614993
3181,0061;0,061703
3181,9705;0,0619223
3182,9346;0,0621471
3183,8989;0,0623669
3184,8630;0,0625759
3185,8274;0,0627733
3186,7915;0,0629616
3187,7559;0,0631451
3188,7200;0,0633287
3189,6843;0,0635181
3190,6484;0,0637192
3191,6128;0,0639346
3192,5769;0,0641609
3193,5413;0,0643883
3194,5054;0,0646041
3195,4697;0,0647993
3196,4338;0,0649733
3197,3982;0,0651352
3198,3623;0,0652989
3199,3267;0,0654763
3200,2908;0,0656719
3201,2551;0,0658821
3202,2192;0,0660989
3203,1836;0,0663143
3204,1477;0,0665243
3205,1121;0,0667298
3206,0762;0,0669349
3207,0405;0,0671436
3208,0046;0,0673568
3208,9690;0,0675709
3209,9331;0,0677798
3210,8975;0,0679779
3211,8616;0,0681646
3212,8259;0,0683449
3213,7900;0,0685271
3214,7544;0,0687174
3215,7185;0,068916
3216,6829;0,0691172
3217,6470;0,0693139
3218,6113;0,0695028
3219,5754;0,0696869
3220,5398;0,0698725
3221,5039;0,070064
3222,4683;0,0702599
3223,4324;0,0704542
3224,3967;0,0706418
3225,3608;0,070823
3226,3252;0,0710045
3227,2893;0,0711941
3228,2537;0,0713957
3229,2178;0,0716054
3230,1821;0,0718149
3231,1462;0,0720165
3232,1106;0,0722083
3233,0747;0,0723942
3234,0391;0,0725807
3235,0032;0,0727729
3235,9675;0,0729722
3236,9316;0,0731772
3237,8960;0,0733849
3238,8601;0,0735914
3239,8245;0,0737922
3240,7886;0,073982
3241,7529;0,0741575
3242,7170;0,0743205
3243,6814;0,0744795
3244,6455;0,0746476
3245,6099;0,0748369
3246,5740;0,0750519
3247,5383;0,0752873
3248,5024;0,0755302
3249,4668;0,0757672
3250,4309;0,0759898
3251,3953;0,0761979
3252,3594;0,0763976
3253,3237;0,0765969
3254,2878;0,0768011
3255,2522;0,07701
3256,2163;0,0772195
3257,1807;0,077425
3258,1448;0,0776248
3259,1091;0,0778222
3260,0732;0,0780235
3261,0376;0,0782356
3262,0017;0,0784625
3262,9661;0,0787032
3263,9302;0,0789531
3264,8945;0,0792055
3265,8586;0,0794543
3266,8230;0,0796951
3267,7871;0,0799247
3268,7515;0,0801389
3269,7156;0,0803316
3270,6799;0,0804945
3271,6440;0,0806211
3272,6084;0,0807106
3273,5725;0,0807713
3274,5369;0,08082
3275,5010;0,0808766
3276,4653;0,0809569
3277,4294;0,0810665
3278,3938;0,0811995
3279,3579;0,0813428
3280,3223;0,0814816
3281,2864;0,0816055
3282,2507;0,0817111
3283,2148;0,0818013
3284,1792;0,0818815
3285,1433;0,081956
3286,1077;0,0820253
3287,0718;0,0820869
3288,0361;0,0821385
3289,0002;0,0821817
3289,9646;0,0822223
3290,9287;0,0822681
3291,8931;0,0823229
3292,8572;0,0823827
3293,8215;0,0824366
3294,7856;0,0824727
3295,7500;0,0824857
3296,7141;0,0824808
3297,6785;0,0824719
3298,6426;0,0824747
3299,6069;0,0824997
3300,5710;0,082548
3301,5354;0,0826123
3302,4995;0,0826804
3303,4639;0,0827391
3304,4280;0,0827781
3305,3923;0,0827925
3306,3564;0,0827846
3307,3208;0,0827639
3308,2849;0,0827437
3309,2493;0,0827364
3310,2134;0,0827491
3311,1777;0,0827825
3312,1418;0,0828333
3313,1062;0,0828977
3314,0703;0,0829725
3315,0347;0,0830556
3315,9988;0,0831447
3316,9631;0,0832383
3317,9272;0,0833375
3318,8916;0,0834465
3319,8557;0,0835697
3320,8201;0,0837078
3321,7842;0,0838548
3322,7485;0,0839998
3323,7126;0,0841324
3324,6770;0,0842482
3325,6411;0,0843515
3326,6055;0,0844518
3327,5696;0,084558
3328,5339;0,0846736
3329,4980;0,0847944
3330,4624;0,0849102
3331,4265;0,0850084
3332,3909;0,0850787
3333,3550;0,0851165
3334,3193;0,0851256
3335,2834;0,0851165
3336,2478;0,0851011
3337,2119;0,0850854
3338,1763;0,0850654
3339,1404;0,0850297
3340,1047;0,0849671
3341,0688;0,0848752
3342,0332;0,0847628
3342,9973;0,0846444
3343,9617;0,0845315
3344,9258;0,0844257
3345,8901;0,084319
3346,8542;0,0841995
3347,8186;0,0840591
3348,7827;0,0838965
3349,7471;0,0837166
3350,7112;0,0835273
3351,6755;0,0833372
3352,6396;0,0831545
3353,6040;0,0829852
3354,5681;0,0828305
3355,5325;0,0826847
3356,4966;0,0825369
3357,4609;0,0823774
3358,4250;0,0822054
3359,3894;0,0820313
3360,3535;0,0818715
3361,3179;0,0817368
3362,2820;0,0816246
3363,2463;0,081518
3364,2104;0,0813956
3365,1748;0,0812434
3366,1389;0,0810615
3367,1033;0,0808615
3368,0674;0,0806582
3369,0317;0,0804611
3369,9958;0,0802726
3370,9602;0,080091
3371,9243;0,0799145
3372,8887;0,0797421
3373,8528;0,079572
3374,8171;0,0793999
3375,7813;0,0792213
3376,7456;0,0790351
3377,7097;0,0788457
3378,6741;0,0786607
3379,6382;0,0784849
3380,6025;0,0783159
3381,5667;0,0781451
3382,5310;0,0779658
3383,4951;0,0777805
3384,4595;0,0776027
3385,4236;0,0774496
3386,3879;0,0773291
3387,3521;0,0772323
3388,3164;0,0771369
3389,2805;0,0770192
3390,2449;0,0768678
3391,2090;0,076689
3392,1733;0,0765013
3393,1375;0,0763222
3394,1018;0,0761571
3395,0659;0,075998
3396,0303;0,0758322
3396,9944;0,0756516
3397,9587;0,0754564
3398,9229;0,0752525
3399,8872;0,0750453
3400,8513;0,074837
3401,8157;0,0746283
3402,7798;0,0744217
3403,7441;0,0742219
3404,7083;0,0740327
3405,6726;0,0738534
3406,6367;0,0736779
3407,6011;0,0734974
3408,5652;0,073304
3409,5295;0,0730931
3410,4937;0,0728641
3411,4580;0,0726208
3412,4221;0,0723722
3413,3865;0,0721314
3414,3506;0,0719099
3415,3149;0,0717102
3416,2791;0,0715198
3417,2434;0,071315
3418,2075;0,0710723
3419,1719;0,0707844
3420,1360;0,0704688
3421,1003;0,0701602
3422,0645;0,069891
3423,0288;0,0696712
3423,9929;0,0694854
3424,9573;0,0693035
3425,9214;0,0690995
3426,8857;0,0688639
3427,8499;0,0686051
3428,8142;0,0683405
3429,7783;0,0680848
3430,7427;0,0678414
3431,7068;0,0676044
3432,6711;0,0673652
3433,6353;0,0671197
3434,5996;0,0668694
3435,5637;0,0666182
3436,5281;0,066368
3437,4922;0,0661176
3438,4565;0,0658661
3439,4207;0,0656164
3440,3850;0,0653729
3441,3491;0,0651362
3442,3135;0,064896
3443,2776;0,0646331
3444,2419;0,0643301
3445,2061;0,063987
3446,1704;0,0636291
3447,1345;0,0632974
3448,0989;0,063024
3449,0630;0,0628107
3450,0273;0,0626281
3450,9915;0,0624347
3451,9558;0,0622013
3452,9199;0,0619252
3453,8843;0,0616286
3454,8484;0,0613427
3455,8127;0,061088
3456,7769;0,0608633
3457,7412;0,0606503
3458,7053;0,0604276
3459,6697;0,0601836
3460,6338;0,0599206
3461,5981;0,0596498
3462,5623;0,0593802
3463,5266;0,0591119
3464,4907;0,0588375
3465,4551;0,0585495
3466,4192;0,0582483
3467,3835;0,0579444
3468,3477;0,0576527
3469,3120;0,0573826
3470,2761;0,057132
3471,2405;0,05689
3472,2046;0,0566459
3473,1689;0,0563987
3474,1331;0,0561581
3475,0974;0,0559364
3476,0615;0,0557351
3477,0259;0,0555393
3477,9900;0,0553235
3478,9543;0,0550672
3479,9185;0,0547691
3480,8828;0,0544516
3481,8469;0,0541468
3482,8113;0,0538747
3483,7754;0,0536291
3484,7397;0,0533839
3485,7039;0,0531129
3486,6682;0,0528102
3487,6323;0,0524966
3488,5967;0,0522082
3489,5608;0,0519727
3490,5251;0,0517901
3491,4893;0,0516336
3492,4536;0,0514661
3493,4177;0,0512637
3494,3821;0,0510305
3495,3462;0,0507954
3496,3105;0,0505901
3497,2747;0,0504216
3498,2390;0,0502613
3499,2031;0,0500581
3500,1675;0,0497694
3501,1316;0,0493921
3502,0959;0,0489768
3503,0601;0,0486048
3504,0244;0,0483349
3504,9885;0,0481646
3505,9529;0,0480374
3506,9170;0,0478834
3507,8813;0,0476587
3508,8455;0,0473663
3509,8098;0,0470483
3510,7739;0,0467545
3511,7383;0,0465091
3512,7024;0,0463021
3513,6667;0,0461082
3514,6309;0,0459114
3515,5952;0,0457166
3516,5593;0,0455416
3517,5237;0,0453985
3518,4878;0,0452781
3519,4521;0,0451515
3520,4163;0,0449852
3521,3806;0,0447608
3522,3447;0,0444838
3523,3091;0,0441769
3524,2732;0,0438615
3525,2375;0,0435433
3526,2017;0,043217
3527,1660;0,0428845
3528,1301;0,0425682
3529,0945;0,0423032
3530,0586;0,0421126
3531,0229;0,0419864
3531,9871;0,0418833
3532,9514;0,0417509
3533,9155;0,0415516
3534,8799;0,0412832
3535,8440;0,0409824
3536,8083;0,0407079
3537,7725;0,0405084
3538,7368;0,0403972
3539,7009;0,0403475
3540,6653;0,0403053
3541,6294;0,0402059
3542,5938;0,0399936
3543,5579;0,0396472
3544,5222;0,039205
3545,4863;0,0387591
3546,4507;0,0384034
3547,4148;0,0381715
3548,3792;0,0380237
3549,3433;0,0378835
3550,3076;0,0376866
3551,2717;0,0374155
3552,2361;0,037109
3553,2002;0,0368347
3554,1646;0,0366393
3555,1287;0,036517
3556,0930;0,0364219
3557,0571;0,0363065
3558,0215;0,0361563
3558,9856;0,0360026
3559,9500;0,0359008
3560,9141;0,0358843
3561,8784;0,0359245
3562,8425;0,0359245
3563,8069;0,035744
3564,7710;0,0352617
3565,7354;0,0344834
3566,6995;0,0336241
3567,6638;0,032987
3568,6279;0,0327084
3569,5923;0,0326984
3570,5564;0,0327853
3571,5208;0,0328349
3572,4849;0,0327843
3573,4492;0,0326331
3574,4133;0,0324208
3575,3777;0,0321923
3576,3418;0,0319723
3577,3062;0,031764
3578,2703;0,0315727
3579,2346;0,0314247
3580,1987;0,0313585
3581,1631;0,0313912
3582,1272;0,0314894
3583,0916;0,0315644
3584,0557;0,0314945
3585,0200;0,0311739
3585,9841;0,030601
3586,9485;0,0299508
3587,9126;0,0294872
3588,8770;0,0293406
3589,8411;0,0294314
3590,8054;0,029586
3591,7695;0,0296537
3592,7339;0,029555
3593,6980;0,0292983
3594,6624;0,0289681
3595,6265;0,0286636
3596,5908;0,0284252
3597,5549;0,0282212
3598,5193;0,0280016
3599,4834;0,0277594
3600,4478;0,0275457
3601,4119;0,027426
3602,3762;0,0274181
3603,3403;0,027472
3604,3047;0,0274963
3605,2688;0,0274017
3606,2332;0,0271428
3607,1973;0,0267481
3608,1616;0,0263082
3609,1257;0,0259146
3610,0901;0,0256044
3611,0542;0,0253681
3612,0186;0,0251915
3612,9827;0,0250766
3613,9470;0,0250231
3614,9111;0,0249967
3615,8755;0,0249211
3616,8396;0,0247103
3617,8040;0,0243344
3618,7681;0,0238834
3619,7324;0,0235461
3620,6965;0,0234763
3621,6609;0,0236873
3622,6250;0,0240812
3623,5894;0,0245244
3624,5535;0,0248775
3625,5178;0,0249852
3626,4819;0,0246866
3627,4463;0,0239227
3628,4104;0,0229119
3629,3748;0,0220731
3630,3389;0,0216293
3631,3032;0,0214822
3632,2673;0,0214345
3633,2317;0,0213556
3634,1958;0,0212055
3635,1602;0,0210062
3636,1243;0,0208001
3637,0886;0,0206157
3638,0527;0,0204574
3639,0171;0,0203238
3639,9812;0,02023
3640,9456;0,0202125
3641,9097;0,0203079
3642,8740;0,0205233
3643,8381;0,0208165
3644,8025;0,0210853
3645,7666;0,0211548
3646,7310;0,0207894
3647,6951;0,0198495
3648,6594;0,0186226
3649,6235;0,0177449
3650,5879;0,0174956
3651,5520;0,0176498
3652,5164;0,0178922
3653,4805;0,018016
3654,4448;0,0179284
3655,4089;0,0176486
3656,3733;0,0173002
3657,3374;0,0170336
3658,3018;0,0169159
3659,2659;0,0169075
3660,2302;0,0169345
3661,1943;0,0169629
3662,1587;0,017018
3663,1228;0,0171514
3664,0872;0,0173842
3665,0513;0,0176721
3666,0156;0,0179134
3666,9797;0,0179913
3667,9441;0,0178485
3668,9082;0,0175727
3669,8726;0,017371
3670,8367;0,0173751
3671,8010;0,0175072
3672,7651;0,0175548
3673,7295;0,0173154
3674,6936;0,0167432
3675,6580;0,0160522
3676,6221;0,0155681
3677,5864;0,0154201
3678,5505;0,0155095
3679,5149;0,015698
3680,4790;0,0159175
3681,4434;0,0161681
3682,4075;0,0164753
3683,3718;0,0168458
3684,3359;0,0172406
3685,3003;0,0175704
3686,2644;0,0177096
3687,2288;0,0175421
3688,1929;0,017065
3689,1572;0,0164807
3690,1213;0,0160743
3691,0857;0,0159582
3692,0498;0,0160526
3693,0142;0,016242
3693,9783;0,016461
3694,9426;0,0166888
3695,9067;0,016916
3696,8711;0,0171182
3697,8352;0,0172483
3698,7996;0,017254
3699,7637;0,0171156
3700,7280;0,0168866
3701,6921;0,016694
3702,6565;0,0166669
3703,6206;0,016853
3704,5850;0,0172036
3705,5491;0,0176187
3706,5134;0,0179816
3707,4775;0,0181627
3708,4419;0,0180239
3709,4060;0,0174818
3710,3704;0,0166445
3711,3345;0,0158466
3712,2988;0,0153991
3713,2629;0,0153556
3714,2273;0,0155875
3715,1914;0,0159468
3716,1558;0,0163296
3717,1199;0,0166747
3718,0842;0,0169537
3719,0483;0,0171648
3720,0127;0,0173223
3720,9768;0,0174394
3721,9412;0,017514
3722,9053;0,0175375
3723,8696;0,0175206
3724,8337;0,0175091
3725,7981;0,0175651
3726,7622;0,0177277
3727,7266;0,0179904
3728,6907;0,0183103
3729,6550;0,0186226
3730,6191;0,0188438
3731,5835;0,0188681
3732,5476;0,0185824
3733,5120;0,0179454
3734,4761;0,0171148
3735,4404;0,0164291
3736,4045;0,0161448
3737,3689;0,0162648
3738,3330;0,0166409
3739,2974;0,0171084
3740,2615;0,0175223
3741,2258;0,017747
3742,1899;0,0176756
3743,1543;0,0173207
3744,1184;0,0168982
3745,0828;0,0166931
3746,0469;0,0167824
3747,0112;0,0169914
3747,9753;0,0170512
3748,9397;0,0167441
3749,9038;0,0160652
3750,8682;0,0153389
3751,8323;0,0149669
3752,7966;0,0150283
3753,7607;0,0153258
3754,7251;0,0156377
3755,6892;0,0158185
3756,6536;0,0158062
3757,6177;0,0156333
3758,5820;0,0154213
3759,5461;0,0153056
3760,5105;0,0153396
3761,4746;0,015483
3762,4390;0,0156612
3763,4031;0,0158148
3764,3674;0,0159134
3765,3315;0,0159465
3766,2959;0,0159073
3767,2600;0,0157835
3768,2244;0,0155718
3769,1885;0,0153077
3770,1528;0,0150746
3771,1169;0,0149651
3772,0813;0,015023
3773,0454;0,0152216
3774,0098;0,0154852
3774,9739;0,0157221
3775,9382;0,0158513
3776,9023;0,0158305
3777,8667;0,015686
3778,8308;0,0155072
3779,7952;0,0153861
3780,7593;0,0153517
3781,7236;0,0153686
3782,6877;0,0153821
3783,6521;0,0153569
3784,6162;0,015292
3785,5806;0,0152131
3786,5447;0,0151546
3787,5090;0,0151444
3788,4731;0,0151966
3789,4375;0,0153112
3790,4016;0,0154744
3791,3660;0,0156604
3792,3301;0,0158403
3793,2944;0,0159975
3794,2585;0,0161407
3795,2229;0,0162983
3796,1870;0,0164885
3797,1514;0,0166831
3798,1155;0,0168022
3799,0798;0,0167561
3800,0439;0,0165242
3801,0083;0,0162083
3801,9724;0,0159633
3802,9368;0,0158516
3803,9009;0,0157996
3804,8652;0,0156867
3805,8293;0,0154558
3806,7937;0,015179
3807,7578;0,0150205
3808,7222;0,0151028
3809,6863;0,0154168
3810,6506;0,0158579
3811,6147;0,016301
3812,5791;0,016641
3813,5432;0,0168199
3814,5076;0,0168575
3815,4717;0,0168426
3816,4360;0,0168469
3817,4001;0,0168413
3818,3645;0,0167203
3819,3286;0,0164099
3820,2930;0,0159693
3821,2571;0,0155772
3822,2214;0,0153794
3823,1855;0,0153795
3824,1499;0,01549
3825,1140;0,0156275
3826,0784;0,0157525
3827,0425;0,0158657
3828,0068;0,0159867
3828,9709;0,0161326
3829,9353;0,0163074
3830,8994;0,0165056
3831,8638;0,0167186
3832,8279;0,0169319
3833,7922;0,0171135
3834,7563;0,0172068
3835,7207;0,0171436
3836,6848;0,0168859
3837,6492;0,0164752
3838,6133;0,016031
3839,5776;0,0156709
3840,5417;0,0154364
3841,5061;0,0153073
3842,4702;0,0152593
3843,4346;0,0152986
3844,3987;0,0154551
3845,3630;0,0157557
3846,3271;0,0162029
3847,2915;0,0167691
3848,2556;0,0173935
3849,2200;0,0179651
3850,1841;0,0182919
3851,1484;0,0181055
3852,1125;0,0172503
3853,0769;0,0160573
3854,0410;0,0152046
3855,0054;0,014968
3855,9695;0,0151559
3856,9338;0,015529
3857,8979;0,0159449
3858,8623;0,0163182
3859,8264;0,0165804
3860,7908;0,0166806
3861,7549;0,0166203
3862,7192;0,0164838
3863,6833;0,0164025
3864,6477;0,0164576
3865,6118;0,0166243
3866,5762;0,0168049
3867,5403;0,0168885
3868,5046;0,0167972
3869,4688;0,0165234
3870,4331;0,0161472
3871,3972;0,0158028
3872,3616;0,0156042
3873,3257;0,0155931
3874,2900;0,0157429
3875,2542;0,0159887
3876,2185;0,0162534
3877,1826;0,016465
3878,1470;0,0165752
3879,1111;0,0165791
3880,0754;0,0165165
3881,0396;0,016438
3882,0039;0,0163597
3882,9680;0,0162634
3883,9324;0,0161428
3884,8965;0,016039
3885,8608;0,0160154
3886,8250;0,0160943
3887,7893;0,0162222
3888,7534;0,0162975
3889,7178;0,0162333
3890,6819;0,0160316
3891,6462;0,0158163
3892,6104;0,0157539
3893,5747;0,0159192
3894,5388;0,0162621
3895,5032;0,0166739
3896,4673;0,0170475
3897,4316;0,0173012
3898,3958;0,0173918
3899,3601;0,0173171
3900,3242;0,0170994
3901,2886;0,0167638
3902,2527;0,016347
3903,2170;0,0159238
3904,1812;0,0155919
3905,1455;0,0154133
3906,1096;0,0153805
3907,0740;0,0154426
3908,0381;0,015547
3909,0024;0,015664
3909,9666;0,0157889
3910,9309;0,0159308
3911,8950;0,0160925
3912,8594;0,0162548
3913,8235;0,0163752
3914,7878;0,0164074
3915,7520;0,0163356
3916,7163;0,0162005
3917,6804;0,0160844
3918,6448;0,0160528
3919,6089;0,016107
3920,5732;0,0161915
3921,5374;0,0162365
3922,5017;0,0162027
3923,4658;0,016107
3924,4302;0,0160158
3925,3943;0,0159967
3926,3586;0,0160679
3927,3228;0,0161877
3928,2871;0,0162827
3929,2512;0,0162872
3930,2156;0,0161793
3931,1797;0,0159995
3932,1440;0,0158291
3933,1082;0,0157368
3934,0725;0,0157427
3935,0366;0,0158255
3936,0010;0,0159487
3936,9651;0,0160775
3937,9294;0,0161829
3938,8936;0,0162424
3939,8579;0,0162454
3940,8220;0,0162024
3941,7864;0,0161471
3942,7505;0,0161212
3943,7148;0,0161462
3944,6790;0,0162077
3945,6433;0,0162637
3946,6074;0,0162695
3947,5718;0,0162037
3948,5359;0,0160835
3949,5002;0,0159567
3950,4644;0,0158717
3951,4287;0,0158491
3952,3928;0,0158778
3953,3572;0,0159305
3954,3213;0,0159819
3955,2856;0,0160188
3956,2498;0,0160396
3957,2141;0,0160485
3958,1782;0,016049
3959,1426;0,0160422
3960,1067;0,0160295
3961,0710;0,0160152
3962,0352;0,0160062
3962,9995;0,0160086
3963,9636;0,0160242
3964,9280;0,0160496
3965,8921;0,0160787
3966,8564;0,0161051
3967,8206;0,0161246
3968,7849;0,016135
3969,7490;0,0161363
3970,7134;0,0161291
3971,6775;0,016115
3972,6418;0,0160962
3973,6060;0,0160764
3974,5703;0,01606
3975,5344;0,016051
3976,4988;0,0160515
3977,4629;0,0160607
3978,4272;0,0160757
3979,3914;0,0160929
3980,3557;0,0161092
3981,3198;0,0161228
3982,2842;0,0161344
3983,2483;0,0161454
3984,2126;0,016157
3985,1768;0,0161696
3986,1411;0,0161819
3987,1052;0,0161916
3988,0696;0,0161966
3989,0337;0,0161951
3989,9980;0,0161865
3990,9622;0,0161715
3991,9265;0,0161525
3992,8906;0,0161337
3993,8550;0,0161208
3994,8191;0,0161191
3995,7834;0,0161301
3996,7476;0,0161499
3997,7119;0,0161705
3998,6760;0,0161833
3999,6404;0,0161847
4000,6045;0,0160835

##### Extended Information
[Comments]
Sample name
Comment
Username
Division
Organization;UNIVERSIDAD INDUSTRIAL DE SANTANDER

[Detailed Information]
Creation date;10/03/2025 7:46 p.m.

Data array type;Linear data array
Horizontal axis;Wavenumber [cm-1]
Vertical axis;Abs
Start;399,193 cm-1
End;4000,6 cm-1
Data interval;0,964233 cm-1
Data points;3736    

[Measurement Information]
Model name;FT/IR-4X1typeA
Serial No.;A035162111

Accessory;ATR PRO 4X
Accessory S/N;A021162126
Incident angle;45 deg

Measurement date;10/03/2025 7:46 p.m.

Light source;Standard
Detector;TGS
Accumulation;40
Resolution;4 cm-1
Zero filling;On
Apodization;Cosine
Gain;Auto (8)
Aperture;Auto (7 mm)
Scan speed;Auto (2 mm/sec)
Filter;Auto (12800 Hz)

