TITLE;
DATA TYPE;INFRARED SPECTRUM
ORIGIN;JASCO
OWNER;
DATE;25/03/10
TIME;16:54:11
SPECTROMETER/DATA SYSTEM;
LOCALE;9226
RESOLUTION;
DELTAX;0,964233
XUNITS;1/CM
YUNITS;ABSORBANCE
FIRSTX;  399,1927
LASTX; 4000,6047
NPOINTS;    3736
FIRSTY;     0,19267
MAXY;     0,22818
MINY;     0,00290
XYDATA
399,1927;0,192672
400,1569;0,189434
401,1211;0,185848
402,0854;0,182807
403,0496;0,180709
404,0138;0,179666
404,9781;0,179597
405,9423;0,180243
406,9065;0,181198
407,8708;0,18203
408,8350;0,182425
409,7992;0,182286
410,7635;0,181762
411,7277;0,1812
412,6919;0,180992
413,6562;0,181409
414,6204;0,182534
415,5846;0,184293
416,5489;0,186461
417,5131;0,188584
418,4773;0,190007
419,4416;0,190336
420,4058;0,189903
421,3700;0,189354
422,3343;0,189016
423,2985;0,188852
424,2627;0,188695
425,2270;0,18844
426,1912;0,18812
427,1554;0,18787
428,1197;0,18783
429,0839;0,188056
430,0481;0,188505
431,0124;0,189063
431,9766;0,189598
432,9408;0,189988
433,9051;0,19014
434,8693;0,190002
435,8335;0,18959
436,7978;0,188993
437,7620;0,18835
438,7262;0,187787
439,6905;0,187362
440,6547;0,187068
441,6189;0,186855
442,5832;0,186678
443,5474;0,186507
444,5116;0,18632
445,4759;0,186087
446,4401;0,185772
447,4043;0,18536
448,3686;0,184881
449,3328;0,184408
450,2970;0,184039
451,2613;0,183855
452,2255;0,183896
453,1897;0,184155
454,1540;0,18459
455,1182;0,185112
456,0824;0,185569
457,0467;0,185739
458,0109;0,185423
458,9751;0,1846
459,9394;0,183482
460,9036;0,182389
461,8678;0,181583
462,8321;0,181191
463,7963;0,181196
464,7605;0,181457
465,7248;0,181763
466,6890;0,181918
467,6532;0,181831
468,6175;0,181548
469,5817;0,181216
470,5459;0,181013
471,5102;0,181063
472,4744;0,181357
473,4386;0,181727
474,4029;0,181941
475,3671;0,181821
476,3313;0,181326
477,2956;0,180549
478,2598;0,179685
479,2240;0,178969
480,1883;0,178591
481,1525;0,17862
482,1167;0,178977
483,0810;0,179481
484,0452;0,179942
485,0094;0,180265
485,9737;0,180478
486,9379;0,180667
487,9021;0,180885
488,8664;0,181107
489,8306;0,181248
490,7948;0,181232
491,7591;0,181057
492,7233;0,18081
493,6875;0,180617
494,6518;0,180566
495,6160;0,180674
496,5802;0,180902
497,5445;0,181201
498,5087;0,181537
499,4729;0,181899
500,4372;0,182284
501,4014;0,182687
502,3656;0,183103
503,3299;0,183525
504,2941;0,183932
505,2583;0,184281
506,2226;0,184503
507,1868;0,184545
508,1510;0,18442
509,1153;0,184238
510,0795;0,184179
511,0437;0,184412
512,0080;0,185019
512,9722;0,185978
513,9365;0,187177
514,9007;0,188459
515,8649;0,189641
516,8292;0,190537
517,7934;0,19099
518,7576;0,190939
519,7219;0,190466
520,6861;0,189767
521,6503;0,189065
522,6146;0,188526
523,5788;0,188219
524,5430;0,188109
525,5073;0,188089
526,4715;0,188036
527,4357;0,187882
528,4000;0,18763
529,3642;0,187316
530,3284;0,186971
531,2927;0,186599
532,2569;0,186194
533,2211;0,185767
534,1854;0,185347
535,1496;0,184967
536,1138;0,184642
537,0781;0,184362
538,0423;0,184107
539,0065;0,183871
539,9708;0,183664
540,9350;0,183503
541,8992;0,183398
542,8635;0,183341
543,8277;0,183323
544,7919;0,183343
545,7562;0,183419
546,7204;0,183567
547,6846;0,183777
548,6489;0,184008
549,6131;0,184207
550,5773;0,184345
551,5416;0,18444
552,5058;0,184546
553,4700;0,184715
554,4343;0,184955
555,3985;0,185221
556,3627;0,185434
557,3270;0,185524
558,2912;0,185462
559,2554;0,185254
560,2197;0,184915
561,1839;0,18445
562,1481;0,183857
563,1124;0,183149
564,0766;0,182378
565,0408;0,181623
566,0051;0,180966
566,9693;0,180453
567,9335;0,180081
568,8978;0,179814
569,8620;0,179606
570,8262;0,179431
571,7905;0,17928
572,7547;0,179141
573,7189;0,178985
574,6832;0,178768
575,6474;0,178463
576,6116;0,178076
577,5759;0,177655
578,5401;0,177258
579,5043;0,176913
580,4686;0,176609
581,4328;0,176299
582,3970;0,175945
583,3613;0,175545
584,3255;0,175143
585,2897;0,174811
586,2540;0,174611
587,2182;0,174568
588,1824;0,174661
589,1467;0,174833
590,1109;0,175005
591,0751;0,175101
592,0394;0,175068
593,0036;0,174898
593,9678;0,174625
594,9321;0,174305
595,8963;0,173986
596,8605;0,173691
597,8248;0,173412
598,7890;0,173128
599,7532;0,172827
600,7175;0,17251
601,6817;0,172185
602,6459;0,171853
603,6102;0,171495
604,5744;0,171083
605,5386;0,170601
606,5029;0,170051
607,4671;0,169456
608,4313;0,168843
609,3956;0,168226
610,3598;0,16762
611,3240;0,167047
612,2883;0,166547
613,2525;0,16616
614,2167;0,165888
615,1810;0,165657
616,1452;0,165322
617,1094;0,164719
618,0737;0,163759
619,0379;0,162479
620,0021;0,161035
620,9664;0,15961
621,9306;0,158346
622,8948;0,157295
623,8591;0,156437
624,8233;0,155659
625,7875;0,154982
626,7518;0,154363
627,7160;0,153789
628,6802;0,153256
629,6445;0,152766
630,6087;0,152307
631,5729;0,151863
632,5372;0,151415
633,5014;0,150951
634,4656;0,150473
635,4299;0,150001
636,3941;0,14956
637,3583;0,149167
638,3226;0,148824
639,2868;0,148512
640,2510;0,148211
641,2153;0,147908
642,1795;0,147616
643,1437;0,14736
644,1080;0,147162
645,0722;0,147017
646,0364;0,146886
647,0007;0,146716
647,9649;0,146463
648,9291;0,146123
649,8934;0,145737
650,8576;0,145372
651,8218;0,145091
652,7861;0,14494
653,7503;0,144936
654,7145;0,145065
655,6788;0,145284
656,6430;0,14552
657,6072;0,145704
658,5715;0,145787
659,5357;0,145752
660,4999;0,14559
661,4642;0,145267
662,4284;0,144698
663,3926;0,143763
664,3569;0,142416
665,3211;0,14085
666,2853;0,139594
667,2496;0,139238
668,2138;0,139683
669,1780;0,140104
670,1423;0,140104
671,1065;0,139784
672,0707;0,139121
673,0350;0,138034
673,9992;0,136594
674,9634;0,135006
675,9277;0,133468
676,8919;0,132057
677,8561;0,130737
678,8204;0,129449
679,7846;0,12819
680,7488;0,127005
681,7131;0,125945
682,6773;0,125021
683,6415;0,124208
684,6058;0,123481
685,5700;0,12284
686,5342;0,122295
687,4985;0,121839
688,4627;0,121432
689,4269;0,121003
690,3912;0,120507
691,3554;0,119947
692,3196;0,119374
693,2839;0,118844
694,2481;0,118389
695,2123;0,117994
696,1766;0,117617
697,1408;0,117213
698,1050;0,116765
699,0693;0,11629
700,0335;0,115824
700,9977;0,115395
701,9620;0,115003
702,9262;0,114616
703,8904;0,114172
704,8547;0,113643
705,8189;0,113032
706,7831;0,112373
707,7474;0,111715
708,7116;0,111092
709,6758;0,110509
710,6401;0,109944
711,6043;0,109363
712,5685;0,108743
713,5328;0,108093
714,4970;0,107453
715,4612;0,105953
716,4255;0,105672
717,3897;0,105545
718,3539;0,10544
719,3182;0,105165
720,2824;0,104561
721,2466;0,103596
722,2109;0,102378
723,1751;0,101095
724,1393;0,0999129
725,1036;0,098913
726,0678;0,0980914
727,0320;0,0973941
727,9963;0,0967611
728,9605;0,0961544
729,9247;0,0955597
730,8890;0,0949732
731,8532;0,094391
732,8174;0,0938086
733,7817;0,0932294
734,7459;0,0926699
735,7101;0,092156
736,6744;0,0917098
737,6386;0,091336
738,6028;0,0910161
739,5671;0,0907133
740,5313;0,0903883
741,4955;0,0900149
742,4598;0,0895905
743,4240;0,0891333
744,3882;0,0886702
745,3525;0,0882215
746,3167;0,0877913
747,2809;0,0873686
748,2452;0,0869353
749,2094;0,0864768
750,1736;0,0859884
751,1379;0,0854764
752,1021;0,0849554
753,0663;0,0844445
754,0306;0,0839624
754,9948;0,0835221
755,9590;0,0831255
756,9233;0,0827608
757,8875;0,0824054
758,8517;0,0820345
759,8160;0,0816326
760,7802;0,0812007
761,7444;0,0807546
762,7087;0,0803158
763,6729;0,0798995
764,6371;0,0795079
765,6014;0,0791318
766,5656;0,0787582
767,5298;0,0783788
768,4941;0,0779925
769,4583;0,0776038
770,4225;0,0772175
771,3868;0,0768365
772,3510;0,0764617
773,3152;0,0760944
774,2795;0,0757378
775,2437;0,0753953
776,2079;0,0750693
777,1722;0,0747598
778,1364;0,0744642
779,1006;0,0741778
780,0649;0,0738915
781,0291;0,0735915
781,9933;0,0732615
782,9576;0,0728896
783,9218;0,0724776
784,8860;0,0720455
785,8503;0,0716254
786,8145;0,0712471
787,7787;0,0709234
788,7430;0,0706448
789,7072;0,0703883
790,6714;0,0701352
791,6357;0,0698845
792,5999;0,0696537
793,5641;0,069465
794,5284;0,0693278
795,4926;0,0692297
796,4568;0,0691417
797,4211;0,0690334
798,3853;0,0688872
799,3495;0,0687026
800,3138;0,0684903
801,2780;0,0682633
802,2422;0,0680318
803,2065;0,0678037
804,1707;0,0675864
805,1349;0,067386
806,0992;0,0672031
807,0634;0,0670299
808,0276;0,0668535
808,9919;0,0666639
809,9561;0,0664608
810,9203;0,066254
811,8846;0,0660561
812,8488;0,0658724
813,8130;0,065698
814,7773;0,065522
815,7415;0,065337
816,7057;0,0651456
817,6700;0,0649584
818,6342;0,0647866
819,5984;0,0646346
820,5627;0,0644989
821,5269;0,0643733
822,4911;0,0642557
823,4554;0,0641491
824,4196;0,0640577
825,3839;0,0639808
826,3481;0,0639104
827,3123;0,0638357
828,2766;0,0637493
829,2408;0,0636505
830,2050;0,0635433
831,1693;0,0634288
832,1335;0,0633006
833,0977;0,0631457
834,0620;0,0629522
835,0262;0,0627171
835,9904;0,0624502
836,9547;0,0621697
837,9189;0,0618932
838,8831;0,06163
839,8474;0,0613805
840,8116;0,0611412
841,7758;0,0609131
842,7401;0,0607046
843,7043;0,0605275
844,6685;0,0603887
845,6328;0,0602824
846,5970;0,060191
847,5612;0,0600935
848,5255;0,059977
849,4897;0,0598442
850,4539;0,0597112
851,4182;0,0595983
852,3824;0,0595192
853,3466;0,0594756
854,3109;0,0594589
855,2751;0,0594564
856,2393;0,0594573
857,2036;0,0594551
858,1678;0,0594474
859,1320;0,0594335
860,0963;0,0594131
861,0605;0,0593866
862,0247;0,0593557
862,9890;0,059325
863,9532;0,0593027
864,9174;0,0592998
865,8817;0,0593274
866,8459;0,0593928
867,8101;0,0594957
868,7744;0,0596276
869,7386;0,0597731
870,7028;0,0599145
871,6671;0,0600352
872,6313;0,0601219
873,5955;0,0601655
874,5598;0,0601631
875,5240;0,0601207
876,4882;0,0600551
877,4525;0,0599918
878,4167;0,0599581
879,3809;0,0599751
880,3452;0,0600528
881,3094;0,0601919
882,2736;0,0603911
883,2379;0,0606547
884,2021;0,0609946
885,1663;0,0614261
886,1306;0,0619587
887,0948;0,0625894
888,0590;0,0633017
889,0233;0,0640711
889,9875;0,0648722
890,9517;0,0656828
891,9160;0,0664832
892,8802;0,0672513
893,8444;0,0679591
894,8087;0,0685729
895,7729;0,0690587
896,7371;0,0693888
897,7014;0,0695467
898,6656;0,0695289
899,6298;0,0693441
900,5941;0,0690113
901,5583;0,0685601
902,5225;0,0680283
903,4868;0,0674583
904,4510;0,0668899
905,4152;0,0663537
906,3795;0,0658683
907,3437;0,065442
908,3079;0,065079
909,2722;0,0647838
910,2364;0,0645626
911,2007;0,0644203
912,1649;0,0643562
913,1292;0,0643627
914,0934;0,0644272
915,0576;0,0645365
916,0219;0,0646805
916,9861;0,0648536
917,9503;0,0650527
918,9146;0,0652751
919,8788;0,0655166
920,8430;0,0657708
921,8073;0,0660294
922,7715;0,0662836
923,7357;0,0665249
924,7000;0,0667478
925,6642;0,0669514
926,6284;0,0671403
927,5927;0,0673221
928,5569;0,0675044
929,5211;0,0676901
930,4854;0,0678757
931,4496;0,0680533
932,4138;0,0682158
933,3781;0,0683623
934,3423;0,0684996
935,3065;0,0686413
936,2708;0,0688023
937,2350;0,0689964
938,1992;0,0692351
939,1635;0,0695307
940,1277;0,069897
941,0919;0,0703464
942,0562;0,070884
943,0204;0,0715024
943,9846;0,0721822
944,9489;0,0729013
945,9131;0,0736478
946,8773;0,0744282
947,8416;0,0752664
948,8058;0,0761924
949,7700;0,0772283
950,7343;0,0783791
951,6985;0,0796349
952,6627;0,0809797
953,6270;0,0824002
954,5912;0,0838889
955,5554;0,0854403
956,5197;0,0870451
957,4839;0,0886898
958,4481;0,0903604
959,4124;0,0920487
960,3766;0,0937533
961,3408;0,0954764
962,3051;0,0972163
963,2693;0,0989648
964,2335;0,10071
965,1978;0,102447
966,1620;0,10418
967,1262;0,105931
968,0905;0,107726
969,0547;0,109592
970,0189;0,111552
970,9832;0,113623
971,9474;0,115823
972,9116;0,118172
973,8759;0,120694
974,8401;0,123408
975,8043;0,126329
976,7686;0,129459
977,7328;0,132783
978,6970;0,136273
979,6613;0,139883
980,6255;0,143546
981,5897;0,147182
982,5540;0,1507
983,5182;0,154015
984,4824;0,157063
985,4467;0,159811
986,4109;0,162261
987,3751;0,16444
988,3394;0,166387
989,3036;0,168137
990,2678;0,169715
991,2321;0,171138
992,1963;0,17242
993,1605;0,173578
994,1248;0,174632
995,0890;0,175603
996,0532;0,176506
997,0175;0,177358
997,9817;0,178171
998,9459;0,178965
999,9102;0,179765
1000,8744;0,180602
1001,8386;0,181508
1002,8029;0,18251
1003,7671;0,183626
1004,7313;0,184873
1005,6956;0,186266
1006,6598;0,187828
1007,6240;0,189581
1008,5883;0,191546
1009,5525;0,193727
1010,5167;0,19611
1011,4810;0,198651
1012,4452;0,201287
1013,4094;0,203939
1014,3737;0,206525
1015,3379;0,208976
1016,3021;0,211239
1017,2664;0,213286
1018,2306;0,215114
1019,1948;0,216741
1020,1591;0,2182
1021,1233;0,219526
1022,0875;0,220754
1023,0518;0,221912
1024,0160;0,223013
1024,9802;0,224061
1025,9445;0,225047
1026,9087;0,225955
1027,8729;0,226761
1028,8372;0,227432
1029,8014;0,227925
1030,7656;0,228178
1031,7299;0,228119
1032,6941;0,227679
1033,6583;0,22681
1034,6226;0,225515
1035,5868;0,223859
1036,5510;0,221963
1037,5153;0,219982
1038,4795;0,218074
1039,4437;0,216367
1040,4080;0,214937
1041,3722;0,213805
1042,3364;0,212949
1043,3007;0,212313
1044,2649;0,211829
1045,2291;0,211424
1046,1934;0,21103
1047,1576;0,210582
1048,1218;0,210023
1049,0861;0,209303
1050,0503;0,208383
1051,0145;0,207237
1051,9788;0,205859
1052,9430;0,204261
1053,9072;0,202476
1054,8715;0,200538
1055,8357;0,198469
1056,7999;0,19626
1057,7642;0,193869
1058,7284;0,191234
1059,6926;0,188308
1060,6569;0,185092
1061,6211;0,181657
1062,5853;0,178131
1063,5496;0,174665
1064,5138;0,171393
1065,4780;0,168403
1066,4423;0,165725
1067,4065;0,163345
1068,3707;0,161225
1069,3350;0,159313
1070,2992;0,157554
1071,2634;0,155889
1072,2277;0,154254
1073,1919;0,152588
1074,1561;0,150846
1075,1204;0,149004
1076,0846;0,147062
1077,0488;0,145046
1078,0131;0,142994
1078,9773;0,140951
1079,9415;0,138965
1080,9058;0,137079
1081,8700;0,135325
1082,8342;0,133724
1083,7985;0,132281
1084,7627;0,130988
1085,7269;0,129834
1086,6912;0,128802
1087,6554;0,127883
1088,6196;0,127076
1089,5839;0,126388
1090,5481;0,125828
1091,5123;0,125404
1092,4766;0,125113
1093,4408;0,124939
1094,4050;0,124861
1095,3693;0,124858
1096,3335;0,124919
1097,2977;0,125044
1098,2620;0,125236
1099,2262;0,125488
1100,1904;0,125778
1101,1547;0,126065
1102,1189;0,126305
1103,0831;0,126454
1104,0474;0,126489
1105,0116;0,126401
1105,9758;0,126197
1106,9401;0,12589
1107,9043;0,125493
1108,8685;0,125011
1109,8328;0,12443
1110,7970;0,123718
1111,7612;0,122839
1112,7255;0,121769
1113,6897;0,120517
1114,6539;0,119139
1115,6182;0,117725
1116,5824;0,116369
1117,5466;0,115143
1118,5109;0,114071
1119,4751;0,113127
1120,4393;0,112247
1121,4036;0,11135
1122,3678;0,110357
1123,3320;0,109202
1124,2963;0,107841
1125,2605;0,106256
1126,2247;0,104455
1127,1890;0,102475
1128,1532;0,100369
1129,1174;0,0982007
1130,0817;0,0960265
1131,0459;0,0938912
1132,0101;0,0918258
1132,9744;0,089853
1133,9386;0,0879968
1134,9028;0,0862878
1135,8671;0,0847636
1136,8313;0,0834614
1137,7955;0,082408
1138,7598;0,0816116
1139,7240;0,0810604
1140,6882;0,0807278
1141,6525;0,080581
1142,6167;0,0805887
1143,5809;0,0807248
1144,5452;0,0809685
1145,5094;0,0813029
1146,4736;0,0817151
1147,4379;0,0821961
1148,4021;0,0827405
1149,3663;0,0833419
1150,3306;0,0839871
1151,2948;0,0846516
1152,2590;0,0853002
1153,2233;0,0858917
1154,1875;0,0863855
1155,1517;0,0867446
1156,1160;0,0869343
1157,0802;0,0869178
1158,0444;0,0866534
1159,0087;0,0860953
1159,9729;0,0851993
1160,9371;0,0839309
1161,9014;0,0822738
1162,8656;0,0802375
1163,8298;0,0778624
1164,7941;0,0752209
1165,7583;0,0724118
1166,7225;0,0695482
1167,6868;0,0667404
1168,6510;0,0640789
1169,6152;0,0616236
1170,5795;0,0594018
1171,5437;0,0574153
1172,5079;0,0556516
1173,4722;0,0540936
1174,4364;0,0527247
1175,4006;0,0515298
1176,3649;0,0504935
1177,3291;0,0495993
1178,2933;0,0488305
1179,2576;0,0481728
1180,2218;0,0476156
1181,1860;0,0471521
1182,1503;0,0467777
1183,1145;0,0464874
1184,0787;0,0462744
1185,0430;0,0461312
1186,0072;0,0460517
1186,9714;0,0460342
1187,9357;0,046082
1188,8999;0,0462025
1189,8641;0,0464051
1190,8284;0,0466982
1191,7926;0,0470871
1192,7568;0,0475727
1193,7211;0,0481499
1194,6853;0,0488076
1195,6495;0,0495296
1196,6138;0,0502968
1197,5780;0,0510919
1198,5422;0,0519024
1199,5065;0,0522886
1200,4707;0,0531671
1201,4349;0,0540533
1202,3992;0,0549396
1203,3634;0,0558158
1204,3276;0,0566727
1205,2919;0,0575069
1206,2561;0,0583234
1207,2203;0,0591355
1208,1846;0,0599611
1209,1488;0,0608187
1210,1130;0,0617237
1211,0773;0,062688
1212,0415;0,0637193
1213,0057;0,0648207
1213,9700;0,0659879
1214,9342;0,0672072
1215,8984;0,0684563
1216,8627;0,0697047
1217,8269;0,0709213
1218,7911;0,0720872
1219,7554;0,0731971
1220,7196;0,074256
1221,6838;0,0752709
1222,6481;0,0762431
1223,6123;0,077166
1224,5765;0,0780294
1225,5408;0,078827
1226,5050;0,0795615
1227,4692;0,0802422
1228,4335;0,080879
1229,3977;0,081475
1230,3619;0,0820242
1231,3262;0,0825147
1232,2904;0,0829361
1233,2546;0,0832849
1234,2189;0,0835664
1235,1831;0,0837923
1236,1473;0,0839756
1237,1116;0,0841267
1238,0758;0,0842509
1239,0400;0,0843481
1240,0043;0,084413
1240,9685;0,0844356
1241,9327;0,084404
1242,8970;0,0843064
1243,8612;0,0841341
1244,8254;0,083884
1245,7897;0,0835599
1246,7539;0,083173
1247,7181;0,0827388
1248,6824;0,0822741
1249,6466;0,0817916
1250,6108;0,0812981
1251,5751;0,0807952
1252,5393;0,0802833
1253,5035;0,079766
1254,4678;0,0792491
1255,4320;0,0787363
1256,3962;0,078222
1257,3605;0,0776888
1258,3247;0,0771129
1259,2889;0,0764747
1260,2532;0,0757682
1261,2174;0,0750039
1262,1816;0,0742009
1263,1459;0,0733768
1264,1101;0,0725415
1265,0743;0,0716973
1266,0386;0,070843
1267,0028;0,069975
1267,9670;0,0690864
1268,9313;0,0681655
1269,8955;0,0671993
1270,8597;0,0661809
1271,8240;0,0651177
1272,7882;0,0640345
1273,7524;0,0629672
1274,7167;0,0619512
1275,6809;0,0610107
1276,6451;0,0601521
1277,6094;0,0593638
1278,5736;0,0586224
1279,5378;0,0579019
1280,5021;0,0571851
1281,4663;0,0564705
1282,4305;0,0557708
1283,3948;0,0551055
1284,3590;0,0544904
1285,3232;0,0539313
1286,2875;0,0534231
1287,2517;0,0529554
1288,2159;0,0525186
1289,1802;0,0521101
1290,1444;0,0517348
1291,1086;0,0514028
1292,0729;0,0511261
1293,0371;0,0509159
1294,0013;0,0507802
1294,9656;0,0507219
1295,9298;0,0507383
1296,8940;0,0508225
1297,8583;0,0509669
1298,8225;0,0511667
1299,7867;0,0514212
1300,7510;0,0517322
1301,7152;0,0521067
1302,6794;0,052546
1303,6437;0,0530453
1304,6079;0,0535975
1305,5721;0,0541933
1306,5364;0,0548247
1307,5006;0,055488
1308,4648;0,0561842
1309,4291;0,0569138
1310,3933;0,0576704
1311,3575;0,058435
1312,3218;0,0591779
1313,2860;0,0598675
1314,2502;0,0604785
1315,2145;0,060991
1316,1787;0,0613817
1317,1429;0,0616166
1318,1072;0,0616591
1319,0714;0,0614947
1320,0356;0,0611542
1320,9999;0,0607112
1321,9641;0,0602527
1322,9283;0,059846
1323,8926;0,0595241
1324,8568;0,0592892
1325,8210;0,0591258
1326,7853;0,0590124
1327,7495;0,0589272
1328,7137;0,0588491
1329,6780;0,0587567
1330,6422;0,0586343
1331,6064;0,0584825
1332,5707;0,0583216
1333,5349;0,0581912
1334,4991;0,05813
1335,4634;0,058149
1336,4276;0,0582019
1337,3918;0,058165
1338,3561;0,0578647
1339,3203;0,0571879
1340,2845;0,0561972
1341,2488;0,0551075
1342,2130;0,0541356
1343,1772;0,0533927
1344,1415;0,0528891
1345,1057;0,0525858
1346,0699;0,0524325
1347,0342;0,0523841
1347,9984;0,0524121
1348,9626;0,0525103
1349,9269;0,0526888
1350,8911;0,052959
1351,8553;0,0533197
1352,8196;0,053754
1353,7838;0,0542379
1354,7480;0,0547556
1355,7123;0,0553101
1356,6765;0,0559211
1357,6407;0,0566112
1358,6050;0,0573952
1359,5692;0,0582669
1360,5334;0,059171
1361,4977;0,0599873
1362,4619;0,0605976
1363,4261;0,0610033
1364,3904;0,0613282
1365,3546;0,0616925
1366,3188;0,062128
1367,2831;0,0625955
1368,2473;0,0630367
1369,2115;0,0634111
1370,1758;0,0637078
1371,1400;0,0639316
1372,1042;0,064072
1373,0685;0,0640775
1374,0327;0,0638737
1374,9969;0,0634319
1375,9612;0,0628059
1376,9254;0,0620703
1377,8896;0,0612463
1378,8539;0,0603132
1379,8181;0,0592743
1380,7823;0,0581932
1381,7466;0,057165
1382,7108;0,0562492
1383,6750;0,0554321
1384,6393;0,0546439
1385,6035;0,0538013
1386,5677;0,0528642
1387,5320;0,0519035
1388,4962;0,0510877
1389,4604;0,0505368
1390,4247;0,0502289
1391,3889;0,0500737
1392,3531;0,0500237
1393,3174;0,0500877
1394,2816;0,0502528
1395,2458;0,0504199
1396,2101;0,0504453
1397,1743;0,0502551
1398,1385;0,0499109
1399,1028;0,0495706
1400,0670;0,0493853
1401,0313;0,0494161
1401,9955;0,0496228
1402,9597;0,0499116
1403,9240;0,0501958
1404,8882;0,0504409
1405,8524;0,0506822
1406,8167;0,0509917
1407,7809;0,0514115
1408,7451;0,0519252
1409,7094;0,0524966
1410,6736;0,053117
1411,6378;0,0538077
1412,6021;0,0545779
1413,5663;0,0553819
1414,5305;0,0561273
1415,4948;0,0567323
1416,4590;0,0571596
1417,4232;0,0573909
1418,3875;0,0574358
1419,3517;0,05744
1420,3159;0,0576336
1421,2802;0,058058
1422,2444;0,0585001
1423,2086;0,0587015
1424,1729;0,0585464
1425,1371;0,0580912
1426,1013;0,0574733
1427,0656;0,0568024
1428,0298;0,056117
1428,9940;0,0554121
1429,9583;0,0546912
1430,9225;0,0539744
1431,8867;0,0532453
1432,8510;0,0524164
1433,8152;0,0513833
1434,7794;0,0501104
1435,7437;0,0486882
1436,7079;0,0473771
1437,6721;0,046542
1438,6364;0,0463614
1439,6006;0,0466549
1440,5648;0,0470877
1441,5291;0,0474417
1442,4933;0,0476955
1443,4575;0,0479469
1444,4218;0,0482903
1445,3860;0,0487405
1446,3502;0,0492394
1447,3145;0,0497296
1448,2787;0,0502268
1449,2429;0,0508136
1450,2072;0,0515305
1451,1714;0,0522792
1452,1356;0,0528648
1453,0999;0,0531499
1454,0641;0,0531899
1455,0283;0,0531918
1455,9926;0,0531477
1456,9568;0,0526023
1457,9210;0,0516034
1458,8853;0,0510755
1459,8495;0,0513445
1460,8137;0,0518986
1461,7780;0,0521884
1462,7422;0,0519808
1463,7064;0,0512992
1464,6707;0,0503104
1465,6349;0,049278
1466,5991;0,0484228
1467,5634;0,0477212
1468,5276;0,0469557
1469,4918;0,0459496
1470,4561;0,0446783
1471,4203;0,0431495
1472,3845;0,0412372
1473,3488;0,0388921
1474,3130;0,0365167
1475,2772;0,0346365
1476,2415;0,0333828
1477,2057;0,0325737
1478,1699;0,0319946
1479,1342;0,0315117
1480,0984;0,031068
1481,0626;0,0306647
1482,0269;0,030348
1482,9911;0,0301847
1483,9553;0,0302271
1484,9196;0,0305035
1485,8838;0,0310338
1486,8480;0,0317971
1487,8123;0,0325942
1488,7765;0,0330178
1489,7407;0,0328782
1490,7050;0,0325469
1491,6692;0,0324796
1492,6334;0,0327592
1493,5977;0,033257
1494,5619;0,0339117
1495,5261;0,0347768
1496,4904;0,035874
1497,4546;0,0370988
1498,4188;0,0383755
1499,3831;0,0397321
1500,3473;0,0410744
1501,3115;0,0421158
1502,2758;0,0425963
1503,2400;0,0425371
1504,2042;0,0424053
1505,1685;0,0430063
1506,1327;0,0446138
1507,0969;0,0459107
1508,0612;0,0457848
1509,0254;0,0451485
1509,9896;0,0448098
1510,9539;0,0446692
1511,9181;0,0444757
1512,8823;0,0441755
1513,8466;0,0438481
1514,8108;0,0435421
1515,7750;0,0431843
1516,7393;0,0426379
1517,7035;0,04184
1518,6677;0,0408675
1519,6320;0,0398848
1520,5962;0,039045
1521,5604;0,0384316
1522,5247;0,0380479
1523,4889;0,0378104
1524,4531;0,0375817
1525,4174;0,0372757
1526,3816;0,0369332
1527,3458;0,0366724
1528,3101;0,0365616
1529,2743;0,0365717
1530,2385;0,0366563
1531,2028;0,0368413
1532,1670;0,0371951
1533,1312;0,0377098
1534,0955;0,0382566
1535,0597;0,0386497
1536,0239;0,0387396
1536,9882;0,0385651
1537,9524;0,0385294
1538,9166;0,0393062
1539,8809;0,040988
1540,8451;0,0421769
1541,8093;0,041765
1542,7736;0,0406293
1543,7378;0,0397022
1544,7020;0,0391146
1545,6663;0,0387759
1546,6305;0,0386423
1547,5947;0,0386703
1548,5590;0,0387694
1549,5232;0,0388416
1550,4874;0,0388478
1551,4517;0,0388228
1552,4159;0,0388076
1553,3801;0,0387544
1554,3444;0,0385228
1555,3086;0,0379943
1556,2728;0,0371536
1557,2371;0,0358826
1558,2013;0,0337589
1559,1655;0,0313266
1560,1298;0,0305085
1561,0940;0,0317347
1562,0582;0,0338289
1563,0225;0,0357105
1563,9867;0,0369148
1564,9509;0,0374328
1565,9152;0,0374858
1566,8794;0,0373509
1567,8436;0,0372327
1568,8079;0,0372228
1569,7721;0,0373662
1570,7363;0,037683
1571,7006;0,0380931
1572,6648;0,0384484
1573,6290;0,0386787
1574,5933;0,0388424
1575,5575;0,0390039
1576,5217;0,039176
1577,4860;0,0394781
1578,4502;0,0400579
1579,4144;0,0408311
1580,3787;0,0415736
1581,3429;0,0421587
1582,3071;0,0426206
1583,2714;0,043078
1584,2356;0,0436311
1585,1998;0,0443141
1586,1641;0,0451025
1587,1283;0,0459496
1588,0925;0,0468097
1589,0568;0,0476422
1590,0210;0,0484088
1590,9852;0,0490716
1591,9495;0,0495916
1592,9137;0,0499262
1593,8779;0,050039
1594,8422;0,049925
1595,8064;0,0496345
1596,7706;0,0492652
1597,7349;0,0489214
1598,6991;0,0486687
1599,6633;0,0485153
1600,6276;0,0484245
1601,5918;0,0483506
1602,5560;0,0482776
1603,5203;0,0482293
1604,4845;0,0482384
1605,4487;0,0483034
1606,4130;0,0483786
1607,3772;0,0484076
1608,3414;0,0483788
1609,3057;0,0483528
1610,2699;0,048413
1611,2341;0,048567
1612,1984;0,0487236
1613,1626;0,0487896
1614,1268;0,0487728
1615,0911;0,0487728
1616,0553;0,0488908
1617,0195;0,0492325
1617,9838;0,0499097
1618,9480;0,0508659
1619,9122;0,0518565
1620,8765;0,0526627
1621,8407;0,0532195
1622,8049;0,0535745
1623,7692;0,0538082
1624,7334;0,054004
1625,6976;0,0542262
1626,6619;0,0545063
1627,6261;0,054866
1628,5903;0,0553204
1629,5546;0,0558273
1630,5188;0,0562573
1631,4830;0,056467
1632,4473;0,0564451
1633,4115;0,0563883
1634,3757;0,0565331
1635,3400;0,0568011
1636,3042;0,0569254
1637,2684;0,057049
1638,2327;0,0574694
1639,1969;0,0581308
1640,1611;0,0587747
1641,1254;0,0591997
1642,0896;0,0593433
1643,0538;0,0592964
1644,0181;0,0592872
1644,9823;0,0595356
1645,9465;0,0599748
1646,9108;0,0602609
1647,8750;0,0601794
1648,8392;0,0596682
1649,8035;0,0586131
1650,7677;0,0569734
1651,7319;0,0548881
1652,6962;0,0525269
1653,6604;0,050404
1654,6246;0,0496567
1655,5889;0,0504844
1656,5531;0,0518706
1657,5173;0,0528648
1658,4816;0,0530898
1659,4458;0,0526047
1660,4100;0,0516562
1661,3743;0,0504936
1662,3385;0,0493327
1663,3027;0,0483845
1664,2670;0,0477551
1665,2312;0,0473604
1666,1954;0,0470327
1667,1597;0,0466523
1668,1239;0,0461434
1669,0881;0,045415
1670,0524;0,0444411
1671,0166;0,0433501
1671,9808;0,0422512
1672,9451;0,041102
1673,9093;0,0398673
1674,8735;0,0387157
1675,8378;0,0379971
1676,8020;0,0379626
1677,7662;0,0384892
1678,7305;0,0391316
1679,6947;0,0394201
1680,6589;0,0390956
1681,6232;0,0381401
1682,5874;0,0366411
1683,5516;0,0347629
1684,5159;0,0330704
1685,4801;0,0323053
1686,4443;0,0325029
1687,4086;0,033063
1688,3728;0,0334131
1689,3370;0,0333035
1690,3013;0,0327631
1691,2655;0,0319679
1692,2297;0,031141
1693,1940;0,0305068
1694,1582;0,0302427
1695,1224;0,0303738
1696,0867;0,030648
1697,0509;0,0305747
1698,0151;0,0297784
1698,9794;0,0284564
1699,9436;0,0273753
1700,9078;0,0272375
1701,8721;0,028113
1702,8363;0,0295181
1703,8005;0,0308509
1704,7648;0,0317167
1705,7290;0,0320462
1706,6932;0,0320626
1707,6575;0,032112
1708,6217;0,0324301
1709,5859;0,0330365
1710,5502;0,0338154
1711,5144;0,0346466
1712,4786;0,0354741
1713,4429;0,0362978
1714,4071;0,0370893
1715,3713;0,0376369
1716,3356;0,0375329
1717,2998;0,036712
1718,2640;0,0358913
1719,2283;0,0357955
1720,1925;0,0364197
1721,1567;0,037321
1722,1210;0,0381029
1723,0852;0,0385978
1724,0494;0,0388549
1725,0137;0,039057
1725,9779;0,0394045
1726,9421;0,0399993
1727,9064;0,0407856
1728,8706;0,0415776
1729,8348;0,0421464
1730,7991;0,0423001
1731,7633;0,0419171
1732,7275;0,0409924
1733,6918;0,0398106
1734,6560;0,0389522
1735,6202;0,0387674
1736,5845;0,0390312
1737,5487;0,0392668
1738,5129;0,0391545
1739,4772;0,0386633
1740,4414;0,0379793
1741,4056;0,0373447
1742,3699;0,0368947
1743,3341;0,0365952
1744,2983;0,0363118
1745,2626;0,0359134
1746,2268;0,0353015
1747,1910;0,0343552
1748,1553;0,0328907
1749,1195;0,030793
1750,0837;0,0282916
1751,0480;0,0259543
1752,0122;0,0242383
1752,9764;0,0231772
1753,9407;0,0225111
1754,9049;0,0219541
1755,8691;0,0213405
1756,8334;0,0206364
1757,7976;0,0198759
1758,7618;0,0190861
1759,7261;0,0182549
1760,6903;0,0173663
1761,6545;0,0164617
1762,6188;0,0156512
1763,5830;0,0150391
1764,5472;0,0146394
1765,5115;0,0143796
1766,4757;0,014174
1767,4399;0,013983
1768,4042;0,0138125
1769,3684;0,013663
1770,3326;0,0134682
1771,2969;0,0131037
1772,2611;0,0125341
1773,2253;0,0119447
1774,1896;0,01159
1775,1538;0,0115361
1776,1180;0,0116484
1777,0823;0,011756
1778,0465;0,0117649
1779,0107;0,0116592
1779,9750;0,0114519
1780,9392;0,011153
1781,9034;0,0107769
1782,8677;0,0103666
1783,8319;0,0100067
1784,7961;0,00979931
1785,7604;0,0098043
1786,7246;0,00999022
1787,6888;0,0102513
1788,6531;0,0104834
1789,6173;0,0106449
1790,5815;0,0107402
1791,5458;0,0107606
1792,5100;0,010711
1793,4742;0,0106837
1794,4385;0,0107703
1795,4027;0,0109287
1796,3669;0,0110316
1797,3312;0,0109925
1798,2954;0,0108125
1799,2596;0,0105415
1800,2239;0,0102293
1801,1881;0,00991631
1802,1523;0,00964568
1803,1166;0,0094564
1804,0808;0,00936776
1805,0450;0,00937891
1806,0093;0,00947648
1806,9735;0,00963526
1807,9377;0,00981095
1808,9020;0,00993741
1809,8662;0,00994657
1810,8304;0,00981087
1811,7947;0,00956747
1812,7589;0,00928783
1813,7231;0,00902673
1814,6874;0,008807
1815,6516;0,00863879
1816,6158;0,00853649
1817,5801;0,00851622
1818,5443;0,00858235
1819,5085;0,00871671
1820,4728;0,00888112
1821,4370;0,00903562
1822,4012;0,00915882
1823,3655;0,00925499
1824,3297;0,00934766
1825,2939;0,00946334
1826,2582;0,0096044
1827,2224;0,00972475
1828,1866;0,00973407
1829,1509;0,0095505
1830,1151;0,00919126
1831,0793;0,00880575
1832,0436;0,00856378
1833,0078;0,00851744
1833,9720;0,00859865
1834,9363;0,00871113
1835,9005;0,00879673
1836,8647;0,00884648
1837,8290;0,00887787
1838,7932;0,00890117
1839,7574;0,0089032
1840,7217;0,0088732
1841,6859;0,00883633
1842,6501;0,00883484
1843,6144;0,00887004
1844,5786;0,00890227
1845,5428;0,00891575
1846,5071;0,0089157
1847,4713;0,00887189
1848,4355;0,00873408
1849,3998;0,00849303
1850,3640;0,00820196
1851,3282;0,00794429
1852,2925;0,00778251
1853,2567;0,00773145
1854,2209;0,00776746
1855,1852;0,00785499
1856,1494;0,00796382
1857,1136;0,00807211
1858,0779;0,00815924
1859,0421;0,00820855
1860,0063;0,00822157
1860,9706;0,00822986
1861,9348;0,00828641
1862,8990;0,00843912
1863,8633;0,00870756
1864,8275;0,00907749
1865,7917;0,0094952
1866,7560;0,00984399
1867,7202;0,00994922
1868,6844;0,00969731
1869,6487;0,00918205
1870,6129;0,00864013
1871,5771;0,00823747
1872,5414;0,00798873
1873,5056;0,00783426
1874,4698;0,00772597
1875,4341;0,0076509
1876,3983;0,00761646
1877,3625;0,00762754
1878,3268;0,00767865
1879,2910;0,00775536
1880,2552;0,00784327
1881,2195;0,00793399
1882,1837;0,00802473
1883,1479;0,00811371
1884,1122;0,00819642
1885,0764;0,00826573
1886,0406;0,00831533
1887,0049;0,00834181
1887,9691;0,00834342
1888,9333;0,00832261
1889,8976;0,00829435
1890,8618;0,00828365
1891,8260;0,00830362
1892,7903;0,00833776
1893,7545;0,00834759
1894,7188;0,00829811
1895,6830;0,00818301
1896,6472;0,00803421
1897,6115;0,00790484
1898,5757;0,00783459
1899,5399;0,00782637
1900,5042;0,00785187
1901,4684;0,00787736
1902,4326;0,00789049
1903,3969;0,00790992
1904,3611;0,00796995
1905,3253;0,00809054
1906,2896;0,00825441
1907,2538;0,00840679
1908,2180;0,00848024
1909,1823;0,00843553
1910,1465;0,00829288
1911,1107;0,00812154
1912,0750;0,00799055
1913,0392;0,00792775
1914,0034;0,00792086
1914,9677;0,00794587
1915,9319;0,00799054
1916,8961;0,00806118
1917,8604;0,00817732
1918,8246;0,00835344
1919,7888;0,00857044
1920,7531;0,00876292
1921,7173;0,00884327
1922,6815;0,00875036
1923,6458;0,00849136
1924,6100;0,00814434
1925,5742;0,00781122
1926,5385;0,00755794
1927,5027;0,00739279
1928,4669;0,00729063
1929,4312;0,00722844
1930,3954;0,00720495
1931,3596;0,00723519
1932,3239;0,0073248
1933,2881;0,00745156
1934,2523;0,00757131
1935,2166;0,00764575
1936,1808;0,0076704
1937,1450;0,00768009
1938,1093;0,00772804
1939,0735;0,00785447
1940,0377;0,00806033
1941,0020;0,00829399
1941,9662;0,00846466
1942,9304;0,00849071
1943,8947;0,00835153
1944,8589;0,00809273
1945,8231;0,00778709
1946,7874;0,00749895
1947,7516;0,00727298
1948,7158;0,00713233
1949,6801;0,00707324
1950,6443;0,0070612
1951,6085;0,00703926
1952,5728;0,00695138
1953,5370;0,00677151
1954,5012;0,00652298
1955,4655;0,00627523
1956,4297;0,00611555
1957,3939;0,00610764
1958,3582;0,00625748
1959,3224;0,00650535
1960,2866;0,00675298
1961,2509;0,00691576
1962,2151;0,00696894
1963,1793;0,00695565
1964,1436;0,00695112
1965,1078;0,00700605
1966,0720;0,00710439
1967,0363;0,00716761
1968,0005;0,00711046
1968,9647;0,00690683
1969,9290;0,00661037
1970,8932;0,00631994
1971,8574;0,00612413
1972,8217;0,00606207
1973,7859;0,00611591
1974,7501;0,00622997
1975,7144;0,00634884
1976,6786;0,00644395
1977,6428;0,00651801
1978,6071;0,00659124
1979,5713;0,00668451
1980,5355;0,00680902
1981,4998;0,00696077
1982,4640;0,00711949
1983,4282;0,00725421
1984,3925;0,00733942
1985,3567;0,00737699
1986,3209;0,00740908
1987,2852;0,00750711
1988,2494;0,00773575
1989,2136;0,00810807
1990,1779;0,00855705
1991,1421;0,0089484
1992,1063;0,00914089
1993,0706;0,00906127
1994,0348;0,00873895
1994,9990;0,00828045
1995,9633;0,00781458
1996,9275;0,00744553
1997,8917;0,00722625
1998,8560;0,00715119
1999,8202;0,00716899
2000,7844;0,00721246
2001,7487;0,00723279
2002,7129;0,00722155
2003,6771;0,0072122
2004,6414;0,00726311
2005,6056;0,00742743
2006,5698;0,00772319
2007,5341;0,0081144
2008,4983;0,00851648
2009,4625;0,0088252
2010,4268;0,0089548
2011,3910;0,00886833
2012,3552;0,00858939
2013,3195;0,00819472
2014,2837;0,00779138
2015,2479;0,00748428
2016,2122;0,00734311
2017,1764;0,00738125
2018,1406;0,00755633
2019,1049;0,00779007
2020,0691;0,00799633
2021,0333;0,00810757
2021,9976;0,00809611
2022,9618;0,00798667
2023,9260;0,00785074
2024,8903;0,00777462
2025,8545;0,00780842
2026,8187;0,00792524
2027,7830;0,00802455
2028,7472;0,0079892
2029,7114;0,0077665
2030,6757;0,00741936
2031,6399;0,00710659
2032,6041;0,00699584
2033,5684;0,00716557
2034,5326;0,00756396
2035,4968;0,00805504
2036,4611;0,00850886
2037,4253;0,00886699
2038,3895;0,00913414
2039,3538;0,00932173
2040,3180;0,00940058
2041,2822;0,0093076
2042,2465;0,00900379
2043,2107;0,00853353
2044,1749;0,00803255
2045,1392;0,00767222
2046,1034;0,007575
2047,0676;0,00775286
2048,0320;0,00810855
2048,9961;0,00850013
2049,9604;0,00881958
2050,9246;0,00902891
2051,8889;0,00914342
2052,8530;0,0091943
2053,8174;0,00920317
2054,7815;0,00917571
2055,7458;0,00911247
2056,7100;0,00902015
2057,6743;0,00891849
2058,6384;0,00884063
2059,6028;0,00882743
2060,5669;0,00891474
2061,5313;0,00911432
2062,4954;0,00939625
2063,4597;0,00968757
2064,4238;0,00989757
2065,3882;0,00996168
2066,3523;0,00987656
2067,3167;0,00970051
2068,2808;0,00951834
2069,2451;0,00939609
2070,2092;0,00935484
2071,1736;0,00937564
2072,1377;0,00942358
2073,1021;0,00947335
2074,0662;0,00951659
2075,0305;0,00955409
2075,9946;0,00958509
2076,9590;0,00960605
2077,9231;0,00961691
2078,8875;0,00962589
2079,8516;0,0096458
2080,8159;0,00968468
2081,7800;0,00973994
2082,7444;0,00980132
2083,7085;0,0098596
2084,6729;0,00991162
2085,6370;0,00995827
2086,6013;0,00999604
2087,5654;0,0100121
2088,5298;0,00998824
2089,4939;0,00991263
2090,4583;0,00979175
2091,4224;0,00965394
2092,3867;0,00954138
2093,3508;0,00949401
2094,3152;0,00953233
2095,2793;0,00964744
2096,2437;0,00980404
2097,2078;0,00995575
2098,1721;0,010065
2099,1362;0,010115
2100,1006;0,0101109
2101,0647;0,0100558
2102,0291;0,00996202
2102,9932;0,00983591
2103,9575;0,00969055
2104,9216;0,0095548
2105,8860;0,00947081
2106,8501;0,00947693
2107,8145;0,00958513
2108,7786;0,00976835
2109,7429;0,00996838
2110,7070;0,0101213
2111,6714;0,0101857
2112,6355;0,0101587
2113,5999;0,0100719
2114,5640;0,00997219
2115,5283;0,0099009
2116,4924;0,00987879
2117,4568;0,0099032
2118,4209;0,0099545
2119,3853;0,0100077
2120,3494;0,0100441
2121,3137;0,0100594
2122,2778;0,0100638
2123,2422;0,0100749
2124,2063;0,0101072
2125,1707;0,0101622
2126,1348;0,0102264
2127,0991;0,0102769
2128,0632;0,0102934
2129,0276;0,0102689
2129,9917;0,0102158
2130,9561;0,0101632
2131,9202;0,0101467
2132,8845;0,0101933
2133,8486;0,0103084
2134,8130;0,0104705
2135,7771;0,010639
2136,7415;0,0107706
2137,7056;0,0108337
2138,6699;0,010813
2139,6340;0,0107074
2140,5984;0,0105294
2141,5625;0,0103119
2142,5269;0,0101129
2143,4910;0,0100048
2144,4553;0,0100417
2145,4194;0,0102217
2146,3838;0,0104749
2147,3479;0,010696
2148,3123;0,0108082
2149,2764;0,010812
2150,2407;0,0107781
2151,2048;0,0107851
2152,1692;0,0108497
2153,1333;0,0109051
2154,0977;0,0108502
2155,0618;0,0106364
2156,0261;0,0103306
2156,9902;0,0100948
2157,9546;0,0100743
2158,9187;0,0102698
2159,8831;0,010522
2160,8472;0,0106416
2161,8115;0,0105532
2162,7756;0,010324
2163,7400;0,0100896
2164,7041;0,00996153
2165,6685;0,00997725
2166,6326;0,0101062
2167,5969;0,0102889
2168,5610;0,0104727
2169,5254;0,0106237
2170,4895;0,0107184
2171,4539;0,0107358
2172,4180;0,0106622
2173,3823;0,0105054
2174,3464;0,0103047
2175,3108;0,010125
2176,2749;0,0100344
2177,2393;0,0100782
2178,2034;0,0102602
2179,1677;0,0105373
2180,1318;0,0108281
2181,0962;0,0110364
2182,0603;0,0110868
2183,0247;0,0109603
2183,9888;0,0107075
2184,9531;0,0104266
2185,9172;0,0102146
2186,8816;0,0101199
2187,8457;0,0101273
2188,8101;0,0101813
2189,7742;0,0102334
2190,7385;0,0102764
2191,7026;0,0103419
2192,6670;0,0104601
2193,6311;0,0106158
2194,5955;0,0107381
2195,5596;0,0107376
2196,5239;0,0105699
2197,4880;0,0102777
2198,4524;0,00997823
2199,4165;0,00980041
2200,3809;0,00981142
2201,3450;0,009983
2202,3093;0,0102164
2203,2734;0,0104047
2204,2378;0,0104885
2205,2019;0,0104716
2206,1663;0,0103971
2207,1304;0,0103108
2208,0947;0,0102397
2209,0588;0,0101945
2210,0232;0,0101824
2210,9873;0,0102113
2211,9517;0,01028
2212,9158;0,0103659
2213,8801;0,010428
2214,8442;0,0104275
2215,8086;0,0103547
2216,7727;0,0102401
2217,7371;0,0101406
2218,7012;0,0101082
2219,6655;0,0101628
2220,6296;0,0102844
2221,5940;0,010429
2222,5581;0,0105518
2223,5225;0,0106246
2224,4866;0,0106386
2225,4509;0,0105979
2226,4150;0,0105128
2227,3794;0,0103984
2228,3435;0,010277
2229,3079;0,0101745
2230,2720;0,0101106
2231,2363;0,0100896
2232,2004;0,0100987
2233,1648;0,0101183
2234,1289;0,0101351
2235,0933;0,0101499
2236,0574;0,0101705
2237,0217;0,0101991
2237,9858;0,0102229
2238,9502;0,0102202
2239,9143;0,0101771
2240,8787;0,0101031
2241,8428;0,0100322
2242,8071;0,0100069
2243,7712;0,0100557
2244,7356;0,0101773
2245,6997;0,0103415
2246,6641;0,0105046
2247,6282;0,0106286
2248,5925;0,010694
2249,5566;0,0107014
2250,5210;0,010667
2251,4851;0,0106137
2252,4495;0,0105635
2253,4136;0,0105304
2254,3779;0,0105168
2255,3420;0,0105128
2256,3064;0,0105034
2257,2705;0,010478
2258,2349;0,0104382
2259,1990;0,0103989
2260,1633;0,0103813
2261,1274;0,0104011
2262,0918;0,0104604
2263,0559;0,0105456
2264,0203;0,0106342
2264,9844;0,0107047
2265,9487;0,0107453
2266,9128;0,0107573
2267,8772;0,0107515
2268,8413;0,010741
2269,8057;0,0107351
2270,7698;0,0107353
2271,7341;0,0107371
2272,6982;0,0107338
2273,6626;0,0107213
2274,6267;0,0106998
2275,5911;0,0106731
2276,5552;0,0106457
2277,5195;0,0106216
2278,4836;0,010604
2279,4480;0,0105965
2280,4121;0,0106036
2281,3765;0,0106303
2282,3406;0,0106796
2283,3049;0,0107526
2284,2690;0,0108484
2285,2334;0,0109665
2286,1975;0,0111074
2287,1619;0,0112734
2288,1260;0,0114664
2289,0903;0,0116848
2290,0544;0,0119218
2291,0188;0,0121643
2291,9829;0,0123955
2292,9473;0,0126007
2293,9114;0,0127722
2294,8757;0,0129128
2295,8398;0,0130327
2296,8042;0,0131434
2297,7683;0,0132495
2298,7327;0,0133452
2299,6968;0,0134185
2300,6611;0,0134604
2301,6252;0,0134744
2302,5896;0,0134796
2303,5537;0,0135054
2304,5181;0,0135785
2305,4822;0,0137066
2306,4465;0,0138674
2307,4106;0,0140092
2308,3750;0,0140657
2309,3391;0,0139838
2310,3035;0,0137512
2311,2676;0,0134098
2312,2319;0,0130443
2313,1960;0,0127448
2314,1604;0,0125646
2315,1245;0,0124964
2316,0889;0,0124811
2317,0530;0,0124439
2318,0173;0,0123358
2318,9814;0,0121611
2319,9458;0,0119791
2320,9099;0,0118758
2321,8743;0,0119183
2322,8384;0,0121142
2323,8027;0,0123997
2324,7668;0,0126657
2325,7312;0,012806
2326,6953;0,0127641
2327,6597;0,0125535
2328,6238;0,0122451
2329,5881;0,0119312
2330,5522;0,0116859
2331,5166;0,0115415
2332,4807;0,0114851
2333,4451;0,0114752
2334,4092;0,0114704
2335,3735;0,0114589
2336,3376;0,0114717
2337,3020;0,0115703
2338,2661;0,0118104
2339,2305;0,0121938
2340,1946;0,012631
2341,1589;0,0129364
2342,1230;0,0128979
2343,0874;0,0124612
2344,0515;0,0119297
2345,0159;0,011845
2345,9800;0,0125054
2346,9443;0,0136897
2347,9084;0,014868
2348,8728;0,0155692
2349,8369;0,0156005
2350,8013;0,0150857
2351,7654;0,0143671
2352,7297;0,0138091
2353,6938;0,0135992
2354,6582;0,0137033
2355,6223;0,0139919
2356,5867;0,0143428
2357,5508;0,0146253
2358,5151;0,0146866
2359,4792;0,0144299
2360,4436;0,0139022
2361,4077;0,0132693
2362,3721;0,0126912
2363,3362;0,012227
2364,3005;0,0118339
2365,2646;0,0114276
2366,2290;0,0109426
2367,1931;0,0103639
2368,1575;0,0097298
2369,1216;0,00911518
2370,0859;0,00860117
2371,0500;0,00824528
2372,0144;0,00806919
2372,9785;0,00806918
2373,9429;0,00823514
2374,9070;0,00855969
2375,8713;0,00903096
2376,8354;0,0096185
2377,7998;0,0102666
2378,7639;0,0109017
2379,7283;0,0114496
2380,6924;0,0118532
2381,6567;0,0120838
2382,6208;0,0121424
2383,5852;0,0120555
2384,5493;0,0118674
2385,5137;0,0116301
2386,4778;0,0113932
2387,4421;0,0111947
2388,4063;0,0110543
2389,3706;0,0109727
2390,3347;0,0109368
2391,2991;0,010929
2392,2632;0,0109354
2393,2275;0,0109499
2394,1917;0,0109724
2395,1560;0,0110033
2396,1201;0,0110399
2397,0845;0,0110765
2398,0486;0,0111087
2399,0129;0,0111332
2399,9771;0,0111502
2400,9414;0,011163
2401,9055;0,0111756
2402,8699;0,0111928
2403,8340;0,0112191
2404,7983;0,0112566
2405,7625;0,0113027
2406,7268;0,0113477
2407,6909;0,0113784
2408,6553;0,0113841
2409,6194;0,0113632
2410,5837;0,0113265
2411,5479;0,0112939
2412,5122;0,0112853
2413,4763;0,0113117
2414,4407;0,0113709
2415,4048;0,0114491
2416,3691;0,0115276
2417,3333;0,0115903
2418,2976;0,0116284
2419,2617;0,011642
2420,2261;0,0116379
2421,1902;0,0116261
2422,1545;0,0116171
2423,1187;0,0116186
2424,0830;0,011633
2425,0471;0,0116574
2426,0115;0,0116849
2426,9756;0,0117089
2427,9399;0,0117271
2428,9041;0,0117431
2429,8684;0,011764
2430,8325;0,0117952
2431,7969;0,0118362
2432,7610;0,0118799
2433,7253;0,0119171
2434,6895;0,0119424
2435,6538;0,0119582
2436,6179;0,0119723
2437,5823;0,0119933
2438,5464;0,0120239
2439,5107;0,01206
2440,4749;0,0120933
2441,4392;0,0121174
2442,4033;0,0121313
2443,3677;0,0121394
2444,3318;0,012148
2445,2961;0,0121615
2446,2603;0,01218
2447,2246;0,0122003
2448,1887;0,0122178
2449,1531;0,0122291
2450,1172;0,0122338
2451,0815;0,0122353
2452,0457;0,0122405
2453,0100;0,012257
2453,9741;0,0122899
2454,9385;0,0123381
2455,9026;0,0123944
2456,8669;0,0124493
2457,8311;0,0124955
2458,7954;0,0125314
2459,7595;0,0125598
2460,7239;0,0125824
2461,6880;0,0125974
2462,6523;0,0125995
2463,6165;0,0125854
2464,5808;0,0125588
2465,5449;0,0125312
2466,5093;0,0125161
2467,4734;0,0125216
2468,4377;0,0125456
2469,4019;0,0125789
2470,3662;0,0126115
2471,3303;0,0126391
2472,2947;0,0126639
2473,2588;0,0126914
2474,2231;0,0127245
2475,1873;0,0127613
2476,1516;0,0127966
2477,1157;0,012825
2478,0801;0,0128433
2479,0442;0,0128499
2480,0085;0,0128441
2480,9727;0,0128275
2481,9370;0,0128062
2482,9011;0,0127921
2483,8655;0,0128005
2484,8296;0,0128423
2485,7939;0,0129162
2486,7581;0,0130062
2487,7224;0,0130867
2488,6865;0,0131351
2489,6509;0,0131427
2490,6150;0,0131192
2491,5793;0,0130874
2492,5435;0,0130702
2493,5078;0,0130797
2494,4719;0,0131129
2495,4363;0,013156
2496,4004;0,0131942
2497,3647;0,0132186
2498,3289;0,0132283
2499,2932;0,0132275
2500,2573;0,0132212
2501,2217;0,0132133
2502,1858;0,0132073
2503,1501;0,013208
2504,1143;0,0132198
2505,0786;0,0132434
2506,0427;0,0132741
2507,0071;0,0133023
2507,9712;0,01332
2508,9355;0,0133256
2509,8997;0,013326
2510,8640;0,0133321
2511,8281;0,013351
2512,7925;0,0133808
2513,7566;0,0134117
2514,7209;0,013433
2515,6851;0,0134405
2516,6494;0,0134394
2517,6135;0,0134407
2518,5779;0,0134531
2519,5420;0,0134774
2520,5063;0,0135056
2521,4705;0,0135274
2522,4348;0,0135364
2523,3989;0,0135344
2524,3633;0,0135302
2525,3274;0,0135331
2526,2917;0,0135476
2527,2559;0,0135702
2528,2202;0,0135925
2529,1843;0,013606
2530,1487;0,0136074
2531,1128;0,0136
2532,0771;0,0135911
2533,0413;0,013588
2534,0056;0,013594
2534,9697;0,0136082
2535,9341;0,013628
2536,8982;0,0136515
2537,8625;0,0136792
2538,8267;0,0137119
2539,7910;0,0137483
2540,7551;0,0137829
2541,7195;0,0138077
2542,6836;0,0138161
2543,6479;0,0138072
2544,6121;0,0137873
2545,5764;0,0137667
2546,5405;0,0137549
2547,5049;0,0137553
2548,4690;0,0137642
2549,4333;0,0137732
2550,3975;0,0137751
2551,3618;0,0137686
2552,3259;0,0137591
2553,2903;0,013756
2554,2544;0,0137661
2555,2188;0,0137899
2556,1829;0,0138207
2557,1472;0,0138482
2558,1113;0,0138646
2559,0757;0,0138676
2560,0398;0,013861
2561,0042;0,0138508
2561,9683;0,0138424
2562,9326;0,0138391
2563,8967;0,0138434
2564,8611;0,0138591
2565,8252;0,0138896
2566,7896;0,013935
2567,7537;0,0139884
2568,7180;0,0140367
2569,6821;0,0140657
2570,6465;0,0140678
2571,6106;0,0140468
2572,5750;0,0140166
2573,5391;0,0139945
2574,5034;0,0139915
2575,4675;0,0140076
2576,4319;0,0140328
2577,3960;0,0140545
2578,3604;0,0140653
2579,3245;0,0140673
2580,2888;0,0140696
2581,2529;0,0140817
2582,2173;0,0141064
2583,1814;0,0141389
2584,1458;0,01417
2585,1099;0,0141933
2586,0742;0,0142093
2587,0383;0,0142242
2588,0027;0,0142435
2588,9668;0,0142672
2589,9312;0,0142895
2590,8953;0,014304
2591,8596;0,0143102
2592,8237;0,0143157
2593,7881;0,0143307
2594,7522;0,0143607
2595,7166;0,0144006
2596,6807;0,0144367
2597,6450;0,0144558
2598,6091;0,0144529
2599,5735;0,0144349
2600,5376;0,0144155
2601,5020;0,0144069
2602,4661;0,0144137
2603,4304;0,014432
2604,3945;0,0144539
2605,3589;0,0144734
2606,3230;0,0144897
2607,2874;0,0145065
2608,2515;0,0145284
2609,2158;0,0145574
2610,1799;0,0145913
2611,1443;0,0146252
2612,1084;0,0146544
2613,0728;0,0146776
2614,0369;0,0146971
2615,0012;0,0147172
2615,9653;0,0147413
2616,9297;0,0147697
2617,8938;0,0147995
2618,8582;0,0148271
2619,8223;0,0148504
2620,7866;0,0148701
2621,7507;0,0148877
2622,7151;0,0149037
2623,6792;0,0149165
2624,6436;0,0149246
2625,6077;0,0149284
2626,5720;0,0149317
2627,5361;0,0149403
2628,5005;0,0149586
2629,4646;0,0149876
2630,4290;0,0150246
2631,3931;0,0150657
2632,3574;0,0151075
2633,3215;0,0151479
2634,2859;0,0151855
2635,2500;0,0152189
2636,2144;0,0152463
2637,1785;0,0152675
2638,1428;0,015285
2639,1069;0,0153034
2640,0713;0,0153274
2641,0354;0,0153596
2641,9998;0,0153989
2642,9639;0,0154407
2643,9282;0,0154791
2644,8923;0,0155092
2645,8567;0,0155292
2646,8208;0,0155409
2647,7852;0,0155485
2648,7493;0,0155575
2649,7136;0,0155719
2650,6777;0,0155932
2651,6421;0,0156203
2652,6062;0,0156513
2653,5706;0,0156844
2654,5347;0,0157191
2655,4990;0,0157552
2656,4631;0,0157913
2657,4275;0,0158246
2658,3916;0,0158518
2659,3560;0,0158715
2660,3201;0,0158854
2661,2844;0,0158979
2662,2485;0,0159138
2663,2129;0,0159353
2664,1770;0,0159617
2665,1414;0,0159897
2666,1055;0,0160161
2667,0698;0,0160399
2668,0339;0,016062
2668,9983;0,0160844
2669,9624;0,0161085
2670,9268;0,0161352
2671,8909;0,0161649
2672,8552;0,016198
2673,8193;0,0162351
2674,7837;0,0162757
2675,7478;0,0163169
2676,7122;0,0163536
2677,6763;0,0163804
2678,6406;0,0163948
2679,6047;0,016399
2680,5691;0,0164002
2681,5332;0,0164078
2682,4976;0,0164292
2683,4617;0,0164661
2684,4260;0,016514
2685,3901;0,0165646
2686,3545;0,0166102
2687,3186;0,016647
2688,2830;0,0166761
2689,2471;0,0167017
2690,2114;0,0167273
2691,1755;0,0167542
2692,1399;0,0167811
2693,1040;0,016806
2694,0684;0,0168281
2695,0325;0,0168488
2695,9968;0,0168714
2696,9609;0,0168998
2697,9253;0,0169369
2698,8894;0,0169837
2699,8538;0,017038
2700,8179;0,0170949
2701,7822;0,0171482
2702,7463;0,0171929
2703,7107;0,0172276
2704,6748;0,0172559
2705,6392;0,0172837
2706,6033;0,0173163
2707,5676;0,0173552
2708,5317;0,0173974
2709,4961;0,0174378
2710,4602;0,0174733
2711,4246;0,0175046
2712,3887;0,0175354
2713,3530;0,0175698
2714,3171;0,0176086
2715,2815;0,0176487
2716,2456;0,0176853
2717,2100;0,0177152
2718,1741;0,0177385
2719,1384;0,0177586
2720,1025;0,0177804
2721,0669;0,0178075
2722,0310;0,0178409
2722,9954;0,0178794
2723,9595;0,0179203
2724,9238;0,0179609
2725,8879;0,0179993
2726,8523;0,0180346
2727,8164;0,0180674
2728,7808;0,0180997
2729,7449;0,018134
2730,7092;0,0181722
2731,6733;0,0182148
2732,6377;0,0182594
2733,6018;0,0183021
2734,5662;0,0183385
2735,5303;0,0183656
2736,4946;0,0183834
2737,4587;0,0183942
2738,4231;0,0184026
2739,3872;0,0184137
2740,3516;0,0184317
2741,3157;0,0184587
2742,2800;0,0184938
2743,2441;0,0185335
2744,2085;0,0185726
2745,1726;0,018606
2746,1370;0,0186308
2747,1011;0,0186475
2748,0654;0,0186605
2749,0295;0,018676
2749,9939;0,0187001
2750,9580;0,0187356
2751,9224;0,018781
2752,8865;0,0188305
2753,8508;0,0188769
2754,8149;0,0189141
2755,7793;0,01894
2756,7434;0,0189578
2757,7078;0,0189738
2758,6719;0,0189951
2759,6362;0,0190265
2760,6003;0,0190685
2761,5647;0,0191184
2762,5288;0,0191717
2763,4932;0,0192242
2764,4573;0,0192737
2765,4216;0,0193195
2766,3857;0,0193625
2767,3501;0,0194046
2768,3142;0,0194477
2769,2786;0,0194931
2770,2427;0,0195407
2771,2070;0,0195886
2772,1711;0,0196336
2773,1355;0,0196731
2774,0996;0,0197068
2775,0640;0,0197384
2776,0281;0,0197743
2776,9924;0,0198216
2777,9565;0,0198837
2778,9209;0,0199585
2779,8850;0,0200384
2780,8494;0,0201143
2781,8135;0,0201799
2782,7778;0,0202348
2783,7419;0,0202844
2784,7063;0,0203359
2785,6704;0,0203936
2786,6348;0,0204566
2787,5989;0,0205208
2788,5632;0,0205825
2789,5273;0,0206429
2790,4917;0,0207077
2791,4558;0,0207837
2792,4202;0,0208732
2793,3843;0,0209711
2794,3486;0,0210673
2795,3127;0,0211521
2796,2771;0,0212227
2797,2412;0,0212851
2798,2056;0,0213513
2799,1697;0,0214332
2800,1340;0,0215363
2801,0981;0,0216575
2802,0625;0,0217873
2803,0266;0,0219146
2803,9910;0,0220318
2804,9551;0,0221367
2805,9194;0,0222319
2806,8835;0,0223221
2807,8479;0,0224121
2808,8120;0,0225053
2809,7764;0,0226042
2810,7405;0,0227109
2811,7048;0,0228276
2812,6689;0,0229552
2813,6333;0,023093
2814,5974;0,0232382
2815,5618;0,0233871
2816,5259;0,0235365
2817,4902;0,0236854
2818,4543;0,0238355
2819,4187;0,0239906
2820,3828;0,0241552
2821,3472;0,0243321
2822,3113;0,0245217
2823,2756;0,0247224
2824,2397;0,0249313
2825,2041;0,0251466
2826,1682;0,0253685
2827,1326;0,0255995
2828,0967;0,0258436
2829,0610;0,0261045
2830,0251;0,026385
2830,9895;0,0266859
2831,9536;0,0270067
2832,9180;0,0273455
2833,8821;0,0277005
2834,8464;0,0280711
2835,8105;0,0284603
2836,7749;0,0288761
2837,7390;0,0293315
2838,7034;0,0298434
2839,6675;0,0304286
2840,6318;0,0311025
2841,5959;0,031876
2842,5603;0,0327548
2843,5244;0,0337353
2844,4888;0,0347992
2845,4529;0,0359057
2846,4172;0,0369889
2847,3813;0,0379626
2848,3457;0,0387372
2849,3098;0,0392426
2850,2742;0,0394493
2851,2383;0,0393782
2852,2026;0,0390928
2853,1667;0,0386785
2854,1311;0,0382168
2855,0952;0,0377664
2856,0596;0,037357
2857,0237;0,0369957
2857,9880;0,0366805
2858,9521;0,0364117
2859,9165;0,0361958
2860,8806;0,0360422
2861,8450;0,0359561
2862,8091;0,0359351
2863,7734;0,0359699
2864,7375;0,0360498
2865,7019;0,0361661
2866,6660;0,0363116
2867,6304;0,0364765
2868,5945;0,0366449
2869,5588;0,0367961
2870,5229;0,0369113
2871,4873;0,036982
2872,4514;0,0370139
2873,4158;0,0370242
2874,3799;0,0370327
2875,3442;0,0370533
2876,3083;0,0370903
2877,2727;0,0371405
2878,2368;0,0371988
2879,2012;0,037263
2880,1653;0,0373346
2881,1296;0,037418
2882,0938;0,0375173
2883,0581;0,0376354
2884,0222;0,037773
2884,9866;0,0379293
2885,9507;0,0381022
2886,9150;0,0382888
2887,8792;0,0384863
2888,8435;0,0386926
2889,8076;0,0389063
2890,7720;0,039126
2891,7361;0,0393488
2892,7004;0,0395709
2893,6646;0,0397888
2894,6289;0,0400016
2895,5930;0,0402118
2896,5574;0,0404241
2897,5215;0,0406426
2898,4858;0,0408683
2899,4500;0,0410987
2900,4143;0,0413302
2901,3784;0,041562
2902,3428;0,0417987
2903,3069;0,0420518
2904,2712;0,0423363
2905,2354;0,0426677
2906,1997;0,0430584
2907,1638;0,0435165
2908,1282;0,0440483
2909,0923;0,0446606
2910,0566;0,0453598
2911,0208;0,0461469
2911,9851;0,047008
2912,9492;0,0479056
2913,9136;0,0487781
2914,8777;0,0495497
2915,8420;0,0501499
2916,8062;0,0505325
2917,7705;0,0506867
2918,7346;0,0506351
2919,6990;0,0504205
2920,6631;0,0500899
2921,6274;0,0496833
2922,5916;0,0492293
2923,5559;0,0487465
2924,5200;0,0482461
2925,4844;0,0477334
2926,4485;0,0472089
2927,4128;0,0466712
2928,3770;0,046121
2929,3413;0,0455643
2930,3054;0,0450116
2931,2698;0,0444738
2932,2339;0,0439559
2933,1982;0,0434551
2934,1624;0,0429634
2935,1267;0,0424739
2936,0908;0,0419861
2937,0552;0,0415068
2938,0193;0,0410447
2938,9836;0,040604
2939,9478;0,0401801
2940,9121;0,0397617
2941,8762;0,0393381
2942,8406;0,0389077
2943,8047;0,0384823
2944,7690;0,0380837
2945,7332;0,0377349
2946,6975;0,0374493
2947,6616;0,037224
2948,6260;0,0370418
2949,5901;0,0368791
2950,5544;0,036716
2951,5186;0,0365426
2952,4829;0,0363588
2953,4470;0,0361692
2954,4114;0,035976
2955,3755;0,0357757
2956,3398;0,0355605
2957,3040;0,0353228
2958,2683;0,0350601
2959,2324;0,0347765
2960,1968;0,0344806
2961,1609;0,0341807
2962,1252;0,0338803
2963,0894;0,0335763
2964,0537;0,0332614
2965,0178;0,0329293
2965,9822;0,0325795
2966,9463;0,0322189
2967,9106;0,0318599
2968,8748;0,0315147
2969,8391;0,0311902
2970,8032;0,0308864
2971,7676;0,030598
2972,7317;0,0303189
2973,6960;0,0300455
2974,6602;0,0297773
2975,6245;0,0295146
2976,5886;0,0292571
2977,5530;0,0290032
2978,5171;0,0287526
2979,4814;0,028509
2980,4456;0,0282805
2981,4099;0,0280766
2982,3740;0,0279041
2983,3384;0,0277633
2984,3025;0,0276477
2985,2668;0,0275469
2986,2310;0,0274507
2987,1953;0,0273531
2988,1594;0,0272535
2989,1238;0,0271567
2990,0879;0,0270699
2991,0522;0,0269996
2992,0164;0,0269478
2992,9807;0,0269106
2993,9448;0,0268794
2994,9092;0,0268446
2995,8733;0,0268014
2996,8376;0,0267534
2997,8018;0,0267121
2998,7661;0,0266914
2999,7302;0,0267007
3000,6946;0,0267402
3001,6587;0,0268012
3002,6230;0,0268711
3003,5872;0,0269393
3004,5515;0,027002
3005,5156;0,027061
3006,4800;0,027121
3007,4441;0,0271847
3008,4084;0,0272519
3009,3726;0,0273185
3010,3369;0,0273793
3011,3010;0,0274288
3012,2654;0,0274634
3013,2295;0,0274821
3014,1938;0,0274879
3015,1580;0,0274882
3016,1223;0,0274934
3017,0864;0,0275144
3018,0508;0,0275598
3019,0149;0,0276319
3019,9792;0,0277259
3020,9434;0,0278304
3021,9077;0,0279319
3022,8718;0,0280205
3023,8362;0,0280962
3024,8003;0,0281715
3025,7646;0,0282668
3026,7288;0,0284005
3027,6931;0,0285773
3028,6572;0,0287815
3029,6216;0,0289815
3030,5857;0,0291424
3031,5500;0,0292423
3032,5142;0,0292826
3033,4785;0,0292851
3034,4426;0,0292798
3035,4070;0,0292909
3036,3711;0,0293289
3037,3354;0,0293917
3038,2996;0,0294716
3039,2639;0,0295616
3040,2280;0,0296586
3041,1924;0,0297645
3042,1565;0,0298842
3043,1208;0,0300236
3044,0850;0,0301854
3045,0493;0,0303658
3046,0134;0,0305533
3046,9778;0,030732
3047,9419;0,0308888
3048,9063;0,0310219
3049,8704;0,0311421
3050,8347;0,0312674
3051,7988;0,031412
3052,7632;0,0315767
3053,7273;0,0317484
3054,6917;0,0319072
3055,6558;0,0320385
3056,6201;0,0321425
3057,5842;0,0322356
3058,5486;0,032343
3059,5127;0,0324867
3060,4771;0,0326752
3061,4412;0,0328984
3062,4055;0,0331302
3063,3696;0,0333371
3064,3340;0,0334909
3065,2981;0,0335798
3066,2625;0,0336145
3067,2266;0,0336224
3068,1909;0,0336363
3069,1550;0,0336806
3070,1194;0,0337651
3071,0835;0,033886
3072,0479;0,0340334
3073,0120;0,0341987
3073,9763;0,0343777
3074,9404;0,0345686
3075,9048;0,0347668
3076,8689;0,0349618
3077,8333;0,0351387
3078,7974;0,0352831
3079,7617;0,0353881
3080,7258;0,0354579
3081,6902;0,0355067
3082,6543;0,0355529
3083,6187;0,0356123
3084,5828;0,035692
3085,5471;0,0357889
3086,5112;0,0358937
3087,4756;0,0359976
3088,4397;0,0361001
3089,4041;0,0362112
3090,3682;0,0363466
3091,3325;0,0365183
3092,2966;0,0367259
3093,2610;0,0369542
3094,2251;0,0371797
3095,1895;0,0373822
3096,1536;0,0375533
3097,1179;0,037697
3098,0820;0,037823
3099,0464;0,0379379
3100,0105;0,038042
3100,9749;0,0381333
3101,9390;0,0382131
3102,9033;0,0382899
3103,8674;0,0383758
3104,8318;0,0384803
3105,7959;0,0386058
3106,7603;0,0387487
3107,7244;0,0389047
3108,6887;0,0390733
3109,6528;0,0392586
3110,6172;0,0394645
3111,5813;0,0396891
3112,5457;0,039921
3113,5098;0,0401431
3114,4741;0,0403391
3115,4382;0,0405017
3116,4026;0,040636
3117,3667;0,0407565
3118,3311;0,04088
3119,2952;0,0410182
3120,2595;0,0411739
3121,2236;0,0413422
3122,1880;0,0415136
3123,1521;0,0416777
3124,1165;0,0418259
3125,0806;0,0419542
3126,0449;0,0420654
3127,0090;0,0421706
3127,9734;0,0422871
3128,9375;0,0424314
3129,9019;0,0426109
3130,8660;0,0428181
3131,8303;0,0430328
3132,7944;0,0432325
3133,7588;0,0434039
3134,7229;0,0435501
3135,6873;0,0436863
3136,6514;0,0438297
3137,6157;0,04399
3138,5798;0,0441659
3139,5442;0,0443502
3140,5083;0,0445358
3141,4727;0,04472
3142,4368;0,0449043
3143,4011;0,0450909
3144,3652;0,0452816
3145,3296;0,0454775
3146,2937;0,0456795
3147,2581;0,0458878
3148,2222;0,0461002
3149,1865;0,0463113
3150,1506;0,046515
3151,1150;0,046708
3152,0791;0,0468922
3153,0435;0,0470731
3154,0076;0,0472557
3154,9719;0,0474417
3155,9360;0,0476297
3156,9004;0,0478184
3157,8645;0,0480105
3158,8289;0,0482112
3159,7930;0,0484248
3160,7573;0,0486504
3161,7214;0,0488819
3162,6858;0,0491113
3163,6499;0,0493337
3164,6143;0,0495495
3165,5784;0,049762
3166,5427;0,0499729
3167,5068;0,0501808
3168,4712;0,0503824
3169,4353;0,0503012
3170,3997;0,0504999
3171,3638;0,050713
3172,3281;0,050946
3173,2922;0,051195
3174,2566;0,0514468
3175,2207;0,0516855
3176,1851;0,0519017
3177,1492;0,0520978
3178,1135;0,0522862
3179,0776;0,0524816
3180,0420;0,0526922
3181,0061;0,0529156
3181,9705;0,053142
3182,9346;0,053361
3183,8989;0,0535667
3184,8630;0,0537597
3185,8274;0,0539441
3186,7915;0,0541238
3187,7559;0,0543001
3188,7200;0,0544734
3189,6843;0,0546464
3190,6484;0,0548265
3191,6128;0,0550242
3192,5769;0,0552477
3193,5413;0,0554966
3194,5054;0,0557583
3195,4697;0,0560114
3196,4338;0,0562344
3197,3982;0,0564162
3198,3623;0,0565613
3199,3267;0,0566877
3200,2908;0,0568177
3201,2551;0,0569679
3202,2192;0,0571449
3203,1836;0,0573464
3204,1477;0,0575661
3205,1121;0,0577965
3206,0762;0,0580309
3207,0405;0,0582621
3208,0046;0,0584843
3208,9690;0,0586944
3209,9331;0,0588938
3210,8975;0,0590879
3211,8616;0,0592819
3212,8259;0,0594774
3213,7900;0,0596708
3214,7544;0,0598568
3215,7185;0,0600313
3216,6829;0,0601943
3217,6470;0,0603484
3218,6113;0,0604962
3219,5754;0,0606403
3220,5398;0,060784
3221,5039;0,0609333
3222,4683;0,0610968
3223,4324;0,0612812
3224,3967;0,0614883
3225,3608;0,0617118
3226,3252;0,0619404
3227,2893;0,0621617
3228,2537;0,0623668
3229,2178;0,0625532
3230,1821;0,0627242
3231,1462;0,0628867
3232,1106;0,0630487
3233,0747;0,0632166
3234,0391;0,0633937
3235,0032;0,0635803
3235,9675;0,0637743
3236,9316;0,0639741
3237,8960;0,0641803
3238,8601;0,0643946
3239,8245;0,0646175
3240,7886;0,0648447
3241,7529;0,065066
3242,7170;0,0652694
3243,6814;0,0654457
3244,6455;0,0655952
3245,6099;0,0657287
3246,5740;0,065865
3247,5383;0,0660211
3248,5024;0,0662064
3249,4668;0,0664203
3250,4309;0,0666545
3251,3953;0,0668978
3252,3594;0,0671403
3253,3237;0,0673761
3254,2878;0,0676032
3255,2522;0,067822
3256,2163;0,0680339
3257,1807;0,0682401
3258,1448;0,0684425
3259,1091;0,0686436
3260,0732;0,0688464
3261,0376;0,0690534
3262,0017;0,0692654
3262,9661;0,0694809
3263,9302;0,0696965
3264,8945;0,0699084
3265,8586;0,0701131
3266,8230;0,0703076
3267,7871;0,0704922
3268,7515;0,0706691
3269,7156;0,0708425
3270,6799;0,0710161
3271,6440;0,0711901
3272,6084;0,0713588
3273,5725;0,0715122
3274,5369;0,0716401
3275,5010;0,0717371
3276,4653;0,0718062
3277,4294;0,0718566
3278,3938;0,0718988
3279,3579;0,0719404
3280,3223;0,0719846
3281,2864;0,0720323
3282,2507;0,0720853
3283,2148;0,0721478
3284,1792;0,0722235
3285,1433;0,0723121
3286,1077;0,0724053
3287,0718;0,0724882
3288,0361;0,0725445
3289,0002;0,0725637
3289,9646;0,0725465
3290,9287;0,0725052
3291,8931;0,0724593
3292,8572;0,0724258
3293,8215;0,0724129
3294,7856;0,072417
3295,7500;0,0724254
3296,7141;0,0724245
3297,6785;0,0724067
3298,6426;0,0723729
3299,6069;0,0723318
3300,5710;0,0722947
3301,5354;0,072271
3302,4995;0,0722659
3303,4639;0,0722789
3304,4280;0,0723046
3305,3923;0,0723334
3306,3564;0,0723539
3307,3208;0,0723562
3308,2849;0,0723367
3309,2493;0,0723005
3310,2134;0,0722596
3311,1777;0,0722279
3312,1418;0,0722144
3313,1062;0,0722204
3314,0703;0,0722411
3315,0347;0,0722705
3315,9988;0,0723061
3316,9631;0,0723499
3317,9272;0,0724055
3318,8916;0,0724745
3319,8557;0,0725541
3320,8201;0,0726382
3321,7842;0,0727203
3322,7485;0,072797
3323,7126;0,0728683
3324,6770;0,0729356
3325,6411;0,0729989
3326,6055;0,0730568
3327,5696;0,0731077
3328,5339;0,0731537
3329,4980;0,0732007
3330,4624;0,0732551
3331,4265;0,0733185
3332,3909;0,0733842
3333,3550;0,0734385
3334,3193;0,0734661
3335,2834;0,0734568
3336,2478;0,0734089
3337,2119;0,0733279
3338,1763;0,0732214
3339,1404;0,0730964
3340,1047;0,0729593
3341,0688;0,0728191
3342,0332;0,072686
3342,9973;0,0725678
3343,9617;0,0724632
3344,9258;0,07236
3345,8901;0,0722419
3346,8542;0,0720976
3347,8186;0,0719296
3348,7827;0,0717529
3349,7471;0,0715864
3350,7112;0,0714422
3351,6755;0,0713201
3352,6396;0,0712102
3353,6040;0,0710995
3354,5681;0,0709786
3355,5325;0,0708444
3356,4966;0,0706987
3357,4609;0,0705473
3358,4250;0,0703976
3359,3894;0,0702576
3360,3535;0,0701326
3361,3179;0,070021
3362,2820;0,0699132
3363,2463;0,069795
3364,2104;0,0696538
3365,1748;0,0694851
3366,1389;0,0692939
3367,1033;0,0690899
3368,0674;0,068882
3369,0317;0,0686735
3369,9958;0,0684636
3370,9602;0,068252
3371,9243;0,0680418
3372,8887;0,0678394
3373,8528;0,0676514
3374,8171;0,0674807
3375,7813;0,0673257
3376,7456;0,0671823
3377,7097;0,0670472
3378,6741;0,0669197
3379,6382;0,0668005
3380,6025;0,0666884
3381,5667;0,0665771
3382,5310;0,0664554
3383,4951;0,0663118
3384,4595;0,0661418
3385,4236;0,0659536
3386,3879;0,0657662
3387,3521;0,0656004
3388,3164;0,0654684
3389,2805;0,0653669
3390,2449;0,0652795
3391,2090;0,0651849
3392,1733;0,0650679
3393,1375;0,0649251
3394,1018;0,0647622
3395,0659;0,0645866
3396,0303;0,0644
3396,9944;0,0642011
3397,9587;0,0639895
3398,9229;0,0637708
3399,8872;0,0635548
3400,8513;0,0633505
3401,8157;0,0631603
3402,7798;0,0629789
3403,7441;0,0627967
3404,7083;0,0626058
3405,6726;0,0624038
3406,6367;0,0621949
3407,6011;0,0619861
3408,5652;0,0617829
3409,5295;0,0615854
3410,4937;0,0613878
3411,4580;0,0611836
3412,4221;0,0609719
3413,3865;0,0607626
3414,3506;0,0605731
3415,3149;0,0604195
3416,2791;0,0603059
3417,2434;0,0602149
3418,2075;0,0601111
3419,1719;0,0599547
3420,1360;0,059721
3421,1003;0,0594152
3422,0645;0,0590697
3423,0288;0,0587256
3423,9929;0,0584112
3424,9573;0,0581329
3425,9214;0,0578802
3426,8857;0,0576367
3427,8499;0,057391
3428,8142;0,0571397
3429,7783;0,056885
3430,7427;0,0566285
3431,7068;0,0563683
3432,6711;0,0561004
3433,6353;0,0558253
3434,5996;0,0555517
3435,5637;0,0552957
3436,5281;0,0550734
3437,4922;0,0548921
3438,4565;0,0547465
3439,4207;0,0546216
3440,3850;0,0545009
3441,3491;0,0543733
3442,3135;0,0542326
3443,2776;0,0540718
3444,2419;0,0538765
3445,2061;0,0536258
3446,1704;0,0533047
3447,1345;0,0529195
3448,0989;0,0525041
3449,0630;0,0521046
3450,0273;0,0517553
3450,9915;0,051465
3451,9558;0,051221
3452,9199;0,0510022
3453,8843;0,0507913
3454,8484;0,0505818
3455,8127;0,0503772
3456,7769;0,0501853
3457,7412;0,0500104
3458,7053;0,0498488
3459,6697;0,0496889
3460,6338;0,0495149
3461,5981;0,0493127
3462,5623;0,049074
3463,5266;0,0487986
3464,4907;0,0484926
3465,4551;0,0481669
3466,4192;0,0478359
3467,3835;0,0475172
3468,3477;0,047228
3469,3120;0,0469784
3470,2761;0,0467652
3471,2405;0,0465704
3472,2046;0,0463688
3473,1689;0,0461424
3474,1331;0,0458947
3475,0974;0,0456518
3476,0615;0,0454492
3477,0259;0,0453082
3477,9900;0,0452206
3478,9543;0,0451499
3479,9185;0,0450473
3480,8828;0,0448772
3481,8469;0,0446373
3482,8113;0,0443565
3483,7754;0,0440705
3484,7397;0,0437962
3485,7039;0,0435244
3486,6682;0,0432343
3487,6323;0,0429146
3488,5967;0,0425781
3489,5608;0,0422591
3490,5251;0,0419929
3491,4893;0,0417949
3492,4536;0,0416519
3493,4177;0,0415311
3494,3821;0,0413999
3495,3462;0,0412475
3496,3105;0,041095
3497,2747;0,040982
3498,2390;0,0409375
3499,2031;0,040954
3500,1675;0,0409818
3501,1316;0,0409434
3502,0959;0,0407709
3503,0601;0,0404542
3504,0244;0,0400558
3504,9885;0,039667
3505,9529;0,0393449
3506,9170;0,0390861
3507,8813;0,0388441
3508,8455;0,038565
3509,8098;0,0382233
3510,7739;0,0378404
3511,7383;0,0374695
3512,7024;0,0371585
3513,6667;0,0369257
3514,6309;0,0367606
3515,5952;0,0366416
3516,5593;0,0365517
3517,5237;0,0364864
3518,4878;0,0364509
3519,4521;0,0364501
3520,4163;0,0364794
3521,3806;0,0365198
3522,3447;0,0365418
3523,3091;0,0365157
3524,2732;0,0364201
3525,2375;0,036242
3526,2017;0,0359699
3527,1660;0,0355959
3528,1301;0,0351294
3529,0945;0,03461
3530,0586;0,0341023
3531,0229;0,0336632
3531,9871;0,0333168
3532,9514;0,033048
3533,9155;0,0328166
3534,8799;0,03258
3535,8440;0,0323176
3536,8083;0,0320493
3537,7725;0,0318301
3538,7368;0,031719
3539,7009;0,0317455
3540,6653;0,031897
3541,6294;0,0321227
3542,5938;0,0323403
3543,5579;0,0324433
3544,5222;0,0323354
3545,4863;0,0319946
3546,4507;0,0315071
3547,4148;0,0310104
3548,3792;0,0305941
3549,3433;0,0302597
3550,3076;0,0299513
3551,2717;0,0296089
3552,2361;0,0292116
3553,2002;0,0287946
3554,1646;0,0284254
3555,1287;0,0281541
3556,0930;0,0279893
3557,0571;0,0279161
3558,0215;0,0279265
3558,9856;0,0280306
3559,9500;0,0282421
3560,9141;0,028553
3561,8784;0,0289199
3562,8425;0,0292675
3563,8069;0,0294915
3564,7710;0,029437
3565,7354;0,0289123
3566,6995;0,0278685
3567,6638;0,0266032
3568,6279;0,0255779
3569,5923;0,0250114
3570,5564;0,0248008
3571,5208;0,0247327
3572,4849;0,0246583
3573,4492;0,0245314
3574,4133;0,0243673
3575,3777;0,0241916
3576,3418;0,024015
3577,3062;0,0238393
3578,2703;0,0236782
3579,2346;0,0235662
3580,1987;0,0235414
3581,1631;0,0236107
3582,1272;0,0237317
3583,0916;0,0238295
3584,0557;0,0238297
3585,0200;0,023664
3585,9841;0,0232653
3586,9485;0,0226434
3587,9126;0,0220039
3588,8770;0,0216431
3589,8411;0,0216674
3590,8054;0,021936
3591,7695;0,0222333
3592,7339;0,022414
3593,6980;0,0224354
3594,6624;0,0223349
3595,6265;0,0221887
3596,5908;0,02205
3597,5549;0,0219022
3598,5193;0,0216797
3599,4834;0,021339
3600,4478;0,0209146
3601,4119;0,0205044
3602,3762;0,0201908
3603,3403;0,0199779
3604,3047;0,0198056
3605,2688;0,0196031
3606,2332;0,0193218
3607,1973;0,018953
3608,1616;0,0185531
3609,1257;0,018242
3610,0901;0,0181356
3611,0542;0,0182632
3612,0186;0,0185487
3612,9827;0,0188533
3613,9470;0,0190373
3614,9111;0,019008
3615,8755;0,0187338
3616,8396;0,0182357
3617,8040;0,0175781
3618,7681;0,0168891
3619,7324;0,0163781
3620,6965;0,0162448
3621,6609;0,0164992
3622,6250;0,0169137
3623,5894;0,017172
3624,5535;0,0170529
3625,5178;0,016522
3626,4819;0,0157017
3627,4463;0,0147491
3628,4104;0,013817
3629,3748;0,0131659
3630,3389;0,0130248
3631,3032;0,0132806
3632,2673;0,0135806
3633,2317;0,0136528
3634,1958;0,0134494
3635,1602;0,0130944
3636,1243;0,0127521
3637,0886;0,0125186
3638,0527;0,0123985
3639,0171;0,012357
3639,9812;0,0123785
3640,9456;0,0124742
3641,9097;0,0126436
3642,8740;0,0128418
3643,8381;0,0130013
3644,8025;0,0131
3645,7666;0,0131965
3646,7310;0,0133066
3647,6951;0,0131176
3648,6594;0,012127
3649,6235;0,010588
3650,5879;0,00945159
3651,5520;0,00908474
3652,5164;0,00911431
3653,4805;0,00907885
3654,4448;0,00878237
3655,4089;0,00830096
3656,3733;0,00784926
3657,3374;0,0076109
3658,3018;0,00761091
3659,2659;0,00772546
3660,2302;0,0078177
3661,1943;0,00785685
3662,1587;0,00791425
3663,1228;0,00805962
3664,0872;0,00826706
3665,0513;0,0084362
3666,0156;0,00849772
3666,9797;0,00849864
3667,9441;0,00855565
3668,9082;0,0087076
3669,8726;0,00886715
3670,8367;0,00893008
3671,8010;0,00883639
3672,7651;0,00856967
3673,7295;0,00817605
3674,6936;0,00773709
3675,6580;0,00734451
3676,6221;0,00714223
3677,5864;0,0072271
3678,5505;0,00749685
3679,5149;0,00775787
3680,4790;0,0079171
3681,4434;0,00801206
3682,4075;0,0081068
3683,3718;0,00819422
3684,3359;0,00820239
3685,3003;0,00809221
3686,2644;0,00794234
3687,2288;0,00790358
3688,1929;0,00801375
3689,1572;0,00812238
3690,1213;0,00813304
3691,0857;0,00814202
3692,0498;0,00823116
3693,0142;0,00836037
3693,9783;0,0084575
3694,9426;0,00848748
3695,9067;0,0084459
3696,8711;0,00833532
3697,8352;0,00816498
3698,7996;0,00796703
3699,7637;0,007801
3700,7280;0,0077338
3701,6921;0,0078147
3702,6565;0,00805973
3703,6206;0,00843409
3704,5850;0,00884537
3705,5491;0,00918168
3706,5134;0,00937506
3707,4775;0,00942848
3708,4419;0,00935983
3709,4060;0,00908959
3710,3704;0,00846001
3711,3345;0,00753861
3712,2988;0,00675624
3713,2629;0,00648456
3714,2273;0,00670246
3715,1914;0,00715148
3716,1558;0,00760386
3717,1199;0,0079776
3718,0842;0,00831327
3719,0483;0,00868831
3720,0127;0,00913469
3720,9768;0,00960734
3721,9412;0,0100122
3722,9053;0,0102632
3723,8696;0,0103299
3724,8337;0,0102564
3725,7981;0,010137
3726,7622;0,0100503
3727,7266;0,0100085
3728,6907;0,00997646
3729,6550;0,0099389
3730,6191;0,00994252
3731,5835;0,0100589
3732,5476;0,010266
3733,5120;0,0103483
3734,4761;0,0100558
3735,4404;0,00950419
3736,4045;0,00917624
3737,3689;0,00934177
3738,3330;0,0097559
3739,2974;0,00991938
3740,2615;0,00944554
3741,2258;0,0082738
3742,1899;0,00673708
3743,1543;0,00546239
3744,1184;0,00504331
3745,0828;0,00562752
3746,0469;0,00681282
3747,0112;0,00797107
3747,9753;0,00862816
3748,9397;0,00859012
3749,9038;0,00790512
3750,8682;0,00692066
3751,8323;0,00626018
3752,7966;0,00630903
3753,7607;0,00686635
3754,7251;0,00746782
3755,6892;0,00778501
3756,6536;0,00773242
3757,6177;0,00739819
3758,5820;0,00695555
3759,5461;0,00659313
3760,5105;0,00642936
3761,4746;0,00645523
3762,4390;0,00657364
3763,4031;0,00668375
3764,3674;0,00672617
3765,3315;0,0066789
3766,2959;0,0065386
3767,2600;0,00631194
3768,2244;0,00601996
3769,1885;0,00570974
3770,1528;0,00546107
3771,1169;0,00535866
3772,0813;0,00543278
3773,0454;0,00562502
3774,0098;0,00582574
3774,9739;0,00594808
3775,9382;0,00597429
3776,9023;0,00594266
3777,8667;0,00590205
3778,8308;0,00589306
3779,7952;0,00595686
3780,7593;0,00611727
3781,7236;0,0063435
3782,6877;0,00655117
3783,6521;0,00664246
3784,6162;0,00655431
3785,5806;0,00629691
3786,5447;0,0059571
3787,5090;0,00565406
3788,4731;0,00547228
3789,4375;0,00542406
3790,4016;0,00546737
3791,3660;0,00556078
3792,3301;0,00571279
3793,2944;0,00598425
3794,2585;0,00643127
3795,2229;0,0070265
3796,1870;0,00763287
3797,1514;0,00806778
3798,1155;0,00820778
3799,0798;0,00804809
3800,0439;0,00768547
3801,0083;0,00726301
3801,9724;0,00690575
3802,9368;0,00663321
3803,9009;0,00633063
3804,8652;0,00586548
3805,8293;0,00525275
3806,7937;0,00470935
3807,7578;0,00452637
3808,7222;0,00482278
3809,6863;0,00541452
3810,6506;0,00595519
3811,6147;0,0061969
3812,5791;0,00614765
3813,5432;0,00604669
3814,5076;0,00618065
3815,4717;0,00665849
3816,4360;0,00733477
3817,4001;0,00793009
3818,3645;0,00819774
3819,3286;0,00802375
3820,2930;0,00748781
3821,2571;0,00687813
3822,2214;0,00653204
3823,1855;0,00656569
3824,1499;0,0068189
3825,1140;0,00704628
3826,0784;0,00710056
3827,0425;0,00698406
3828,0068;0,00680203
3828,9709;0,00668088
3829,9353;0,00670001
3830,8994;0,00686426
3831,8638;0,00711714
3832,8279;0,00737919
3833,7922;0,00759182
3834,7563;0,00774433
3835,7207;0,00786112
3836,6848;0,00794979
3837,6492;0,00796389
3838,6133;0,00784623
3839,5776;0,00759647
3840,5417;0,00725814
3841,5061;0,00687336
3842,4702;0,00650157
3843,4346;0,00625708
3844,3987;0,00627723
3845,3630;0,00662069
3846,3271;0,00718477
3847,2915;0,0077224
3848,2556;0,00795124
3849,2200;0,00768524
3850,1841;0,00692133
3851,1484;0,00581847
3852,1125;0,00456356
3853,0769;0,00340543
3854,0410;0,00289727
3855,0054;0,00343489
3855,9695;0,00467791
3856,9338;0,00596278
3857,8979;0,00685027
3858,8623;0,00725229
3859,8264;0,00733075
3860,7908;0,00733383
3861,7549;0,00742368
3862,7192;0,00757719
3863,6833;0,00765678
3864,6477;0,0075765
3865,6118;0,00736592
3866,5762;0,0071168
3867,5403;0,00692539
3868,5046;0,00685026
3869,4688;0,00687033
3870,4331;0,00688951
3871,3972;0,00682033
3872,3616;0,00666069
3873,3257;0,00647128
3874,2900;0,00630197
3875,2542;0,006163
3876,2185;0,00605565
3877,1826;0,00601062
3878,1470;0,00608693
3879,1111;0,0063156
3880,0754;0,00663432
3881,0396;0,00689013
3882,0039;0,00692429
3882,9680;0,00666858
3883,9324;0,00619159
3884,8965;0,00567699
3885,8608;0,00532824
3886,8250;0,00524322
3887,7893;0,00536613
3888,7534;0,00556402
3889,7178;0,0057387
3890,6819;0,00587433
3891,6462;0,00601967
3892,6104;0,00624086
3893,5747;0,00654779
3894,5388;0,00685406
3895,5032;0,00704447
3896,4673;0,00707933
3897,4316;0,00702134
3898,3958;0,00696737
3899,3601;0,00695991
3900,3242;0,00695993
3901,2886;0,00688964
3902,2527;0,00668583
3903,2170;0,00634296
3904,1812;0,00593782
3905,1455;0,00558884
3906,1096;0,00536552
3907,0740;0,00525157
3908,0381;0,00519297
3909,0024;0,00515934
3909,9666;0,00516051
3910,9309;0,00522123
3911,8950;0,00534885
3912,8594;0,00552139
3913,8235;0,00569864
3914,7878;0,0058393
3915,7520;0,00591271
3916,7163;0,00591394
3917,6804;0,00588454
3918,6448;0,0059026
3919,6089;0,00602501
3920,5732;0,00623673
3921,5374;0,00646215
3922,5017;0,00661414
3923,4658;0,0066428
3924,4302;0,00656716
3925,3943;0,0064674
3926,3586;0,00642733
3927,3228;0,00647443
3928,2871;0,00656971
3929,2512;0,0066367
3930,2156;0,00659694
3931,1797;0,00641038
3932,1440;0,00611319
3933,1082;0,00580749
3934,0725;0,005592
3935,0366;0,00550338
3936,0010;0,00551884
3936,9651;0,00559414
3937,9294;0,00569383
3938,8936;0,00579905
3939,8579;0,00590003
3940,8220;0,00598757
3941,7864;0,00605528
3942,7505;0,00611015
3943,7148;0,00617382
3944,6790;0,00626221
3945,6433;0,00636597
3946,6074;0,00644899
3947,5718;0,00646346
3948,5359;0,00637478
3949,5002;0,00618785
3950,4644;0,00595292
3951,4287;0,00573706
3952,3928;0,00558587
3953,3572;0,00550902
3954,3213;0,00549028
3955,2856;0,00550436
3956,2498;0,0055293
3957,2141;0,00555179
3958,1782;0,00556551
3959,1426;0,00556539
3960,1067;0,00554375
3961,0710;0,00549312
3962,0352;0,00541417
3962,9995;0,00532129
3963,9636;0,00523852
3964,9280;0,00518966
3965,8921;0,00518709
3966,8564;0,00522831
3967,8206;0,00529869
3968,7849;0,00537866
3969,7490;0,00545106
3970,7134;0,00550476
3971,6775;0,0055335
3972,6418;0,00553333
3973,6060;0,00550248
3974,5703;0,00544427
3975,5344;0,0053694
3976,4988;0,005294
3977,4629;0,00523308
3978,4272;0,00519393
3979,3914;0,00517337
3980,3557;0,00516027
3981,3198;0,00514206
3982,2842;0,00511226
3983,2483;0,00507516
3984,2126;0,00504453
3985,1768;0,00503684
3986,1411;0,00506264
3987,1052;0,00512053
3988,0696;0,00519611
3989,0337;0,00526801
3989,9980;0,00531557
3990,9622;0,00532709
3991,9265;0,00530253
3992,8906;0,00525043
3993,8550;0,00518221
3994,8191;0,00510797
3995,7834;0,00503545
3996,7476;0,00497112
3997,7119;0,00492086
3998,6760;0,0048893
3999,6404;0,00487819
4000,6045;0,00549562

##### Extended Information
[Comments]
Sample name
Comment
Username
Division
Organization;UNIVERSIDAD INDUSTRIAL DE SANTANDER

[Detailed Information]
Creation date;10/03/2025 4:54 p.m.

Data array type;Linear data array
Horizontal axis;Wavenumber [cm-1]
Vertical axis;Abs
Start;399,193 cm-1
End;4000,6 cm-1
Data interval;0,964233 cm-1
Data points;3736    

[Measurement Information]
Model name;FT/IR-4X1typeA
Serial No.;A035162111

Accessory;ATR PRO 4X
Accessory S/N;A021162126
Incident angle;45 deg

Measurement date;10/03/2025 4:53 p.m.

Light source;Standard
Detector;TGS
Accumulation;40
Resolution;4 cm-1
Zero filling;On
Apodization;Cosine
Gain;Auto (8)
Aperture;Auto (7 mm)
Scan speed;Auto (2 mm/sec)
Filter;Auto (12800 Hz)

