TITLE;
DATA TYPE;INFRARED SPECTRUM
ORIGIN;JASCO
OWNER;
DATE;25/03/10
TIME;19:45:25
SPECTROMETER/DATA SYSTEM;
LOCALE;9226
RESOLUTION;
DELTAX;0,964233
XUNITS;1/CM
YUNITS;ABSORBANCE
FIRSTX;  399,1927
LASTX; 4000,6047
NPOINTS;    3736
FIRSTY;     0,18807
MAXY;     0,26811
MINY;     0,01335
XYDATA
399,1927;0,188072
400,1569;0,187031
401,1211;0,185472
402,0854;0,183542
403,0496;0,181603
404,0138;0,180103
404,9781;0,179406
405,9423;0,179608
406,9065;0,180469
407,8708;0,181554
408,8350;0,182501
409,7992;0,183197
410,7635;0,183745
411,7277;0,18429
412,6919;0,184853
413,6562;0,185317
414,6204;0,185527
415,5846;0,185409
416,5489;0,185066
417,5131;0,184847
418,4773;0,185262
419,4416;0,186496
420,4058;0,188068
421,3700;0,189355
422,3343;0,190128
423,2985;0,190501
424,2627;0,190707
425,2270;0,190955
426,1912;0,191337
427,1554;0,191796
428,1197;0,192183
429,0839;0,192365
430,0481;0,192308
431,0124;0,19211
431,9766;0,191967
432,9408;0,192073
433,9051;0,192522
434,8693;0,193241
435,8335;0,194006
436,7978;0,194533
437,7620;0,194604
438,7262;0,194156
439,6905;0,193298
440,6547;0,19229
441,6189;0,191489
442,5832;0,191225
443,5474;0,191623
444,5116;0,192485
445,4759;0,193376
446,4401;0,193858
447,4043;0,193705
448,3686;0,192961
449,3328;0,191875
450,2970;0,190781
451,2613;0,189953
452,2255;0,189504
453,1897;0,189373
454,1540;0,189388
455,1182;0,189366
456,0824;0,189189
457,0467;0,188848
458,0109;0,188441
458,9751;0,1881
459,9394;0,187894
460,9036;0,187792
461,8678;0,187711
462,8321;0,187577
463,7963;0,187358
464,7605;0,187076
465,7248;0,186796
466,6890;0,186599
467,6532;0,186538
468,6175;0,186612
469,5817;0,18676
470,5459;0,186879
471,5102;0,186879
472,4744;0,186755
473,4386;0,186628
474,4029;0,186679
475,3671;0,187036
476,3313;0,187693
477,2956;0,18851
478,2598;0,189269
479,2240;0,189771
480,1883;0,18992
481,1525;0,189765
482,1167;0,189463
483,0810;0,189191
484,0452;0,189054
485,0094;0,189058
485,9737;0,189154
486,9379;0,189316
487,9021;0,189568
488,8664;0,189963
489,8306;0,190515
490,7948;0,19116
491,7591;0,191748
492,7233;0,19212
493,6875;0,192198
494,6518;0,192038
495,6160;0,191795
496,5802;0,191644
497,5445;0,191716
498,5087;0,192062
499,4729;0,192661
500,4372;0,193433
501,4014;0,194262
502,3656;0,195023
503,3299;0,195615
504,2941;0,195989
505,2583;0,19615
506,2226;0,196153
507,1868;0,196097
508,1510;0,196112
509,1153;0,196319
510,0795;0,196782
511,0437;0,197467
512,0080;0,198251
512,9722;0,198978
513,9365;0,199514
514,9007;0,199807
515,8649;0,199904
516,8292;0,199932
517,7934;0,200023
518,7576;0,200234
519,7219;0,20052
520,6861;0,200786
521,6503;0,200959
522,6146;0,201022
523,5788;0,20101
524,5430;0,200971
525,5073;0,200944
526,4715;0,200934
527,4357;0,200921
528,4000;0,200876
529,3642;0,200784
530,3284;0,200638
531,2927;0,200436
532,2569;0,20018
533,2211;0,199874
534,1854;0,199533
535,1496;0,199187
536,1138;0,198877
537,0781;0,19864
538,0423;0,198496
539,0065;0,198434
539,9708;0,198421
540,9350;0,198417
541,8992;0,198398
542,8635;0,198377
543,8277;0,198396
544,7919;0,198512
545,7562;0,19876
546,7204;0,199134
547,6846;0,199589
548,6489;0,200064
549,6131;0,200516
550,5773;0,200941
551,5416;0,201369
552,5058;0,201838
553,4700;0,202372
554,4343;0,202954
555,3985;0,203521
556,3627;0,203971
557,3270;0,204189
558,2912;0,204082
559,2554;0,203606
560,2197;0,202777
561,1839;0,20167
562,1481;0,200393
563,1124;0,199062
564,0766;0,197773
565,0408;0,196589
566,0051;0,19555
566,9693;0,194675
567,9335;0,193968
568,8978;0,193412
569,8620;0,192972
570,8262;0,192602
571,7905;0,192272
572,7547;0,191981
573,7189;0,191754
574,6832;0,191623
575,6474;0,191594
576,6116;0,191627
577,5759;0,191647
578,5401;0,191577
579,5043;0,191387
580,4686;0,191105
581,4328;0,190806
582,3970;0,190569
583,3613;0,19043
584,3255;0,190368
585,2897;0,190326
586,2540;0,19025
587,2182;0,190127
588,1824;0,189989
589,1467;0,18989
590,1109;0,189869
591,0751;0,189923
592,0394;0,190006
593,0036;0,190042
593,9678;0,189967
594,9321;0,189745
595,8963;0,189375
596,8605;0,188888
597,8248;0,188336
598,7890;0,187787
599,7532;0,187301
600,7175;0,186909
601,6817;0,186593
602,6459;0,186304
603,6102;0,185987
604,5744;0,18561
605,5386;0,18518
606,5029;0,184721
607,4671;0,184249
608,4313;0,183753
609,3956;0,183201
610,3598;0,18256
611,3240;0,181825
612,2883;0,181028
613,2525;0,180218
614,2167;0,179436
615,1810;0,178689
616,1452;0,177946
617,1094;0,17715
618,0737;0,176242
619,0379;0,175187
620,0021;0,173992
620,9664;0,172694
621,9306;0,171353
622,8948;0,17004
623,8591;0,168822
624,8233;0,167746
625,7875;0,166835
626,7518;0,166074
627,7160;0,165428
628,6802;0,164853
629,6445;0,164306
630,6087;0,163744
631,5729;0,163134
632,5372;0,162456
633,5014;0,16172
634,4656;0,160968
635,4299;0,16026
636,3941;0,159646
637,3583;0,159144
638,3226;0,158736
639,2868;0,158382
640,2510;0,158047
641,2153;0,157711
642,1795;0,157367
643,1437;0,157012
644,1080;0,156634
645,0722;0,156213
646,0364;0,155736
647,0007;0,155209
647,9649;0,154672
648,9291;0,154189
649,8934;0,153829
650,8576;0,153634
651,8218;0,153603
652,7861;0,153698
653,7503;0,153862
654,7145;0,154041
655,6788;0,154202
656,6430;0,154334
657,6072;0,154438
658,5715;0,154505
659,5357;0,154505
660,4999;0,154408
661,4642;0,154217
662,4284;0,153979
663,3926;0,153764
664,3569;0,153621
665,3211;0,153547
666,2853;0,153441
667,2496;0,153047
668,2138;0,152058
669,1780;0,150511
670,1423;0,148844
671,1065;0,147345
672,0707;0,145971
673,0350;0,144558
673,9992;0,142984
674,9634;0,141222
675,9277;0,139353
676,8919;0,137518
677,8561;0,135831
678,8204;0,134341
679,7846;0,133041
680,7488;0,131908
681,7131;0,130912
682,6773;0,130016
683,6415;0,129179
684,6058;0,128372
685,5700;0,127591
686,5342;0,126854
687,4985;0,126187
688,4627;0,125607
689,4269;0,125119
690,3912;0,124713
691,3554;0,124372
692,3196;0,124064
693,2839;0,123755
694,2481;0,123413
695,2123;0,123022
696,1766;0,122591
697,1408;0,122147
698,1050;0,121715
699,0693;0,121303
700,0335;0,120897
700,9977;0,120468
701,9620;0,119991
702,9262;0,119453
703,8904;0,118864
704,8547;0,11825
705,8189;0,117642
706,7831;0,117062
707,7474;0,116517
708,7116;0,115999
709,6758;0,11549
710,6401;0,114971
711,6043;0,114429
712,5685;0,113858
713,5328;0,113261
714,4970;0,112647
715,4612;0,111999
716,4255;0,111362
717,3897;0,110698
718,3539;0,109988
719,3182;0,109222
720,2824;0,108407
721,2466;0,107567
722,2109;0,106728
723,1751;0,105903
724,1393;0,105089
725,1036;0,104274
726,0678;0,103456
727,0320;0,102647
727,9963;0,101866
728,9605;0,10113
729,9247;0,100435
730,8890;0,0997654
731,8532;0,0991012
732,8174;0,0984324
733,7817;0,0977642
734,7459;0,0971129
735,7101;0,0964952
736,6744;0,0959202
737,6386;0,0953875
738,6028;0,0948901
739,5671;0,0944207
740,5313;0,0939753
741,4955;0,0935531
742,4598;0,0931526
743,4240;0,0927667
744,3882;0,0923802
745,3525;0,0919732
746,3167;0,0915292
747,2809;0,0910433
748,2452;0,0905263
749,2094;0,0899996
750,1736;0,0894844
751,1379;0,0889914
752,1021;0,0885172
753,0663;0,0880495
754,0306;0,0875765
754,9948;0,0870944
755,9590;0,0866083
756,9233;0,086127
757,8875;0,0856568
758,8517;0,0851985
759,8160;0,0847496
760,7802;0,0843084
761,7444;0,083878
762,7087;0,0834656
763,6729;0,0830781
764,6371;0,0827177
765,6014;0,0823787
766,5656;0,0820502
767,5298;0,0817208
768,4941;0,0813851
769,4583;0,0810444
770,4225;0,0807042
771,3868;0,0803687
772,3510;0,0800378
773,3152;0,0797095
774,2795;0,079386
775,2437;0,0790772
776,2079;0,0787974
777,1722;0,0785547
778,1364;0,078341
779,1006;0,0781298
780,0649;0,077887
781,0291;0,0775877
781,9933;0,0772286
782,9576;0,076828
783,9218;0,0764137
784,8860;0,0760082
785,8503;0,0756218
786,8145;0,0752566
787,7787;0,0749157
788,7430;0,0746087
789,7072;0,0743486
790,6714;0,074142
791,6357;0,0739826
792,5999;0,0738511
793,5641;0,0737233
794,5284;0,0735799
795,4926;0,073412
796,4568;0,0732205
797,4211;0,0730129
798,3853;0,0727988
799,3495;0,0725881
800,3138;0,0723902
801,2780;0,0722123
802,2422;0,0720581
803,2065;0,071926
804,1707;0,0718078
805,1349;0,0716904
806,0992;0,0715583
807,0634;0,0713993
808,0276;0,0712092
808,9919;0,0709945
809,9561;0,0707711
810,9203;0,0705582
811,8846;0,0703705
812,8488;0,0702127
813,8130;0,0700793
814,7773;0,0699593
815,7415;0,0698425
816,7057;0,0697235
817,6700;0,0696025
818,6342;0,0694818
819,5984;0,069362
820,5627;0,0692395
821,5269;0,0691071
822,4911;0,0689561
823,4554;0,0687811
824,4196;0,0685842
825,3839;0,0683766
826,3481;0,0681765
827,3123;0,0680033
828,2766;0,0678689
829,2408;0,0677721
830,2050;0,0676981
831,1693;0,0676228
832,1335;0,0675215
833,0977;0,0673757
834,0620;0,0671775
835,0262;0,0669304
835,9904;0,0666471
836,9547;0,0663459
837,9189;0,0660458
838,8831;0,0657608
839,8474;0,0654963
840,8116;0,0652502
841,7758;0,0650172
842,7401;0,0647951
843,7043;0,0645875
844,6685;0,0644008
845,6328;0,0642369
846,5970;0,0640888
847,5612;0,0639439
848,5255;0,0637931
849,4897;0,0636397
850,4539;0,063499
851,4182;0,0633884
852,3824;0,0633136
853,3466;0,0632619
854,3109;0,0632093
855,2751;0,0631353
856,2393;0,0630372
857,2036;0,0629322
858,1678;0,0628463
859,1320;0,0628001
860,0963;0,0627999
861,0605;0,0628405
862,0247;0,0629139
862,9890;0,0630158
863,9532;0,0631458
864,9174;0,0633013
865,8817;0,0634736
866,8459;0,063651
867,8101;0,0638255
868,7744;0,0639993
869,7386;0,0641829
870,7028;0,0643865
871,6671;0,0646113
872,6313;0,0648462
873,5955;0,0650733
874,5598;0,0652775
875,5240;0,0654537
876,4882;0,0656083
877,4525;0,065755
878,4167;0,0659105
879,3809;0,0660913
880,3452;0,0663141
881,3094;0,0665953
882,2736;0,0669508
883,2379;0,0673939
884,2021;0,067934
885,1663;0,0685759
886,1306;0,0693196
887,0948;0,0701591
888,0590;0,0710821
889,0233;0,072069
889,9875;0,073095
890,9517;0,0741311
891,9160;0,0751453
892,8802;0,0761006
893,8444;0,0769549
894,8087;0,0776633
895,7729;0,0781853
896,7371;0,0784947
897,7014;0,0785843
898,6656;0,078464
899,6298;0,0781517
900,5941;0,0776649
901,5583;0,0770187
902,5225;0,0762333
903,4868;0,0753431
904,4510;0,0744019
905,4152;0,0734761
906,3795;0,0726293
907,3437;0,0719059
908,3079;0,0713212
909,2722;0,0708635
910,2364;0,070505
911,2007;0,0702155
912,1649;0,0699732
913,1292;0,0697701
914,0934;0,0696109
915,0576;0,0695089
916,0219;0,0694778
916,9861;0,0695244
917,9503;0,0696434
918,9146;0,0698167
919,8788;0,0700197
920,8430;0,07023
921,8073;0,0704351
922,7715;0,0706353
923,7357;0,0708391
924,7000;0,0710555
925,6642;0,0712875
926,6284;0,0715302
927,5927;0,0717745
928,5569;0,0720132
929,5211;0,0722453
930,4854;0,0724768
931,4496;0,0727167
932,4138;0,0729721
933,3781;0,0732459
934,3423;0,0735377
935,3065;0,0738485
936,2708;0,074185
937,2350;0,0745614
938,1992;0,0749973
939,1635;0,0755118
940,1277;0,0761178
941,0919;0,0768179
942,0562;0,0776032
943,0204;0,0784576
943,9846;0,079363
944,9489;0,0803076
945,9131;0,08129
946,8773;0,0823201
947,8416;0,0834134
948,8058;0,0845839
949,7700;0,0858379
950,7343;0,0871745
951,6985;0,088591
952,6627;0,0900895
953,6270;0,091678
954,5912;0,0933653
955,5554;0,0951522
956,5197;0,0970258
957,4839;0,0989614
958,4481;0,100932
959,4124;0,102916
960,3766;0,104904
961,3408;0,106893
962,3051;0,108884
963,2693;0,110879
964,2335;0,112879
965,1978;0,114891
966,1620;0,116926
967,1262;0,118999
968,0905;0,121128
969,0547;0,12333
970,0189;0,125626
970,9832;0,128043
971,9474;0,130622
972,9116;0,133408
973,8759;0,136444
974,8401;0,139762
975,8043;0,14337
976,7686;0,147253
977,7328;0,151373
978,6970;0,155676
979,6613;0,160091
980,6255;0,164528
981,5897;0,168881
982,5540;0,173029
983,5182;0,176853
984,4824;0,18026
985,4467;0,183207
986,4109;0,18571
987,3751;0,187833
988,3394;0,18967
989,3036;0,191307
990,2678;0,192807
991,2321;0,194201
992,1963;0,195496
993,1605;0,196692
994,1248;0,197794
995,0890;0,198823
996,0532;0,199811
997,0175;0,200797
997,9817;0,201807
998,9459;0,202857
999,9102;0,203948
1000,8744;0,20508
1001,8386;0,206258
1002,8029;0,207504
1003,7671;0,208848
1004,7313;0,210326
1005,6956;0,211968
1006,6598;0,213802
1007,6240;0,215855
1008,5883;0,21815
1009,5525;0,220705
1010,5167;0,223516
1011,4810;0,226551
1012,4452;0,229742
1013,4094;0,233
1014,3737;0,236232
1015,3379;0,239353
1016,3021;0,242305
1017,2664;0,245053
1018,2306;0,247587
1019,1948;0,249914
1020,1591;0,252057
1021,1233;0,254047
1022,0875;0,255918
1023,0518;0,257701
1024,0160;0,259416
1024,9802;0,261067
1025,9445;0,262647
1026,9087;0,26413
1027,8729;0,265478
1028,8372;0,266635
1029,8014;0,267525
1030,7656;0,268052
1031,7299;0,268114
1032,6941;0,267619
1033,6583;0,266518
1034,6226;0,264828
1035,5868;0,262647
1036,5510;0,260147
1037,5153;0,257542
1038,4795;0,255045
1039,4437;0,252833
1040,4080;0,251014
1041,3722;0,249627
1042,3364;0,248647
1043,3007;0,247997
1044,2649;0,247569
1045,2291;0,24724
1046,1934;0,246897
1047,1576;0,246449
1048,1218;0,245836
1049,0861;0,245029
1050,0503;0,244013
1051,0145;0,242772
1051,9788;0,241292
1052,9430;0,23956
1053,9072;0,237583
1054,8715;0,235384
1055,8357;0,232983
1056,7999;0,230377
1057,7642;0,227522
1058,7284;0,224345
1059,6926;0,220785
1060,6569;0,21684
1061,6211;0,212589
1062,5853;0,208189
1063,5496;0,203827
1064,5138;0,199671
1065,4780;0,195831
1066,4423;0,192347
1067,4065;0,189205
1068,3707;0,186356
1069,3350;0,183741
1070,2992;0,1813
1071,2634;0,178976
1072,2277;0,176713
1073,1919;0,174459
1074,1561;0,17217
1075,1204;0,169817
1076,0846;0,167399
1077,0488;0,164942
1078,0131;0,162498
1078,9773;0,160136
1079,9415;0,157924
1080,9058;0,155918
1081,8700;0,154146
1082,8342;0,152612
1083,7985;0,1513
1084,7627;0,150185
1085,7269;0,14924
1086,6912;0,14844
1087,6554;0,147763
1088,6196;0,14719
1089,5839;0,146707
1090,5481;0,146304
1091,5123;0,145981
1092,4766;0,14574
1093,4408;0,145588
1094,4050;0,145528
1095,3693;0,145558
1096,3335;0,145673
1097,2977;0,145859
1098,2620;0,146095
1099,2262;0,146353
1100,1904;0,146602
1101,1547;0,146809
1102,1189;0,146943
1103,0831;0,146983
1104,0474;0,146913
1105,0116;0,146727
1105,9758;0,146429
1106,9401;0,146026
1107,9043;0,145527
1108,8685;0,144926
1109,8328;0,144193
1110,7970;0,143279
1111,7612;0,142126
1112,7255;0,140704
1113,6897;0,139032
1114,6539;0,137188
1115,6182;0,135293
1116,5824;0,133475
1117,5466;0,131827
1118,5109;0,130377
1119,4751;0,129084
1120,4393;0,127856
1121,4036;0,12658
1122,3678;0,125152
1123,3320;0,123498
1124,2963;0,121591
1125,2605;0,119439
1126,2247;0,117085
1127,1890;0,114582
1128,1532;0,11199
1129,1174;0,109364
1130,0817;0,106745
1131,0459;0,10417
1132,0101;0,101664
1132,9744;0,099255
1133,9386;0,0969735
1134,9028;0,0948617
1135,8671;0,0929717
1136,8313;0,0913578
1137,7955;0,0900633
1138,7598;0,0891064
1139,7240;0,088474
1140,6882;0,0881258
1141,6525;0,0880087
1142,6167;0,0880725
1143,5809;0,0882813
1144,5452;0,0886142
1145,5094;0,0890592
1146,4736;0,0896054
1147,4379;0,0902394
1148,4021;0,0909483
1149,3663;0,0917227
1150,3306;0,0925572
1151,2948;0,0934426
1152,2590;0,0943575
1153,2233;0,0952624
1154,1875;0,0961026
1155,1517;0,0968174
1156,1160;0,0973496
1157,0802;0,0976478
1158,0444;0,0976606
1159,0087;0,0973294
1159,9729;0,0965862
1160,9371;0,0953649
1161,9014;0,0936216
1162,8656;0,0913552
1163,8298;0,0886186
1164,7941;0,0855142
1165,7583;0,0821761
1166,7225;0,0787474
1167,6868;0,0753589
1168,6510;0,0721159
1169,6152;0,0690916
1170,5795;0,0663282
1171,5437;0,0638429
1172,5079;0,0616353
1173,4722;0,0596951
1174,4364;0,0580067
1175,4006;0,0565508
1176,3649;0,0553047
1177,3291;0,0542425
1178,2933;0,0533372
1179,2576;0,0525633
1180,2218;0,0518994
1181,1860;0,0513292
1182,1503;0,0508415
1183,1145;0,0504302
1184,0787;0,0500945
1185,0430;0,0498385
1186,0072;0,04967
1186,9714;0,049598
1187,9357;0,0496294
1188,8999;0,049767
1189,8641;0,0500099
1190,8284;0,0503553
1191,7926;0,0508003
1192,7568;0,0513414
1193,7211;0,0519726
1194,6853;0,0526823
1195,6495;0,0534517
1196,6138;0,0542572
1197,5780;0,0550745
1198,5422;0,0558851
1199,5065;0,0566599
1200,4707;0,0574393
1201,4349;0,0582052
1202,3992;0,0589597
1203,3634;0,0596988
1204,3276;0,0604132
1205,2919;0,0610919
1206,2561;0,06173
1207,2203;0,0623342
1208,1846;0,0629257
1209,1488;0,063537
1210,1130;0,0642044
1211,0773;0,0649591
1212,0415;0,0658187
1213,0057;0,0667834
1213,9700;0,0678377
1214,9342;0,0689564
1215,8984;0,0701107
1216,8627;0,0712736
1217,8269;0,0724219
1218,7911;0,0735381
1219,7554;0,0746109
1220,7196;0,0756356
1221,6838;0,0766131
1222,6481;0,0775468
1223,6123;0,0784399
1224,5765;0,0792927
1225,5408;0,0801021
1226,5050;0,0808639
1227,4692;0,0815752
1228,4335;0,0822359
1229,3977;0,0828482
1230,3619;0,0834143
1231,3262;0,0839349
1232,2904;0,0844079
1233,2546;0,0848295
1234,2189;0,0851962
1235,1831;0,0855065
1236,1473;0,0857618
1237,1116;0,085966
1238,0758;0,0861236
1239,0400;0,0862372
1240,0043;0,0863064
1240,9685;0,0863269
1241,9327;0,0862929
1242,8970;0,0861988
1243,8612;0,0860416
1244,8254;0,0858221
1245,7897;0,0855438
1246,7539;0,0852123
1247,7181;0,0848329
1248,6824;0,084411
1249,6466;0,0839517
1250,6108;0,0834626
1251,5751;0,0829543
1252,5393;0,0824402
1253,5035;0,0819328
1254,4678;0,0814382
1255,4320;0,0809522
1256,3962;0,0804602
1257,3605;0,0799433
1258,3247;0,0793871
1259,2889;0,0787871
1260,2532;0,0781481
1261,2174;0,0774786
1262,1816;0,0767827
1263,1459;0,0760588
1264,1101;0,0753026
1265,0743;0,0745121
1266,0386;0,0736894
1267,0028;0,0728373
1267,9670;0,0719558
1268,9313;0,0710419
1269,8955;0,0700944
1270,8597;0,0691199
1271,8240;0,0681345
1272,7882;0,0671587
1273,7524;0,0662101
1274,7167;0,0652978
1275,6809;0,0644235
1276,6451;0,0635848
1277,6094;0,0627785
1278,5736;0,0620002
1279,5378;0,0612438
1280,5021;0,0605014
1281,4663;0,0597668
1282,4305;0,0590396
1283,3948;0,0583268
1284,3590;0,0576416
1285,3232;0,0569998
1286,2875;0,0564162
1287,2517;0,0559031
1288,2159;0,0554685
1289,1802;0,0551165
1290,1444;0,0548465
1291,1086;0,054654
1292,0729;0,0545326
1293,0371;0,0544767
1294,0013;0,0544832
1294,9656;0,0545529
1295,9298;0,05469
1296,8940;0,0549008
1297,8583;0,0551925
1298,8225;0,0555701
1299,7867;0,0560333
1300,7510;0,0565744
1301,7152;0,0571792
1302,6794;0,057832
1303,6437;0,0585216
1304,6079;0,059245
1305,5721;0,0600055
1306,5364;0,0608058
1307,5006;0,0616423
1308,4648;0,0625038
1309,4291;0,0633752
1310,3933;0,0642409
1311,3575;0,0650857
1312,3218;0,0658911
1313,2860;0,066632
1314,2502;0,0672757
1315,2145;0,0677859
1316,1787;0,068129
1317,1429;0,0682835
1318,1072;0,0682509
1319,0714;0,0680615
1320,0356;0,0677699
1320,9999;0,0674357
1321,9641;0,0671048
1322,9283;0,0668018
1323,8926;0,0665345
1324,8568;0,0663029
1325,8210;0,0661044
1326,7853;0,0659348
1327,7495;0,0657856
1328,7137;0,0656441
1329,6780;0,0654953
1330,6422;0,0653247
1331,6064;0,065122
1332,5707;0,0648797
1333,5349;0,0645889
1334,4991;0,0642328
1335,4634;0,0637837
1336,4276;0,0632092
1337,3918;0,0624926
1338,3561;0,0616641
1339,3203;0,0608134
1340,2845;0,0600504
1341,2488;0,0594398
1342,2130;0,0589746
1343,1772;0,0586071
1344,1415;0,0582913
1345,1057;0,0580071
1346,0699;0,0577632
1347,0342;0,0575871
1347,9984;0,0575088
1348,9626;0,0575463
1349,9269;0,0576986
1350,8911;0,0579469
1351,8553;0,0582644
1352,8196;0,0586286
1353,7838;0,0590318
1354,7480;0,0594832
1355,7123;0,0599977
1356,6765;0,0605791
1357,6407;0,0612102
1358,6050;0,0618579
1359,5692;0,0624854
1360,5334;0,0630653
1361,4977;0,0635907
1362,4619;0,0640788
1363,4261;0,0645584
1364,3904;0,0650458
1365,3546;0,0655334
1366,3188;0,065997
1367,2831;0,0664082
1368,2473;0,0667419
1369,2115;0,0669787
1370,1758;0,0671005
1371,1400;0,0670851
1372,1042;0,066907
1373,0685;0,0665542
1374,0327;0,0660534
1374,9969;0,0654714
1375,9612;0,0648706
1376,9254;0,0642557
1377,8896;0,0635743
1378,8539;0,0627658
1379,8181;0,0618176
1380,7823;0,0607857
1381,7466;0,0597599
1382,7108;0,0587964
1383,6750;0,0578757
1384,6393;0,0569185
1385,6035;0,0558546
1386,5677;0,0547108
1387,5320;0,0536379
1388,4962;0,0528084
1389,4604;0,0522791
1390,4247;0,0519778
1391,3889;0,051784
1392,3531;0,0515982
1393,3174;0,0513693
1394,2816;0,0510997
1395,2458;0,0508342
1396,2101;0,0506309
1397,1743;0,0505315
1398,1385;0,0505511
1399,1028;0,0506836
1400,0670;0,0509068
1401,0313;0,0511854
1401,9955;0,0514802
1402,9597;0,0517633
1403,9240;0,0520336
1404,8882;0,0523203
1405,8524;0,0526643
1406,8167;0,0530874
1407,7809;0,0535783
1408,7451;0,0541113
1409,7094;0,0546734
1410,6736;0,0552762
1411,6378;0,0559416
1412,6021;0,0566761
1413,5663;0,0574558
1414,5305;0,0582347
1415,4948;0,0589624
1416,4590;0,0595959
1417,4232;0,0601126
1418,3875;0,0605277
1419,3517;0,060888
1420,3159;0,0612202
1421,2802;0,0614938
1422,2444;0,0616482
1423,2086;0,0616424
1424,1729;0,0614801
1425,1371;0,0611961
1426,1013;0,0608126
1427,0656;0,0603049
1428,0298;0,0596174
1428,9940;0,0587307
1429,9583;0,0577256
1430,9225;0,0567551
1431,8867;0,0559277
1432,8510;0,0552191
1433,8152;0,0544906
1434,7794;0,0535818
1435,7437;0,052453
1436,7079;0,0512967
1437,6721;0,0504233
1438,6364;0,0499775
1439,6006;0,0498712
1440,5648;0,0499448
1441,5291;0,0500896
1442,4933;0,0502671
1443,4575;0,0504808
1444,4218;0,0507433
1445,3860;0,0510562
1446,3502;0,0514091
1447,3145;0,0517907
1448,2787;0,0521988
1449,2429;0,0526373
1450,2072;0,053105
1451,1714;0,0535867
1452,1356;0,0540527
1453,0999;0,0544567
1454,0641;0,0547198
1455,0283;0,0547086
1455,9926;0,0542781
1456,9568;0,0535176
1457,9210;0,0528991
1458,8853;0,052755
1459,8495;0,0529606
1460,8137;0,0532466
1461,7780;0,053392
1462,7422;0,0532193
1463,7064;0,0526063
1464,6707;0,051589
1465,6349;0,0504182
1466,5991;0,049377
1467,5634;0,0485493
1468,5276;0,0478132
1469,4918;0,0469476
1470,4561;0,045698
1471,4203;0,043853
1472,3845;0,041453
1473,3488;0,0389763
1474,3130;0,03701
1475,2772;0,0357124
1476,2415;0,0348743
1477,2057;0,0342585
1478,1699;0,033731
1479,1342;0,0332409
1480,0984;0,0327816
1481,0626;0,032373
1482,0269;0,0320493
1482,9911;0,0318409
1483,9553;0,0317522
1484,9196;0,0317522
1485,8838;0,0317812
1486,8480;0,0317734
1487,8123;0,0317001
1488,7765;0,0316289
1489,7407;0,0317062
1490,7050;0,032016
1491,6692;0,0325115
1492,6334;0,0330993
1493,5977;0,033716
1494,5619;0,0343395
1495,5261;0,0349792
1496,4904;0,0356666
1497,4546;0,036439
1498,4188;0,0373069
1499,3831;0,0382382
1500,3473;0,0391799
1501,3115;0,0400827
1502,2758;0,040904
1503,2400;0,0415925
1504,2042;0,0420546
1505,1685;0,042103
1506,1327;0,0414905
1507,0969;0,0403103
1508,0612;0,0392585
1509,0254;0,0387548
1509,9896;0,0386018
1510,9539;0,0385216
1511,9181;0,0383581
1512,8823;0,0380338
1513,8466;0,0375091
1514,8108;0,036785
1515,7750;0,0359204
1516,7393;0,0350151
1517,7035;0,0341429
1518,6677;0,0332971
1519,6320;0,0324133
1520,5962;0,0314629
1521,5604;0,0305242
1522,5247;0,0297324
1523,4889;0,0291558
1524,4531;0,0287625
1525,4174;0,0284916
1526,3816;0,0283186
1527,3458;0,0282536
1528,3101;0,0282969
1529,2743;0,0284122
1530,2385;0,0285345
1531,2028;0,0286015
1532,1670;0,0285964
1533,1312;0,0285814
1534,0955;0,0286638
1535,0597;0,0289003
1536,0239;0,0292542
1536,9882;0,0296333
1537,9524;0,0299192
1538,9166;0,0299582
1539,8809;0,0296096
1540,8451;0,0289991
1541,8093;0,0285796
1542,7736;0,0285594
1543,7378;0,0287825
1544,7020;0,0290807
1545,6663;0,0293848
1546,6305;0,0296789
1547,5947;0,0299563
1548,5590;0,0302052
1549,5232;0,0304166
1550,4874;0,0306013
1551,4517;0,030796
1552,4159;0,031044
1553,3801;0,0313623
1554,3444;0,0317207
1555,3086;0,0320367
1556,2728;0,0321596
1557,2371;0,031879
1558,2013;0,0311639
1559,1655;0,0305271
1560,1298;0,0304677
1561,0940;0,030872
1562,0582;0,0314607
1563,0225;0,0320819
1563,9867;0,032676
1564,9509;0,033213
1565,9152;0,0336667
1566,8794;0,034022
1567,8436;0,0343027
1568,8079;0,0345896
1569,7721;0,0349761
1570,7363;0,035489
1571,7006;0,0360758
1572,6648;0,0366613
1573,6290;0,0371933
1574,5933;0,0376604
1575,5575;0,038107
1576,5217;0,0386248
1577,4860;0,0392804
1578,4502;0,0400584
1579,4144;0,040904
1580,3787;0,0417781
1581,3429;0,042665
1582,3071;0,0435608
1583,2714;0,0444666
1584,2356;0,045388
1585,1998;0,0463326
1586,1641;0,0473013
1587,1283;0,0482795
1588,0925;0,0492347
1589,0568;0,0501243
1590,0210;0,0509071
1590,9852;0,051548
1591,9495;0,0520157
1592,9137;0,0522837
1593,8779;0,052343
1594,8422;0,0522183
1595,8064;0,0519672
1596,7706;0,0516543
1597,7349;0,0513218
1598,6991;0,0509801
1599,6633;0,0506216
1600,6276;0,0502425
1601,5918;0,0498576
1602,5560;0,0494988
1603,5203;0,0491948
1604,4845;0,0489489
1605,4487;0,048732
1606,4130;0,0484986
1607,3772;0,048221
1608,3414;0,0479238
1609,3057;0,0476856
1610,2699;0,0475875
1611,2341;0,0476497
1612,1984;0,0478157
1613,1626;0,0479803
1614,1268;0,0480284
1615,0911;0,0478916
1616,0553;0,0476363
1617,0195;0,0474695
1617,9838;0,0475498
1618,9480;0,0478436
1619,9122;0,0482085
1620,8765;0,0485133
1621,8407;0,0486857
1622,8049;0,0487281
1623,7692;0,048711
1624,7334;0,048717
1625,6976;0,0487772
1626,6619;0,0488766
1627,6261;0,0490049
1628,5903;0,0491835
1629,5546;0,0494415
1630,5188;0,0497764
1631,4830;0,0501363
1632,4473;0,0504244
1633,4115;0,0505043
1634,3757;0,050241
1635,3400;0,0496576
1636,3042;0,049073
1637,2684;0,0488228
1638,2327;0,0489197
1639,1969;0,0491966
1640,1611;0,0495255
1641,1254;0,0498517
1642,0896;0,0501486
1643,0538;0,0503697
1644,0181;0,0504211
1644,9823;0,0501874
1645,9465;0,0496699
1646,9108;0,0491262
1647,8750;0,0488759
1648,8392;0,0489658
1649,8035;0,0491853
1650,7677;0,0492068
1651,7319;0,0486283
1652,6962;0,0472275
1653,6604;0,0455916
1654,6246;0,0446776
1655,5889;0,0445577
1656,5531;0,0447778
1657,5173;0,0450071
1658,4816;0,0450834
1659,4458;0,0449142
1660,4100;0,0444446
1661,3743;0,0437104
1662,3385;0,0428939
1663,3027;0,0422336
1664,2670;0,0418369
1665,2312;0,0416311
1666,1954;0,0414458
1667,1597;0,0410922
1668,1239;0,0404349
1669,0881;0,0395051
1670,0524;0,0385483
1671,0166;0,0378237
1671,9808;0,037359
1672,9451;0,0369864
1673,9093;0,0365317
1674,8735;0,0359485
1675,8378;0,0353494
1676,8020;0,0349066
1677,7662;0,034703
1678,7305;0,0346906
1679,6947;0,0347448
1680,6589;0,0347059
1681,6232;0,0343815
1682,5874;0,0336015
1683,5516;0,0324443
1684,5159;0,0313646
1685,4801;0,0307426
1686,4443;0,0305289
1687,4086;0,0304979
1688,3728;0,0304978
1689,3370;0,0304829
1690,3013;0,0304676
1691,2655;0,0304783
1692,2297;0,0305233
1693,1940;0,0305845
1694,1582;0,0306234
1695,1224;0,0305951
1696,0867;0,0304655
1697,0509;0,0302336
1698,0151;0,0299502
1698,9794;0,0297129
1699,9436;0,029618
1700,9078;0,029702
1701,8721;0,0299306
1702,8363;0,0302391
1703,8005;0,0305752
1704,7648;0,0309185
1705,7290;0,0312825
1706,6932;0,0316994
1707,6575;0,0321958
1708,6217;0,032777
1709,5859;0,0334307
1710,5502;0,034137
1711,5144;0,0348693
1712,4786;0,0355896
1713,4429;0,0362452
1714,4071;0,0367749
1715,3713;0,0371409
1716,3356;0,0373946
1717,2998;0,0376924
1718,2640;0,0381582
1719,2283;0,038774
1720,1925;0,0394565
1721,1567;0,0401431
1722,1210;0,0408013
1723,0852;0,0414147
1724,0494;0,0419764
1725,0137;0,0424908
1725,9779;0,0429744
1726,9421;0,0434468
1727,9064;0,0439169
1728,8706;0,0443673
1729,8348;0,0447419
1730,7991;0,0449376
1731,7633;0,0448258
1732,7275;0,0443524
1733,6918;0,0436787
1734,6560;0,0431061
1735,6202;0,0427805
1736,5845;0,0426074
1737,5487;0,0424022
1738,5129;0,0420141
1739,4772;0,0413801
1740,4414;0,0405477
1741,4056;0,039646
1742,3699;0,0387947
1743,3341;0,0380293
1744,2983;0,0373106
1745,2626;0,0365735
1746,2268;0,0357476
1747,1910;0,03475
1748,1553;0,0335054
1749,1195;0,0320346
1750,0837;0,0305273
1751,0480;0,0292357
1752,0122;0,0282733
1752,9764;0,0275681
1753,9407;0,0269664
1754,9049;0,0263381
1755,8691;0,0256313
1756,8334;0,0248757
1757,7976;0,0241363
1758,7618;0,023447
1759,7261;0,0227844
1760,6903;0,0221099
1761,6545;0,021433
1762,6188;0,0208224
1763,5830;0,0203475
1764,5472;0,0200195
1765,5115;0,019791
1766,4757;0,0195943
1767,4399;0,0193747
1768,4042;0,0190988
1769,3684;0,0187464
1770,3326;0,0183049
1771,2969;0,0177934
1772,2611;0,0172946
1773,2253;0,0169255
1774,1896;0,0167466
1775,1538;0,0167242
1776,1180;0,0167745
1777,0823;0,0168159
1778,0465;0,0167981
1779,0107;0,0167124
1779,9750;0,0165874
1780,9392;0,0164638
1781,9034;0,0163631
1782,8677;0,0162812
1783,8319;0,0162103
1784,7961;0,01616
1785,7604;0,0161538
1786,7246;0,0162061
1787,6888;0,016302
1788,6531;0,016396
1789,6173;0,0164249
1790,5815;0,0163371
1791,5458;0,0161395
1792,5100;0,0159237
1793,4742;0,0158024
1794,4385;0,0158124
1795,4027;0,0159064
1796,3669;0,0160088
1797,3312;0,0160567
1798,2954;0,0160153
1799,2596;0,0158889
1800,2239;0,0157216
1801,1881;0,015577
1802,1523;0,0155003
1803,1166;0,0154991
1804,0808;0,0155529
1805,0450;0,0156325
1806,0093;0,0157105
1806,9735;0,0157635
1807,9377;0,0157735
1808,9020;0,0157335
1809,8662;0,015655
1810,8304;0,0155674
1811,7947;0,0155022
1812,7589;0,0154725
1813,7231;0,0154675
1814,6874;0,0154636
1815,6516;0,0154425
1816,6158;0,015406
1817,5801;0,0153782
1818,5443;0,015391
1819,5085;0,0154586
1820,4728;0,0155659
1821,4370;0,0156767
1822,4012;0,0157547
1823,3655;0,0157833
1824,3297;0,0157728
1825,2939;0,0157455
1826,2582;0,0157103
1827,2224;0,0156512
1828,1866;0,0155451
1829,1509;0,0153963
1830,1151;0,0152539
1831,0793;0,0151806
1832,0436;0,0152002
1833,0078;0,0152826
1833,9720;0,015373
1834,9363;0,0154275
1835,9005;0,0154366
1836,8647;0,015429
1837,8290;0,0154502
1838,7932;0,0155255
1839,7574;0,0156396
1840,7217;0,015745
1841,6859;0,0157841
1842,6501;0,0157159
1843,6144;0,0155481
1844,5786;0,0153481
1845,5428;0,0151985
1846,5071;0,0151347
1847,4713;0,015138
1848,4355;0,0151703
1849,3998;0,0152028
1850,3640;0,0152243
1851,3282;0,0152386
1852,2925;0,015257
1853,2567;0,0152898
1854,2209;0,0153402
1855,1852;0,0154019
1856,1494;0,0154612
1857,1136;0,0155025
1858,0779;0,015517
1859,0421;0,0155081
1860,0063;0,015493
1860,9706;0,0154951
1861,9348;0,0155324
1862,8990;0,0156078
1863,8633;0,0157074
1864,8275;0,0158054
1865,7917;0,015871
1866,7560;0,0158779
1867,7202;0,0158201
1868,6844;0,015722
1869,6487;0,0156242
1870,6129;0,0155516
1871,5771;0,0155017
1872,5414;0,0154578
1873,5056;0,0154075
1874,4698;0,0153515
1875,4341;0,0153045
1876,3983;0,0152867
1877,3625;0,0153091
1878,3268;0,0153633
1879,2910;0,0154251
1880,2552;0,0154693
1881,2195;0,015486
1882,1837;0,0154862
1883,1479;0,0154943
1884,1122;0,0155298
1885,0764;0,0155929
1886,0406;0,0156624
1887,0049;0,0157081
1887,9691;0,0157094
1888,9333;0,0156711
1889,8976;0,0156215
1890,8618;0,0155917
1891,8260;0,0155932
1892,7903;0,0156141
1893,7545;0,015633
1894,7188;0,0156366
1895,6830;0,0156295
1896,6472;0,015628
1897,6115;0,0156441
1898,5757;0,0156726
1899,5399;0,0156938
1900,5042;0,0156877
1901,4684;0,0156504
1902,4326;0,0155987
1903,3969;0,0155607
1904,3611;0,0155557
1905,3253;0,0155811
1906,2896;0,0156147
1907,2538;0,0156321
1908,2180;0,0156258
1909,1823;0,0156129
1910,1465;0,0156217
1911,1107;0,0156672
1912,0750;0,015737
1913,0392;0,0157989
1914,0034;0,0158218
1914,9677;0,0157944
1915,9319;0,0157342
1916,8961;0,0156806
1917,8604;0,0156696
1918,8246;0,0157049
1919,7888;0,0157518
1920,7531;0,0157616
1921,7173;0,0157055
1922,6815;0,0155965
1923,6458;0,0154873
1924,6100;0,0154412
1925,5742;0,0154922
1926,5385;0,0156259
1927,5027;0,0157902
1928,4669;0,0159245
1929,4312;0,0159887
1930,3954;0,0159807
1931,3596;0,0159321
1932,3239;0,0158842
1933,2881;0,0158611
1934,2523;0,0158594
1935,2166;0,0158593
1936,1808;0,0158444
1937,1450;0,015815
1938,1093;0,0157866
1939,0735;0,0157789
1940,0377;0,0158072
1941,0020;0,0158778
1941,9662;0,0159847
1942,9304;0,0161055
1943,8947;0,0162022
1944,8589;0,0162345
1945,8231;0,0161802
1946,7874;0,0160519
1947,7516;0,0158978
1948,7158;0,0157848
1949,6801;0,0157651
1950,6443;0,0158462
1951,6085;0,0159853
1952,5728;0,0161167
1953,5370;0,0161924
1954,5012;0,0162079
1955,4655;0,0161961
1956,4297;0,0161968
1957,3939;0,0162273
1958,3582;0,0162751
1959,3224;0,0163148
1960,2866;0,0163329
1961,2509;0,0163386
1962,2151;0,0163531
1963,1793;0,0163895
1964,1436;0,016441
1965,1078;0,0164867
1966,0720;0,0165084
1967,0363;0,0165018
1968,0005;0,0164729
1968,9647;0,0164217
1969,9290;0,0163341
1970,8932;0,0161951
1971,8574;0,016016
1972,8217;0,0158538
1973,7859;0,0157968
1974,7501;0,0159128
1975,7144;0,0161846
1976,6786;0,0164892
1977,6428;0,0166586
1978,6071;0,0165902
1979,5713;0,0163177
1980,5355;0,0159853
1981,4998;0,0157558
1982,4640;0,0157223
1983,4282;0,0158729
1984,3925;0,0161124
1985,3567;0,0163229
1986,3209;0,016427
1987,2852;0,0164204
1988,2494;0,0163595
1989,2136;0,0163227
1990,1779;0,0163689
1991,1421;0,0165142
1992,1063;0,0167302
1993,0706;0,0169601
1994,0348;0,0171426
1994,9990;0,0172306
1995,9633;0,0172017
1996,9275;0,0170644
1997,8917;0,0168612
1998,8560;0,0166603
1999,8202;0,0165305
2000,7844;0,0165088
2001,7487;0,0165836
2002,7129;0,0167062
2003,6771;0,0168254
2004,6414;0,0169211
2005,6056;0,0170144
2006,5698;0,0171438
2007,5341;0,0173238
2008,4983;0,017521
2009,4625;0,017672
2010,4268;0,0177302
2011,3910;0,0177017
2012,3552;0,0176426
2013,3195;0,0176217
2014,2837;0,0176768
2015,2479;0,0177936
2016,2122;0,0179219
2017,1764;0,0180176
2018,1406;0,0180764
2019,1049;0,0181306
2020,0691;0,0182153
2021,0333;0,0183356
2021,9976;0,0184616
2022,9618;0,0185502
2023,9260;0,0185773
2024,8903;0,0185546
2025,8545;0,0185211
2026,8187;0,0185169
2027,7830;0,018559
2028,7472;0,0186324
2029,7114;0,0186998
2030,6757;0,0187195
2031,6399;0,0186645
2032,6041;0,0185373
2033,5684;0,0183729
2034,5326;0,0182287
2035,4968;0,0181597
2036,4611;0,0181897
2037,4253;0,0182964
2038,3895;0,0184188
2039,3538;0,0184847
2040,3180;0,0184434
2041,2822;0,0182897
2042,2465;0,0180646
2043,2107;0,0178367
2044,1749;0,0176758
2045,1392;0,0176335
2046,1034;0,017729
2047,0676;0,0179393
2048,0320;0,0181986
2048,9961;0,0184181
2049,9604;0,0185235
2050,9246;0,0184874
2051,8889;0,0183371
2052,8530;0,0181364
2053,8174;0,0179537
2054,7815;0,0178327
2055,7458;0,01778
2056,7100;0,0177757
2057,6743;0,0177955
2058,6384;0,0178274
2059,6028;0,0178714
2060,5669;0,0179287
2061,5313;0,0179946
2062,4954;0,0180636
2063,4597;0,0181368
2064,4238;0,0182201
2065,3882;0,0183095
2066,3523;0,0183786
2067,3167;0,0183856
2068,2808;0,0183009
2069,2451;0,0181372
2070,2092;0,017955
2071,1736;0,017834
2072,1377;0,0178279
2073,1021;0,0179306
2074,0662;0,0180809
2075,0305;0,0182016
2075,9946;0,0182437
2076,9590;0,018207
2077,9231;0,0181276
2078,8875;0,018048
2079,8516;0,017994
2080,8159;0,0179714
2081,7800;0,0179771
2082,7444;0,0180085
2083,7085;0,0180637
2084,6729;0,0181338
2085,6370;0,0181997
2086,6013;0,0182376
2087,5654;0,0182333
2088,5298;0,0181927
2089,4939;0,0181407
2090,4583;0,0181073
2091,4224;0,0181113
2092,3867;0,0181512
2093,3508;0,0182098
2094,3152;0,018267
2095,2793;0,0183136
2096,2437;0,0183544
2097,2078;0,0184005
2098,1721;0,0184566
2099,1362;0,0185139
2100,1006;0,0185541
2101,0647;0,0185624
2102,0291;0,0185372
2102,9932;0,0184922
2103,9575;0,018447
2104,9216;0,0184155
2105,8860;0,0183996
2106,8501;0,018393
2107,8145;0,0183904
2108,7786;0,0183946
2109,7429;0,0184133
2110,7070;0,0184509
2111,6714;0,0185002
2112,6355;0,0185437
2113,5999;0,0185627
2114,5640;0,0185491
2115,5283;0,0185102
2116,4924;0,0184649
2117,4568;0,0184327
2118,4209;0,0184241
2119,3853;0,0184367
2120,3494;0,0184596
2121,3137;0,0184823
2122,2778;0,0185018
2123,2422;0,0185248
2124,2063;0,0185622
2125,1707;0,0186203
2126,1348;0,0186942
2127,0991;0,0187696
2128,0632;0,0188322
2129,0276;0,0188798
2129,9917;0,0189268
2130,9561;0,018997
2131,9202;0,0191056
2132,8845;0,0192429
2133,8486;0,0193715
2134,8130;0,0194434
2135,7771;0,0194274
2136,7415;0,0193297
2137,7056;0,0191913
2138,6699;0,019068
2139,6340;0,0190057
2140,5984;0,0190265
2141,5625;0,0191271
2142,5269;0,0192853
2143,4910;0,0194696
2144,4553;0,0196501
2145,4194;0,0198103
2146,3838;0,0199536
2147,3479;0,0200992
2148,3123;0,0202671
2149,2764;0,0204582
2150,2407;0,0206465
2151,2048;0,0207896
2152,1692;0,0208528
2153,1333;0,020833
2154,0977;0,0207683
2155,0618;0,0207301
2156,0261;0,0208025
2156,9902;0,0210493
2157,9546;0,0214717
2158,9187;0,0219795
2159,8831;0,0224143
2160,8472;0,0226272
2161,8115;0,0225536
2162,7756;0,0222359
2163,7400;0,0217922
2164,7041;0,0213566
2165,6685;0,0210195
2166,6326;0,0207956
2167,5969;0,0206375
2168,5610;0,0204835
2169,5254;0,0203038
2170,4895;0,0201135
2171,4539;0,0199515
2172,4180;0,019847
2173,3823;0,0198007
2174,3464;0,0197928
2175,3108;0,0198045
2176,2749;0,0198323
2177,2393;0,0198798
2178,2034;0,0199408
2179,1677;0,0199909
2180,1318;0,0200015
2181,0962;0,0199635
2182,0603;0,0199003
2183,0247;0,0198556
2183,9888;0,0198631
2184,9531;0,0199252
2185,9172;0,0200161
2186,8816;0,0201046
2187,8457;0,0201756
2188,8101;0,0202313
2189,7742;0,020276
2190,7385;0,0202996
2191,7026;0,0202782
2192,6670;0,020191
2193,6311;0,0200412
2194,5955;0,0198613
2195,5596;0,0196988
2196,5239;0,0195903
2197,4880;0,0195433
2198,4524;0,0195363
2199,4165;0,0195338
2200,3809;0,0195072
2201,3450;0,0194496
2202,3093;0,0193797
2203,2734;0,0193345
2204,2378;0,0193537
2205,2019;0,0194585
2206,1663;0,019633
2207,1304;0,0198194
2208,0947;0,0199352
2209,0588;0,01991
2210,0232;0,0197243
2210,9873;0,0194257
2211,9517;0,0191105
2212,9158;0,0188784
2213,8801;0,0187855
2214,8442;0,0188224
2215,8086;0,0189279
2216,7727;0,0190264
2217,7371;0,0190666
2218,7012;0,0190396
2219,6655;0,0189739
2220,6296;0,0189117
2221,5940;0,0188852
2222,5581;0,0189025
2223,5225;0,0189502
2224,4866;0,0190059
2225,4509;0,019052
2226,4150;0,019083
2227,3794;0,019102
2228,3435;0,0191135
2229,3079;0,019118
2230,2720;0,0191141
2231,2363;0,0191055
2232,2004;0,0191045
2233,1648;0,019126
2234,1289;0,0191747
2235,0933;0,0192361
2236,0574;0,0192796
2237,0217;0,0192744
2237,9858;0,0192081
2238,9502;0,0190952
2239,9143;0,0189694
2240,8787;0,0188664
2241,8428;0,0188069
2242,8071;0,0187907
2243,7712;0,0188033
2244,7356;0,018827
2245,6997;0,0188511
2246,6641;0,0188744
2247,6282;0,0189015
2248,5925;0,0189357
2249,5566;0,0189741
2250,5210;0,0190073
2251,4851;0,0190243
2252,4495;0,0190189
2253,4136;0,0189955
2254,3779;0,0189675
2255,3420;0,0189503
2256,3064;0,0189522
2257,2705;0,0189689
2258,2349;0,0189859
2259,1990;0,0189863
2260,1633;0,0189585
2261,1274;0,0189003
2262,0918;0,0188182
2263,0559;0,0187246
2264,0203;0,0186346
2264,9844;0,0185637
2265,9487;0,0185243
2266,9128;0,0185228
2267,8772;0,0185571
2268,8413;0,0186172
2269,8057;0,0186889
2270,7698;0,0187581
2271,7341;0,0188125
2272,6982;0,0188421
2273,6626;0,0188396
2274,6267;0,0188029
2275,5911;0,0187382
2276,5552;0,0186601
2277,5195;0,0185868
2278,4836;0,0185312
2279,4480;0,0184959
2280,4121;0,0184746
2281,3765;0,0184606
2282,3406;0,0184551
2283,3049;0,0184687
2284,2690;0,018514
2285,2334;0,0185943
2286,1975;0,0186969
2287,1619;0,0187964
2288,1260;0,0188663
2289,0903;0,018893
2290,0544;0,018882
2291,0188;0,0188539
2291,9829;0,0188326
2292,9473;0,018834
2293,9114;0,0188601
2294,8757;0,0189023
2295,8398;0,0189488
2296,8042;0,0189917
2297,7683;0,0190292
2298,7327;0,019063
2299,6968;0,0190922
2300,6611;0,0191108
2301,6252;0,019109
2302,5896;0,0190799
2303,5537;0,0190271
2304,5181;0,0189673
2305,4822;0,0189257
2306,4465;0,0189235
2307,4106;0,0189644
2308,3750;0,019028
2309,3391;0,0190772
2310,3035;0,0190772
2311,2676;0,0190156
2312,2319;0,0189103
2313,1960;0,0187981
2314,1604;0,0187126
2315,1245;0,0186678
2316,0889;0,0186561
2317,0530;0,0186609
2318,0173;0,01867
2318,9814;0,0186825
2319,9458;0,0187048
2320,9099;0,0187402
2321,8743;0,0187833
2322,8384;0,0188213
2323,8027;0,01884
2324,7668;0,0188277
2325,7312;0,0187769
2326,6953;0,0186869
2327,6597;0,0185675
2328,6238;0,0184399
2329,5881;0,018335
2330,5522;0,0182839
2331,5166;0,0183045
2332,4807;0,0183895
2333,4451;0,0185067
2334,4092;0,0186136
2335,3735;0,018679
2336,3376;0,0186976
2337,3020;0,0186905
2338,2661;0,0186876
2339,2305;0,0187013
2340,1946;0,0187068
2341,1589;0,0186471
2342,1230;0,0184724
2343,0874;0,0182064
2344,0515;0,0179858
2345,0159;0,0179857
2345,9800;0,0182703
2346,9443;0,0187414
2347,9084;0,0192252
2348,8728;0,0195777
2349,8369;0,019738
2350,8013;0,0197323
2351,7654;0,0196483
2352,7297;0,0195856
2353,6938;0,0196023
2354,6582;0,0196938
2355,6223;0,0198138
2356,5867;0,0199048
2357,5508;0,0199111
2358,5151;0,0197912
2359,4792;0,0195404
2360,4436;0,0192005
2361,4077;0,0188375
2362,3721;0,0185064
2363,3362;0,0182323
2364,3005;0,0180165
2365,2646;0,017848
2366,2290;0,0177107
2367,1931;0,0175871
2368,1575;0,0174629
2369,1216;0,017333
2370,0859;0,0172045
2371,0500;0,0170934
2372,0144;0,0170181
2372,9785;0,0169936
2373,9429;0,0170283
2374,9070;0,0171234
2375,8713;0,017274
2376,8354;0,0174702
2377,7998;0,0176985
2378,7639;0,0179434
2379,7283;0,0181877
2380,6924;0,0184147
2381,6567;0,0186102
2382,6208;0,0187653
2383,5852;0,0188781
2384,5493;0,018954
2385,5137;0,0190034
2386,4778;0,0190386
2387,4421;0,0190708
2388,4063;0,0191077
2389,3706;0,0191531
2390,3347;0,0192068
2391,2991;0,0192648
2392,2632;0,0193202
2393,2275;0,0193646
2394,1917;0,0193919
2395,1560;0,0194015
2396,1201;0,0193998
2397,0845;0,0193977
2398,0486;0,0194065
2399,0129;0,019431
2399,9771;0,0194685
2400,9414;0,0195105
2401,9055;0,0195479
2402,8699;0,0195761
2403,8340;0,0195959
2404,7983;0,0196117
2405,7625;0,0196276
2406,7268;0,0196447
2407,6909;0,0196618
2408,6553;0,0196776
2409,6194;0,019692
2410,5837;0,0197069
2411,5479;0,019724
2412,5122;0,0197428
2413,4763;0,0197602
2414,4407;0,0197719
2415,4048;0,0197745
2416,3691;0,0197684
2417,3333;0,0197581
2418,2976;0,0197509
2419,2617;0,0197548
2420,2261;0,019775
2421,1902;0,0198128
2422,1545;0,0198648
2423,1187;0,0199243
2424,0830;0,0199828
2425,0471;0,0200325
2426,0115;0,0200677
2426,9756;0,0200865
2427,9399;0,0200914
2428,9041;0,0200888
2429,8684;0,0200864
2430,8325;0,0200904
2431,7969;0,0201036
2432,7610;0,0201253
2433,7253;0,0201542
2434,6895;0,0201897
2435,6538;0,0202323
2436,6179;0,0202809
2437,5823;0,0203297
2438,5464;0,0203679
2439,5107;0,0203847
2440,4749;0,0203759
2441,4392;0,020348
2442,4033;0,0203172
2443,3677;0,0203009
2444,3318;0,0203096
2445,2961;0,0203424
2446,2603;0,0203888
2447,2246;0,0204357
2448,1887;0,0204733
2449,1531;0,0204977
2450,1172;0,020509
2451,0815;0,0205098
2452,0457;0,0205046
2453,0100;0,0205008
2453,9741;0,0205077
2454,9385;0,0205326
2455,9026;0,0205755
2456,8669;0,0206267
2457,8311;0,0206703
2458,7954;0,0206927
2459,7595;0,0206905
2460,7239;0,0206721
2461,6880;0,0206531
2462,6523;0,0206468
2463,6165;0,0206579
2464,5808;0,0206822
2465,5449;0,0207121
2466,5093;0,0207419
2467,4734;0,0207705
2468,4377;0,0207991
2469,4019;0,0208273
2470,3662;0,0208517
2471,3303;0,0208679
2472,2947;0,0208743
2473,2588;0,0208742
2474,2231;0,0208745
2475,1873;0,0208817
2476,1516;0,0208987
2477,1157;0,0209236
2478,0801;0,0209512
2479,0442;0,0209773
2480,0085;0,0210003
2480,9727;0,0210215
2481,9370;0,0210429
2482,9011;0,0210635
2483,8655;0,0210791
2484,8296;0,0210835
2485,7939;0,0210735
2486,7581;0,0210529
2487,7224;0,0210328
2488,6865;0,0210271
2489,6509;0,0210453
2490,6150;0,021087
2491,5793;0,0211417
2492,5435;0,0211943
2493,5078;0,0212332
2494,4719;0,0212547
2495,4363;0,0212628
2496,4004;0,0212649
2497,3647;0,0212673
2498,3289;0,0212734
2499,2932;0,0212841
2500,2573;0,0213
2501,2217;0,0213207
2502,1858;0,021344
2503,1501;0,0213658
2504,1143;0,0213806
2505,0786;0,0213849
2506,0427;0,0213793
2507,0071;0,0213686
2507,9712;0,0213594
2508,9355;0,0213573
2509,8997;0,0213646
2510,8640;0,0213802
2511,8281;0,0214
2512,7925;0,0214188
2513,7566;0,0214315
2514,7209;0,0214347
2515,6851;0,0214277
2516,6494;0,0214133
2517,6135;0,021397
2518,5779;0,021386
2519,5420;0,021387
2520,5063;0,0214036
2521,4705;0,021435
2522,4348;0,0214758
2523,3989;0,0215175
2524,3633;0,0215513
2525,3274;0,0215722
2526,2917;0,0215796
2527,2559;0,0215769
2528,2202;0,0215678
2529,1843;0,0215545
2530,1487;0,0215368
2531,1128;0,0215145
2532,0771;0,0214897
2533,0413;0,021468
2534,0056;0,0214559
2534,9697;0,0214576
2535,9341;0,0214737
2536,8982;0,0215011
2537,8625;0,0215351
2538,8267;0,021571
2539,7910;0,0216049
2540,7551;0,0216335
2541,7195;0,0216553
2542,6836;0,0216709
2543,6479;0,0216836
2544,6121;0,0216967
2545,5764;0,0217116
2546,5405;0,0217252
2547,5049;0,0217319
2548,4690;0,0217278
2549,4333;0,021714
2550,3975;0,0216968
2551,3618;0,0216846
2552,3259;0,0216827
2553,2903;0,0216915
2554,2544;0,021708
2555,2188;0,021729
2556,1829;0,0217536
2557,1472;0,0217824
2558,1113;0,0218141
2559,0757;0,0218425
2560,0398;0,0218578
2561,0042;0,0218507
2561,9683;0,0218188
2562,9326;0,0217701
2563,8967;0,0217211
2564,8611;0,0216905
2565,8252;0,0216914
2566,7896;0,0217246
2567,7537;0,0217787
2568,7180;0,0218351
2569,6821;0,0218769
2570,6465;0,0218952
2571,6106;0,0218919
2572,5750;0,0218761
2573,5391;0,0218581
2574,5034;0,0218445
2575,4675;0,0218368
2576,4319;0,0218339
2577,3960;0,0218342
2578,3604;0,0218379
2579,3245;0,0218455
2580,2888;0,0218568
2581,2529;0,0218703
2582,2173;0,0218844
2583,1814;0,0218991
2584,1458;0,0219157
2585,1099;0,0219357
2586,0742;0,0219589
2587,0383;0,0219827
2588,0027;0,0220033
2588,9668;0,0220173
2589,9312;0,0220233
2590,8953;0,0220219
2591,8596;0,0220159
2592,8237;0,02201
2593,7881;0,0220114
2594,7522;0,0220276
2595,7166;0,0220627
2596,6807;0,0221135
2597,6450;0,022169
2598,6091;0,0222144
2599,5735;0,0222387
2600,5376;0,0222409
2601,5020;0,0222299
2602,4661;0,0222189
2603,4304;0,0222176
2604,3945;0,022228
2605,3589;0,0222468
2606,3230;0,0222703
2607,2874;0,0222987
2608,2515;0,0223356
2609,2158;0,0223828
2610,1799;0,0224361
2611,1443;0,0224856
2612,1084;0,0225195
2613,0728;0,0225309
2614,0369;0,022521
2615,0012;0,0224988
2615,9653;0,0224771
2616,9297;0,0224677
2617,8938;0,0224773
2618,8582;0,0225066
2619,8223;0,0225507
2620,7866;0,0226013
2621,7507;0,0226501
2622,7151;0,0226914
2623,6792;0,0227229
2624,6436;0,0227452
2625,6077;0,02276
2626,5720;0,0227684
2627,5361;0,0227707
2628,5005;0,0227681
2629,4646;0,0227636
2630,4290;0,022763
2631,3931;0,0227726
2632,3574;0,0227968
2633,3215;0,0228358
2634,2859;0,0228851
2635,2500;0,0229372
2636,2144;0,0229844
2637,1785;0,0230213
2638,1428;0,0230469
2639,1069;0,0230643
2640,0713;0,0230785
2641,0354;0,0230946
2641,9998;0,0231156
2642,9639;0,0231412
2643,9282;0,0231693
2644,8923;0,023197
2645,8567;0,0232228
2646,8208;0,0232469
2647,7852;0,0232708
2648,7493;0,0232956
2649,7136;0,0233216
2650,6777;0,0233473
2651,6421;0,0233705
2652,6062;0,0233894
2653,5706;0,0234041
2654,5347;0,0234168
2655,4990;0,0234314
2656,4631;0,0234514
2657,4275;0,0234786
2658,3916;0,0235118
2659,3560;0,0235475
2660,3201;0,0235815
2661,2844;0,0236104
2662,2485;0,0236331
2663,2129;0,0236504
2664,1770;0,0236646
2665,1414;0,0236782
2666,1055;0,0236931
2667,0698;0,0237095
2668,0339;0,0237266
2668,9983;0,0237432
2669,9624;0,0237594
2670,9268;0,0237776
2671,8909;0,0238019
2672,8552;0,0238354
2673,8193;0,0238775
2674,7837;0,023923
2675,7478;0,0239636
2676,7122;0,0239927
2677,6763;0,0240088
2678,6406;0,0240173
2679,6047;0,024027
2680,5691;0,0240459
2681,5332;0,0240776
2682,4976;0,0241201
2683,4617;0,024168
2684,4260;0,0242158
2685,3901;0,0242597
2686,3545;0,024298
2687,3186;0,0243302
2688,2830;0,0243568
2689,2471;0,0243794
2690,2114;0,0244011
2691,1755;0,0244254
2692,1399;0,0244547
2693,1040;0,0244892
2694,0684;0,0245264
2695,0325;0,0245633
2695,9968;0,0245982
2696,9609;0,0246323
2697,9253;0,0246681
2698,8894;0,024708
2699,8538;0,0247511
2700,8179;0,0247941
2701,7822;0,0248328
2702,7463;0,0248649
2703,7107;0,0248923
2704,6748;0,0249193
2705,6392;0,0249508
2706,6033;0,024989
2707,5676;0,0250327
2708,5317;0,0250785
2709,4961;0,0251227
2710,4602;0,025163
2711,4246;0,025198
2712,3887;0,0252269
2713,3530;0,0252495
2714,3171;0,0252667
2715,2815;0,0252818
2716,2456;0,0253
2717,2100;0,0253267
2718,1741;0,0253636
2719,1384;0,0254076
2720,1025;0,025451
2721,0669;0,0254851
2722,0310;0,0255047
2722,9954;0,0255107
2723,9595;0,0255106
2724,9238;0,0255155
2725,8879;0,0255357
2726,8523;0,0255765
2727,8164;0,0256362
2728,7808;0,0257068
2729,7449;0,0257769
2730,7092;0,0258361
2731,6733;0,0258785
2732,6377;0,0259039
2733,6018;0,0259171
2734,5662;0,0259243
2735,5303;0,0259307
2736,4946;0,0259387
2737,4587;0,025948
2738,4231;0,0259578
2739,3872;0,0259683
2740,3516;0,0259815
2741,3157;0,0260003
2742,2800;0,0260259
2743,2441;0,026057
2744,2085;0,0260894
2745,1726;0,0261183
2746,1370;0,0261409
2747,1011;0,0261582
2748,0654;0,0261754
2749,0295;0,0261984
2749,9939;0,0262314
2750,9580;0,0262737
2751,9224;0,02632
2752,8865;0,0263635
2753,8508;0,0263993
2754,8149;0,0264272
2755,7793;0,0264517
2756,7434;0,0264797
2757,7078;0,0265164
2758,6719;0,0265626
2759,6362;0,0266136
2760,6003;0,0266614
2761,5647;0,0266992
2762,5288;0,0267243
2763,4932;0,0267405
2764,4573;0,0267564
2765,4216;0,0267825
2766,3857;0,0268256
2767,3501;0,0268864
2768,3142;0,0269582
2769,2786;0,0270294
2770,2427;0,0270886
2771,2070;0,0271288
2772,1711;0,0271511
2773,1355;0,0271643
2774,0996;0,0271807
2775,0640;0,0272109
2776,0281;0,0272594
2776,9924;0,0273226
2777,9565;0,0273919
2778,9209;0,0274578
2779,8850;0,0275148
2780,8494;0,0275626
2781,8135;0,0276056
2782,7778;0,0276494
2783,7419;0,0276977
2784,7063;0,0277504
2785,6704;0,0278041
2786,6348;0,0278546
2787,5989;0,0278996
2788,5632;0,0279413
2789,5273;0,0279867
2790,4917;0,0280451
2791,4558;0,0281234
2792,4202;0,0282211
2793,3843;0,0283294
2794,3486;0,0284337
2795,3127;0,0285211
2796,2771;0,0285871
2797,2412;0,0286384
2798,2056;0,0286894
2799,1697;0,028755
2800,1340;0,0288427
2801,0981;0,0289503
2802,0625;0,0290682
2803,0266;0,0291854
2803,9910;0,029295
2804,9551;0,0293956
2805,9194;0,0294899
2806,8835;0,0295818
2807,8479;0,0296743
2808,8120;0,0297698
2809,7764;0,0298711
2810,7405;0,0299816
2811,7048;0,0301045
2812,6689;0,0302413
2813,6333;0,0303905
2814,5974;0,0305479
2815,5618;0,0307079
2816,5259;0,0308656
2817,4902;0,0310178
2818,4543;0,0311636
2819,4187;0,0313041
2820,3828;0,0314424
2821,3472;0,0315824
2822,3113;0,0317294
2823,2756;0,0318887
2824,2397;0,032065
2825,2041;0,0322616
2826,1682;0,0324785
2827,1326;0,0327128
2828,0967;0,0329589
2829,0610;0,0332107
2830,0251;0,0334637
2830,9895;0,0337171
2831,9536;0,0339741
2832,9180;0,0342403
2833,8821;0,0345215
2834,8464;0,0348211
2835,8105;0,0351402
2836,7749;0,0354791
2837,7390;0,0358396
2838,7034;0,0362264
2839,6675;0,0366471
2840,6318;0,0371104
2841,5959;0,0376236
2842,5603;0,0381904
2843,5244;0,0388086
2844,4888;0,0394677
2845,4529;0,0401467
2846,4172;0,0408139
2847,3813;0,0414293
2848,3457;0,0419516
2849,3098;0,0423482
2850,2742;0,042603
2851,2383;0,0427202
2852,2026;0,0427213
2853,1667;0,0426374
2854,1311;0,0425006
2855,0952;0,0423384
2856,0596;0,0421724
2857,0237;0,0420195
2857,9880;0,0418941
2858,9521;0,0418081
2859,9165;0,0417693
2860,8806;0,0417794
2861,8450;0,0418342
2862,8091;0,0419257
2863,7734;0,0420459
2864,7375;0,042189
2865,7019;0,0423512
2866,6660;0,0425281
2867,6304;0,0427116
2868,5945;0,0428895
2869,5588;0,0430482
2870,5229;0,0431775
2871,4873;0,0432746
2872,4514;0,0433453
2873,4158;0,0434011
2874,3799;0,0434538
2875,3442;0,0435115
2876,3083;0,0435771
2877,2727;0,0436497
2878,2368;0,0437279
2879,2012;0,0438117
2880,1653;0,0439025
2881,1296;0,0440016
2882,0938;0,0441085
2883,0581;0,0442206
2884,0222;0,044335
2884,9866;0,0444503
2885,9507;0,0445676
2886,9150;0,0446902
2887,8792;0,0448219
2888,8435;0,0449642
2889,8076;0,0451158
2890,7720;0,0452721
2891,7361;0,0454272
2892,7004;0,0455761
2893,6646;0,0457164
2894,6289;0,045849
2895,5930;0,0459778
2896,5574;0,046108
2897,5215;0,0462435
2898,4858;0,0463854
2899,4500;0,046531
2900,4143;0,0466746
2901,3784;0,0468102
2902,3428;0,0469343
2903,3069;0,0470486
2904,2712;0,0471606
2905,2354;0,047282
2906,1997;0,0474249
2907,1638;0,0476
2908,1282;0,0478148
2909,0923;0,0480737
2910,0566;0,0483784
2911,0208;0,048726
2911,9851;0,0491061
2912,9492;0,0494995
2913,9136;0,0498789
2914,8777;0,0502154
2915,8420;0,0504847
2916,8062;0,0506713
2917,7705;0,0507693
2918,7346;0,050779
2919,6990;0,0507045
2920,6631;0,0505526
2921,6274;0,0503346
2922,5916;0,0500659
2923,5559;0,0497629
2924,5200;0,0494375
2925,4844;0,0490945
2926,4485;0,0487331
2927,4128;0,0483532
2928,3770;0,0479609
2929,3413;0,0475689
2930,3054;0,0471917
2931,2698;0,046838
2932,2339;0,0465072
2933,1982;0,046191
2934,1624;0,0458792
2935,1267;0,0455654
2936,0908;0,0452484
2937,0552;0,0449302
2938,0193;0,0446129
2938,9836;0,0442959
2939,9478;0,0439763
2940,9121;0,0436498
2941,8762;0,0433127
2942,8406;0,042964
2943,8047;0,0426073
2944,7690;0,0422529
2945,7332;0,0419156
2946,6975;0,0416106
2947,6616;0,0413467
2948,6260;0,0411206
2949,5901;0,0409181
2950,5544;0,0407198
2951,5186;0,0405108
2952,4829;0,040288
2953,4470;0,04006
2954,4114;0,0398412
2955,3755;0,0396418
2956,3398;0,0394611
2957,3040;0,0392881
2958,2683;0,039108
2959,2324;0,0389102
2960,1968;0,0386936
2961,1609;0,0384652
2962,1252;0,0382347
2963,0894;0,0380092
2964,0537;0,0377904
2965,0178;0,037576
2965,9822;0,0373623
2966,9463;0,0371461
2967,9106;0,0369253
2968,8748;0,0366973
2969,8391;0,0364604
2970,8032;0,0362148
2971,7676;0,035965
2972,7317;0,0357194
2973,6960;0,0354872
2974,6602;0,0352742
2975,6245;0,03508
2976,5886;0,0348988
2977,5530;0,0347236
2978,5171;0,0345512
2979,4814;0,0343843
2980,4456;0,0342297
2981,4099;0,0340945
2982,3740;0,0339814
2983,3384;0,033888
2984,3025;0,0338082
2985,2668;0,0337361
2986,2310;0,0336676
2987,1953;0,0336015
2988,1594;0,0335378
2989,1238;0,0334764
2990,0879;0,0334178
2991,0522;0,033363
2992,0164;0,0333146
2992,9807;0,0332755
2993,9448;0,0332478
2994,9092;0,0332319
2995,8733;0,0332267
2996,8376;0,0332312
2997,8018;0,0332448
2998,7661;0,0332674
2999,7302;0,0332975
3000,6946;0,0333318
3001,6587;0,0333667
3002,6230;0,0334008
3003,5872;0,0334364
3004,5515;0,033478
3005,5156;0,0335288
3006,4800;0,0335875
3007,4441;0,0336476
3008,4084;0,0337002
3009,3726;0,0337391
3010,3369;0,0337635
3011,3010;0,0337778
3012,2654;0,0337888
3013,2295;0,0338025
3014,1938;0,0338223
3015,1580;0,0338501
3016,1223;0,0338877
3017,0864;0,033937
3018,0508;0,0339987
3019,0149;0,0340704
3019,9792;0,0341473
3020,9434;0,0342243
3021,9077;0,0343
3022,8718;0,0343775
3023,8362;0,0344626
3024,8003;0,0345595
3025,7646;0,0346665
3026,7288;0,0347759
3027,6931;0,0348772
3028,6572;0,0349618
3029,6216;0,0350267
3030,5857;0,0350755
3031,5500;0,0351162
3032,5142;0,035159
3033,4785;0,0352138
3034,4426;0,0352886
3035,4070;0,0353877
3036,3711;0,0355099
3037,3354;0,0356474
3038,2996;0,0357876
3039,2639;0,0359181
3040,2280;0,0360323
3041,1924;0,0361323
3042,1565;0,0362267
3043,1208;0,0363247
3044,0850;0,0364305
3045,0493;0,0365414
3046,0134;0,0366521
3046,9778;0,0367598
3047,9419;0,036868
3048,9063;0,0369842
3049,8704;0,0371145
3050,8347;0,0372581
3051,7988;0,0374069
3052,7632;0,0375492
3053,7273;0,0376766
3054,6917;0,0377883
3055,6558;0,0378912
3056,6201;0,0379963
3057,5842;0,0381132
3058,5486;0,0382458
3059,5127;0,0383908
3060,4771;0,0385401
3061,4412;0,0386839
3062,4055;0,0388149
3063,3696;0,0389319
3064,3340;0,0390407
3065,2981;0,0391523
3066,2625;0,0392773
3067,2266;0,0394207
3068,1909;0,039579
3069,1550;0,0397423
3070,1194;0,0398999
3071,0835;0,0400457
3072,0479;0,0401801
3073,0120;0,0403082
3073,9763;0,0404354
3074,9404;0,0405641
3075,9048;0,0406927
3076,8689;0,0408177
3077,8333;0,040937
3078,7974;0,0410515
3079,7617;0,0411654
3080,7258;0,0412842
3081,6902;0,0414124
3082,6543;0,0415505
3083,6187;0,0416947
3084,5828;0,0418385
3085,5471;0,041976
3086,5112;0,042106
3087,4756;0,0422336
3088,4397;0,0423675
3089,4041;0,0425145
3090,3682;0,0426739
3091,3325;0,0428376
3092,2966;0,0429939
3093,2610;0,0431354
3094,2251;0,043263
3095,1895;0,0433854
3096,1536;0,043513
3097,1179;0,0436521
3098,0820;0,043802
3099,0464;0,0439578
3100,0105;0,0441146
3100,9749;0,0442705
3101,9390;0,0444269
3102,9033;0,0445862
3103,8674;0,0447492
3104,8318;0,0449149
3105,7959;0,0450813
3106,7603;0,0452472
3107,7244;0,0454125
3108,6887;0,0455775
3109,6528;0,0457419
3110,6172;0,0459042
3111,5813;0,0460625
3112,5457;0,0462163
3113,5098;0,0463687
3114,4741;0,0465254
3115,4382;0,0466917
3116,4026;0,0468682
3117,3667;0,0470486
3118,3311;0,0472228
3119,2952;0,0473829
3120,2595;0,0475287
3121,2236;0,0476681
3122,1880;0,0478123
3123,1521;0,0479683
3124,1165;0,0481359
3125,0806;0,0483099
3126,0449;0,0484865
3127,0090;0,0486666
3127,9734;0,0488543
3128,9375;0,0490513
3129,9019;0,0492534
3130,8660;0,0494513
3131,8303;0,0496376
3132,7944;0,049812
3133,7588;0,0499818
3134,7229;0,0501564
3135,6873;0,0503406
3136,6514;0,050532
3137,6157;0,0507242
3138,5798;0,0509125
3139,5442;0,0510972
3140,5083;0,0512826
3141,4727;0,0514734
3142,4368;0,0516709
3143,4011;0,0518738
3144,3652;0,0520802
3145,3296;0,0522891
3146,2937;0,0525006
3147,2581;0,0527137
3148,2222;0,0529247
3149,1865;0,0531285
3150,1506;0,0533213
3151,1150;0,0535033
3152,0791;0,0536796
3153,0435;0,0538576
3154,0076;0,0540435
3154,9719;0,05424
3155,9360;0,054446
3156,9004;0,054658
3157,8645;0,054873
3158,8289;0,0550895
3159,7930;0,0553075
3160,7573;0,0555259
3161,7214;0,0557421
3162,6858;0,0559521
3163,6499;0,056153
3164,6143;0,0563459
3165,5784;0,056536
3166,5427;0,0567307
3167,5068;0,0569349
3168,4712;0,0571492
3169,4353;0,0573488
3170,3997;0,0575696
3171,3638;0,0577881
3172,3281;0,0580047
3173,2922;0,0582209
3174,2566;0,0584364
3175,2207;0,0586485
3176,1851;0,0588532
3177,1492;0,0590497
3178,1135;0,0592424
3179,0776;0,0594394
3180,0420;0,0596476
3181,0061;0,059868
3181,9705;0,0600953
3182,9346;0,0603204
3183,8989;0,0605353
3184,8630;0,0607363
3185,8274;0,0609251
3186,7915;0,0611067
3187,7559;0,0612874
3188,7200;0,0614731
3189,6843;0,0616682
3190,6484;0,0618749
3191,6128;0,0620914
3192,5769;0,0623122
3193,5413;0,0625305
3194,5054;0,0627423
3195,4697;0,0629482
3196,4338;0,0631529
3197,3982;0,0633608
3198,3623;0,0635717
3199,3267;0,0637804
3200,2908;0,0639815
3201,2551;0,0641738
3202,2192;0,064363
3203,1836;0,0645576
3204,1477;0,0647639
3205,1121;0,0649814
3206,0762;0,065204
3207,0405;0,0654247
3208,0046;0,0656398
3208,9690;0,0658498
3209,9331;0,0660572
3210,8975;0,0662629
3211,8616;0,066466
3212,8259;0,0666644
3213,7900;0,066857
3214,7544;0,0670434
3215,7185;0,0672237
3216,6829;0,0673978
3217,6470;0,0675676
3218,6113;0,0677382
3219,5754;0,0679171
3220,5398;0,0681107
3221,5039;0,0683191
3222,4683;0,0685354
3223,4324;0,0687489
3224,3967;0,0689517
3225,3608;0,0691434
3226,3252;0,0693309
3227,2893;0,0695242
3228,2537;0,0697301
3229,2178;0,069949
3230,1821;0,0701748
3231,1462;0,0703976
3232,1106;0,0706073
3233,0747;0,0707969
3234,0391;0,0709656
3235,0032;0,0711206
3235,9675;0,0712763
3236,9316;0,0714491
3237,8960;0,0716497
3238,8601;0,0718764
3239,8245;0,0721148
3240,7886;0,0723445
3241,7529;0,0725495
3242,7170;0,0727267
3243,6814;0,0728869
3244,6455;0,073048
3245,6099;0,0732258
3246,5740;0,0734264
3247,5383;0,0736462
3248,5024;0,0738761
3249,4668;0,074107
3250,4309;0,0743325
3251,3953;0,0745484
3252,3594;0,0747527
3253,3237;0,0749456
3254,2878;0,0751311
3255,2522;0,0753172
3256,2163;0,075514
3257,1807;0,0757294
3258,1448;0,0759651
3259,1091;0,0762159
3260,0732;0,0764716
3261,0376;0,0767227
3262,0017;0,0769639
3262,9661;0,077196
3263,9302;0,0774241
3264,8945;0,077654
3265,8586;0,0778885
3266,8230;0,0781257
3267,7871;0,0783602
3268,7515;0,0785835
3269,7156;0,0787862
3270,6799;0,0789589
3271,6440;0,0790953
3272,6084;0,0791947
3273,5725;0,0792651
3274,5369;0,0793227
3275,5010;0,0793865
3276,4653;0,0794717
3277,4294;0,0795825
3278,3938;0,0797117
3279,3579;0,0798445
3280,3223;0,0799667
3281,2864;0,0800711
3282,2507;0,0801601
3283,2148;0,0802428
3284,1792;0,0803283
3285,1433;0,0804203
3286,1077;0,0805148
3287,0718;0,0806025
3288,0361;0,0806748
3289,0002;0,0807279
3289,9646;0,0807652
3290,9287;0,0807951
3291,8931;0,0808262
3292,8572;0,0808623
3293,8215;0,0809015
3294,7856;0,0809379
3295,7500;0,0809667
3296,7141;0,0809871
3297,6785;0,0810038
3298,6426;0,0810236
3299,6069;0,0810522
3300,5710;0,0810908
3301,5354;0,0811356
3302,4995;0,0811789
3303,4639;0,0812125
3304,4280;0,0812299
3305,3923;0,0812293
3306,3564;0,0812138
3307,3208;0,0811908
3308,2849;0,0811705
3309,2493;0,0811632
3310,2134;0,0811767
3311,1777;0,0812142
3312,1418;0,0812734
3313,1062;0,0813479
3314,0703;0,0814292
3315,0347;0,0815114
3315,9988;0,081594
3316,9631;0,0816831
3317,9272;0,0817876
3318,8916;0,0819135
3319,8557;0,0820591
3320,8201;0,0822138
3321,7842;0,0823631
3322,7485;0,0824946
3323,7126;0,0826046
3324,6770;0,0826984
3325,6411;0,0827876
3326,6055;0,0828846
3327,5696;0,0829982
3328,5339;0,0831303
3329,4980;0,0832748
3330,4624;0,0834178
3331,4265;0,0835409
3332,3909;0,0836273
3333,3550;0,0836692
3334,3193;0,0836722
3335,2834;0,0836534
3336,2478;0,0836322
3337,2119;0,0836186
3338,1763;0,0836073
3339,1404;0,0835819
3340,1047;0,0835265
3341,0688;0,0834362
3342,0332;0,0833204
3342,9973;0,0831964
3343,9617;0,0830787
3344,9258;0,0829704
3345,8901;0,0828642
3346,8542;0,0827482
3347,8186;0,0826135
3348,7827;0,082458
3349,7471;0,082285
3350,7112;0,0820996
3351,6755;0,0819078
3352,6396;0,0817172
3353,6040;0,0815368
3354,5681;0,0813744
3355,5325;0,0812314
3356,4966;0,0811
3357,4609;0,0809666
3358,4250;0,0808204
3359,3894;0,0806613
3360,3535;0,0805004
3361,3179;0,0803524
3362,2820;0,0802244
3363,2463;0,0801092
3364,2104;0,0799889
3365,1748;0,0798451
3366,1389;0,0796693
3367,1033;0,0794666
3368,0674;0,0792512
3369,0317;0,0790385
3369,9958;0,0788395
3370,9602;0,0786591
3371,9243;0,0784972
3372,8887;0,0783486
3373,8528;0,0782039
3374,8171;0,0780509
3375,7813;0,0778809
3376,7456;0,0776953
3377,7097;0,0775064
3378,6741;0,0773315
3379,6382;0,0771798
3380,6025;0,0770453
3381,5667;0,0769089
3382,5310;0,0767525
3383,4951;0,0765737
3384,4595;0,07639
3385,4236;0,0762278
3386,3879;0,0761032
3387,3521;0,076009
3388,3164;0,0759188
3389,2805;0,075804
3390,2449;0,0756515
3391,2090;0,0754708
3392,1733;0,0752846
3393,1375;0,0751123
3394,1018;0,0749575
3395,0659;0,0748092
3396,0303;0,0746537
3396,9944;0,0744848
3397,9587;0,0743056
3398,9229;0,0741228
3399,8872;0,0739396
3400,8513;0,0737545
3401,8157;0,0735664
3402,7798;0,0733784
3403,7441;0,0731975
3404,7083;0,0730284
3405,6726;0,0728683
3406,6367;0,072707
3407,6011;0,0725313
3408,5652;0,072332
3409,5295;0,072107
3410,4937;0,0718615
3411,4580;0,0716067
3412,4221;0,0713567
3413,3865;0,0711248
3414,3506;0,0709173
3415,3149;0,0707283
3416,2791;0,0705382
3417,2434;0,0703211
3418,2075;0,0700583
3419,1719;0,0697508
3420,1360;0,0694236
3421,1003;0,0691141
3422,0645;0,0688521
3423,0288;0,0686439
3423,9929;0,0684716
3424,9573;0,0683048
3425,9214;0,0681165
3426,8857;0,0678936
3427,8499;0,0676398
3428,8142;0,0673702
3429,7783;0,0671026
3430,7427;0,0668489
3431,7068;0,0666109
3432,6711;0,0663823
3433,6353;0,0661533
3434,5996;0,0659161
3435,5637;0,0656679
3436,5281;0,0654115
3437,4922;0,065154
3438,4565;0,0649052
3439,4207;0,0646739
3440,3850;0,0644631
3441,3491;0,0642638
3442,3135;0,0640541
3443,2776;0,0638056
3444,2419;0,0634977
3445,2061;0,0631331
3446,1704;0,0627442
3447,1345;0,0623799
3448,0989;0,0620787
3449,0630;0,0618461
3450,0273;0,0616541
3450,9915;0,0614615
3451,9558;0,0612387
3452,9199;0,0609811
3453,8843;0,0607078
3454,8484;0,0604451
3455,8127;0,0602084
3456,7769;0,0599918
3457,7412;0,0597744
3458,7053;0,0595351
3459,6697;0,0592657
3460,6338;0,0589758
3461,5981;0,0586841
3462,5623;0,0584054
3463,5266;0,0581403
3464,4907;0,0578768
3465,4551;0,057601
3466,4192;0,0573094
3467,3835;0,0570125
3468,3477;0,0567274
3469,3120;0,0564649
3470,2761;0,0562203
3471,2405;0,055978
3472,2046;0,0557253
3473,1689;0,0554652
3474,1331;0,0552167
3475,0974;0,0550005
3476,0615;0,054819
3477,0259;0,0546491
3477,9900;0,0544528
3478,9543;0,0542005
3479,9185;0,0538916
3480,8828;0,0535582
3481,8469;0,0532451
3482,8113;0,0529792
3483,7754;0,0527519
3484,7397;0,0525287
3485,7039;0,0522746
3486,6682;0,0519789
3487,6323;0,0516621
3488,5967;0,0513628
3489,5608;0,0511116
3490,5251;0,0509111
3491,4893;0,0507361
3492,4536;0,0505518
3493,4177;0,050337
3494,3821;0,0500985
3495,3462;0,049867
3496,3105;0,0496734
3497,2747;0,0495208
3498,2390;0,0493749
3499,2031;0,0491792
3500,1675;0,0488877
3501,1316;0,0484988
3502,0959;0,0480698
3503,0601;0,0476895
3504,0244;0,0474195
3504,9885;0,0472515
3505,9529;0,0471194
3506,9170;0,0469452
3507,8813;0,0466855
3508,8455;0,0463536
3509,8098;0,0460075
3510,7739;0,0457089
3511,7383;0,0454818
3512,7024;0,0453045
3513,6667;0,0451374
3514,6309;0,044956
3515,5952;0,044766
3516,5593;0,0445924
3517,5237;0,0444538
3518,4878;0,0443418
3519,4521;0,044221
3520,4163;0,0440504
3521,3806;0,0438086
3522,3447;0,0435063
3523,3091;0,0431765
3524,2732;0,0428479
3525,2375;0,0425256
3526,2017;0,0421973
3527,1660;0,0418582
3528,1301;0,04153
3529,0945;0,0412531
3530,0586;0,041056
3531,0229;0,0409299
3531,9871;0,0408289
3532,9514;0,0406936
3533,9155;0,0404827
3534,8799;0,0401956
3535,8440;0,0398764
3536,8083;0,0395925
3537,7725;0,0393972
3538,7368;0,0393022
3539,7009;0,0392748
3540,6653;0,0392531
3541,6294;0,0391653
3542,5938;0,0389518
3543,5579;0,0385935
3544,5222;0,0381377
3545,4863;0,0376885
3546,4507;0,0373446
3547,4148;0,0371325
3548,3792;0,0369977
3549,3433;0,0368496
3550,3076;0,0366178
3551,2717;0,0362923
3552,2361;0,0359316
3553,2002;0,0356258
3554,1646;0,0354334
3555,1287;0,0353438
3556,0930;0,0352959
3557,0571;0,0352251
3558,0215;0,0351068
3558,9856;0,0349704
3559,9500;0,0348774
3560,9141;0,0348683
3561,8784;0,0349177
3562,8425;0,0349234
3563,8069;0,0347346
3564,7710;0,0342203
3565,7354;0,0333892
3566,6995;0,0324752
3567,6638;0,0318011
3568,6279;0,0315057
3569,5923;0,0314891
3570,5564;0,0315701
3571,5208;0,0316099
3572,4849;0,0315445
3573,4492;0,0313764
3574,4133;0,0311511
3575,3777;0,0309198
3576,3418;0,0307079
3577,3062;0,0305128
3578,2703;0,0303305
3579,2346;0,0301812
3580,1987;0,0301051
3581,1631;0,0301266
3582,1272;0,0302185
3583,0916;0,03029
3584,0557;0,030207
3585,0200;0,029848
3585,9841;0,029209
3586,9485;0,0284883
3587,9126;0,0279837
3588,8770;0,0278374
3589,8411;0,0279538
3590,8054;0,0281353
3591,7695;0,0282127
3592,7339;0,0280989
3593,6980;0,0278089
3594,6624;0,0274444
3595,6265;0,0271195
3596,5908;0,0268747
3597,5549;0,0266657
3598,5193;0,0264296
3599,4834;0,026158
3600,4478;0,0259134
3601,4119;0,0257763
3602,3762;0,0257723
3603,3403;0,0258483
3604,3047;0,0259035
3605,2688;0,0258396
3606,2332;0,0256076
3607,1973;0,0252393
3608,1616;0,0248312
3609,1257;0,0244751
3610,0901;0,024201
3611,0542;0,0239908
3612,0186;0,023826
3612,9827;0,0237099
3613,9470;0,0236464
3614,9111;0,0236037
3615,8755;0,023504
3616,8396;0,0232568
3617,8040;0,0228301
3618,7681;0,0223201
3619,7324;0,0219283
3620,6965;0,0218186
3621,6609;0,0220089
3622,6250;0,0224019
3623,5894;0,0228626
3624,5535;0,0232441
3625,5178;0,0233752
3626,4819;0,0230759
3627,4463;0,0222831
3628,4104;0,0212414
3629,3748;0,0204003
3630,3389;0,0199812
3631,3032;0,0198639
3632,2673;0,019837
3633,2317;0,0197667
3634,1958;0,0196166
3635,1602;0,0194158
3636,1243;0,0192147
3637,0886;0,0190455
3638,0527;0,0189114
3639,0171;0,0188067
3639,9812;0,0187457
3640,9456;0,0187691
3641,9097;0,0189217
3642,8740;0,0192163
3643,8381;0,0196082
3644,8025;0,0199785
3645,7666;0,0201194
3646,7310;0,0197518
3647,6951;0,0187157
3648,6594;0,0173507
3649,6235;0,0163802
3650,5879;0,0161041
3651,5520;0,0162647
3652,5164;0,0165202
3653,4805;0,0166535
3654,4448;0,0165683
3655,4089;0,0162837
3656,3733;0,015928
3657,3374;0,0156571
3658,3018;0,0155385
3659,2659;0,0155292
3660,2302;0,0155524
3661,1943;0,0155739
3662,1587;0,0156237
3663,1228;0,0157616
3664,0872;0,0160159
3665,0513;0,0163434
3666,0156;0,0166334
3666,9797;0,0167518
3667,9441;0,0166245
3668,9082;0,0163381
3669,8726;0,0161184
3670,8367;0,0161164
3671,8010;0,0162551
3672,7651;0,0163057
3673,7295;0,0160434
3674,6936;0,015412
3675,6580;0,0146405
3676,6221;0,0140826
3677,5864;0,0138806
3678,5505;0,013933
3679,5149;0,0140973
3680,4790;0,0143036
3681,4434;0,0145525
3682,4075;0,0148711
3683,3718;0,0152665
3684,3359;0,0156955
3685,3003;0,0160562
3686,2644;0,0161999
3687,2288;0,0159844
3688,1929;0,0154019
3689,1572;0,0146925
3690,1213;0,0141962
3691,0857;0,0140474
3692,0498;0,0141517
3693,0142;0,0143699
3693,9783;0,0146187
3694,9426;0,0148662
3695,9067;0,0150993
3696,8711;0,0152955
3697,8352;0,0154128
3698,7996;0,0154024
3699,7637;0,0152449
3700,7280;0,0149931
3701,6921;0,0147746
3702,6565;0,0147235
3703,6206;0,0148937
3704,5850;0,0152424
3705,5491;0,0156712
3706,5134;0,0160585
3707,4775;0,0162628
3708,4419;0,0161323
3709,4060;0,0155803
3710,3704;0,0147335
3711,3345;0,0139511
3712,2988;0,0135425
3713,2629;0,0135373
3714,2273;0,0137871
3715,1914;0,0141385
3716,1558;0,0144904
3717,1199;0,0147875
3718,0842;0,0150093
3719,0483;0,015163
3720,0127;0,0152687
3720,9768;0,0153373
3721,9412;0,0153592
3722,9053;0,0153203
3723,8696;0,0152375
3724,8337;0,0151736
3725,7981;0,0152082
3726,7622;0,0153864
3727,7266;0,0156973
3728,6907;0,0160878
3729,6550;0,0164821
3730,6191;0,0167849
3731,5835;0,016876
3732,5476;0,0166293
3733,5120;0,0160016
3734,4761;0,0151666
3735,4404;0,0144843
3736,4045;0,014216
3737,3689;0,0143578
3738,3330;0,0147594
3739,2974;0,0152622
3740,2615;0,015726
3741,2258;0,0160142
3742,1899;0,0160141
3743,1543;0,0157346
3744,1184;0,0153926
3745,0828;0,0152695
3746,0469;0,0154304
3747,0112;0,0156876
3747,9753;0,0157599
3748,9397;0,0154169
3749,9038;0,0146588
3750,8682;0,0138479
3751,8323;0,013425
3752,7966;0,0134728
3753,7607;0,0137753
3754,7251;0,0140943
3755,6892;0,0142716
3756,6536;0,0142373
3757,6177;0,0140277
3758,5820;0,0137834
3759,5461;0,0136606
3760,5105;0,0137187
3761,4746;0,0139066
3762,4390;0,0141322
3763,4031;0,0143205
3764,3674;0,0144314
3765,3315;0,0144533
3766,2959;0,0143855
3767,2600;0,0142264
3768,2244;0,0139831
3769,1885;0,013698
3770,1528;0,0134583
3771,1169;0,0133566
3772,0813;0,0134335
3773,0454;0,013657
3774,0098;0,0139439
3774,9739;0,0141933
3775,9382;0,0143151
3776,9023;0,0142654
3777,8667;0,0140816
3778,8308;0,0138749
3779,7952;0,0137522
3780,7593;0,0137391
3781,7236;0,0137837
3782,6877;0,013815
3783,6521;0,013791
3784,6162;0,0137141
3785,5806;0,0136201
3786,5447;0,0135521
3787,5090;0,0135398
3788,4731;0,0135946
3789,4375;0,0137137
3790,4016;0,0138826
3791,3660;0,0140764
3792,3301;0,0142661
3793,2944;0,0144321
3794,2585;0,0145803
3795,2229;0,0147395
3796,1870;0,0149321
3797,1514;0,0151348
3798,1155;0,0152671
3799,0798;0,0152315
3800,0439;0,0149983
3801,0083;0,0146669
3801,9724;0,0144001
3802,9368;0,0142705
3803,9009;0,0142099
3804,8652;0,0140955
3805,8293;0,013863
3806,7937;0,0135783
3807,7578;0,0134059
3808,7222;0,013476
3809,6863;0,0137894
3810,6506;0,0142489
3811,6147;0,0147273
3812,5791;0,0151078
3813,5432;0,0153152
3814,5076;0,0153582
3815,4717;0,0153317
3816,4360;0,0153246
3817,4001;0,0153188
3818,3645;0,0152026
3819,3286;0,0148851
3820,2930;0,0144115
3821,2571;0,0139635
3822,2214;0,0137049
3823,1855;0,0136591
3824,1499;0,0137513
3825,1140;0,0139007
3826,0784;0,0140617
3827,0425;0,0142219
3828,0068;0,0143863
3828,9709;0,0145618
3829,9353;0,0147516
3830,8994;0,0149576
3831,8638;0,0151818
3832,8279;0,0154161
3833,7922;0,0156254
3834,7563;0,0157393
3835,7207;0,0156725
3836,6848;0,015378
3837,6492;0,0149082
3838,6133;0,0144087
3839,5776;0,0140175
3840,5417;0,0137776
3841,5061;0,0136564
3842,4702;0,0136171
3843,4346;0,0136606
3844,3987;0,0138192
3845,3630;0,0141279
3846,3271;0,0145982
3847,2915;0,015209
3848,2556;0,0158988
3849,2200;0,0165445
3850,1841;0,0169261
3851,1484;0,0167371
3852,1125;0,0158071
3853,0769;0,0145146
3854,0410;0,0136011
3855,0054;0,0133453
3855,9695;0,013531
3856,9338;0,0139102
3857,8979;0,0143402
3858,8623;0,0147313
3859,8264;0,0150045
3860,7908;0,0150975
3861,7549;0,01501
3862,7192;0,0148415
3863,6833;0,0147476
3864,6477;0,0148233
3865,6118;0,0150377
3866,5762;0,015274
3867,5403;0,0153987
3868,5046;0,0153157
3869,4688;0,015011
3870,4331;0,0145759
3871,3972;0,0141684
3872,3616;0,0139236
3873,3257;0,0138919
3874,2900;0,0140441
3875,2542;0,0143079
3876,2185;0,0145974
3877,1826;0,0148326
3878,1470;0,0149595
3879,1111;0,0149725
3880,0754;0,0149173
3881,0396;0,0148518
3882,0039;0,0147945
3882,9680;0,0147214
3883,9324;0,0146166
3884,8965;0,0145132
3885,8608;0,0144737
3886,8250;0,0145247
3887,7893;0,01462
3888,7534;0,0146628
3889,7178;0,0145689
3890,6819;0,0143442
3891,6462;0,0141174
3892,6104;0,0140571
3893,5747;0,0142343
3894,5388;0,0145942
3895,5032;0,0150248
3896,4673;0,0154163
3897,4316;0,0156844
3898,3958;0,0157846
3899,3601;0,0157156
3900,3242;0,015499
3901,2886;0,0151549
3902,2527;0,0147159
3903,2170;0,0142603
3904,1812;0,0138971
3905,1455;0,0136978
3906,1096;0,0136584
3907,0740;0,0137253
3908,0381;0,013841
3909,0024;0,0139708
3909,9666;0,0141075
3910,9309;0,0142611
3911,8950;0,0144378
3912,8594;0,014621
3913,8235;0,0147666
3914,7878;0,0148221
3915,7520;0,014764
3916,7163;0,0146287
3917,6804;0,0145006
3918,6448;0,0144517
3919,6089;0,0144888
3920,5732;0,0145588
3921,5374;0,0145925
3922,5017;0,0145502
3923,4658;0,0144504
3924,4302;0,0143608
3925,3943;0,0143482
3926,3586;0,0144268
3927,3228;0,01455
3928,2871;0,014641
3929,2512;0,0146342
3930,2156;0,0145112
3931,1797;0,0143179
3932,1440;0,014138
3933,1082;0,0140391
3934,0725;0,0140392
3935,0366;0,0141184
3936,0010;0,014245
3936,9651;0,0143881
3937,9294;0,0145175
3938,8936;0,0146025
3939,8579;0,0146206
3940,8220;0,0145736
3941,7864;0,0144961
3942,7505;0,0144407
3943,7148;0,0144435
3944,6790;0,0144985
3945,6433;0,0145634
3946,6074;0,0145866
3947,5718;0,0145391
3948,5359;0,0144335
3949,5002;0,0143164
3950,4644;0,0142352
3951,4287;0,0142082
3952,3928;0,0142214
3953,3572;0,0142479
3954,3213;0,0142688
3955,2856;0,0142811
3956,2498;0,014293
3957,2141;0,0143109
3958,1782;0,0143302
3959,1426;0,0143378
3960,1067;0,0143227
3961,0710;0,0142871
3962,0352;0,0142473
3962,9995;0,0142245
3963,9636;0,0142321
3964,9280;0,0142693
3965,8921;0,0143238
3966,8564;0,0143796
3967,8206;0,014424
3968,7849;0,0144513
3969,7490;0,0144617
3970,7134;0,0144578
3971,6775;0,0144428
3972,6418;0,0144205
3973,6060;0,0143965
3974,5703;0,0143782
3975,5344;0,0143715
3976,4988;0,0143784
3977,4629;0,0143952
3978,4272;0,0144149
3979,3914;0,0144308
3980,3557;0,0144395
3981,3198;0,0144424
3982,2842;0,0144439
3983,2483;0,0144494
3984,2126;0,0144615
3985,1768;0,0144791
3986,1411;0,0144972
3987,1052;0,0145091
3988,0696;0,0145094
3989,0337;0,0144964
3989,9980;0,0144741
3990,9622;0,0144507
3991,9265;0,0144348
3992,8906;0,0144317
3993,8550;0,0144413
3994,8191;0,0144587
3995,7834;0,0144758
3996,7476;0,0144858
3997,7119;0,0144846
3998,6760;0,0144729
3999,6404;0,0144555
4000,6045;0,0143149

##### Extended Information
[Comments]
Sample name
Comment
Username
Division
Organization;UNIVERSIDAD INDUSTRIAL DE SANTANDER

[Detailed Information]
Creation date;10/03/2025 7:45 p.m.

Data array type;Linear data array
Horizontal axis;Wavenumber [cm-1]
Vertical axis;Abs
Start;399,193 cm-1
End;4000,6 cm-1
Data interval;0,964233 cm-1
Data points;3736    

[Measurement Information]
Model name;FT/IR-4X1typeA
Serial No.;A035162111

Accessory;ATR PRO 4X
Accessory S/N;A021162126
Incident angle;45 deg

Measurement date;10/03/2025 7:45 p.m.

Light source;Standard
Detector;TGS
Accumulation;40
Resolution;4 cm-1
Zero filling;On
Apodization;Cosine
Gain;Auto (8)
Aperture;Auto (7 mm)
Scan speed;Auto (2 mm/sec)
Filter;Auto (12800 Hz)

