TITLE;
DATA TYPE;INFRARED SPECTRUM
ORIGIN;JASCO
OWNER;
DATE;25/03/10
TIME;19:50:40
SPECTROMETER/DATA SYSTEM;
LOCALE;9226
RESOLUTION;
DELTAX;0,964233
XUNITS;1/CM
YUNITS;ABSORBANCE
FIRSTX;  399,1927
LASTX; 4000,6047
NPOINTS;    3736
FIRSTY;     0,16587
MAXY;     0,24930
MINY;     0,01391
XYDATA
399,1927;0,165867
400,1569;0,164278
401,1211;0,163257
402,0854;0,162933
403,0496;0,163132
404,0138;0,163608
404,9781;0,164107
405,9423;0,16439
406,9065;0,164284
407,8708;0,163762
408,8350;0,162993
409,7992;0,162347
410,7635;0,162282
411,7277;0,16313
412,6919;0,16488
413,6562;0,167161
414,6204;0,169421
415,5846;0,171104
416,5489;0,171732
417,5131;0,171094
418,4773;0,16965
419,4416;0,16858
420,4058;0,168728
421,3700;0,169835
422,3343;0,171162
423,2985;0,172187
424,2627;0,172772
425,2270;0,173076
426,1912;0,17338
427,1554;0,173867
428,1197;0,174486
429,0839;0,175002
430,0481;0,175169
431,0124;0,174913
431,9766;0,174403
432,9408;0,173953
433,9051;0,173814
434,8693;0,173994
435,8335;0,174254
436,7978;0,174282
437,7620;0,173924
438,7262;0,173278
439,6905;0,172619
440,6547;0,172239
441,6189;0,172299
442,5832;0,172747
443,5474;0,173345
444,5116;0,17382
445,4759;0,174017
446,4401;0,173937
447,4043;0,173647
448,3686;0,173184
449,3328;0,172534
450,2970;0,171683
451,2613;0,170689
452,2255;0,169709
453,1897;0,168944
454,1540;0,168543
455,1182;0,168529
456,0824;0,168778
457,0467;0,16906
458,0109;0,169158
458,9751;0,169001
459,9394;0,168684
460,9036;0,168345
461,8678;0,168049
462,8321;0,167776
463,7963;0,167484
464,7605;0,167174
465,7248;0,166917
466,6890;0,16681
467,6532;0,166902
468,6175;0,167133
469,5817;0,167354
470,5459;0,167403
471,5102;0,167207
472,4744;0,166863
473,4386;0,166586
474,4029;0,166565
475,3671;0,166844
476,3313;0,167332
477,2956;0,167878
478,2598;0,16835
479,2240;0,168673
480,1883;0,168844
481,1525;0,168911
482,1167;0,168946
483,0810;0,169018
484,0452;0,169175
485,0094;0,169436
485,9737;0,1698
486,9379;0,170265
487,9021;0,170831
488,8664;0,171497
489,8306;0,172236
490,7948;0,172985
491,7591;0,173643
492,7233;0,174116
493,6875;0,174364
494,6518;0,174427
495,6160;0,174407
496,5802;0,174426
497,5445;0,174583
498,5087;0,17493
499,4729;0,17546
500,4372;0,176109
501,4014;0,176771
502,3656;0,177351
503,3299;0,177806
504,2941;0,178163
505,2583;0,178486
506,2226;0,178817
507,1868;0,179155
508,1510;0,179464
509,1153;0,179726
510,0795;0,17997
511,0437;0,180267
512,0080;0,180692
512,9722;0,18127
513,9365;0,181961
514,9007;0,182675
515,8649;0,183304
516,8292;0,183763
517,7934;0,184025
518,7576;0,184128
519,7219;0,18415
520,6861;0,184176
521,6503;0,184266
522,6146;0,184453
523,5788;0,184737
524,5430;0,185082
525,5073;0,185414
526,4715;0,185654
527,4357;0,185755
528,4000;0,185723
529,3642;0,185595
530,3284;0,1854
531,2927;0,185141
532,2569;0,184802
533,2211;0,184377
534,1854;0,183894
535,1496;0,183417
536,1138;0,183026
537,0781;0,182781
538,0423;0,182698
539,0065;0,182742
539,9708;0,182848
540,9350;0,182954
541,8992;0,18302
542,8635;0,183044
543,8277;0,183047
544,7919;0,183064
545,7562;0,183132
546,7204;0,183279
547,6846;0,18352
548,6489;0,183859
549,6131;0,184281
550,5773;0,184763
551,5416;0,185281
552,5058;0,18582
553,4700;0,186381
554,4343;0,186962
555,3985;0,187539
556,3627;0,18805
557,3270;0,188395
558,2912;0,188474
559,2554;0,188226
560,2197;0,187652
561,1839;0,186825
562,1481;0,185853
563,1124;0,184843
564,0766;0,183867
565,0408;0,182959
566,0051;0,182127
566,9693;0,181377
567,9335;0,180721
568,8978;0,18018
569,8620;0,17976
570,8262;0,179447
571,7905;0,179216
572,7547;0,179037
573,7189;0,178894
574,6832;0,178774
575,6474;0,178667
576,6116;0,178549
577,5759;0,178395
578,5401;0,178186
579,5043;0,177929
580,4686;0,17766
581,4328;0,177434
582,3970;0,177293
583,3613;0,177249
584,3255;0,177274
585,2897;0,177314
586,2540;0,177327
587,2182;0,177299
588,1824;0,177253
589,1467;0,177223
590,1109;0,177229
591,0751;0,177253
592,0394;0,177241
593,0036;0,177128
593,9678;0,176878
594,9321;0,176507
595,8963;0,176074
596,8605;0,175649
597,8248;0,175289
598,7890;0,175007
599,7532;0,174771
600,7175;0,174523
601,6817;0,174209
602,6459;0,173808
603,6102;0,173338
604,5744;0,172844
605,5386;0,17237
606,5029;0,171938
607,4671;0,171542
608,4313;0,171152
609,3956;0,170736
610,3598;0,170272
611,3240;0,169759
612,2883;0,169208
613,2525;0,168637
614,2167;0,16805
615,1810;0,167439
616,1452;0,166773
617,1094;0,166007
618,0737;0,165103
619,0379;0,164041
620,0021;0,162839
620,9664;0,161546
621,9306;0,160235
622,8948;0,158987
623,8591;0,157876
624,8233;0,156937
625,7875;0,156167
626,7518;0,155516
627,7160;0,154919
628,6802;0,154323
629,6445;0,153701
630,6087;0,153049
631,5729;0,152373
632,5372;0,151682
633,5014;0,150994
634,4656;0,150342
635,4299;0,14977
636,3941;0,149314
637,3583;0,148977
638,3226;0,148719
639,2868;0,148467
640,2510;0,148153
641,2153;0,147747
642,1795;0,147271
643,1437;0,146793
644,1080;0,146387
645,0722;0,146096
646,0364;0,145911
647,0007;0,145777
647,9649;0,14563
648,9291;0,145428
649,8934;0,145179
650,8576;0,144929
651,8218;0,144731
652,7861;0,144614
653,7503;0,144574
654,7145;0,144587
655,6788;0,14464
656,6430;0,144739
657,6072;0,144895
658,5715;0,145089
659,5357;0,145244
660,4999;0,145254
661,4642;0,145048
662,4284;0,144653
663,3926;0,144179
664,3569;0,143757
665,3211;0,143496
666,2853;0,143434
667,2496;0,143434
668,2138;0,143107
669,1780;0,142143
670,1423;0,140733
671,1065;0,13924
672,0707;0,137793
673,0350;0,136346
673,9992;0,134831
674,9634;0,133235
675,9277;0,131602
676,8919;0,130005
677,8561;0,128494
678,8204;0,127077
679,7846;0,125753
680,7488;0,124533
681,7131;0,123446
682,6773;0,12251
683,6415;0,121717
684,6058;0,121032
685,5700;0,120412
686,5342;0,119822
687,4985;0,119245
688,4627;0,118678
689,4269;0,11813
690,3912;0,117612
691,3554;0,117135
692,3196;0,116701
693,2839;0,116302
694,2481;0,11592
695,2123;0,115538
696,1766;0,115142
697,1408;0,114725
698,1050;0,114286
699,0693;0,11383
700,0335;0,113361
700,9977;0,11288
701,9620;0,112384
702,9262;0,111867
703,8904;0,111329
704,8547;0,110776
705,8189;0,110223
706,7831;0,109687
707,7474;0,109176
708,7116;0,108689
709,6758;0,108214
710,6401;0,107734
711,6043;0,107229
712,5685;0,106684
713,5328;0,1061
714,4970;0,105492
715,4612;0,10483
716,4255;0,104271
717,3897;0,10375
718,3539;0,103236
719,3182;0,10267
720,2824;0,101998
721,2466;0,101212
722,2109;0,100352
723,1751;0,0994825
724,1393;0,0986507
725,1036;0,097864
726,0678;0,097097
727,0320;0,0963182
727,9963;0,0955184
728,9605;0,0947203
729,9247;0,093965
730,8890;0,0932852
731,8532;0,092687
732,8174;0,0921494
733,7817;0,0916392
734,7459;0,0911294
735,7101;0,0906096
736,6744;0,0900854
737,6386;0,0895697
738,6028;0,0890735
739,5671;0,0886019
740,5313;0,0881534
741,4955;0,087723
742,4598;0,0873047
743,4240;0,0868929
744,3882;0,0864832
745,3525;0,0860724
746,3167;0,085658
747,2809;0,0852375
748,2452;0,084808
749,2094;0,0843664
750,1736;0,0839108
751,1379;0,0834409
752,1021;0,0829592
753,0663;0,0824706
754,0306;0,0819814
754,9948;0,0814984
755,9590;0,0810284
756,9233;0,0805765
757,8875;0,0801456
758,8517;0,0797355
759,8160;0,0793435
760,7802;0,0789663
761,7444;0,0786022
762,7087;0,0782523
763,6729;0,0779182
764,6371;0,0775996
765,6014;0,0772913
766,5656;0,0769841
767,5298;0,0766685
768,4941;0,076339
769,4583;0,0759966
770,4225;0,0756473
771,3868;0,0752983
772,3510;0,0749554
773,3152;0,0746231
774,2795;0,0743072
775,2437;0,0740162
776,2079;0,0737584
777,1722;0,0735362
778,1364;0,0733397
779,1006;0,0731473
780,0649;0,0729325
781,0291;0,0726754
781,9933;0,0723702
782,9576;0,0720258
783,9218;0,0716599
784,8860;0,0712912
785,8503;0,0709344
786,8145;0,0705999
787,7787;0,0702944
788,7430;0,070021
789,7072;0,0697778
790,6714;0,0695587
791,6357;0,0693569
792,5999;0,0691698
793,5641;0,0689992
794,5284;0,0688471
795,4926;0,0687095
796,4568;0,0685739
797,4211;0,0684257
798,3853;0,0682585
799,3495;0,0680803
800,3138;0,0679096
801,2780;0,0677631
802,2422;0,0676437
803,2065;0,0675376
804,1707;0,0674219
805,1349;0,0672784
806,0992;0,0671025
807,0634;0,0669034
808,0276;0,0666976
808,9919;0,0665
809,9561;0,0663181
810,9203;0,0661508
811,8846;0,0659912
812,8488;0,0658295
813,8130;0,0656583
814,7773;0,0654753
815,7415;0,0652856
816,7057;0,0651002
817,6700;0,0649316
818,6342;0,0647893
819,5984;0,064675
820,5627;0,0645821
821,5269;0,0644962
822,4911;0,0643984
823,4554;0,0642702
824,4196;0,0641
825,3839;0,0638899
826,3481;0,0636575
827,3123;0,0634323
828,2766;0,0632445
829,2408;0,0631122
830,2050;0,0630326
831,1693;0,062983
832,1335;0,0629297
833,0977;0,0628408
834,0620;0,0626956
835,0262;0,0624886
835,9904;0,0622283
836,9547;0,0619332
837,9189;0,061627
838,8831;0,0613324
839,8474;0,0610665
840,8116;0,0608366
841,7758;0,0606396
842,7401;0,0604652
843,7043;0,060301
844,6685;0,0601371
845,6328;0,0599686
846,5970;0,0597949
847,5612;0,0596198
848,5255;0,059451
849,4897;0,0592992
850,4539;0,0591753
851,4182;0,0590856
852,3824;0,0590271
853,3466;0,0589873
854,3109;0,0589497
855,2751;0,0589021
856,2393;0,0588429
857,2036;0,0587813
858,1678;0,0587312
859,1320;0,0587022
860,0963;0,0586954
861,0605;0,0587048
862,0247;0,0587236
862,9890;0,0587517
863,9532;0,0587976
864,9174;0,0588755
865,8817;0,0589977
866,8459;0,0591671
867,8101;0,0593742
868,7744;0,0595984
869,7386;0,0598154
870,7028;0,0600064
871,6671;0,0601654
872,6313;0,0603012
873,5955;0,0604322
874,5598;0,0605759
875,5240;0,0607389
876,4882;0,0609128
877,4525;0,0610793
878,4167;0,0612225
879,3809;0,0613411
880,3452;0,0614546
881,3094;0,0615985
882,2736;0,0618137
883,2379;0,0621332
884,2021;0,0625732
885,1663;0,0631325
886,1306;0,0637953
887,0948;0,064539
888,0590;0,0653401
889,0233;0,0661781
889,9875;0,0670371
890,9517;0,0679024
891,9160;0,068755
892,8802;0,0695665
893,8444;0,0702971
894,8087;0,0709008
895,7729;0,071337
896,7371;0,0715818
897,7014;0,0716343
898,6656;0,0715114
899,6298;0,0712362
900,5941;0,0708265
901,5583;0,0702921
902,5225;0,0696428
903,4868;0,0689011
904,4510;0,0681091
905,4152;0,0673244
906,3795;0,0666055
907,3437;0,0659943
908,3079;0,0655063
909,2722;0,0651321
910,2364;0,0648481
911,2007;0,0646288
912,1649;0,0644558
913,1292;0,064322
914,0934;0,0642306
915,0576;0,0641917
916,0219;0,0642168
916,9861;0,0643113
917,9503;0,0644683
918,9146;0,064667
919,8788;0,0648791
920,8430;0,0650806
921,8073;0,065262
922,7715;0,065431
923,7357;0,0656045
924,7000;0,0657962
925,6642;0,066008
926,6284;0,0662298
927,5927;0,0664484
928,5569;0,0666568
929,5211;0,0668577
930,4854;0,0670592
931,4496;0,0672679
932,4138;0,0674842
933,3781;0,0677049
934,3423;0,0679299
935,3065;0,0681669
936,2708;0,0684309
937,2350;0,068738
938,1992;0,0690981
939,1635;0,0695118
940,1277;0,0699725
941,0919;0,070473
942,0562;0,0710096
943,0204;0,0715844
943,9846;0,0722029
944,9489;0,0728718
945,9131;0,0735981
946,8773;0,0743882
947,8416;0,0752463
948,8058;0,0761704
949,7700;0,0771507
950,7343;0,0781724
951,6985;0,0792248
952,6627;0,080311
953,6270;0,0814506
954,5912;0,0826714
955,5554;0,0839927
956,5197;0,0854126
957,4839;0,0869065
958,4481;0,0884401
959,4124;0,0899879
960,3766;0,0915447
961,3408;0,093123
962,3051;0,0947393
963,2693;0,0964004
964,2335;0,0980977
965,1978;0,0998139
966,1620;0,101534
967,1262;0,103255
968,0905;0,104992
969,0547;0,106776
970,0189;0,108651
970,9832;0,110662
971,9474;0,112854
972,9116;0,115261
973,8759;0,117904
974,8401;0,120791
975,8043;0,123928
976,7686;0,127316
977,7328;0,130953
978,6970;0,134817
979,6613;0,138856
980,6255;0,14298
981,5897;0,147076
982,5540;0,151018
983,5182;0,154702
984,4824;0,158054
985,4467;0,161044
986,4109;0,163678
987,3751;0,165991
988,3394;0,16803
989,3036;0,169845
990,2678;0,171475
991,2321;0,172948
992,1963;0,174276
993,1605;0,17547
994,1248;0,176547
995,0890;0,177537
996,0532;0,17848
997,0175;0,179421
997,9817;0,180392
998,9459;0,18141
999,9102;0,18247
1000,8744;0,183564
1001,8386;0,18469
1002,8029;0,185867
1003,7671;0,187132
1004,7313;0,188534
1005,6956;0,190122
1006,6598;0,191934
1007,6240;0,19399
1008,5883;0,196295
1009,5525;0,198839
1010,5167;0,201595
1011,4810;0,204524
1012,4452;0,207574
1013,4094;0,21068
1014,3737;0,213778
1015,3379;0,21681
1016,3021;0,219734
1017,2664;0,222524
1018,2306;0,225174
1019,1948;0,227685
1020,1591;0,230064
1021,1233;0,23232
1022,0875;0,234461
1023,0518;0,236498
1024,0160;0,238446
1024,9802;0,24032
1025,9445;0,242132
1026,9087;0,243872
1027,8729;0,245508
1028,8372;0,246972
1029,8014;0,248169
1030,7656;0,248984
1031,7299;0,249304
1032,6941;0,249037
1033,6583;0,248143
1034,6226;0,246649
1035,5868;0,244662
1036,5510;0,242353
1037,5153;0,239932
1038,4795;0,237605
1039,4437;0,235545
1040,4080;0,233859
1041,3722;0,232588
1042,3364;0,231712
1043,3007;0,231158
1044,2649;0,230826
1045,2291;0,230602
1046,1934;0,230384
1047,1576;0,230094
1048,1218;0,229678
1049,0861;0,229107
1050,0503;0,228351
1051,0145;0,227381
1051,9788;0,226163
1052,9430;0,224677
1053,9072;0,222927
1054,8715;0,220941
1055,8357;0,218751
1056,7999;0,216359
1057,7642;0,213729
1058,7284;0,210791
1059,6926;0,207488
1060,6569;0,203815
1061,6211;0,19985
1062,5853;0,195738
1063,5496;0,191654
1064,5138;0,187754
1065,4780;0,184134
1066,4423;0,180827
1067,4065;0,17781
1068,3707;0,175034
1069,3350;0,172445
1070,2992;0,169992
1071,2634;0,167634
1072,2277;0,165332
1073,1919;0,163047
1074,1561;0,160741
1075,1204;0,158382
1076,0846;0,155965
1077,0488;0,153511
1078,0131;0,151076
1078,9773;0,148734
1079,9415;0,146561
1080,9058;0,144611
1081,8700;0,142905
1082,8342;0,141436
1083,7985;0,140176
1084,7627;0,139092
1085,7269;0,138158
1086,6912;0,137353
1087,6554;0,136667
1088,6196;0,136094
1089,5839;0,13563
1090,5481;0,135267
1091,5123;0,134998
1092,4766;0,134811
1093,4408;0,134695
1094,4050;0,134646
1095,3693;0,134668
1096,3335;0,134763
1097,2977;0,134933
1098,2620;0,135165
1099,2262;0,135431
1100,1904;0,135697
1101,1547;0,135924
1102,1189;0,136084
1103,0831;0,136156
1104,0474;0,136133
1105,0116;0,13601
1105,9758;0,135786
1106,9401;0,135459
1107,9043;0,135024
1108,8685;0,134471
1109,8328;0,133777
1110,7970;0,132914
1111,7612;0,13185
1112,7255;0,130571
1113,6897;0,129098
1114,6539;0,127491
1115,6182;0,125839
1116,5824;0,124238
1117,5466;0,122758
1118,5109;0,121423
1119,4751;0,120205
1120,4393;0,119034
1121,4036;0,117817
1122,3678;0,116469
1123,3320;0,114921
1124,2963;0,113144
1125,2605;0,111142
1126,2247;0,108953
1127,1890;0,106634
1128,1532;0,104245
1129,1174;0,101838
1130,0817;0,0994448
1131,0459;0,0970855
1132,0101;0,0947758
1132,9744;0,0925404
1133,9386;0,0904191
1134,9028;0,0884644
1135,8671;0,0867317
1136,8313;0,0852664
1137,7955;0,0840939
1138,7598;0,0832171
1139,7240;0,0826196
1140,6882;0,0822727
1141,6525;0,0821426
1142,6167;0,0821948
1143,5809;0,0823964
1144,5452;0,082717
1145,5094;0,0831303
1146,4736;0,0836174
1147,4379;0,0841686
1148,4021;0,0847832
1149,3663;0,0854648
1150,3306;0,086213
1151,2948;0,0870158
1152,2590;0,0878458
1153,2233;0,0886623
1154,1875;0,0894172
1155,1517;0,0900612
1156,1160;0,0905461
1157,0802;0,0908231
1158,0444;0,0908389
1159,0087;0,090533
1159,9729;0,0898408
1160,9371;0,0887045
1161,9014;0,0870882
1162,8656;0,0849941
1163,8298;0,0824715
1164,7941;0,0796152
1165,7583;0,0765515
1166,7225;0,0734168
1167,6868;0,0703345
1168,6510;0,067399
1169,6152;0,0646694
1170,5795;0,0621734
1171,5437;0,0599183
1172,5079;0,0579017
1173,4722;0,0561186
1174,4364;0,0545618
1175,4006;0,0532197
1176,3649;0,052073
1177,3291;0,0510958
1178,2933;0,0502597
1179,2576;0,0495396
1180,2218;0,0489173
1181,1860;0,0483829
1182,1503;0,0479328
1183,1145;0,0475667
1184,0787;0,0472848
1185,0430;0,0470862
1186,0072;0,0469689
1186,9714;0,0469301
1187,9357;0,0469678
1188,8999;0,0470821
1189,8641;0,0472762
1190,8284;0,0475557
1191,7926;0,0479258
1192,7568;0,048387
1193,7211;0,0489324
1194,6853;0,0495459
1195,6495;0,0502056
1196,6138;0,0508881
1197,5780;0,0515746
1198,5422;0,0522538
1199,5065;0,0528694
1200,4707;0,0535332
1201,4349;0,0541881
1202,3992;0,0548315
1203,3634;0,0554567
1204,3276;0,0560544
1205,2919;0,0566169
1206,2561;0,0571437
1207,2203;0,0576454
1208,1846;0,0581441
1209,1488;0,0586703
1210,1130;0,0592547
1211,0773;0,0599209
1212,0415;0,0606792
1213,0057;0,0615259
1213,9700;0,0624464
1214,9342;0,0634217
1215,8984;0,064432
1216,8627;0,0654593
1217,8269;0,0664861
1218,7911;0,0674974
1219,7554;0,0684809
1220,7196;0,0694283
1221,6838;0,0703351
1222,6481;0,0711993
1223,6123;0,0720192
1224,5765;0,0727929
1225,5408;0,0735197
1226,5050;0,0742018
1227,4692;0,0748435
1228,4335;0,0754494
1229,3977;0,0760206
1230,3619;0,0765533
1231,3262;0,0770392
1232,2904;0,0774701
1233,2546;0,0778416
1234,2189;0,0781554
1235,1831;0,0784187
1236,1473;0,0786401
1237,1116;0,0788253
1238,0758;0,0789751
1239,0400;0,0790855
1240,0043;0,0791517
1240,9685;0,0791703
1241,9327;0,0791419
1242,8970;0,0790686
1243,8612;0,0789514
1244,8254;0,0787872
1245,7897;0,0785705
1246,7539;0,0782967
1247,7181;0,0779671
1248,6824;0,0775909
1249,6466;0,077183
1250,6108;0,0767598
1251,5751;0,0763353
1252,5393;0,0759192
1253,5035;0,0755158
1254,4678;0,0751242
1255,4320;0,0747373
1256,3962;0,0743425
1257,3605;0,0739251
1258,3247;0,0734731
1259,2889;0,0729817
1260,2532;0,072453
1261,2174;0,071892
1262,1816;0,0713006
1263,1459;0,0706761
1264,1101;0,070014
1265,0743;0,0693128
1266,0386;0,0685763
1267,0028;0,0678109
1267,9670;0,0670218
1268,9313;0,0662105
1269,8955;0,0653777
1270,8597;0,0645269
1271,8240;0,0636678
1272,7882;0,0628144
1273,7524;0,0619807
1274,7167;0,0611776
1275,6809;0,0604115
1276,6451;0,0596861
1277,6094;0,0590016
1278,5736;0,0583538
1279,5378;0,0577332
1280,5021;0,057127
1281,4663;0,0565248
1282,4305;0,0559228
1283,3948;0,0553264
1284,3590;0,054747
1285,3232;0,0541989
1286,2875;0,0536948
1287,2517;0,053245
1288,2159;0,0528569
1289,1802;0,0525353
1290,1444;0,0522815
1291,1086;0,0520934
1292,0729;0,0519665
1293,0371;0,0518958
1294,0013;0,0518785
1294,9656;0,0519156
1295,9298;0,0520123
1296,8940;0,0521773
1297,8583;0,05242
1298,8225;0,0527463
1299,7867;0,0531546
1300,7510;0,0536332
1301,7152;0,0541636
1302,6794;0,0547266
1303,6437;0,05531
1304,6079;0,0559131
1305,5721;0,0565435
1306,5364;0,0572092
1307,5006;0,0579109
1308,4648;0,0586403
1309,4291;0,0593835
1310,3933;0,060126
1311,3575;0,060854
1312,3218;0,0615518
1313,2860;0,0621984
1314,2502;0,062766
1315,2145;0,0632223
1316,1787;0,0635366
1317,1429;0,0636875
1318,1072;0,0636734
1319,0714;0,0635184
1320,0356;0,063269
1320,9999;0,0629766
1321,9641;0,0626804
1322,9283;0,0623999
1323,8926;0,06214
1324,8568;0,0619009
1325,8210;0,0616841
1326,7853;0,0614925
1327,7495;0,0613253
1328,7137;0,0611743
1329,6780;0,0610236
1330,6422;0,0608553
1331,6064;0,060656
1332,5707;0,0604201
1333,5349;0,0601464
1334,4991;0,0598287
1335,4634;0,0594479
1336,4276;0,0589735
1337,3918;0,0583788
1338,3561;0,0576724
1339,3203;0,0569202
1340,2845;0,0562231
1341,2488;0,0556558
1342,2130;0,0552289
1343,1772;0,0549055
1344,1415;0,0546416
1345,1057;0,0544135
1346,0699;0,0542243
1347,0342;0,0540962
1347,9984;0,0540554
1348,9626;0,0541174
1349,9269;0,0542806
1350,8911;0,0545278
1351,8553;0,0548359
1352,8196;0,055186
1353,7838;0,0555699
1354,7480;0,0559912
1355,7123;0,0564567
1356,6765;0,0569664
1357,6407;0,0575082
1358,6050;0,0580627
1359,5692;0,0586116
1360,5334;0,0591426
1361,4977;0,0596509
1362,4619;0,0601403
1363,4261;0,060621
1364,3904;0,0610997
1365,3546;0,0615686
1366,3188;0,0620078
1367,2831;0,0623936
1368,2473;0,062707
1369,2115;0,0629365
1370,1758;0,0630749
1371,1400;0,0631099
1372,1042;0,0630201
1373,0685;0,0627839
1374,0327;0,0624035
1374,9969;0,0619192
1375,9612;0,061384
1376,9254;0,0608165
1377,8896;0,0601878
1378,8539;0,0594566
1379,8181;0,0586169
1380,7823;0,0577179
1381,7466;0,0568349
1382,7108;0,0560118
1383,6750;0,0552253
1384,6393;0,0544005
1385,6035;0,0534714
1386,5677;0,052459
1387,5320;0,0515007
1388,4962;0,0507605
1389,4604;0,0502988
1390,4247;0,0500523
1391,3889;0,04991
1392,3531;0,0497816
1393,3174;0,0496237
1394,2816;0,0494396
1395,2458;0,0492635
1396,2101;0,0491356
1397,1743;0,0490812
1398,1385;0,0491086
1399,1028;0,0492173
1400,0670;0,0493993
1401,0313;0,049636
1401,9955;0,0499006
1402,9597;0,0501686
1403,9240;0,050431
1404,8882;0,050701
1405,8524;0,0510068
1406,8167;0,0513704
1407,7809;0,0517931
1408,7451;0,0522625
1409,7094;0,0527694
1410,6736;0,0533171
1411,6378;0,0539133
1412,6021;0,0545538
1413,5663;0,0552142
1414,5305;0,0558572
1415,4948;0,0564443
1416,4590;0,0569434
1417,4232;0,0573328
1418,3875;0,057619
1419,3517;0,0578476
1420,3159;0,0580614
1421,2802;0,0582456
1422,2444;0,0583389
1423,2086;0,0582896
1424,1729;0,0580918
1425,1371;0,0577775
1426,1013;0,0573746
1427,0656;0,0568707
1428,0298;0,0562229
1428,9940;0,0554151
1429,9583;0,0545148
1430,9225;0,0536509
1431,8867;0,0529128
1432,8510;0,0522759
1433,8152;0,0516195
1434,7794;0,0508087
1435,7437;0,0498129
1436,7079;0,0488002
1437,6721;0,0480443
1438,6364;0,0476759
1439,6006;0,047614
1440,5648;0,047709
1441,5291;0,0478599
1442,4933;0,048035
1443,4575;0,0482436
1444,4218;0,048501
1445,3860;0,0488062
1446,3502;0,0491428
1447,3145;0,0494939
1448,2787;0,0498577
1449,2429;0,0502457
1450,2072;0,0506648
1451,1714;0,0511004
1452,1356;0,0515183
1453,0999;0,0518723
1454,0641;0,0521002
1455,0283;0,0521002
1455,9926;0,0517367
1456,9568;0,0510349
1457,9210;0,0503967
1458,8853;0,0501903
1459,8495;0,0503462
1460,8137;0,050601
1461,7780;0,0507265
1462,7422;0,0505539
1463,7064;0,0499811
1464,6707;0,0490525
1465,6349;0,0480007
1466,5991;0,0470792
1467,5634;0,0463535
1468,5276;0,0457015
1469,4918;0,0449208
1470,4561;0,0437908
1471,4203;0,0421279
1472,3845;0,0399527
1473,3488;0,037669
1474,3130;0,0358136
1475,2772;0,034568
1476,2415;0,0337679
1477,2057;0,0331992
1478,1699;0,0327323
1479,1342;0,0323121
1480,0984;0,0319266
1481,0626;0,0315906
1482,0269;0,0313366
1482,9911;0,031196
1483,9553;0,0311765
1484,9196;0,0312509
1485,8838;0,0313637
1486,8480;0,0314488
1487,8123;0,031461
1488,7765;0,0314326
1489,7407;0,0314936
1490,7050;0,0317597
1491,6692;0,0322241
1492,6334;0,0328028
1493,5977;0,0334222
1494,5619;0,0340498
1495,5261;0,0346891
1496,4904;0,0353639
1497,4546;0,0361038
1498,4188;0,0369277
1499,3831;0,0378228
1500,3473;0,0387399
1501,3115;0,0396154
1502,2758;0,0403934
1503,2400;0,0410305
1504,2042;0,0414768
1505,1685;0,0416235
1506,1327;0,0412727
1507,0969;0,040407
1508,0612;0,0395495
1509,0254;0,0391419
1509,9896;0,0390806
1510,9539;0,0391189
1511,9181;0,0391011
1512,8823;0,0389513
1513,8466;0,0386346
1514,8108;0,0381477
1515,7750;0,0375274
1516,7393;0,0368398
1517,7035;0,0361344
1518,6677;0,0354047
1519,6320;0,0346097
1520,5962;0,0337524
1521,5604;0,032933
1522,5247;0,0322874
1523,4889;0,0318679
1524,4531;0,0316234
1525,4174;0,0314813
1526,3816;0,0314169
1527,3458;0,0314465
1528,3101;0,0315779
1529,2743;0,0317776
1530,2385;0,031982
1531,2028;0,0321296
1532,1670;0,0322015
1533,1312;0,0322522
1534,0955;0,0323831
1535,0597;0,0326524
1536,0239;0,0330281
1536,9882;0,0334252
1537,9524;0,0337419
1538,9166;0,0338426
1539,8809;0,0335614
1540,8451;0,032939
1541,8093;0,0324214
1542,7736;0,0323169
1543,7378;0,0325111
1544,7020;0,0328113
1545,6663;0,0331203
1546,6305;0,0334088
1547,5947;0,0336652
1548,5590;0,0338744
1549,5232;0,0340246
1550,4874;0,0341281
1551,4517;0,0342307
1552,4159;0,0343894
1553,3801;0,03463
1554,3444;0,0349201
1555,3086;0,0351642
1556,2728;0,0351859
1557,2371;0,0347178
1558,2013;0,0336686
1559,1655;0,0326559
1560,1298;0,0323963
1561,0940;0,0327963
1562,0582;0,0334586
1563,0225;0,0341376
1563,9867;0,0347345
1564,9509;0,0352168
1565,9152;0,0355738
1566,8794;0,0358086
1567,8436;0,0359566
1568,8079;0,0361043
1569,7721;0,0363573
1570,7363;0,0367591
1571,7006;0,037265
1572,6648;0,0377935
1573,6290;0,0382793
1574,5933;0,0386952
1575,5575;0,0390631
1576,5217;0,0394607
1577,4860;0,039976
1578,4502;0,0406293
1579,4144;0,0413734
1580,3787;0,0421526
1581,3429;0,0429338
1582,3071;0,0437062
1583,2714;0,0444726
1584,2356;0,045244
1585,1998;0,0460339
1586,1641;0,0468484
1587,1283;0,0476777
1588,0925;0,0484949
1589,0568;0,0492624
1590,0210;0,0499416
1590,9852;0,0504986
1591,9495;0,0509043
1592,9137;0,0511358
1593,8779;0,0511858
1594,8422;0,0510757
1595,8064;0,0508548
1596,7706;0,0505807
1597,7349;0,050294
1598,6991;0,0500089
1599,6633;0,049721
1600,6276;0,0494237
1601,5918;0,049123
1602,5560;0,0488409
1603,5203;0,048604
1604,4845;0,0484246
1605,4487;0,0482882
1606,4130;0,0481616
1607,3772;0,0480176
1608,3414;0,0478663
1609,3057;0,0477623
1610,2699;0,0477671
1611,2341;0,0478957
1612,1984;0,0481007
1613,1626;0,0482962
1614,1268;0,048394
1615,0911;0,048351
1616,0553;0,0482348
1617,0195;0,0482219
1617,9838;0,0484387
1618,9480;0,0488428
1619,9122;0,0492974
1620,8765;0,049681
1621,8407;0,0499303
1622,8049;0,0500514
1623,7692;0,0501118
1624,7334;0,050191
1625,6976;0,0503234
1626,6619;0,0504987
1627,6261;0,0507078
1628,5903;0,0509669
1629,5546;0,051297
1630,5188;0,0516894
1631,4830;0,0520938
1632,4473;0,0524258
1633,4115;0,0525722
1634,3757;0,0524138
1635,3400;0,0519486
1636,3042;0,051441
1637,2684;0,0512187
1638,2327;0,0513309
1639,1969;0,0516308
1640,1611;0,0519868
1641,1254;0,0523342
1642,0896;0,052642
1643,0538;0,052869
1644,0181;0,0529357
1644,9823;0,0527402
1645,9465;0,0522757
1646,9108;0,0517703
1647,8750;0,0515258
1648,8392;0,0515928
1649,8035;0,0517665
1650,7677;0,0517234
1651,7319;0,0510603
1652,6962;0,0495305
1653,6604;0,0477127
1654,6246;0,0466397
1655,5889;0,0464363
1656,5531;0,0466147
1657,5173;0,046797
1658,4816;0,0468002
1659,4458;0,0465343
1660,4100;0,0459576
1661,3743;0,0451191
1662,3385;0,0442108
1663,3027;0,0434794
1664,2670;0,0430378
1665,2312;0,042811
1666,1954;0,0426218
1667,1597;0,0422719
1668,1239;0,0416095
1669,0881;0,0406421
1670,0524;0,0396045
1671,0166;0,0387764
1671,9808;0,0382173
1672,9451;0,0377761
1673,9093;0,0372808
1674,8735;0,0366839
1675,8378;0,0360957
1676,8020;0,0356827
1677,7662;0,0355165
1678,7305;0,0355337
1679,6947;0,0355971
1680,6589;0,0355423
1681,6232;0,0351783
1682,5874;0,0343334
1683,5516;0,0330789
1684,5159;0,0318843
1685,4801;0,0311688
1686,4443;0,0308956
1687,4086;0,0308191
1688,3728;0,030767
1689,3370;0,0306878
1690,3013;0,0306014
1691,2655;0,0305429
1692,2297;0,0305258
1693,1940;0,0305336
1694,1582;0,0305279
1695,1224;0,0304625
1696,0867;0,0302975
1697,0509;0,0300172
1698,0151;0,0296521
1698,9794;0,0292901
1699,9436;0,0290483
1700,9078;0,0290031
1701,8721;0,0291468
1702,8363;0,0294109
1703,8005;0,0297177
1704,7648;0,0300175
1705,7290;0,0303043
1706,6932;0,0306114
1707,6575;0,0309835
1708,6217;0,031445
1709,5859;0,0319909
1710,5502;0,0325975
1711,5144;0,0332328
1712,4786;0,0338584
1713,4429;0,0344258
1714,4071;0,0348758
1715,3713;0,0351553
1716,3356;0,0352798
1717,2998;0,0353903
1718,2640;0,035653
1719,2283;0,0361006
1720,1925;0,0366576
1721,1567;0,0372405
1722,1210;0,037798
1723,0852;0,0383086
1724,0494;0,0387727
1725,0137;0,039207
1725,9779;0,0396357
1726,9421;0,0400769
1727,9064;0,0405302
1728,8706;0,0409695
1729,8348;0,041338
1730,7991;0,0415441
1731,7633;0,041475
1732,7275;0,0410758
1733,6918;0,0404751
1734,6560;0,0399401
1735,6202;0,0396166
1736,5845;0,0394325
1737,5487;0,0392249
1738,5129;0,0388596
1739,4772;0,0382824
1740,4414;0,0375361
1741,4056;0,0367311
1742,3699;0,035967
1743,3341;0,0352706
1744,2983;0,034607
1745,2626;0,0339212
1746,2268;0,0331526
1747,1910;0,0322237
1748,1553;0,0310551
1749,1195;0,0296511
1750,0837;0,0281836
1751,0480;0,0269037
1752,0122;0,025941
1752,9764;0,0252428
1753,9407;0,0246692
1754,9049;0,0240977
1755,8691;0,0234775
1756,8334;0,0228313
1757,7976;0,0222116
1758,7618;0,0216403
1759,7261;0,0210874
1760,6903;0,0205109
1761,6545;0,0199175
1762,6188;0,0193748
1763,5830;0,0189561
1764,5472;0,0186813
1765,5115;0,0185127
1766,4757;0,0183894
1767,4399;0,0182588
1768,4042;0,0180842
1769,3684;0,0178371
1770,3326;0,0174933
1771,2969;0,0170585
1772,2611;0,0166075
1773,2253;0,0162614
1774,1896;0,0160943
1775,1538;0,0160841
1776,1180;0,0161509
1777,0823;0,0162124
1778,0465;0,016215
1779,0107;0,0161453
1779,9750;0,0160274
1780,9392;0,0159012
1781,9034;0,0157942
1782,8677;0,0157126
1783,8319;0,0156572
1784,7961;0,0156408
1785,7604;0,0156839
1786,7246;0,0157932
1787,6888;0,0159461
1788,6531;0,0160902
1789,6173;0,0161561
1790,5815;0,0160832
1791,5458;0,0158696
1792,5100;0,015611
1793,4742;0,015443
1794,4385;0,0154265
1795,4027;0,0155214
1796,3669;0,0156451
1797,3312;0,0157235
1798,2954;0,0157122
1799,2596;0,0156063
1800,2239;0,0154434
1801,1881;0,0152857
1802,1523;0,0151854
1803,1166;0,0151605
1804,0808;0,0151993
1805,0450;0,0152765
1806,0093;0,0153637
1806,9735;0,0154321
1807,9377;0,0154558
1808,9020;0,0154197
1809,8662;0,0153318
1810,8304;0,0152258
1811,7947;0,0151425
1812,7589;0,0151046
1813,7231;0,0151051
1814,6874;0,0151194
1815,6516;0,0151262
1816,6158;0,0151234
1817,5801;0,0151302
1818,5443;0,0151715
1819,5085;0,0152552
1820,4728;0,0153612
1821,4370;0,0154526
1822,4012;0,015498
1823,3655;0,0154919
1824,3297;0,0154588
1825,2939;0,0154329
1826,2582;0,0154265
1827,2224;0,0154166
1828,1866;0,0153655
1829,1509;0,0152602
1830,1151;0,0151388
1831,0793;0,0150659
1832,0436;0,0150758
1833,0078;0,0151473
1833,9720;0,0152277
1834,9363;0,015271
1835,9005;0,0152661
1836,8647;0,0152435
1837,8290;0,0152539
1838,7932;0,015327
1839,7574;0,0154488
1840,7217;0,0155699
1841,6859;0,0156299
1842,6501;0,0155853
1843,6144;0,0154412
1844,5786;0,0152635
1845,5428;0,0151352
1846,5071;0,0150913
1847,4713;0,0151076
1848,4355;0,0151384
1849,3998;0,01515
1850,3640;0,0151327
1851,3282;0,015099
1852,2925;0,0150737
1853,2567;0,0150802
1854,2209;0,0151285
1855,1852;0,0152097
1856,1494;0,0152976
1857,1136;0,0153592
1858,0779;0,0153704
1859,0421;0,0153316
1860,0063;0,0152719
1860,9706;0,0152381
1861,9348;0,0152702
1862,8990;0,0153804
1863,8633;0,0155462
1864,8275;0,0157197
1865,7917;0,0158416
1866,7560;0,0158602
1867,7202;0,01576
1868,6844;0,0155842
1869,6487;0,0154128
1870,6129;0,0153024
1871,5771;0,0152563
1872,5414;0,0152457
1873,5056;0,0152408
1874,4698;0,0152265
1875,4341;0,0152046
1876,3983;0,0151871
1877,3625;0,0151849
1878,3268;0,0152
1879,2910;0,0152253
1880,2552;0,0152519
1881,2195;0,0152766
1882,1837;0,0153038
1883,1479;0,0153412
1884,1122;0,0153918
1885,0764;0,0154488
1886,0406;0,015498
1887,0049;0,0155253
1887,9691;0,0155253
1888,9333;0,0155062
1889,8976;0,0154836
1890,8618;0,0154678
1891,8260;0,015454
1892,7903;0,0154273
1893,7545;0,0153772
1894,7188;0,0153091
1895,6830;0,0152467
1896,6472;0,015218
1897,6115;0,0152357
1898,5757;0,0152872
1899,5399;0,0153421
1900,5042;0,0153712
1901,4684;0,0153637
1902,4326;0,0153328
1903,3969;0,0153076
1904,3611;0,0153139
1905,3253;0,0153581
1906,2896;0,0154231
1907,2538;0,015479
1908,2180;0,0155012
1909,1823;0,015486
1910,1465;0,0154538
1911,1107;0,0154324
1912,0750;0,0154363
1913,0392;0,0154578
1914,0034;0,0154753
1914,9677;0,0154705
1915,9319;0,0154431
1916,8961;0,0154156
1917,8604;0,0154186
1918,8246;0,0154648
1919,7888;0,0155342
1920,7531;0,015587
1921,7173;0,0155903
1922,6815;0,0155417
1923,6458;0,0154713
1924,6100;0,0154226
1925,5742;0,0154215
1926,5385;0,0154616
1927,5027;0,0155137
1928,4669;0,0155472
1929,4312;0,015548
1930,3954;0,0155225
1931,3596;0,0154877
1932,3239;0,0154569
1933,2881;0,0154325
1934,2523;0,0154118
1935,2166;0,0153962
1936,1808;0,0153946
1937,1450;0,0154165
1938,1093;0,015463
1939,0735;0,0155249
1940,0377;0,0155898
1941,0020;0,0156511
1941,9662;0,015711
1942,9304;0,0157705
1943,8947;0,0158167
1944,8589;0,0158232
1945,8231;0,0157684
1946,7874;0,0156556
1947,7516;0,0155192
1948,7158;0,0154113
1949,6801;0,0153748
1950,6443;0,0154196
1951,6085;0,015519
1952,5728;0,0156282
1953,5370;0,01571
1954,5012;0,0157493
1955,4655;0,0157489
1956,4297;0,0157179
1957,3939;0,0156654
1958,3582;0,015604
1959,3224;0,0155557
1960,2866;0,0155475
1961,2509;0,0155947
1962,2151;0,0156857
1963,1793;0,0157826
1964,1436;0,0158407
1965,1078;0,0158328
1966,0720;0,0157632
1967,0363;0,0156602
1968,0005;0,0155514
1968,9647;0,0154405
1969,9290;0,0153087
1970,8932;0,0151399
1971,8574;0,0149469
1972,8217;0,0147802
1973,7859;0,0147085
1974,7501;0,0147778
1975,7144;0,0149734
1976,6786;0,0152172
1977,6428;0,0154115
1978,6071;0,0155007
1979,5713;0,0155005
1980,5355;0,0154747
1981,4998;0,015484
1982,4640;0,0155486
1983,4282;0,0156429
1984,3925;0,0157187
1985,3567;0,0157405
1986,3209;0,0157109
1987,2852;0,0156703
1988,2494;0,0156742
1989,2136;0,0157633
1990,1779;0,0159422
1991,1421;0,0161762
1992,1063;0,0164088
1993,0706;0,0165863
1994,0348;0,0166749
1994,9990;0,0166607
1995,9633;0,0165416
1996,9275;0,0163265
1997,8917;0,016045
1998,8560;0,0157562
1999,8202;0,0155412
2000,7844;0,0154728
2001,7487;0,0155791
2002,7129;0,0158278
2003,6771;0,0161415
2004,6414;0,0164376
2005,6056;0,0166685
2006,5698;0,0168366
2007,5341;0,0169693
2008,4983;0,0170764
2009,4625;0,0171293
2010,4268;0,0170833
2011,3910;0,0169234
2012,3552;0,0166949
2013,3195;0,0164944
2014,2837;0,0164264
2015,2479;0,0165507
2016,2122;0,0168471
2017,1764;0,0172223
2018,1406;0,0175552
2019,1049;0,0177553
2020,0691;0,0177997
2021,0333;0,0177339
2021,9976;0,0176446
2022,9618;0,0176169
2023,9260;0,0176911
2024,8903;0,0178374
2025,8545;0,0179682
2026,8187;0,0179892
2027,7830;0,0178615
2028,7472;0,0176328
2029,7114;0,0174131
2030,6757;0,0173094
2031,6399;0,0173618
2032,6041;0,0175264
2033,5684;0,0177138
2034,5326;0,017852
2035,4968;0,0179235
2036,4611;0,0179545
2037,4253;0,0179741
2038,3895;0,0179841
2039,3538;0,0179596
2040,3180;0,0178758
2041,2822;0,017734
2042,2465;0,017568
2043,2107;0,0174275
2044,1749;0,0173547
2045,1392;0,0173706
2046,1034;0,0174736
2047,0676;0,017643
2048,0320;0,0178431
2048,9961;0,0180297
2049,9604;0,0181615
2050,9246;0,0182127
2051,8889;0,0181802
2052,8530;0,0180821
2053,8174;0,0179497
2054,7815;0,0178165
2055,7458;0,0177096
2056,7100;0,0176458
2057,6743;0,0176337
2058,6384;0,0176749
2059,6028;0,017764
2060,5669;0,0178869
2061,5313;0,0180231
2062,4954;0,0181535
2063,4597;0,0182669
2064,4238;0,0183599
2065,3882;0,0184278
2066,3523;0,018455
2067,3167;0,0184183
2068,2808;0,0183031
2069,2451;0,0181234
2070,2092;0,0179281
2071,1736;0,0177841
2072,1377;0,0177437
2073,1021;0,0178152
2074,0662;0,0179581
2075,0305;0,0181053
2075,9946;0,0181982
2076,9590;0,0182127
2077,9231;0,0181624
2078,8875;0,0180837
2079,8516;0,0180138
2080,8159;0,0179761
2081,7800;0,0179748
2082,7444;0,0179993
2083,7085;0,0180313
2084,6729;0,0180535
2085,6370;0,0180575
2086,6013;0,0180479
2087,5654;0,0180412
2088,5298;0,0180573
2089,4939;0,0181094
2090,4583;0,0181959
2091,4224;0,0183016
2092,3867;0,0184051
2093,3508;0,0184884
2094,3152;0,018542
2095,2793;0,0185652
2096,2437;0,0185622
2097,2078;0,0185392
2098,1721;0,018505
2099,1362;0,0184718
2100,1006;0,0184541
2101,0647;0,0184645
2102,0291;0,0185051
2102,9932;0,0185635
2103,9575;0,0186148
2104,9216;0,0186323
2105,8860;0,0186018
2106,8501;0,0185319
2107,8145;0,0184515
2108,7786;0,0183956
2109,7429;0,0183856
2110,7070;0,0184169
2111,6714;0,0184618
2112,6355;0,0184881
2113,5999;0,0184789
2114,5640;0,0184419
2115,5283;0,0184013
2116,4924;0,0183792
2117,4568;0,0183813
2118,4209;0,0183972
2119,3853;0,0184131
2120,3494;0,0184279
2121,3137;0,018456
2122,2778;0,0185166
2123,2422;0,0186147
2124,2063;0,0187317
2125,1707;0,0188326
2126,1348;0,0188866
2127,0991;0,0188868
2128,0632;0,018855
2129,0276;0,0188296
2129,9917;0,0188438
2130,9561;0,0189099
2131,9202;0,019014
2132,8845;0,0191249
2133,8486;0,0192063
2134,8130;0,0192302
2135,7771;0,0191853
2136,7415;0,0190825
2137,7056;0,018954
2138,6699;0,0188471
2139,6340;0,01881
2140,5984;0,0188737
2141,5625;0,0190375
2142,5269;0,019268
2143,4910;0,019513
2144,4553;0,019725
2145,4194;0,0198795
2146,3838;0,0199794
2147,3479;0,0200434
2148,3123;0,0200886
2149,2764;0,0201209
2150,2407;0,0201378
2151,2048;0,020139
2152,1692;0,020135
2153,1333;0,0201458
2154,0977;0,0201925
2155,0618;0,020288
2156,0261;0,0204356
2156,9902;0,0206306
2157,9546;0,0208603
2158,9187;0,0210962
2159,8831;0,0212877
2160,8472;0,0213738
2161,8115;0,0213109
2162,7756;0,021098
2163,7400;0,0207816
2164,7041;0,0204347
2165,6685;0,0201213
2166,6326;0,0198674
2167,5969;0,0196606
2168,5610;0,0194796
2169,5254;0,0193269
2170,4895;0,0192361
2171,4539;0,0192449
2172,4180;0,0193558
2173,3823;0,0195164
2174,3464;0,0196415
2175,3108;0,0196666
2176,2749;0,0195922
2177,2393;0,0194821
2178,2034;0,0194184
2179,1677;0,019446
2180,1318;0,0195486
2181,0962;0,0196677
2182,0603;0,0197463
2183,0247;0,0197654
2183,9888;0,0197461
2184,9531;0,019725
2185,9172;0,0197242
2186,8816;0,0197415
2187,8457;0,0197602
2188,8101;0,0197663
2189,7742;0,0197606
2190,7385;0,0197575
2191,7026;0,0197756
2192,6670;0,0198253
2193,6311;0,0198995
2194,5955;0,0199736
2195,5596;0,0200148
2196,5239;0,0199983
2197,4880;0,0199209
2198,4524;0,0198033
2199,4165;0,0196773
2200,3809;0,0195676
2201,3450;0,0194819
2202,3093;0,0194159
2203,2734;0,0193699
2204,2378;0,019358
2205,2019;0,0193991
2206,1663;0,0194943
2207,1304;0,0196102
2208,0947;0,0196862
2209,0588;0,0196683
2210,0232;0,0195467
2210,9873;0,0193693
2211,9517;0,0192187
2212,9158;0,0191633
2213,8801;0,0192153
2214,8442;0,0193222
2215,8086;0,0193982
2216,7727;0,0193743
2217,7371;0,0192377
2218,7012;0,0190371
2219,6655;0,018856
2220,6296;0,0187699
2221,5940;0,0188123
2222,5581;0,0189655
2223,5225;0,0191742
2224,4866;0,0193741
2225,4509;0,019516
2226,4150;0,0195783
2227,3794;0,0195639
2228,3435;0,0194906
2229,3079;0,0193818
2230,2720;0,0192629
2231,2363;0,0191611
2232,2004;0,0191033
2233,1648;0,0191072
2234,1289;0,0191702
2235,0933;0,0192651
2236,0574;0,0193484
2237,0217;0,019381
2237,9858;0,0193475
2238,9502;0,0192644
2239,9143;0,0191692
2240,8787;0,0191
2241,8428;0,0190756
2242,8071;0,01909
2243,7712;0,0191209
2244,7356;0,019147
2245,6997;0,0191614
2246,6641;0,0191749
2247,6282;0,0192067
2248,5925;0,0192693
2249,5566;0,019357
2250,5210;0,0194447
2251,4851;0,0194991
2252,4495;0,0194982
2253,4136;0,0194467
2254,3779;0,0193766
2255,3420;0,0193304
2256,3064;0,0193354
2257,2705;0,0193868
2258,2349;0,0194495
2259,1990;0,0194796
2260,1633;0,0194488
2261,1274;0,0193591
2262,0918;0,0192379
2263,0559;0,0191209
2264,0203;0,0190354
2264,9844;0,0189928
2265,9487;0,0189926
2266,9128;0,0190291
2267,8772;0,0190946
2268,8413;0,0191771
2269,8057;0,0192592
2270,7698;0,0193206
2271,7341;0,0193459
2272,6982;0,0193309
2273,6626;0,0192835
2274,6267;0,0192187
2275,5911;0,019151
2276,5552;0,0190898
2277,5195;0,0190387
2278,4836;0,0189971
2279,4480;0,0189634
2280,4121;0,0189371
2281,3765;0,018921
2282,3406;0,0189219
2283,3049;0,0189489
2284,2690;0,0190083
2285,2334;0,0190986
2286,1975;0,0192085
2287,1619;0,0193203
2288,1260;0,0194181
2289,0903;0,0194951
2290,0544;0,0195546
2291,0188;0,0196057
2291,9829;0,0196556
2292,9473;0,0197051
2293,9114;0,0197503
2294,8757;0,0197874
2295,8398;0,0198174
2296,8042;0,0198463
2297,7683;0,0198801
2298,7327;0,0199195
2299,6968;0,0199574
2300,6611;0,019982
2301,6252;0,0199829
2302,5896;0,0199581
2303,5537;0,0199174
2304,5181;0,0198803
2305,4822;0,0198677
2306,4465;0,0198906
2307,4106;0,0199406
2308,3750;0,0199894
2309,3391;0,0199995
2310,3035;0,0199434
2311,2676;0,0198218
2312,2319;0,0196666
2313,1960;0,0195263
2314,1604;0,0194403
2315,1245;0,0194193
2316,0889;0,0194425
2317,0530;0,0194727
2318,0173;0,0194768
2318,9814;0,0194439
2319,9458;0,0193905
2320,9099;0,0193518
2321,8743;0,0193611
2322,8384;0,019429
2323,8027;0,0195355
2324,7668;0,0196414
2325,7312;0,01971
2326,6953;0,0197255
2327,6597;0,0196996
2328,6238;0,0196622
2329,5881;0,0196435
2330,5522;0,0196588
2331,5166;0,0197038
2332,4807;0,0197603
2333,4451;0,0198054
2334,4092;0,019822
2335,3735;0,0198087
2336,3376;0,0197849
2337,3020;0,0197857
2338,2661;0,0198437
2339,2305;0,0199608
2340,1946;0,0200862
2341,1589;0,020121
2342,1230;0,0199654
2343,0874;0,0196174
2344,0515;0,0192521
2345,0159;0,0191367
2345,9800;0,0194024
2346,9443;0,0199423
2347,9084;0,0205233
2348,8728;0,0209441
2349,8369;0,0211204
2350,8013;0,0210935
2351,7654;0,0209869
2352,7297;0,0209255
2353,6938;0,0209568
2354,6582;0,0210388
2355,6223;0,021102
2356,5867;0,0211019
2357,5508;0,0210171
2358,5151;0,020835
2359,4792;0,0205638
2360,4436;0,0202456
2361,4077;0,0199398
2362,3721;0,0196852
2363,3362;0,0194794
2364,3005;0,0192901
2365,2646;0,0190817
2366,2290;0,0188373
2367,1931;0,0185646
2368,1575;0,0182883
2369,1216;0,0180377
2370,0859;0,017835
2371,0500;0,0176907
2372,0144;0,0176066
2372,9785;0,0175833
2373,9429;0,0176254
2374,9070;0,0177396
2375,8713;0,0179279
2376,8354;0,0181815
2377,7998;0,018479
2378,7639;0,0187915
2379,7283;0,0190897
2380,6924;0,0193515
2381,6567;0,0195654
2382,6208;0,0197303
2383,5852;0,0198518
2384,5493;0,0199378
2385,5137;0,0199943
2386,4778;0,0200249
2387,4421;0,0200329
2388,4063;0,0200246
2389,3706;0,0200109
2390,3347;0,0200051
2391,2991;0,0200177
2392,2632;0,0200508
2393,2275;0,0200964
2394,1917;0,0201409
2395,1560;0,0201727
2396,1201;0,0201884
2397,0845;0,0201942
2398,0486;0,0202025
2399,0129;0,0202231
2399,9771;0,020258
2400,9414;0,0203019
2401,9055;0,0203451
2402,8699;0,0203798
2403,8340;0,0204033
2404,7983;0,0204177
2405,7625;0,0204267
2406,7268;0,0204326
2407,6909;0,0204356
2408,6553;0,0204359
2409,6194;0,0204351
2410,5837;0,0204379
2411,5479;0,0204497
2412,5122;0,0204738
2413,4763;0,020509
2414,4407;0,0205494
2415,4048;0,0205875
2416,3691;0,0206182
2417,3333;0,0206411
2418,2976;0,0206602
2419,2617;0,0206807
2420,2261;0,020705
2421,1902;0,0207308
2422,1545;0,0207527
2423,1187;0,0207668
2424,0830;0,0207734
2425,0471;0,0207777
2426,0115;0,0207864
2426,9756;0,020804
2427,9399;0,0208305
2428,9041;0,0208631
2429,8684;0,020899
2430,8325;0,0209376
2431,7969;0,0209793
2432,7610;0,0210237
2433,7253;0,0210681
2434,6895;0,0211077
2435,6538;0,021139
2436,6179;0,0211606
2437,5823;0,0211735
2438,5464;0,0211794
2439,5107;0,0211794
2440,4749;0,0211751
2441,4392;0,0211705
2442,4033;0,0211719
2443,3677;0,0211857
2444,3318;0,0212145
2445,2961;0,0212539
2446,2603;0,0212934
2447,2246;0,0213208
2448,1887;0,0213277
2449,1531;0,021314
2450,1172;0,021289
2451,0815;0,0212684
2452,0457;0,0212684
2453,0100;0,0212989
2453,9741;0,0213584
2454,9385;0,0214332
2455,9026;0,0215024
2456,8669;0,0215467
2457,8311;0,0215574
2458,7954;0,0215402
2459,7595;0,0215124
2460,7239;0,0214935
2461,6880;0,021496
2462,6523;0,0215204
2463,6165;0,0215571
2464,5808;0,0215935
2465,5449;0,0216222
2466,5093;0,021644
2467,4734;0,0216664
2468,4377;0,0216974
2469,4019;0,0217393
2470,3662;0,0217864
2471,3303;0,0218273
2472,2947;0,0218501
2473,2588;0,0218491
2474,2231;0,0218283
2475,1873;0,0217998
2476,1516;0,0217792
2477,1157;0,0217792
2478,0801;0,0218047
2479,0442;0,0218521
2480,0085;0,0219117
2480,9727;0,0219721
2481,9370;0,022023
2482,9011;0,0220567
2483,8655;0,0220681
2484,8296;0,0220549
2485,7939;0,0220205
2486,7581;0,0219753
2487,7224;0,0219362
2488,6865;0,0219216
2489,6509;0,0219439
2490,6150;0,0220026
2491,5793;0,0220837
2492,5435;0,0221658
2493,5078;0,0222292
2494,4719;0,022264
2495,4363;0,0222718
2496,4004;0,0222623
2497,3647;0,0222474
2498,3289;0,0222369
2499,2932;0,0222363
2500,2573;0,0222472
2501,2217;0,0222673
2502,1858;0,0222904
2503,1501;0,0223085
2504,1143;0,0223148
2505,0786;0,022308
2506,0427;0,0222948
2507,0071;0,0222877
2507,9712;0,0222988
2508,9355;0,022333
2509,8997;0,0223853
2510,8640;0,0224427
2511,8281;0,022491
2512,7925;0,0225205
2513,7566;0,0225289
2514,7209;0,0225197
2515,6851;0,0224992
2516,6494;0,0224735
2517,6135;0,0224475
2518,5779;0,0224259
2519,5420;0,0224138
2520,5063;0,0224156
2521,4705;0,0224335
2522,4348;0,0224652
2523,3989;0,0225052
2524,3633;0,0225461
2525,3274;0,0225818
2526,2917;0,0226088
2527,2559;0,0226256
2528,2202;0,0226321
2529,1843;0,0226283
2530,1487;0,0226145
2531,1128;0,0225914
2532,0771;0,0225605
2533,0413;0,0225248
2534,0056;0,0224898
2534,9697;0,022464
2535,9341;0,0224584
2536,8982;0,0224826
2537,8625;0,0225391
2538,8267;0,0226186
2539,7910;0,0227011
2540,7551;0,0227636
2541,7195;0,0227914
2542,6836;0,0227855
2543,6479;0,0227617
2544,6121;0,0227403
2545,5764;0,0227343
2546,5405;0,0227433
2547,5049;0,0227568
2548,4690;0,0227638
2549,4333;0,0227607
2550,3975;0,0227532
2551,3618;0,0227512
2552,3259;0,0227612
2553,2903;0,0227826
2554,2544;0,0228099
2555,2188;0,022837
2556,1829;0,0228615
2557,1472;0,0228841
2558,1113;0,022906
2559,0757;0,0229258
2560,0398;0,0229384
2561,0042;0,0229376
2561,9683;0,0229207
2562,9326;0,0228909
2563,8967;0,0228582
2564,8611;0,0228359
2565,8252;0,0228352
2566,7896;0,0228601
2567,7537;0,0229049
2568,7180;0,0229564
2569,6821;0,0229998
2570,6465;0,0230249
2571,6106;0,02303
2572,5750;0,0230215
2573,5391;0,0230095
2574,5034;0,0230015
2575,4675;0,0229997
2576,4319;0,0230009
2577,3960;0,0229999
2578,3604;0,0229936
2579,3245;0,0229831
2580,2888;0,0229738
2581,2529;0,0229724
2582,2173;0,0229845
2583,1814;0,0230117
2584,1458;0,0230508
2585,1099;0,0230949
2586,0742;0,0231348
2587,0383;0,0231631
2588,0027;0,0231757
2588,9668;0,0231734
2589,9312;0,0231611
2590,8953;0,0231462
2591,8596;0,0231365
2592,8237;0,0231393
2593,7881;0,0231599
2594,7522;0,0232001
2595,7166;0,0232559
2596,6807;0,0233178
2597,6450;0,0233737
2598,6091;0,023414
2599,5735;0,023436
2600,5376;0,0234453
2601,5020;0,0234502
2602,4661;0,0234566
2603,4304;0,0234635
2604,3945;0,0234656
2605,3589;0,0234593
2606,3230;0,023448
2607,2874;0,0234417
2608,2515;0,023451
2609,2158;0,0234807
2610,1799;0,0235261
2611,1443;0,0235759
2612,1084;0,0236188
2613,0728;0,0236479
2614,0369;0,0236628
2615,0012;0,0236674
2615,9653;0,0236674
2616,9297;0,0236688
2617,8938;0,0236772
2618,8582;0,0236963
2619,8223;0,0237271
2620,7866;0,0237664
2621,7507;0,0238082
2622,7151;0,0238461
2623,6792;0,0238761
2624,6436;0,0238981
2625,6077;0,0239146
2626,5720;0,0239289
2627,5361;0,0239435
2628,5005;0,0239595
2629,4646;0,023977
2630,4290;0,0239964
2631,3931;0,0240182
2632,3574;0,0240432
2633,3215;0,0240724
2634,2859;0,0241063
2635,2500;0,024144
2636,2144;0,0241831
2637,1785;0,0242196
2638,1428;0,0242498
2639,1069;0,0242724
2640,0713;0,0242895
2641,0354;0,0243049
2641,9998;0,0243227
2642,9639;0,0243444
2643,9282;0,0243692
2644,8923;0,024395
2645,8567;0,0244202
2646,8208;0,024445
2647,7852;0,0244705
2648,7493;0,0244979
2649,7136;0,0245271
2650,6777;0,0245567
2651,6421;0,0245846
2652,6062;0,0246089
2653,5706;0,0246291
2654,5347;0,0246467
2655,4990;0,0246646
2656,4631;0,0246861
2657,4275;0,0247134
2658,3916;0,0247458
2659,3560;0,0247802
2660,3201;0,0248124
2661,2844;0,0248395
2662,2485;0,0248611
2663,2129;0,0248797
2664,1770;0,0248984
2665,1414;0,0249191
2666,1055;0,0249414
2667,0698;0,0249627
2668,0339;0,0249808
2668,9983;0,0249952
2669,9624;0,0250089
2670,9268;0,0250272
2671,8909;0,0250552
2672,8552;0,0250943
2673,8193;0,0251411
2674,7837;0,0251881
2675,7478;0,0252271
2676,7122;0,0252539
2677,6763;0,02527
2678,6406;0,0252823
2679,6047;0,0252989
2680,5691;0,0253253
2681,5332;0,0253619
2682,4976;0,0254055
2683,4617;0,0254513
2684,4260;0,0254953
2685,3901;0,0255353
2686,3545;0,0255704
2687,3186;0,0256004
2688,2830;0,0256264
2689,2471;0,0256508
2690,2114;0,0256771
2691,1755;0,0257082
2692,1399;0,0257451
2693,1040;0,0257855
2694,0684;0,0258252
2695,0325;0,02586
2695,9968;0,0258879
2696,9609;0,0259101
2697,9253;0,0259301
2698,8894;0,0259517
2699,8538;0,0259779
2700,8179;0,0260095
2701,7822;0,0260458
2702,7463;0,0260846
2703,7107;0,0261234
2704,6748;0,0261603
2705,6392;0,026195
2706,6033;0,0262291
2707,5676;0,0262658
2708,5317;0,026308
2709,4961;0,0263557
2710,4602;0,0264053
2711,4246;0,0264503
2712,3887;0,0264844
2713,3530;0,0265061
2714,3171;0,02652
2715,2815;0,0265352
2716,2456;0,0265605
2717,2100;0,0265992
2718,1741;0,0266476
2719,1384;0,0266966
2720,1025;0,0267367
2721,0669;0,0267625
2722,0310;0,0267745
2722,9954;0,0267781
2723,9595;0,0267816
2724,9238;0,0267932
2725,8879;0,0268188
2726,8523;0,0268601
2727,8164;0,0269139
2728,7808;0,0269724
2729,7449;0,0270265
2730,7092;0,0270693
2731,6733;0,0270994
2732,6377;0,0271202
2733,6018;0,0271373
2734,5662;0,0271549
2735,5303;0,0271738
2736,4946;0,027193
2737,4587;0,027212
2738,4231;0,0272324
2739,3872;0,0272573
2740,3516;0,0272889
2741,3157;0,0273262
2742,2800;0,0273655
2743,2441;0,0274015
2744,2085;0,02743
2745,1726;0,027449
2746,1370;0,027459
2747,1011;0,0274628
2748,0654;0,0274655
2749,0295;0,0274735
2749,9939;0,0274931
2750,9580;0,0275278
2751,9224;0,0275763
2752,8865;0,0276325
2753,8508;0,0276883
2754,8149;0,0277368
2755,7793;0,0277763
2756,7434;0,0278104
2757,7078;0,027845
2758,6719;0,0278845
2759,6362;0,0279287
2760,6003;0,0279726
2761,5647;0,0280102
2762,5288;0,028038
2763,4932;0,0280583
2764,4573;0,0280782
2765,4216;0,028106
2766,3857;0,0281472
2767,3501;0,0282011
2768,3142;0,0282616
2769,2786;0,02832
2770,2427;0,0283695
2771,2070;0,0284079
2772,1711;0,0284381
2773,1355;0,0284663
2774,0996;0,0284993
2775,0640;0,0285412
2776,0281;0,0285926
2776,9924;0,0286503
2777,9565;0,0287093
2778,9209;0,0287653
2779,8850;0,0288164
2780,8494;0,0288638
2781,8135;0,0289107
2782,7778;0,0289604
2783,7419;0,0290145
2784,7063;0,0290718
2785,6704;0,0291295
2786,6348;0,0291842
2787,5989;0,0292343
2788,5632;0,0292806
2789,5273;0,0293266
2790,4917;0,0293772
2791,4558;0,0294366
2792,4202;0,0295064
2793,3843;0,0295849
2794,3486;0,0296678
2795,3127;0,0297506
2796,2771;0,0298307
2797,2412;0,0299088
2798,2056;0,0299875
2799,1697;0,0300699
2800,1340;0,0301576
2801,0981;0,0302504
2802,0625;0,0303474
2803,0266;0,0304476
2803,9910;0,03055
2804,9551;0,0306528
2805,9194;0,0307533
2806,8835;0,0308481
2807,8479;0,0309364
2808,8120;0,0310207
2809,7764;0,0311071
2810,7405;0,0312029
2811,7048;0,0313137
2812,6689;0,0314408
2813,6333;0,0315819
2814,5974;0,0317322
2815,5618;0,031887
2816,5259;0,0320417
2817,4902;0,0321927
2818,4543;0,0323368
2819,4187;0,0324725
2820,3828;0,0326011
2821,3472;0,0327271
2822,3113;0,0328575
2823,2756;0,0330001
2824,2397;0,0331607
2825,2041;0,0333424
2826,1682;0,0335442
2827,1326;0,0337623
2828,0967;0,0339907
2829,0610;0,0342234
2830,0251;0,0344565
2830,9895;0,0346896
2831,9536;0,0349268
2832,9180;0,0351747
2833,8821;0,0354403
2834,8464;0,0357277
2835,8105;0,0360376
2836,7749;0,0363687
2837,7390;0,036721
2838,7034;0,0370982
2839,6675;0,0375084
2840,6318;0,0379625
2841,5959;0,0384709
2842,5603;0,0390403
2843,5244;0,0396699
2844,4888;0,0403487
2845,4529;0,0410534
2846,4172;0,0417485
2847,3813;0,0423896
2848,3457;0,0429317
2849,3098;0,0433385
2850,2742;0,0435911
2851,2383;0,0436914
2852,2026;0,0436602
2853,1667;0,0435297
2854,1311;0,0433359
2855,0952;0,0431123
2856,0596;0,042886
2857,0237;0,0426774
2857,9880;0,0425
2858,9521;0,0423618
2859,9165;0,0422656
2860,8806;0,0422114
2861,8450;0,0421975
2862,8091;0,0422233
2863,7734;0,0422888
2864,7375;0,0423931
2865,7019;0,0425314
2866,6660;0,0426923
2867,6304;0,0428581
2868,5945;0,0430094
2869,5588;0,0431307
2870,5229;0,0432166
2871,4873;0,0432722
2872,4514;0,0433099
2873,4158;0,043343
2874,3799;0,0433806
2875,3442;0,0434257
2876,3083;0,0434765
2877,2727;0,0435305
2878,2368;0,0435864
2879,2012;0,0436447
2880,1653;0,0437062
2881,1296;0,0437719
2882,0938;0,0438426
2883,0581;0,043921
2884,0222;0,0440107
2884,9866;0,0441157
2885,9507;0,0442374
2886,9150;0,0443736
2887,8792;0,0445189
2888,8435;0,0446671
2889,8076;0,0448136
2890,7720;0,0449569
2891,7361;0,0450974
2892,7004;0,0452366
2893,6646;0,0453751
2894,6289;0,0455134
2895,5930;0,0456522
2896,5574;0,0457931
2897,5215;0,0459382
2898,4858;0,0460895
2899,4500;0,046247
2900,4143;0,0464088
2901,3784;0,0465713
2902,3428;0,0467313
2903,3069;0,0468875
2904,2712;0,0470428
2905,2354;0,0472048
2906,1997;0,0473853
2907,1638;0,0475984
2908,1282;0,0478575
2909,0923;0,0481723
2910,0566;0,0485461
2911,0208;0,0489733
2911,9851;0,049439
2912,9492;0,0499188
2913,9136;0,0503826
2914,8777;0,050798
2915,8420;0,0511364
2916,8062;0,0513768
2917,7705;0,0515088
2918,7346;0,051533
2919,6990;0,0514593
2920,6631;0,0513044
2921,6274;0,0510882
2922,5916;0,050829
2923,5559;0,0505399
2924,5200;0,0502265
2925,4844;0,0498885
2926,4485;0,0495239
2927,4128;0,0491346
2928,3770;0,0487291
2929,3413;0,0483203
2930,3054;0,047921
2931,2698;0,0475386
2932,2339;0,0471732
2933,1982;0,0468198
2934,1624;0,0464712
2935,1267;0,0461215
2936,0908;0,0457674
2937,0552;0,045408
2938,0193;0,0450447
2938,9836;0,0446809
2939,9478;0,0443207
2940,9121;0,0439677
2941,8762;0,0436235
2942,8406;0,0432886
2943,8047;0,0429645
2944,7690;0,0426569
2945,7332;0,0423749
2946,6975;0,0421278
2947,6616;0,041919
2948,6260;0,0417422
2949,5901;0,0415833
2950,5544;0,0414257
2951,5186;0,0412587
2952,4829;0,0410814
2953,4470;0,0409019
2954,4114;0,0407305
2955,3755;0,0405722
2956,3398;0,0404222
2957,3040;0,0402686
2958,2683;0,0400981
2959,2324;0,0399036
2960,1968;0,0396874
2961,1609;0,0394588
2962,1252;0,039228
2963,0894;0,0390005
2964,0537;0,0387749
2965,0178;0,0385457
2965,9822;0,0383085
2966,9463;0,0380633
2967,9106;0,037814
2968,8748;0,0375654
2969,8391;0,03732
2970,8032;0,0370779
2971,7676;0,0368392
2972,7317;0,0366068
2973,6960;0,0363863
2974,6602;0,0361829
2975,6245;0,035998
2976,5886;0,035827
2977,5530;0,0356625
2978,5171;0,0354992
2979,4814;0,0353379
2980,4456;0,0351855
2981,4099;0,0350505
2982,3740;0,0349379
2983,3384;0,0348464
2984,3025;0,03477
2985,2668;0,034702
2986,2310;0,0346381
2987,1953;0,0345772
2988,1594;0,0345191
2989,1238;0,0344628
2990,0879;0,0344064
2991,0522;0,03435
2992,0164;0,0342971
2992,9807;0,0342547
2993,9448;0,0342303
2994,9092;0,0342277
2995,8733;0,0342456
2996,8376;0,0342782
2997,8018;0,034318
2998,7661;0,0343588
2999,7302;0,0343961
3000,6946;0,0344279
3001,6587;0,0344543
3002,6230;0,0344783
3003,5872;0,0345055
3004,5515;0,0345426
3005,5156;0,034594
3006,4800;0,0346585
3007,4441;0,0347284
3008,4084;0,0347924
3009,3726;0,0348406
3010,3369;0,0348692
3011,3010;0,0348825
3012,2654;0,0348902
3013,2295;0,0349029
3014,1938;0,0349278
3015,1580;0,034967
3016,1223;0,0350195
3017,0864;0,0350837
3018,0508;0,0351583
3019,0149;0,0352416
3019,9792;0,0353305
3020,9434;0,0354206
3021,9077;0,0355082
3022,8718;0,0355929
3023,8362;0,0356781
3024,8003;0,0357685
3025,7646;0,0358662
3026,7288;0,0359682
3027,6931;0,0360672
3028,6572;0,0361553
3029,6216;0,0362285
3030,5857;0,0362892
3031,5500;0,0363449
3032,5142;0,0364054
3033,4785;0,0364789
3034,4426;0,03657
3035,4070;0,0366783
3036,3711;0,0367985
3037,3354;0,0369211
3038,2996;0,0370355
3039,2639;0,0371346
3040,2280;0,0372194
3041,1924;0,0372993
3042,1565;0,0373874
3043,1208;0,0374933
3044,0850;0,0376168
3045,0493;0,0377481
3046,0134;0,0378745
3046,9778;0,0379889
3047,9419;0,0380944
3048,9063;0,0382016
3049,8704;0,0383206
3050,8347;0,0384531
3051,7988;0,0385906
3052,7632;0,0387198
3053,7273;0,0388312
3054,6917;0,0389255
3055,6558;0,0390135
3056,6201;0,0391099
3057,5842;0,0392256
3058,5486;0,0393621
3059,5127;0,0395123
3060,4771;0,0396648
3061,4412;0,0398089
3062,4055;0,0399377
3063,3696;0,0400493
3064,3340;0,0401467
3065,2981;0,0402369
3066,2625;0,0403293
3067,2266;0,0404326
3068,1909;0,0405511
3069,1550;0,0406829
3070,1194;0,0408213
3071,0835;0,0409585
3072,0479;0,0410895
3073,0120;0,0412147
3073,9763;0,0413377
3074,9404;0,0414618
3075,9048;0,0415867
3076,8689;0,0417077
3077,8333;0,0418188
3078,7974;0,0419168
3079,7617;0,0420046
3080,7258;0,0420903
3081,6902;0,0421836
3082,6543;0,042291
3083,6187;0,0424123
3084,5828;0,0425413
3085,5471;0,042669
3086,5112;0,0427891
3087,4756;0,042901
3088,4397;0,04301
3089,4041;0,0431241
3090,3682;0,0432484
3091,3325;0,0433823
3092,2966;0,0435204
3093,2610;0,043656
3094,2251;0,0437848
3095,1895;0,0439066
3096,1536;0,0440235
3097,1179;0,0441373
3098,0820;0,044249
3099,0464;0,0443595
3100,0105;0,0444717
3100,9749;0,044591
3101,9390;0,0447218
3102,9033;0,0448642
3103,8674;0,045013
3104,8318;0,0451599
3105,7959;0,0452988
3106,7603;0,0454296
3107,7244;0,0455584
3108,6887;0,0456933
3109,6528;0,0458393
3110,6172;0,0459948
3111,5813;0,0461531
3112,5457;0,0463074
3113,5098;0,0464549
3114,4741;0,0465986
3115,4382;0,0467439
3116,4026;0,0468936
3117,3667;0,0470443
3118,3311;0,0471887
3119,2952;0,0473203
3120,2595;0,0474391
3121,2236;0,0475528
3122,1880;0,0476733
3123,1521;0,0478095
3124,1165;0,0479632
3125,0806;0,0481293
3126,0449;0,0483004
3127,0090;0,048472
3127,9734;0,0486442
3128,9375;0,0488195
3129,9019;0,0489986
3130,8660;0,0491783
3131,8303;0,0493534
3132,7944;0,0495196
3133,7588;0,0496769
3134,7229;0,0498295
3135,6873;0,0499833
3136,6514;0,0501423
3137,6157;0,0503072
3138,5798;0,0504767
3139,5442;0,0506483
3140,5083;0,0508209
3141,4727;0,0509944
3142,4368;0,0511698
3143,4011;0,0513489
3144,3652;0,0515334
3145,3296;0,0517244
3146,2937;0,0519208
3147,2581;0,0521188
3148,2222;0,0523122
3149,1865;0,0524945
3150,1506;0,0526622
3151,1150;0,0528173
3152,0791;0,0529681
3153,0435;0,0531248
3154,0076;0,0532954
3154,9719;0,0534801
3155,9360;0,0536721
3156,9004;0,0538613
3157,8645;0,0540409
3158,8289;0,0542125
3159,7930;0,0543851
3160,7573;0,0545698
3161,7214;0,0547723
3162,6858;0,0549883
3163,6499;0,055206
3164,6143;0,0554121
3165,5784;0,0555995
3166,5427;0,0557701
3167,5068;0,0559336
3168,4712;0,0561018
3169,4353;0,056258
3170,3997;0,0564588
3171,3638;0,056677
3172,3281;0,0569064
3173,2922;0,0571369
3174,2566;0,0573563
3175,2207;0,0575538
3176,1851;0,0577251
3177,1492;0,0578754
3178,1135;0,0580185
3179,0776;0,0581709
3180,0420;0,0583434
3181,0061;0,0585365
3181,9705;0,0587425
3182,9346;0,0589505
3183,8989;0,0591533
3184,8630;0,059349
3185,8274;0,0595395
3186,7915;0,0597271
3187,7559;0,0599128
3188,7200;0,0600976
3189,6843;0,0602837
3190,6484;0,0604748
3191,6128;0,0606729
3192,5769;0,060875
3193,5413;0,0610732
3194,5054;0,0612587
3195,4697;0,0614277
3196,4338;0,0615841
3197,3982;0,0617381
3198,3623;0,0618999
3199,3267;0,0620746
3200,2908;0,0622611
3201,2551;0,0624537
3202,2192;0,0626469
3203,1836;0,0628371
3204,1477;0,0630224
3205,1121;0,0632017
3206,0762;0,063374
3207,0405;0,0635402
3208,0046;0,0637031
3208,9690;0,0638671
3209,9331;0,0640365
3210,8975;0,0642133
3211,8616;0,0643965
3212,8259;0,064583
3213,7900;0,0647689
3214,7544;0,0649499
3215,7185;0,0651224
3216,6829;0,0652848
3217,6470;0,0654386
3218,6113;0,0655896
3219,5754;0,065746
3220,5398;0,0659143
3221,5039;0,0660961
3222,4683;0,0662873
3223,4324;0,0664809
3224,3967;0,0666712
3225,3608;0,0668564
3226,3252;0,0670377
3227,2893;0,067216
3228,2537;0,0673904
3229,2178;0,0675589
3230,1821;0,0677214
3231,1462;0,0678816
3232,1106;0,0680463
3233,0747;0,0682208
3234,0391;0,068406
3235,0032;0,0685983
3235,9675;0,0687922
3236,9316;0,0689848
3237,8960;0,0691767
3238,8601;0,0693691
3239,8245;0,0695606
3240,7886;0,0697455
3241,7529;0,0699173
3242,7170;0,0700741
3243,6814;0,070222
3244,6455;0,0703739
3245,6099;0,0705431
3246,5740;0,0707356
3247,5383;0,0709481
3248,5024;0,0711703
3249,4668;0,0713918
3250,4309;0,0716059
3251,3953;0,0718101
3252,3594;0,072004
3253,3237;0,0721874
3254,2878;0,0723606
3255,2522;0,0725273
3256,2163;0,0726956
3257,1807;0,0728762
3258,1448;0,0730775
3259,1091;0,0733012
3260,0732;0,0735412
3261,0376;0,073787
3262,0017;0,0740283
3262,9661;0,074259
3263,9302;0,0744784
3264,8945;0,0746892
3265,8586;0,0748953
3266,8230;0,075099
3267,7871;0,0753002
3268,7515;0,0754953
3269,7156;0,0756776
3270,6799;0,0758387
3271,6440;0,0759718
3272,6084;0,0760756
3273,5725;0,0761563
3274,5369;0,0762258
3275,5010;0,0762971
3276,4653;0,0763792
3277,4294;0,076474
3278,3938;0,0765771
3279,3579;0,0766812
3280,3223;0,0767794
3281,2864;0,0768676
3282,2507;0,0769454
3283,2148;0,0770158
3284,1792;0,0770837
3285,1433;0,0771525
3286,1077;0,0772224
3287,0718;0,077289
3288,0361;0,0773454
3289,0002;0,0773859
3289,9646;0,0774102
3290,9287;0,0774239
3291,8931;0,0774361
3292,8572;0,0774541
3293,8215;0,0774798
3294,7856;0,0775091
3295,7500;0,0775349
3296,7141;0,0775513
3297,6785;0,077556
3298,6426;0,0775518
3299,6069;0,0775444
3300,5710;0,0775403
3301,5354;0,077544
3302,4995;0,0775554
3303,4639;0,0775699
3304,4280;0,0775798
3305,3923;0,0775785
3306,3564;0,0775644
3307,3208;0,0775419
3308,2849;0,0775201
3309,2493;0,0775081
3310,2134;0,0775112
3311,1777;0,0775304
3312,1418;0,0775638
3313,1062;0,0776094
3314,0703;0,0776657
3315,0347;0,0777312
3315,9988;0,0778034
3316,9631;0,0778803
3317,9272;0,077961
3318,8916;0,078047
3319,8557;0,0781408
3320,8201;0,0782427
3321,7842;0,0783496
3322,7485;0,0784552
3323,7126;0,0785533
3324,6770;0,0786412
3325,6411;0,0787207
3326,6055;0,0787965
3327,5696;0,0788732
3328,5339;0,0789525
3329,4980;0,0790328
3330,4624;0,0791094
3331,4265;0,0791759
3332,3909;0,0792268
3333,3550;0,079259
3334,3193;0,0792736
3335,2834;0,0792755
3336,2478;0,0792697
3337,2119;0,0792571
3338,1763;0,0792323
3339,1404;0,0791853
3340,1047;0,0791085
3341,0688;0,0790024
3342,0332;0,0788772
3342,9973;0,0787478
3343,9617;0,0786253
3344,9258;0,0785116
3345,8901;0,078399
3346,8542;0,0782772
3347,8186;0,0781391
3348,7827;0,0779845
3349,7471;0,0778183
3350,7112;0,0776467
3351,6755;0,0774754
3352,6396;0,0773095
3353,6040;0,0771532
3354,5681;0,0770086
3355,5325;0,0768723
3356,4966;0,0767353
3357,4609;0,0765876
3358,4250;0,0764248
3359,3894;0,0762538
3360,3535;0,0760891
3361,3179;0,0759443
3362,2820;0,0758225
3363,2463;0,0757131
3364,2104;0,075598
3365,1748;0,0754617
3366,1389;0,0752991
3367,1033;0,0751154
3368,0674;0,0749206
3369,0317;0,0747232
3369,9958;0,0745284
3370,9602;0,0743401
3371,9243;0,0741627
3372,8887;0,0739995
3373,8528;0,0738496
3374,8171;0,0737059
3375,7813;0,0735574
3376,7456;0,0733964
3377,7097;0,0732231
3378,6741;0,0730457
3379,6382;0,072874
3380,6025;0,072713
3381,5667;0,0725592
3382,5310;0,0724055
3383,4951;0,0722475
3384,4595;0,0720885
3385,4236;0,0719382
3386,3879;0,0718046
3387,3521;0,0716869
3388,3164;0,0715747
3389,2805;0,0714533
3390,2449;0,0713128
3391,2090;0,0711536
3392,1733;0,0709855
3393,1375;0,0708202
3394,1018;0,0706639
3395,0659;0,0705146
3396,0303;0,0703651
3396,9944;0,0702083
3397,9587;0,0700405
3398,9229;0,0698608
3399,8872;0,0696695
3400,8513;0,0694683
3401,8157;0,0692621
3402,7798;0,0690601
3403,7441;0,0688728
3404,7083;0,0687068
3405,6726;0,0685591
3406,6367;0,0684177
3407,6011;0,068266
3408,5652;0,0680902
3409,5295;0,0678846
3410,4937;0,0676532
3411,4580;0,0674076
3412,4221;0,0671635
3413,3865;0,066935
3414,3506;0,0667304
3415,3149;0,0665475
3416,2791;0,066374
3417,2434;0,0661924
3418,2075;0,0659876
3419,1719;0,0657556
3420,1360;0,0655061
3421,1003;0,0652566
3422,0645;0,0650216
3423,0288;0,0648044
3423,9929;0,0645964
3424,9573;0,0643836
3425,9214;0,0641552
3426,8857;0,0639087
3427,8499;0,0636504
3428,8142;0,0633922
3429,7783;0,0631453
3430,7427;0,0629155
3431,7068;0,062701
3432,6711;0,0624938
3433,6353;0,0622835
3434,5996;0,0620621
3435,5637;0,0618263
3436,5281;0,0615778
3437,4922;0,0613226
3438,4565;0,0610692
3439,4207;0,060827
3440,3850;0,0606027
3441,3491;0,0603953
3442,3135;0,0601923
3443,2776;0,0599722
3444,2419;0,0597138
3445,2061;0,0594104
3446,1704;0,0590792
3447,1345;0,0587561
3448,0989;0,0584757
3449,0630;0,0582491
3450,0273;0,0580587
3450,9915;0,057871
3451,9558;0,057658
3452,9199;0,0574121
3453,8843;0,0571476
3454,8484;0,0568886
3455,8127;0,0566517
3456,7769;0,0564346
3457,7412;0,05622
3458,7053;0,0559879
3459,6697;0,0557297
3460,6338;0,0554526
3461,5981;0,0551734
3462,5623;0,0549065
3463,5266;0,0546544
3464,4907;0,0544085
3465,4551;0,0541584
3466,4192;0,0539014
3467,3835;0,053645
3468,3477;0,053401
3469,3120;0,0531737
3470,2761;0,0529543
3471,2405;0,0527249
3472,2046;0,0524724
3473,1689;0,0522003
3474,1331;0,0519307
3475,0974;0,0516905
3476,0615;0,0514925
3477,0259;0,0513241
3477,9900;0,0511538
3478,9543;0,05095
3479,9185;0,0507005
3480,8828;0,0504204
3481,8469;0,0501409
3482,8113;0,0498858
3483,7754;0,0496543
3484,7397;0,0494235
3485,7039;0,0491677
3486,6682;0,0488784
3487,6323;0,0485729
3488,5967;0,0482855
3489,5608;0,0480456
3490,5251;0,0478583
3491,4893;0,0477024
3492,4536;0,0475437
3493,4177;0,0473569
3494,3821;0,0471415
3495,3462;0,0469223
3496,3105;0,0467306
3497,2747;0,0465781
3498,2390;0,0464417
3499,2031;0,0462729
3500,1675;0,0460243
3501,1316;0,0456831
3502,0959;0,0452894
3503,0601;0,044921
3504,0244;0,0446429
3504,9885;0,0444646
3505,9529;0,0443399
3506,9170;0,044202
3507,8813;0,0440037
3508,8455;0,0437398
3509,8098;0,0434442
3510,7739;0,0431624
3511,7383;0,0429191
3512,7024;0,042708
3513,6667;0,0425082
3514,6309;0,0423069
3515,5952;0,0421114
3516,5593;0,0419411
3517,5237;0,0418096
3518,4878;0,0417087
3519,4521;0,0416093
3520,4163;0,0414767
3521,3806;0,0412899
3522,3447;0,0410519
3523,3091;0,0407832
3524,2732;0,0405031
3525,2375;0,0402144
3526,2017;0,0399071
3527,1660;0,0395781
3528,1301;0,0392481
3529,0945;0,0389568
3530,0586;0,0387378
3531,0229;0,0385926
3531,9871;0,0384869
3532,9514;0,0383685
3533,9155;0,0381941
3534,8799;0,037953
3535,8440;0,037675
3536,8083;0,0374174
3537,7725;0,0372324
3538,7368;0,0371392
3539,7009;0,0371159
3540,6653;0,03711
3541,6294;0,0370554
3542,5938;0,0368918
3543,5579;0,0365909
3544,5222;0,0361831
3545,4863;0,0357562
3546,4507;0,0354053
3547,4148;0,0351692
3548,3792;0,0350126
3549,3433;0,03486
3550,3076;0,0346462
3551,2717;0,0343551
3552,2361;0,0340313
3553,2002;0,0337523
3554,1646;0,0335721
3555,1287;0,0334851
3556,0930;0,0334382
3557,0571;0,0333737
3558,0215;0,0332697
3558,9856;0,0331558
3559,9500;0,0330929
3560,9141;0,0331225
3561,8784;0,0332213
3562,8425;0,0332892
3563,8069;0,0331731
3564,7710;0,0327287
3565,7354;0,031939
3566,6995;0,0310158
3567,6638;0,0302924
3568,6279;0,0299449
3569,5923;0,0299027
3570,5564;0,0299894
3571,5208;0,0300571
3572,4849;0,0300299
3573,4492;0,0299008
3574,4133;0,029709
3575,3777;0,0295038
3576,3418;0,0293131
3577,3062;0,0291385
3578,2703;0,0289794
3579,2346;0,0288559
3580,1987;0,0288052
3581,1631;0,0288494
3582,1272;0,0289622
3583,0916;0,0290589
3584,0557;0,0290139
3585,0200;0,0287106
3585,9841;0,0281344
3586,9485;0,0274592
3587,9126;0,0269676
3588,8770;0,0268144
3589,8411;0,0269284
3590,8054;0,0271276
3591,7695;0,0272471
3592,7339;0,0271969
3593,6980;0,026983
3594,6624;0,0266947
3595,6265;0,026436
3596,5908;0,026242
3597,5549;0,0260652
3598,5193;0,0258379
3599,4834;0,0255482
3600,4478;0,0252644
3601,4119;0,0250842
3602,3762;0,0250532
3603,3403;0,0251303
3604,3047;0,025214
3605,2688;0,0251949
3606,2332;0,0250071
3607,1973;0,0246667
3608,1616;0,0242657
3609,1257;0,0239064
3610,0901;0,0236355
3611,0542;0,023442
3612,0186;0,0233031
3612,9827;0,0232121
3613,9470;0,0231661
3614,9111;0,0231346
3615,8755;0,0230452
3616,8396;0,022812
3617,8040;0,0224022
3618,7681;0,0219072
3619,7324;0,0215284
3620,6965;0,0214383
3621,6609;0,0216613
3622,6250;0,0220974
3623,5894;0,0226019
3624,5535;0,0230215
3625,5178;0,0231854
3626,4819;0,022915
3627,4463;0,0221378
3628,4104;0,021082
3629,3748;0,0202054
3630,3389;0,0197634
3631,3032;0,0196532
3632,2673;0,0196533
3633,2317;0,0196114
3634,1958;0,0194805
3635,1602;0,0192888
3636,1243;0,0190932
3637,0886;0,0189343
3638,0527;0,01882
3639,0171;0,0187432
3639,9812;0,0187112
3640,9456;0,0187562
3641,9097;0,0189173
3642,8740;0,0192068
3643,8381;0,0195847
3644,8025;0,0199422
3645,7666;0,0200821
3646,7310;0,0197255
3647,6951;0,0186838
3648,6594;0,0172589
3649,6235;0,0162036
3650,5879;0,015895
3651,5520;0,0161002
3652,5164;0,0164464
3653,4805;0,0166769
3654,4448;0,0166673
3655,4089;0,0164232
3656,3733;0,0160741
3657,3374;0,0157924
3658,3018;0,0156669
3659,2659;0,0156665
3660,2302;0,015715
3661,1943;0,0157734
3662,1587;0,0158663
3663,1228;0,0160468
3664,0872;0,0163347
3665,0513;0,0166787
3666,0156;0,0169646
3666,9797;0,0170624
3667,9441;0,0169089
3668,9082;0,0166029
3669,8726;0,0163792
3670,8367;0,0163903
3671,8010;0,0165502
3672,7651;0,0166151
3673,7295;0,0163494
3674,6936;0,0156955
3675,6580;0,0148978
3676,6221;0,0143387
3677,5864;0,0141768
3678,5505;0,0142985
3679,5149;0,0145368
3680,4790;0,0148062
3681,4434;0,0151041
3682,4075;0,0154612
3683,3718;0,0158873
3684,3359;0,0163382
3685,3003;0,0167102
3686,2644;0,0168558
3687,2288;0,0166362
3688,1929;0,0160441
3689,1572;0,0153194
3690,1213;0,0148126
3691,0857;0,0146723
3692,0498;0,014805
3693,0142;0,015062
3693,9783;0,0153516
3694,9426;0,0156392
3695,9067;0,015911
3696,8711;0,0161427
3697,8352;0,0162884
3698,7996;0,016295
3699,7637;0,0161418
3700,7280;0,0158839
3701,6921;0,0156568
3702,6565;0,0156044
3703,6206;0,0157863
3704,5850;0,016157
3705,5491;0,0166104
3706,5134;0,0170184
3707,4775;0,0172361
3708,4419;0,0171072
3709,4060;0,016531
3710,3704;0,0156169
3711,3345;0,0147332
3712,2988;0,014235
3713,2629;0,014192
3714,2273;0,014461
3715,1914;0,0148717
3716,1558;0,0153046
3717,1199;0,0156917
3718,0842;0,0160044
3719,0483;0,0162426
3720,0127;0,0164199
3720,9768;0,0165452
3721,9412;0,0166114
3722,9053;0,0166093
3723,8696;0,0165572
3724,8337;0,0165157
3725,7981;0,0165608
3726,7622;0,0167363
3727,7266;0,0170302
3728,6907;0,017389
3729,6550;0,0177384
3730,6191;0,0179883
3731,5835;0,0180271
3732,5476;0,0177348
3733,5120;0,0170641
3734,4761;0,0161804
3735,4404;0,0154519
3736,4045;0,015166
3737,3689;0,0153302
3738,3330;0,0157759
3739,2974;0,0163119
3740,2615;0,0167714
3741,2258;0,0170071
3742,1899;0,0169138
3743,1543;0,0165248
3744,1184;0,0160929
3745,0828;0,0159308
3746,0469;0,0161071
3747,0112;0,0164083
3747,9753;0,0165194
3748,9397;0,016183
3749,9038;0,0153832
3750,8682;0,0144943
3751,8323;0,0140064
3752,7966;0,0140429
3753,7607;0,0143824
3754,7251;0,0147551
3755,6892;0,0149763
3756,6536;0,0149625
3757,6177;0,0147479
3758,5820;0,0144805
3759,5461;0,0143328
3760,5105;0,0143807
3761,4746;0,014579
3762,4390;0,0148305
3763,4031;0,0150502
3764,3674;0,0151882
3765,3315;0,015226
3766,2959;0,0151602
3767,2600;0,0149914
3768,2244;0,0147319
3769,1885;0,0144315
3770,1528;0,0141842
3771,1169;0,0140881
3772,0813;0,0141848
3773,0454;0,0144373
3774,0098;0,0147539
3774,9739;0,0150251
3775,9382;0,0151557
3776,9023;0,0150996
3777,8667;0,0148963
3778,8308;0,0146649
3779,7952;0,0145257
3780,7593;0,0145146
3781,7236;0,0145799
3782,6877;0,0146413
3783,6521;0,0146441
3784,6162;0,0145812
3785,5806;0,0144863
3786,5447;0,0144086
3787,5090;0,0143881
3788,4731;0,0144437
3789,4375;0,0145733
3790,4016;0,0147574
3791,3660;0,0149638
3792,3301;0,0151586
3793,2944;0,0153228
3794,2585;0,0154665
3795,2229;0,0156236
3796,1870;0,0158179
3797,1514;0,0160212
3798,1155;0,0161441
3799,0798;0,0160812
3800,0439;0,0158015
3801,0083;0,0154165
3801,9724;0,0151105
3802,9368;0,0149694
3803,9009;0,0149182
3804,8652;0,0148167
3805,8293;0,0145905
3806,7937;0,0143106
3807,7578;0,0141579
3808,7222;0,0142718
3809,6863;0,0146428
3810,6506;0,0151489
3811,6147;0,0156424
3812,5791;0,0160022
3813,5432;0,0161668
3814,5076;0,0161695
3815,4717;0,0161244
3816,4360;0,0161223
3817,4001;0,0161283
3818,3645;0,0160094
3819,3286;0,0156653
3820,2930;0,015155
3821,2571;0,0146909
3822,2214;0,0144596
3823,1855;0,0144776
3824,1499;0,014641
3825,1140;0,0148406
3826,0784;0,0150178
3827,0425;0,0151659
3828,0068;0,0153058
3828,9709;0,0154602
3829,9353;0,0156371
3830,8994;0,0158324
3831,8638;0,0160369
3832,8279;0,0162365
3833,7922;0,0164018
3834,7563;0,0164797
3835,7207;0,0164046
3836,6848;0,0161388
3837,6492;0,0157222
3838,6133;0,0152727
3839,5776;0,0149063
3840,5417;0,014662
3841,5061;0,0145165
3842,4702;0,0144473
3843,4346;0,0144698
3844,3987;0,0146287
3845,3630;0,0149629
3846,3271;0,0154769
3847,2915;0,016133
3848,2556;0,0168522
3849,2200;0,0174998
3850,1841;0,0178533
3851,1484;0,017606
3852,1125;0,0165785
3853,0769;0,0151576
3854,0410;0,0141541
3855,0054;0,0139114
3855,9695;0,0141944
3856,9338;0,014694
3857,8979;0,0152215
3858,8623;0,0156697
3859,8264;0,0159634
3860,7908;0,0160549
3861,7549;0,0159573
3862,7192;0,0157767
3863,6833;0,0156698
3864,6477;0,0157324
3865,6118;0,0159361
3866,5762;0,0161675
3867,5403;0,0162974
3868,5046;0,0162324
3869,4688;0,0159541
3870,4331;0,0155409
3871,3972;0,0151383
3872,3616;0,0148807
3873,3257;0,0148287
3874,2900;0,0149648
3875,2542;0,0152229
3876,2185;0,0155175
3877,1826;0,015766
3878,1470;0,0159096
3879,1111;0,0159354
3880,0754;0,0158792
3881,0396;0,0157924
3882,0039;0,0156955
3882,9680;0,015576
3883,9324;0,0154344
3884,8965;0,0153206
3885,8608;0,0153041
3886,8250;0,0154032
3887,7893;0,0155507
3888,7534;0,0156263
3889,7178;0,0155318
3890,6819;0,0152749
3891,6462;0,0150051
3892,6104;0,0149196
3893,5747;0,0151053
3894,5388;0,0154994
3895,5032;0,0159707
3896,4673;0,0163941
3897,4316;0,016681
3898,3958;0,0167882
3899,3601;0,0167162
3900,3242;0,0164854
3901,2886;0,0161138
3902,2527;0,0156343
3903,2170;0,0151325
3904,1812;0,0147318
3905,1455;0,0145184
3906,1096;0,0144915
3907,0740;0,0145884
3908,0381;0,0147384
3909,0024;0,0148967
3909,9666;0,015052
3910,9309;0,0152151
3911,8950;0,0153957
3912,8594;0,0155815
3913,8235;0,0157326
3914,7878;0,0157989
3915,7520;0,0157558
3916,7163;0,0156355
3917,6804;0,0155182
3918,6448;0,0154749
3919,6089;0,0155138
3920,5732;0,0155817
3921,5374;0,0156073
3922,5017;0,0155503
3923,4658;0,0154325
3924,4302;0,0153296
3925,3943;0,015317
3926,3586;0,0154126
3927,3228;0,0155647
3928,2871;0,0156855
3929,2512;0,0156961
3930,2156;0,0155685
3931,1797;0,0153465
3932,1440;0,0151238
3933,1082;0,0149844
3934,0725;0,0149595
3935,0366;0,0150331
3936,0010;0,0151696
3936,9651;0,0153315
3937,9294;0,0154825
3938,8936;0,0155877
3939,8579;0,0156215
3940,8220;0,015584
3941,7864;0,0155103
3942,7505;0,0154554
3943,7148;0,0154582
3944,6790;0,0155134
3945,6433;0,0155763
3946,6074;0,0155927
3947,5718;0,0155328
3948,5359;0,0154114
3949,5002;0,0152801
3950,4644;0,0151913
3951,4287;0,0151659
3952,3928;0,01519
3953,3572;0,0152355
3954,3213;0,0152813
3955,2856;0,0153217
3956,2498;0,0153596
3957,2141;0,0153947
3958,1782;0,0154173
3959,1426;0,0154139
3960,1067;0,015379
3961,0710;0,0153242
3962,0352;0,0152747
3962,9995;0,0152554
3963,9636;0,0152764
3964,9280;0,0153291
3965,8921;0,0153929
3966,8564;0,0154465
3967,8206;0,0154775
3968,7849;0,0154848
3969,7490;0,0154747
3970,7134;0,0154545
3971,6775;0,0154282
3972,6418;0,0153975
3973,6060;0,0153653
3974,5703;0,0153382
3975,5344;0,0153245
3976,4988;0,0153291
3977,4629;0,0153492
3978,4272;0,0153752
3979,3914;0,015395
3980,3557;0,015401
3981,3198;0,0153945
3982,2842;0,0153852
3983,2483;0,0153853
3984,2126;0,0154015
3985,1768;0,0154316
3986,1411;0,0154656
3987,1052;0,0154918
3988,0696;0,0155031
3989,0337;0,0154997
3989,9980;0,0154874
3990,9622;0,0154726
3991,9265;0,0154587
3992,8906;0,0154461
3993,8550;0,015435
3994,8191;0,0154285
3995,7834;0,015431
3996,7476;0,0154445
3997,7119;0,015465
3998,6760;0,0154837
3999,6404;0,0154914
4000,6045;0,015413

##### Extended Information
[Comments]
Sample name
Comment
Username
Division
Organization;UNIVERSIDAD INDUSTRIAL DE SANTANDER

[Detailed Information]
Creation date;10/03/2025 7:50 p.m.

Data array type;Linear data array
Horizontal axis;Wavenumber [cm-1]
Vertical axis;Abs
Start;399,193 cm-1
End;4000,6 cm-1
Data interval;0,964233 cm-1
Data points;3736    

[Measurement Information]
Model name;FT/IR-4X1typeA
Serial No.;A035162111

Accessory;ATR PRO 4X
Accessory S/N;A021162126
Incident angle;45 deg

Measurement date;10/03/2025 7:50 p.m.

Light source;Standard
Detector;TGS
Accumulation;40
Resolution;4 cm-1
Zero filling;On
Apodization;Cosine
Gain;Auto (8)
Aperture;Auto (7 mm)
Scan speed;Auto (2 mm/sec)
Filter;Auto (12800 Hz)

