TITLE;
DATA TYPE;INFRARED SPECTRUM
ORIGIN;JASCO
OWNER;
DATE;25/03/10
TIME;19:48:50
SPECTROMETER/DATA SYSTEM;
LOCALE;9226
RESOLUTION;
DELTAX;0,964233
XUNITS;1/CM
YUNITS;ABSORBANCE
FIRSTX;  399,1927
LASTX; 4000,6047
NPOINTS;    3736
FIRSTY;     0,19797
MAXY;     0,27357
MINY;     0,01117
XYDATA
399,1927;0,197972
400,1569;0,197916
401,1211;0,196481
402,0854;0,194449
403,0496;0,19261
404,0138;0,191608
404,9781;0,191786
405,9423;0,193003
406,9065;0,194614
407,8708;0,195793
408,8350;0,196023
409,7992;0,195387
410,7635;0,194473
411,7277;0,193946
412,6919;0,194103
413,6562;0,194744
414,6204;0,195418
415,5846;0,195752
416,5489;0,195651
417,5131;0,195385
418,4773;0,195474
419,4416;0,196174
420,4058;0,197093
421,3700;0,197693
422,3343;0,197856
423,2985;0,197835
424,2627;0,19799
425,2270;0,198561
426,1912;0,199531
427,1554;0,200632
428,1197;0,201517
429,0839;0,20195
430,0481;0,201907
431,0124;0,201565
431,9766;0,201196
432,9408;0,201036
433,9051;0,20117
434,8693;0,201494
435,8335;0,201773
436,7978;0,201763
437,7620;0,201332
438,7262;0,200508
439,6905;0,199445
440,6547;0,198371
441,6189;0,197527
442,5832;0,197114
443,5474;0,197204
444,5116;0,1977
445,4759;0,198363
446,4401;0,198914
447,4043;0,199131
448,3686;0,19891
449,3328;0,198293
450,2970;0,197463
451,2613;0,196684
452,2255;0,19619
453,1897;0,196073
454,1540;0,196243
455,1182;0,196483
456,0824;0,196549
457,0467;0,196299
458,0109;0,195786
458,9751;0,195223
459,9394;0,194804
460,9036;0,194555
461,8678;0,194352
462,8321;0,194022
463,7963;0,193448
464,7605;0,192635
465,7248;0,191731
466,6890;0,190975
467,6532;0,190583
468,6175;0,190657
469,5817;0,191144
470,5459;0,191861
471,5102;0,192557
472,4744;0,193031
473,4386;0,19324
474,4029;0,193297
475,3671;0,193352
476,3313;0,193479
477,2956;0,193649
478,2598;0,193789
479,2240;0,193843
480,1883;0,193818
481,1525;0,193776
482,1167;0,193784
483,0810;0,193872
484,0452;0,194026
485,0094;0,194224
485,9737;0,194474
486,9379;0,194818
487,9021;0,195292
488,8664;0,195883
489,8306;0,196517
490,7948;0,197081
491,7591;0,197479
492,7233;0,197687
493,6875;0,197758
494,6518;0,197786
495,6160;0,197858
496,5802;0,19803
497,5445;0,198339
498,5087;0,198808
499,4729;0,199441
500,4372;0,200201
501,4014;0,201001
502,3656;0,201722
503,3299;0,202273
504,2941;0,202634
505,2583;0,202851
506,2226;0,203001
507,1868;0,203146
508,1510;0,203324
509,1153;0,203549
510,0795;0,203821
511,0437;0,204136
512,0080;0,204486
512,9722;0,204866
513,9365;0,20527
514,9007;0,20569
515,8649;0,206115
516,8292;0,206526
517,7934;0,206906
518,7576;0,207252
519,7219;0,207581
520,6861;0,20792
521,6503;0,208269
522,6146;0,208591
523,5788;0,208811
524,5430;0,208855
525,5073;0,208696
526,4715;0,208397
527,4357;0,208082
528,4000;0,207861
529,3642;0,207774
530,3284;0,207782
531,2927;0,207806
532,2569;0,207761
533,2211;0,20759
534,1854;0,207278
535,1496;0,206854
536,1138;0,206387
537,0781;0,20596
538,0423;0,205637
539,0065;0,205433
539,9708;0,205297
540,9350;0,205151
541,8992;0,204937
542,8635;0,204671
543,8277;0,204449
544,7919;0,204395
545,7562;0,204594
546,7204;0,205035
547,6846;0,20562
548,6489;0,206225
549,6131;0,20677
550,5773;0,207252
551,5416;0,207713
552,5058;0,208193
553,4700;0,20869
554,4343;0,209159
555,3985;0,209535
556,3627;0,209755
557,3270;0,209774
558,2912;0,209558
559,2554;0,209095
560,2197;0,208397
561,1839;0,20752
562,1481;0,206561
563,1124;0,205622
564,0766;0,204774
565,0408;0,204033
566,0051;0,203363
566,9693;0,202713
567,9335;0,20206
568,8978;0,201424
569,8620;0,200856
570,8262;0,200401
571,7905;0,200074
572,7547;0,199855
573,7189;0,199709
574,6832;0,199596
575,6474;0,199482
576,6116;0,199348
577,5759;0,199189
578,5401;0,199018
579,5043;0,198854
580,4686;0,198713
581,4328;0,198593
582,3970;0,198467
583,3613;0,198297
584,3255;0,198057
585,2897;0,19776
586,2540;0,197458
587,2182;0,197226
588,1824;0,197123
589,1467;0,197164
590,1109;0,197308
591,0751;0,197462
592,0394;0,197521
593,0036;0,19741
593,9678;0,197115
594,9321;0,196682
595,8963;0,196185
596,8605;0,195685
597,8248;0,195215
598,7890;0,19477
599,7532;0,194323
600,7175;0,19385
601,6817;0,193348
602,6459;0,192847
603,6102;0,192387
604,5744;0,191999
605,5386;0,191679
606,5029;0,191384
607,4671;0,191044
608,4313;0,190592
609,3956;0,189993
610,3598;0,189265
611,3240;0,188467
612,2883;0,187679
613,2525;0,186963
614,2167;0,186336
615,1810;0,185759
616,1452;0,185149
617,1094;0,184406
618,0737;0,183458
619,0379;0,182294
620,0021;0,180961
620,9664;0,179545
621,9306;0,178142
622,8948;0,176836
623,8591;0,175688
624,8233;0,174715
625,7875;0,173902
626,7518;0,173188
627,7160;0,172505
628,6802;0,171805
629,6445;0,171074
630,6087;0,170325
631,5729;0,169574
632,5372;0,168835
633,5014;0,168115
634,4656;0,167429
635,4299;0,166808
636,3941;0,166286
637,3583;0,16588
638,3226;0,165571
639,2868;0,165305
640,2510;0,165016
641,2153;0,16466
642,1795;0,164233
643,1437;0,163774
644,1080;0,16334
645,0722;0,162978
646,0364;0,162703
647,0007;0,162496
647,9649;0,162312
648,9291;0,162103
649,8934;0,161841
650,8576;0,161532
651,8218;0,161211
652,7861;0,160931
653,7503;0,160746
654,7145;0,16069
655,6788;0,160769
656,6430;0,160952
657,6072;0,161173
658,5715;0,161337
659,5357;0,161337
660,4999;0,161094
661,4642;0,160606
662,4284;0,159959
663,3926;0,159276
664,3569;0,158673
665,3211;0,158242
666,2853;0,158036
667,2496;0,157951
668,2138;0,157605
669,1780;0,156652
670,1423;0,155257
671,1065;0,153768
672,0707;0,15229
673,0350;0,150755
673,9992;0,149095
674,9634;0,147318
675,9277;0,145515
676,8919;0,143812
677,8561;0,142293
678,8204;0,140967
679,7846;0,139796
680,7488;0,138728
681,7131;0,137728
682,6773;0,136785
683,6415;0,1359
684,6058;0,135086
685,5700;0,134349
686,5342;0,133688
687,4985;0,133082
688,4627;0,132504
689,4269;0,131933
690,3912;0,131362
691,3554;0,130804
692,3196;0,130273
693,2839;0,129777
694,2481;0,129314
695,2123;0,128876
696,1766;0,128452
697,1408;0,12803
698,1050;0,127598
699,0693;0,127142
700,0335;0,12665
700,9977;0,126122
701,9620;0,125563
702,9262;0,124988
703,8904;0,12441
704,8547;0,123844
705,8189;0,123297
706,7831;0,122769
707,7474;0,122256
708,7116;0,121748
709,6758;0,12123
710,6401;0,120687
711,6043;0,120104
712,5685;0,119481
713,5328;0,118835
714,4970;0,118202
715,4612;0,117493
716,4255;0,117008
717,3897;0,11658
718,3539;0,116139
719,3182;0,115593
720,2824;0,114878
721,2466;0,113999
722,2109;0,113023
723,1751;0,112038
724,1393;0,111106
725,1036;0,110245
726,0678;0,109439
727,0320;0,108662
727,9963;0,107902
728,9605;0,107164
729,9247;0,106456
730,8890;0,105782
731,8532;0,105137
732,8174;0,104507
733,7817;0,103883
734,7459;0,103265
735,7101;0,102661
736,6744;0,102088
737,6386;0,10156
738,6028;0,101084
739,5671;0,100652
740,5313;0,10024
741,4955;0,0998192
742,4598;0,0993654
743,4240;0,0988723
744,3882;0,0983521
745,3525;0,0978271
746,3167;0,0973146
747,2809;0,0968177
748,2452;0,0963247
749,2094;0,0958171
750,1736;0,0952808
751,1379;0,0947127
752,1021;0,0941218
753,0663;0,0935256
754,0306;0,0929449
754,9948;0,0923983
755,9590;0,0918965
756,9233;0,0914372
757,8875;0,0910048
758,8517;0,0905749
759,8160;0,0901266
760,7802;0,0896543
761,7444;0,0891728
762,7087;0,0887109
763,6729;0,0882946
764,6371;0,0879301
765,6014;0,0875978
766,5656;0,0872615
767,5298;0,0868884
768,4941;0,0864671
769,4583;0,0860129
770,4225;0,0855568
771,3868;0,0851269
772,3510;0,0847335
773,3152;0,0843687
774,2795;0,0840172
775,2437;0,0836711
776,2079;0,0833366
777,1722;0,0830285
778,1364;0,0827562
779,1006;0,0825135
780,0649;0,0822772
781,0291;0,082018
781,9933;0,0817143
782,9576;0,0813614
783,9218;0,0809714
784,8860;0,0805662
785,8503;0,0801682
786,8145;0,0797949
787,7787;0,0794573
788,7430;0,0791611
789,7072;0,0789073
790,6714;0,0786922
791,6357;0,0785079
792,5999;0,0783432
793,5641;0,078186
794,5284;0,0780256
795,4926;0,0778546
796,4568;0,0776695
797,4211;0,0774711
798,3853;0,0772641
799,3495;0,0770557
800,3138;0,0768536
801,2780;0,0766637
802,2422;0,0764888
803,2065;0,0763285
804,1707;0,0761783
805,1349;0,0760292
806,0992;0,0758692
807,0634;0,0756857
808,0276;0,0754716
808,9919;0,0752296
809,9561;0,0749733
810,9203;0,0747223
811,8846;0,0744944
812,8488;0,0742977
813,8130;0,074128
814,7773;0,0739726
815,7415;0,0738163
816,7057;0,0736482
817,6700;0,073466
818,6342;0,0732751
819,5984;0,0730852
820,5627;0,0729044
821,5269;0,0727337
822,4911;0,0725653
823,4554;0,0723864
824,4196;0,072187
825,3839;0,0719674
826,3481;0,071741
827,3123;0,0715293
828,2766;0,0713522
829,2408;0,0712173
830,2050;0,0711158
831,1693;0,0710248
832,1335;0,070916
833,0977;0,0707641
834,0620;0,0705552
835,0262;0,0702902
835,9904;0,0699839
836,9547;0,0696594
837,9189;0,0693399
838,8831;0,0690395
839,8474;0,06876
840,8116;0,0684928
841,7758;0,0682273
842,7401;0,067959
843,7043;0,0676932
844,6685;0,067442
845,6328;0,0672187
846,5970;0,067032
847,5612;0,0668836
848,5255;0,0667697
849,4897;0,0666826
850,4539;0,0666119
851,4182;0,0665459
852,3824;0,0664743
853,3466;0,0663907
854,3109;0,0662959
855,2751;0,0661963
856,2393;0,0661017
857,2036;0,0660207
858,1678;0,0659596
859,1320;0,0659226
860,0963;0,0659122
861,0605;0,06593
862,0247;0,0659753
862,9890;0,066045
863,9532;0,0661362
864,9174;0,0662485
865,8817;0,0663862
866,8459;0,0665548
867,8101;0,0667561
868,7744;0,0669831
869,7386;0,0672203
870,7028;0,0674494
871,6671;0,0676567
872,6313;0,067839
873,5955;0,0680027
874,5598;0,068158
875,5240;0,068312
876,4882;0,0684647
877,4525;0,0686117
878,4167;0,0687508
879,3809;0,0688895
880,3452;0,0690488
881,3094;0,0692588
882,2736;0,0695503
883,2379;0,0699457
884,2021;0,0704544
885,1663;0,0710758
886,1306;0,0718048
887,0948;0,0726363
888,0590;0,073564
889,0233;0,0745752
889,9875;0,0756452
890,9517;0,0767375
891,9160;0,0778085
892,8802;0,0788138
893,8444;0,079712
894,8087;0,0804636
895,7729;0,0810294
896,7371;0,081373
897,7014;0,0814679
898,6656;0,0813066
899,6298;0,0809049
900,5941;0,0802983
901,5583;0,0795325
902,5225;0,0786544
903,4868;0,0777084
904,4510;0,0767389
905,4152;0,0757926
906,3795;0,0749167
907,3437;0,0741516
908,3079;0,0735215
909,2722;0,0730303
910,2364;0,0726639
911,2007;0,0723996
912,1649;0,0722151
913,1292;0,0720949
914,0934;0,0720312
915,0576;0,0720217
916,0219;0,0720668
916,9861;0,0721674
917,9503;0,0723218
918,9146;0,0725242
919,8788;0,0727627
920,8430;0,0730213
921,8073;0,0732842
922,7715;0,0735419
923,7357;0,0737934
924,7000;0,0740448
925,6642;0,0743024
926,6284;0,0745671
927,5927;0,074833
928,5569;0,0750909
929,5211;0,075335
930,4854;0,0755661
931,4496;0,0757918
932,4138;0,0760223
933,3781;0,0762671
934,3423;0,0765353
935,3065;0,0768361
936,2708;0,0771805
937,2350;0,0775789
938,1992;0,0780377
939,1635;0,0785575
940,1277;0,0791336
941,0919;0,0797605
942,0562;0,0804356
943,0204;0,0811609
943,9846;0,0819417
944,9489;0,082785
945,9131;0,083698
946,8773;0,084687
947,8416;0,0857554
948,8058;0,0869009
949,7700;0,0881145
950,7343;0,0893841
951,6985;0,0907021
952,6627;0,0920721
953,6270;0,0935109
954,5912;0,0950409
955,5554;0,0966797
956,5197;0,0984305
957,4839;0,100281
958,4481;0,102209
959,4124;0,10419
960,3766;0,106204
961,3408;0,108231
962,3051;0,110253
963,2693;0,112255
964,2335;0,11423
965,1978;0,116184
966,1620;0,118136
967,1262;0,120117
968,0905;0,122158
969,0547;0,124286
970,0189;0,126526
970,9832;0,1289
971,9474;0,131434
972,9116;0,134157
973,8759;0,137102
974,8401;0,140297
975,8043;0,143767
976,7686;0,147517
977,7328;0,151533
978,6970;0,155769
979,6613;0,160145
980,6255;0,164557
981,5897;0,168889
982,5540;0,173031
983,5182;0,17689
984,4824;0,180406
985,4467;0,18355
986,4109;0,186331
987,3751;0,188779
988,3394;0,190941
989,3036;0,192861
990,2678;0,194568
991,2321;0,196074
992,1963;0,197381
993,1605;0,198501
994,1248;0,199469
995,0890;0,20034
996,0532;0,20118
997,0175;0,202046
997,9817;0,202969
998,9459;0,203955
999,9102;0,204998
1000,8744;0,206098
1001,8386;0,207267
1002,8029;0,208535
1003,7671;0,20994
1004,7313;0,21152
1005,6956;0,21331
1006,6598;0,21534
1007,6240;0,217631
1008,5883;0,220194
1009,5525;0,223021
1010,5167;0,226084
1011,4810;0,229334
1012,4452;0,232703
1013,4094;0,236113
1014,3737;0,239489
1015,3379;0,242769
1016,3021;0,245901
1017,2664;0,248856
1018,2306;0,251616
1019,1948;0,254178
1020,1591;0,256551
1021,1233;0,25875
1022,0875;0,260796
1023,0518;0,262713
1024,0160;0,264523
1024,9802;0,266239
1025,9445;0,267863
1026,9087;0,269383
1027,8729;0,270768
1028,8372;0,271965
1029,8014;0,272895
1030,7656;0,273463
1031,7299;0,27357
1032,6941;0,273134
1033,6583;0,272125
1034,6226;0,270577
1035,5868;0,268596
1036,5510;0,266345
1037,5153;0,264013
1038,4795;0,261782
1039,4437;0,259798
1040,4080;0,258156
1041,3722;0,256887
1042,3364;0,255963
1043,3007;0,255306
1044,2649;0,254805
1045,2291;0,254339
1046,1934;0,253801
1047,1576;0,253108
1048,1218;0,252209
1049,0861;0,251078
1050,0503;0,249699
1051,0145;0,248066
1051,9788;0,246181
1052,9430;0,244061
1053,9072;0,241736
1054,8715;0,239241
1055,8357;0,236591
1056,7999;0,233773
1057,7642;0,230737
1058,7284;0,22742
1059,6926;0,223781
1060,6569;0,219838
1061,6211;0,215677
1062,5853;0,211438
1063,5496;0,207284
1064,5138;0,20335
1065,4780;0,199721
1066,4423;0,196423
1067,4065;0,193429
1068,3707;0,190686
1069,3350;0,188131
1070,2992;0,185705
1071,2634;0,183356
1072,2277;0,181036
1073,1919;0,178703
1074,1561;0,176324
1075,1204;0,173879
1076,0846;0,171374
1077,0488;0,168839
1078,0131;0,16633
1078,9773;0,163912
1079,9415;0,161643
1080,9058;0,159563
1081,8700;0,157692
1082,8342;0,156031
1083,7985;0,154577
1084,7627;0,153324
1085,7269;0,15226
1086,6912;0,151364
1087,6554;0,150606
1088,6196;0,149952
1089,5839;0,149378
1090,5481;0,148874
1091,5123;0,148448
1092,4766;0,148113
1093,4408;0,147876
1094,4050;0,147736
1095,3693;0,147681
1096,3335;0,147699
1097,2977;0,147778
1098,2620;0,147906
1099,2262;0,148069
1100,1904;0,148247
1101,1547;0,148416
1102,1189;0,148554
1103,0831;0,148639
1104,0474;0,148653
1105,0116;0,148579
1105,9758;0,148401
1106,9401;0,148104
1107,9043;0,147677
1108,8685;0,147111
1109,8328;0,146391
1110,7970;0,145495
1111,7612;0,144403
1112,7255;0,143113
1113,6897;0,141649
1114,6539;0,140073
1115,6182;0,13847
1116,5824;0,136924
1117,5466;0,13549
1118,5109;0,134177
1119,4751;0,132949
1120,4393;0,131732
1121,4036;0,130442
1122,3678;0,128999
1123,3320;0,127345
1124,2963;0,125453
1125,2605;0,123324
1126,2247;0,120986
1127,1890;0,118485
1128,1532;0,115874
1129,1174;0,113207
1130,0817;0,110534
1131,0459;0,107897
1132,0101;0,105335
1132,9744;0,102886
1133,9386;0,10059
1134,9028;0,0984903
1135,8671;0,0966309
1136,8313;0,0950513
1137,7955;0,0937775
1138,7598;0,0928168
1139,7240;0,0921551
1140,6882;0,0917615
1141,6525;0,0915964
1142,6167;0,0916209
1143,5809;0,0918033
1144,5452;0,0921207
1145,5094;0,0925575
1146,4736;0,0931017
1147,4379;0,0937427
1148,4021;0,0944685
1149,3663;0,0952643
1150,3306;0,0961094
1151,2948;0,0969741
1152,2590;0,0978201
1153,2233;0,0986019
1154,1875;0,0992728
1155,1517;0,0997886
1156,1160;0,100108
1157,0802;0,100191
1158,0444;0,0999896
1159,0087;0,0994492
1159,9729;0,0985105
1160,9371;0,0971214
1161,9014;0,0952539
1162,8656;0,0929168
1163,8298;0,0901633
1164,7941;0,0870863
1165,7583;0,0838066
1166,7225;0,0804551
1167,6868;0,0771552
1168,6510;0,0740071
1169,6152;0,0710787
1170,5795;0,0684045
1171,5437;0,0659915
1172,5079;0,0638309
1173,4722;0,0619081
1174,4364;0,0602099
1175,4006;0,0587247
1176,3649;0,0574394
1177,3291;0,0563367
1178,2933;0,0553946
1179,2576;0,0545889
1180,2218;0,0538974
1181,1860;0,0533029
1182,1503;0,0527941
1183,1145;0,0523654
1184,0787;0,0520163
1185,0430;0,0517497
1186,0072;0,051571
1186,9714;0,0514859
1187,9357;0,0514989
1188,8999;0,0516122
1189,8641;0,0518256
1190,8284;0,0521372
1191,7926;0,0525434
1192,7568;0,0530394
1193,7211;0,0536182
1194,6853;0,0542696
1195,6495;0,0549808
1196,6138;0,0557368
1197,5780;0,0565219
1198,5422;0,0573224
1199,5065;0,0580567
1200,4707;0,058869
1201,4349;0,0596761
1202,3992;0,0604732
1203,3634;0,0612535
1204,3276;0,0620077
1205,2919;0,0627277
1206,2561;0,0634121
1207,2203;0,0640717
1208,1846;0,0647309
1209,1488;0,0654226
1210,1130;0,0661794
1211,0773;0,0670233
1212,0415;0,0679593
1213,0057;0,0689769
1213,9700;0,0700569
1214,9342;0,0711803
1215,8984;0,0723324
1216,8627;0,0735014
1217,8269;0,0746738
1218,7911;0,0758322
1219,7554;0,0769562
1220,7196;0,0780277
1221,6838;0,0790353
1222,6481;0,0799762
1223,6123;0,0808548
1224,5765;0,0816786
1225,5408;0,0824556
1226,5050;0,0831925
1227,4692;0,0838933
1228,4335;0,0845585
1229,3977;0,0851855
1230,3619;0,0857684
1231,3262;0,0863015
1232,2904;0,0867812
1233,2546;0,087208
1234,2189;0,0875853
1235,1831;0,0879172
1236,1473;0,0882056
1237,1116;0,0884497
1238,0758;0,0886472
1239,0400;0,0887954
1240,0043;0,0888931
1240,9685;0,0889396
1241,9327;0,0889348
1242,8970;0,088878
1243,8612;0,0887679
1244,8254;0,0886027
1245,7897;0,0883805
1246,7539;0,0881004
1247,7181;0,0877645
1248,6824;0,0873783
1249,6466;0,0869518
1250,6108;0,086498
1251,5751;0,0860309
1252,5393;0,0855627
1253,5035;0,0851002
1254,4678;0,0846427
1255,4320;0,0841813
1256,3962;0,0837017
1257,3605;0,0831889
1258,3247;0,0826337
1259,2889;0,0820355
1260,2532;0,0814007
1261,2174;0,0807368
1262,1816;0,0800463
1263,1459;0,0793245
1264,1101;0,0785631
1265,0743;0,077756
1266,0386;0,0769024
1267,0028;0,0760063
1267,9670;0,0750725
1268,9313;0,0741047
1269,8955;0,0731064
1270,8597;0,0720847
1271,8240;0,0710524
1272,7882;0,0700262
1273,7524;0,0690228
1274,7167;0,0680548
1275,6809;0,0671295
1276,6451;0,0662492
1277,6094;0,0654121
1278,5736;0,064612
1279,5378;0,0638397
1280,5021;0,0630857
1281,4663;0,0623434
1282,4305;0,061613
1283,3948;0,0609006
1284,3590;0,0602167
1285,3232;0,059573
1286,2875;0,0589805
1287,2517;0,0584495
1288,2159;0,0579886
1289,1802;0,0576037
1290,1444;0,0572962
1291,1086;0,0570634
1292,0729;0,0569
1293,0371;0,0568016
1294,0013;0,0567668
1294,9656;0,0567973
1295,9298;0,0568971
1296,8940;0,0570703
1297,8583;0,0573195
1298,8225;0,0576455
1299,7867;0,0580452
1300,7510;0,0585113
1301,7152;0,0590339
1302,6794;0,0596022
1303,6437;0,0602086
1304,6079;0,0608502
1305,5721;0,0615269
1306,5364;0,0622364
1307,5006;0,0629709
1308,4648;0,063719
1309,4291;0,0644687
1310,3933;0,0652116
1311,3575;0,0659406
1312,3218;0,0666463
1313,2860;0,0673111
1314,2502;0,0679086
1315,2145;0,0684071
1316,1787;0,0687758
1317,1429;0,0689934
1318,1072;0,0690567
1319,0714;0,0689865
1320,0356;0,0688234
1320,9999;0,0686132
1321,9641;0,0683914
1322,9283;0,0681764
1323,8926;0,0679737
1324,8568;0,0677836
1325,8210;0,0676055
1326,7853;0,0674376
1327,7495;0,0672742
1328,7137;0,0671046
1329,6780;0,0669147
1330,6422;0,0666918
1331,6064;0,0664283
1332,5707;0,0661218
1333,5349;0,065771
1334,4991;0,0653687
1335,4634;0,0648976
1336,4276;0,0643345
1337,3918;0,0636656
1338,3561;0,0629109
1339,3203;0,0621379
1340,2845;0,0614365
1341,2488;0,0608656
1342,2130;0,0604256
1343,1772;0,0600796
1344,1415;0,05979
1345,1057;0,0595407
1346,0699;0,0593397
1347,0342;0,0592095
1347,9984;0,0591725
1348,9626;0,0592404
1349,9269;0,0594095
1350,8911;0,0596639
1351,8553;0,0599842
1352,8196;0,0603559
1353,7838;0,0607742
1354,7480;0,0612417
1355,7123;0,0617598
1356,6765;0,0623205
1357,6407;0,0629073
1358,6050;0,0635044
1359,5692;0,0641058
1360,5334;0,0647145
1361,4977;0,0653315
1362,4619;0,0659476
1363,4261;0,0665474
1364,3904;0,0671197
1365,3546;0,067658
1366,3188;0,0681545
1367,2831;0,0685965
1368,2473;0,0689658
1369,2115;0,069242
1370,1758;0,0694073
1371,1400;0,069448
1372,1042;0,0693548
1373,0685;0,0691259
1374,0327;0,0687776
1374,9969;0,0683457
1375,9612;0,0678619
1376,9254;0,0673216
1377,8896;0,0666819
1378,8539;0,0658977
1379,8181;0,0649652
1380,7823;0,063939
1381,7466;0,0629018
1382,7108;0,0619063
1383,6750;0,0609387
1384,6393;0,0599343
1385,6035;0,0588383
1386,5677;0,0576813
1387,5320;0,056603
1388,4962;0,0557609
1389,4604;0,0552049
1390,4247;0,0548635
1391,3889;0,0546229
1392,3531;0,0543954
1393,3174;0,0541428
1394,2816;0,0538737
1395,2458;0,0536273
1396,2101;0,0534499
1397,1743;0,0533734
1398,1385;0,0534087
1399,1028;0,0535496
1400,0670;0,053776
1401,0313;0,0540577
1401,9955;0,0543636
1402,9597;0,0546739
1403,9240;0,0549897
1404,8882;0,0553312
1405,8524;0,0557238
1406,8167;0,0561783
1407,7809;0,0566863
1408,7451;0,0572336
1409,7094;0,0578165
1410,6736;0,0584432
1411,6378;0,0591194
1412,6021;0,0598313
1413,5663;0,0605447
1414,5305;0,0612206
1415,4948;0,0618316
1416,4590;0,0623668
1417,4232;0,0628268
1418,3875;0,0632221
1419,3517;0,0635743
1420,3159;0,0638936
1421,2802;0,0641471
1422,2444;0,06427
1423,2086;0,0642114
1424,1729;0,0639672
1425,1371;0,0635734
1426,1013;0,0630647
1427,0656;0,0624359
1428,0298;0,0616499
1428,9940;0,0606953
1429,9583;0,0596442
1430,9225;0,0586303
1431,8867;0,0577463
1432,8510;0,056969
1433,8152;0,0561816
1434,7794;0,0552589
1435,7437;0,0541832
1436,7079;0,053129
1437,6721;0,0523602
1438,6364;0,0519899
1439,6006;0,0519252
1440,5648;0,0520139
1441,5291;0,0521591
1442,4933;0,0523363
1443,4575;0,0525618
1444,4218;0,0528562
1445,3860;0,0532226
1446,3502;0,053646
1447,3145;0,0541049
1448,2787;0,0545843
1449,2429;0,0550768
1450,2072;0,0555725
1451,1714;0,0560489
1452,1356;0,0564717
1453,0999;0,0568025
1454,0641;0,0569991
1455,0283;0,0569991
1455,9926;0,0567205
1456,9568;0,0561985
1457,9210;0,055751
1458,8853;0,0556617
1459,8495;0,0558582
1460,8137;0,0561087
1461,7780;0,0562113
1462,7422;0,0560114
1463,7064;0,0554056
1464,6707;0,0544183
1465,6349;0,053258
1466,5991;0,0521723
1467,5634;0,0512365
1468,5276;0,0503379
1469,4918;0,0492751
1470,4561;0,0478241
1471,4203;0,0458057
1472,3845;0,0432686
1473,3488;0,040669
1474,3130;0,0385792
1475,2772;0,037169
1476,2415;0,0362404
1477,2057;0,0355562
1478,1699;0,0349786
1479,1342;0,0344541
1480,0984;0,0339752
1481,0626;0,0335599
1482,0269;0,0332393
1482,9911;0,0330391
1483,9553;0,0329598
1484,9196;0,0329706
1485,8838;0,0330222
1486,8480;0,0330687
1487,8123;0,0330972
1488,7765;0,0331608
1489,7407;0,0333668
1490,7050;0,033778
1491,6692;0,0343545
1492,6334;0,0350139
1493,5977;0,0357025
1494,5619;0,0364161
1495,5261;0,0371885
1496,4904;0,0380636
1497,4546;0,0390552
1498,4188;0,040127
1499,3831;0,0412148
1500,3473;0,0422541
1501,3115;0,04319
1502,2758;0,0439807
1503,2400;0,0445985
1504,2042;0,0450165
1505,1685;0,0451638
1506,1327;0,0448807
1507,0969;0,0441239
1508,0612;0,0433169
1509,0254;0,0428631
1509,9896;0,0426938
1510,9539;0,0425924
1511,9181;0,0424128
1512,8823;0,0420789
1513,8466;0,0415531
1514,8108;0,0408352
1515,7750;0,0399755
1516,7393;0,039062
1517,7035;0,0381631
1518,6677;0,0372755
1519,6320;0,0363452
1520,5962;0,0353556
1521,5604;0,0343985
1522,5247;0,0336198
1523,4889;0,0330903
1524,4531;0,03277
1525,4174;0,0325842
1526,3816;0,0324949
1527,3458;0,0325018
1528,3101;0,0325992
1529,2743;0,0327481
1530,2385;0,0328864
1531,2028;0,0329604
1532,1670;0,0329623
1533,1312;0,032956
1534,0955;0,0330427
1535,0597;0,0332699
1536,0239;0,0335943
1536,9882;0,0339271
1537,9524;0,0341761
1538,9166;0,0342356
1539,8809;0,0339868
1540,8451;0,0334851
1541,8093;0,0331074
1542,7736;0,0330948
1543,7378;0,0333337
1544,7020;0,0336554
1545,6663;0,0339781
1546,6305;0,0342785
1547,5947;0,0345463
1548,5590;0,0347664
1549,5232;0,0349272
1550,4874;0,0350388
1551,4517;0,0351407
1552,4159;0,0352808
1553,3801;0,0354772
1554,3444;0,0356973
1555,3086;0,035858
1556,2728;0,0358191
1557,2371;0,0353858
1558,2013;0,0345261
1559,1655;0,0337679
1560,1298;0,033668
1561,0940;0,0341118
1562,0582;0,0347568
1563,0225;0,0353992
1563,9867;0,0359619
1564,9509;0,0364242
1565,9152;0,0367849
1566,8794;0,0370577
1567,8436;0,0372841
1568,8079;0,0375413
1569,7721;0,0379045
1570,7363;0,0383869
1571,7006;0,0389357
1572,6648;0,0394848
1573,6290;0,0400006
1574,5933;0,0404948
1575,5575;0,0410166
1576,5217;0,0416227
1577,4860;0,0423358
1578,4502;0,0431321
1579,4144;0,0439725
1580,3787;0,044832
1581,3429;0,0457054
1582,3071;0,0465974
1583,2714;0,0475133
1584,2356;0,0484558
1585,1998;0,0494259
1586,1641;0,0504193
1587,1283;0,0514188
1588,0925;0,0523922
1589,0568;0,0532982
1590,0210;0,0540969
1590,9852;0,0547549
1591,9495;0,0552413
1592,9137;0,0555274
1593,8779;0,0555985
1594,8422;0,0554736
1595,8064;0,0552077
1596,7706;0,0548701
1597,7349;0,0545125
1598,6991;0,0541543
1599,6633;0,0537923
1600,6276;0,0534207
1601,5918;0,0530483
1602,5560;0,0527013
1603,5203;0,0524091
1604,4845;0,0521833
1605,4487;0,0520075
1606,4130;0,051848
1607,3772;0,05168
1608,3414;0,0515157
1609,3057;0,0514069
1610,2699;0,0514078
1611,2341;0,0515272
1612,1984;0,0517183
1613,1626;0,0519037
1614,1268;0,0520091
1615,0911;0,0520015
1616,0553;0,0519409
1617,0195;0,0519747
1617,9838;0,0522068
1618,9480;0,0526017
1619,9122;0,0530494
1620,8765;0,0534541
1621,8407;0,0537653
1622,8049;0,0539796
1623,7692;0,0541345
1624,7334;0,0542814
1625,6976;0,0544519
1626,6619;0,0546543
1627,6261;0,0548961
1628,5903;0,0551933
1629,5546;0,0555537
1630,5188;0,0559572
1631,4830;0,0563552
1632,4473;0,0566793
1633,4115;0,0568439
1634,3757;0,0567623
1635,3400;0,0564395
1636,3042;0,0560862
1637,2684;0,0559573
1638,2327;0,0560849
1639,1969;0,056348
1640,1611;0,0566419
1641,1254;0,0569196
1642,0896;0,0571633
1643,0538;0,057346
1644,0181;0,057404
1644,9823;0,0572445
1645,9465;0,0568435
1646,9108;0,0563794
1647,8750;0,0561158
1648,8392;0,0561159
1649,8035;0,0562153
1650,7677;0,0561332
1651,7319;0,0555049
1652,6962;0,0540868
1653,6604;0,0523678
1654,6246;0,0512785
1655,5889;0,0509595
1656,5531;0,0509877
1657,5173;0,0510263
1658,4816;0,0509096
1659,4458;0,0505548
1660,4100;0,0499202
1661,3743;0,0490432
1662,3385;0,0480927
1663,3027;0,0472948
1664,2670;0,0467589
1665,2312;0,046422
1666,1954;0,0461212
1667,1597;0,0456688
1668,1239;0,044918
1669,0881;0,0438741
1670,0524;0,0427617
1671,0166;0,0418499
1671,9808;0,0411955
1672,9451;0,0406523
1673,9093;0,0400531
1674,8735;0,0393492
1675,8378;0,0386453
1676,8020;0,0381031
1677,7662;0,0377967
1678,7305;0,0376714
1679,6947;0,0376012
1680,6589;0,0374319
1681,6232;0,036983
1682,5874;0,0360927
1683,5516;0,0348284
1684,5159;0,03363
1685,4801;0,0328841
1686,4443;0,0325488
1687,4086;0,0323903
1688,3728;0,0322469
1689,3370;0,0320739
1690,3013;0,0318976
1691,2655;0,0317595
1692,2297;0,0316791
1693,1940;0,0316424
1694,1582;0,0316094
1695,1224;0,0315295
1696,0867;0,0313602
1697,0509;0,0310898
1698,0151;0,0307569
1698,9794;0,0304492
1699,9436;0,0302652
1700,9078;0,0302594
1701,8721;0,0304196
1702,8363;0,0306938
1703,8005;0,0310292
1704,7648;0,0313935
1705,7290;0,0317784
1706,6932;0,0321927
1707,6575;0,0326506
1708,6217;0,0331607
1709,5859;0,0337234
1710,5502;0,0343309
1711,5144;0,0349681
1712,4786;0,0356104
1713,4429;0,0362232
1714,4071;0,0367664
1715,3713;0,0372074
1716,3356;0,0375549
1717,2998;0,0378876
1718,2640;0,0382979
1719,2283;0,038808
1720,1925;0,0393823
1721,1567;0,0399796
1722,1210;0,040571
1723,0852;0,0411373
1724,0494;0,0416667
1725,0137;0,0421576
1725,9779;0,04262
1726,9421;0,0430688
1727,9064;0,0435107
1728,8706;0,0439322
1729,8348;0,0442905
1730,7991;0,0445059
1731,7633;0,0444725
1732,7275;0,0441272
1733,6918;0,0435692
1734,6560;0,0430325
1735,6202;0,0426562
1736,5845;0,0423854
1737,5487;0,0420779
1738,5129;0,0416112
1739,4772;0,0409342
1740,4414;0,0400873
1741,4056;0,0391769
1742,3699;0,0382994
1743,3341;0,0374826
1744,2983;0,0366962
1745,2626;0,0358921
1746,2268;0,0350138
1747,1910;0,0339823
1748,1553;0,0327085
1749,1195;0,031185
1750,0837;0,0295792
1751,0480;0,0281503
1752,0122;0,0270398
1752,9764;0,0262017
1753,9407;0,0254963
1754,9049;0,0247986
1755,8691;0,0240565
1756,8334;0,0232939
1757,7976;0,0225651
1758,7618;0,0218904
1759,7261;0,0212346
1760,6903;0,0205508
1761,6545;0,0198462
1762,6188;0,0191938
1763,5830;0,0186724
1764,5472;0,0183033
1765,5115;0,0180461
1766,4757;0,0178364
1767,4399;0,0176201
1768,4042;0,0173627
1769,3684;0,0170406
1770,3326;0,0166351
1771,2969;0,0161536
1772,2611;0,0156655
1773,2253;0,0152809
1774,1896;0,015065
1775,1538;0,0149947
1776,1180;0,0149948
1777,0823;0,0149894
1778,0465;0,0149313
1779,0107;0,0148136
1779,9750;0,014665
1780,9392;0,0145256
1781,9034;0,0144163
1782,8677;0,0143331
1783,8319;0,0142673
1784,7961;0,0142262
1785,7604;0,0142313
1786,7246;0,0142964
1787,6888;0,0144094
1788,6531;0,0145294
1789,6173;0,0145965
1790,5815;0,0145534
1791,5458;0,0143882
1792,5100;0,0141696
1793,4742;0,0140058
1794,4385;0,0139517
1795,4027;0,0139829
1796,3669;0,0140398
1797,3312;0,0140672
1798,2954;0,0140322
1799,2596;0,013933
1800,2239;0,0137991
1801,1881;0,0136752
1802,1523;0,0135943
1803,1166;0,0135642
1804,0808;0,0135746
1805,0450;0,013611
1806,0093;0,0136594
1806,9735;0,0137054
1807,9377;0,0137316
1808,9020;0,0137211
1809,8662;0,013668
1810,8304;0,0135859
1811,7947;0,0135025
1812,7589;0,0134418
1813,7231;0,0134084
1814,6874;0,0133893
1815,6516;0,0133666
1816,6158;0,0133332
1817,5801;0,0133013
1818,5443;0,0132954
1819,5085;0,0133338
1820,4728;0,0134122
1821,4370;0,0135062
1822,4012;0,0135854
1823,3655;0,0136318
1824,3297;0,0136488
1825,2939;0,0136524
1826,2582;0,0136486
1827,2224;0,0136203
1828,1866;0,0135397
1829,1509;0,0134014
1830,1151;0,0132464
1831,0793;0,013141
1832,0436;0,0131237
1833,0078;0,0131798
1833,9720;0,0132613
1834,9363;0,0133204
1835,9005;0,0133357
1836,8647;0,0133234
1837,8290;0,0133242
1838,7932;0,0133699
1839,7574;0,0134591
1840,7217;0,0135575
1841,6859;0,0136148
1842,6501;0,0135884
1843,6144;0,0134727
1844,5786;0,013315
1845,5428;0,0131846
1846,5071;0,0131196
1847,4713;0,0131123
1848,4355;0,0131343
1849,3998;0,013159
1850,3640;0,0131703
1851,3282;0,0131629
1852,2925;0,0131419
1853,2567;0,0131198
1854,2209;0,013112
1855,1852;0,0131295
1856,1494;0,0131721
1857,1136;0,013226
1858,0779;0,0132707
1859,0421;0,0132919
1860,0063;0,0132927
1860,9706;0,0132944
1861,9348;0,0133232
1862,8990;0,0133933
1863,8633;0,0134969
1864,8275;0,0136069
1865,7917;0,0136856
1866,7560;0,0136988
1867,7202;0,0136352
1868,6844;0,0135193
1869,6487;0,013396
1870,6129;0,013295
1871,5771;0,013217
1872,5414;0,0131489
1873,5056;0,0130811
1874,4698;0,0130158
1875,4341;0,0129661
1876,3983;0,0129485
1877,3625;0,0129723
1878,3268;0,0130331
1879,2910;0,0131149
1880,2552;0,0131982
1881,2195;0,0132677
1882,1837;0,0133173
1883,1479;0,0133506
1884,1122;0,0133758
1885,0764;0,0133994
1886,0406;0,013421
1887,0049;0,0134332
1887,9691;0,0134266
1888,9333;0,0133979
1889,8976;0,0133536
1890,8618;0,0133063
1891,8260;0,013266
1892,7903;0,0132344
1893,7545;0,0132089
1894,7188;0,0131889
1895,6830;0,0131796
1896,6472;0,0131879
1897,6115;0,0132136
1898,5757;0,0132445
1899,5399;0,0132612
1900,5042;0,0132494
1901,4684;0,0132108
1902,4326;0,0131656
1903,3969;0,0131412
1904,3611;0,0131555
1905,3253;0,0132048
1906,2896;0,0132678
1907,2538;0,0133192
1908,2180;0,0133466
1909,1823;0,0133579
1910,1465;0,013374
1911,1107;0,013411
1912,0750;0,0134671
1913,0392;0,0135234
1914,0034;0,0135559
1914,9677;0,0135488
1915,9319;0,0135066
1916,8961;0,0134574
1917,8604;0,0134397
1918,8246;0,0134755
1919,7888;0,0135498
1920,7531;0,0136174
1921,7173;0,0136276
1922,6815;0,0135544
1923,6458;0,013414
1924,6100;0,0132597
1925,5742;0,01315
1926,5385;0,0131183
1927,5027;0,0131626
1928,4669;0,0132574
1929,4312;0,0133714
1930,3954;0,0134812
1931,3596;0,0135744
1932,3239;0,0136462
1933,2881;0,0136934
1934,2523;0,0137138
1935,2166;0,0137079
1936,1808;0,0136798
1937,1450;0,0136357
1938,1093;0,0135817
1939,0735;0,0135278
1940,0377;0,0134944
1941,0020;0,0135118
1941,9662;0,0136045
1942,9304;0,0137627
1943,8947;0,0139311
1944,8589;0,0140364
1945,8231;0,0140313
1946,7874;0,0139201
1947,7516;0,0137503
1948,7158;0,013583
1949,6801;0,0134596
1950,6443;0,0133845
1951,6085;0,013334
1952,5728;0,013283
1953,5370;0,0132267
1954,5012;0,0131822
1955,4655;0,0131723
1956,4297;0,0132092
1957,3939;0,013289
1958,3582;0,0133982
1959,3224;0,0135201
1960,2866;0,0136343
1961,2509;0,0137142
1962,2151;0,0137291
1963,1793;0,0136577
1964,1436;0,0135041
1965,1078;0,0133064
1966,0720;0,0131293
1967,0363;0,0130359
1968,0005;0,0130507
1968,9647;0,0131386
1969,9290;0,0132215
1970,8932;0,0132198
1971,8574;0,0130958
1972,8217;0,0128797
1973,7859;0,0126636
1974,7501;0,0125584
1975,7144;0,012625
1976,6786;0,0128271
1977,6428;0,0130502
1978,6071;0,0131818
1979,5713;0,0131889
1980,5355;0,0131274
1981,4998;0,0130883
1982,4640;0,0131306
1983,4282;0,0132496
1984,3925;0,0133922
1985,3567;0,0135015
1986,3209;0,0135575
1987,2852;0,013585
1988,2494;0,0136281
1989,2136;0,0137161
1990,1779;0,0138478
1991,1421;0,0140022
1992,1063;0,0141605
1993,0706;0,0143154
1994,0348;0,0144597
1994,9990;0,0145709
1995,9633;0,0146135
1996,9275;0,014562
1997,8917;0,0144279
1998,8560;0,0142655
1999,8202;0,0141443
2000,7844;0,0141026
2001,7487;0,0141219
2002,7129;0,0141455
2003,6771;0,0141311
2004,6414;0,0140939
2005,6056;0,0141041
2006,5698;0,0142305
2007,5341;0,0144727
2008,4983;0,0147417
2009,4625;0,014914
2010,4268;0,0149172
2011,3910;0,0147757
2012,3552;0,0145895
2013,3195;0,0144688
2014,2837;0,0144745
2015,2479;0,0145989
2016,2122;0,0147911
2017,1764;0,0150027
2018,1406;0,0152168
2019,1049;0,0154416
2020,0691;0,0156819
2021,0333;0,0159196
2021,9976;0,0161156
2022,9618;0,0162282
2023,9260;0,016233
2024,8903;0,0161304
2025,8545;0,015943
2026,8187;0,0157074
2027,7830;0,0154668
2028,7472;0,0152672
2029,7114;0,0151519
2030,6757;0,0151546
2031,6399;0,0152901
2032,6041;0,0155473
2033,5684;0,0158858
2034,5326;0,0162402
2035,4968;0,0165329
2036,4611;0,0166959
2037,4253;0,0166924
2038,3895;0,0165301
2039,3538;0,0162577
2040,3180;0,0159456
2041,2822;0,0156564
2042,2465;0,0154231
2043,2107;0,0152509
2044,1749;0,0151393
2045,1392;0,015105
2046,1034;0,0151802
2047,0676;0,0153807
2048,0320;0,0156708
2048,9961;0,0159609
2049,9604;0,0161509
2050,9246;0,0161858
2051,8889;0,016082
2052,8530;0,0159117
2053,8174;0,0157591
2054,7815;0,0156765
2055,7458;0,0156647
2056,7100;0,015687
2057,6743;0,015707
2058,6384;0,0157166
2059,6028;0,0157375
2060,5669;0,0157985
2061,5313;0,0159103
2062,4954;0,0160576
2063,4597;0,0162096
2064,4238;0,0163351
2065,3882;0,0164107
2066,3523;0,016418
2067,3167;0,0163428
2068,2808;0,0161833
2069,2451;0,0159636
2070,2092;0,0157402
2071,1736;0,0155872
2072,1377;0,0155653
2073,1021;0,0156893
2074,0662;0,0159162
2075,0305;0,016163
2075,9946;0,0163439
2076,9590;0,0164064
2077,9231;0,0163496
2078,8875;0,016219
2079,8516;0,0160826
2080,8159;0,016001
2081,7800;0,0160038
2082,7444;0,0160816
2083,7085;0,0161953
2084,6729;0,0162973
2085,6370;0,016354
2086,6013;0,0163578
2087,5654;0,0163238
2088,5298;0,0162768
2089,4939;0,0162375
2090,4583;0,0162165
2091,4224;0,0162172
2092,3867;0,0162412
2093,3508;0,0162895
2094,3152;0,0163578
2095,2793;0,0164322
2096,2437;0,0164917
2097,2078;0,0165191
2098,1721;0,0165129
2099,1362;0,0164899
2100,1006;0,0164757
2101,0647;0,0164901
2102,0291;0,0165335
2102,9932;0,0165873
2103,9575;0,0166239
2104,9216;0,0166219
2105,8860;0,0165794
2106,8501;0,016516
2107,8145;0,0164652
2108,7786;0,0164589
2109,7429;0,016511
2110,7070;0,01661
2111,6714;0,0167228
2112,6355;0,0168096
2113,5999;0,0168418
2114,5640;0,0168133
2115,5283;0,0167413
2116,4924;0,0166561
2117,4568;0,0165872
2118,4209;0,0165535
2119,3853;0,0165605
2120,3494;0,0166032
2121,3137;0,0166702
2122,2778;0,0167484
2123,2422;0,0168256
2124,2063;0,0168925
2125,1707;0,0169439
2126,1348;0,0169778
2127,0991;0,016994
2128,0632;0,0169929
2129,0276;0,0169776
2129,9917;0,0169595
2130,9561;0,0169611
2131,9202;0,0170119
2132,8845;0,0171329
2133,8486;0,0173175
2134,8130;0,0175213
2135,7771;0,0176754
2136,7415;0,017719
2137,7056;0,0176354
2138,6699;0,0174642
2139,6340;0,0172865
2140,5984;0,0171886
2141,5625;0,0172286
2142,5269;0,0174162
2143,4910;0,0177146
2144,4553;0,018057
2145,4194;0,0183686
2146,3838;0,0185864
2147,3479;0,018675
2148,3123;0,0186374
2149,2764;0,0185167
2150,2407;0,0183856
2151,2048;0,0183232
2152,1692;0,0183853
2153,1333;0,0185813
2154,0977;0,0188706
2155,0618;0,0191814
2156,0261;0,0194452
2156,9902;0,0196297
2157,9546;0,019749
2158,9187;0,0198371
2159,8831;0,0199042
2160,8472;0,0199194
2161,8115;0,0198374
2162,7756;0,0196384
2163,7400;0,0193442
2164,7041;0,0190037
2165,6685;0,0186652
2166,6326;0,0183575
2167,5969;0,0180941
2168,5610;0,0178925
2169,5254;0,0177832
2170,4895;0,0177957
2171,4539;0,0179284
2172,4180;0,0181278
2173,3823;0,018304
2174,3464;0,0183778
2175,3108;0,0183326
2176,2749;0,0182258
2177,2393;0,0181488
2178,2034;0,018163
2179,1677;0,0182602
2180,1318;0,0183746
2181,0962;0,0184335
2182,0603;0,0184074
2183,0247;0,0183237
2183,9888;0,0182362
2184,9531;0,0181811
2185,9172;0,0181568
2186,8816;0,0181369
2187,8457;0,0180986
2188,8101;0,0180395
2189,7742;0,0179731
2190,7385;0,0179134
2191,7026;0,0178655
2192,6670;0,0178302
2193,6311;0,0178122
2194,5955;0,0178207
2195,5596;0,0178595
2196,5239;0,0179143
2197,4880;0,017952
2198,4524;0,0179345
2199,4165;0,0178396
2200,3809;0,0176746
2201,3450;0,017476
2202,3093;0,0172973
2203,2734;0,0171916
2204,2378;0,0171946
2205,2019;0,0173094
2206,1663;0,0174988
2207,1304;0,0176924
2208,0947;0,0178117
2209,0588;0,0178061
2210,0232;0,0176813
2210,9873;0,0174982
2211,9517;0,0173396
2212,9158;0,0172644
2213,8801;0,0172767
2214,8442;0,0173307
2215,8086;0,0173663
2216,7727;0,0173484
2217,7371;0,0172848
2218,7012;0,017214
2219,6655;0,017175
2220,6296;0,0171814
2221,5940;0,0172149
2222,5581;0,0172385
2223,5225;0,0172197
2224,4866;0,0171505
2225,4509;0,0170549
2226,4150;0,0169797
2227,3794;0,0169724
2228,3435;0,017055
2229,3079;0,0172066
2230,2720;0,0173682
2231,2363;0,0174695
2232,2004;0,0174656
2233,1648;0,017361
2234,1289;0,0172054
2235,0933;0,0170646
2236,0574;0,0169844
2237,0217;0,0169705
2237,9858;0,0169952
2238,9502;0,0170214
2239,9143;0,0170266
2240,8787;0,0170123
2241,8428;0,016995
2242,8071;0,0169901
2243,7712;0,0170004
2244,7356;0,0170154
2245,6997;0,0170202
2246,6641;0,0170059
2247,6282;0,0169748
2248,5925;0,0169391
2249,5566;0,0169131
2250,5210;0,0169068
2251,4851;0,0169222
2252,4495;0,0169551
2253,4136;0,0169994
2254,3779;0,0170509
2255,3420;0,0171071
2256,3064;0,017164
2257,2705;0,0172127
2258,2349;0,0172403
2259,1990;0,0172341
2260,1633;0,0171885
2261,1274;0,0171079
2262,0918;0,0170061
2263,0559;0,0169016
2264,0203;0,0168128
2264,9844;0,0167547
2265,9487;0,0167355
2266,9128;0,0167547
2267,8772;0,0168009
2268,8413;0,0168549
2269,8057;0,0168964
2270,7698;0,0169129
2271,7341;0,0169041
2272,6982;0,0168791
2273,6626;0,0168472
2274,6267;0,0168101
2275,5911;0,0167622
2276,5552;0,0166966
2277,5195;0,0166141
2278,4836;0,0165255
2279,4480;0,0164469
2280,4121;0,0163921
2281,3765;0,0163685
2282,3406;0,016378
2283,3049;0,0164209
2284,2690;0,0164971
2285,2334;0,0166034
2286,1975;0,0167294
2287,1619;0,016858
2288,1260;0,0169699
2289,0903;0,0170518
2290,0544;0,017101
2291,0188;0,017124
2291,9829;0,0171314
2292,9473;0,0171324
2293,9114;0,0171335
2294,8757;0,0171397
2295,8398;0,0171565
2296,8042;0,0171881
2297,7683;0,0172338
2298,7327;0,0172845
2299,6968;0,0173239
2300,6611;0,0173342
2301,6252;0,0173052
2302,5896;0,0172405
2303,5537;0,0171583
2304,5181;0,0170848
2305,4822;0,0170436
2306,4465;0,0170449
2307,4106;0,0170784
2308,3750;0,0171157
2309,3391;0,0171211
2310,3035;0,0170673
2311,2676;0,016949
2312,2319;0,0167861
2313,1960;0,0166139
2314,1604;0,0164659
2315,1245;0,0163599
2316,0889;0,0162956
2317,0530;0,0162626
2318,0173;0,0162511
2318,9814;0,0162589
2319,9458;0,0162908
2320,9099;0,0163517
2321,8743;0,0164381
2322,8384;0,016534
2323,8027;0,0166115
2324,7668;0,016639
2325,7312;0,016595
2326,6953;0,016481
2327,6597;0,0163273
2328,6238;0,0161852
2329,5881;0,0161064
2330,5522;0,0161214
2331,5166;0,0162273
2332,4807;0,0163914
2333,4451;0,0165667
2334,4092;0,01671
2335,3735;0,0167972
2336,3376;0,0168294
2337,3020;0,0168301
2338,2661;0,0168303
2339,2305;0,0168476
2340,1946;0,0168642
2341,1589;0,0168228
2342,1230;0,0166566
2343,0874;0,0163673
2344,0515;0,0160999
2345,0159;0,0160792
2345,9800;0,0164085
2346,9443;0,0169721
2347,9084;0,0175373
2348,8728;0,0179061
2349,8369;0,018
2350,8013;0,0178718
2351,7654;0,0176631
2352,7297;0,017523
2353,6938;0,017523
2354,6582;0,017632
2355,6223;0,017767
2356,5867;0,0178482
2357,5508;0,0178159
2358,5151;0,0176441
2359,4792;0,0173659
2360,4436;0,0170706
2361,4077;0,0168465
2362,3721;0,0167154
2363,3362;0,0166215
2364,3005;0,0164798
2365,2646;0,0162384
2366,2290;0,0159064
2367,1931;0,0155369
2368,1575;0,0151901
2369,1216;0,0149061
2370,0859;0,0146986
2371,0500;0,014563
2372,0144;0,014491
2372,9785;0,0144802
2373,9429;0,0145361
2374,9070;0,0146671
2375,8713;0,0148757
2376,8354;0,0151532
2377,7998;0,0154795
2378,7639;0,0158272
2379,7283;0,0161666
2380,6924;0,0164711
2381,6567;0,016721
2382,6208;0,0169066
2383,5852;0,0170286
2384,5493;0,0170973
2385,5137;0,0171288
2386,4778;0,0171405
2387,4421;0,0171468
2388,4063;0,0171581
2389,3706;0,0171807
2390,3347;0,0172169
2391,2991;0,0172653
2392,2632;0,0173188
2393,2275;0,0173653
2394,1917;0,0173922
2395,1560;0,0173932
2396,1201;0,017374
2397,0845;0,0173514
2398,0486;0,017346
2399,0129;0,0173692
2399,9771;0,017416
2400,9414;0,0174678
2401,9055;0,0175033
2402,8699;0,0175118
2403,8340;0,0174995
2404,7983;0,017485
2405,7625;0,0174882
2406,7268;0,0175184
2407,6909;0,0175706
2408,6553;0,0176306
2409,6194;0,0176828
2410,5837;0,0177185
2411,5479;0,0177375
2412,5122;0,0177466
2413,4763;0,0177542
2414,4407;0,0177674
2415,4048;0,0177883
2416,3691;0,0178144
2417,3333;0,0178395
2418,2976;0,0178572
2419,2617;0,0178635
2420,2261;0,0178595
2421,1902;0,0178508
2422,1545;0,0178454
2423,1187;0,0178509
2424,0830;0,0178716
2425,0471;0,0179082
2426,0115;0,0179572
2426,9756;0,0180124
2427,9399;0,0180656
2428,9041;0,0181094
2429,8684;0,0181393
2430,8325;0,0181555
2431,7969;0,0181641
2432,7610;0,0181744
2433,7253;0,018196
2434,6895;0,0182346
2435,6538;0,0182889
2436,6179;0,018351
2437,5823;0,0184082
2438,5464;0,0184486
2439,5107;0,0184654
2440,4749;0,0184604
2441,4392;0,0184428
2442,4033;0,0184247
2443,3677;0,0184161
2444,3318;0,0184214
2445,2961;0,0184395
2446,2603;0,0184662
2447,2246;0,0184969
2448,1887;0,0185266
2449,1531;0,0185505
2450,1172;0,0185639
2451,0815;0,0185657
2452,0457;0,0185608
2453,0100;0,0185601
2453,9741;0,0185756
2454,9385;0,0186127
2455,9026;0,0186652
2456,8669;0,0187175
2457,8311;0,0187538
2458,7954;0,0187681
2459,7595;0,0187679
2460,7239;0,0187696
2461,6880;0,0187872
2462,6523;0,0188233
2463,6165;0,0188687
2464,5808;0,0189092
2465,5449;0,0189363
2466,5093;0,018952
2467,4734;0,0189669
2468,4377;0,0189908
2469,4019;0,0190263
2470,3662;0,0190663
2471,3303;0,0190985
2472,2947;0,0191132
2473,2588;0,0191078
2474,2231;0,0190883
2475,1873;0,0190659
2476,1516;0,0190529
2477,1157;0,0190583
2478,0801;0,019085
2479,0442;0,0191293
2480,0085;0,0191816
2480,9727;0,0192305
2481,9370;0,0192667
2482,9011;0,0192873
2483,8655;0,0192963
2484,8296;0,0193013
2485,7939;0,0193094
2486,7581;0,0193229
2487,7224;0,0193396
2488,6865;0,0193551
2489,6509;0,0193668
2490,6150;0,019376
2491,5793;0,0193872
2492,5435;0,0194042
2493,5078;0,0194276
2494,4719;0,0194541
2495,4363;0,0194782
2496,4004;0,0194963
2497,3647;0,0195097
2498,3289;0,0195234
2499,2932;0,0195431
2500,2573;0,0195704
2501,2217;0,0196003
2502,1858;0,0196231
2503,1501;0,0196292
2504,1143;0,019615
2505,0786;0,0195856
2506,0427;0,0195534
2507,0071;0,0195332
2507,9712;0,0195359
2508,9355;0,019564
2509,8997;0,0196104
2510,8640;0,0196616
2511,8281;0,0197021
2512,7925;0,019721
2513,7566;0,0197159
2514,7209;0,0196933
2515,6851;0,0196654
2516,6494;0,0196446
2517,6135;0,0196386
2518,5779;0,0196483
2519,5420;0,0196696
2520,5063;0,0196969
2521,4705;0,0197262
2522,4348;0,0197565
2523,3989;0,0197888
2524,3633;0,0198238
2525,3274;0,0198611
2526,2917;0,0198981
2527,2559;0,0199305
2528,2202;0,0199534
2529,1843;0,0199627
2530,1487;0,0199574
2531,1128;0,0199399
2532,0771;0,0199162
2533,0413;0,0198933
2534,0056;0,0198778
2534,9697;0,0198742
2535,9341;0,0198847
2536,8982;0,0199089
2537,8625;0,0199425
2538,8267;0,0199775
2539,7910;0,0200039
2540,7551;0,020014
2541,7195;0,020008
2542,6836;0,0199952
2543,6479;0,0199897
2544,6121;0,0200019
2545,5764;0,0200309
2546,5405;0,0200636
2547,5049;0,0200826
2548,4690;0,0200774
2549,4333;0,0200512
2550,3975;0,0200198
2551,3618;0,0200023
2552,3259;0,0200109
2553,2903;0,0200459
2554,2544;0,0200972
2555,2188;0,0201514
2556,1829;0,0201978
2557,1472;0,0202309
2558,1113;0,0202495
2559,0757;0,0202547
2560,0398;0,0202483
2561,0042;0,0202328
2561,9683;0,0202106
2562,9326;0,020185
2563,8967;0,0201601
2564,8611;0,0201414
2565,8252;0,0201354
2566,7896;0,0201472
2567,7537;0,0201768
2568,7180;0,0202174
2569,6821;0,0202564
2570,6465;0,0202814
2571,6106;0,0202869
2572,5750;0,0202773
2573,5391;0,0202643
2574,5034;0,0202593
2575,4675;0,0202669
2576,4319;0,0202832
2577,3960;0,0203002
2578,3604;0,0203121
2579,3245;0,0203198
2580,2888;0,0203292
2581,2529;0,0203469
2582,2173;0,0203749
2583,1814;0,0204098
2584,1458;0,0204446
2585,1099;0,0204726
2586,0742;0,0204903
2587,0383;0,020498
2588,0027;0,0204985
2588,9668;0,020495
2589,9312;0,0204907
2590,8953;0,0204875
2591,8596;0,020487
2592,8237;0,0204914
2593,7881;0,0205042
2594,7522;0,0205297
2595,7166;0,0205709
2596,6807;0,0206259
2597,6450;0,020687
2598,6091;0,0207422
2599,5735;0,0207809
2600,5376;0,0207991
2601,5020;0,0208025
2602,4661;0,0208023
2603,4304;0,0208094
2604,3945;0,0208284
2605,3589;0,0208566
2606,3230;0,0208877
2607,2874;0,0209172
2608,2515;0,0209447
2609,2158;0,0209731
2610,1799;0,0210039
2611,1443;0,0210346
2612,1084;0,0210594
2613,0728;0,0210727
2614,0369;0,0210735
2615,0012;0,0210661
2615,9653;0,0210587
2616,9297;0,0210596
2617,8938;0,0210743
2618,8582;0,0211039
2619,8223;0,0211464
2620,7866;0,0211976
2621,7507;0,0212526
2622,7151;0,0213056
2623,6792;0,0213513
2624,6436;0,0213858
2625,6077;0,0214086
2626,5720;0,0214223
2627,5361;0,0214325
2628,5005;0,021444
2629,4646;0,0214595
2630,4290;0,0214778
2631,3931;0,0214965
2632,3574;0,0215144
2633,3215;0,0215332
2634,2859;0,0215569
2635,2500;0,0215883
2636,2144;0,0216261
2637,1785;0,021665
2638,1428;0,0216991
2639,1069;0,0217259
2640,0713;0,0217482
2641,0354;0,0217718
2641,9998;0,0218016
2642,9639;0,0218379
2643,9282;0,0218766
2644,8923;0,0219121
2645,8567;0,021942
2646,8208;0,0219674
2647,7852;0,021992
2648,7493;0,0220185
2649,7136;0,0220471
2650,6777;0,0220755
2651,6421;0,0221016
2652,6062;0,0221253
2653,5706;0,0221491
2654,5347;0,0221768
2655,4990;0,022211
2656,4631;0,0222521
2657,4275;0,022298
2658,3916;0,0223446
2659,3560;0,0223874
2660,3201;0,0224227
2661,2844;0,0224488
2662,2485;0,0224666
2663,2129;0,0224793
2664,1770;0,0224914
2665,1414;0,0225071
2666,1055;0,0225287
2667,0698;0,022556
2668,0339;0,0225867
2668,9983;0,0226177
2669,9624;0,0226471
2670,9268;0,0226751
2671,8909;0,0227043
2672,8552;0,0227376
2673,8193;0,0227762
2674,7837;0,0228177
2675,7478;0,0228568
2676,7122;0,0228881
2677,6763;0,022909
2678,6406;0,0229225
2679,6047;0,0229352
2680,5691;0,0229551
2681,5332;0,0229871
2682,4976;0,0230311
2683,4617;0,0230828
2684,4260;0,0231361
2685,3901;0,0231856
2686,3545;0,0232284
2687,3186;0,0232637
2688,2830;0,023293
2689,2471;0,0233191
2690,2114;0,0233456
2691,1755;0,0233761
2692,1399;0,0234123
2693,1040;0,0234534
2694,0684;0,0234964
2695,0325;0,0235378
2695,9968;0,0235757
2696,9609;0,0236115
2697,9253;0,023648
2698,8894;0,0236878
2699,8538;0,0237306
2700,8179;0,023773
2701,7822;0,0238108
2702,7463;0,0238414
2703,7107;0,023866
2704,6748;0,023889
2705,6392;0,0239159
2706,6033;0,0239508
2707,5676;0,0239955
2708,5317;0,0240484
2709,4961;0,0241061
2710,4602;0,0241636
2711,4246;0,0242159
2712,3887;0,0242592
2713,3530;0,0242919
2714,3171;0,0243161
2715,2815;0,0243366
2716,2456;0,0243589
2717,2100;0,024387
2718,1741;0,0244206
2719,1384;0,0244562
2720,1025;0,0244887
2721,0669;0,0245145
2722,0310;0,0245334
2722,9954;0,0245493
2723,9595;0,0245686
2724,9238;0,0245972
2725,8879;0,0246387
2726,8523;0,0246926
2727,8164;0,024755
2728,7808;0,0248199
2729,7449;0,0248815
2730,7092;0,0249357
2731,6733;0,0249806
2732,6377;0,0250157
2733,6018;0,0250413
2734,5662;0,0250581
2735,5303;0,0250681
2736,4946;0,0250752
2737,4587;0,0250848
2738,4231;0,0251021
2739,3872;0,0251297
2740,3516;0,0251667
2741,3157;0,0252091
2742,2800;0,0252519
2743,2441;0,025291
2744,2085;0,0253239
2745,1726;0,0253495
2746,1370;0,0253675
2747,1011;0,0253791
2748,0654;0,0253878
2749,0295;0,0253993
2749,9939;0,0254201
2750,9580;0,0254543
2751,9224;0,0255008
2752,8865;0,0255535
2753,8508;0,025604
2754,8149;0,0256465
2755,7793;0,0256809
2756,7434;0,0257129
2757,7078;0,0257501
2758,6719;0,025797
2759,6362;0,0258514
2760,6003;0,0259056
2761,5647;0,0259515
2762,5288;0,0259849
2763,4932;0,0260089
2764,4573;0,0260318
2765,4216;0,026062
2766,3857;0,0261038
2767,3501;0,0261558
2768,3142;0,0262123
2769,2786;0,026267
2770,2427;0,0263159
2771,2070;0,0263581
2772,1711;0,0263957
2773,1355;0,0264325
2774,0996;0,0264734
2775,0640;0,0265232
2776,0281;0,0265847
2776,9924;0,0266568
2777,9565;0,0267346
2778,9209;0,0268111
2779,8850;0,0268803
2780,8494;0,0269406
2781,8135;0,0269946
2782,7778;0,0270469
2783,7419;0,027101
2784,7063;0,0271566
2785,6704;0,0272108
2786,6348;0,0272608
2787,5989;0,0273069
2788,5632;0,0273543
2789,5273;0,027411
2790,4917;0,0274846
2791,4558;0,027578
2792,4202;0,0276869
2793,3843;0,0278007
2794,3486;0,027906
2795,3127;0,0279935
2796,2771;0,0280621
2797,2412;0,0281204
2798,2056;0,0281822
2799,1697;0,02826
2800,1340;0,0283588
2801,0981;0,0284749
2802,0625;0,0285987
2803,0266;0,0287207
2803,9910;0,0288359
2804,9551;0,0289443
2805,9194;0,0290489
2806,8835;0,0291526
2807,8479;0,0292571
2808,8120;0,0293633
2809,7764;0,0294734
2810,7405;0,0295911
2811,7048;0,0297208
2812,6689;0,0298653
2813,6333;0,0300239
2814,5974;0,0301925
2815,5618;0,0303651
2816,5259;0,0305361
2817,4902;0,0307027
2818,4543;0,0308652
2819,4187;0,0310269
2820,3828;0,0311918
2821,3472;0,0313629
2822,3113;0,0315417
2823,2756;0,031729
2824,2397;0,0319259
2825,2041;0,032135
2826,1682;0,032359
2827,1326;0,0325995
2828,0967;0,0328556
2829,0610;0,0331242
2830,0251;0,0334021
2830,9895;0,0336889
2831,9536;0,0339869
2832,9180;0,0343004
2833,8821;0,0346324
2834,8464;0,0349839
2835,8105;0,035354
2836,7749;0,0357434
2837,7390;0,0361568
2838,7034;0,0366035
2839,6675;0,0370952
2840,6318;0,0376432
2841,5959;0,0382548
2842,5603;0,038933
2843,5244;0,0396746
2844,4888;0,0404686
2845,4529;0,0412931
2846,4172;0,0421136
2847,3813;0,0428844
2848,3457;0,0435562
2849,3098;0,0440861
2850,2742;0,044448
2851,2383;0,0446383
2852,2026;0,0446741
2853,1667;0,0445866
2854,1311;0,0444122
2855,0952;0,0441854
2856,0596;0,0439359
2857,0237;0,0436883
2857,9880;0,0434626
2858,9521;0,0432747
2859,9165;0,0431351
2860,8806;0,0430478
2861,8450;0,043011
2862,8091;0,0430196
2863,7734;0,043069
2864,7375;0,0431569
2865,7019;0,043283
2866,6660;0,0434439
2867,6304;0,04363
2868,5945;0,0438233
2869,5588;0,0440016
2870,5229;0,0441451
2871,4873;0,044244
2872,4514;0,0443012
2873,4158;0,0443307
2874,3799;0,0443503
2875,3442;0,0443752
2876,3083;0,0444128
2877,2727;0,0444633
2878,2368;0,044523
2879,2012;0,0445885
2880,1653;0,0446596
2881,1296;0,0447391
2882,0938;0,0448309
2883,0581;0,0449374
2884,0222;0,0450587
2884,9866;0,0451923
2885,9507;0,0453343
2886,9150;0,045481
2887,8792;0,0456295
2888,8435;0,0457786
2889,8076;0,0459279
2890,7720;0,0460779
2891,7361;0,0462295
2892,7004;0,0463836
2893,6646;0,0465407
2894,6289;0,0467009
2895,5930;0,0468638
2896,5574;0,0470288
2897,5215;0,0471951
2898,4858;0,0473619
2899,4500;0,0475286
2900,4143;0,0476957
2901,3784;0,0478649
2902,3428;0,0480401
2903,3069;0,0482263
2904,2712;0,0484285
2905,2354;0,0486513
2906,1997;0,0488989
2907,1638;0,0491779
2908,1282;0,0494986
2909,0923;0,0498735
2910,0566;0,0503131
2911,0208;0,050818
2911,9851;0,051374
2912,9492;0,0519527
2913,9136;0,0525175
2914,8777;0,053034
2915,8420;0,0534768
2916,8062;0,0538312
2917,7705;0,0540898
2918,7346;0,0542482
2919,6990;0,0543035
2920,6631;0,0542563
2921,6274;0,0541128
2922,5916;0,0538858
2923,5559;0,0535903
2924,5200;0,05324
2925,4844;0,0528448
2926,4485;0,0524124
2927,4128;0,0519524
2928,3770;0,0514768
2929,3413;0,0509983
2930,3054;0,0505259
2931,2698;0,0500625
2932,2339;0,0496055
2933,1982;0,0491505
2934,1624;0,0486946
2935,1267;0,0482377
2936,0908;0,0477809
2937,0552;0,0473255
2938,0193;0,0468722
2938,9836;0,0464218
2939,9478;0,0459765
2940,9121;0,0455383
2941,8762;0,0451092
2942,8406;0,0446909
2943,8047;0,0442866
2944,7690;0,0439028
2945,7332;0,0435491
2946,6975;0,0432346
2947,6616;0,0429629
2948,6260;0,0427286
2949,5901;0,0425184
2950,5544;0,0423163
2951,5186;0,0421114
2952,4829;0,0419016
2953,4470;0,0416933
2954,4114;0,0414948
2955,3755;0,0413087
2956,3398;0,0411276
2957,3040;0,0409364
2958,2683;0,04072
2959,2324;0,0404719
2960,1968;0,0401971
2961,1609;0,0399091
2962,1252;0,0396212
2963,0894;0,0393386
2964,0537;0,0390573
2965,0178;0,038769
2965,9822;0,0384687
2966,9463;0,0381595
2967,9106;0,0378504
2968,8748;0,0375499
2969,8391;0,0372605
2970,8032;0,0369781
2971,7676;0,0366971
2972,7317;0,0364161
2973,6960;0,0361408
2974,6602;0,0358809
2975,6245;0,0356446
2976,5886;0,0354332
2977,5530;0,0352409
2978,5171;0,0350592
2979,4814;0,0348819
2980,4456;0,034709
2981,4099;0,0345457
2982,3740;0,0343985
2983,3384;0,0342709
2984,3025;0,0341619
2985,2668;0,0340666
2986,2310;0,0339793
2987,1953;0,0338961
2988,1594;0,0338153
2989,1238;0,0337379
2990,0879;0,0336658
2991,0522;0,0336018
2992,0164;0,033549
2992,9807;0,03351
2993,9448;0,0334866
2994,9092;0,0334788
2995,8733;0,033485
2996,8376;0,0335028
2997,8018;0,0335295
2998,7661;0,0335623
2999,7302;0,0335977
3000,6946;0,033632
3001,6587;0,0336622
3002,6230;0,0336886
3003,5872;0,033715
3004,5515;0,0337477
3005,5156;0,0337917
3006,4800;0,0338466
3007,4441;0,033906
3008,4084;0,0339599
3009,3726;0,0339999
3010,3369;0,0340233
3011,3010;0,0340345
3012,2654;0,0340425
3013,2295;0,0340569
3014,1938;0,0340847
3015,1580;0,0341289
3016,1223;0,0341896
3017,0864;0,0342647
3018,0508;0,0343504
3019,0149;0,0344412
3019,9792;0,0345308
3020,9434;0,0346148
3021,9077;0,034693
3022,8718;0,0347705
3023,8362;0,0348556
3024,8003;0,0349551
3025,7646;0,0350694
3026,7288;0,0351909
3027,6931;0,0353069
3028,6572;0,0354053
3029,6216;0,0354807
3030,5857;0,0355371
3031,5500;0,0355864
3032,5142;0,0356437
3033,4785;0,0357213
3034,4426;0,0358249
3035,4070;0,0359521
3036,3711;0,0360945
3037,3354;0,0362409
3038,2996;0,0363811
3039,2639;0,0365096
3040,2280;0,0366272
3041,1924;0,0367396
3042,1565;0,0368543
3043,1208;0,0369757
3044,0850;0,0371034
3045,0493;0,0372335
3046,0134;0,0373625
3046,9778;0,0374901
3047,9419;0,0376201
3048,9063;0,037757
3049,8704;0,0379019
3050,8347;0,0380508
3051,7988;0,0381965
3052,7632;0,0383333
3053,7273;0,0384611
3054,6917;0,0385862
3055,6558;0,038718
3056,6201;0,0388643
3057,5842;0,039027
3058,5486;0,0392013
3059,5127;0,0393784
3060,4771;0,0395494
3061,4412;0,0397076
3062,4055;0,0398504
3063,3696;0,0399792
3064,3340;0,0400987
3065,2981;0,0402166
3066,2625;0,040341
3067,2266;0,0404783
3068,1909;0,0406296
3069,1550;0,0407906
3070,1194;0,0409531
3071,0835;0,0411089
3072,0479;0,0412537
3073,0120;0,0413893
3073,9763;0,0415218
3074,9404;0,041658
3075,9048;0,0418017
3076,8689;0,0419516
3077,8333;0,0421027
3078,7974;0,0422492
3079,7617;0,0423876
3080,7258;0,0425189
3081,6902;0,0426472
3082,6543;0,0427773
3083,6187;0,0429117
3084,5828;0,0430495
3085,5471;0,0431877
3086,5112;0,0433245
3087,4756;0,0434615
3088,4397;0,0436038
3089,4041;0,0437563
3090,3682;0,0439197
3091,3325;0,0440887
3092,2966;0,0442548
3093,2610;0,044411
3094,2251;0,0445565
3095,1895;0,0446967
3096,1536;0,0448395
3097,1179;0,0449901
3098,0820;0,0451487
3099,0464;0,0453122
3100,0105;0,0454776
3100,9749;0,045644
3101,9390;0,0458118
3102,9033;0,0459796
3103,8674;0,0461445
3104,8318;0,0463036
3105,7959;0,0464577
3106,7603;0,046613
3107,7244;0,0467783
3108,6887;0,0469602
3109,6528;0,0471582
3110,6172;0,0473648
3111,5813;0,0475692
3112,5457;0,0477634
3113,5098;0,0479458
3114,4741;0,0481206
3115,4382;0,048294
3116,4026;0,0484692
3117,3667;0,0486438
3118,3311;0,0488127
3119,2952;0,048973
3120,2595;0,0491278
3121,2236;0,0492865
3122,1880;0,0494596
3123,1521;0,0496519
3124,1165;0,0498594
3125,0806;0,0500716
3126,0449;0,0502774
3127,0090;0,0504728
3127,9734;0,0506615
3128,9375;0,050852
3129,9019;0,0510509
3130,8660;0,0512597
3131,8303;0,0514748
3132,7944;0,0516917
3133,7588;0,051908
3134,7229;0,0521242
3135,6873;0,0523404
3136,6514;0,0525545
3137,6157;0,0527625
3138,5798;0,0529612
3139,5442;0,0531518
3140,5083;0,0533401
3141,4727;0,0535339
3142,4368;0,0537392
3143,4011;0,0539574
3144,3652;0,0541859
3145,3296;0,0544201
3146,2937;0,0546554
3147,2581;0,0548877
3148,2222;0,0551136
3149,1865;0,0553307
3150,1506;0,0555392
3151,1150;0,0557432
3152,0791;0,0559504
3153,0435;0,0561689
3154,0076;0,0564022
3154,9719;0,056646
3155,9360;0,0568896
3156,9004;0,057121
3157,8645;0,0573345
3158,8289;0,0575347
3159,7930;0,0577347
3160,7573;0,0579493
3161,7214;0,0581871
3162,6858;0,0584458
3163,6499;0,0587134
3164,6143;0,0589753
3165,5784;0,0592206
3166,5427;0,0594466
3167,5068;0,0596583
3168,4712;0,0598643
3169,4353;0,0600569
3170,3997;0,0602742
3171,3638;0,0605021
3172,3281;0,0607403
3173,2922;0,0609872
3174,2566;0,06124
3175,2207;0,0614943
3176,1851;0,0617445
3177,1492;0,0619855
3178,1135;0,0622146
3179,0776;0,0624337
3180,0420;0,0626488
3181,0061;0,0628675
3181,9705;0,063096
3182,9346;0,0633356
3183,8989;0,0635826
3184,8630;0,0638288
3185,8274;0,0640659
3186,7915;0,0642884
3187,7559;0,0644966
3188,7200;0,0646971
3189,6843;0,0648999
3190,6484;0,0651149
3191,6128;0,0653468
3192,5769;0,0655929
3193,5413;0,0658442
3194,5054;0,0660897
3195,4697;0,0663226
3196,4338;0,066543
3197,3982;0,066757
3198,3623;0,0669719
3199,3267;0,0671915
3200,2908;0,0674138
3201,2551;0,0676346
3202,2192;0,0678502
3203,1836;0,0680608
3204,1477;0,0682687
3205,1121;0,0684765
3206,0762;0,0686854
3207,0405;0,068896
3208,0046;0,0691102
3208,9690;0,0693313
3209,9331;0,069562
3210,8975;0,0698008
3211,8616;0,0700412
3212,8259;0,0702736
3213,7900;0,0704897
3214,7544;0,0706871
3215,7185;0,0708704
3216,6829;0,0710489
3217,6470;0,0712331
3218,6113;0,0714299
3219,5754;0,0716407
3220,5398;0,0718606
3221,5039;0,0720804
3222,4683;0,0722909
3223,4324;0,0724873
3224,3967;0,0726721
3225,3608;0,0728542
3226,3252;0,0730442
3227,2893;0,0732492
3228,2537;0,0734682
3229,2178;0,0736939
3230,1821;0,0739166
3231,1462;0,0741305
3232,1106;0,0743354
3233,0747;0,0745356
3234,0391;0,074736
3235,0032;0,0749399
3235,9675;0,0751475
3236,9316;0,0753577
3237,8960;0,0755678
3238,8601;0,0757745
3239,8245;0,0759739
3240,7886;0,076163
3241,7529;0,0763423
3242,7170;0,0765169
3243,6814;0,0766961
3244,6455;0,0768892
3245,6099;0,0771006
3246,5740;0,077328
3247,5383;0,0775638
3248,5024;0,0778003
3249,4668;0,0780327
3250,4309;0,0782599
3251,3953;0,0784821
3252,3594;0,0786984
3253,3237;0,0789065
3254,2878;0,0791046
3255,2522;0,0792952
3256,2163;0,0794854
3257,1807;0,0796842
3258,1448;0,0798978
3259,1091;0,0801259
3260,0732;0,0803618
3261,0376;0,0805969
3262,0017;0,0808257
3262,9661;0,081049
3263,9302;0,0812724
3264,8945;0,0815014
3265,8586;0,0817368
3266,8230;0,0819731
3267,7871;0,0822005
3268,7515;0,082409
3269,7156;0,0825913
3270,6799;0,0827449
3271,6440;0,0828718
3272,6084;0,0829768
3273,5725;0,0830667
3274,5369;0,0831489
3275,5010;0,0832295
3276,4653;0,0833126
3277,4294;0,0834003
3278,3938;0,0834939
3279,3579;0,0835947
3280,3223;0,0837038
3281,2864;0,0838206
3282,2507;0,0839408
3283,2148;0,0840571
3284,1792;0,0841613
3285,1433;0,0842487
3286,1077;0,0843192
3287,0718;0,0843767
3288,0361;0,0844257
3289,0002;0,0844692
3289,9646;0,0845076
3290,9287;0,0845405
3291,8931;0,0845687
3292,8572;0,0845943
3293,8215;0,0846194
3294,7856;0,0846451
3295,7500;0,0846703
3296,7141;0,0846935
3297,6785;0,0847138
3298,6426;0,0847311
3299,6069;0,0847464
3300,5710;0,0847604
3301,5354;0,0847734
3302,4995;0,0847852
3303,4639;0,0847951
3304,4280;0,0848018
3305,3923;0,0848037
3306,3564;0,0848005
3307,3208;0,0847944
3308,2849;0,0847917
3309,2493;0,0848005
3310,2134;0,0848275
3311,1777;0,0848741
3312,1418;0,084936
3313,1062;0,085005
3314,0703;0,0850742
3315,0347;0,0851408
3315,9988;0,085207
3316,9631;0,0852781
3317,9272;0,085359
3318,8916;0,0854518
3319,8557;0,0855551
3320,8201;0,0856648
3321,7842;0,0857757
3322,7485;0,0858834
3323,7126;0,0859854
3324,6770;0,0860822
3325,6411;0,0861768
3326,6055;0,0862732
3327,5696;0,0863736
3328,5339;0,0864766
3329,4980;0,0865758
3330,4624;0,086662
3331,4265;0,0867263
3332,3909;0,0867638
3333,3550;0,0867761
3334,3193;0,0867709
3335,2834;0,0867585
3336,2478;0,0867462
3337,2119;0,0867332
3338,1763;0,0867102
3339,1404;0,0866638
3340,1047;0,0865844
3341,0688;0,0864735
3342,0332;0,0863448
3342,9973;0,0862179
3343,9617;0,0861081
3344,9258;0,0860182
3345,8901;0,0859366
3346,8542;0,0858446
3347,8186;0,0857267
3348,7827;0,0855782
3349,7471;0,0854062
3350,7112;0,085224
3351,6755;0,0850445
3352,6396;0,0848747
3353,6040;0,0847152
3354,5681;0,084562
3355,5325;0,0844097
3356,4966;0,0842541
3357,4609;0,0840948
3358,4250;0,0839366
3359,3894;0,0837879
3360,3535;0,0836568
3361,3179;0,0835456
3362,2820;0,083447
3363,2463;0,0833455
3364,2104;0,0832245
3365,1748;0,0830742
3366,1389;0,082896
3367,1033;0,082701
3368,0674;0,0825023
3369,0317;0,0823088
3369,9958;0,0821221
3370,9602;0,0819395
3371,9243;0,0817588
3372,8887;0,0815807
3373,8528;0,0814084
3374,8171;0,0812439
3375,7813;0,0810861
3376,7456;0,0809307
3377,7097;0,0807729
3378,6741;0,0806096
3379,6382;0,0804397
3380,6025;0,0802631
3381,5667;0,0800797
3382,5310;0,0798905
3383,4951;0,0797011
3384,4595;0,0795224
3385,4236;0,0793672
3386,3879;0,079243
3387,3521;0,0791447
3388,3164;0,0790544
3389,2805;0,0789479
3390,2449;0,0788064
3391,2090;0,0786258
3392,1733;0,0784191
3393,1375;0,0782087
3394,1018;0,0780138
3395,0659;0,0778415
3396,0303;0,0776859
3396,9944;0,0775336
3397,9587;0,0773715
3398,9229;0,0771918
3399,8872;0,0769939
3400,8513;0,0767825
3401,8157;0,0765667
3402,7798;0,076356
3403,7441;0,0761571
3404,7083;0,075971
3405,6726;0,075792
3406,6367;0,0756105
3407,6011;0,0754176
3408,5652;0,0752086
3409,5295;0,0749839
3410,4937;0,0747475
3411,4580;0,0745055
3412,4221;0,0742653
3413,3865;0,0740348
3414,3506;0,0738198
3415,3149;0,0736198
3416,2791;0,0734264
3417,2434;0,073225
3418,2075;0,0730016
3419,1719;0,0727503
3420,1360;0,0724769
3421,1003;0,0721956
3422,0645;0,0719208
3423,0288;0,0716599
3423,9929;0,071413
3424,9573;0,0711762
3425,9214;0,0709461
3426,8857;0,0707196
3427,8499;0,0704933
3428,8142;0,0702618
3429,7783;0,0700202
3430,7427;0,0697664
3431,7068;0,0695036
3432,6711;0,0692388
3433,6353;0,0689788
3434,5996;0,0687268
3435,5637;0,0684811
3436,5281;0,0682365
3437,4922;0,0679881
3438,4565;0,0677346
3439,4207;0,0674798
3440,3850;0,0672299
3441,3491;0,0669884
3442,3135;0,0667509
3443,2776;0,0665048
3444,2419;0,0662345
3445,2061;0,0659317
3446,1704;0,0656041
3447,1345;0,065275
3448,0989;0,0649707
3449,0630;0,064705
3450,0273;0,0644707
3450,9915;0,0642465
3451,9558;0,0640094
3452,9199;0,063747
3453,8843;0,0634619
3454,8484;0,0631674
3455,8127;0,0628781
3456,7769;0,062601
3457,7412;0,0623338
3458,7053;0,0620693
3459,6697;0,061801
3460,6338;0,0615272
3461,5981;0,0612495
3462,5623;0,0609695
3463,5266;0,0606866
3464,4907;0,060398
3465,4551;0,0601026
3466,4192;0,0598035
3467,3835;0,0595086
3468,3477;0,059226
3469,3120;0,0589584
3470,2761;0,0587006
3471,2405;0,0584422
3472,2046;0,0581756
3473,1689;0,0579031
3474,1331;0,0576375
3475,0974;0,057394
3476,0615;0,0571781
3477,0259;0,0569781
3477,9900;0,0567693
3478,9543;0,0565266
3479,9185;0,0562393
3480,8828;0,0559187
3481,8469;0,0555916
3482,8113;0,0552829
3483,7754;0,0549989
3484,7397;0,0547268
3485,7039;0,0544466
3486,6682;0,054147
3487,6323;0,0538353
3488,5967;0,0535333
3489,5608;0,053264
3490,5251;0,0530353
3491,4893;0,0528356
3492,4536;0,0526401
3493,4177;0,0524257
3494,3821;0,0521848
3495,3462;0,0519302
3496,3105;0,051685
3497,2747;0,0514641
3498,2390;0,0512591
3499,2031;0,0510403
3500,1675;0,050774
3501,1316;0,0504469
3502,0959;0,0500831
3503,0601;0,0497353
3504,0244;0,0494479
3504,9885;0,0492243
3505,9529;0,0490248
3506,9170;0,0487959
3507,8813;0,0485036
3508,8455;0,0481552
3509,8098;0,0477956
3510,7739;0,0474766
3511,7383;0,0472216
3512,7024;0,047015
3513,6667;0,0468211
3514,6309;0,0466128
3515,5952;0,0463884
3516,5593;0,0461683
3517,5237;0,0459751
3518,4878;0,0458133
3519,4521;0,0456636
3520,4163;0,0454943
3521,3806;0,0452804
3522,3447;0,0450175
3523,3091;0,0447195
3524,2732;0,0444032
3525,2375;0,0440734
3526,2017;0,0437248
3527,1660;0,0433582
3528,1301;0,0429949
3529,0945;0,0426721
3530,0586;0,0424192
3531,0229;0,0422355
3531,9871;0,0420877
3532,9514;0,0419272
3533,9155;0,0417146
3534,8799;0,0414392
3535,8440;0,0411261
3536,8083;0,040824
3537,7725;0,040579
3538,7368;0,0404113
3539,7009;0,0403081
3540,6653;0,0402307
3541,6294;0,0401254
3542,5938;0,039938
3543,5579;0,0396365
3544,5222;0,039237
3545,4863;0,0388097
3546,4507;0,0384396
3547,4148;0,0381679
3548,3792;0,0379693
3549,3433;0,037777
3550,3076;0,0375265
3551,2717;0,0371951
3552,2361;0,0368184
3553,2002;0,0364706
3554,1646;0,0362123
3555,1287;0,0360513
3556,0930;0,0359457
3557,0571;0,0358401
3558,0215;0,0357043
3558,9856;0,0355528
3559,9500;0,035434
3560,9141;0,0353892
3561,8784;0,0354091
3562,8425;0,0354162
3563,8069;0,0352792
3564,7710;0,0348636
3565,7354;0,0341369
3566,6995;0,0332697
3567,6638;0,0325562
3568,6279;0,0321675
3569,5923;0,0320558
3570,5564;0,0320692
3571,5208;0,0320713
3572,4849;0,0319863
3573,4492;0,0318003
3574,4133;0,0315454
3575,3777;0,0312687
3576,3418;0,0310026
3577,3062;0,030756
3578,2703;0,0305335
3579,2346;0,0303564
3580,1987;0,0302599
3581,1631;0,0302651
3582,1272;0,0303484
3583,0916;0,0304308
3584,0557;0,0303922
3585,0200;0,0301132
3585,9841;0,0295615
3586,9485;0,0288812
3587,9126;0,0283359
3588,8770;0,0280912
3589,8411;0,0281048
3590,8054;0,0282197
3591,7695;0,0282819
3592,7339;0,0281988
3593,6980;0,0279634
3594,6624;0,0276476
3595,6265;0,0273456
3596,5908;0,0270976
3597,5549;0,0268699
3598,5193;0,0266069
3599,4834;0,0262975
3600,4478;0,0259993
3601,4119;0,0257951
3602,3762;0,0257221
3603,3403;0,0257403
3604,3047;0,0257556
3605,2688;0,0256672
3606,2332;0,0254145
3607,1973;0,0250149
3608,1616;0,0245584
3609,1257;0,0241459
3610,0901;0,0238249
3611,0542;0,0235873
3612,0186;0,0234114
3612,9827;0,0232891
3613,9470;0,0232145
3614,9111;0,0231555
3615,8755;0,0230424
3616,8396;0,0227942
3617,8040;0,0223801
3618,7681;0,0218854
3619,7324;0,0214973
3620,6965;0,0213769
3621,6609;0,021549
3622,6250;0,0219224
3623,5894;0,0223635
3624,5535;0,0227285
3625,5178;0,0228539
3626,4819;0,0225643
3627,4463;0,0217802
3628,4104;0,0207104
3629,3748;0,0197965
3630,3389;0,0192974
3631,3032;0,0191251
3632,2673;0,0190694
3633,2317;0,0189824
3634,1958;0,0188155
3635,1602;0,0185921
3636,1243;0,0183617
3637,0886;0,0181586
3638,0527;0,0179879
3639,0171;0,0178442
3639,9812;0,0177397
3640,9456;0,0177114
3641,9097;0,0178004
3642,8740;0,0180184
3643,8381;0,0183248
3644,8025;0,018614
3645,7666;0,0187009
3646,7310;0,0183288
3647,6951;0,0173274
3648,6594;0,0159792
3649,6235;0,014978
3650,5879;0,0146671
3651,5520;0,0148262
3652,5164;0,0151077
3653,4805;0,0152721
3654,4448;0,0152051
3655,4089;0,0149163
3656,3733;0,0145335
3657,3374;0,0142235
3658,3018;0,014069
3659,2659;0,0140357
3660,2302;0,0140452
3661,1943;0,0140566
3662,1587;0,0140939
3663,1228;0,0142118
3664,0872;0,0144364
3665,0513;0,0147249
3666,0156;0,014972
3666,9797;0,0150527
3667,9441;0,0148985
3668,9082;0,0145896
3669,8726;0,0143409
3670,8367;0,0143052
3671,8010;0,0144194
3672,7651;0,0144681
3673,7295;0,014232
3674,6936;0,0136438
3675,6580;0,0129077
3676,6221;0,012367
3677,5864;0,0121787
3678,5505;0,012253
3679,5149;0,0124424
3680,4790;0,0126666
3681,4434;0,0129192
3682,4075;0,013225
3683,3718;0,0135929
3684,3359;0,0139859
3685,3003;0,0143136
3686,2644;0,0144448
3687,2288;0,0142511
3688,1929;0,0137162
3689,1572;0,0130486
3690,1213;0,0125696
3691,0857;0,0124285
3692,0498;0,0125485
3693,0142;0,0127922
3693,9783;0,0130676
3694,9426;0,0133352
3695,9067;0,0135788
3696,8711;0,0137788
3697,8352;0,0138997
3698,7996;0,0138997
3699,7637;0,0137617
3700,7280;0,0135317
3701,6921;0,0133261
3702,6565;0,013272
3703,6206;0,013426
3704,5850;0,0137515
3705,5491;0,0141538
3706,5134;0,0145145
3707,4775;0,0146975
3708,4419;0,0145562
3709,4060;0,0139987
3710,3704;0,0131322
3711,3345;0,0123054
3712,2988;0,0118488
3713,2629;0,0118205
3714,2273;0,01208
3715,1914;0,0124648
3716,1558;0,0128637
3717,1199;0,0132165
3718,0842;0,0135006
3719,0483;0,0137186
3720,0127;0,0138845
3720,9768;0,0140056
3721,9412;0,0140744
3722,9053;0,0140817
3723,8696;0,0140441
3724,8337;0,014017
3725,7981;0,0140699
3726,7622;0,014242
3727,7266;0,0145215
3728,6907;0,0148571
3729,6550;0,0151776
3730,6191;0,0153967
3731,5835;0,0154082
3732,5476;0,0150999
3733,5120;0,0144322
3734,4761;0,0135694
3735,4404;0,0128658
3736,4045;0,0125925
3737,3689;0,0127511
3738,3330;0,0131762
3739,2974;0,0136831
3740,2615;0,0141134
3741,2258;0,0143288
3742,1899;0,014231
3743,1543;0,013849
3744,1184;0,0134162
3745,0828;0,0132267
3746,0469;0,0133502
3747,0112;0,0135912
3747,9753;0,0136586
3748,9397;0,0133199
3749,9038;0,0125724
3750,8682;0,0117711
3751,8323;0,0113624
3752,7966;0,0114428
3753,7607;0,0117928
3754,7251;0,0121572
3755,6892;0,0123665
3756,6536;0,0123484
3757,6177;0,0121393
3758,5820;0,0118783
3759,5461;0,0117244
3760,5105;0,0117479
3761,4746;0,0119097
3762,4390;0,0121252
3763,4031;0,0123215
3764,3674;0,0124568
3765,3315;0,0125127
3766,2959;0,0124791
3767,2600;0,0123455
3768,2244;0,0121148
3769,1885;0,0118301
3770,1528;0,0115832
3771,1169;0,0114728
3772,0813;0,0115443
3773,0454;0,0117659
3774,0098;0,0120529
3774,9739;0,0123043
3775,9382;0,0124331
3776,9023;0,0123979
3777,8667;0,0122331
3778,8308;0,0120419
3779,7952;0,0119265
3780,7593;0,0119146
3781,7236;0,0119582
3782,6877;0,0119881
3783,6521;0,0119617
3784,6162;0,0118815
3785,5806;0,0117845
3786,5447;0,0117164
3787,5090;0,0117081
3788,4731;0,0117686
3789,4375;0,0118898
3790,4016;0,0120524
3791,3660;0,0122309
3792,3301;0,0124007
3793,2944;0,0125507
3794,2585;0,0126912
3795,2229;0,0128471
3796,1870;0,0130285
3797,1514;0,0131993
3798,1155;0,0132767
3799,0798;0,0131753
3800,0439;0,0128874
3801,0083;0,0125322
3801,9724;0,0122776
3802,9368;0,012184
3803,9009;0,0121627
3804,8652;0,0120763
3805,8293;0,0118608
3806,7937;0,0115945
3807,7578;0,0114546
3808,7222;0,0115704
3809,6863;0,0119237
3810,6506;0,0123913
3811,6147;0,0128312
3812,5791;0,013134
3813,5432;0,0132534
3814,5076;0,0132344
3815,4717;0,0131933
3816,4360;0,0132143
3817,4001;0,0132561
3818,3645;0,0131836
3819,3286;0,0128928
3820,2930;0,0124296
3821,2571;0,0119893
3822,2214;0,0117535
3823,1855;0,0117494
3824,1499;0,011887
3825,1140;0,0120652
3826,0784;0,0122268
3827,0425;0,0123612
3828,0068;0,0124854
3828,9709;0,01262
3829,9353;0,0127747
3830,8994;0,0129487
3831,8638;0,0131346
3832,8279;0,0133181
3833,7922;0,0134695
3834,7563;0,0135383
3835,7207;0,0134652
3836,6848;0,0132175
3837,6492;0,0128322
3838,6133;0,0124158
3839,5776;0,0120736
3840,5417;0,0118434
3841,5061;0,0117083
3842,4702;0,0116514
3843,4346;0,0116874
3844,3987;0,0118534
3845,3630;0,0121776
3846,3271;0,0126552
3847,2915;0,0132448
3848,2556;0,0138706
3849,2200;0,014412
3850,1841;0,0146765
3851,1484;0,0144049
3852,1125;0,0134578
3853,0769;0,0121948
3854,0410;0,0113359
3855,0054;0,0111707
3855,9695;0,0114726
3856,9338;0,011955
3857,8979;0,0124452
3858,8623;0,0128478
3859,8264;0,0130995
3860,7908;0,013162
3861,7549;0,0130515
3862,7192;0,0128651
3863,6833;0,012743
3864,6477;0,0127705
3865,6118;0,0129228
3866,5762;0,0130999
3867,5403;0,0131905
3868,5046;0,0131168
3869,4688;0,0128667
3870,4331;0,0125103
3871,3972;0,0121734
3872,3616;0,0119711
3873,3257;0,0119541
3874,2900;0,0121038
3875,2542;0,012358
3876,2185;0,012637
3877,1826;0,0128654
3878,1470;0,0129923
3879,1111;0,0130108
3880,0754;0,0129589
3881,0396;0,0128851
3882,0039;0,0128047
3882,9680;0,0127
3883,9324;0,012567
3884,8965;0,0124513
3885,8608;0,0124211
3886,8250;0,012499
3887,7893;0,0126266
3888,7534;0,0126959
3889,7178;0,0126188
3890,6819;0,0124038
3891,6462;0,0121862
3892,6104;0,0121401
3893,5747;0,0123362
3894,5388;0,012709
3895,5032;0,0131331
3896,4673;0,013492
3897,4316;0,0137061
3898,3958;0,0137431
3899,3601;0,0136166
3900,3242;0,0133628
3901,2886;0,0130128
3902,2527;0,0125997
3903,2170;0,0121902
3904,1812;0,0118774
3905,1455;0,011724
3906,1096;0,011724
3907,0740;0,0118245
3908,0381;0,0119687
3909,0024;0,012123
3909,9666;0,01228
3910,9309;0,0124463
3911,8950;0,0126226
3912,8594;0,0127877
3913,8235;0,012899
3914,7878;0,0129135
3915,7520;0,0128206
3916,7163;0,0126673
3917,6804;0,0125413
3918,6448;0,0125095
3919,6089;0,0125699
3920,5732;0,0126602
3921,5374;0,012705
3922,5017;0,0126636
3923,4658;0,0125584
3924,4302;0,0124635
3925,3943;0,0124526
3926,3586;0,012543
3927,3228;0,0126854
3928,2871;0,0127964
3929,2512;0,0128022
3930,2156;0,0126783
3931,1797;0,0124685
3932,1440;0,0122633
3933,1082;0,0121421
3934,0725;0,0121318
3935,0366;0,0122126
3936,0010;0,0123465
3936,9651;0,0124967
3937,9294;0,0126309
3938,8936;0,0127203
3939,8579;0,0127446
3940,8220;0,012704
3941,7864;0,012628
3942,7505;0,0125647
3943,7148;0,0125514
3944,6790;0,0125893
3945,6433;0,0126442
3946,6074;0,0126689
3947,5718;0,012633
3948,5359;0,0125424
3949,5002;0,0124367
3950,4644;0,0123617
3951,4287;0,0123397
3952,3928;0,0123628
3953,3572;0,0124067
3954,3213;0,01245
3955,2856;0,0124832
3956,2498;0,0125078
3957,2141;0,0125267
3958,1782;0,0125383
3959,1426;0,0125361
3960,1067;0,012516
3961,0710;0,0124825
3962,0352;0,0124488
3962,9995;0,0124296
3963,9636;0,0124328
3964,9280;0,0124559
3965,8921;0,0124893
3966,8564;0,0125223
3967,8206;0,0125475
3968,7849;0,0125624
3969,7490;0,0125674
3970,7134;0,0125634
3971,6775;0,012551
3972,6418;0,0125321
3973,6060;0,0125106
3974,5703;0,0124929
3975,5344;0,0124849
3976,4988;0,012489
3977,4629;0,0125028
3978,4272;0,0125203
3979,3914;0,0125345
3980,3557;0,0125409
3981,3198;0,0125394
3982,2842;0,0125339
3983,2483;0,0125314
3984,2126;0,012538
3985,1768;0,0125562
3986,1411;0,0125833
3987,1052;0,0126119
3988,0696;0,0126329
3989,0337;0,0126396
3989,9980;0,0126308
3990,9622;0,0126113
3991,9265;0,0125888
3992,8906;0,0125708
3993,8550;0,0125615
3994,8191;0,0125613
3995,7834;0,0125682
3996,7476;0,0125788
3997,7119;0,0125895
3998,6760;0,0125974
3999,6404;0,0126011
4000,6045;0,0125541

##### Extended Information
[Comments]
Sample name
Comment
Username
Division
Organization;UNIVERSIDAD INDUSTRIAL DE SANTANDER

[Detailed Information]
Creation date;10/03/2025 7:48 p.m.

Data array type;Linear data array
Horizontal axis;Wavenumber [cm-1]
Vertical axis;Abs
Start;399,193 cm-1
End;4000,6 cm-1
Data interval;0,964233 cm-1
Data points;3736    

[Measurement Information]
Model name;FT/IR-4X1typeA
Serial No.;A035162111

Accessory;ATR PRO 4X
Accessory S/N;A021162126
Incident angle;45 deg

Measurement date;10/03/2025 7:48 p.m.

Light source;Standard
Detector;TGS
Accumulation;40
Resolution;4 cm-1
Zero filling;On
Apodization;Cosine
Gain;Auto (8)
Aperture;Auto (7 mm)
Scan speed;Auto (2 mm/sec)
Filter;Auto (12800 Hz)

