TITLE;
DATA TYPE;INFRARED SPECTRUM
ORIGIN;JASCO
OWNER;
DATE;25/01/29
TIME;14:43:40
SPECTROMETER/DATA SYSTEM;
LOCALE;9226
RESOLUTION;
DELTAX;0,964233
XUNITS;1/CM
YUNITS;ABSORBANCE
FIRSTX;  399,1927
LASTX; 4000,6047
NPOINTS;    3736
FIRSTY;     0,11158
MAXY;     0,14750
MINY;     0,01284
XYDATA
399,1927;0,111582
400,1569;0,111899
401,1211;0,111688
402,0854;0,111386
403,0496;0,111245
404,0138;0,111322
404,9781;0,111545
405,9423;0,111784
406,9065;0,111925
407,8708;0,111911
408,8350;0,111742
409,7992;0,111443
410,7635;0,111052
411,7277;0,110625
412,6919;0,110245
413,6562;0,110004
414,6204;0,109997
415,5846;0,110328
416,5489;0,111113
417,5131;0,112411
418,4773;0,114053
419,4416;0,115586
420,4058;0,116609
421,3700;0,117101
422,3343;0,117274
423,2985;0,117312
424,2627;0,117284
425,2270;0,117174
426,1912;0,116948
427,1554;0,116608
428,1197;0,116214
429,0839;0,115861
430,0481;0,115631
431,0124;0,11556
431,9766;0,115625
432,9408;0,115751
433,9051;0,115854
434,8693;0,115857
435,8335;0,115705
436,7978;0,115355
437,7620;0,114787
438,7262;0,11402
439,6905;0,113133
440,6547;0,112268
441,6189;0,111597
442,5832;0,111242
443,5474;0,1112
444,5116;0,111331
445,4759;0,111444
446,4401;0,111419
447,4043;0,11124
448,3686;0,110956
449,3328;0,110603
450,2970;0,110182
451,2613;0,109671
452,2255;0,109092
453,1897;0,108534
454,1540;0,108142
455,1182;0,108049
456,0824;0,108301
457,0467;0,108791
458,0109;0,109275
458,9751;0,109493
459,9394;0,109336
460,9036;0,108882
461,8678;0,108307
462,8321;0,107786
463,7963;0,107445
464,7605;0,107343
465,7248;0,107459
466,6890;0,107696
467,6532;0,107922
468,6175;0,108025
469,5817;0,107961
470,5459;0,107765
471,5102;0,10753
472,4744;0,107348
473,4386;0,107248
474,4029;0,107191
475,3671;0,10713
476,3313;0,107062
477,2956;0,107035
478,2598;0,107102
479,2240;0,107282
480,1883;0,107538
481,1525;0,107807
482,1167;0,108054
483,0810;0,108294
484,0452;0,108574
485,0094;0,108924
485,9737;0,10932
486,9379;0,109706
487,9021;0,110029
488,8664;0,110272
489,8306;0,110449
490,7948;0,110579
491,7591;0,11068
492,7233;0,11077
493,6875;0,110881
494,6518;0,111053
495,6160;0,11131
496,5802;0,111637
497,5445;0,111982
498,5087;0,112285
499,4729;0,112514
500,4372;0,112687
501,4014;0,112861
502,3656;0,113085
503,3299;0,113367
504,2941;0,113673
505,2583;0,113957
506,2226;0,114203
507,1868;0,114422
508,1510;0,114638
509,1153;0,114857
510,0795;0,115063
511,0437;0,115234
512,0080;0,115369
512,9722;0,115494
513,9365;0,115653
514,9007;0,115884
515,8649;0,116201
516,8292;0,116584
517,7934;0,116983
518,7576;0,117338
519,7219;0,117602
520,6861;0,11775
521,6503;0,117783
522,6146;0,117728
523,5788;0,117634
524,5430;0,117572
525,5073;0,117602
526,4715;0,117745
527,4357;0,117954
528,4000;0,118149
529,3642;0,118257
530,3284;0,118251
531,2927;0,118152
532,2569;0,118008
533,2211;0,117865
534,1854;0,117743
535,1496;0,117644
536,1138;0,117557
537,0781;0,117479
538,0423;0,117416
539,0065;0,117367
539,9708;0,117315
540,9350;0,117232
541,8992;0,117099
542,8635;0,116924
543,8277;0,116756
544,7919;0,116668
545,7562;0,116719
546,7204;0,116924
547,6846;0,117238
548,6489;0,117583
549,6131;0,117883
550,5773;0,118104
551,5416;0,118258
552,5058;0,118383
553,4700;0,118508
554,4343;0,118637
555,3985;0,118752
556,3627;0,118825
557,3270;0,118848
558,2912;0,118827
559,2554;0,118778
560,2197;0,118699
561,1839;0,118572
562,1481;0,118365
563,1124;0,118054
564,0766;0,117643
565,0408;0,117173
566,0051;0,116711
566,9693;0,116339
567,9335;0,116119
568,8978;0,116066
569,8620;0,116139
570,8262;0,116255
571,7905;0,116326
572,7547;0,116302
573,7189;0,116184
574,6832;0,116019
575,6474;0,115874
576,6116;0,115793
577,5759;0,115782
578,5401;0,115804
579,5043;0,115816
580,4686;0,115787
581,4328;0,11571
582,3970;0,115599
583,3613;0,115471
584,3255;0,115337
585,2897;0,115199
586,2540;0,115058
587,2182;0,114922
588,1824;0,114805
589,1467;0,114722
590,1109;0,114677
591,0751;0,114657
592,0394;0,114634
593,0036;0,114576
593,9678;0,11446
594,9321;0,114284
595,8963;0,114059
596,8605;0,113803
597,8248;0,113528
598,7890;0,11324
599,7532;0,112939
600,7175;0,112626
601,6817;0,112312
602,6459;0,112017
603,6102;0,111763
604,5744;0,111566
605,5386;0,111421
606,5029;0,111301
607,4671;0,111159
608,4313;0,110945
609,3956;0,110627
610,3598;0,110211
611,3240;0,109745
612,2883;0,109303
613,2525;0,108947
614,2167;0,108699
615,1810;0,108522
616,1452;0,108337
617,1094;0,108054
618,0737;0,107625
619,0379;0,107056
620,0021;0,106402
620,9664;0,105715
621,9306;0,105033
622,8948;0,10437
623,8591;0,103739
624,8233;0,103148
625,7875;0,102648
626,7518;0,10225
627,7160;0,101938
628,6802;0,101666
629,6445;0,101383
630,6087;0,101059
631,5729;0,100694
632,5372;0,100311
633,5014;0,0999448
634,4656;0,0996194
635,4299;0,0993466
636,3941;0,0991256
637,3583;0,0989484
638,3226;0,0988006
639,2868;0,0986618
640,2510;0,0985097
641,2153;0,09833
642,1795;0,0981253
643,1437;0,0979158
644,1080;0,0977265
645,0722;0,0975704
646,0364;0,0974398
647,0007;0,0973123
647,9649;0,0971701
648,9291;0,0970168
649,8934;0,0968804
650,8576;0,0967963
651,8218;0,0967855
652,7861;0,0968405
653,7503;0,0969298
654,7145;0,097012
655,6788;0,0970553
656,6430;0,0970531
657,6072;0,0970256
658,5715;0,0970051
659,5357;0,0970076
660,4999;0,0970076
661,4642;0,0969369
662,4284;0,096713
663,3926;0,0962771
664,3569;0,0956258
665,3211;0,0948478
666,2853;0,0941445
667,2496;0,0937451
668,2138;0,0936498
669,1780;0,0935642
670,1423;0,0933045
671,1065;0,0928929
672,0707;0,0923436
673,0350;0,0916495
673,9992;0,0908419
674,9634;0,0899847
675,9277;0,0891337
676,8919;0,0883071
677,8561;0,0874952
678,8204;0,0866927
679,7846;0,0859192
680,7488;0,0852085
681,7131;0,0845849
682,6773;0,0840456
683,6415;0,0835689
684,6058;0,0831337
685,5700;0,082732
686,5342;0,0823643
687,4985;0,0820286
688,4627;0,0817178
689,4269;0,0814195
690,3912;0,0811291
691,3554;0,0808505
692,3196;0,0805885
693,2839;0,0803413
694,2481;0,0801024
695,2123;0,0798672
696,1766;0,0796383
697,1408;0,0794224
698,1050;0,0792215
699,0693;0,0790262
700,0335;0,078818
700,9977;0,0785795
701,9620;0,0783047
702,9262;0,0780016
703,8904;0,0776825
704,8547;0,077366
705,8189;0,0770631
706,7831;0,0767756
707,7474;0,0764988
708,7116;0,0762242
709,6758;0,0759429
710,6401;0,0756459
711,6043;0,0753269
712,5685;0,074985
713,5328;0,0746276
714,4970;0,074269
715,4612;0,0736522
716,4255;0,0733832
717,3897;0,0731448
718,3539;0,0728966
719,3182;0,0725868
720,2824;0,0721786
721,2466;0,0716713
722,2109;0,0711003
723,1751;0,0705151
724,1393;0,0699564
725,1036;0,0694459
726,0678;0,0689894
727,0320;0,0685844
727,9963;0,0682237
728,9605;0,0678948
729,9247;0,067579
730,8890;0,0672548
731,8532;0,066906
732,8174;0,0665308
733,7817;0,0661436
734,7459;0,0657705
735,7101;0,0654374
736,6744;0,0651602
737,6386;0,0649385
738,6028;0,0647564
739,5671;0,0645875
740,5313;0,0644022
741,4955;0,0641753
742,4598;0,0638935
743,4240;0,0635603
744,3882;0,0631967
745,3525;0,0628338
746,3167;0,0625012
747,2809;0,0622146
748,2452;0,0619706
749,2094;0,0617507
750,1736;0,0615337
751,1379;0,0613071
752,1021;0,0610713
753,0663;0,0608325
754,0306;0,0605923
754,9948;0,0603412
755,9590;0,0600632
756,9233;0,0597482
757,8875;0,059404
758,8517;0,0590575
759,8160;0,0587442
760,7802;0,0584902
761,7444;0,0582993
762,7087;0,0581506
763,6729;0,05801
764,6371;0,0578467
765,6014;0,0576466
766,5656;0,0574156
767,5298;0,0571727
768,4941;0,056938
769,4583;0,0567238
770,4225;0,0565315
771,3868;0,0563552
772,3510;0,0561879
773,3152;0,0560253
774,2795;0,0558657
775,2437;0,055708
776,2079;0,0555505
777,1722;0,055391
778,1364;0,0552295
779,1006;0,055068
780,0649;0,0549087
781,0291;0,0547506
781,9933;0,054589
782,9576;0,0544173
783,9218;0,0542317
784,8860;0,0540347
785,8503;0,0538343
786,8145;0,0536403
787,7787;0,0534592
788,7430;0,0532937
789,7072;0,0531431
790,6714;0,0530068
791,6357;0,0528854
792,5999;0,0527794
793,5641;0,0526869
794,5284;0,0526037
795,4926;0,0525249
796,4568;0,0524493
797,4211;0,052381
798,3853;0,0523281
799,3495;0,0522968
800,3138;0,0522858
801,2780;0,0522845
802,2422;0,0522764
803,2065;0,0522468
804,1707;0,0521906
805,1349;0,052114
806,0992;0,0520301
807,0634;0,0519506
808,0276;0,0518797
808,9919;0,051814
809,9561;0,051748
810,9203;0,0516807
811,8846;0,0516184
812,8488;0,0515699
813,8130;0,0515398
814,7773;0,0515229
815,7415;0,0515046
816,7057;0,0514688
817,6700;0,0514056
818,6342;0,0513174
819,5984;0,0512181
820,5627;0,0511266
821,5269;0,0510595
822,4911;0,0510242
823,4554;0,051016
824,4196;0,0510199
825,3839;0,0510174
826,3481;0,050994
827,3123;0,0509462
828,2766;0,0508829
829,2408;0,0508192
830,2050;0,0507668
831,1693;0,0507256
832,1335;0,0506824
833,0977;0,0506173
834,0620;0,0505157
835,0262;0,0503766
835,9904;0,0502132
836,9547;0,0500455
837,9189;0,0498898
838,8831;0,0497518
839,8474;0,0496275
840,8116;0,0495091
841,7758;0,0493926
842,7401;0,049281
843,7043;0,0491823
844,6685;0,0491034
845,6328;0,0490463
846,5970;0,0490069
847,5612;0,0489784
848,5255;0,0489549
849,4897;0,0489342
850,4539;0,0489159
851,4182;0,0488995
852,3824;0,0488817
853,3466;0,0488575
854,3109;0,0488229
855,2751;0,0487783
856,2393;0,0487297
857,2036;0,0486863
858,1678;0,0486565
859,1320;0,0486442
860,0963;0,0486476
861,0605;0,0486611
862,0247;0,0486787
862,9890;0,0486973
863,9532;0,0487185
864,9174;0,0487476
865,8817;0,0487914
866,8459;0,0488552
867,8101;0,0489402
868,7744;0,0490425
869,7386;0,0491539
870,7028;0,0492644
871,6671;0,0493653
872,6313;0,0494522
873,5955;0,049526
874,5598;0,0495919
875,5240;0,0496574
876,4882;0,0497303
877,4525;0,0498179
878,4167;0,0499273
879,3809;0,0500665
880,3452;0,0502434
881,3094;0,0504646
882,2736;0,0507333
883,2379;0,0510489
884,2021;0,05141
885,1663;0,0518162
886,1306;0,0522705
887,0948;0,0527764
888,0590;0,0533341
889,0233;0,0539353
889,9875;0,0545624
890,9517;0,0551906
891,9160;0,0557925
892,8802;0,0563427
893,8444;0,0568189
894,8087;0,0572015
895,7729;0,0574732
896,7371;0,0576206
897,7014;0,0576365
898,6656;0,0575221
899,6298;0,0572878
900,5941;0,05695
901,5583;0,056529
902,5225;0,0560462
903,4868;0,0555252
904,4510;0,0549919
905,4152;0,0544741
906,3795;0,0539987
907,3437;0,0535867
908,3079;0,0532499
909,2722;0,0529898
910,2364;0,0528008
911,2007;0,0526752
912,1649;0,0526064
913,1292;0,0525895
914,0934;0,0526196
915,0576;0,0526894
916,0219;0,0527894
916,9861;0,0529104
917,9503;0,0530458
918,9146;0,0531929
919,8788;0,0533517
920,8430;0,0535213
921,8073;0,0536975
922,7715;0,0538733
923,7357;0,0540407
924,7000;0,0541937
925,6642;0,0543304
926,6284;0,0544528
927,5927;0,0545657
928,5569;0,0546746
929,5211;0,0547841
930,4854;0,0548976
931,4496;0,0550169
932,4138;0,0551442
933,3781;0,0552832
934,3423;0,0554399
935,3065;0,0556224
936,2708;0,0558386
937,2350;0,0560942
938,1992;0,0563911
939,1635;0,0567284
940,1277;0,0571038
941,0919;0,0575152
942,0562;0,0579614
943,0204;0,0584416
943,9846;0,0589559
944,9489;0,0595058
945,9131;0,0600954
946,8773;0,0607307
947,8416;0,0614176
948,8058;0,0621572
949,7700;0,0629439
950,7343;0,0637668
951,6985;0,0646148
952,6627;0,0654832
953,6270;0,0663768
954,5912;0,0673078
955,5554;0,0682876
956,5197;0,0693194
957,4839;0,0703949
958,4481;0,0714976
959,4124;0,0726109
960,3766;0,0737242
961,3408;0,0748348
962,3051;0,0759431
963,2693;0,0770475
964,2335;0,0781431
965,1978;0,0792245
966,1620;0,0802932
967,1262;0,0813608
968,0905;0,0824479
969,0547;0,0835776
970,0189;0,0847689
970,9832;0,0860339
971,9474;0,0873804
972,9116;0,0888158
973,8759;0,0903496
974,8401;0,0919923
975,8043;0,0937505
976,7686;0,0956224
977,7328;0,0975946
978,6970;0,0996406
979,6613;0,101722
980,6255;0,103789
981,5897;0,105788
982,5540;0,107669
983,5182;0,10939
984,4824;0,11093
985,4467;0,112284
986,4109;0,113462
987,3751;0,114483
988,3394;0,115369
989,3036;0,116141
990,2678;0,116818
991,2321;0,117414
992,1963;0,117942
993,1605;0,118411
994,1248;0,118832
995,0890;0,119217
996,0532;0,119586
997,0175;0,11996
997,9817;0,120355
998,9459;0,120781
999,9102;0,121235
1000,8744;0,121716
1001,8386;0,122226
1002,8029;0,122779
1003,7671;0,123399
1004,7313;0,124111
1005,6956;0,124929
1006,6598;0,125859
1007,6240;0,126897
1008,5883;0,128036
1009,5525;0,129271
1010,5167;0,130593
1011,4810;0,131987
1012,4452;0,133422
1013,4094;0,134859
1014,3737;0,136258
1015,3379;0,137587
1016,3021;0,138825
1017,2664;0,139962
1018,2306;0,140993
1019,1948;0,141918
1020,1591;0,142742
1021,1233;0,143475
1022,0875;0,144136
1023,0518;0,144742
1024,0160;0,145308
1024,9802;0,145838
1025,9445;0,146326
1026,9087;0,146757
1027,8729;0,147112
1028,8372;0,147369
1029,8014;0,147505
1030,7656;0,147492
1031,7299;0,147303
1032,6941;0,146911
1033,6583;0,146304
1034,6226;0,145491
1035,5868;0,144507
1036,5510;0,143414
1037,5153;0,142285
1038,4795;0,1412
1039,4437;0,140218
1040,4080;0,139378
1041,3722;0,138686
1042,3364;0,138126
1043,3007;0,137662
1044,2649;0,137252
1045,2291;0,136853
1046,1934;0,13643
1047,1576;0,135958
1048,1218;0,135417
1049,0861;0,134796
1050,0503;0,134084
1051,0145;0,133278
1051,9788;0,132375
1052,9430;0,131379
1053,9072;0,130295
1054,8715;0,129129
1055,8357;0,127881
1056,7999;0,126543
1057,7642;0,1251
1058,7284;0,123535
1059,6926;0,121841
1060,6569;0,120031
1061,6211;0,11814
1062,5853;0,116225
1063,5496;0,114353
1064,5138;0,112579
1065,4780;0,110935
1066,4423;0,109428
1067,4065;0,108042
1068,3707;0,106753
1069,3350;0,105537
1070,2992;0,104382
1071,2634;0,103277
1072,2277;0,102212
1073,1919;0,101171
1074,1561;0,10014
1075,1204;0,0991032
1076,0846;0,0980563
1077,0488;0,097004
1078,0131;0,0959604
1078,9773;0,094945
1079,9415;0,0939788
1080,9058;0,093081
1081,8700;0,0922662
1082,8342;0,0915422
1083,7985;0,0909095
1084,7627;0,0903621
1085,7269;0,0898901
1086,6912;0,0894814
1087,6554;0,0891241
1088,6196;0,0888079
1089,5839;0,0885257
1090,5481;0,088275
1091,5123;0,0880586
1092,4766;0,0878829
1093,4408;0,0877548
1094,4050;0,0876778
1095,3693;0,0876505
1096,3335;0,0876666
1097,2977;0,0877179
1098,2620;0,0877964
1099,2262;0,0878949
1100,1904;0,0880058
1101,1547;0,0881193
1102,1189;0,0882218
1103,0831;0,0882967
1104,0474;0,0883266
1105,0116;0,0882975
1105,9758;0,088202
1106,9401;0,0880403
1107,9043;0,0878173
1108,8685;0,0875363
1109,8328;0,0871931
1110,7970;0,0867749
1111,7612;0,0862664
1112,7255;0,0856601
1113,6897;0,0849661
1114,6539;0,0842141
1115,6182;0,0834469
1116,5824;0,0827067
1117,5466;0,0820218
1118,5109;0,081399
1119,4751;0,0808226
1120,4393;0,0802593
1121,4036;0,0796665
1122,3678;0,0790007
1123,3320;0,0782266
1124,2963;0,077323
1125,2605;0,0762863
1126,2247;0,0751302
1127,1890;0,0738801
1128,1532;0,0725658
1129,1174;0,0712152
1130,0817;0,0698502
1131,0459;0,0684874
1132,0101;0,0671421
1132,9744;0,0658335
1133,9386;0,0645871
1134,9028;0,0634343
1135,8671;0,062406
1136,8313;0,0615256
1137,7955;0,0608032
1138,7598;0,0602353
1139,7240;0,0598091
1140,6882;0,0595096
1141,6525;0,0593238
1142,6167;0,059242
1143,5809;0,0592543
1144,5452;0,0593487
1145,5094;0,0595108
1146,4736;0,0597271
1147,4379;0,0599884
1148,4021;0,0602905
1149,3663;0,0606315
1150,3306;0,0610065
1151,2948;0,061404
1152,2590;0,0618056
1153,2233;0,0621887
1154,1875;0,0625299
1155,1517;0,0628064
1156,1160;0,0629937
1157,0802;0,0630633
1158,0444;0,0629812
1159,0087;0,0627105
1159,9729;0,0622173
1160,9371;0,0614785
1161,9014;0,0604878
1162,8656;0,0592584
1163,8298;0,0578222
1164,7941;0,056225
1165,7583;0,0545211
1166,7225;0,0527671
1167,6868;0,0510171
1168,6510;0,049318
1169,6152;0,0477066
1170,5795;0,0462082
1171,5437;0,0448383
1172,5079;0,0436056
1173,4722;0,0425149
1174,4364;0,0415677
1175,4006;0,040761
1176,3649;0,0400852
1177,3291;0,0395241
1178,2933;0,0390575
1179,2576;0,0386662
1180,2218;0,0383356
1181,1860;0,0380576
1182,1503;0,0378294
1183,1145;0,0376505
1184,0787;0,037521
1185,0430;0,0374413
1186,0072;0,0374129
1186,9714;0,0374383
1187,9357;0,0375204
1188,8999;0,0376605
1189,8641;0,0378576
1190,8284;0,0381088
1191,7926;0,0384109
1192,7568;0,0387614
1193,7211;0,0391586
1194,6853;0,0395994
1195,6495;0,0400784
1196,6138;0,0405864
1197,5780;0,041112
1198,5422;0,041644
1199,5065;0,0421465
1200,4707;0,0426775
1201,4349;0,0432072
1202,3992;0,0437389
1203,3634;0,0442739
1204,3276;0,0448085
1205,2919;0,0453347
1206,2561;0,0458445
1207,2203;0,0463346
1208,1846;0,0468111
1209,1488;0,0472895
1210,1130;0,04779
1211,0773;0,0483308
1212,0415;0,0489219
1213,0057;0,049562
1213,9700;0,0502402
1214,9342;0,0509402
1215,8984;0,0516446
1216,8627;0,0523378
1217,8269;0,0530075
1218,7911;0,0536455
1219,7554;0,0542485
1220,7196;0,0548171
1221,6838;0,0553542
1222,6481;0,0558624
1223,6123;0,0563417
1224,5765;0,0567889
1225,5408;0,0571991
1226,5050;0,0575685
1227,4692;0,0578964
1228,4335;0,0581851
1229,3977;0,0584387
1230,3619;0,0586607
1231,3262;0,0588528
1232,2904;0,0590148
1233,2546;0,0591461
1234,2189;0,0592467
1235,1831;0,0593185
1236,1473;0,0593653
1237,1116;0,0593919
1238,0758;0,059403
1239,0400;0,0594019
1240,0043;0,0593896
1240,9685;0,0593643
1241,9327;0,0593223
1242,8970;0,0592589
1243,8612;0,0591691
1244,8254;0,0590495
1245,7897;0,0588981
1246,7539;0,0587148
1247,7181;0,0585026
1248,6824;0,0582672
1249,6466;0,0580179
1250,6108;0,057766
1251,5751;0,0575223
1252,5393;0,0572943
1253,5035;0,0570834
1254,4678;0,0568845
1255,4320;0,0566877
1256,3962;0,056482
1257,3605;0,0562585
1258,3247;0,0560129
1259,2889;0,0557453
1260,2532;0,0554581
1261,2174;0,0551537
1262,1816;0,0548319
1263,1459;0,054489
1264,1101;0,0541195
1265,0743;0,0537172
1266,0386;0,0532778
1267,0028;0,0527991
1267,9670;0,0522823
1268,9313;0,0517311
1269,8955;0,0511519
1270,8597;0,0505523
1271,8240;0,0499398
1272,7882;0,0493207
1273,7524;0,0486991
1274,7167;0,0480791
1275,6809;0,0474658
1276,6451;0,0468661
1277,6094;0,0462877
1278,5736;0,0457357
1279,5378;0,0452109
1280,5021;0,0447097
1281,4663;0,0442268
1282,4305;0,0437588
1283,3948;0,0433071
1284,3590;0,0428779
1285,3232;0,0424815
1286,2875;0,0421291
1287,2517;0,0418306
1288,2159;0,0415912
1289,1802;0,0414103
1290,1444;0,0412821
1291,1086;0,0411981
1292,0729;0,041152
1293,0371;0,0411426
1294,0013;0,0411739
1294,9656;0,0412529
1295,9298;0,0413847
1296,8940;0,0415706
1297,8583;0,0418075
1298,8225;0,0420904
1299,7867;0,0424145
1300,7510;0,0427752
1301,7152;0,0431686
1302,6794;0,0435899
1303,6437;0,0440347
1304,6079;0,0444993
1305,5721;0,0449808
1306,5364;0,0454761
1307,5006;0,0459805
1308,4648;0,0464884
1309,4291;0,0469938
1310,3933;0,0474911
1311,3575;0,047974
1312,3218;0,0484339
1313,2860;0,0488584
1314,2502;0,0492324
1315,2145;0,0495408
1316,1787;0,0497713
1317,1429;0,049917
1318,1072;0,0499784
1319,0714;0,0499649
1320,0356;0,0498937
1320,9999;0,0497855
1321,9641;0,0496592
1322,9283;0,0495287
1323,8926;0,0494029
1324,8568;0,0492868
1325,8210;0,0491817
1326,7853;0,0490853
1327,7495;0,048992
1328,7137;0,0488933
1329,6780;0,0487799
1330,6422;0,0486433
1331,6064;0,0484766
1332,5707;0,0482757
1333,5349;0,0480385
1334,4991;0,0477634
1335,4634;0,0474485
1336,4276;0,047093
1337,3918;0,0467017
1338,3561;0,046292
1339,3203;0,0458939
1340,2845;0,045539
1341,2488;0,0452436
1342,2130;0,0450029
1343,1772;0,0448005
1344,1415;0,0446212
1345,1057;0,0444593
1346,0699;0,0443201
1347,0342;0,0442165
1347,9984;0,0441622
1348,9626;0,0441657
1349,9269;0,0442267
1350,8911;0,0443367
1351,8553;0,0444846
1352,8196;0,0446627
1353,7838;0,0448691
1354,7480;0,0451066
1355,7123;0,0453756
1356,6765;0,0456705
1357,6407;0,0459806
1358,6050;0,0462967
1359,5692;0,0466168
1360,5334;0,0469442
1361,4977;0,0472805
1362,4619;0,0476174
1363,4261;0,0479386
1364,3904;0,048229
1365,3546;0,0484803
1366,3188;0,0486889
1367,2831;0,0488524
1368,2473;0,0489671
1369,2115;0,0490296
1370,1758;0,0490381
1371,1400;0,0489923
1372,1042;0,048892
1373,0685;0,0487371
1374,0327;0,0485308
1374,9969;0,0482816
1375,9612;0,0479965
1376,9254;0,0476717
1377,8896;0,0472906
1378,8539;0,0468351
1379,8181;0,0463033
1380,7823;0,0457178
1381,7466;0,0451168
1382,7108;0,0445312
1383,6750;0,0439672
1384,6393;0,0434111
1385,6035;0,0428505
1386,5677;0,0422992
1387,5320;0,0418019
1388,4962;0,0414039
1389,4604;0,0411147
1390,4247;0,0409074
1391,3889;0,0407451
1392,3531;0,0406039
1393,3174;0,0404806
1394,2816;0,0403888
1395,2458;0,0403476
1396,2101;0,0403682
1397,1743;0,0404483
1398,1385;0,0405769
1399,1028;0,0407413
1400,0670;0,0409311
1401,0313;0,0411392
1401,9955;0,0413625
1402,9597;0,0416026
1403,9240;0,0418643
1404,8882;0,0421512
1405,8524;0,0424619
1406,8167;0,0427913
1407,7809;0,043137
1408,7451;0,0435032
1409,7094;0,0438982
1410,6736;0,0443243
1411,6378;0,0447695
1412,6021;0,0452099
1413,5663;0,0456227
1414,5305;0,0460004
1415,4948;0,0463523
1416,4590;0,0466956
1417,4232;0,0470382
1418,3875;0,0473622
1419,3517;0,0476301
1420,3159;0,0478108
1421,2802;0,0478893
1422,2444;0,0478573
1423,2086;0,0477109
1424,1729;0,0474584
1425,1371;0,0471207
1426,1013;0,0467171
1427,0656;0,0462492
1428,0298;0,0457023
1428,9940;0,0450724
1429,9583;0,0443938
1430,9225;0,0437319
1431,8867;0,0431376
1432,8510;0,0426101
1433,8152;0,0421035
1434,7794;0,0415652
1435,7437;0,0409874
1436,7079;0,0404418
1437,6721;0,0400364
1438,6364;0,0398209
1439,6006;0,0397636
1440,5648;0,0398066
1441,5291;0,0399115
1442,4933;0,0400659
1443,4575;0,0402729
1444,4218;0,0405376
1445,3860;0,0408593
1446,3502;0,0412278
1447,3145;0,0416217
1448,2787;0,0420091
1449,2429;0,0423567
1450,2072;0,042642
1451,1714;0,0428573
1452,1356;0,0430053
1453,0999;0,0430919
1454,0641;0,0431226
1455,0283;0,0431005
1455,9926;0,0430269
1456,9568;0,0429179
1457,9210;0,0428229
1458,8853;0,0427827
1459,8495;0,0427829
1460,8137;0,0427742
1461,7780;0,042699
1462,7422;0,0424935
1463,7064;0,0420973
1464,6707;0,0414971
1465,6349;0,0407669
1466,5991;0,040019
1467,5634;0,0393063
1468,5276;0,0385946
1469,4918;0,0377973
1470,4561;0,0368153
1471,4203;0,0355879
1472,3845;0,034178
1473,3488;0,0328072
1474,3130;0,0316996
1475,2772;0,0308995
1476,2415;0,030314
1477,2057;0,0298452
1478,1699;0,0294402
1479,1342;0,029082
1480,0984;0,02877
1481,0626;0,0285099
1482,0269;0,0283096
1482,9911;0,028174
1483,9553;0,0281001
1484,9196;0,0280756
1485,8838;0,0280866
1486,8480;0,0281302
1487,8123;0,0282258
1488,7765;0,0284108
1489,7407;0,0287078
1490,7050;0,0290964
1491,6692;0,0295342
1492,6334;0,0299942
1493,5977;0,030477
1494,5619;0,0310046
1495,5261;0,0316087
1496,4904;0,0323087
1497,4546;0,0330825
1498,4188;0,0338653
1499,3831;0,0345915
1500,3473;0,0352292
1501,3115;0,035771
1502,2758;0,036217
1503,2400;0,0365659
1504,2042;0,0368112
1505,1685;0,036932
1506,1327;0,0368895
1507,0969;0,0366814
1508,0612;0,0364083
1509,0254;0,0361691
1509,9896;0,0359626
1510,9539;0,0357421
1511,9181;0,0354637
1512,8823;0,0350909
1513,8466;0,0345961
1514,8108;0,0339742
1515,7750;0,0332578
1516,7393;0,0325094
1517,7035;0,0317807
1518,6677;0,0310793
1519,6320;0,030381
1520,5962;0,0296805
1521,5604;0,0290293
1522,5247;0,0285061
1523,4889;0,0281482
1524,4531;0,0279298
1525,4174;0,0277973
1526,3816;0,027711
1527,3458;0,0276583
1528,3101;0,02764
1529,2743;0,0276529
1530,2385;0,0276838
1531,2028;0,0277168
1532,1670;0,0277459
1533,1312;0,0277832
1534,0955;0,0278508
1535,0597;0,0279571
1536,0239;0,0280865
1536,9882;0,0282076
1537,9524;0,0282819
1538,9166;0,0282693
1539,8809;0,0281552
1540,8451;0,0280149
1541,8093;0,0279804
1542,7736;0,028086
1543,7378;0,0282667
1544,7020;0,0284599
1545,6663;0,028637
1546,6305;0,0287908
1547,5947;0,0289201
1548,5590;0,0290228
1549,5232;0,0290951
1550,4874;0,0291369
1551,4517;0,0291565
1552,4159;0,0291686
1553,3801;0,029184
1554,3444;0,0292006
1555,3086;0,0292006
1556,2728;0,0291528
1557,2371;0,0290285
1558,2013;0,0288601
1559,1655;0,0287831
1560,1298;0,0288897
1561,0940;0,0291281
1562,0582;0,0294169
1563,0225;0,0297106
1563,9867;0,029989
1564,9509;0,0302418
1565,9152;0,030466
1566,8794;0,0306714
1567,8436;0,0308856
1568,8079;0,0311418
1569,7721;0,0314513
1570,7363;0,0317928
1571,7006;0,0321374
1572,6648;0,0324763
1573,6290;0,03283
1574,5933;0,0332389
1575,5575;0,033735
1576,5217;0,0343016
1577,4860;0,0348772
1578,4502;0,0354195
1579,4144;0,0359376
1580,3787;0,0364637
1581,3429;0,0370216
1582,3071;0,0376146
1583,2714;0,0382277
1584,2356;0,0388417
1585,1998;0,0394473
1586,1641;0,0400454
1587,1283;0,0406351
1588,0925;0,041203
1589,0568;0,0417231
1590,0210;0,0421663
1590,9852;0,0425085
1591,9495;0,0427327
1592,9137;0,0428287
1593,8779;0,0427969
1594,8422;0,0426537
1595,8064;0,0424305
1596,7706;0,0421627
1597,7349;0,0418774
1598,6991;0,041589
1599,6633;0,0413046
1600,6276;0,04103
1601,5918;0,0407735
1602,5560;0,040543
1603,5203;0,040342
1604,4845;0,0401671
1605,4487;0,0400092
1606,4130;0,039858
1607,3772;0,0397079
1608,3414;0,0395633
1609,3057;0,0394388
1610,2699;0,03935
1611,2341;0,0393022
1612,1984;0,0392873
1613,1626;0,0392888
1614,1268;0,0392908
1615,0911;0,0392874
1616,0553;0,0392912
1617,0195;0,0393278
1617,9838;0,0394121
1618,9480;0,0395368
1619,9122;0,0396859
1620,8765;0,039847
1621,8407;0,0400111
1622,8049;0,0401695
1623,7692;0,0403147
1624,7334;0,0404452
1625,6976;0,0405668
1626,6619;0,0406874
1627,6261;0,0408101
1628,5903;0,0409319
1629,5546;0,0410475
1630,5188;0,0411541
1631,4830;0,0412516
1632,4473;0,0413387
1633,4115;0,0414087
1634,3757;0,0414503
1635,3400;0,0414601
1636,3042;0,0414583
1637,2684;0,0414735
1638,2327;0,0415123
1639,1969;0,0415632
1640,1611;0,0416136
1641,1254;0,0416576
1642,0896;0,0416929
1643,0538;0,0417132
1644,0181;0,0417011
1644,9823;0,0416298
1645,9465;0,0414895
1646,9108;0,0413206
1647,8750;0,0411885
1648,8392;0,041119
1649,8035;0,0410831
1650,7677;0,0410136
1651,7319;0,0408148
1652,6962;0,0404153
1653,6604;0,039905
1654,6246;0,0394841
1655,5889;0,0392105
1656,5531;0,039015
1657,5173;0,0388288
1658,4816;0,0386091
1659,4458;0,0383245
1660,4100;0,0379491
1661,3743;0,037482
1662,3385;0,0369708
1663,3027;0,0364931
1664,2670;0,0360975
1665,2312;0,0357725
1666,1954;0,0354621
1667,1597;0,0350929
1668,1239;0,0346092
1669,0881;0,0340212
1670,0524;0,0334224
1671,0166;0,0329128
1671,9808;0,0325077
1672,9451;0,0321439
1673,9093;0,0317474
1674,8735;0,0312886
1675,8378;0,0308037
1676,8020;0,0303658
1677,7662;0,0300241
1678,7305;0,0297763
1679,6947;0,0295826
1680,6589;0,0293792
1681,6232;0,0290808
1682,5874;0,0286036
1683,5516;0,0279553
1684,5159;0,0272979
1685,4801;0,0267971
1686,4443;0,0264657
1687,4086;0,0262283
1688,3728;0,0260221
1689,3370;0,025825
1690,3013;0,0256427
1691,2655;0,0254861
1692,2297;0,0253542
1693,1940;0,0252293
1694,1582;0,0250851
1695,1224;0,0249025
1696,0867;0,0246837
1697,0509;0,0244534
1698,0151;0,0242425
1698,9794;0,0240735
1699,9436;0,0239587
1700,9078;0,0239058
1701,8721;0,0239156
1702,8363;0,0239796
1703,8005;0,0240838
1704,7648;0,0242146
1705,7290;0,0243639
1706,6932;0,0245322
1707,6575;0,0247248
1708,6217;0,0249466
1709,5859;0,0251972
1710,5502;0,0254705
1711,5144;0,0257558
1712,4786;0,0260395
1713,4429;0,0263086
1714,4071;0,0265572
1715,3713;0,026793
1716,3356;0,0270384
1717,2998;0,0273126
1718,2640;0,0276098
1719,2283;0,0279118
1720,1925;0,0282112
1721,1567;0,028512
1722,1210;0,0288172
1723,0852;0,0291216
1724,0494;0,0294125
1725,0137;0,0296768
1725,9779;0,0299081
1726,9421;0,0301099
1727,9064;0,030291
1728,8706;0,0304575
1729,8348;0,0306055
1730,7991;0,0307146
1731,7633;0,0307484
1732,7275;0,0306744
1733,6918;0,0305035
1734,6560;0,0302952
1735,6202;0,0301004
1736,5845;0,0299202
1737,5487;0,029721
1738,5129;0,0294641
1739,4772;0,0291278
1740,4414;0,0287207
1741,4056;0,0282769
1742,3699;0,0278301
1743,3341;0,0273929
1744,2983;0,0269602
1745,2626;0,0265216
1746,2268;0,0260639
1747,1910;0,0255626
1748,1553;0,0249841
1749,1195;0,0243159
1750,0837;0,0236048
1751,0480;0,0229408
1752,0122;0,0223874
1752,9764;0,0219422
1753,9407;0,0215573
1754,9049;0,0211792
1755,8691;0,0207785
1756,8334;0,0203588
1757,7976;0,0199421
1758,7618;0,0195417
1759,7261;0,019148
1760,6903;0,0187435
1761,6545;0,0183296
1762,6188;0,0179355
1763,5830;0,0175964
1764,5472;0,0173265
1765,5115;0,0171137
1766,4757;0,0169329
1767,4399;0,0167608
1768,4042;0,0165822
1769,3684;0,0163874
1770,3326;0,0161702
1771,2969;0,0159343
1772,2611;0,0157038
1773,2253;0,0155161
1774,1896;0,0153949
1775,1538;0,0153351
1776,1180;0,0153124
1777,0823;0,0152987
1778,0465;0,0152731
1779,0107;0,0152269
1779,9750;0,0151649
1780,9392;0,0150987
1781,9034;0,0150364
1782,8677;0,0149802
1783,8319;0,0149317
1784,7961;0,0148972
1785,7604;0,0148863
1786,7246;0,0149034
1787,6888;0,014942
1788,6531;0,0149834
1789,6173;0,0150012
1790,5815;0,0149724
1791,5458;0,0148957
1792,5100;0,0148006
1793,4742;0,0147272
1794,4385;0,0146945
1795,4027;0,014695
1796,3669;0,0147101
1797,3312;0,014722
1798,2954;0,0147191
1799,2596;0,0146984
1800,2239;0,0146659
1801,1881;0,0146324
1802,1523;0,0146068
1803,1166;0,0145925
1804,0808;0,0145886
1805,0450;0,0145919
1806,0093;0,0145968
1806,9735;0,0145969
1807,9377;0,0145861
1808,9020;0,0145626
1809,8662;0,0145316
1810,8304;0,0145031
1811,7947;0,014486
1812,7589;0,0144822
1813,7231;0,0144862
1814,6874;0,0144897
1815,6516;0,0144866
1816,6158;0,014477
1817,5801;0,0144679
1818,5443;0,0144684
1819,5085;0,0144833
1820,4728;0,0145085
1821,4370;0,0145341
1822,4012;0,0145497
1823,3655;0,0145521
1824,3297;0,0145468
1825,2939;0,0145428
1826,2582;0,0145434
1827,2224;0,0145402
1828,1866;0,0145197
1829,1509;0,0144764
1830,1151;0,0144234
1831,0793;0,0143861
1832,0436;0,0143828
1833,0078;0,0144122
1833,9720;0,0144565
1834,9363;0,0144932
1835,9005;0,0145076
1836,8647;0,0145032
1837,8290;0,0145008
1838,7932;0,0145246
1839,7574;0,0145846
1840,7217;0,0146693
1841,6859;0,0147473
1842,6501;0,0147794
1843,6144;0,0147397
1844,5786;0,0146388
1845,5428;0,0145187
1846,5071;0,014422
1847,4713;0,0143674
1848,4355;0,0143519
1849,3998;0,0143624
1850,3640;0,0143847
1851,3282;0,0144079
1852,2925;0,0144255
1853,2567;0,0144342
1854,2209;0,0144338
1855,1852;0,0144267
1856,1494;0,0144184
1857,1136;0,0144154
1858,0779;0,0144224
1859,0421;0,01444
1860,0063;0,0144644
1860,9706;0,0144903
1861,9348;0,0145143
1862,8990;0,0145364
1863,8633;0,0145571
1864,8275;0,0145741
1865,7917;0,0145804
1866,7560;0,0145676
1867,7202;0,014534
1868,6844;0,0144893
1869,6487;0,014449
1870,6129;0,0144227
1871,5771;0,0144105
1872,5414;0,0144084
1873,5056;0,0144132
1874,4698;0,0144244
1875,4341;0,0144425
1876,3983;0,0144662
1877,3625;0,014491
1878,3268;0,0145106
1879,2910;0,014522
1880,2552;0,0145286
1881,2195;0,0145388
1882,1837;0,0145598
1883,1479;0,0145917
1884,1122;0,014626
1885,0764;0,0146511
1886,0406;0,0146585
1887,0049;0,0146478
1887,9691;0,0146263
1888,9333;0,0146046
1889,8976;0,0145905
1890,8618;0,0145841
1891,8260;0,0145801
1892,7903;0,0145717
1893,7545;0,0145548
1894,7188;0,0145298
1895,6830;0,0145029
1896,6472;0,014485
1897,6115;0,0144878
1898,5757;0,0145175
1899,5399;0,0145705
1900,5042;0,0146328
1901,4684;0,0146847
1902,4326;0,0147091
1903,3969;0,0147007
1904,3611;0,0146677
1905,3253;0,0146276
1906,2896;0,0145978
1907,2538;0,0145897
1908,2180;0,0146068
1909,1823;0,0146456
1910,1465;0,0146981
1911,1107;0,0147532
1912,0750;0,0147987
1913,0392;0,0148234
1914,0034;0,0148195
1914,9677;0,0147842
1915,9319;0,0147213
1916,8961;0,0146411
1917,8604;0,0145577
1918,8246;0,0144831
1919,7888;0,0144253
1920,7531;0,0143896
1921,7173;0,0143797
1922,6815;0,0143946
1923,6458;0,0144261
1924,6100;0,01446
1925,5742;0,0144854
1926,5385;0,0145014
1927,5027;0,0145173
1928,4669;0,0145438
1929,4312;0,0145832
1930,3954;0,014627
1931,3596;0,0146625
1932,3239;0,0146836
1933,2881;0,014695
1934,2523;0,0147062
1935,2166;0,0147193
1936,1808;0,014725
1937,1450;0,0147099
1938,1093;0,0146704
1939,0735;0,0146203
1940,0377;0,0145864
1941,0020;0,0145916
1941,9662;0,0146377
1942,9304;0,0146999
1943,8947;0,0147435
1944,8589;0,0147494
1945,8231;0,0147253
1946,7874;0,0146964
1947,7516;0,0146864
1948,7158;0,0147043
1949,6801;0,0147416
1950,6443;0,0147797
1951,6085;0,0148011
1952,5728;0,0147985
1953,5370;0,014777
1954,5012;0,0147509
1955,4655;0,0147372
1956,4297;0,0147481
1957,3939;0,0147843
1958,3582;0,0148323
1959,3224;0,0148692
1960,2866;0,0148737
1961,2509;0,0148408
1962,2151;0,0147871
1963,1793;0,0147439
1964,1436;0,0147393
1965,1078;0,0147805
1966,0720;0,0148475
1967,0363;0,0149038
1968,0005;0,01492
1968,9647;0,0148927
1969,9290;0,0148435
1970,8932;0,0148003
1971,8574;0,01478
1972,8217;0,0147864
1973,7859;0,0148236
1974,7501;0,0149094
1975,7144;0,0150693
1976,6786;0,0153092
1977,6428;0,0155895
1978,6071;0,0158335
1979,5713;0,0159723
1980,5355;0,0159877
1981,4998;0,0159191
1982,4640;0,0158299
1983,4282;0,0157643
1984,3925;0,0157208
1985,3567;0,0156623
1986,3209;0,0155542
1987,2852;0,0154044
1988,2494;0,0152713
1989,2136;0,0152329
1990,1779;0,0153348
1991,1421;0,0155518
1992,1063;0,0157944
1993,0706;0,015962
1994,0348;0,0160032
1994,9990;0,0159413
1995,9633;0,0158515
1996,9275;0,0158145
1997,8917;0,0158732
1998,8560;0,0160099
1999,8202;0,016155
2000,7844;0,0162225
2001,7487;0,0161562
2002,7129;0,0159632
2003,6771;0,0157179
2004,6414;0,0155363
2005,6056;0,0155264
2006,5698;0,0157348
2007,5341;0,0161201
2008,4983;0,0165718
2009,4625;0,0169648
2010,4268;0,017211
2011,3910;0,0172823
2012,3552;0,0172034
2013,3195;0,0170301
2014,2837;0,0168287
2015,2479;0,0166596
2016,2122;0,0165607
2017,1764;0,016535
2018,1406;0,0165487
2019,1049;0,0165488
2020,0691;0,0164933
2021,0333;0,0163752
2021,9976;0,0162276
2022,9618;0,0161047
2023,9260;0,0160531
2024,8903;0,0160876
2025,8545;0,0161866
2026,8187;0,0163089
2027,7830;0,0164169
2028,7472;0,0164918
2029,7114;0,0165343
2030,6757;0,0165563
2031,6399;0,0165751
2032,6041;0,0166132
2033,5684;0,016696
2034,5326;0,0168408
2035,4968;0,0170392
2036,4611;0,0172462
2037,4253;0,0173915
2038,3895;0,0174115
2039,3538;0,0172866
2040,3180;0,0170608
2041,2822;0,0168272
2042,2465;0,0166836
2043,2107;0,0166827
2044,1749;0,0168113
2045,1392;0,0170084
2046,1034;0,0172064
2047,0676;0,0173666
2048,0320;0,0174863
2048,9961;0,0175775
2049,9604;0,017641
2050,9246;0,0176589
2051,8889;0,0176106
2052,8530;0,0174946
2053,8174;0,0173382
2054,7815;0,0171873
2055,7458;0,0170806
2056,7100;0,0170289
2057,6743;0,0170123
2058,6384;0,0170009
2059,6028;0,0169795
2060,5669;0,0169573
2061,5313;0,0169575
2062,4954;0,0169944
2063,4597;0,0170594
2064,4238;0,0171258
2065,3882;0,0171697
2066,3523;0,017188
2067,3167;0,0171984
2068,2808;0,0172208
2069,2451;0,017257
2070,2092;0,0172851
2071,1736;0,017274
2072,1377;0,017206
2073,1021;0,0170915
2074,0662;0,0169647
2075,0305;0,0168637
2075,9946;0,0168109
2076,9590;0,0168072
2077,9231;0,0168393
2078,8875;0,0168933
2079,8516;0,0169612
2080,8159;0,0170375
2081,7800;0,0171114
2082,7444;0,0171655
2083,7085;0,0171825
2084,6729;0,0171572
2085,6370;0,0171024
2086,6013;0,0170428
2087,5654;0,0170013
2088,5298;0,0169855
2089,4939;0,0169848
2090,4583;0,01698
2091,4224;0,0169582
2092,3867;0,0169223
2093,3508;0,0168891
2094,3152;0,0168781
2095,2793;0,0168972
2096,2437;0,0169368
2097,2078;0,0169751
2098,1721;0,0169909
2099,1362;0,016976
2100,1006;0,0169384
2101,0647;0,0168977
2102,0291;0,0168732
2102,9932;0,016876
2103,9575;0,0169055
2104,9216;0,0169528
2105,8860;0,0170076
2106,8501;0,0170645
2107,8145;0,0171226
2108,7786;0,0171817
2109,7429;0,0172357
2110,7070;0,0172714
2111,6714;0,0172737
2112,6355;0,017235
2113,5999;0,0171626
2114,5640;0,0170778
2115,5283;0,0170072
2116,4924;0,0169701
2117,4568;0,0169703
2118,4209;0,0169969
2119,3853;0,0170322
2120,3494;0,0170626
2121,3137;0,0170857
2122,2778;0,0171083
2123,2422;0,0171398
2124,2063;0,0171821
2125,1707;0,0172251
2126,1348;0,0172492
2127,0991;0,0172349
2128,0632;0,0171749
2129,0276;0,0170814
2129,9917;0,0169861
2130,9561;0,0169301
2131,9202;0,0169478
2132,8845;0,0170521
2133,8486;0,0172264
2134,8130;0,0174301
2135,7771;0,0176139
2136,7415;0,0177374
2137,7056;0,0177778
2138,6699;0,0177292
2139,6340;0,0175975
2140,5984;0,0174003
2141,5625;0,0171736
2142,5269;0,0169763
2143,4910;0,0168831
2144,4553;0,0169596
2145,4194;0,017227
2146,3838;0,0176374
2147,3479;0,0180788
2148,3123;0,0184148
2149,2764;0,0185429
2150,2407;0,0184389
2151,2048;0,0181651
2152,1692;0,0178415
2153,1333;0,017598
2154,0977;0,0175335
2155,0618;0,0176947
2156,0261;0,0180696
2156,9902;0,0185837
2157,9546;0,0191068
2158,9187;0,01949
2159,8831;0,0196337
2160,8472;0,0195376
2161,8115;0,0192879
2162,7756;0,0190012
2163,7400;0,01877
2164,7041;0,0186365
2165,6685;0,0185943
2166,6326;0,0186077
2167,5969;0,0186345
2168,5610;0,0186391
2169,5254;0,018596
2170,4895;0,0184919
2171,4539;0,0183331
2172,4180;0,0181524
2173,3823;0,0180019
2174,3464;0,0179278
2175,3108;0,0179376
2176,2749;0,0179894
2177,2393;0,0180171
2178,2034;0,0179762
2179,1677;0,017877
2180,1318;0,0177777
2181,0962;0,017741
2182,0603;0,017786
2183,0247;0,0178731
2183,9888;0,0179354
2184,9531;0,0179296
2185,9172;0,0178646
2186,8816;0,0177879
2187,8457;0,0177454
2188,8101;0,0177496
2189,7742;0,0177777
2190,7385;0,0177961
2191,7026;0,0177878
2192,6670;0,0177598
2193,6311;0,0177296
2194,5955;0,0177057
2195,5596;0,01768
2196,5239;0,017637
2197,4880;0,0175703
2198,4524;0,01749
2199,4165;0,017417
2200,3809;0,0173708
2201,3450;0,0173612
2202,3093;0,01739
2203,2734;0,017456
2204,2378;0,0175574
2205,2019;0,0176859
2206,1663;0,0178208
2207,1304;0,0179294
2208,0947;0,0179789
2209,0588;0,0179517
2210,0232;0,0178554
2210,9873;0,0177188
2211,9517;0,0175773
2212,9158;0,0174576
2213,8801;0,0173693
2214,8442;0,0173093
2215,8086;0,0172706
2216,7727;0,0172496
2217,7371;0,0172462
2218,7012;0,0172599
2219,6655;0,0172858
2220,6296;0,0173157
2221,5940;0,0173426
2222,5581;0,0173626
2223,5225;0,0173737
2224,4866;0,0173712
2225,4509;0,0173479
2226,4150;0,0172993
2227,3794;0,0172325
2228,3435;0,0171691
2229,3079;0,0171364
2230,2720;0,0171512
2231,2363;0,0172071
2232,2004;0,0172762
2233,1648;0,0173265
2234,1289;0,017343
2235,0933;0,0173365
2236,0574;0,0173345
2237,0217;0,0173592
2237,9858;0,017411
2238,9502;0,0174666
2239,9143;0,0174946
2240,8787;0,0174748
2241,8428;0,0174101
2242,8071;0,0173236
2243,7712;0,0172453
2244,7356;0,0171984
2245,6997;0,017191
2246,6641;0,0172153
2247,6282;0,0172524
2248,5925;0,0172806
2249,5566;0,0172842
2250,5210;0,0172616
2251,4851;0,0172264
2252,4495;0,017201
2253,4136;0,0172032
2254,3779;0,0172348
2255,3420;0,0172782
2256,3064;0,0173066
2257,2705;0,0173013
2258,2349;0,0172634
2259,1990;0,0172129
2260,1633;0,0171769
2261,1274;0,0171737
2262,0918;0,0172045
2263,0559;0,0172559
2264,0203;0,0173098
2264,9844;0,0173542
2265,9487;0,0173866
2266,9128;0,0174106
2267,8772;0,0174292
2268,8413;0,0174407
2269,8057;0,0174396
2270,7698;0,0174209
2271,7341;0,0173853
2272,6982;0,0173402
2273,6626;0,0172972
2274,6267;0,0172669
2275,5911;0,0172536
2276,5552;0,0172535
2277,5195;0,0172571
2278,4836;0,0172551
2279,4480;0,0172445
2280,4121;0,0172313
2281,3765;0,0172272
2282,3406;0,0172425
2283,3049;0,0172799
2284,2690;0,0173323
2285,2334;0,0173869
2286,1975;0,0174327
2287,1619;0,0174666
2288,1260;0,0174942
2289,0903;0,0175247
2290,0544;0,0175645
2291,0188;0,0176128
2291,9829;0,0176625
2292,9473;0,0177058
2293,9114;0,0177387
2294,8757;0,0177628
2295,8398;0,0177815
2296,8042;0,0177955
2297,7683;0,0178009
2298,7327;0,0177917
2299,6968;0,0177654
2300,6611;0,017727
2301,6252;0,0176885
2302,5896;0,0176636
2303,5537;0,0176615
2304,5181;0,0176823
2305,4822;0,0177171
2306,4465;0,0177521
2307,4106;0,0177726
2308,3750;0,0177673
2309,3391;0,0177304
2310,3035;0,0176631
2311,2676;0,0175737
2312,2319;0,0174771
2313,1960;0,0173905
2314,1604;0,0173269
2315,1245;0,0172903
2316,0889;0,0172752
2317,0530;0,0172721
2318,0173;0,0172743
2318,9814;0,0172815
2319,9458;0,0172981
2320,9099;0,0173269
2321,8743;0,0173646
2322,8384;0,0174018
2323,8027;0,0174268
2324,7668;0,01743
2325,7312;0,0174078
2326,6953;0,0173636
2327,6597;0,0173059
2328,6238;0,0172427
2329,5881;0,0171787
2330,5522;0,0171201
2331,5166;0,01708
2332,4807;0,0170747
2333,4451;0,0171101
2334,4092;0,0171745
2335,3735;0,0172432
2336,3376;0,0172934
2337,3020;0,0173189
2338,2661;0,0173338
2339,2305;0,0173591
2340,1946;0,0173979
2341,1589;0,0174144
2342,1230;0,0173444
2343,0874;0,0171573
2344,0515;0,0169369
2345,0159;0,0168557
2345,9800;0,0170178
2346,9443;0,0173618
2347,9084;0,0177258
2348,8728;0,0179642
2349,8369;0,0180154
2350,8013;0,0179119
2351,7654;0,0177463
2352,7297;0,0176131
2353,6938;0,0175549
2354,6582;0,0175624
2355,6223;0,0176162
2356,5867;0,0177059
2357,5508;0,0178097
2358,5151;0,0178836
2359,4792;0,0178847
2360,4436;0,0177971
2361,4077;0,0176287
2362,3721;0,017388
2363,3362;0,0170802
2364,3005;0,0167258
2365,2646;0,016372
2366,2290;0,0160744
2367,1931;0,0158658
2368,1575;0,0157401
2369,1216;0,0156655
2370,0859;0,01561
2371,0500;0,015561
2372,0144;0,0155269
2372,9785;0,0155269
2373,9429;0,015577
2374,9070;0,0156828
2375,8713;0,0158388
2376,8354;0,0160321
2377,7998;0,0162464
2378,7639;0,016465
2379,7283;0,0166712
2380,6924;0,01685
2381,6567;0,0169897
2382,6208;0,0170845
2383,5852;0,0171361
2384,5493;0,0171533
2385,5137;0,0171486
2386,4778;0,0171351
2387,4421;0,0171224
2388,4063;0,0171159
2389,3706;0,0171169
2390,3347;0,0171244
2391,2991;0,0171366
2392,2632;0,0171515
2393,2275;0,0171668
2394,1917;0,0171797
2395,1560;0,0171876
2396,1201;0,0171891
2397,0845;0,0171849
2398,0486;0,0171789
2399,0129;0,0171761
2399,9771;0,0171811
2400,9414;0,0171963
2401,9055;0,0172204
2402,8699;0,0172499
2403,8340;0,0172793
2404,7983;0,0173043
2405,7625;0,0173224
2406,7268;0,0173338
2407,6909;0,0173416
2408,6553;0,0173506
2409,6194;0,0173646
2410,5837;0,0173855
2411,5479;0,017412
2412,5122;0,0174408
2413,4763;0,0174685
2414,4407;0,0174934
2415,4048;0,0175166
2416,3691;0,0175398
2417,3333;0,017564
2418,2976;0,0175885
2419,2617;0,0176121
2420,2261;0,0176344
2421,1902;0,0176568
2422,1545;0,0176812
2423,1187;0,0177077
2424,0830;0,0177339
2425,0471;0,0177558
2426,0115;0,0177709
2426,9756;0,01778
2427,9399;0,017787
2428,9041;0,0177962
2429,8684;0,0178097
2430,8325;0,0178266
2431,7969;0,0178445
2432,7610;0,017862
2433,7253;0,0178799
2434,6895;0,0179002
2435,6538;0,0179243
2436,6179;0,0179513
2437,5823;0,0179781
2438,5464;0,0180007
2439,5107;0,0180167
2440,4749;0,0180259
2441,4392;0,018031
2442,4033;0,0180364
2443,3677;0,0180462
2444,3318;0,0180619
2445,2961;0,0180809
2446,2603;0,0180979
2447,2246;0,0181078
2448,1887;0,0181097
2449,1531;0,0181091
2450,1172;0,0181151
2451,0815;0,0181354
2452,0457;0,0181705
2453,0100;0,0182128
2453,9741;0,0182508
2454,9385;0,0182763
2455,9026;0,0182895
2456,8669;0,0182981
2457,8311;0,0183111
2458,7954;0,0183316
2459,7595;0,0183538
2460,7239;0,0183663
2461,6880;0,0183601
2462,6523;0,018335
2463,6165;0,0183017
2464,5808;0,0182769
2465,5449;0,0182751
2466,5093;0,0183016
2467,4734;0,0183502
2468,4377;0,0184072
2469,4019;0,0184578
2470,3662;0,0184921
2471,3303;0,0185075
2472,2947;0,0185078
2473,2588;0,0184989
2474,2231;0,0184866
2475,1873;0,0184754
2476,1516;0,018469
2477,1157;0,0184704
2478,0801;0,0184817
2479,0442;0,0185025
2480,0085;0,0185291
2480,9727;0,0185559
2481,9370;0,0185771
2482,9011;0,0185893
2483,8655;0,0185925
2484,8296;0,0185891
2485,7939;0,0185836
2486,7581;0,0185812
2487,7224;0,0185869
2488,6865;0,0186038
2489,6509;0,0186313
2490,6150;0,0186638
2491,5793;0,0186931
2492,5435;0,0187122
2493,5078;0,0187205
2494,4719;0,018725
2495,4363;0,0187361
2496,4004;0,018761
2497,3647;0,0187985
2498,3289;0,0188387
2499,2932;0,0188688
2500,2573;0,0188805
2501,2217;0,0188751
2502,1858;0,0188616
2503,1501;0,0188512
2504,1143;0,0188508
2505,0786;0,0188597
2506,0427;0,0188724
2507,0071;0,018883
2507,9712;0,0188899
2508,9355;0,0188963
2509,8997;0,0189075
2510,8640;0,0189269
2511,8281;0,0189533
2512,7925;0,018982
2513,7566;0,0190076
2514,7209;0,0190265
2515,6851;0,0190379
2516,6494;0,0190423
2517,6135;0,0190405
2518,5779;0,0190338
2519,5420;0,0190255
2520,5063;0,0190217
2521,4705;0,0190294
2522,4348;0,0190517
2523,3989;0,0190848
2524,3633;0,0191175
2525,3274;0,0191372
2526,2917;0,0191367
2527,2559;0,0191186
2528,2202;0,0190942
2529,1843;0,0190762
2530,1487;0,0190718
2531,1128;0,0190798
2532,0771;0,0190939
2533,0413;0,0191081
2534,0056;0,0191212
2534,9697;0,0191365
2535,9341;0,0191572
2536,8982;0,0191831
2537,8625;0,0192091
2538,8267;0,0192289
2539,7910;0,0192393
2540,7551;0,0192424
2541,7195;0,0192443
2542,6836;0,0192509
2543,6479;0,0192641
2544,6121;0,019281
2545,5764;0,0192965
2546,5405;0,019307
2547,5049;0,0193125
2548,4690;0,0193163
2549,4333;0,0193219
2550,3975;0,0193309
2551,3618;0,0193412
2552,3259;0,0193488
2553,2903;0,0193499
2554,2544;0,0193428
2555,2188;0,0193288
2556,1829;0,019313
2557,1472;0,0193025
2558,1113;0,0193047
2559,0757;0,0193245
2560,0398;0,0193611
2561,0042;0,0194074
2561,9683;0,0194517
2562,9326;0,019483
2563,8967;0,0194959
2564,8611;0,0194928
2565,8252;0,0194823
2566,7896;0,0194736
2567,7537;0,0194723
2568,7180;0,019479
2569,6821;0,0194914
2570,6465;0,0195082
2571,6106;0,0195292
2572,5750;0,0195544
2573,5391;0,0195803
2574,5034;0,0196009
2575,4675;0,0196103
2576,4319;0,0196076
2577,3960;0,0195993
2578,3604;0,0195956
2579,3245;0,019604
2580,2888;0,0196241
2581,2529;0,0196479
2582,2173;0,0196655
2583,1814;0,0196718
2584,1458;0,0196696
2585,1099;0,0196671
2586,0742;0,0196711
2587,0383;0,0196835
2588,0027;0,0197013
2588,9668;0,0197212
2589,9312;0,0197434
2590,8953;0,0197714
2591,8596;0,0198077
2592,8237;0,0198499
2593,7881;0,01989
2594,7522;0,0199192
2595,7166;0,0199334
2596,6807;0,0199359
2597,6450;0,0199348
2598,6091;0,0199375
2599,5735;0,0199457
2600,5376;0,0199559
2601,5020;0,0199627
2602,4661;0,0199643
2603,4304;0,0199638
2604,3945;0,0199677
2605,3589;0,0199813
2606,3230;0,0200058
2607,2874;0,0200377
2608,2515;0,0200714
2609,2158;0,0201018
2610,1799;0,0201271
2611,1443;0,020148
2612,1084;0,020167
2613,0728;0,0201865
2614,0369;0,0202076
2615,0012;0,02023
2615,9653;0,0202524
2616,9297;0,0202728
2617,8938;0,0202893
2618,8582;0,0203008
2619,8223;0,0203069
2620,7866;0,0203092
2621,7507;0,0203106
2622,7151;0,020315
2623,6792;0,0203254
2624,6436;0,0203426
2625,6077;0,0203649
2626,5720;0,020389
2627,5361;0,0204128
2628,5005;0,0204366
2629,4646;0,0204632
2630,4290;0,0204957
2631,3931;0,0205342
2632,3574;0,0205754
2633,3215;0,020613
2634,2859;0,0206417
2635,2500;0,0206592
2636,2144;0,0206676
2637,1785;0,020672
2638,1428;0,0206782
2639,1069;0,0206904
2640,0713;0,02071
2641,0354;0,0207355
2641,9998;0,0207634
2642,9639;0,0207891
2643,9282;0,0208087
2644,8923;0,0208211
2645,8567;0,0208279
2646,8208;0,0208336
2647,7852;0,0208424
2648,7493;0,0208568
2649,7136;0,0208762
2650,6777;0,0208982
2651,6421;0,0209199
2652,6062;0,0209399
2653,5706;0,0209582
2654,5347;0,0209753
2655,4990;0,0209916
2656,4631;0,0210065
2657,4275;0,0210191
2658,3916;0,021029
2659,3560;0,0210366
2660,3201;0,0210429
2661,2844;0,0210496
2662,2485;0,0210577
2663,2129;0,0210675
2664,1770;0,0210782
2665,1414;0,0210883
2666,1055;0,0210968
2667,0698;0,0211048
2668,0339;0,0211153
2668,9983;0,0211325
2669,9624;0,0211585
2670,9268;0,0211919
2671,8909;0,0212268
2672,8552;0,0212559
2673,8193;0,0212731
2674,7837;0,0212775
2675,7478;0,021273
2676,7122;0,0212671
2677,6763;0,0212674
2678,6406;0,0212791
2679,6047;0,0213034
2680,5691;0,0213381
2681,5332;0,0213783
2682,4976;0,0214187
2683,4617;0,0214547
2684,4260;0,021484
2685,3901;0,0215071
2686,3545;0,0215262
2687,3186;0,0215439
2688,2830;0,0215619
2689,2471;0,0215801
2690,2114;0,0215976
2691,1755;0,021614
2692,1399;0,0216305
2693,1040;0,0216491
2694,0684;0,0216717
2695,0325;0,0216985
2695,9968;0,0217281
2696,9609;0,021758
2697,9253;0,0217854
2698,8894;0,0218086
2699,8538;0,0218276
2700,8179;0,0218439
2701,7822;0,0218605
2702,7463;0,0218803
2703,7107;0,0219055
2704,6748;0,0219366
2705,6392;0,0219713
2706,6033;0,0220062
2707,5676;0,0220383
2708,5317;0,0220662
2709,4961;0,0220916
2710,4602;0,0221172
2711,4246;0,0221457
2712,3887;0,0221775
2713,3530;0,0222105
2714,3171;0,0222413
2715,2815;0,0222672
2716,2456;0,0222879
2717,2100;0,0223054
2718,1741;0,022323
2719,1384;0,0223431
2720,1025;0,0223656
2721,0669;0,0223879
2722,0310;0,0224073
2722,9954;0,0224228
2723,9595;0,0224362
2724,9238;0,0224519
2725,8879;0,0224746
2726,8523;0,0225067
2727,8164;0,0225471
2728,7808;0,0225914
2729,7449;0,0226342
2730,7092;0,0226702
2731,6733;0,0226964
2732,6377;0,0227115
2733,6018;0,0227167
2734,5662;0,0227149
2735,5303;0,0227106
2736,4946;0,0227087
2737,4587;0,0227132
2738,4231;0,0227263
2739,3872;0,0227474
2740,3516;0,0227742
2741,3157;0,022803
2742,2800;0,0228304
2743,2441;0,0228535
2744,2085;0,0228704
2745,1726;0,0228807
2746,1370;0,0228856
2747,1011;0,0228885
2748,0654;0,0228939
2749,0295;0,0229056
2749,9939;0,022926
2750,9580;0,022955
2751,9224;0,0229905
2752,8865;0,0230296
2753,8508;0,0230692
2754,8149;0,0231062
2755,7793;0,0231382
2756,7434;0,0231634
2757,7078;0,0231818
2758,6719;0,0231958
2759,6362;0,0232089
2760,6003;0,0232251
2761,5647;0,0232465
2762,5288;0,0232733
2763,4932;0,0233041
2764,4573;0,0233369
2765,4216;0,0233704
2766,3857;0,023404
2767,3501;0,023438
2768,3142;0,0234725
2769,2786;0,0235076
2770,2427;0,0235431
2771,2070;0,0235776
2772,1711;0,0236092
2773,1355;0,0236356
2774,0996;0,0236561
2775,0640;0,0236729
2776,0281;0,0236905
2776,9924;0,0237144
2777,9565;0,0237479
2778,9209;0,0237905
2779,8850;0,0238381
2780,8494;0,0238856
2781,8135;0,0239296
2782,7778;0,0239691
2783,7419;0,024005
2784,7063;0,0240385
2785,6704;0,02407
2786,6348;0,0240994
2787,5989;0,0241279
2788,5632;0,0241586
2789,5273;0,0241955
2790,4917;0,0242415
2791,4558;0,0242964
2792,4202;0,024357
2793,3843;0,0244184
2794,3486;0,0244769
2795,3127;0,0245314
2796,2771;0,0245839
2797,2412;0,0246377
2798,2056;0,0246959
2799,1697;0,0247592
2800,1340;0,0248269
2801,0981;0,0248972
2802,0625;0,0249684
2803,0266;0,0250398
2803,9910;0,0251108
2804,9551;0,025181
2805,9194;0,0252497
2806,8835;0,0253169
2807,8479;0,0253841
2808,8120;0,0254542
2809,7764;0,0255303
2810,7405;0,0256139
2811,7048;0,0257035
2812,6689;0,0257956
2813,6333;0,0258866
2814,5974;0,0259756
2815,5618;0,026065
2816,5259;0,0261589
2817,4902;0,0262607
2818,4543;0,0263709
2819,4187;0,0264866
2820,3828;0,026604
2821,3472;0,0267203
2822,3113;0,0268358
2823,2756;0,0269537
2824,2397;0,0270785
2825,2041;0,0272138
2826,1682;0,027361
2827,1326;0,027519
2828,0967;0,0276846
2829,0610;0,0278541
2830,0251;0,0280249
2830,9895;0,0281971
2831,9536;0,028373
2832,9180;0,0285567
2833,8821;0,028752
2834,8464;0,0289607
2835,8105;0,0291822
2836,7749;0,0294147
2837,7390;0,0296562
2838,7034;0,0299068
2839,6675;0,0301684
2840,6318;0,0304457
2841,5959;0,0307446
2842,5603;0,0310712
2843,5244;0,0314288
2844,4888;0,0318144
2845,4529;0,0322152
2846,4172;0,0326079
2847,3813;0,032963
2848,3457;0,0332521
2849,3098;0,0334566
2850,2742;0,0335731
2851,2383;0,0336133
2852,2026;0,0335975
2853,1667;0,0335479
2854,1311;0,0334821
2855,0952;0,0334118
2856,0596;0,0333443
2857,0237;0,0332853
2857,9880;0,0332408
2858,9521;0,0332164
2859,9165;0,0332164
2860,8806;0,0332422
2861,8450;0,0332923
2862,8091;0,0333632
2863,7734;0,0334505
2864,7375;0,0335498
2865,7019;0,0336575
2866,6660;0,0337698
2867,6304;0,0338829
2868,5945;0,0339924
2869,5588;0,0340938
2870,5229;0,0341832
2871,4873;0,0342587
2872,4514;0,034321
2873,4158;0,0343728
2874,3799;0,0344177
2875,3442;0,0344586
2876,3083;0,0344965
2877,2727;0,0345317
2878,2368;0,0345653
2879,2012;0,0346002
2880,1653;0,0346407
2881,1296;0,0346905
2882,0938;0,0347503
2883,0581;0,0348174
2884,0222;0,0348871
2884,9866;0,0349553
2885,9507;0,0350202
2886,9150;0,0350826
2887,8792;0,0351443
2888,8435;0,0352066
2889,8076;0,0352701
2890,7720;0,0353354
2891,7361;0,0354038
2892,7004;0,0354763
2893,6646;0,035553
2894,6289;0,0356314
2895,5930;0,0357075
2896,5574;0,035778
2897,5215;0,0358423
2898,4858;0,0359032
2899,4500;0,0359655
2900,4143;0,0360328
2901,3784;0,0361062
2902,3428;0,0361839
2903,3069;0,0362632
2904,2712;0,0363429
2905,2354;0,0364242
2906,1997;0,0365113
2907,1638;0,0366104
2908,1282;0,036729
2909,0923;0,0368739
2910,0566;0,0370498
2911,0208;0,0372567
2911,9851;0,0374877
2912,9492;0,0377286
2913,9136;0,0379595
2914,8777;0,0381592
2915,8420;0,0383103
2916,8062;0,0384029
2917,7705;0,0384354
2918,7346;0,0384126
2919,6990;0,0383421
2920,6631;0,0382314
2921,6274;0,0380864
2922,5916;0,0379125
2923,5559;0,0377157
2924,5200;0,0375036
2925,4844;0,0372846
2926,4485;0,037067
2927,4128;0,0368565
2928,3770;0,036656
2929,3413;0,0364649
2930,3054;0,0362798
2931,2698;0,0360957
2932,2339;0,0359081
2933,1982;0,0357147
2934,1624;0,0355161
2935,1267;0,0353157
2936,0908;0,0351169
2937,0552;0,0349212
2938,0193;0,0347268
2938,9836;0,0345289
2939,9478;0,0343226
2940,9121;0,0341056
2941,8762;0,0338796
2942,8406;0,0336503
2943,8047;0,033425
2944,7690;0,0332102
2945,7332;0,0330091
2946,6975;0,0328209
2947,6616;0,0326417
2948,6260;0,0324665
2949,5901;0,032292
2950,5544;0,0321182
2951,5186;0,0319482
2952,4829;0,0317857
2953,4470;0,0316322
2954,4114;0,0314853
2955,3755;0,0313399
2956,3398;0,0311913
2957,3040;0,0310384
2958,2683;0,0308839
2959,2324;0,0307321
2960,1968;0,0305857
2961,1609;0,0304432
2962,1252;0,0303001
2963,0894;0,0301514
2964,0537;0,029995
2965,0178;0,0298325
2965,9822;0,0296681
2966,9463;0,0295062
2967,9106;0,0293489
2968,8748;0,029196
2969,8391;0,0290459
2970,8032;0,028897
2971,7676;0,0287487
2972,7317;0,0286018
2973,6960;0,0284581
2974,6602;0,0283195
2975,6245;0,0281876
2976,5886;0,0280632
2977,5530;0,0279465
2978,5171;0,027838
2979,4814;0,0277388
2980,4456;0,0276509
2981,4099;0,0275753
2982,3740;0,027511
2983,3384;0,0274545
2984,3025;0,0274005
2985,2668;0,0273446
2986,2310;0,027285
2987,1953;0,0272235
2988,1594;0,0271636
2989,1238;0,0271091
2990,0879;0,027062
2991,0522;0,027023
2992,0164;0,0269924
2992,9807;0,0269715
2993,9448;0,026962
2994,9092;0,0269652
2995,8733;0,0269804
2996,8376;0,0270049
2997,8018;0,0270348
2998,7661;0,0270663
2999,7302;0,0270975
3000,6946;0,0271271
3001,6587;0,0271546
3002,6230;0,0271787
3003,5872;0,0271979
3004,5515;0,0272114
3005,5156;0,0272204
3006,4800;0,027228
3007,4441;0,0272381
3008,4084;0,0272535
3009,3726;0,0272744
3010,3369;0,0272989
3011,3010;0,027324
3012,2654;0,0273476
3013,2295;0,0273701
3014,1938;0,0273937
3015,1580;0,0274206
3016,1223;0,0274523
3017,0864;0,0274888
3018,0508;0,0275301
3019,0149;0,0275764
3019,9792;0,0276283
3020,9434;0,0276858
3021,9077;0,0277475
3022,8718;0,027811
3023,8362;0,0278741
3024,8003;0,0279358
3025,7646;0,0279966
3026,7288;0,0280568
3027,6931;0,0281153
3028,6572;0,0281696
3029,6216;0,0282175
3030,5857;0,0282594
3031,5500;0,0282991
3032,5142;0,0283428
3033,4785;0,0283959
3034,4426;0,0284607
3035,4070;0,0285355
3036,3711;0,0286166
3037,3354;0,0286999
3038,2996;0,028782
3039,2639;0,0288611
3040,2280;0,0289366
3041,1924;0,0290089
3042,1565;0,0290794
3043,1208;0,0291501
3044,0850;0,0292228
3045,0493;0,029298
3046,0134;0,0293755
3046,9778;0,0294548
3047,9419;0,0295364
3048,9063;0,0296218
3049,8704;0,0297124
3050,8347;0,0298078
3051,7988;0,0299049
3052,7632;0,0299995
3053,7273;0,0300879
3054,6917;0,0301694
3055,6558;0,0302468
3056,6201;0,0303247
3057,5842;0,0304075
3058,5486;0,0304975
3059,5127;0,0305945
3060,4771;0,0306965
3061,4412;0,0308001
3062,4055;0,0309015
3063,3696;0,0309965
3064,3340;0,0310817
3065,2981;0,0311565
3066,2625;0,0312235
3067,2266;0,0312892
3068,1909;0,0313606
3069,1550;0,0314431
3070,1194;0,0315375
3071,0835;0,0316403
3072,0479;0,0317457
3073,0120;0,0318484
3073,9763;0,031945
3074,9404;0,0320355
3075,9048;0,0321208
3076,8689;0,0322023
3077,8333;0,0322803
3078,7974;0,032355
3079,7617;0,0324274
3080,7258;0,0325002
3081,6902;0,0325767
3082,6543;0,0326592
3083,6187;0,0327475
3084,5828;0,0328379
3085,5471;0,0329255
3086,5112;0,0330073
3087,4756;0,0330845
3088,4397;0,0331623
3089,4041;0,0332473
3090,3682;0,0333427
3091,3325;0,0334464
3092,2966;0,0335516
3093,2610;0,0336514
3094,2251;0,0337428
3095,1895;0,0338285
3096,1536;0,0339145
3097,1179;0,0340053
3098,0820;0,034101
3099,0464;0,0341966
3100,0105;0,0342864
3100,9749;0,0343685
3101,9390;0,0344468
3102,9033;0,0345289
3103,8674;0,0346218
3104,8318;0,0347273
3105,7959;0,0348412
3106,7603;0,0349562
3107,7244;0,0350654
3108,6887;0,0351663
3109,6528;0,0352613
3110,6172;0,0353558
3111,5813;0,0354543
3112,5457;0,0355589
3113,5098;0,0356684
3114,4741;0,0357796
3115,4382;0,0358896
3116,4026;0,0359967
3117,3667;0,0361004
3118,3311;0,036201
3119,2952;0,0362994
3120,2595;0,0363972
3121,2236;0,0364968
3122,1880;0,0366006
3123,1521;0,0367105
3124,1165;0,0368269
3125,0806;0,0369492
3126,0449;0,0370761
3127,0090;0,0372074
3127,9734;0,0373427
3128,9375;0,0374807
3129,9019;0,0376182
3130,8660;0,0377504
3131,8303;0,0378733
3132,7944;0,0379859
3133,7588;0,0380917
3134,7229;0,0381966
3135,6873;0,0383067
3136,6514;0,0384245
3137,6157;0,0385492
3138,5798;0,0386773
3139,5442;0,0388054
3140,5083;0,0389313
3141,4727;0,0390551
3142,4368;0,0391784
3143,4011;0,0393032
3144,3652;0,0394314
3145,3296;0,0395635
3146,2937;0,0396982
3147,2581;0,0398328
3148,2222;0,0399645
3149,1865;0,0400922
3150,1506;0,0402175
3151,1150;0,0403447
3152,0791;0,0404781
3153,0435;0,04062
3154,0076;0,0407688
3154,9719;0,0409201
3155,9360;0,0410686
3156,9004;0,0412104
3157,8645;0,0413444
3158,8289;0,0414719
3159,7930;0,0415952
3160,7573;0,0417163
3161,7214;0,0418374
3162,6858;0,0419601
3163,6499;0,0420861
3164,6143;0,0422168
3165,5784;0,0423528
3166,5427;0,0424938
3167,5068;0,0426389
3168,4712;0,0427867
3169,4353;0,0429332
3170,3997;0,0430815
3171,3638;0,0432272
3172,3281;0,0433677
3173,2922;0,0435012
3174,2566;0,0436274
3175,2207;0,0437483
3176,1851;0,0438683
3177,1492;0,0439922
3178,1135;0,0441235
3179,0776;0,0442626
3180,0420;0,0444064
3181,0061;0,0445506
3181,9705;0,0446917
3182,9346;0,0448288
3183,8989;0,0449636
3184,8630;0,0450979
3185,8274;0,0452323
3186,7915;0,0453651
3187,7559;0,0454941
3188,7200;0,0456189
3189,6843;0,0457426
3190,6484;0,045871
3191,6128;0,0460084
3192,5769;0,0461543
3193,5413;0,0463023
3194,5054;0,0464422
3195,4697;0,0465656
3196,4338;0,0466711
3197,3982;0,0467652
3198,3623;0,04686
3199,3267;0,0469668
3200,2908;0,0470918
3201,2551;0,0472336
3202,2192;0,0473858
3203,1836;0,0475399
3204,1477;0,0476884
3205,1121;0,0478262
3206,0762;0,0479513
3207,0405;0,0480648
3208,0046;0,0481703
3208,9690;0,0482737
3209,9331;0,0483811
3210,8975;0,048496
3211,8616;0,048618
3212,8259;0,0487434
3213,7900;0,0488678
3214,7544;0,0489895
3215,7185;0,0491096
3216,6829;0,049231
3217,6470;0,0493546
3218,6113;0,049478
3219,5754;0,0495966
3220,5398;0,0497071
3221,5039;0,049811
3222,4683;0,0499142
3223,4324;0,0500234
3224,3967;0,0501418
3225,3608;0,050267
3226,3252;0,0503921
3227,2893;0,0505108
3228,2537;0,0506211
3229,2178;0,0507268
3230,1821;0,0508347
3231,1462;0,0509503
3232,1106;0,0510753
3233,0747;0,0512074
3234,0391;0,0513427
3235,0032;0,0514784
3235,9675;0,0516141
3236,9316;0,0517507
3237,8960;0,0518877
3238,8601;0,052022
3239,8245;0,0521488
3240,7886;0,0522637
3241,7529;0,0523661
3242,7170;0,0524606
3243,6814;0,0525555
3244,6455;0,0526601
3245,6099;0,0527801
3246,5740;0,0529153
3247,5383;0,0530597
3248,5024;0,0532051
3249,4668;0,0533448
3250,4309;0,0534769
3251,3953;0,0536048
3252,3594;0,0537346
3253,3237;0,0538718
3254,2878;0,0540178
3255,2522;0,0541689
3256,2163;0,0543183
3257,1807;0,0544594
3258,1448;0,0545889
3259,1091;0,0547082
3260,0732;0,0548228
3261,0376;0,0549396
3262,0017;0,0550647
3262,9661;0,0552003
3263,9302;0,0553442
3264,8945;0,0554898
3265,8586;0,0556289
3266,8230;0,0557547
3267,7871;0,0558645
3268,7515;0,05596
3269,7156;0,0560464
3270,6799;0,0561284
3271,6440;0,0562091
3272,6084;0,0562893
3273,5725;0,0563685
3274,5369;0,0564466
3275,5010;0,0565239
3276,4653;0,0566
3277,4294;0,0566731
3278,3938;0,0567402
3279,3579;0,0567992
3280,3223;0,0568504
3281,2864;0,056897
3282,2507;0,0569427
3283,2148;0,05699
3284,1792;0,0570382
3285,1433;0,0570847
3286,1077;0,0571273
3287,0718;0,057166
3288,0361;0,0572028
3289,0002;0,0572402
3289,9646;0,0572793
3290,9287;0,0573183
3291,8931;0,0573536
3292,8572;0,0573814
3293,8215;0,057399
3294,7856;0,0574054
3295,7500;0,0574018
3296,7141;0,0573913
3297,6785;0,0573788
3298,6426;0,0573696
3299,6069;0,0573683
3300,5710;0,0573759
3301,5354;0,0573898
3302,4995;0,057405
3303,4639;0,0574169
3304,4280;0,0574245
3305,3923;0,057431
3306,3564;0,0574415
3307,3208;0,0574592
3308,2849;0,0574824
3309,2493;0,0575053
3310,2134;0,0575214
3311,1777;0,0575277
3312,1418;0,0575266
3313,1062;0,0575251
3314,0703;0,0575304
3315,0347;0,0575474
3315,9988;0,0575772
3316,9631;0,0576188
3317,9272;0,0576704
3318,8916;0,0577298
3319,8557;0,0577943
3320,8201;0,05786
3321,7842;0,0579224
3322,7485;0,057978
3323,7126;0,058025
3324,6770;0,0580642
3325,6411;0,0580965
3326,6055;0,0581223
3327,5696;0,058141
3328,5339;0,058153
3329,4980;0,0581613
3330,4624;0,0581717
3331,4265;0,0581905
3332,3909;0,0582202
3333,3550;0,0582575
3334,3193;0,0582923
3335,2834;0,0583117
3336,2478;0,0583053
3337,2119;0,0582689
3338,1763;0,0582067
3339,1404;0,0581282
3340,1047;0,0580447
3341,0688;0,0579652
3342,0332;0,0578942
3342,9973;0,0578309
3343,9617;0,0577712
3344,9258;0,0577096
3345,8901;0,0576415
3346,8542;0,0575658
3347,8186;0,0574841
3348,7827;0,0574
3349,7471;0,0573158
3350,7112;0,0572317
3351,6755;0,0571453
3352,6396;0,057054
3353,6040;0,0569574
3354,5681;0,0568581
3355,5325;0,0567601
3356,4966;0,0566656
3357,4609;0,0565732
3358,4250;0,0564782
3359,3894;0,0563771
3360,3535;0,0562708
3361,3179;0,0561651
3362,2820;0,0560683
3363,2463;0,0559856
3364,2104;0,0559152
3365,1748;0,0558486
3366,1389;0,0557747
3367,1033;0,0556853
3368,0674;0,0555787
3369,0317;0,05546
3369,9958;0,0553374
3370,9602;0,0552185
3371,9243;0,0551076
3372,8887;0,0550051
3373,8528;0,0549084
3374,8171;0,0548133
3375,7813;0,0547159
3376,7456;0,0546132
3377,7097;0,0545047
3378,6741;0,054392
3379,6382;0,0542786
3380,6025;0,0541689
3381,5667;0,0540663
3382,5310;0,053972
3383,4951;0,0538849
3384,4595;0,0538011
3385,4236;0,0537162
3386,3879;0,0536259
3387,3521;0,0535285
3388,3164;0,0534247
3389,2805;0,0533173
3390,2449;0,0532103
3391,2090;0,0531071
3392,1733;0,0530094
3393,1375;0,0529164
3394,1018;0,0528262
3395,0659;0,0527359
3396,0303;0,0526428
3396,9944;0,0525444
3397,9587;0,0524383
3398,9229;0,0523226
3399,8872;0,0521965
3400,8513;0,0520611
3401,8157;0,0519199
3402,7798;0,0517779
3403,7441;0,0516398
3404,7083;0,051509
3405,6726;0,0513854
3406,6367;0,051267
3407,6011;0,0511499
3408,5652;0,0510304
3409,5295;0,0509063
3410,4937;0,0507768
3411,4580;0,0506428
3412,4221;0,0505062
3413,3865;0,0503685
3414,3506;0,0502296
3415,3149;0,0500873
3416,2791;0,0499378
3417,2434;0,0497778
3418,2075;0,0496068
3419,1719;0,0494284
3420,1360;0,0492498
3421,1003;0,0490794
3422,0645;0,0489232
3423,0288;0,0487825
3423,9929;0,0486542
3424,9573;0,0485316
3425,9214;0,0484071
3426,8857;0,0482737
3427,8499;0,048127
3428,8142;0,0479664
3429,7783;0,047795
3430,7427;0,0476183
3431,7068;0,0474418
3432,6711;0,0472693
3433,6353;0,0471024
3434,5996;0,0469413
3435,5637;0,046785
3436,5281;0,0466318
3437,4922;0,0464789
3438,4565;0,0463235
3439,4207;0,0461634
3440,3850;0,0459995
3441,3491;0,0458347
3442,3135;0,0456722
3443,2776;0,0455126
3444,2419;0,0453526
3445,2061;0,045187
3446,1704;0,0450128
3447,1345;0,0448318
3448,0989;0,0446507
3449,0630;0,0444762
3450,0273;0,0443108
3450,9915;0,0441523
3451,9558;0,0439954
3452,9199;0,0438362
3453,8843;0,0436738
3454,8484;0,0435098
3455,8127;0,0433457
3456,7769;0,0431805
3457,7412;0,0430108
3458,7053;0,0428331
3459,6697;0,042647
3460,6338;0,0424565
3461,5981;0,0422683
3462,5623;0,0420877
3463,5266;0,041916
3464,4907;0,0417499
3465,4551;0,0415842
3466,4192;0,0414161
3467,3835;0,0412475
3468,3477;0,041083
3469,3120;0,0409261
3470,2761;0,0407749
3471,2405;0,0406212
3472,2046;0,0404555
3473,1689;0,0402739
3474,1331;0,0400822
3475,0974;0,0398939
3476,0615;0,0397218
3477,0259;0,0395692
3477,9900;0,0394267
3478,9543;0,0392784
3479,9185;0,039112
3480,8828;0,0389274
3481,8469;0,0387376
3482,8113;0,0385585
3483,7754;0,0383972
3484,7397;0,0382474
3485,7039;0,0380939
3486,6682;0,0379234
3487,6323;0,0377336
3488,5967;0,0375354
3489,5608;0,0373453
3490,5251;0,0371754
3491,4893;0,0370266
3492,4536;0,036889
3493,4177;0,0367494
3494,3821;0,0365994
3495,3462;0,0364409
3496,3105;0,0362844
3497,2747;0,0361395
3498,2390;0,0360069
3499,2031;0,0358745
3500,1675;0,0357236
3501,1316;0,0355407
3502,0959;0,0353295
3503,0601;0,0351125
3504,0244;0,034918
3504,9885;0,0347612
3505,9529;0,0346346
3506,9170;0,0345143
3507,8813;0,0343744
3508,8455;0,0342014
3509,8098;0,0340021
3510,7739;0,0337983
3511,7383;0,0336133
3512,7024;0,0334587
3513,6667;0,0333319
3514,6309;0,0332214
3515,5952;0,0331141
3516,5593;0,0330006
3517,5237;0,0328767
3518,4878;0,0327413
3519,4521;0,0325951
3520,4163;0,0324396
3521,3806;0,032278
3522,3447;0,0321156
3523,3091;0,0319569
3524,2732;0,0318015
3525,2375;0,0316421
3526,2017;0,0314676
3527,1660;0,0312714
3528,1301;0,0310588
3529,0945;0,0308479
3530,0586;0,0306608
3531,0229;0,030511
3531,9871;0,0303964
3532,9514;0,0302998
3533,9155;0,0301977
3534,8799;0,0300705
3535,8440;0,0299117
3536,8083;0,0297314
3537,7725;0,0295501
3538,7368;0,0293875
3539,7009;0,0292534
3540,6653;0,0291429
3541,6294;0,0290391
3542,5938;0,0289177
3543,5579;0,0287581
3544,5222;0,0285566
3545,4863;0,0283336
3546,4507;0,0281236
3547,4148;0,0279528
3548,3792;0,0278231
3549,3433;0,0277142
3550,3076;0,0275972
3551,2717;0,0274521
3552,2361;0,0272797
3553,2002;0,0271011
3554,1646;0,0269415
3555,1287;0,0268111
3556,0930;0,0266997
3557,0571;0,026586
3558,0215;0,0264548
3558,9856;0,0263105
3559,9500;0,0261767
3560,9141;0,0260805
3561,8784;0,0260293
3562,8425;0,0259982
3563,8069;0,0259327
3564,7710;0,0257693
3565,7354;0,0254773
3566,6995;0,0251026
3567,6638;0,0247512
3568,6279;0,0245065
3569,5923;0,0243772
3570,5564;0,0243213
3571,5208;0,0242882
3572,4849;0,0242417
3573,4492;0,0241663
3574,4133;0,0240634
3575,3777;0,023943
3576,3418;0,0238124
3577,3062;0,0236735
3578,2703;0,0235288
3579,2346;0,0233905
3580,1987;0,0232802
3581,1631;0,0232172
3582,1272;0,0232027
3583,0916;0,0232105
3584,0557;0,0231894
3585,0200;0,0230805
3585,9841;0,0228548
3586,9485;0,0225555
3587,9126;0,0222874
3588,8770;0,0221348
3589,8411;0,0221017
3590,8054;0,022131
3591,7695;0,0221504
3592,7339;0,0221058
3593,6980;0,0219835
3594,6624;0,0218153
3595,6265;0,0216534
3596,5908;0,021527
3597,5549;0,0214219
3598,5193;0,0213011
3599,4834;0,0211418
3600,4478;0,0209591
3601,4119;0,0207958
3602,3762;0,0206866
3603,3403;0,0206308
3604,3047;0,0205925
3605,2688;0,0205211
3606,2332;0,0203779
3607,1973;0,0201593
3608,1616;0,0198992
3609,1257;0,0196441
3610,0901;0,0194236
3611,0542;0,0192464
3612,0186;0,0191155
3612,9827;0,0190372
3613,9470;0,0190131
3614,9111;0,0190242
3615,8755;0,0190261
3616,8396;0,0189637
3617,8040;0,0188047
3618,7681;0,0185761
3619,7324;0,018366
3620,6965;0,0182675
3621,6609;0,0183167
3622,6250;0,0184866
3623,5894;0,0187154
3624,5535;0,0189245
3625,5178;0,0190172
3626,4819;0,0188883
3627,4463;0,0184851
3628,4104;0,0179093
3629,3748;0,0173927
3630,3389;0,0170947
3631,3032;0,0169995
3632,2673;0,0170046
3633,2317;0,0170171
3634,1958;0,0169855
3635,1602;0,0168983
3636,1243;0,0167708
3637,0886;0,0166264
3638,0527;0,0164817
3639,0171;0,0163461
3639,9812;0,0162301
3640,9456;0,0161509
3641,9097;0,016128
3642,8740;0,0161697
3643,8381;0,0162603
3644,8025;0,0163506
3645,7666;0,0163507
3646,7310;0,0161408
3647,6951;0,0156523
3648,6594;0,0150128
3649,6235;0,014517
3650,5879;0,0143342
3651,5520;0,0144005
3652,5164;0,0145688
3653,4805;0,0147159
3654,4448;0,0147638
3655,4089;0,0146894
3656,3733;0,0145337
3657,3374;0,014376
3658,3018;0,0142759
3659,2659;0,0142384
3660,2302;0,0142331
3661,1943;0,0142325
3662,1587;0,014235
3663,1228;0,0142611
3664,0872;0,0143287
3665,0513;0,0144287
3666,0156;0,0145194
3666,9797;0,0145419
3667,9441;0,0144585
3668,9082;0,014299
3669,8726;0,0141584
3670,8367;0,0141131
3671,8010;0,0141486
3672,7651;0,014177
3673,7295;0,0140997
3674,6936;0,0138801
3675,6580;0,0135956
3676,6221;0,0133852
3677,5864;0,0133203
3678,5505;0,0133719
3679,5149;0,0134777
3680,4790;0,013596
3681,4434;0,0137165
3682,4075;0,0138487
3683,3718;0,0140013
3684,3359;0,0141652
3685,3003;0,0143052
3686,2644;0,0143656
3687,2288;0,0142945
3688,1929;0,0140943
3689,1572;0,0138573
3690,1213;0,0137089
3691,0857;0,0137009
3692,0498;0,0137975
3693,0142;0,0139391
3693,9783;0,0140851
3694,9426;0,0142202
3695,9067;0,0143425
3696,8711;0,0144495
3697,8352;0,0145282
3698,7996;0,0145559
3699,7637;0,0145142
3700,7280;0,0144118
3701,6921;0,0142963
3702,6565;0,0142335
3703,6206;0,0142673
3704,5850;0,0143972
3705,5491;0,0145849
3706,5134;0,0147688
3707,4775;0,0148707
3708,4419;0,0148059
3709,4060;0,0145226
3710,3704;0,0140718
3711,3345;0,0136237
3712,2988;0,0133497
3713,2629;0,0133008
3714,2273;0,0134237
3715,1914;0,0136389
3716,1558;0,0138822
3717,1199;0,0141121
3718,0842;0,0143066
3719,0483;0,0144602
3720,0127;0,0145782
3720,9768;0,014667
3721,9412;0,0147258
3722,9053;0,0147496
3723,8696;0,014742
3724,8337;0,0147246
3725,7981;0,0147309
3726,7622;0,014786
3727,7266;0,0148916
3728,6907;0,0150276
3729,6550;0,0151601
3730,6191;0,0152484
3731,5835;0,0152469
3732,5476;0,015113
3733,5120;0,014832
3734,4761;0,0144576
3735,4404;0,0141112
3736,4045;0,0139061
3737,3689;0,0138769
3738,3330;0,0139895
3739,2974;0,0141809
3740,2615;0,0143765
3741,2258;0,014491
3742,1899;0,0144426
3743,1543;0,0142097
3744,1184;0,0138951
3745,0828;0,0136726
3746,0469;0,0136276
3747,0112;0,0137
3747,9753;0,0137561
3748,9397;0,0136693
3749,9038;0,0134018
3750,8682;0,0130683
3751,8323;0,0128558
3752,7966;0,0128447
3753,7607;0,0129781
3754,7251;0,0131552
3755,6892;0,0132923
3756,6536;0,0133398
3757,6177;0,0132938
3758,5820;0,0132016
3759,5461;0,0131329
3760,5105;0,0131321
3761,4746;0,0131977
3762,4390;0,0132987
3763,4031;0,0133992
3764,3674;0,0134723
3765,3315;0,0135026
3766,2959;0,0134846
3767,2600;0,0134194
3768,2244;0,013316
3769,1885;0,0131975
3770,1528;0,0131017
3771,1169;0,0130675
3772,0813;0,0131129
3773,0454;0,0132256
3774,0098;0,0133693
3774,9739;0,0134968
3775,9382;0,0135643
3776,9023;0,0135487
3777,8667;0,0134644
3778,8308;0,0133631
3779,7952;0,0133001
3780,7593;0,0132969
3781,7236;0,0133352
3782,6877;0,0133794
3783,6521;0,013401
3784,6162;0,0133913
3785,5806;0,0133612
3786,5447;0,0133325
3787,5090;0,0133254
3788,4731;0,0133506
3789,4375;0,0134071
3790,4016;0,0134829
3791,3660;0,0135588
3792,3301;0,0136155
3793,2944;0,0136442
3794,2585;0,0136537
3795,2229;0,0136677
3796,1870;0,0137054
3797,1514;0,0137596
3798,1155;0,0137918
3799,0798;0,0137543
3800,0439;0,0136326
3801,0083;0,013475
3801,9724;0,0133622
3802,9368;0,0133359
3803,9009;0,0133667
3804,8652;0,0133891
3805,8293;0,0133549
3806,7937;0,0132736
3807,7578;0,0132092
3808,7222;0,013228
3809,6863;0,0133447
3810,6506;0,0135219
3811,6147;0,0136993
3812,5791;0,0138201
3813,5432;0,0138532
3814,5076;0,0138152
3815,4717;0,013764
3816,4360;0,0137474
3817,4001;0,013754
3818,3645;0,0137244
3819,3286;0,0136089
3820,2930;0,0134227
3821,2571;0,0132483
3822,2214;0,0131666
3823,1855;0,013193
3824,1499;0,0132866
3825,1140;0,0133962
3826,0784;0,0134884
3827,0425;0,0135529
3828,0068;0,013596
3828,9709;0,0136294
3829,9353;0,013662
3830,8994;0,0136987
3831,8638;0,0137425
3832,8279;0,0137939
3833,7922;0,0138445
3834,7563;0,0138731
3835,7207;0,0138508
3836,6848;0,0137609
3837,6492;0,0136198
3838,6133;0,0134751
3839,5776;0,0133711
3840,5417;0,013318
3841,5061;0,0132971
3842,4702;0,0132886
3843,4346;0,0132925
3844,3987;0,0133297
3845,3630;0,0134279
3846,3271;0,0136028
3847,2915;0,0138483
3848,2556;0,0141332
3849,2200;0,0143971
3850,1841;0,0145402
3851,1484;0,0144336
3852,1125;0,014009
3853,0769;0,0134202
3854,0410;0,0129843
3855,0054;0,0128588
3855,9695;0,0129748
3856,9338;0,0132124
3857,8979;0,0134863
3858,8623;0,0137388
3859,8264;0,0139231
3860,7908;0,0140021
3861,7549;0,0139679
3862,7192;0,0138613
3863,6833;0,0137586
3864,6477;0,0137219
3865,6118;0,0137607
3866,5762;0,0138375
3867,5403;0,0138966
3868,5046;0,0138918
3869,4688;0,013807
3870,4331;0,0136663
3871,3972;0,0135216
3872,3616;0,0134251
3873,3257;0,0134047
3874,2900;0,0134602
3875,2542;0,0135696
3876,2185;0,0136991
3877,1826;0,0138122
3878,1470;0,0138811
3879,1111;0,0138978
3880,0754;0,0138776
3881,0396;0,0138439
3882,0039;0,0138071
3882,9680;0,0137604
3883,9324;0,0137005
3884,8965;0,0136458
3885,8608;0,0136294
3886,8250;0,0136682
3887,7893;0,0137418
3888,7534;0,0138002
3889,7178;0,0137941
3890,6819;0,0137128
3891,6462;0,013605
3892,6104;0,0135497
3893,5747;0,0135947
3894,5388;0,0137293
3895,5032;0,0139068
3896,4673;0,0140751
3897,4316;0,014194
3898,3958;0,0142435
3899,3601;0,0142233
3900,3242;0,0141426
3901,2886;0,014009
3902,2527;0,0138344
3903,2170;0,0136501
3904,1812;0,0135027
3905,1455;0,0134274
3906,1096;0,0134274
3907,0740;0,0134798
3908,0381;0,0135547
3909,0024;0,0136313
3909,9666;0,0137025
3910,9309;0,0137731
3911,8950;0,0138491
3912,8594;0,0139274
3913,8235;0,0139908
3914,7878;0,0140144
3915,7520;0,0139824
3916,7163;0,0139055
3917,6804;0,0138214
3918,6448;0,0137713
3919,6089;0,013771
3920,5732;0,013804
3921,5374;0,0138365
3922,5017;0,0138412
3923,4658;0,0138153
3924,4302;0,0137839
3925,3943;0,0137808
3926,3586;0,0138227
3927,3228;0,0138964
3928,2871;0,0139674
3929,2512;0,013998
3930,2156;0,0139673
3931,1797;0,0138847
3932,1440;0,0137854
3933,1082;0,0137088
3934,0725;0,0136775
3935,0366;0,0136926
3936,0010;0,013742
3936,9651;0,0138081
3937,9294;0,0138713
3938,8936;0,0139121
3939,8579;0,0139167
3940,8220;0,0138844
3941,7864;0,0138327
3942,7505;0,0137904
3943,7148;0,0137801
3944,6790;0,0138039
3945,6433;0,0138434
3946,6074;0,0138718
3947,5718;0,0138709
3948,5359;0,0138422
3949,5002;0,0138048
3950,4644;0,0137817
3951,4287;0,0137833
3952,3928;0,0138038
3953,3572;0,0138286
3954,3213;0,0138459
3955,2856;0,0138527
3956,2498;0,0138544
3957,2141;0,0138575
3958,1782;0,0138636
3959,1426;0,0138682
3960,1067;0,0138652
3961,0710;0,0138525
3962,0352;0,0138347
3962,9995;0,0138202
3963,9636;0,0138154
3964,9280;0,0138216
3965,8921;0,0138351
3966,8564;0,0138509
3967,8206;0,0138658
3968,7849;0,0138793
3969,7490;0,0138918
3970,7134;0,0139021
3971,6775;0,0139067
3972,6418;0,0139022
3973,6060;0,0138885
3974,5703;0,0138706
3975,5344;0,013857
3976,4988;0,0138553
3977,4629;0,0138672
3978,4272;0,0138879
3979,3914;0,0139078
3980,3557;0,013918
3981,3198;0,0139149
3982,2842;0,0139021
3983,2483;0,0138877
3984,2126;0,01388
3985,1768;0,0138821
3986,1411;0,0138915
3987,1052;0,0139021
3988,0696;0,0139081
3989,0337;0,0139068
3989,9980;0,0138995
3990,9622;0,0138888
3991,9265;0,0138767
3992,8906;0,0138639
3993,8550;0,0138507
3994,8191;0,0138387
3995,7834;0,0138308
3996,7476;0,0138298
3997,7119;0,0138362
3998,6760;0,0138481
3999,6404;0,0138623
4000,6045;0,0138426

##### Extended Information
[Comments]
Sample name
Comment
Username
Division
Organization;UNIVERSIDAD INDUSTRIAL DE SANTANDER

[Detailed Information]
Creation date;29/01/2025 2:43 p.m.

Data array type;Linear data array
Horizontal axis;Wavenumber [cm-1]
Vertical axis;Abs
Start;399,193 cm-1
End;4000,6 cm-1
Data interval;0,964233 cm-1
Data points;3736    

[Measurement Information]
Model name;FT/IR-4X1typeA
Serial No.;A035162111

Accessory;ATR PRO 4X
Accessory S/N;A021162126
Incident angle;45 deg

Measurement date;29/01/2025 2:43 p.m.

Light source;Standard
Detector;TGS
Accumulation;Auto (73)
Resolution;4 cm-1
Zero filling;On
Apodization;Cosine
Gain;Auto (8)
Aperture;Auto (7 mm)
Scan speed;Auto (2 mm/sec)
Filter;Auto (12800 Hz)

