TITLE;
DATA TYPE;INFRARED SPECTRUM
ORIGIN;JASCO
OWNER;
DATE;25/03/19
TIME;18:07:50
SPECTROMETER/DATA SYSTEM;
LOCALE;9226
RESOLUTION;
DELTAX;0,964233
XUNITS;1/CM
YUNITS;ABSORBANCE
FIRSTX;  399,1927
LASTX; 4000,6047
NPOINTS;    3736
FIRSTY;     0,20990
MAXY;     0,26760
MINY;     0,01221
XYDATA
399,1927;0,209897
400,1569;0,209478
401,1211;0,208787
402,0854;0,207899
403,0496;0,20664
404,0138;0,204879
404,9781;0,202719
405,9423;0,200522
406,9065;0,198735
407,8708;0,197618
408,8350;0,197097
409,7992;0,196863
410,7635;0,196619
411,7277;0,196284
412,6919;0,196017
413,6562;0,196065
414,6204;0,196605
415,5846;0,197698
416,5489;0,19929
417,5131;0,201164
418,4773;0,20289
419,4416;0,204023
420,4058;0,204496
421,3700;0,204599
422,3343;0,204584
423,2985;0,204527
424,2627;0,204398
425,2270;0,204176
426,1912;0,203891
427,1554;0,203608
428,1197;0,203374
429,0839;0,203201
430,0481;0,203095
431,0124;0,203094
431,9766;0,20326
432,9408;0,203622
433,9051;0,2041
434,8693;0,204485
435,8335;0,204542
436,7978;0,204173
437,7620;0,203518
438,7262;0,202895
439,6905;0,202631
440,6547;0,202887
441,6189;0,203565
442,5832;0,204338
443,5474;0,204821
444,5116;0,204807
445,4759;0,204382
446,4401;0,203807
447,4043;0,203323
448,3686;0,20302
449,3328;0,202852
450,2970;0,202721
451,2613;0,202568
452,2255;0,202402
453,1897;0,20225
454,1540;0,202097
455,1182;0,201866
456,0824;0,201465
457,0467;0,200881
458,0109;0,20024
458,9751;0,199736
459,9394;0,19947
460,9036;0,199378
461,8678;0,199303
462,8321;0,199114
463,7963;0,198774
464,7605;0,198348
465,7248;0,197957
466,6890;0,197709
467,6532;0,197646
468,6175;0,197752
469,5817;0,197988
470,5459;0,19831
471,5102;0,198663
472,4744;0,198972
473,4386;0,199159
474,4029;0,199189
475,3671;0,199088
476,3313;0,198922
477,2956;0,198765
478,2598;0,19867
479,2240;0,198655
480,1883;0,198709
481,1525;0,198813
482,1167;0,198952
483,0810;0,199121
484,0452;0,199325
485,0094;0,199564
485,9737;0,199845
486,9379;0,200187
487,9021;0,200616
488,8664;0,20115
489,8306;0,20176
490,7948;0,202355
491,7591;0,202801
492,7233;0,202993
493,6875;0,202928
494,6518;0,202721
495,6160;0,20255
496,5802;0,20256
497,5445;0,202799
498,5087;0,203212
499,4729;0,20368
500,4372;0,204078
501,4014;0,204335
502,3656;0,204458
503,3299;0,204523
504,2941;0,20463
505,2583;0,204856
506,2226;0,205228
507,1868;0,205719
508,1510;0,20625
509,1153;0,206733
510,0795;0,207116
511,0437;0,207419
512,0080;0,207728
512,9722;0,208151
513,9365;0,208753
514,9007;0,209522
515,8649;0,210365
516,8292;0,211142
517,7934;0,211739
518,7576;0,212124
519,7219;0,212355
520,6861;0,212528
521,6503;0,212711
522,6146;0,212922
523,5788;0,213125
524,5430;0,213253
525,5073;0,213238
526,4715;0,213048
527,4357;0,212713
528,4000;0,212314
529,3642;0,211939
530,3284;0,211645
531,2927;0,211437
532,2569;0,211276
533,2211;0,211105
534,1854;0,210884
535,1496;0,210616
536,1138;0,21034
537,0781;0,210103
538,0423;0,20993
539,0065;0,209806
539,9708;0,209702
540,9350;0,209607
541,8992;0,209546
542,8635;0,20958
543,8277;0,209769
544,7919;0,210124
545,7562;0,210587
546,7204;0,211044
547,6846;0,211379
548,6489;0,211541
549,6131;0,211575
550,5773;0,211595
551,5416;0,211727
552,5058;0,212045
553,4700;0,212539
554,4343;0,213127
555,3985;0,213689
556,3627;0,214108
557,3270;0,214295
558,2912;0,214197
559,2554;0,213784
560,2197;0,21306
561,1839;0,212061
562,1481;0,210866
563,1124;0,209582
564,0766;0,208323
565,0408;0,207176
566,0051;0,206194
566,9693;0,20539
567,9335;0,204744
568,8978;0,204219
569,8620;0,203768
570,8262;0,203349
571,7905;0,202943
572,7547;0,202557
573,7189;0,20222
574,6832;0,201966
575,6474;0,201808
576,6116;0,201724
577,5759;0,201663
578,5401;0,201575
579,5043;0,201436
580,4686;0,20126
581,4328;0,201088
582,3970;0,200954
583,3613;0,200866
584,3255;0,200795
585,2897;0,200697
586,2540;0,200547
587,2182;0,200355
588,1824;0,200166
589,1467;0,200024
590,1109;0,199944
591,0751;0,199889
592,0394;0,199789
593,0036;0,19958
593,9678;0,199239
594,9321;0,19879
595,8963;0,198277
596,8605;0,197736
597,8248;0,197182
598,7890;0,196622
599,7532;0,196059
600,7175;0,195504
601,6817;0,194968
602,6459;0,194447
603,6102;0,193936
604,5744;0,193437
605,5386;0,192973
606,5029;0,19257
607,4671;0,192236
608,4313;0,191935
609,3956;0,191597
610,3598;0,191156
611,3240;0,190594
612,2883;0,189957
613,2525;0,189323
614,2167;0,18875
615,1810;0,188222
616,1452;0,187649
617,1094;0,186911
618,0737;0,185935
619,0379;0,184741
620,0021;0,183419
620,9664;0,182078
621,9306;0,180793
622,8948;0,179598
623,8591;0,178499
624,8233;0,177489
625,7875;0,176582
626,7518;0,175766
627,7160;0,175006
628,6802;0,17426
629,6445;0,17349
630,6087;0,17269
631,5729;0,171882
632,5372;0,17111
633,5014;0,170409
634,4656;0,169789
635,4299;0,169235
636,3941;0,168714
637,3583;0,168193
638,3226;0,167651
639,2868;0,167085
640,2510;0,166508
641,2153;0,165948
642,1795;0,165441
643,1437;0,165017
644,1080;0,164692
645,0722;0,164452
646,0364;0,164261
647,0007;0,164066
647,9649;0,163818
648,9291;0,163492
649,8934;0,163098
650,8576;0,162678
651,8218;0,16229
652,7861;0,16199
653,7503;0,161813
654,7145;0,161772
655,6788;0,161849
656,6430;0,162002
657,6072;0,162171
658,5715;0,16229
659,5357;0,16229
660,4999;0,162122
661,4642;0,16178
662,4284;0,1613
663,3926;0,160736
664,3569;0,160133
665,3211;0,159534
666,2853;0,158973
667,2496;0,158401
668,2138;0,157611
669,1780;0,15647
670,1423;0,155176
671,1065;0,153925
672,0707;0,152682
673,0350;0,151338
673,9992;0,149846
674,9634;0,14825
675,9277;0,146641
676,8919;0,145094
677,8561;0,143636
678,8204;0,142259
679,7846;0,140968
680,7488;0,139795
681,7131;0,138767
682,6773;0,137878
683,6415;0,13708
684,6058;0,13632
685,5700;0,135575
686,5342;0,134857
687,4985;0,134193
688,4627;0,133598
689,4269;0,133062
690,3912;0,132565
691,3554;0,132091
692,3196;0,131636
693,2839;0,131197
694,2481;0,130766
695,2123;0,130327
696,1766;0,129867
697,1408;0,129381
698,1050;0,128881
699,0693;0,128386
700,0335;0,127911
700,9977;0,127461
701,9620;0,127027
702,9262;0,126586
703,8904;0,126112
704,8547;0,125588
705,8189;0,125017
706,7831;0,124423
707,7474;0,12384
708,7116;0,123292
709,6758;0,122781
710,6401;0,122278
711,6043;0,121736
712,5685;0,121121
713,5328;0,120433
714,4970;0,119715
715,4612;0,118847
716,4255;0,118274
717,3897;0,117787
718,3539;0,117317
719,3182;0,116762
720,2824;0,11604
721,2466;0,115132
722,2109;0,114093
723,1751;0,113016
724,1393;0,111981
725,1036;0,111029
726,0678;0,110167
727,0320;0,109373
727,9963;0,108619
728,9605;0,107878
729,9247;0,107133
730,8890;0,106381
731,8532;0,105628
732,8174;0,104887
733,7817;0,104176
734,7459;0,103508
735,7101;0,102893
736,6744;0,102335
737,6386;0,101834
738,6028;0,101381
739,5671;0,100957
740,5313;0,100542
741,4955;0,100113
742,4598;0,0996561
743,4240;0,0991667
744,3882;0,0986465
745,3525;0,0981012
746,3167;0,0975387
747,2809;0,0969704
748,2452;0,0964108
749,2094;0,0958742
750,1736;0,0953684
751,1379;0,0948896
752,1021;0,094423
753,0663;0,0939496
754,0306;0,0934539
754,9948;0,0929306
755,9590;0,0923849
756,9233;0,0918309
757,8875;0,0912872
758,8517;0,0907726
759,8160;0,0903008
760,7802;0,0898758
761,7444;0,0894899
762,7087;0,0891281
763,6729;0,088777
764,6371;0,088434
765,6014;0,088108
766,5656;0,0878125
767,5298;0,0875513
768,4941;0,0873103
769,4583;0,0870602
770,4225;0,0867704
771,3868;0,086427
772,3510;0,0860418
773,3152;0,0856473
774,2795;0,085281
775,2437;0,0849675
776,2079;0,0847083
777,1722;0,0844831
778,1364;0,0842594
779,1006;0,0840051
780,0649;0,0836982
781,0291;0,0833322
781,9933;0,0829161
782,9576;0,0824706
783,9218;0,0820213
784,8860;0,0815912
785,8503;0,081195
786,8145;0,0808366
787,7787;0,0805123
788,7430;0,0802159
789,7072;0,0799432
790,6714;0,0796937
791,6357;0,0794686
792,5999;0,0792675
793,5641;0,079086
794,5284;0,0789157
795,4926;0,0787467
796,4568;0,0785709
797,4211;0,0783845
798,3853;0,0781877
799,3495;0,0779829
800,3138;0,0777718
801,2780;0,0775556
802,2422;0,0773375
803,2065;0,0771256
804,1707;0,076934
805,1349;0,076776
806,0992;0,0766554
807,0634;0,0765602
808,0276;0,0764651
808,9919;0,0763435
809,9561;0,0761817
810,9203;0,0759872
811,8846;0,0757832
812,8488;0,0755954
813,8130;0,0754369
814,7773;0,0753032
815,7415;0,0751772
816,7057;0,0750406
817,6700;0,0748839
818,6342;0,0747081
819,5984;0,0745222
820,5627;0,0743377
821,5269;0,0741656
822,4911;0,0740152
823,4554;0,0738917
824,4196;0,0737932
825,3839;0,0737087
826,3481;0,0736197
827,3123;0,0735082
828,2766;0,0733651
829,2408;0,0731958
830,2050;0,0730161
831,1693;0,0728429
832,1335;0,0726826
833,0977;0,0725276
834,0620;0,0723608
835,0262;0,0721656
835,9904;0,0719351
836,9547;0,071673
837,9189;0,0713894
838,8831;0,0710943
839,8474;0,0707949
840,8116;0,0704986
841,7758;0,0702167
842,7401;0,0699664
843,7043;0,0697656
844,6685;0,069625
845,6328;0,0695417
846,5970;0,0694996
847,5612;0,0694761
848,5255;0,0694506
849,4897;0,0694112
850,4539;0,0693552
851,4182;0,0692854
852,3824;0,0692059
853,3466;0,0691197
854,3109;0,069028
855,2751;0,0689325
856,2393;0,0688354
857,2036;0,0687412
858,1678;0,0686556
859,1320;0,0685847
860,0963;0,0685335
861,0605;0,0685041
862,0247;0,0684955
862,9890;0,0685046
863,9532;0,0685297
864,9174;0,0685712
865,8817;0,0686309
866,8459;0,068708
867,8101;0,0687968
868,7744;0,0688882
869,7386;0,068975
870,7028;0,0690585
871,6671;0,0691493
872,6313;0,0692613
873,5955;0,0694016
874,5598;0,0695634
875,5240;0,0697272
876,4882;0,0698711
877,4525;0,0699834
878,4167;0,0700705
879,3809;0,0701565
880,3452;0,0702755
881,3094;0,0704618
882,2736;0,0707417
883,2379;0,0711297
884,2021;0,0716286
885,1663;0,0722313
886,1306;0,0729255
887,0948;0,073699
888,0590;0,074543
889,0233;0,0754514
889,9875;0,0764138
890,9517;0,0774065
891,9160;0,0783878
892,8802;0,0793024
893,8444;0,0800934
894,8087;0,0807172
895,7729;0,0811522
896,7371;0,0813956
897,7014;0,0814531
898,6656;0,0813281
899,6298;0,0810188
900,5941;0,0805252
901,5583;0,0798616
902,5225;0,0790653
903,4868;0,0781954
904,4510;0,0773208
905,4152;0,0765035
906,3795;0,0757845
907,3437;0,07518
908,3079;0,0746864
909,2722;0,0742915
910,2364;0,0739846
911,2007;0,0737601
912,1649;0,0736165
913,1292;0,0735513
914,0934;0,0735582
915,0576;0,0736272
916,0219;0,0737479
916,9861;0,0739123
917,9503;0,0741148
918,9146;0,0743507
919,8788;0,0746128
920,8430;0,0748897
921,8073;0,0751667
922,7715;0,075429
923,7357;0,0756655
924,7000;0,0758725
925,6642;0,0760547
926,6284;0,0762242
927,5927;0,0763961
928,5569;0,0765845
929,5211;0,0767975
930,4854;0,0770358
931,4496;0,0772936
932,4138;0,0775625
933,3781;0,0778359
934,3423;0,0781138
935,3065;0,078404
936,2708;0,0787217
937,2350;0,0790845
938,1992;0,0795072
939,1635;0,0799971
940,1277;0,0805539
941,0919;0,0811729
942,0562;0,0818506
943,0204;0,0825878
943,9846;0,0833889
944,9489;0,0842577
945,9131;0,0851933
946,8773;0,0861891
947,8416;0,0872377
948,8058;0,088337
949,7700;0,0894943
950,7343;0,0907251
951,6985;0,0920465
952,6627;0,0934697
953,6270;0,0949937
954,5912;0,0966062
955,5554;0,0982887
956,5197;0,100026
957,4839;0,101812
958,4481;0,10365
959,4124;0,105548
960,3766;0,107506
961,3408;0,109512
962,3051;0,111541
963,2693;0,113572
964,2335;0,11559
965,1978;0,117603
966,1620;0,119634
967,1262;0,12171
968,0905;0,123854
969,0547;0,126083
970,0189;0,12841
970,9832;0,130851
971,9474;0,133433
972,9116;0,13619
973,8759;0,13916
974,8401;0,142376
975,8043;0,145861
976,7686;0,149619
977,7328;0,15363
978,6970;0,157844
979,6613;0,162182
980,6255;0,166533
981,5897;0,170771
982,5540;0,174768
983,5182;0,178413
984,4824;0,181631
985,4467;0,184399
986,4109;0,186741
987,3751;0,188722
988,3394;0,190423
989,3036;0,191916
990,2678;0,193249
991,2321;0,194445
992,1963;0,195516
993,1605;0,196483
994,1248;0,197383
995,0890;0,198269
996,0532;0,19919
997,0175;0,200173
997,9817;0,201213
998,9459;0,202283
999,9102;0,203348
1000,8744;0,204394
1001,8386;0,205434
1002,8029;0,206505
1003,7671;0,207656
1004,7313;0,208933
1005,6956;0,210372
1006,6598;0,212003
1007,6240;0,213851
1008,5883;0,215935
1009,5525;0,218255
1010,5167;0,220792
1011,4810;0,223498
1012,4452;0,226316
1013,4094;0,229186
1014,3737;0,232065
1015,3379;0,234922
1016,3021;0,237732
1017,2664;0,24047
1018,2306;0,243108
1019,1948;0,245622
1020,1591;0,248006
1021,1233;0,250273
1022,0875;0,252455
1023,0518;0,254585
1024,0160;0,256685
1024,9802;0,258752
1025,9445;0,260755
1026,9087;0,262641
1027,8729;0,26434
1028,8372;0,265772
1029,8014;0,266851
1030,7656;0,267489
1031,7299;0,267601
1032,6941;0,267115
1033,6583;0,266
1034,6226;0,264286
1035,5868;0,262077
1036,5510;0,259543
1037,5153;0,256901
1038,4795;0,254367
1039,4437;0,252122
1040,4080;0,250282
1041,3722;0,248886
1042,3364;0,247908
1043,3007;0,247268
1044,2649;0,246858
1045,2291;0,246564
1046,1934;0,246281
1047,1576;0,24592
1048,1218;0,245412
1049,0861;0,244704
1050,0503;0,243755
1051,0145;0,242541
1051,9788;0,241052
1052,9430;0,239301
1053,9072;0,237316
1054,8715;0,235123
1055,8357;0,232728
1056,7999;0,230103
1057,7642;0,227185
1058,7284;0,223901
1059,6926;0,220209
1060,6569;0,216132
1061,6211;0,211772
1062,5853;0,207292
1063,5496;0,202874
1064,5138;0,198676
1065,4780;0,194794
1066,4423;0,19126
1067,4065;0,188055
1068,3707;0,185131
1069,3350;0,182442
1070,2992;0,179944
1071,2634;0,177602
1072,2277;0,175383
1073,1919;0,173244
1074,1561;0,171144
1075,1204;0,169043
1076,0846;0,166915
1077,0488;0,164762
1078,0131;0,162608
1078,9773;0,160507
1079,9415;0,15852
1080,9058;0,156706
1081,8700;0,155104
1082,8342;0,153726
1083,7985;0,152555
1084,7627;0,151555
1085,7269;0,150683
1086,6912;0,149903
1087,6554;0,149195
1088,6196;0,148558
1089,5839;0,148008
1090,5481;0,147566
1091,5123;0,14725
1092,4766;0,147063
1093,4408;0,146992
1094,4050;0,147014
1095,3693;0,147114
1096,3335;0,147285
1097,2977;0,147535
1098,2620;0,147871
1099,2262;0,148287
1100,1904;0,148753
1101,1547;0,149218
1102,1189;0,149618
1103,0831;0,1499
1104,0474;0,150033
1105,0116;0,150011
1105,9758;0,149849
1106,9401;0,149567
1107,9043;0,149173
1108,8685;0,148653
1109,8328;0,147972
1110,7970;0,147084
1111,7612;0,145954
1112,7255;0,144577
1113,6897;0,142994
1114,6539;0,141284
1115,6182;0,13955
1116,5824;0,137888
1117,5466;0,136361
1118,5109;0,134986
1119,4751;0,13373
1120,4393;0,132522
1121,4036;0,131269
1122,3678;0,129882
1123,3320;0,128286
1124,2963;0,126437
1125,2605;0,124329
1126,2247;0,121988
1127,1890;0,119465
1128,1532;0,116823
1129,1174;0,114126
1130,0817;0,111429
1131,0459;0,108777
1132,0101;0,106208
1132,9744;0,10376
1133,9386;0,101474
1134,9028;0,0993895
1135,8671;0,0975445
1136,8313;0,0959657
1137,7955;0,0946667
1138,7598;0,093647
1139,7240;0,0928944
1140,6882;0,0923866
1141,6525;0,0920945
1142,6167;0,0919839
1143,5809;0,0920202
1144,5452;0,0921725
1145,5094;0,0924189
1146,4736;0,0927489
1147,4379;0,0931623
1148,4021;0,0936648
1149,3663;0,0942603
1150,3306;0,0949439
1151,2948;0,0956965
1152,2590;0,0964852
1153,2233;0,0972669
1154,1875;0,0979951
1155,1517;0,0986236
1156,1160;0,0991077
1157,0802;0,0993991
1158,0444;0,0994406
1159,0087;0,0991639
1159,9729;0,0984948
1160,9371;0,0973669
1161,9014;0,0957397
1162,8656;0,0936144
1163,8298;0,0910404
1164,7941;0,0881108
1165,7583;0,0849475
1166,7225;0,0816832
1167,6868;0,0784429
1168,6510;0,0753316
1169,6152;0,0724262
1170,5795;0,0697736
1171,5437;0,0673929
1172,5079;0,0652814
1173,4722;0,0634227
1174,4364;0,0617937
1175,4006;0,0603714
1176,3649;0,059136
1177,3291;0,0580726
1178,2933;0,0571695
1179,2576;0,0564166
1180,2218;0,0558014
1181,1860;0,0553083
1182,1503;0,0549181
1183,1145;0,0546117
1184,0787;0,0543748
1185,0430;0,0542009
1186,0072;0,0540923
1186,9714;0,0540568
1187,9357;0,0541024
1188,8999;0,0542336
1189,8641;0,0544503
1190,8284;0,054751
1191,7926;0,0551359
1192,7568;0,055608
1193,7211;0,056171
1194,6853;0,0568237
1195,6495;0,0575558
1196,6138;0,0583478
1197,5780;0,0591744
1198,5422;0,0600106
1199,5065;0,0606361
1200,4707;0,0614661
1201,4349;0,0622732
1202,3992;0,0630571
1203,3634;0,0638184
1204,3276;0,064557
1205,2919;0,065271
1206,2561;0,0659591
1207,2203;0,0666233
1208,1846;0,0672726
1209,1488;0,0679243
1210,1130;0,068603
1211,0773;0,0693348
1212,0415;0,0701399
1213,0057;0,071026
1213,9700;0,071985
1214,9342;0,0729949
1215,8984;0,0740273
1216,8627;0,0750537
1217,8269;0,0760528
1218,7911;0,0770156
1219,7554;0,0779415
1220,7196;0,0788324
1221,6838;0,0796867
1222,6481;0,0804959
1223,6123;0,0812482
1224,5765;0,0819334
1225,5408;0,082549
1226,5050;0,0831012
1227,4692;0,0836013
1228,4335;0,0840603
1229,3977;0,0844843
1230,3619;0,084874
1231,3262;0,0852272
1232,2904;0,0855408
1233,2546;0,0858128
1234,2189;0,0860425
1235,1831;0,0862306
1236,1473;0,0863796
1237,1116;0,0864952
1238,0758;0,0865856
1239,0400;0,0866589
1240,0043;0,0867203
1240,9685;0,0867679
1241,9327;0,0867931
1242,8970;0,0867822
1243,8612;0,0867214
1244,8254;0,0866004
1245,7897;0,0864158
1246,7539;0,0861722
1247,7181;0,0858802
1248,6824;0,0855533
1249,6466;0,0852041
1250,6108;0,0848421
1251,5751;0,0844732
1252,5393;0,0841025
1253,5035;0,0837365
1254,4678;0,0833829
1255,4320;0,0830475
1256,3962;0,0827289
1257,3605;0,0824158
1258,3247;0,082089
1259,2889;0,0817287
1260,2532;0,0813225
1261,2174;0,0808688
1262,1816;0,0803749
1263,1459;0,0798485
1264,1101;0,0792917
1265,0743;0,0786996
1266,0386;0,0780622
1267,0028;0,0773701
1267,9670;0,0766174
1268,9313;0,0758038
1269,8955;0,074934
1270,8597;0,0740169
1271,8240;0,0730646
1272,7882;0,0720899
1273,7524;0,0711062
1274,7167;0,0701262
1275,6809;0,0691634
1276,6451;0,0682303
1277,6094;0,0673369
1278,5736;0,0664859
1279,5378;0,0656713
1280,5021;0,0648813
1281,4663;0,0641052
1282,4305;0,063341
1283,3948;0,0625982
1284,3590;0,0618949
1285,3232;0,0612511
1286,2875;0,0606822
1287,2517;0,060196
1288,2159;0,0597931
1289,1802;0,0594697
1290,1444;0,059221
1291,1086;0,059043
1292,0729;0,058935
1293,0371;0,0588994
1294,0013;0,0589424
1294,9656;0,0590705
1295,9298;0,0592875
1296,8940;0,0595911
1297,8583;0,0599731
1298,8225;0,0604226
1299,7867;0,0609307
1300,7510;0,0614929
1301,7152;0,0621117
1302,6794;0,0627891
1303,6437;0,0635234
1304,6079;0,0643082
1305,5721;0,0651321
1306,5364;0,0659836
1307,5006;0,0668551
1308,4648;0,0677449
1309,4291;0,068652
1310,3933;0,0695684
1311,3575;0,0704722
1312,3218;0,0713282
1313,2860;0,0720967
1314,2502;0,0727449
1315,2145;0,0732511
1316,1787;0,0735997
1317,1429;0,0737763
1318,1072;0,0737704
1319,0714;0,0735895
1320,0356;0,0732689
1320,9999;0,0728676
1321,9641;0,0724475
1322,9283;0,0720548
1323,8926;0,0717132
1324,8568;0,071429
1325,8210;0,0711991
1326,7853;0,0710171
1327,7495;0,0708723
1328,7137;0,0707483
1329,6780;0,0706219
1330,6422;0,0704689
1331,6064;0,0702746
1332,5707;0,0700393
1333,5349;0,0697795
1334,4991;0,069514
1335,4634;0,0692473
1336,4276;0,0689549
1337,3918;0,068579
1338,3561;0,0680518
1339,3203;0,0673493
1340,2845;0,0665338
1341,2488;0,0657241
1342,2130;0,0650192
1343,1772;0,064457
1344,1415;0,064029
1345,1057;0,0637111
1346,0699;0,0634837
1347,0342;0,0633363
1347,9984;0,0632689
1348,9626;0,0632878
1349,9269;0,063399
1350,8911;0,0636
1351,8553;0,0638759
1352,8196;0,0642045
1353,7838;0,064566
1354,7480;0,0649533
1355,7123;0,0653741
1356,6765;0,0658437
1357,6407;0,0663733
1358,6050;0,0669645
1359,5692;0,0676063
1360,5334;0,0682646
1361,4977;0,0688762
1362,4619;0,0693793
1363,4261;0,0697666
1364,3904;0,0700891
1365,3546;0,0703986
1366,3188;0,0707084
1367,2831;0,0710001
1368,2473;0,071247
1369,2115;0,0714316
1370,1758;0,0715498
1371,1400;0,0716019
1372,1042;0,0715788
1373,0685;0,0714536
1374,0327;0,0711951
1374,9969;0,070799
1375,9612;0,070296
1376,9254;0,0697156
1377,8896;0,0690536
1378,8539;0,0682883
1379,8181;0,0674228
1380,7823;0,0665064
1381,7466;0,0656109
1382,7108;0,0647819
1383,6750;0,0640099
1384,6393;0,063245
1385,6035;0,0624383
1386,5677;0,061591
1387,5320;0,060786
1388,4962;0,060147
1389,4604;0,059738
1390,4247;0,0595235
1391,3889;0,0594275
1392,3531;0,0594019
1393,3174;0,0594389
1394,2816;0,0595338
1395,2458;0,0596528
1396,2101;0,0597442
1397,1743;0,0597832
1398,1385;0,0597983
1399,1028;0,0598547
1400,0670;0,0600103
1401,0313;0,0602817
1401,9955;0,0606427
1402,9597;0,061048
1403,9240;0,0614601
1404,8882;0,0618672
1405,8524;0,0622862
1406,8167;0,0627481
1407,7809;0,0632704
1408,7451;0,0638484
1409,7094;0,0644709
1410,6736;0,0651364
1411,6378;0,0658492
1412,6021;0,0666002
1413,5663;0,067355
1414,5305;0,0680645
1415,4948;0,0686904
1416,4590;0,0692148
1417,4232;0,0696202
1418,3875;0,069892
1419,3517;0,0700752
1420,3159;0,0702619
1421,2802;0,0704654
1422,2444;0,070583
1423,2086;0,0704944
1424,1729;0,0701559
1425,1371;0,0696115
1426,1013;0,0689343
1427,0656;0,0681619
1428,0298;0,0672846
1428,9940;0,0662935
1429,9583;0,0652364
1430,9225;0,0642078
1431,8867;0,0632634
1432,8510;0,0623599
1433,8152;0,0613895
1434,7794;0,0602655
1435,7437;0,0590131
1436,7079;0,0578318
1437,6721;0,0570134
1438,6364;0,0566971
1439,6006;0,0567669
1440,5648;0,0570079
1441,5291;0,0572778
1442,4933;0,0575501
1443,4575;0,0578669
1444,4218;0,0582699
1445,3860;0,0587591
1446,3502;0,0592971
1447,3145;0,059844
1448,2787;0,0603921
1449,2429;0,0609639
1450,2072;0,0615661
1451,1714;0,0621466
1452,1356;0,0626115
1453,0999;0,0628898
1454,0641;0,0629892
1455,0283;0,0629715
1455,9926;0,0628059
1456,9568;0,0623312
1457,9210;0,0616888
1458,8853;0,0613564
1459,8495;0,0614488
1460,8137;0,0616725
1461,7780;0,0617142
1462,7422;0,0614006
1463,7064;0,0606838
1464,6707;0,0596362
1465,6349;0,0584614
1466,5991;0,0573727
1467,5634;0,056407
1468,5276;0,055427
1469,4918;0,0542632
1470,4561;0,0527998
1471,4203;0,0509711
1472,3845;0,0487825
1473,3488;0,0464461
1474,3130;0,044371
1475,2772;0,042829
1476,2415;0,0417834
1477,2057;0,0410561
1478,1699;0,0404961
1479,1342;0,0400188
1480,0984;0,039589
1481,0626;0,0392068
1482,0269;0,0389008
1482,9911;0,0387123
1483,9553;0,0386699
1484,9196;0,0387801
1485,8838;0,0390365
1486,8480;0,0394163
1487,8123;0,039837
1488,7765;0,040152
1489,7407;0,0403109
1490,7050;0,0404701
1491,6692;0,0407977
1492,6334;0,0413077
1493,5977;0,0419417
1494,5619;0,0426864
1495,5261;0,0435857
1496,4904;0,0446612
1497,4546;0,0458521
1498,4188;0,0470803
1499,3831;0,0483131
1500,3473;0,0494879
1501,3115;0,0504737
1502,2758;0,0511539
1503,2400;0,0515331
1504,2042;0,0517992
1505,1685;0,0522493
1506,1327;0,0529014
1507,0969;0,053171
1508,0612;0,0527707
1509,0254;0,0522598
1509,9896;0,0519842
1510,9539;0,0518297
1511,9181;0,0516223
1512,8823;0,0512892
1513,8466;0,0508286
1514,8108;0,0502472
1515,7750;0,0495354
1516,7393;0,0486879
1517,7035;0,0477282
1518,6677;0,046704
1519,6320;0,0456741
1520,5962;0,0447107
1521,5604;0,0439042
1522,5247;0,0433251
1523,4889;0,0429601
1524,4531;0,0427171
1525,4174;0,0425104
1526,3816;0,0423301
1527,3458;0,042224
1528,3101;0,0422235
1529,2743;0,0423034
1530,2385;0,0424157
1531,2028;0,0425396
1532,1670;0,0426899
1533,1312;0,0428865
1534,0955;0,0431277
1535,0597;0,0433735
1536,0239;0,0435551
1536,9882;0,0436556
1537,9524;0,0438037
1538,9166;0,0442299
1539,8809;0,0449229
1540,8451;0,0453639
1541,8093;0,0452584
1542,7736;0,0450043
1543,7378;0,0449146
1544,7020;0,0449805
1545,6663;0,0451313
1546,6305;0,0453341
1547,5947;0,0455623
1548,5590;0,0457701
1549,5232;0,0459123
1550,4874;0,0459812
1551,4517;0,0460168
1552,4159;0,0460687
1553,3801;0,0461347
1554,3444;0,0461462
1555,3086;0,0460184
1556,2728;0,045688
1557,2371;0,0450336
1558,2013;0,0438712
1559,1655;0,0426064
1560,1298;0,0422543
1561,0940;0,0430051
1562,0582;0,044249
1563,0225;0,0454304
1563,9867;0,0463007
1564,9509;0,0468353
1565,9152;0,0471262
1566,8794;0,0473057
1567,8436;0,0474942
1568,8079;0,0477722
1569,7721;0,0481799
1570,7363;0,0487072
1571,7006;0,049283
1572,6648;0,0498207
1573,6290;0,0502965
1574,5933;0,0507687
1575,5575;0,051306
1576,5217;0,0519264
1577,4860;0,0526497
1578,4502;0,0535043
1579,4144;0,0544487
1580,3787;0,055399
1581,3429;0,0563106
1582,3071;0,057195
1583,2714;0,0580862
1584,2356;0,059008
1585,1998;0,0599652
1586,1641;0,0609467
1587,1283;0,0619287
1588,0925;0,0628761
1589,0568;0,0637469
1590,0210;0,064501
1590,9852;0,0651058
1591,9495;0,0655346
1592,9137;0,0657632
1593,8779;0,065777
1594,8422;0,0655882
1595,8064;0,0652461
1596,7706;0,0648244
1597,7349;0,0643924
1598,6991;0,0639924
1599,6633;0,0636365
1600,6276;0,0633177
1601,5918;0,0630271
1602,5560;0,0627668
1603,5203;0,0625492
1604,4845;0,0623815
1605,4487;0,0622498
1606,4130;0,0621213
1607,3772;0,061966
1608,3414;0,0617876
1609,3057;0,0616337
1610,2699;0,0615613
1611,2341;0,061577
1612,1984;0,0616236
1613,1626;0,061631
1614,1268;0,0615747
1615,0911;0,0614886
1616,0553;0,0614451
1617,0195;0,0615486
1617,9838;0,0618836
1618,9480;0,0624079
1619,9122;0,0629715
1620,8765;0,0634436
1621,8407;0,0637809
1622,8049;0,064008
1623,7692;0,0641749
1624,7334;0,0643298
1625,6976;0,0645024
1626,6619;0,0647022
1627,6261;0,0649385
1628,5903;0,0652239
1629,5546;0,0655454
1630,5188;0,0658417
1631,4830;0,0660342
1632,4473;0,0660939
1633,4115;0,0660771
1634,3757;0,0660588
1635,3400;0,0660159
1636,3042;0,0659173
1637,2684;0,0659107
1638,2327;0,0661295
1639,1969;0,0665065
1640,1611;0,0668918
1641,1254;0,0671778
1642,0896;0,0673267
1643,0538;0,0673641
1644,0181;0,0673637
1644,9823;0,0673889
1645,9465;0,0674118
1646,9108;0,0673603
1647,8750;0,0672322
1648,8392;0,0670041
1649,8035;0,0665515
1650,7677;0,065747
1651,7319;0,064515
1652,6962;0,0628398
1653,6604;0,0611187
1654,6246;0,0601957
1655,5889;0,060249
1656,5531;0,0606917
1657,5173;0,0609654
1658,4816;0,060826
1659,4458;0,0602608
1660,4100;0,0593631
1661,3743;0,0582649
1662,3385;0,0571391
1663,3027;0,0561761
1664,2670;0,0554666
1665,2312;0,0549393
1666,1954;0,0544401
1667,1597;0,0538284
1668,1239;0,0530174
1669,0881;0,052004
1670,0524;0,0509088
1671,0166;0,0499015
1671,9808;0,0490199
1672,9451;0,0481459
1673,9093;0,04717
1674,8735;0,046143
1675,8378;0,0452814
1676,8020;0,0447945
1677,7662;0,044681
1678,7305;0,0447228
1679,6947;0,0446458
1680,6589;0,0442512
1681,6232;0,0434341
1682,5874;0,0421488
1683,5516;0,0405017
1684,5159;0,038959
1685,4801;0,0380477
1686,4443;0,0377808
1687,4086;0,0377808
1688,3728;0,0377042
1689,3370;0,0374096
1690,3013;0,0369206
1691,2655;0,0363366
1692,2297;0,0357636
1693,1940;0,0352848
1694,1582;0,0349465
1695,1224;0,0347261
1696,0867;0,0344985
1697,0509;0,0340676
1698,0151;0,0333136
1698,9794;0,032371
1699,9436;0,0316185
1700,9078;0,031397
1701,8721;0,0317394
1702,8363;0,0323959
1703,8005;0,0330478
1704,7648;0,0334811
1705,7290;0,0336556
1706,6932;0,0336884
1707,6575;0,0337597
1708,6217;0,0339846
1709,5859;0,0343603
1710,5502;0,0348126
1711,5144;0,0352677
1712,4786;0,0356881
1713,4429;0,0360639
1714,4071;0,0363694
1715,3713;0,0365003
1716,3356;0,0362976
1717,2998;0,0357999
1718,2640;0,0353874
1719,2283;0,0353909
1720,1925;0,0357762
1721,1567;0,0363052
1722,1210;0,0367707
1723,0852;0,0370832
1724,0494;0,0372636
1725,0137;0,0374006
1725,9779;0,0375926
1726,9421;0,0378909
1727,9064;0,0382696
1728,8706;0,038639
1729,8348;0,038884
1730,7991;0,0389029
1731,7633;0,0386301
1732,7275;0,0380759
1733,6918;0,0374154
1734,6560;0,0369609
1735,6202;0,0368787
1736,5845;0,0370332
1737,5487;0,0371639
1738,5129;0,0370944
1739,4772;0,0368008
1740,4414;0,0363775
1741,4056;0,0359547
1742,3699;0,0356091
1743,3341;0,0353268
1744,2983;0,0350393
1745,2626;0,034678
1746,2268;0,0341904
1747,1910;0,0335122
1748,1553;0,0325518
1749,1195;0,0312619
1750,0837;0,0297755
1751,0480;0,0283913
1752,0122;0,02734
1752,9764;0,0266276
1753,9407;0,0261063
1754,9049;0,0256211
1755,8691;0,0250926
1756,8334;0,0245216
1757,7976;0,0239434
1758,7618;0,0233737
1759,7261;0,0227914
1760,6903;0,0221729
1761,6545;0,021542
1762,6188;0,0209764
1763,5830;0,0205507
1764,5472;0,0202769
1765,5115;0,0201045
1766,4757;0,0199683
1767,4399;0,0198277
1768,4042;0,01967
1769,3684;0,0194863
1770,3326;0,0192448
1771,2969;0,0189047
1772,2611;0,0184878
1773,2253;0,0181177
1774,1896;0,0179242
1775,1538;0,0179203
1776,1180;0,0180121
1777,0823;0,0180911
1778,0465;0,0180977
1779,0107;0,0180273
1779,9750;0,0179041
1780,9392;0,0177521
1781,9034;0,0175833
1782,8677;0,0174069
1783,8319;0,0172476
1784,7961;0,0171493
1785,7604;0,0171501
1786,7246;0,0172483
1787,6888;0,0173975
1788,6531;0,017535
1789,6173;0,0176123
1790,5815;0,0175998
1791,5458;0,0174855
1792,5100;0,0173101
1793,4742;0,0171815
1794,4385;0,0171818
1795,4027;0,0172858
1796,3669;0,0174018
1797,3312;0,0174523
1798,2954;0,017408
1799,2596;0,0172791
1800,2239;0,0170987
1801,1881;0,0169135
1802,1523;0,0167706
1803,1166;0,0166982
1804,0808;0,0166966
1805,0450;0,0167473
1806,0093;0,0168267
1806,9735;0,0169116
1807,9377;0,0169781
1808,9020;0,0170022
1809,8662;0,0169671
1810,8304;0,0168776
1811,7947;0,0167624
1812,7589;0,0166543
1813,7231;0,0165684
1814,6874;0,0165023
1815,6516;0,0164507
1816,6158;0,0164181
1817,5801;0,0164182
1818,5443;0,0164636
1819,5085;0,0165524
1820,4728;0,016665
1821,4370;0,0167731
1822,4012;0,0168557
1823,3655;0,016908
1824,3297;0,0169411
1825,2939;0,0169714
1826,2582;0,0170014
1827,2224;0,0170066
1828,1866;0,0169448
1829,1509;0,0167901
1830,1151;0,0165757
1831,0793;0,0163924
1832,0436;0,0163205
1833,0078;0,0163647
1833,9720;0,0164666
1834,9363;0,0165607
1835,9005;0,0166152
1836,8647;0,0166389
1837,8290;0,0166616
1838,7932;0,0167016
1839,7574;0,0167485
1840,7217;0,0167787
1841,6859;0,0167818
1842,6501;0,0167634
1843,6144;0,0167297
1844,5786;0,0166881
1845,5428;0,0166576
1846,5071;0,0166478
1847,4713;0,0166339
1848,4355;0,0165799
1849,3998;0,0164772
1850,3640;0,0163538
1851,3282;0,0162534
1852,2925;0,0162047
1853,2567;0,0162077
1854,2209;0,0162414
1855,1852;0,0162831
1856,1494;0,0163199
1857,1136;0,0163492
1858,0779;0,016371
1859,0421;0,0163842
1860,0063;0,016392
1860,9706;0,0164072
1861,9348;0,0164511
1862,8990;0,0165423
1863,8633;0,0166867
1864,8275;0,0168754
1865,7917;0,0170829
1866,7560;0,0172567
1867,7202;0,0173191
1868,6844;0,0172184
1869,6487;0,016994
1870,6129;0,0167512
1871,5771;0,0165675
1872,5414;0,0164551
1873,5056;0,0163914
1874,4698;0,0163556
1875,4341;0,0163383
1876,3983;0,0163361
1877,3625;0,0163461
1878,3268;0,0163674
1879,2910;0,0164018
1880,2552;0,0164526
1881,2195;0,0165206
1882,1837;0,0166003
1883,1479;0,016681
1884,1122;0,0167517
1885,0764;0,0168069
1886,0406;0,0168478
1887,0049;0,0168773
1887,9691;0,0168938
1888,9333;0,01689
1889,8976;0,0168626
1890,8618;0,0168211
1891,8260;0,016782
1892,7903;0,0167567
1893,7545;0,0167458
1894,7188;0,0167424
1895,6830;0,0167385
1896,6472;0,0167307
1897,6115;0,016722
1898,5757;0,0167172
1899,5399;0,0167184
1900,5042;0,0167251
1901,4684;0,016739
1902,4326;0,0167669
1903,3969;0,0168184
1904,3611;0,0168973
1905,3253;0,0169945
1906,2896;0,0170858
1907,2538;0,01714
1908,2180;0,0171338
1909,1823;0,0170669
1910,1465;0,0169653
1911,1107;0,0168663
1912,0750;0,016793
1913,0392;0,0167447
1914,0034;0,0167088
1914,9677;0,0166821
1915,9319;0,0166797
1916,8961;0,0167247
1917,8604;0,0168263
1918,8246;0,0169639
1919,7888;0,0170901
1920,7531;0,0171528
1921,7173;0,0171241
1922,6815;0,017018
1923,6458;0,016885
1924,6100;0,0167838
1925,5742;0,0167469
1926,5385;0,016769
1927,5027;0,0168231
1928,4669;0,0168871
1929,4312;0,0169544
1930,3954;0,0170258
1931,3596;0,0170931
1932,3239;0,0171334
1933,2881;0,0171213
1934,2523;0,0170528
1935,2166;0,0169582
1936,1808;0,0168919
1937,1450;0,0169029
1938,1093;0,0170078
1939,0735;0,0171843
1940,0377;0,0173815
1941,0020;0,0175387
1941,9662;0,0176082
1942,9304;0,0175788
1943,8947;0,0174829
1944,8589;0,0173751
1945,8231;0,0172991
1946,7874;0,0172703
1947,7516;0,0172771
1948,7158;0,0172905
1949,6801;0,0172777
1950,6443;0,0172154
1951,6085;0,0171012
1952,5728;0,0169572
1953,5370;0,0168232
1954,5012;0,0167451
1955,4655;0,0167606
1956,4297;0,0168883
1957,3939;0,017119
1958,3582;0,0174142
1959,3224;0,0177126
1960,2866;0,0179475
1961,2509;0,0180707
1962,2151;0,0180687
1963,1793;0,0179625
1964,1436;0,0177925
1965,1078;0,0176046
1966,0720;0,0174417
1967,0363;0,0173394
1968,0005;0,0173197
1968,9647;0,0173789
1969,9290;0,0174842
1970,8932;0,0175855
1971,8574;0,0176416
1972,8217;0,0176428
1973,7859;0,0176149
1974,7501;0,0175962
1975,7144;0,017606
1976,6786;0,0176274
1977,6428;0,0176257
1978,6071;0,0175864
1979,5713;0,0175346
1980,5355;0,0175166
1981,4998;0,0175635
1982,4640;0,0176693
1983,4282;0,0177967
1984,3925;0,0179042
1985,3567;0,0179744
1986,3209;0,0180233
1987,2852;0,0180865
1988,2494;0,0181911
1989,2136;0,0183344
1990,1779;0,0184791
1991,1421;0,0185699
1992,1063;0,018563
1993,0706;0,0184507
1994,0348;0,0182645
1994,9990;0,0180587
1995,9633;0,0178885
1996,9275;0,0177943
1997,8917;0,0177917
1998,8560;0,0178666
1999,8202;0,017982
2000,7844;0,0180954
2001,7487;0,0181794
2002,7129;0,0182326
2003,6771;0,0182742
2004,6414;0,0183293
2005,6056;0,0184114
2006,5698;0,0185133
2007,5341;0,0186133
2008,4983;0,0186913
2009,4625;0,0187466
2010,4268;0,0188024
2011,3910;0,0188931
2012,3552;0,0190418
2013,3195;0,0192388
2014,2837;0,0194348
2015,2479;0,019556
2016,2122;0,019543
2017,1764;0,0193904
2018,1406;0,0191584
2019,1049;0,0189394
2020,0691;0,0188044
2021,0333;0,0187695
2021,9976;0,0188028
2022,9618;0,018861
2023,9260;0,0189231
2024,8903;0,0189941
2025,8545;0,0190781
2026,8187;0,0191477
2027,7830;0,0191426
2028,7472;0,0190084
2029,7114;0,0187478
2030,6757;0,018441
2031,6399;0,018213
2032,6041;0,0181647
2033,5684;0,0183175
2034,5326;0,0186103
2035,4968;0,0189471
2036,4611;0,0192521
2037,4253;0,0194921
2038,3895;0,0196576
2039,3538;0,0197345
2040,3180;0,0196977
2041,2822;0,0195342
2042,2465;0,0192736
2043,2107;0,0189948
2044,1749;0,0187967
2045,1392;0,0187508
2046,1034;0,0188643
2047,0676;0,0190744
2048,0320;0,0192804
2048,9961;0,0193969
2049,9604;0,0193941
2050,9246;0,0193024
2051,8889;0,0191871
2052,8530;0,0191157
2053,8174;0,0191317
2054,7815;0,0192388
2055,7458;0,0194032
2056,7100;0,0195695
2057,6743;0,019687
2058,6384;0,0197302
2059,6028;0,0197038
2060,5669;0,0196326
2061,5313;0,0195461
2062,4954;0,0194691
2063,4597;0,0194192
2064,4238;0,0194081
2065,3882;0,0194379
2066,3523;0,019495
2067,3167;0,0195471
2068,2808;0,0195541
2069,2451;0,0194881
2070,2092;0,0193532
2071,1736;0,0191871
2072,1377;0,0190434
2073,1021;0,0189638
2074,0662;0,0189589
2075,0305;0,0190102
2075,9946;0,0190888
2076,9590;0,0191737
2077,9231;0,0192556
2078,8875;0,0193265
2079,8516;0,0193701
2080,8159;0,0193642
2081,7800;0,0192965
2082,7444;0,0191801
2083,7085;0,0190557
2084,6729;0,0189746
2085,6370;0,0189733
2086,6013;0,0190556
2087,5654;0,019192
2088,5298;0,0193346
2089,4939;0,0194369
2090,4583;0,0194684
2091,4224;0,019421
2092,3867;0,0193092
2093,3508;0,0191688
2094,3152;0,0190518
2095,2793;0,0190107
2096,2437;0,0190756
2097,2078;0,0192332
2098,1721;0,019427
2099,1362;0,0195822
2100,1006;0,019646
2101,0647;0,0196076
2102,0291;0,0195101
2102,9932;0,019416
2103,9575;0,0193738
2104,9216;0,0193967
2105,8860;0,019466
2106,8501;0,0195536
2107,8145;0,019643
2108,7786;0,0197331
2109,7429;0,0198259
2110,7070;0,0199115
2111,6714;0,0199666
2112,6355;0,0199677
2113,5999;0,0199104
2114,5640;0,0198175
2115,5283;0,0197302
2116,4924;0,0196888
2117,4568;0,0197134
2118,4209;0,0197972
2119,3853;0,019911
2120,3494;0,0200165
2121,3137;0,0200796
2122,2778;0,020081
2123,2422;0,0200217
2124,2063;0,0199225
2125,1707;0,019817
2126,1348;0,0197395
2127,0991;0,0197118
2128,0632;0,0197369
2129,0276;0,0198021
2129,9917;0,0198908
2130,9561;0,0199929
2131,9202;0,0201078
2132,8845;0,0202384
2133,8486;0,0203812
2134,8130;0,0205229
2135,7771;0,0206474
2136,7415;0,0207468
2137,7056;0,0208253
2138,6699;0,0208918
2139,6340;0,0209483
2140,5984;0,0209857
2141,5625;0,020993
2142,5269;0,0209726
2143,4910;0,0209482
2144,4553;0,0209563
2145,4194;0,0210215
2146,3838;0,0211362
2147,3479;0,0212587
2148,3123;0,0213393
2149,2764;0,0213561
2150,2407;0,021338
2151,2048;0,0213559
2152,1692;0,0214826
2153,1333;0,0217467
2154,0977;0,0221055
2155,0618;0,0224593
2156,0261;0,0227003
2156,9902;0,0227773
2157,9546;0,0227359
2158,9187;0,02269
2159,8831;0,0227312
2160,8472;0,0228553
2161,8115;0,0229747
2162,7756;0,0229932
2163,7400;0,0228695
2164,7041;0,0226345
2165,6685;0,0223632
2166,6326;0,0221289
2167,5969;0,0219681
2168,5610;0,0218745
2169,5254;0,0218167
2170,4895;0,021762
2171,4539;0,0216907
2172,4180;0,0216012
2173,3823;0,021509
2174,3464;0,0214432
2175,3108;0,0214362
2176,2749;0,0215036
2177,2393;0,0216253
2178,2034;0,0217402
2179,1677;0,0217676
2180,1318;0,0216495
2181,0962;0,0213896
2182,0603;0,0210628
2183,0247;0,0207798
2183,9888;0,0206281
2184,9531;0,0206298
2185,9172;0,0207424
2186,8816;0,0208973
2187,8457;0,0210428
2188,8101;0,0211623
2189,7742;0,0212603
2190,7385;0,021334
2191,7026;0,0213575
2192,6670;0,0212928
2193,6311;0,0211221
2194,5955;0,0208756
2195,5596;0,0206323
2196,5239;0,0204864
2197,4880;0,0204978
2198,4524;0,0206558
2199,4165;0,0208789
2200,3809;0,0210539
2201,3450;0,0210912
2202,3093;0,020967
2203,2734;0,0207291
2204,2378;0,0204676
2205,2019;0,0202699
2206,1663;0,0201872
2207,1304;0,0202254
2208,0947;0,0203575
2209,0588;0,0205416
2210,0232;0,0207334
2210,9873;0,0208904
2211,9517;0,0209771
2212,9158;0,0209746
2213,8801;0,0208886
2214,8442;0,0207477
2215,8086;0,0205875
2216,7727;0,0204311
2217,7371;0,0202821
2218,7012;0,0201367
2219,6655;0,0200076
2220,6296;0,0199341
2221,5940;0,0199665
2222,5581;0,0201293
2223,5225;0,0203903
2224,4866;0,0206612
2225,4509;0,0208368
2226,4150;0,0208496
2227,3794;0,0207045
2228,3435;0,0204722
2229,3079;0,0202454
2230,2720;0,0200878
2231,2363;0,0200101
2232,2004;0,0199814
2233,1648;0,0199654
2234,1289;0,0199507
2235,0933;0,0199553
2236,0574;0,0200068
2237,0217;0,0201135
2237,9858;0,0202507
2238,9502;0,0203704
2239,9143;0,0204268
2240,8787;0,0204017
2241,8428;0,0203128
2242,8071;0,0202018
2243,7712;0,020112
2244,7356;0,020067
2245,6997;0,0200641
2246,6641;0,0200815
2247,6282;0,0200944
2248,5925;0,0200879
2249,5566;0,0200613
2250,5210;0,0200242
2251,4851;0,019989
2252,4495;0,0199671
2253,4136;0,0199673
2254,3779;0,0199954
2255,3420;0,0200506
2256,3064;0,0201201
2257,2705;0,0201772
2258,2349;0,0201896
2259,1990;0,0201345
2260,1633;0,0200145
2261,1274;0,0198605
2262,0918;0,0197212
2263,0559;0,0196401
2264,0203;0,0196368
2264,9844;0,0197009
2265,9487;0,019801
2266,9128;0,0199017
2267,8772;0,0199762
2268,8413;0,0200103
2269,8057;0,0199997
2270,7698;0,0199477
2271,7341;0,0198649
2272,6982;0,0197689
2273,6626;0,0196798
2274,6267;0,0196121
2275,5911;0,0195686
2276,5552;0,0195414
2277,5195;0,0195219
2278,4836;0,0195097
2279,4480;0,0195155
2280,4121;0,0195528
2281,3765;0,0196267
2282,3406;0,0197276
2283,3049;0,0198361
2284,2690;0,0199338
2285,2334;0,0200129
2286,1975;0,0200776
2287,1619;0,0201371
2288,1260;0,0201965
2289,0903;0,0202527
2290,0544;0,0202971
2291,0188;0,0203239
2291,9829;0,0203357
2292,9473;0,0203434
2293,9114;0,0203604
2294,8757;0,0203952
2295,8398;0,0204474
2296,8042;0,0205089
2297,7683;0,0205676
2298,7327;0,0206123
2299,6968;0,0206358
2300,6611;0,0206365
2301,6252;0,02062
2302,5896;0,0205992
2303,5537;0,0205919
2304,5181;0,0206145
2305,4822;0,0206727
2306,4465;0,0207544
2307,4106;0,0208297
2308,3750;0,0208621
2309,3391;0,0208261
2310,3035;0,0207223
2311,2676;0,0205784
2312,2319;0,0204355
2313,1960;0,0203276
2314,1604;0,0202671
2315,1245;0,0202452
2316,0889;0,0202446
2317,0530;0,0202525
2318,0173;0,0202668
2318,9814;0,020293
2319,9458;0,0203358
2320,9099;0,0203935
2321,8743;0,0204585
2322,8384;0,0205209
2323,8027;0,0205681
2324,7668;0,0205822
2325,7312;0,0205433
2326,6953;0,0204407
2327,6597;0,0202847
2328,6238;0,0201102
2329,5881;0,0199668
2330,5522;0,0198977
2331,5166;0,0199163
2332,4807;0,0199975
2333,4451;0,0200912
2334,4092;0,0201502
2335,3735;0,020156
2336,3376;0,0201292
2337,3020;0,0201168
2338,2661;0,0201603
2339,2305;0,0202598
2340,1946;0,0203554
2341,1589;0,0203443
2342,1230;0,0201409
2343,0874;0,0197718
2344,0515;0,0194323
2345,0159;0,0193779
2345,9800;0,0197087
2346,9443;0,0202974
2347,9084;0,0209098
2348,8728;0,0213507
2349,8369;0,021535
2350,8013;0,0214957
2351,7654;0,0213497
2352,7297;0,0212345
2353,6938;0,0212345
2354,6582;0,0213446
2355,6223;0,0214953
2356,5867;0,0215991
2357,5508;0,0215844
2358,5151;0,0214234
2359,4792;0,0211567
2360,4436;0,020878
2361,4077;0,0206714
2362,3721;0,020551
2363,3362;0,0204574
2364,3005;0,020309
2365,2646;0,0200617
2366,2290;0,0197338
2367,1931;0,0193857
2368,1575;0,0190808
2369,1216;0,0188552
2370,0859;0,0187099
2371,0500;0,0186234
2372,0144;0,0185721
2372,9785;0,0185481
2373,9429;0,0185616
2374,9070;0,0186312
2375,8713;0,0187694
2376,8354;0,018973
2377,7998;0,0192232
2378,7639;0,0194938
2379,7283;0,0197585
2380,6924;0,019996
2381,6567;0,0201911
2382,6208;0,020334
2383,5852;0,020422
2384,5493;0,0204607
2385,5137;0,0204648
2386,4778;0,0204546
2387,4421;0,02045
2388,4063;0,020463
2389,3706;0,0204951
2390,3347;0,0205382
2391,2991;0,020581
2392,2632;0,0206148
2393,2275;0,0206372
2394,1917;0,0206511
2395,1560;0,0206611
2396,1201;0,0206711
2397,0845;0,0206834
2398,0486;0,0206992
2399,0129;0,0207192
2399,9771;0,0207441
2400,9414;0,020774
2401,9055;0,020808
2402,8699;0,0208445
2403,8340;0,0208814
2404,7983;0,0209164
2405,7625;0,0209473
2406,7268;0,0209717
2407,6909;0,0209874
2408,6553;0,0209935
2409,6194;0,0209913
2410,5837;0,0209856
2411,5479;0,0209845
2412,5122;0,0209972
2413,4763;0,02103
2414,4407;0,021082
2415,4048;0,0211438
2416,3691;0,0212008
2417,3333;0,0212407
2418,2976;0,0212598
2419,2617;0,0212654
2420,2261;0,02127
2421,1902;0,0212819
2422,1545;0,0213
2423,1187;0,0213153
2424,0830;0,0213196
2425,0471;0,0213132
2426,0115;0,0213073
2426,9756;0,0213166
2427,9399;0,0213495
2428,9041;0,0214012
2429,8684;0,0214565
2430,8325;0,0214982
2431,7969;0,021517
2432,7610;0,0215156
2433,7253;0,0215056
2434,6895;0,0215013
2435,6538;0,0215128
2436,6179;0,0215428
2437,5823;0,0215872
2438,5464;0,0216376
2439,5107;0,0216845
2440,4749;0,0217213
2441,4392;0,0217466
2442,4033;0,0217644
2443,3677;0,0217804
2444,3318;0,0217978
2445,2961;0,0218144
2446,2603;0,0218247
2447,2246;0,0218255
2448,1887;0,0218207
2449,1531;0,0218216
2450,1172;0,02184
2451,0815;0,0218792
2452,0457;0,0219297
2453,0100;0,0219729
2453,9741;0,0219912
2454,9385;0,0219791
2455,9026;0,0219467
2456,8669;0,0219136
2457,8311;0,0218987
2458,7954;0,0219108
2459,7595;0,0219465
2460,7239;0,0219954
2461,6880;0,0220473
2462,6523;0,022096
2463,6165;0,0221394
2464,5808;0,0221767
2465,5449;0,0222063
2466,5093;0,0222269
2467,4734;0,0222386
2468,4377;0,022244
2469,4019;0,0222456
2470,3662;0,0222438
2471,3303;0,0222371
2472,2947;0,0222249
2473,2588;0,022211
2474,2231;0,0222047
2475,1873;0,0222159
2476,1516;0,0222492
2477,1157;0,0223002
2478,0801;0,0223568
2479,0442;0,0224062
2480,0085;0,0224407
2480,9727;0,0224612
2481,9370;0,0224743
2482,9011;0,0224877
2483,8655;0,0225067
2484,8296;0,0225335
2485,7939;0,0225682
2486,7581;0,0226099
2487,7224;0,0226561
2488,6865;0,0227023
2489,6509;0,0227428
2490,6150;0,0227732
2491,5793;0,0227924
2492,5435;0,0228021
2493,5078;0,0228048
2494,4719;0,0228011
2495,4363;0,0227893
2496,4004;0,0227684
2497,3647;0,0227416
2498,3289;0,0227175
2499,2932;0,0227073
2500,2573;0,02272
2501,2217;0,0227578
2502,1858;0,0228151
2503,1501;0,0228808
2504,1143;0,0229425
2505,0786;0,0229902
2506,0427;0,023019
2507,0071;0,0230294
2507,9712;0,0230273
2508,9355;0,0230212
2509,8997;0,023019
2510,8640;0,0230242
2511,8281;0,023034
2512,7925;0,0230411
2513,7566;0,0230383
2514,7209;0,0230237
2515,6851;0,0230031
2516,6494;0,0229875
2517,6135;0,0229879
2518,5779;0,023009
2519,5420;0,0230476
2520,5063;0,0230943
2521,4705;0,023138
2522,4348;0,0231715
2523,3989;0,0231931
2524,3633;0,023206
2525,3274;0,0232152
2526,2917;0,0232245
2527,2559;0,023236
2528,2202;0,0232501
2529,1843;0,023267
2530,1487;0,0232863
2531,1128;0,0233066
2532,0771;0,0233248
2533,0413;0,0233365
2534,0056;0,0233391
2534,9697;0,023335
2535,9341;0,0233319
2536,8982;0,0233394
2537,8625;0,0233631
2538,8267;0,0233999
2539,7910;0,0234385
2540,7551;0,0234648
2541,7195;0,0234697
2542,6836;0,0234543
2543,6479;0,0234292
2544,6121;0,0234089
2545,5764;0,0234046
2546,5405;0,0234189
2547,5049;0,0234461
2548,4690;0,0234754
2549,4333;0,0234966
2550,3975;0,023505
2551,3618;0,0235032
2552,3259;0,0234991
2553,2903;0,0235015
2554,2544;0,0235141
2555,2188;0,0235335
2556,1829;0,0235507
2557,1472;0,0235573
2558,1113;0,023551
2559,0757;0,0235384
2560,0398;0,0235307
2561,0042;0,0235371
2561,9683;0,0235587
2562,9326;0,0235883
2563,8967;0,0236147
2564,8611;0,0236296
2565,8252;0,023632
2566,7896;0,0236274
2567,7537;0,0236234
2568,7180;0,0236245
2569,6821;0,0236301
2570,6465;0,0236367
2571,6106;0,0236417
2572,5750;0,0236457
2573,5391;0,0236523
2574,5034;0,0236646
2575,4675;0,0236819
2576,4319;0,0236998
2577,3960;0,023713
2578,3604;0,0237199
2579,3245;0,0237239
2580,2888;0,0237309
2581,2529;0,0237451
2582,2173;0,0237659
2583,1814;0,0237885
2584,1458;0,0238083
2585,1099;0,0238251
2586,0742;0,0238433
2587,0383;0,0238677
2588,0027;0,0238991
2588,9668;0,0239329
2589,9312;0,0239619
2590,8953;0,0239824
2591,8596;0,0239968
2592,8237;0,0240122
2593,7881;0,0240353
2594,7522;0,024067
2595,7166;0,0241014
2596,6807;0,0241291
2597,6450;0,0241429
2598,6091;0,0241421
2599,5735;0,0241329
2600,5376;0,024125
2601,5020;0,0241271
2602,4661;0,0241435
2603,4304;0,0241736
2604,3945;0,0242129
2605,3589;0,0242561
2606,3230;0,0242994
2607,2874;0,024341
2608,2515;0,0243804
2609,2158;0,0244178
2610,1799;0,0244528
2611,1443;0,0244845
2612,1084;0,0245114
2613,0728;0,0245327
2614,0369;0,0245477
2615,0012;0,0245571
2615,9653;0,0245632
2616,9297;0,0245695
2617,8938;0,0245804
2618,8582;0,0245991
2619,8223;0,0246255
2620,7866;0,024656
2621,7507;0,0246848
2622,7151;0,0247074
2623,6792;0,0247238
2624,6436;0,0247381
2625,6077;0,0247568
2626,5720;0,0247845
2627,5361;0,0248214
2628,5005;0,0248631
2629,4646;0,0249035
2630,4290;0,0249388
2631,3931;0,0249689
2632,3574;0,0249971
2633,3215;0,0250268
2634,2859;0,0250594
2635,2500;0,0250932
2636,2144;0,0251253
2637,1785;0,0251535
2638,1428;0,0251786
2639,1069;0,0252032
2640,0713;0,02523
2641,0354;0,0252597
2641,9998;0,0252901
2642,9639;0,0253174
2643,9282;0,025339
2644,8923;0,0253548
2645,8567;0,0253675
2646,8208;0,0253812
2647,7852;0,0253994
2648,7493;0,0254242
2649,7136;0,0254558
2650,6777;0,0254924
2651,6421;0,0255317
2652,6062;0,0255703
2653,5706;0,0256054
2654,5347;0,0256355
2655,4990;0,0256614
2656,4631;0,0256861
2657,4275;0,0257134
2658,3916;0,0257454
2659,3560;0,0257811
2660,3201;0,0258164
2661,2844;0,025846
2662,2485;0,0258669
2663,2129;0,0258804
2664,1770;0,0258919
2665,1414;0,0259082
2666,1055;0,0259337
2667,0698;0,0259677
2668,0339;0,0260045
2668,9983;0,0260372
2669,9624;0,026062
2670,9268;0,0260809
2671,8909;0,0261005
2672,8552;0,0261275
2673,8193;0,0261639
2674,7837;0,0262054
2675,7478;0,0262439
2676,7122;0,0262727
2677,6763;0,0262909
2678,6406;0,0263038
2679,6047;0,0263191
2680,5691;0,0263427
2681,5332;0,0263752
2682,4976;0,0264131
2683,4617;0,0264511
2684,4260;0,0264864
2685,3901;0,0265191
2686,3545;0,0265515
2687,3186;0,0265857
2688,2830;0,026622
2689,2471;0,0266595
2690,2114;0,0266965
2691,1755;0,0267327
2692,1399;0,0267691
2693,1040;0,0268078
2694,0684;0,0268506
2695,0325;0,0268971
2695,9968;0,0269446
2696,9609;0,0269886
2697,9253;0,0270251
2698,8894;0,0270521
2699,8538;0,0270716
2700,8179;0,0270888
2701,7822;0,0271101
2702,7463;0,0271407
2703,7107;0,0271826
2704,6748;0,0272338
2705,6392;0,0272895
2706,6033;0,0273438
2707,5676;0,0273919
2708,5317;0,0274316
2709,4961;0,0274644
2710,4602;0,027494
2711,4246;0,0275255
2712,3887;0,0275625
2713,3530;0,0276062
2714,3171;0,027655
2715,2815;0,027706
2716,2456;0,0277564
2717,2100;0,0278047
2718,1741;0,0278496
2719,1384;0,0278899
2720,1025;0,0279235
2721,0669;0,0279486
2722,0310;0,0279655
2722,9954;0,0279777
2723,9595;0,0279913
2724,9238;0,0280128
2725,8879;0,0280456
2726,8523;0,0280891
2727,8164;0,0281387
2728,7808;0,0281896
2729,7449;0,0282385
2730,7092;0,028285
2731,6733;0,02833
2732,6377;0,0283734
2733,6018;0,028413
2734,5662;0,0284453
2735,5303;0,0284682
2736,4946;0,028483
2737,4587;0,028495
2738,4231;0,0285112
2739,3872;0,0285373
2740,3516;0,0285753
2741,3157;0,028623
2742,2800;0,0286754
2743,2441;0,0287261
2744,2085;0,0287692
2745,1726;0,0288007
2746,1370;0,0288197
2747,1011;0,0288296
2748,0654;0,0288374
2749,0295;0,0288518
2749,9939;0,0288798
2750,9580;0,028923
2751,9224;0,0289773
2752,8865;0,0290343
2753,8508;0,0290858
2754,8149;0,0291271
2755,7793;0,0291587
2756,7434;0,029185
2757,7078;0,029212
2758,6719;0,0292439
2759,6362;0,0292823
2760,6003;0,029326
2761,5647;0,0293721
2762,5288;0,0294174
2763,4932;0,02946
2764,4573;0,0294995
2765,4216;0,029538
2766,3857;0,0295792
2767,3501;0,0296274
2768,3142;0,0296851
2769,2786;0,0297512
2770,2427;0,0298206
2771,2070;0,0298862
2772,1711;0,0299416
2773,1355;0,0299849
2774,0996;0,0300202
2775,0640;0,0300557
2776,0281;0,0300999
2776,9924;0,0301578
2777,9565;0,0302284
2778,9209;0,0303067
2779,8850;0,0303857
2780,8494;0,0304606
2781,8135;0,0305291
2782,7778;0,0305918
2783,7419;0,03065
2784,7063;0,0307056
2785,6704;0,0307606
2786,6348;0,0308176
2787,5989;0,0308796
2788,5632;0,0309492
2789,5273;0,0310279
2790,4917;0,0311156
2791,4558;0,031211
2792,4202;0,0313118
2793,3843;0,0314143
2794,3486;0,0315136
2795,3127;0,0316046
2796,2771;0,0316845
2797,2412;0,0317554
2798,2056;0,0318254
2799,1697;0,0319055
2800,1340;0,0320052
2801,0981;0,032127
2802,0625;0,0322647
2803,0266;0,0324065
2803,9910;0,0325404
2804,9551;0,0326597
2805,9194;0,0327651
2806,8835;0,0328632
2807,8479;0,0329623
2808,8120;0,033069
2809,7764;0,033187
2810,7405;0,0333173
2811,7048;0,0334599
2812,6689;0,0336136
2813,6333;0,0337765
2814,5974;0,0339454
2815,5618;0,034116
2816,5259;0,0342843
2817,4902;0,0344478
2818,4543;0,0346069
2819,4187;0,034765
2820,3828;0,0349274
2821,3472;0,0350996
2822,3113;0,0352854
2823,2756;0,0354856
2824,2397;0,035699
2825,2041;0,035924
2826,1682;0,0361606
2827,1326;0,0364104
2828,0967;0,0366753
2829,0610;0,0369556
2830,0251;0,0372493
2830,9895;0,0375533
2831,9536;0,037866
2832,9180;0,0381886
2833,8821;0,0385254
2834,8464;0,0388815
2835,8105;0,0392608
2836,7749;0,039666
2837,7390;0,0401009
2838,7034;0,0405719
2839,6675;0,0410889
2840,6318;0,0416633
2841,5959;0,0423043
2842,5603;0,0430168
2843,5244;0,0437996
2844,4888;0,0446432
2845,4529;0,045527
2846,4172;0,0464164
2847,3813;0,0472623
2848,3457;0,0480072
2849,3098;0,0485976
2850,2742;0,0489979
2851,2383;0,0491992
2852,2026;0,0492202
2853,1667;0,0490979
2854,1311;0,0488753
2855,0952;0,0485915
2856,0596;0,0482774
2857,0237;0,0479565
2857,9880;0,0476478
2858,9521;0,0473685
2859,9165;0,0471332
2860,8806;0,0469524
2861,8450;0,0468309
2862,8091;0,046769
2863,7734;0,0467634
2864,7375;0,0468089
2865,7019;0,0468991
2866,6660;0,0470242
2867,6304;0,0471704
2868,5945;0,0473197
2869,5588;0,0474536
2870,5229;0,0475573
2871,4873;0,0476252
2872,4514;0,0476618
2873,4158;0,04768
2874,3799;0,0476954
2875,3442;0,0477213
2876,3083;0,0477651
2877,2727;0,0478287
2878,2368;0,04791
2879,2012;0,0480055
2880,1653;0,0481115
2881,1296;0,0482245
2882,0938;0,0483415
2883,0581;0,0484609
2884,0222;0,0485837
2884,9866;0,0487144
2885,9507;0,0488589
2886,9150;0,0490224
2887,8792;0,0492062
2888,8435;0,0494058
2889,8076;0,0496125
2890,7720;0,0498167
2891,7361;0,0500125
2892,7004;0,0502
2893,6646;0,0503847
2894,6289;0,0505743
2895,5930;0,0507735
2896,5574;0,0509818
2897,5215;0,0511934
2898,4858;0,0514013
2899,4500;0,0516015
2900,4143;0,0517952
2901,3784;0,0519891
2902,3428;0,052192
2903,3069;0,0524121
2904,2712;0,0526551
2905,2354;0,0529243
2906,1997;0,0532228
2907,1638;0,0535561
2908,1282;0,0539329
2909,0923;0,0543644
2910,0566;0,05486
2911,0208;0,0554213
2911,9851;0,0560374
2912,9492;0,0566828
2913,9136;0,0573205
2914,8777;0,0579101
2915,8420;0,0584162
2916,8062;0,0588152
2917,7705;0,0590958
2918,7346;0,059257
2919,6990;0,0593036
2920,6631;0,0592437
2921,6274;0,059088
2922,5916;0,0588486
2923,5559;0,058538
2924,5200;0,0581665
2925,4844;0,0577408
2926,4485;0,0572664
2927,4128;0,0567502
2928,3770;0,0562029
2929,3413;0,0556386
2930,3054;0,0550706
2931,2698;0,0545072
2932,2339;0,0539507
2933,1982;0,0534
2934,1624;0,0528552
2935,1267;0,0523192
2936,0908;0,0517967
2937,0552;0,0512906
2938,0193;0,0507992
2938,9836;0,0503171
2939,9478;0,0498389
2940,9121;0,0493629
2941,8762;0,0488931
2942,8406;0,0484385
2943,8047;0,0480099
2944,7690;0,0476174
2945,7332;0,0472671
2946,6975;0,0469603
2947,6616;0,0466932
2948,6260;0,0464575
2949,5901;0,0462434
2950,5544;0,0460417
2951,5186;0,0458457
2952,4829;0,0456509
2953,4470;0,0454537
2954,4114;0,0452511
2955,3755;0,0450409
2956,3398;0,0448224
2957,3040;0,0445965
2958,2683;0,0443651
2959,2324;0,0441282
2960,1968;0,0438833
2961,1609;0,0436258
2962,1252;0,0433518
2963,0894;0,0430608
2964,0537;0,0427561
2965,0178;0,0424443
2965,9822;0,0421324
2966,9463;0,041827
2967,9106;0,0415327
2968,8748;0,0412518
2969,8391;0,0409847
2970,8032;0,0407299
2971,7676;0,0404852
2972,7317;0,0402488
2973,6960;0,0400202
2974,6602;0,0398001
2975,6245;0,0395888
2976,5886;0,0393858
2977,5530;0,03919
2978,5171;0,0390009
2979,4814;0,0388201
2980,4456;0,0386503
2981,4099;0,0384939
2982,3740;0,0383512
2983,3384;0,0382207
2984,3025;0,038101
2985,2668;0,0379925
2986,2310;0,0378979
2987,1953;0,0378201
2988,1594;0,0377597
2989,1238;0,0377142
2990,0879;0,0376786
2991,0522;0,0376475
2992,0164;0,0376172
2992,9807;0,0375868
2993,9448;0,0375577
2994,9092;0,0375335
2995,8733;0,0375192
2996,8376;0,0375198
2997,8018;0,0375392
2998,7661;0,0375782
2999,7302;0,0376341
3000,6946;0,0377005
3001,6587;0,0377697
3002,6230;0,037834
3003,5872;0,0378882
3004,5515;0,0379307
3005,5156;0,037964
3006,4800;0,037994
3007,4441;0,0380268
3008,4084;0,0380662
3009,3726;0,0381103
3010,3369;0,0381523
3011,3010;0,0381837
3012,2654;0,0381992
3013,2295;0,0382014
3014,1938;0,0381999
3015,1580;0,0382074
3016,1223;0,0382345
3017,0864;0,0382853
3018,0508;0,0383573
3019,0149;0,0384441
3019,9792;0,0385387
3020,9434;0,0386356
3021,9077;0,0387318
3022,8718;0,0388265
3023,8362;0,0389212
3024,8003;0,0390196
3025,7646;0,0391269
3026,7288;0,039247
3027,6931;0,0393802
3028,6572;0,0395213
3029,6216;0,0396599
3030,5857;0,0397842
3031,5500;0,0398859
3032,5142;0,0399648
3033,4785;0,0400285
3034,4426;0,0400901
3035,4070;0,0401615
3036,3711;0,0402495
3037,3354;0,0403532
3038,2996;0,040466
3039,2639;0,0405799
3040,2280;0,0406897
3041,1924;0,0407962
3042,1565;0,0409065
3043,1208;0,0410299
3044,0850;0,0411731
3045,0493;0,0413355
3046,0134;0,0415085
3046,9778;0,0416793
3047,9419;0,0418373
3048,9063;0,0419802
3049,8704;0,0421146
3050,8347;0,0422522
3051,7988;0,0424018
3052,7632;0,0425638
3053,7273;0,04273
3054,6917;0,0428889
3055,6558;0,043033
3056,6201;0,0431631
3057,5842;0,0432881
3058,5486;0,0434194
3059,5127;0,043565
3060,4771;0,0437264
3061,4412;0,0438985
3062,4055;0,044072
3063,3696;0,044236
3064,3340;0,0443808
3065,2981;0,0445001
3066,2625;0,0445943
3067,2266;0,0446713
3068,1909;0,0447449
3069,1550;0,0448298
3070,1194;0,0449361
3071,0835;0,0450652
3072,0479;0,0452106
3073,0120;0,0453628
3073,9763;0,0455145
3074,9404;0,0456635
3075,9048;0,0458118
3076,8689;0,0459612
3077,8333;0,0461103
3078,7974;0,0462545
3079,7617;0,046389
3080,7258;0,0465123
3081,6902;0,0466271
3082,6543;0,0467385
3083,6187;0,0468501
3084,5828;0,0469626
3085,5471;0,0470747
3086,5112;0,0471859
3087,4756;0,0472984
3088,4397;0,0474168
3089,4041;0,0475456
3090,3682;0,0476873
3091,3325;0,0478405
3092,2966;0,0480014
3093,2610;0,0481657
3094,2251;0,0483305
3095,1895;0,0484949
3096,1536;0,0486589
3097,1179;0,0488224
3098,0820;0,048983
3099,0464;0,0491365
3100,0105;0,0492789
3100,9749;0,0494082
3101,9390;0,0495272
3102,9033;0,0496427
3103,8674;0,049763
3104,8318;0,0498949
3105,7959;0,0500403
3106,7603;0,0501969
3107,7244;0,0503598
3108,6887;0,0505245
3109,6528;0,0506886
3110,6172;0,0508529
3111,5813;0,0510199
3112,5457;0,0511917
3113,5098;0,0513691
3114,4741;0,0515507
3115,4382;0,0517339
3116,4026;0,0519162
3117,3667;0,0520965
3118,3311;0,0522748
3119,2952;0,0524521
3120,2595;0,052629
3121,2236;0,0528049
3122,1880;0,0529786
3123,1521;0,0531488
3124,1165;0,0533147
3125,0806;0,0534768
3126,0449;0,0536363
3127,0090;0,0537956
3127,9734;0,0539581
3128,9375;0,0541275
3129,9019;0,0543072
3130,8660;0,0544983
3131,8303;0,0546989
3132,7944;0,0549045
3133,7588;0,0551089
3134,7229;0,0553071
3135,6873;0,055496
3136,6514;0,0556756
3137,6157;0,0558474
3138,5798;0,056015
3139,5442;0,056183
3140,5083;0,0563565
3141,4727;0,0565401
3142,4368;0,0567368
3143,4011;0,0569468
3144,3652;0,0571676
3145,3296;0,0573952
3146,2937;0,0576247
3147,2581;0,0578515
3148,2222;0,0580711
3149,1865;0,0582803
3150,1506;0,0584776
3151,1150;0,0586642
3152,0791;0,0588435
3153,0435;0,059021
3154,0076;0,059203
3154,9719;0,0593958
3155,9360;0,0596039
3156,9004;0,0598292
3157,8645;0,0600692
3158,8289;0,0603168
3159,7930;0,0605626
3160,7573;0,0607983
3161,7214;0,0610207
3162,6858;0,0612334
3163,6499;0,0614441
3164,6143;0,0616598
3165,5784;0,061883
3166,5427;0,0621107
3167,5068;0,0623374
3168,4712;0,06256
3169,4353;0,0626519
3170,3997;0,0628758
3171,3638;0,0631094
3172,3281;0,0633531
3173,2922;0,0636011
3174,2566;0,0638441
3175,2207;0,0640736
3176,1851;0,0642859
3177,1492;0,064484
3178,1135;0,0646758
3179,0776;0,0648698
3180,0420;0,0650721
3181,0061;0,0652839
3181,9705;0,0655026
3182,9346;0,0657242
3183,8989;0,0659456
3184,8630;0,0661649
3185,8274;0,0663812
3186,7915;0,0665934
3187,7559;0,0668001
3188,7200;0,0670015
3189,6843;0,0672004
3190,6484;0,0674027
3191,6128;0,0676149
3192,5769;0,0678409
3193,5413;0,0680786
3194,5054;0,0683196
3195,4697;0,0685531
3196,4338;0,0687702
3197,3982;0,0689688
3198,3623;0,0691539
3199,3267;0,0693343
3200,2908;0,0695179
3201,2551;0,0697073
3202,2192;0,0699012
3203,1836;0,0700967
3204,1477;0,0702941
3205,1121;0,0704971
3206,0762;0,0707104
3207,0405;0,0709347
3208,0046;0,0711645
3208,9690;0,0713893
3209,9331;0,0716002
3210,8975;0,0717951
3211,8616;0,0719806
3212,8259;0,0721666
3213,7900;0,0723595
3214,7544;0,0725575
3215,7185;0,0727524
3216,6829;0,0729362
3217,6470;0,0731064
3218,6113;0,0732681
3219,5754;0,0734294
3220,5398;0,073597
3221,5039;0,0737731
3222,4683;0,0739582
3223,4324;0,0741527
3224,3967;0,0743587
3225,3608;0,074577
3226,3252;0,0748038
3227,2893;0,0750304
3228,2537;0,0752465
3229,2178;0,0754457
3230,1821;0,0756289
3231,1462;0,0758026
3232,1106;0,0759748
3233,0747;0,0761513
3234,0391;0,0763338
3235,0032;0,076522
3235,9675;0,0767153
3236,9316;0,0769137
3237,8960;0,0771178
3238,8601;0,0773277
3239,8245;0,077543
3240,7886;0,0777615
3241,7529;0,0779793
3242,7170;0,0781906
3243,6814;0,07839
3244,6455;0,0785757
3245,6099;0,0787522
3246,5740;0,0789298
3247,5383;0,0791195
3248,5024;0,0793277
3249,4668;0,0795535
3250,4309;0,0797911
3251,3953;0,0800342
3252,3594;0,080279
3253,3237;0,0805238
3254,2878;0,0807659
3255,2522;0,0809997
3256,2163;0,081219
3257,1807;0,0814214
3258,1448;0,0816117
3259,1091;0,0818001
3260,0732;0,0819974
3261,0376;0,0822084
3262,0017;0,0824309
3262,9661;0,0826587
3263,9302;0,0828863
3264,8945;0,0831116
3265,8586;0,0833353
3266,8230;0,0835567
3267,7871;0,0837735
3268,7515;0,0839821
3269,7156;0,0841794
3270,6799;0,0843638
3271,6440;0,0845331
3272,6084;0,0846838
3273,5725;0,0848116
3274,5369;0,0849148
3275,5010;0,0849979
3276,4653;0,0850711
3277,4294;0,0851464
3278,3938;0,0852319
3279,3579;0,0853275
3280,3223;0,0854265
3281,2864;0,0855183
3282,2507;0,0855938
3283,2148;0,0856484
3284,1792;0,0856832
3285,1433;0,0857044
3286,1077;0,0857216
3287,0718;0,0857439
3288,0361;0,0857768
3289,0002;0,0858184
3289,9646;0,0858599
3290,9287;0,0858894
3291,8931;0,0858981
3292,8572;0,0858851
3293,8215;0,0858574
3294,7856;0,0858257
3295,7500;0,0857979
3296,7141;0,085776
3297,6785;0,0857573
3298,6426;0,0857381
3299,6069;0,0857178
3300,5710;0,085699
3301,5354;0,0856855
3302,4995;0,0856793
3303,4639;0,0856785
3304,4280;0,0856787
3305,3923;0,0856744
3306,3564;0,085662
3307,3208;0,0856407
3308,2849;0,085612
3309,2493;0,0855785
3310,2134;0,0855433
3311,1777;0,0855087
3312,1418;0,0854778
3313,1062;0,0854539
3314,0703;0,0854418
3315,0347;0,0854469
3315,9988;0,0854736
3316,9631;0,0855234
3317,9272;0,0855941
3318,8916;0,0856794
3319,8557;0,0857715
3320,8201;0,0858638
3321,7842;0,0859525
3322,7485;0,0860374
3323,7126;0,0861204
3324,6770;0,0862023
3325,6411;0,0862813
3326,6055;0,0863526
3327,5696;0,0864109
3328,5339;0,0864537
3329,4980;0,0864832
3330,4624;0,0865054
3331,4265;0,0865264
3332,3909;0,0865484
3333,3550;0,0865676
3334,3193;0,0865753
3335,2834;0,0865623
3336,2478;0,0865236
3337,2119;0,0864602
3338,1763;0,0863767
3339,1404;0,0862775
3340,1047;0,0861637
3341,0688;0,0860345
3342,0332;0,0858904
3342,9973;0,0857357
3343,9617;0,0855779
3344,9258;0,0854238
3345,8901;0,0852746
3346,8542;0,0851255
3347,8186;0,0849685
3348,7827;0,0847974
3349,7471;0,0846121
3350,7112;0,0844175
3351,6755;0,084221
3352,6396;0,0840276
3353,6040;0,0838385
3354,5681;0,0836518
3355,5325;0,0834655
3356,4966;0,0832788
3357,4609;0,0830936
3358,4250;0,0829123
3359,3894;0,0827374
3360,3535;0,0825699
3361,3179;0,0824088
3362,2820;0,0822501
3363,2463;0,0820872
3364,2104;0,0819124
3365,1748;0,0817199
3366,1389;0,0815088
3367,1033;0,0812844
3368,0674;0,0810564
3369,0317;0,080834
3369,9958;0,0806224
3370,9602;0,0804215
3371,9243;0,0802282
3372,8887;0,080039
3373,8528;0,0798527
3374,8171;0,0796695
3375,7813;0,0794894
3376,7456;0,0793106
3377,7097;0,0791294
3378,6741;0,0789416
3379,6382;0,0787441
3380,6025;0,0785362
3381,5667;0,0783195
3382,5310;0,0780983
3383,4951;0,0778801
3384,4595;0,0776747
3385,4236;0,0774921
3386,3879;0,0773379
3387,3521;0,0772091
3388,3164;0,0770937
3389,2805;0,0769745
3390,2449;0,0768358
3391,2090;0,0766698
3392,1733;0,0764796
3393,1375;0,0762761
3394,1018;0,0760715
3395,0659;0,0758727
3396,0303;0,0756793
3396,9944;0,0754865
3397,9587;0,0752885
3398,9229;0,0750823
3399,8872;0,0748676
3400,8513;0,0746466
3401,8157;0,0744223
3402,7798;0,0741976
3403,7441;0,073974
3404,7083;0,0737514
3405,6726;0,0735274
3406,6367;0,0732994
3407,6011;0,0730664
3408,5652;0,0728296
3409,5295;0,072592
3410,4937;0,0723557
3411,4580;0,0721214
3412,4221;0,0718899
3413,3865;0,0716644
3414,3506;0,0714512
3415,3149;0,0712562
3416,2791;0,0710795
3417,2434;0,0709093
3418,2075;0,070723
3419,1719;0,0704957
3420,1360;0,0702141
3421,1003;0,0698873
3422,0645;0,0695448
3423,0288;0,0692222
3423,9929;0,0689436
3424,9573;0,0687115
3425,9214;0,0685095
3426,8857;0,068312
3427,8499;0,0680965
3428,8142;0,0678516
3429,7783;0,0675785
3430,7427;0,0672857
3431,7068;0,0669839
3432,6711;0,0666826
3433,6353;0,0663897
3434,5996;0,0661125
3435,5637;0,0658555
3436,5281;0,0656181
3437,4922;0,0653942
3438,4565;0,065175
3439,4207;0,0649547
3440,3850;0,0647334
3441,3491;0,0645151
3442,3135;0,0643009
3443,2776;0,0640835
3444,2419;0,0638471
3445,2061;0,0635748
3446,1704;0,0632592
3447,1345;0,0629099
3448,0989;0,0625499
3449,0630;0,0622042
3450,0273;0,0618881
3450,9915;0,0616052
3451,9558;0,0613519
3452,9199;0,0611224
3453,8843;0,0609088
3454,8484;0,0607005
3455,8127;0,0604847
3456,7769;0,0602514
3457,7412;0,0599976
3458,7053;0,0597295
3459,6697;0,0594581
3460,6338;0,0591929
3461,5981;0,0589362
3462,5623;0,0586821
3463,5266;0,0584208
3464,4907;0,0581436
3465,4551;0,0578476
3466,4192;0,057537
3467,3835;0,0572226
3468,3477;0,0569182
3469,3120;0,0566361
3470,2761;0,0563811
3471,2405;0,0561491
3472,2046;0,0559292
3473,1689;0,055711
3474,1331;0,0554911
3475,0974;0,0552742
3476,0615;0,0550676
3477,0259;0,0548716
3477,9900;0,0546752
3478,9543;0,0544601
3479,9185;0,0542107
3480,8828;0,0539252
3481,8469;0,0536186
3482,8113;0,053313
3483,7754;0,0530234
3484,7397;0,0527482
3485,7039;0,0524741
3486,6682;0,0521887
3487,6323;0,0518917
3488,5967;0,0515978
3489,5608;0,051328
3490,5251;0,0510963
3491,4893;0,0508997
3492,4536;0,0507194
3493,4177;0,0505315
3494,3821;0,0503211
3495,3462;0,0500928
3496,3105;0,0498702
3497,2747;0,04968
3498,2390;0,0495323
3499,2031;0,049409
3500,1675;0,0492696
3501,1316;0,0490688
3502,0959;0,048784
3503,0601;0,0484348
3504,0244;0,0480749
3504,9885;0,0477549
3505,9529;0,0474899
3506,9170;0,0472574
3507,8813;0,0470183
3508,8455;0,0467436
3509,8098;0,0464315
3510,7739;0,0461069
3511,7383;0,0458017
3512,7024;0,0455335
3513,6667;0,0452993
3514,6309;0,0450873
3515,5952;0,044891
3516,5593;0,0447155
3517,5237;0,0445718
3518,4878;0,0444658
3519,4521;0,0443901
3520,4163;0,0443246
3521,3806;0,0442443
3522,3447;0,044129
3523,3091;0,0439687
3524,2732;0,0437613
3525,2375;0,0435047
3526,2017;0,0431934
3527,1660;0,0428254
3528,1301;0,0424146
3529,0945;0,0419967
3530,0586;0,041617
3531,0229;0,0413065
3531,9871;0,0410672
3532,9514;0,0408734
3533,9155;0,0406864
3534,8799;0,0404721
3535,8440;0,0402187
3536,8083;0,0399459
3537,7725;0,0396966
3538,7368;0,0395138
3539,7009;0,0394172
3540,6653;0,039393
3541,6294;0,0393973
3542,5938;0,0393661
3543,5579;0,0392329
3544,5222;0,0389609
3545,4863;0,038576
3546,4507;0,0381623
3547,4148;0,0378063
3548,3792;0,0375396
3549,3433;0,0373303
3550,3076;0,0371169
3551,2717;0,0368492
3552,2361;0,0365184
3553,2002;0,0361605
3554,1646;0,0358302
3555,1287;0,0355618
3556,0930;0,0353559
3557,0571;0,0351973
3558,0215;0,0350821
3558,9856;0,0350287
3559,9500;0,0350641
3560,9141;0,035194
3561,8784;0,0353804
3562,8425;0,0355393
3563,8069;0,0355524
3564,7710;0,0352874
3565,7354;0,0346572
3566,6995;0,0337396
3567,6638;0,0328147
3568,6279;0,0321648
3569,5923;0,0318579
3570,5564;0,0317701
3571,5208;0,0317374
3572,4849;0,0316556
3573,4492;0,0314988
3574,4133;0,0312933
3575,3777;0,0310756
3576,3418;0,0308643
3577,3062;0,0306579
3578,2703;0,0304582
3579,2346;0,0302901
3580,1987;0,0301956
3581,1631;0,0302011
3582,1272;0,0302862
3583,0916;0,03038
3584,0557;0,03038
3585,0200;0,0301788
3585,9841;0,0297115
3586,9485;0,0290435
3587,9126;0,0284018
3588,8770;0,0280186
3589,8411;0,0279399
3590,8054;0,0280355
3591,7695;0,0281357
3592,7339;0,02813
3593,6980;0,0279963
3594,6624;0,0277859
3595,6265;0,0275726
3596,5908;0,0273892
3597,5549;0,0272035
3598,5193;0,0269583
3599,4834;0,0266366
3600,4478;0,0262934
3601,4119;0,0260213
3602,3762;0,025877
3603,3403;0,0258383
3604,3047;0,0258259
3605,2688;0,0257531
3606,2332;0,025568
3607,1973;0,0252778
3608,1616;0,0249538
3609,1257;0,0246953
3610,0901;0,0245684
3611,0542;0,0245733
3612,0186;0,0246601
3612,9827;0,024762
3613,9470;0,0248156
3614,9111;0,024763
3615,8755;0,0245487
3616,8396;0,0241277
3617,8040;0,0235004
3618,7681;0,0227697
3619,7324;0,0221528
3620,6965;0,0218663
3621,6609;0,0219643
3622,6250;0,0223113
3623,5894;0,0226881
3624,5535;0,0228976
3625,5178;0,0228058
3626,4819;0,0223397
3627,4463;0,0215091
3628,4104;0,0205085
3629,3748;0,0197239
3630,3389;0,0194192
3631,3032;0,0195001
3632,2673;0,0196862
3633,2317;0,0197634
3634,1958;0,0196746
3635,1602;0,0194853
3636,1243;0,0192979
3637,0886;0,0191755
3638,0527;0,0191184
3639,0171;0,0190988
3639,9812;0,019109
3640,9456;0,0191772
3641,9097;0,0193418
3642,8740;0,0196112
3643,8381;0,0199481
3644,8025;0,0202814
3645,7666;0,020506
3646,7310;0,0204361
3647,6951;0,0197965
3648,6594;0,018531
3649,6235;0,017188
3650,5879;0,0164338
3651,5520;0,0163412
3652,5164;0,0165498
3653,4805;0,0166989
3654,4448;0,0166095
3655,4089;0,0162981
3656,3733;0,0159228
3657,3374;0,0156658
3658,3018;0,0155988
3659,2659;0,0156555
3660,2302;0,0157283
3661,1943;0,0157726
3662,1587;0,0158293
3663,1228;0,0159649
3664,0872;0,0161909
3665,0513;0,0164409
3666,0156;0,0166151
3666,9797;0,0166453
3667,9441;0,0165342
3668,9082;0,0163632
3669,8726;0,0162583
3670,8367;0,0162888
3671,8010;0,0163816
3672,7651;0,0163666
3673,7295;0,0160935
3674,6936;0,0155344
3675,6580;0,0148606
3676,6221;0,0143729
3677,5864;0,0142345
3678,5505;0,01435
3679,5149;0,0145335
3680,4790;0,0146846
3681,4434;0,014818
3682,4075;0,0149931
3683,3718;0,0152334
3684,3359;0,0154979
3685,3003;0,0157101
3686,2644;0,0157994
3687,2288;0,0157113
3688,1929;0,0154097
3689,1572;0,0149431
3690,1213;0,0144962
3691,0857;0,0142535
3692,0498;0,0142399
3693,0142;0,0143632
3693,9783;0,0145296
3694,9426;0,0146904
3695,9067;0,0148261
3696,8711;0,0149183
3697,8352;0,0149399
3698,7996;0,0148661
3699,7637;0,014698
3700,7280;0,0144851
3701,6921;0,0143272
3702,6565;0,0143315
3703,6206;0,014543
3704,5850;0,0149137
3705,5491;0,0153375
3706,5134;0,0157036
3707,4775;0,0159204
3708,4419;0,0159025
3709,4060;0,0155665
3710,3704;0,0149146
3711,3345;0,0141659
3712,2988;0,0136692
3713,2629;0,0136053
3714,2273;0,0138888
3715,1914;0,0143185
3716,1558;0,0147275
3717,1199;0,0150365
3718,0842;0,0152438
3719,0483;0,015389
3720,0127;0,0155114
3720,9768;0,0156186
3721,9412;0,0156807
3722,9053;0,0156573
3723,8696;0,01554
3724,8337;0,0153817
3725,7981;0,0152781
3726,7622;0,0153059
3727,7266;0,0154765
3728,6907;0,0157458
3729,6550;0,016056
3730,6191;0,01636
3731,5835;0,0166031
3732,5476;0,0166787
3733,5120;0,0164339
3734,4761;0,0158298
3735,4404;0,0151341
3736,4045;0,014771
3737,3689;0,0149224
3738,3330;0,0154145
3739,2974;0,0159166
3740,2615;0,0161437
3741,2258;0,0159541
3742,1899;0,0153926
3743,1543;0,0147097
3744,1184;0,014293
3745,0828;0,0144188
3746,0469;0,0150066
3747,0112;0,0156905
3747,9753;0,016075
3748,9397;0,0158995
3749,9038;0,015146
3750,8682;0,0141681
3751,8323;0,0135412
3752,7966;0,0135508
3753,7607;0,0140097
3754,7251;0,0145543
3755,6892;0,0149106
3756,6536;0,0149642
3757,6177;0,0147473
3758,5820;0,0144085
3759,5461;0,0141393
3760,5105;0,0140606
3761,4746;0,0141649
3762,4390;0,0143619
3763,4031;0,0145537
3764,3674;0,0146754
3765,3315;0,0146972
3766,2959;0,0146104
3767,2600;0,0144174
3768,2244;0,0141346
3769,1885;0,013811
3770,1528;0,0135367
3771,1169;0,0134113
3772,0813;0,013483
3773,0454;0,0137144
3774,0098;0,0140071
3774,9739;0,0142538
3775,9382;0,0143787
3776,9023;0,0143573
3777,8667;0,0142229
3778,8308;0,0140607
3779,7952;0,0139669
3780,7593;0,0139851
3781,7236;0,0140822
3782,6877;0,0141809
3783,6521;0,0142115
3784,6162;0,0141459
3785,5806;0,0140074
3786,5447;0,0138551
3787,5090;0,0137518
3788,4731;0,013734
3789,4375;0,0138005
3790,4016;0,0139224
3791,3660;0,014067
3792,3301;0,0142214
3793,2944;0,0144015
3794,2585;0,014637
3795,2229;0,0149368
3796,1870;0,0152599
3797,1514;0,0155174
3798,1155;0,0156088
3799,0798;0,0154737
3800,0439;0,0151401
3801,0083;0,0147408
3801,9724;0,0144416
3802,9368;0,0142998
3803,9009;0,0142136
3804,8652;0,0140275
3805,8293;0,0136839
3806,7937;0,0133021
3807,7578;0,0131158
3808,7222;0,0132797
3809,6863;0,0137324
3810,6506;0,0142603
3811,6147;0,0146601
3812,5791;0,0148466
3813,5432;0,0148728
3814,5076;0,0148807
3815,4717;0,0150007
3816,4360;0,0152464
3817,4001;0,0154879
3818,3645;0,0155341
3819,3286;0,0152635
3820,2930;0,0147378
3821,2571;0,0142096
3822,2214;0,0139442
3823,1855;0,0140078
3824,1499;0,0142635
3825,1140;0,0145252
3826,0784;0,014679
3827,0425;0,0147141
3828,0068;0,0146909
3828,9709;0,0146878
3829,9353;0,0147559
3830,8994;0,0149031
3831,8638;0,0151037
3832,8279;0,0153168
3833,7922;0,0155005
3834,7563;0,0156189
3835,7207;0,0156428
3836,6848;0,015552
3837,6492;0,0153485
3838,6133;0,0150733
3839,5776;0,0147879
3840,5417;0,0145267
3841,5061;0,0142862
3842,4702;0,0140728
3843,4346;0,0139454
3844,3987;0,014001
3845,3630;0,0143076
3846,3271;0,0148416
3847,2915;0,015482
3848,2556;0,0160554
3849,2200;0,0163873
3850,1841;0,0163224
3851,1484;0,0157223
3852,1125;0,0145431
3853,0769;0,0131223
3854,0410;0,0122087
3855,0054;0,0122279
3855,9695;0,0129206
3856,9338;0,0138067
3857,8979;0,0145628
3858,8623;0,0150698
3859,8264;0,0153406
3860,7908;0,0154437
3861,7549;0,0154486
3862,7192;0,0154053
3863,6833;0,0153535
3864,6477;0,015325
3865,6118;0,0153244
3866,5762;0,0153248
3867,5403;0,0152881
3868,5046;0,0151847
3869,4688;0,0150016
3870,4331;0,0147531
3871,3972;0,0144896
3872,3616;0,0142837
3873,3257;0,0141905
3874,2900;0,0142195
3875,2542;0,0143385
3876,2185;0,0144998
3877,1826;0,0146665
3878,1470;0,0148234
3879,1111;0,0149678
3880,0754;0,0150856
3881,0396;0,0151377
3882,0039;0,0150694
3882,9680;0,0148497
3883,9324;0,014518
3884,8965;0,0141969
3885,8608;0,0140301
3886,8250;0,0140776
3887,7893;0,0142678
3888,7534;0,0144521
3889,7178;0,0145064
3890,6819;0,0144108
3891,6462;0,0142735
3892,6104;0,0142575
3893,5747;0,0144427
3894,5388;0,0147683
3895,5032;0,0151059
3896,4673;0,0153585
3897,4316;0,0154989
3898,3958;0,0155471
3899,3601;0,0155253
3900,3242;0,0154236
3901,2886;0,015205
3902,2527;0,0148487
3903,2170;0,0144012
3904,1812;0,01398
3905,1455;0,0137015
3906,1096;0,0136024
3907,0740;0,0136351
3908,0381;0,0137249
3909,0024;0,0138232
3909,9666;0,0139233
3910,9309;0,0140437
3911,8950;0,0141982
3912,8594;0,0143742
3913,8235;0,0145316
3914,7878;0,01462
3915,7520;0,014607
3916,7163;0,014508
3917,6804;0,0143931
3918,6448;0,0143473
3919,6089;0,0144087
3920,5732;0,014541
3921,5374;0,0146648
3922,5017;0,0147108
3923,4658;0,0146647
3924,4302;0,0145783
3925,3943;0,0145349
3926,3586;0,0145859
3927,3228;0,0147137
3928,2871;0,0148468
3929,2512;0,0149019
3930,2156;0,0148271
3931,1797;0,0146315
3932,1440;0,0143858
3933,1082;0,0141818
3934,0725;0,0140774
3935,0366;0,0140773
3936,0010;0,0141523
3936,9651;0,0142664
3937,9294;0,0143887
3938,8936;0,0144933
3939,8579;0,0145587
3940,8220;0,0145751
3941,7864;0,0145559
3942,7505;0,0145379
3943,7148;0,0145592
3944,6790;0,0146293
3945,6433;0,0147184
3946,6074;0,0147741
3947,5718;0,0147518
3948,5359;0,0146417
3949,5002;0,014477
3950,4644;0,0143141
3951,4287;0,0141973
3952,3928;0,0141399
3953,3572;0,0141304
3954,3213;0,0141509
3955,2856;0,0141883
3956,2498;0,0142341
3957,2141;0,0142781
3958,1782;0,0143061
3959,1426;0,0143049
3960,1067;0,0142707
3961,0710;0,0142144
3962,0352;0,0141571
3962,9995;0,0141189
3963,9636;0,014108
3964,9280;0,0141187
3965,8921;0,0141381
3966,8564;0,0141567
3967,8206;0,0141743
3968,7849;0,0141977
3969,7490;0,0142328
3970,7134;0,0142772
3971,6775;0,0143177
3972,6418;0,0143366
3973,6060;0,0143219
3974,5703;0,014276
3975,5344;0,0142154
3976,4988;0,0141616
3977,4629;0,0141292
3978,4272;0,0141183
3979,3914;0,0141166
3980,3557;0,014109
3981,3198;0,0140882
3982,2842;0,0140597
3983,2483;0,0140385
3984,2126;0,0140388
3985,1768;0,0140641
3986,1411;0,0141054
3987,1052;0,0141464
3988,0696;0,0141725
3989,0337;0,0141789
3989,9980;0,0141701
3990,9622;0,014155
3991,9265;0,0141404
3992,8906;0,0141271
3993,8550;0,0141127
3994,8191;0,0140949
3995,7834;0,0140746
3996,7476;0,0140552
3997,7119;0,01404
3998,6760;0,0140311
3999,6404;0,0140296
4000,6045;0,0142707

##### Extended Information
[Comments]
Sample name
Comment
Username
Division
Organization;UNIVERSIDAD INDUSTRIAL DE SANTANDER

[Detailed Information]
Creation date;19/03/2025 6:07 p.m.

Data array type;Linear data array
Horizontal axis;Wavenumber [cm-1]
Vertical axis;Abs
Start;399,193 cm-1
End;4000,6 cm-1
Data interval;0,964233 cm-1
Data points;3736    

[Measurement Information]
Model name;FT/IR-4X1typeA
Serial No.;A035162111

Accessory;ATR PRO 4X
Accessory S/N;A021162126
Incident angle;45 deg

Measurement date;19/03/2025 6:04 p.m.

Light source;Standard
Detector;TGS
Accumulation;40
Resolution;4 cm-1
Zero filling;On
Apodization;Cosine
Gain;Auto (8)
Aperture;Auto (7 mm)
Scan speed;Auto (2 mm/sec)
Filter;Auto (12800 Hz)

