TITLE;
DATA TYPE;INFRARED SPECTRUM
ORIGIN;JASCO
OWNER;
DATE;25/03/14
TIME;10:30:21
SPECTROMETER/DATA SYSTEM;
LOCALE;9226
RESOLUTION;
DELTAX;0,964233
XUNITS;1/CM
YUNITS;ABSORBANCE
FIRSTX;  399,1927
LASTX; 4000,6047
NPOINTS;    3736
FIRSTY;     0,15852
MAXY;     0,25208
MINY;     0,01394
XYDATA
399,1927;0,158518
400,1569;0,158809
401,1211;0,159291
402,0854;0,159699
403,0496;0,159938
404,0138;0,160074
404,9781;0,160246
405,9423;0,160563
406,9065;0,161009
407,8708;0,161449
408,8350;0,161754
409,7992;0,161947
410,7635;0,162245
411,7277;0,162941
412,6919;0,164181
413,6562;0,165857
414,6204;0,167664
415,5846;0,169224
416,5489;0,17016
417,5131;0,170201
418,4773;0,169469
419,4416;0,168663
420,4058;0,168576
421,3700;0,16942
422,3343;0,170893
423,2985;0,172562
424,2627;0,174031
425,2270;0,175007
426,1912;0,175367
427,1554;0,17521
428,1197;0,174801
429,0839;0,174435
430,0481;0,174305
431,0124;0,174441
431,9766;0,174721
432,9408;0,174968
433,9051;0,175053
434,8693;0,174966
435,8335;0,174803
436,7978;0,174676
437,7620;0,174637
438,7262;0,174665
439,6905;0,17471
440,6547;0,174746
441,6189;0,174776
442,5832;0,174795
443,5474;0,174745
444,5116;0,174535
445,4759;0,174108
446,4401;0,173512
447,4043;0,172883
448,3686;0,172367
449,3328;0,172043
450,2970;0,171881
451,2613;0,171772
452,2255;0,171612
453,1897;0,17137
454,1540;0,171107
455,1182;0,170933
456,0824;0,170946
457,0467;0,171163
458,0109;0,1715
458,9751;0,171803
459,9394;0,171934
460,9036;0,171835
461,8678;0,171516
462,8321;0,171027
463,7963;0,170446
464,7605;0,169874
465,7248;0,169411
466,6890;0,169113
467,6532;0,16896
468,6175;0,168876
469,5817;0,168774
470,5459;0,168628
471,5102;0,168508
472,4744;0,168548
473,4386;0,168846
474,4029;0,169369
475,3671;0,169948
476,3313;0,170375
477,2956;0,170494
478,2598;0,170277
479,2240;0,169829
480,1883;0,169347
481,1525;0,169043
482,1167;0,169058
483,0810;0,169414
484,0452;0,17002
485,0094;0,170718
485,9737;0,171368
486,9379;0,1719
487,9021;0,172329
488,8664;0,172714
489,8306;0,173114
490,7948;0,173547
491,7591;0,173962
492,7233;0,174262
493,6875;0,17435
494,6518;0,174203
495,6160;0,173904
496,5802;0,173627
497,5445;0,173564
498,5087;0,173846
499,4729;0,174485
500,4372;0,175361
501,4014;0,176274
502,3656;0,177042
503,3299;0,177605
504,2941;0,178038
505,2583;0,178471
506,2226;0,178981
507,1868;0,179538
508,1510;0,180024
509,1153;0,180325
510,0795;0,180406
511,0437;0,180351
512,0080;0,180314
512,9722;0,180449
513,9365;0,180859
514,9007;0,181563
515,8649;0,1825
516,8292;0,183538
517,7934;0,184503
518,7576;0,185233
519,7219;0,18564
520,6861;0,185734
521,6503;0,1856
522,6146;0,185355
523,5788;0,185113
524,5430;0,184971
525,5073;0,18498
526,4715;0,185124
527,4357;0,185324
528,4000;0,185471
529,3642;0,185484
530,3284;0,18534
531,2927;0,185074
532,2569;0,184755
533,2211;0,184455
534,1854;0,184205
535,1496;0,18399
536,1138;0,183771
537,0781;0,183528
538,0423;0,183289
539,0065;0,183124
539,9708;0,183109
540,9350;0,183273
541,8992;0,183584
542,8635;0,183967
543,8277;0,184343
544,7919;0,184663
545,7562;0,184929
546,7204;0,185172
547,6846;0,185432
548,6489;0,185734
549,6131;0,186086
550,5773;0,186488
551,5416;0,186941
552,5058;0,187449
553,4700;0,18801
554,4343;0,188608
555,3985;0,189199
556,3627;0,189706
557,3270;0,190027
558,2912;0,190059
559,2554;0,189732
560,2197;0,189051
561,1839;0,188099
562,1481;0,18702
563,1124;0,185957
564,0766;0,185
565,0408;0,184162
566,0051;0,183404
566,9693;0,182687
567,9335;0,18201
568,8978;0,181409
569,8620;0,180933
570,8262;0,180598
571,7905;0,18038
572,7547;0,180229
573,7189;0,180097
574,6832;0,179957
575,6474;0,179801
576,6116;0,179639
577,5759;0,179486
578,5401;0,179356
579,5043;0,179254
580,4686;0,179169
581,4328;0,179078
582,3970;0,178952
583,3613;0,178775
584,3255;0,17856
585,2897;0,178342
586,2540;0,17817
587,2182;0,178082
588,1824;0,178096
589,1467;0,178203
590,1109;0,178368
591,0751;0,178535
592,0394;0,178626
593,0036;0,178569
593,9678;0,178317
594,9321;0,177879
595,8963;0,177314
596,8605;0,176708
597,8248;0,176146
598,7890;0,175678
599,7532;0,17531
600,7175;0,175009
601,6817;0,174724
602,6459;0,174418
603,6102;0,174073
604,5744;0,173695
605,5386;0,173296
606,5029;0,172887
607,4671;0,172465
608,4313;0,172022
609,3956;0,171558
610,3598;0,17109
611,3240;0,170654
612,2883;0,170289
613,2525;0,170001
614,2167;0,169747
615,1810;0,169428
616,1452;0,16893
617,1094;0,16817
618,0737;0,167146
619,0379;0,165933
620,0021;0,164634
620,9664;0,163332
621,9306;0,16207
622,8948;0,160872
623,8591;0,159766
624,8233;0,158766
625,7875;0,157939
626,7518;0,15727
627,7160;0,156708
628,6802;0,156173
629,6445;0,155606
630,6087;0,154983
631,5729;0,154318
632,5372;0,153645
633,5014;0,152994
634,4656;0,152382
635,4299;0,151814
636,3941;0,151292
637,3583;0,150818
638,3226;0,150391
639,2868;0,150006
640,2510;0,149656
641,2153;0,149337
642,1795;0,149052
643,1437;0,148809
644,1080;0,148609
645,0722;0,148438
646,0364;0,148267
647,0007;0,148065
647,9649;0,147817
648,9291;0,147541
649,8934;0,147281
650,8576;0,147085
651,8218;0,146977
652,7861;0,146948
653,7503;0,146969
654,7145;0,147008
655,6788;0,147055
656,6430;0,147118
657,6072;0,147213
658,5715;0,147329
659,5357;0,147415
660,4999;0,14738
661,4642;0,147138
662,4284;0,146645
663,3926;0,145908
664,3569;0,144988
665,3211;0,144042
666,2853;0,143339
667,2496;0,143095
668,2138;0,143095
669,1780;0,142791
670,1423;0,142062
671,1065;0,141126
672,0707;0,140043
673,0350;0,138752
673,9992;0,137245
674,9634;0,135604
675,9277;0,133947
676,8919;0,132367
677,8561;0,130894
678,8204;0,129522
679,7846;0,128248
680,7488;0,127087
681,7131;0,126066
682,6773;0,125181
683,6415;0,124395
684,6058;0,123651
685,5700;0,122899
686,5342;0,122118
687,4985;0,121324
688,4627;0,120569
689,4269;0,119903
690,3912;0,119359
691,3554;0,118928
692,3196;0,118562
693,2839;0,118194
694,2481;0,117783
695,2123;0,11733
696,1766;0,116873
697,1408;0,116452
698,1050;0,116072
699,0693;0,1157
700,0335;0,115289
700,9977;0,114812
701,9620;0,114279
702,9262;0,113729
703,8904;0,11319
704,8547;0,112672
705,8189;0,11216
706,7831;0,111631
707,7474;0,111072
708,7116;0,110495
709,6758;0,10992
710,6401;0,109362
711,6043;0,108817
712,5685;0,108276
713,5328;0,107728
714,4970;0,107179
715,4612;0,106227
716,4255;0,10579
717,3897;0,105379
718,3539;0,104924
719,3182;0,104344
720,2824;0,10359
721,2466;0,102681
722,2109;0,101691
723,1751;0,100708
724,1393;0,0997898
725,1036;0,0989517
726,0678;0,0981791
727,0320;0,0974475
727,9963;0,096737
728,9605;0,0960363
729,9247;0,0953418
730,8890;0,0946571
731,8532;0,0939938
732,8174;0,0933698
733,7817;0,0928019
734,7459;0,0922969
735,7101;0,0918477
736,6744;0,0914369
737,6386;0,0910444
738,6028;0,0906545
739,5671;0,0902563
740,5313;0,0898413
741,4955;0,0894019
742,4598;0,0889329
743,4240;0,0884358
744,3882;0,0879184
745,3525;0,0873924
746,3167;0,0868678
747,2809;0,0863506
748,2452;0,085843
749,2094;0,0853472
750,1736;0,0848658
751,1379;0,0844006
752,1021;0,0839498
753,0663;0,0835067
754,0306;0,083062
754,9948;0,0826083
755,9590;0,0821441
756,9233;0,0816752
757,8875;0,0812131
758,8517;0,0807712
759,8160;0,0803612
760,7802;0,0799898
761,7444;0,0796569
762,7087;0,0793547
763,6729;0,0790678
764,6371;0,0787765
765,6014;0,078462
766,5656;0,0781134
767,5298;0,077733
768,4941;0,0773372
769,4583;0,07695
770,4225;0,0765933
771,3868;0,0762758
772,3510;0,0759893
773,3152;0,0757126
774,2795;0,0754236
775,2437;0,0751114
776,2079;0,0747823
777,1722;0,0744571
778,1364;0,0741598
779,1006;0,0739048
780,0649;0,0736885
781,0291;0,0734898
781,9933;0,0732775
782,9576;0,0730224
783,9218;0,0727091
784,8860;0,0723427
785,8503;0,0719485
786,8145;0,0715641
787,7787;0,0712248
788,7430;0,0709508
789,7072;0,0707398
790,6714;0,0705709
791,6357;0,070417
792,5999;0,0702585
793,5641;0,0700904
794,5284;0,0699202
795,4926;0,0697575
796,4568;0,0696066
797,4211;0,0694647
798,3853;0,0693271
799,3495;0,0691933
800,3138;0,0690671
801,2780;0,0689529
802,2422;0,0688501
803,2065;0,0687526
804,1707;0,0686535
805,1349;0,06855
806,0992;0,0684449
807,0634;0,0683433
808,0276;0,0682464
808,9919;0,0681506
809,9561;0,0680498
810,9203;0,0679406
811,8846;0,0678233
812,8488;0,0677002
813,8130;0,0675713
814,7773;0,067434
815,7415;0,0672865
816,7057;0,0671318
817,6700;0,0669797
818,6342;0,0668415
819,5984;0,0667248
820,5627;0,0666291
821,5269;0,0665478
822,4911;0,0664733
823,4554;0,0664006
824,4196;0,0663274
825,3839;0,0662517
826,3481;0,0661691
827,3123;0,0660745
828,2766;0,0659647
829,2408;0,0658398
830,2050;0,0657018
831,1693;0,0655516
832,1335;0,0653872
833,0977;0,0652061
834,0620;0,0650098
835,0262;0,0648055
835,9904;0,0646028
836,9547;0,0644064
837,9189;0,0642108
838,8831;0,064001
839,8474;0,0637609
840,8116;0,0634844
841,7758;0,0631829
842,7401;0,0628829
843,7043;0,062617
844,6685;0,0624106
845,6328;0,062273
846,5970;0,0621948
847,5612;0,0621539
848,5255;0,0621235
849,4897;0,0620817
850,4539;0,0620169
851,4182;0,061929
852,3824;0,061827
853,3466;0,061725
854,3109;0,0616359
855,2751;0,0615675
856,2393;0,0615197
857,2036;0,0614859
858,1678;0,061458
859,1320;0,0614313
860,0963;0,0614077
861,0605;0,0613938
862,0247;0,0613956
862,9890;0,061413
863,9532;0,0614398
864,9174;0,0614698
865,8817;0,0615052
866,8459;0,06156
867,8101;0,0616542
868,7744;0,061801
869,7386;0,061995
870,7028;0,062212
871,6671;0,0624191
872,6313;0,0625922
873,5955;0,0627267
874,5598;0,0628364
875,5240;0,0629414
876,4882;0,0630555
877,4525;0,063181
878,4167;0,063315
879,3809;0,0634598
880,3452;0,0636296
881,3094;0,0638488
882,2736;0,0641432
883,2379;0,0645313
884,2021;0,0650197
885,1663;0,0656038
886,1306;0,0662716
887,0948;0,0670073
888,0590;0,0677942
889,0233;0,0686165
889,9875;0,0694604
890,9517;0,0703134
891,9160;0,07116
892,8802;0,0719771
893,8444;0,0727298
894,8087;0,0733735
895,7729;0,0738607
896,7371;0,0741512
897,7014;0,0742211
898,6656;0,0740676
899,6298;0,0737093
900,5941;0,0731818
901,5583;0,0725329
902,5225;0,0718147
903,4868;0,0710769
904,4510;0,0703595
905,4152;0,0696893
906,3795;0,0690797
907,3437;0,0685345
908,3079;0,0680538
909,2722;0,0676392
910,2364;0,0672961
911,2007;0,0670332
912,1649;0,0668586
913,1292;0,066776
914,0934;0,0667803
915,0576;0,0668574
916,0219;0,0669867
916,9861;0,0671464
917,9503;0,0673195
918,9146;0,0674968
919,8788;0,0676763
920,8430;0,0678599
921,8073;0,0680497
922,7715;0,0682472
923,7357;0,0684524
924,7000;0,0686645
925,6642;0,0688811
926,6284;0,0690976
927,5927;0,0693077
928,5569;0,0695063
929,5211;0,0696925
930,4854;0,069871
931,4496;0,07005
932,4138;0,0702381
933,3781;0,0704418
934,3423;0,0706661
935,3065;0,0709173
936,2708;0,071203
937,2350;0,0715308
938,1992;0,0719046
939,1635;0,0723244
940,1277;0,0727885
941,0919;0,073299
942,0562;0,0738631
943,0204;0,07449
943,9846;0,0751843
944,9489;0,0759417
945,9131;0,0767523
946,8773;0,077608
947,8416;0,0785106
948,8058;0,0794728
949,7700;0,0805122
950,7343;0,0816417
951,6985;0,082863
952,6627;0,0841674
953,6270;0,0855423
954,5912;0,0869775
955,5554;0,0884688
956,5197;0,0900165
957,4839;0,091622
958,4481;0,0932842
959,4124;0,0949994
960,3766;0,0967613
961,3408;0,0985624
962,3051;0,100394
963,2693;0,102247
964,2335;0,104112
965,1978;0,10598
966,1620;0,107848
967,1262;0,109722
968,0905;0,111619
969,0547;0,113572
970,0189;0,115621
970,9832;0,117809
971,9474;0,120175
972,9116;0,122748
973,8759;0,125542
974,8401;0,128564
975,8043;0,131812
976,7686;0,135282
977,7328;0,138966
978,6970;0,142847
979,6613;0,146886
980,6255;0,151016
981,5897;0,155133
982,5540;0,159106
983,5182;0,162799
984,4824;0,166102
985,4467;0,168956
986,4109;0,171368
987,3751;0,173397
988,3394;0,175129
989,3036;0,176646
990,2678;0,178003
991,2321;0,179225
992,1963;0,180322
993,1605;0,181306
994,1248;0,182206
995,0890;0,183062
996,0532;0,183923
997,0175;0,18482
997,9817;0,185764
998,9459;0,186746
999,9102;0,187745
1000,8744;0,188747
1001,8386;0,189758
1002,8029;0,190803
1003,7671;0,19192
1004,7313;0,193153
1005,6956;0,194538
1006,6598;0,196107
1007,6240;0,197888
1008,5883;0,199908
1009,5525;0,20218
1010,5167;0,2047
1011,4810;0,207434
1012,4452;0,21032
1013,4094;0,213276
1014,3737;0,216229
1015,3379;0,21912
1016,3021;0,22192
1017,2664;0,224619
1018,2306;0,227215
1019,1948;0,229706
1020,1591;0,232087
1021,1233;0,23436
1022,0875;0,236539
1023,0518;0,238646
1024,0160;0,240705
1024,9802;0,242724
1025,9445;0,244688
1026,9087;0,246557
1027,8729;0,248274
1028,8372;0,249766
1029,8014;0,250956
1030,7656;0,251756
1031,7299;0,252078
1032,6941;0,251842
1033,6583;0,250997
1034,6226;0,249549
1035,5868;0,24758
1036,5510;0,245241
1037,5153;0,242736
1038,4795;0,240287
1039,4437;0,238088
1040,4080;0,236277
1041,3722;0,234919
1042,3364;0,234005
1043,3007;0,233468
1044,2649;0,233201
1045,2291;0,233083
1046,1934;0,233
1047,1576;0,232854
1048,1218;0,232576
1049,0861;0,232113
1050,0503;0,231426
1051,0145;0,230487
1051,9788;0,229281
1052,9430;0,227808
1053,9072;0,226085
1054,8715;0,224136
1055,8357;0,221969
1056,7999;0,21956
1057,7642;0,21685
1058,7284;0,213771
1059,6926;0,210276
1060,6569;0,206382
1061,6211;0,202181
1062,5853;0,197824
1063,5496;0,193484
1064,5138;0,189312
1065,4780;0,185412
1066,4423;0,181831
1067,4065;0,178572
1068,3707;0,175609
1069,3350;0,172903
1070,2992;0,170405
1071,2634;0,168066
1072,2277;0,165834
1073,1919;0,16366
1074,1561;0,161501
1075,1204;0,15933
1076,0846;0,157136
1077,0488;0,15493
1078,0131;0,15274
1078,9773;0,150609
1079,9415;0,148584
1080,9058;0,146707
1081,8700;0,145011
1082,8342;0,143517
1083,7985;0,142227
1084,7627;0,14113
1085,7269;0,140205
1086,6912;0,139419
1087,6554;0,138738
1088,6196;0,138136
1089,5839;0,137598
1090,5481;0,137128
1091,5123;0,136742
1092,4766;0,13646
1093,4408;0,136295
1094,4050;0,136247
1095,3693;0,136308
1096,3335;0,136464
1097,2977;0,136702
1098,2620;0,137008
1099,2262;0,137364
1100,1904;0,137748
1101,1547;0,138128
1102,1189;0,13847
1103,0831;0,138737
1104,0474;0,138899
1105,0116;0,138933
1105,9758;0,138825
1106,9401;0,138572
1107,9043;0,138173
1108,8685;0,137623
1109,8328;0,136906
1110,7970;0,135996
1111,7612;0,134866
1112,7255;0,133506
1113,6897;0,131944
1114,6539;0,130248
1115,6182;0,128513
1116,5824;0,126835
1117,5466;0,125285
1118,5109;0,123885
1119,4751;0,122609
1120,4393;0,121391
1121,4036;0,120146
1122,3678;0,118794
1123,3320;0,117271
1124,2963;0,115545
1125,2605;0,113615
1126,2247;0,111506
1127,1890;0,109258
1128,1532;0,106918
1129,1174;0,104533
1130,0817;0,102143
1131,0459;0,0997842
1132,0101;0,0974867
1132,9744;0,0952784
1133,9386;0,0931879
1134,9028;0,0912478
1135,8671;0,0894954
1136,8313;0,0879693
1137,7955;0,0867021
1138,7598;0,0857116
1139,7240;0,0849952
1140,6882;0,0845292
1141,6525;0,0842759
1142,6167;0,084193
1143,5809;0,0842425
1144,5452;0,0843963
1145,5094;0,0846376
1146,4736;0,0849598
1147,4379;0,0853644
1148,4021;0,0858573
1149,3663;0,0864438
1150,3306;0,0871221
1151,2948;0,0878772
1152,2590;0,0886786
1153,2233;0,0894838
1154,1875;0,0902445
1155,1517;0,0909128
1156,1160;0,0914431
1157,0802;0,0917888
1158,0444;0,0918966
1159,0087;0,0917047
1159,9729;0,0911461
1160,9371;0,0901607
1161,9014;0,0887095
1162,8656;0,0867876
1163,8298;0,0844299
1164,7941;0,0817099
1165,7583;0,0787311
1166,7225;0,0756146
1167,6868;0,0724844
1168,6510;0,0694523
1169,6152;0,0666053
1170,5795;0,0639972
1171,5437;0,0616488
1172,5079;0,0595549
1173,4722;0,0576967
1174,4364;0,0560541
1175,4006;0,0546117
1176,3649;0,0533604
1177,3291;0,0522925
1178,2933;0,0513979
1179,2576;0,050661
1180,2218;0,050062
1181,1860;0,0495801
1182,1503;0,0491966
1183,1145;0,0488969
1184,0787;0,0486706
1185,0430;0,0485112
1186,0072;0,0484162
1186,9714;0,0483874
1187,9357;0,0484313
1188,8999;0,0485574
1189,8641;0,0487745
1190,8284;0,0490874
1191,7926;0,0494941
1192,7568;0,0499864
1193,7211;0,0505531
1194,6853;0,0511828
1195,6495;0,0518646
1196,6138;0,052587
1197,5780;0,0533362
1198,5422;0,0540966
1199,5065;0,0547226
1200,4707;0,0554848
1201,4349;0,0562343
1202,3992;0,0569708
1203,3634;0,0576908
1204,3276;0,0583849
1205,2919;0,0590403
1206,2561;0,0596489
1207,2203;0,060216
1208,1846;0,0607628
1209,1488;0,0613223
1210,1130;0,0619286
1211,0773;0,0626068
1212,0415;0,0633662
1213,0057;0,0642001
1213,9700;0,0650903
1214,9342;0,0660134
1215,8984;0,0669467
1216,8627;0,067872
1217,8269;0,0687772
1218,7911;0,0696579
1219,7554;0,0705138
1220,7196;0,0713445
1221,6838;0,0721457
1222,6481;0,072909
1223,6123;0,0736251
1224,5765;0,0742876
1225,5408;0,0748958
1226,5050;0,0754538
1227,4692;0,0759668
1228,4335;0,076438
1229,3977;0,0768672
1230,3619;0,0772521
1231,3262;0,0775901
1232,2904;0,0778795
1233,2546;0,0781202
1234,2189;0,078314
1235,1831;0,0784654
1236,1473;0,0785816
1237,1116;0,0786715
1238,0758;0,0787433
1239,0400;0,0788013
1240,0043;0,0788446
1240,9685;0,0788671
1241,9327;0,0788607
1242,8970;0,078817
1243,8612;0,078729
1244,8254;0,0785912
1245,7897;0,0784005
1246,7539;0,0781575
1247,7181;0,0778682
1248,6824;0,0775435
1249,6466;0,0771976
1250,6108;0,0768439
1251,5751;0,076493
1252,5393;0,076152
1253,5035;0,0758258
1254,4678;0,0755167
1255,4320;0,0752226
1256,3962;0,0749343
1257,3605;0,0746352
1258,3247;0,0743054
1259,2889;0,0739295
1260,2532;0,0735024
1261,2174;0,0730301
1262,1816;0,0725237
1263,1459;0,0719912
1264,1101;0,0714331
1265,0743;0,0708443
1266,0386;0,0702189
1267,0028;0,0695542
1267,9670;0,0688506
1268,9313;0,0681099
1269,8955;0,0673331
1270,8597;0,0665216
1271,8240;0,0656793
1272,7882;0,0648153
1273,7524;0,0639431
1274,7167;0,0630785
1275,6809;0,0622365
1276,6451;0,0614291
1277,6094;0,0606633
1278,5736;0,0599387
1279,5378;0,0592476
1280,5021;0,0585765
1281,4663;0,0579127
1282,4305;0,0572497
1283,3948;0,0565914
1284,3590;0,0559513
1285,3232;0,0553489
1286,2875;0,0548042
1287,2517;0,054333
1288,2159;0,0539444
1289,1802;0,0536408
1290,1444;0,0534187
1291,1086;0,0532712
1292,0729;0,0531907
1293,0371;0,0531717
1294,0013;0,0532122
1294,9656;0,0533137
1295,9298;0,0534802
1296,8940;0,053717
1297,8583;0,0540282
1298,8225;0,0544161
1299,7867;0,0548787
1300,7510;0,055409
1301,7152;0,0559969
1302,6794;0,0566305
1303,6437;0,0573005
1304,6079;0,0580033
1305,5721;0,0587393
1306,5364;0,0595081
1307,5006;0,060305
1308,4648;0,0611199
1309,4291;0,0619388
1310,3933;0,0627466
1311,3575;0,0635275
1312,3218;0,0642648
1313,2860;0,0649399
1314,2502;0,0655327
1315,2145;0,0660207
1316,1787;0,0663798
1317,1429;0,0665868
1318,1072;0,066629
1319,0714;0,0665152
1320,0356;0,0662803
1320,9999;0,0659772
1321,9641;0,0656575
1322,9283;0,0653579
1323,8926;0,0650956
1324,8568;0,0648742
1325,8210;0,0646905
1326,7853;0,0645391
1327,7495;0,0644129
1328,7137;0,0643011
1329,6780;0,0641876
1330,6422;0,0640536
1331,6064;0,0638836
1332,5707;0,0636703
1333,5349;0,0634163
1334,4991;0,063126
1335,4634;0,0627955
1336,4276;0,0624057
1337,3918;0,061925
1338,3561;0,0613298
1339,3203;0,0606367
1340,2845;0,0599129
1341,2488;0,0592423
1342,2130;0,0586765
1343,1772;0,0582206
1344,1415;0,057855
1345,1057;0,0575603
1346,0699;0,0573293
1347,0342;0,0571662
1347,9984;0,05708
1348,9626;0,057078
1349,9269;0,0571617
1350,8911;0,0573247
1351,8553;0,057554
1352,8196;0,0578356
1353,7838;0,0581597
1354,7480;0,0585244
1355,7123;0,0589339
1356,6765;0,0593915
1357,6407;0,0598928
1358,6050;0,0604257
1359,5692;0,0609715
1360,5334;0,0615033
1361,4977;0,0619872
1362,4619;0,0624007
1363,4261;0,0627564
1364,3904;0,0630925
1365,3546;0,0634357
1366,3188;0,0637819
1367,2831;0,0641058
1368,2473;0,0643783
1369,2115;0,0645764
1370,1758;0,0646849
1371,1400;0,0646902
1372,1042;0,0645752
1373,0685;0,0643227
1374,0327;0,0639353
1374,9969;0,0634501
1375,9612;0,0629208
1376,9254;0,0623723
1377,8896;0,0617805
1378,8539;0,0611023
1379,8181;0,060322
1380,7823;0,0594746
1381,7466;0,0586248
1382,7108;0,0578191
1383,6750;0,0570539
1384,6393;0,0562872
1385,6035;0,0554807
1386,5677;0,0546501
1387,5320;0,0538846
1388,4962;0,0532941
1389,4604;0,0529191
1390,4247;0,0527094
1391,3889;0,0525812
1392,3531;0,0524775
1393,3174;0,0523843
1394,2816;0,052313
1395,2458;0,0522729
1396,2101;0,0522601
1397,1743;0,0522682
1398,1385;0,0523036
1399,1028;0,0523885
1400,0670;0,0525445
1401,0313;0,0527747
1401,9955;0,05306
1402,9597;0,0533734
1403,9240;0,0536971
1404,8882;0,0540322
1405,8524;0,0543963
1406,8167;0,0548086
1407,7809;0,0552728
1408,7451;0,0557788
1409,7094;0,0563186
1410,6736;0,0568981
1411,6378;0,0575292
1412,6021;0,0582102
1413,5663;0,0589136
1414,5305;0,0595957
1415,4948;0,0602177
1416,4590;0,0607559
1417,4232;0,0611935
1418,3875;0,0615243
1419,3517;0,061783
1420,3159;0,062027
1421,2802;0,0622568
1422,2444;0,0624004
1423,2086;0,0623798
1424,1729;0,0621709
1425,1371;0,0618069
1426,1013;0,0613323
1427,0656;0,0607577
1428,0298;0,060057
1428,9940;0,0592154
1429,9583;0,058282
1430,9225;0,0573573
1431,8867;0,0565112
1432,8510;0,0557198
1433,8152;0,0548881
1434,7794;0,0539271
1435,7437;0,0528472
1436,7079;0,0518204
1437,6721;0,0510971
1438,6364;0,0507919
1439,6006;0,05081
1440,5648;0,0509801
1441,5291;0,0511879
1442,4933;0,0514064
1443,4575;0,05166
1444,4218;0,0519741
1445,3860;0,0523447
1446,3502;0,0527421
1447,3145;0,0531368
1448,2787;0,0535258
1449,2429;0,0539311
1450,2072;0,0543657
1451,1714;0,0548014
1452,1356;0,0551751
1453,0999;0,0554263
1454,0641;0,0555244
1455,0283;0,0554513
1455,9926;0,0551422
1456,9568;0,0545522
1457,9210;0,0539308
1458,8853;0,0536611
1459,8495;0,0537669
1460,8137;0,0539833
1461,7780;0,0540464
1462,7422;0,0537893
1463,7064;0,0531441
1464,6707;0,0521735
1465,6349;0,0510877
1466,5991;0,050107
1467,5634;0,0492791
1468,5276;0,0484818
1469,4918;0,0475436
1470,4561;0,0463216
1471,4203;0,0447303
1472,3845;0,0428075
1473,3488;0,0408118
1474,3130;0,0391133
1475,2772;0,0378898
1476,2415;0,0370602
1477,2057;0,0364624
1478,1699;0,0359798
1479,1342;0,0355575
1480,0984;0,03518
1481,0626;0,0348556
1482,0269;0,0346075
1482,9911;0,0344612
1483,9553;0,0344273
1484,9196;0,034496
1485,8838;0,0346466
1486,8480;0,0348544
1487,8123;0,0350825
1488,7765;0,0352904
1489,7407;0,0354986
1490,7050;0,0358029
1491,6692;0,0362637
1492,6334;0,0368516
1493,5977;0,0375118
1494,5619;0,0382285
1495,5261;0,0390256
1496,4904;0,0399203
1497,4546;0,0408898
1498,4188;0,0419024
1499,3831;0,0429395
1500,3473;0,0439517
1501,3115;0,0448468
1502,2758;0,0455413
1503,2400;0,0460198
1504,2042;0,0463617
1505,1685;0,0466867
1506,1327;0,0469508
1507,0969;0,0468615
1508,0612;0,0464127
1509,0254;0,0459999
1509,9896;0,045779
1510,9539;0,0456296
1511,9181;0,0454181
1512,8823;0,0450824
1513,8466;0,0446093
1514,8108;0,0440023
1515,7750;0,043274
1516,7393;0,0424514
1517,7035;0,0415692
1518,6677;0,0406522
1519,6320;0,0397171
1520,5962;0,0388025
1521,5604;0,0379917
1522,5247;0,0373711
1523,4889;0,0369553
1524,4531;0,036679
1525,4174;0,0364681
1526,3816;0,0363018
1527,3458;0,0362056
1528,3101;0,0361984
1529,2743;0,0362583
1530,2385;0,0363413
1531,2028;0,0364186
1532,1670;0,0364943
1533,1312;0,0365981
1534,0955;0,0367589
1535,0597;0,0369669
1536,0239;0,0371667
1536,9882;0,0373118
1537,9524;0,0374225
1538,9166;0,0375611
1539,8809;0,0376798
1540,8451;0,0375822
1541,8093;0,0372988
1542,7736;0,0371091
1543,7378;0,0371092
1544,7020;0,0372199
1545,6663;0,0373701
1546,6305;0,0375345
1547,5947;0,0376981
1548,5590;0,0378342
1549,5232;0,0379165
1550,4874;0,0379439
1551,4517;0,0379496
1552,4159;0,0379757
1553,3801;0,0380292
1554,3444;0,038065
1555,3086;0,0380084
1556,2728;0,0377695
1557,2371;0,0372068
1558,2013;0,0362101
1559,1655;0,0351754
1560,1298;0,0348434
1561,0940;0,0353012
1562,0582;0,0361124
1563,0225;0,036903
1563,9867;0,0375053
1564,9509;0,0378933
1565,9152;0,03811
1566,8794;0,0382238
1567,8436;0,0383071
1568,8079;0,0384323
1569,7721;0,0386633
1570,7363;0,0390204
1571,7006;0,0394568
1572,6648;0,0398953
1573,6290;0,0402895
1574,5933;0,0406468
1575,5575;0,0410061
1576,5217;0,0414165
1577,4860;0,0419407
1578,4502;0,0426097
1579,4144;0,0433794
1580,3787;0,0441762
1581,3429;0,0449586
1582,3071;0,0457279
1583,2714;0,0465067
1584,2356;0,0473157
1585,1998;0,0481628
1586,1641;0,0490392
1587,1283;0,0499212
1588,0925;0,0507746
1589,0568;0,0515622
1590,0210;0,0522526
1590,9852;0,0528224
1591,9495;0,0532512
1592,9137;0,0535192
1593,8779;0,053614
1594,8422;0,0535464
1595,8064;0,0533575
1596,7706;0,0531058
1597,7349;0,0528422
1598,6991;0,0525929
1599,6633;0,0523601
1600,6276;0,0521348
1601,5918;0,0519139
1602,5560;0,051709
1603,5203;0,0515417
1604,4845;0,0514264
1605,4487;0,0513554
1606,4130;0,0513019
1607,3772;0,0512416
1608,3414;0,051179
1609,3057;0,0511547
1610,2699;0,0512157
1611,2341;0,051368
1612,1984;0,0515643
1613,1626;0,0517369
1614,1268;0,0518374
1615,0911;0,0518582
1616,0553;0,0518474
1617,0195;0,0519163
1617,9838;0,0521685
1618,9480;0,0525929
1619,9122;0,0530824
1620,8765;0,0535328
1621,8407;0,0538956
1622,8049;0,0541722
1623,7692;0,0543915
1624,7334;0,0545905
1625,6976;0,0547954
1626,6619;0,0550168
1627,6261;0,0552641
1628,5903;0,0555513
1629,5546;0,0558779
1630,5188;0,0562103
1631,4830;0,0564943
1632,4473;0,0566899
1633,4115;0,0567881
1634,3757;0,0567829
1635,3400;0,0566503
1636,3042;0,0564464
1637,2684;0,0563517
1638,2327;0,0564678
1639,1969;0,0567285
1640,1611;0,0570185
1641,1254;0,0572597
1642,0896;0,0574183
1643,0538;0,057487
1644,0181;0,0574674
1644,9823;0,0573505
1645,9465;0,057126
1646,9108;0,0568539
1647,8750;0,0566514
1648,8392;0,0565283
1649,8035;0,0563466
1650,7677;0,0559202
1651,7319;0,0550627
1652,6962;0,0536784
1653,6604;0,0521531
1654,6246;0,0512566
1655,5889;0,0511502
1656,5531;0,0513899
1657,5173;0,0515598
1658,4816;0,0514661
1659,4458;0,0510694
1660,4100;0,050407
1661,3743;0,0495672
1662,3385;0,0486995
1663,3027;0,0479719
1664,2670;0,0474596
1665,2312;0,0471011
1666,1954;0,0467611
1667,1597;0,0463043
1668,1239;0,04564
1669,0881;0,0447726
1670,0524;0,0438374
1671,0166;0,0430044
1671,9808;0,0423102
1672,9451;0,0416488
1673,9093;0,0409127
1674,8735;0,0401179
1675,8378;0,0394202
1676,8020;0,0389907
1677,7662;0,0388572
1678,7305;0,038886
1679,6947;0,038886
1680,6589;0,0386929
1681,6232;0,0381779
1682,5874;0,0372444
1683,5516;0,0359506
1684,5159;0,0346814
1685,4801;0,03387
1686,4443;0,0335498
1687,4086;0,0334633
1688,3728;0,0333744
1689,3370;0,033184
1690,3013;0,0329015
1691,2655;0,0325804
1692,2297;0,0322708
1693,1940;0,0320017
1694,1582;0,0317774
1695,1224;0,0315706
1696,0867;0,0313127
1697,0509;0,0309131
1698,0151;0,0303301
1698,9794;0,0296596
1699,9436;0,0291296
1700,9078;0,0289436
1701,8721;0,0291227
1702,8363;0,0295162
1703,8005;0,0299275
1704,7648;0,0302217
1705,7290;0,0303722
1706,6932;0,0304534
1707,6575;0,0305807
1708,6217;0,0308292
1709,5859;0,0311988
1710,5502;0,0316423
1711,5144;0,0321084
1712,4786;0,0325608
1713,4429;0,0329722
1714,4071;0,0333031
1715,3713;0,0334804
1716,3356;0,0334355
1717,2998;0,0332451
1718,2640;0,0331595
1719,2283;0,0333543
1720,1925;0,0337816
1721,1567;0,0342868
1722,1210;0,0347429
1723,0852;0,035095
1724,0494;0,0353537
1725,0137;0,0355702
1725,9779;0,0358035
1726,9421;0,0360875
1727,9064;0,0364119
1728,8706;0,036725
1729,8348;0,0369477
1730,7991;0,0369875
1731,7633;0,0367553
1732,7275;0,036224
1733,6918;0,0355356
1734,6560;0,0349749
1735,6202;0,034711
1736,5845;0,0346586
1737,5487;0,0346155
1738,5129;0,0344268
1739,4772;0,0340498
1740,4414;0,0335469
1741,4056;0,0330315
1742,3699;0,0325865
1743,3341;0,0322166
1744,2983;0,0318699
1745,2626;0,0314865
1746,2268;0,0310181
1747,1910;0,0304133
1748,1553;0,0296122
1749,1195;0,0285977
1750,0837;0,0274792
1751,0480;0,0264654
1752,0122;0,0257052
1752,9764;0,0251902
1753,9407;0,0248086
1754,9049;0,0244439
1755,8691;0,0240341
1756,8334;0,0235774
1757,7976;0,0231013
1758,7618;0,0226204
1759,7261;0,022122
1760,6903;0,0215924
1761,6545;0,0210566
1762,6188;0,0205805
1763,5830;0,0202253
1764,5472;0,0200007
1765,5115;0,0198664
1766,4757;0,0197681
1767,4399;0,0196668
1768,4042;0,0195417
1769,3684;0,0193732
1770,3326;0,0191291
1771,2969;0,0187857
1772,2611;0,0183833
1773,2253;0,0180401
1774,1896;0,017863
1775,1538;0,0178591
1776,1180;0,0179502
1777,0823;0,0180425
1778,0465;0,0180753
1779,0107;0,0180327
1779,9750;0,0179324
1780,9392;0,0178043
1781,9034;0,017671
1782,8677;0,0175441
1783,8319;0,0174376
1784,7961;0,0173769
1785,7604;0,0173875
1786,7246;0,0174719
1787,6888;0,0176002
1788,6531;0,0177233
1789,6173;0,0177929
1790,5815;0,0177741
1791,5458;0,0176611
1792,5100;0,0175044
1793,4742;0,017398
1794,4385;0,0174004
1795,4027;0,0174864
1796,3669;0,0175845
1797,3312;0,0176317
1798,2954;0,0175984
1799,2596;0,0174886
1800,2239;0,0173325
1801,1881;0,0171758
1802,1523;0,0170605
1803,1166;0,0170072
1804,0808;0,0170129
1805,0450;0,017062
1806,0093;0,0171362
1806,9735;0,0172178
1807,9377;0,0172873
1808,9020;0,0173238
1809,8662;0,0173117
1810,8304;0,0172532
1811,7947;0,0171709
1812,7589;0,0170931
1813,7231;0,0170362
1814,6874;0,0170004
1815,6516;0,0169783
1816,6158;0,0169662
1817,5801;0,0169683
1818,5443;0,0169928
1819,5085;0,0170424
1820,4728;0,0171075
1821,4370;0,01717
1822,4012;0,0172149
1823,3655;0,0172403
1824,3297;0,0172587
1825,2939;0,0172864
1826,2582;0,0173246
1827,2224;0,017349
1828,1866;0,0173207
1829,1509;0,0172166
1830,1151;0,0170607
1831,0793;0,0169196
1832,0436;0,0168502
1833,0078;0,0168563
1833,9720;0,0168987
1834,9363;0,0169353
1835,9005;0,0169519
1836,8647;0,0169659
1837,8290;0,0170066
1838,7932;0,0170845
1839,7574;0,0171775
1840,7217;0,0172449
1841,6859;0,0172524
1842,6501;0,0171875
1843,6144;0,017068
1844,5786;0,0169421
1845,5428;0,0168645
1846,5071;0,0168522
1847,4713;0,0168736
1848,4355;0,016882
1849,3998;0,0168524
1850,3640;0,0167924
1851,3282;0,0167298
1852,2925;0,0166928
1853,2567;0,0166955
1854,2209;0,0167374
1855,1852;0,0168096
1856,1494;0,0168997
1857,1136;0,0169923
1858,0779;0,0170685
1859,0421;0,0171107
1860,0063;0,0171136
1860,9706;0,0170914
1861,9348;0,0170735
1862,8990;0,0170887
1863,8633;0,0171489
1864,8275;0,0172452
1865,7917;0,0173511
1866,7560;0,0174282
1867,7202;0,0174384
1868,6844;0,0173715
1869,6487;0,0172617
1870,6129;0,0171593
1871,5771;0,0170855
1872,5414;0,0170281
1873,5056;0,016969
1874,4698;0,0169071
1875,4341;0,0168598
1876,3983;0,0168499
1877,3625;0,0168874
1878,3268;0,0169631
1879,2910;0,0170536
1880,2552;0,0171355
1881,2195;0,0171961
1882,1837;0,0172355
1883,1479;0,0172607
1884,1122;0,0172766
1885,0764;0,0172806
1886,0406;0,0172642
1887,0049;0,0172219
1887,9691;0,0171587
1888,9333;0,0170946
1889,8976;0,0170583
1890,8618;0,0170711
1891,8260;0,0171325
1892,7903;0,0172189
1893,7545;0,0172971
1894,7188;0,0173403
1895,6830;0,0173393
1896,6472;0,0173048
1897,6115;0,0172583
1898,5757;0,0172173
1899,5399;0,017188
1900,5042;0,0171663
1901,4684;0,017145
1902,4326;0,0171201
1903,3969;0,0170929
1904,3611;0,0170686
1905,3253;0,0170548
1906,2896;0,0170583
1907,2538;0,0170826
1908,2180;0,0171243
1909,1823;0,0171707
1910,1465;0,0172044
1911,1107;0,0172118
1912,0750;0,0171896
1913,0392;0,0171467
1914,0034;0,0171007
1914,9677;0,0170742
1915,9319;0,0170863
1916,8961;0,0171434
1917,8604;0,0172345
1918,8246;0,0173361
1919,7888;0,0174217
1920,7531;0,0174694
1921,7173;0,0174658
1922,6815;0,0174102
1923,6458;0,0173171
1924,6100;0,0172122
1925,5742;0,0171204
1926,5385;0,0170542
1927,5027;0,0170104
1928,4669;0,0169775
1929,4312;0,0169465
1930,3954;0,0169195
1931,3596;0,0169119
1932,3239;0,0169432
1933,2881;0,0170231
1934,2523;0,0171391
1935,2166;0,0172565
1936,1808;0,0173331
1937,1450;0,0173424
1938,1093;0,0172901
1939,0735;0,0172143
1940,0377;0,0171668
1941,0020;0,0171838
1941,9662;0,0172596
1942,9304;0,0173465
1943,8947;0,0173882
1944,8589;0,0173599
1945,8231;0,0172823
1946,7874;0,0172034
1947,7516;0,0171695
1948,7158;0,0172015
1949,6801;0,0172867
1950,6443;0,0173883
1951,6085;0,0174646
1952,5728;0,0174889
1953,5370;0,0174571
1954,5012;0,0173847
1955,4655;0,0172956
1956,4297;0,0172088
1957,3939;0,0171285
1958,3582;0,0170432
1959,3224;0,0169366
1960,2866;0,0168068
1961,2509;0,0166798
1962,2151;0,0166046
1963,1793;0,0166277
1964,1436;0,0167631
1965,1078;0,0169757
1966,0720;0,0171912
1967,0363;0,0173312
1968,0005;0,0173527
1968,9647;0,0172618
1969,9290;0,0170939
1970,8932;0,0168876
1971,8574;0,0166809
1972,8217;0,0165293
1973,7859;0,0165156
1974,7501;0,0167232
1975,7144;0,0171727
1976,6786;0,0177669
1977,6428;0,0183068
1978,6071;0,0185928
1979,5713;0,0185399
1980,5355;0,0182168
1981,4998;0,0177895
1982,4640;0,0174263
1983,4282;0,0172219
1984,3925;0,0171735
1985,3567;0,0172087
1986,3209;0,0172455
1987,2852;0,0172469
1988,2494;0,0172376
1989,2136;0,0172781
1990,1779;0,0174147
1991,1421;0,0176392
1992,1063;0,0178862
1993,0706;0,0180715
1994,0348;0,0181433
1994,9990;0,0181059
1995,9633;0,0180058
1996,9275;0,0178989
1997,8917;0,0178205
1998,8560;0,0177739
1999,8202;0,0177408
2000,7844;0,0177027
2001,7487;0,0176587
2002,7129;0,017628
2003,6771;0,0176382
2004,6414;0,0177134
2005,6056;0,017867
2006,5698;0,0180997
2007,5341;0,0183939
2008,4983;0,0187042
2009,4625;0,0189539
2010,4268;0,0190512
2011,3910;0,0189275
2012,3552;0,0185798
2013,3195;0,0180917
2014,2837;0,0176134
2015,2479;0,0173019
2016,2122;0,017247
2017,1764;0,0174266
2018,1406;0,017728
2019,1049;0,0180235
2020,0691;0,0182419
2021,0333;0,0183882
2021,9976;0,0185078
2022,9618;0,0186316
2023,9260;0,0187455
2024,8903;0,0188032
2025,8545;0,0187686
2026,8187;0,0186511
2027,7830;0,0185041
2028,7472;0,0183897
2029,7114;0,018341
2030,6757;0,0183528
2031,6399;0,0184052
2032,6041;0,0184967
2033,5684;0,0186517
2034,5326;0,0188924
2035,4968;0,0191974
2036,4611;0,0194867
2037,4253;0,0196498
2038,3895;0,0196007
2039,3538;0,0193259
2040,3180;0,0188984
2041,2822;0,018451
2042,2465;0,0181206
2043,2107;0,0179955
2044,1749;0,0180929
2045,1392;0,0183704
2046,1034;0,0187522
2047,0676;0,0191522
2048,0320;0,0194898
2048,9961;0,0197018
2049,9604;0,0197547
2050,9246;0,0196541
2051,8889;0,0194485
2052,8530;0,019222
2053,8174;0,0190729
2054,7815;0,0190777
2055,7458;0,019255
2056,7100;0,0195491
2057,6743;0,0198527
2058,6384;0,0200576
2059,6028;0,0201049
2060,5669;0,0200083
2061,5313;0,019839
2062,4954;0,0196863
2063,4597;0,0196149
2064,4238;0,0196399
2065,3882;0,0197311
2066,3523;0,0198354
2067,3167;0,0199055
2068,2808;0,0199182
2069,2451;0,0198794
2070,2092;0,0198182
2071,1736;0,0197746
2072,1377;0,0197826
2073,1021;0,0198539
2074,0662;0,0199695
2075,0305;0,0200859
2075,9946;0,0201556
2076,9590;0,0201514
2077,9231;0,0200814
2078,8875;0,0199828
2079,8516;0,0199011
2080,8159;0,0198646
2081,7800;0,0198726
2082,7444;0,0199009
2083,7085;0,0199206
2084,6729;0,0199148
2085,6370;0,0198839
2086,6013;0,0198383
2087,5654;0,0197879
2088,5298;0,0197362
2089,4939;0,0196838
2090,4583;0,0196353
2091,4224;0,0196018
2092,3867;0,0195967
2093,3508;0,0196284
2094,3152;0,0196956
2095,2793;0,0197891
2096,2437;0,0198967
2097,2078;0,0200055
2098,1721;0,020101
2099,1362;0,0201649
2100,1006;0,0201808
2101,0647;0,0201425
2102,0291;0,0200681
2102,9932;0,0199943
2103,9575;0,0199611
2104,9216;0,0199908
2105,8860;0,0200753
2106,8501;0,0201824
2107,8145;0,0202749
2108,7786;0,0203313
2109,7429;0,0203535
2110,7070;0,0203589
2111,6714;0,0203654
2112,6355;0,0203792
2113,5999;0,0203942
2114,5640;0,0203986
2115,5283;0,0203848
2116,4924;0,020354
2117,4568;0,0203151
2118,4209;0,0202786
2119,3853;0,0202498
2120,3494;0,0202252
2121,3137;0,0201936
2122,2778;0,0201439
2123,2422;0,0200739
2124,2063;0,0199972
2125,1707;0,0199407
2126,1348;0,0199324
2127,0991;0,0199857
2128,0632;0,0200896
2129,0276;0,0202113
2129,9917;0,0203118
2130,9561;0,0203645
2131,9202;0,0203661
2132,8845;0,0203336
2133,8486;0,02029
2134,8130;0,0202498
2135,7771;0,0202146
2136,7415;0,0201811
2137,7056;0,0201544
2138,6699;0,0201533
2139,6340;0,0202037
2140,5984;0,020326
2141,5625;0,0205229
2142,5269;0,0207748
2143,4910;0,0210407
2144,4553;0,0212667
2145,4194;0,021399
2146,3838;0,0214049
2147,3479;0,0212941
2148,3123;0,0211277
2149,2764;0,0210022
2150,2407;0,0210097
2151,2048;0,0211906
2152,1692;0,0215095
2153,1333;0,0218693
2154,0977;0,0221574
2155,0618;0,0222973
2156,0261;0,0222786
2156,9902;0,022151
2157,9546;0,0219872
2158,9187;0,021836
2159,8831;0,0217018
2160,8472;0,0215646
2161,8115;0,021413
2162,7756;0,0212618
2163,7400;0,0211465
2164,7041;0,0211069
2165,6685;0,0211693
2166,6326;0,0213284
2167,5969;0,0215403
2168,5610;0,0217307
2169,5254;0,0218213
2170,4895;0,0217631
2171,4539;0,0215609
2172,4180;0,021273
2173,3823;0,0209844
2174,3464;0,0207655
2175,3108;0,0206427
2176,2749;0,0205992
2177,2393;0,0206024
2178,2034;0,0206339
2179,1677;0,0206976
2180,1318;0,0208039
2181,0962;0,0209449
2182,0603;0,021086
2183,0247;0,0211817
2183,9888;0,0212057
2184,9531;0,0211706
2185,9172;0,0211202
2186,8816;0,0211022
2187,8457;0,0211385
2188,8101;0,0212143
2189,7742;0,0212885
2190,7385;0,0213189
2191,7026;0,0212845
2192,6670;0,0211932
2193,6311;0,0210719
2194,5955;0,0209482
2195,5596;0,020837
2196,5239;0,0207397
2197,4880;0,0206538
2198,4524;0,0205843
2199,4165;0,0205457
2200,3809;0,0205535
2201,3450;0,0206108
2202,3093;0,0206993
2203,2734;0,0207843
2204,2378;0,0208301
2205,2019;0,020819
2206,1663;0,0207606
2207,1304;0,0206863
2208,0947;0,0206314
2209,0588;0,0206145
2210,0232;0,0206259
2210,9873;0,0206342
2211,9517;0,0206058
2212,9158;0,0205293
2213,8801;0,0204276
2214,8442;0,0203499
2215,8086;0,0203464
2216,7727;0,0204406
2217,7371;0,0206146
2218,7012;0,0208185
2219,6655;0,0209946
2220,6296;0,0211041
2221,5940;0,0211397
2222,5581;0,0211201
2223,5225;0,0210736
2224,4866;0,0210236
2225,4509;0,0209815
2226,4150;0,0209499
2227,3794;0,0209269
2228,3435;0,0209111
2229,3079;0,020901
2230,2720;0,0208935
2231,2363;0,0208849
2232,2004;0,0208713
2233,1648;0,0208505
2234,1289;0,0208219
2235,0933;0,0207877
2236,0574;0,0207541
2237,0217;0,0207325
2237,9858;0,0207373
2238,9502;0,0207791
2239,9143;0,0208574
2240,8787;0,0209565
2241,8428;0,0210504
2242,8071;0,0211136
2243,7712;0,0211306
2244,7356;0,0211008
2245,6997;0,021034
2246,6641;0,0209446
2247,6282;0,0208488
2248,5925;0,0207652
2249,5566;0,0207155
2250,5210;0,0207204
2251,4851;0,0207886
2252,4495;0,0209079
2253,4136;0,0210453
2254,3779;0,0211602
2255,3420;0,0212221
2256,3064;0,0212233
2257,2705;0,0211772
2258,2349;0,0211069
2259,1990;0,0210335
2260,1633;0,020972
2261,1274;0,0209346
2262,0918;0,0209329
2263,0559;0,0209746
2264,0203;0,0210559
2264,9844;0,0211572
2265,9487;0,0212492
2266,9128;0,0213066
2267,8772;0,0213206
2268,8413;0,0213008
2269,8057;0,0212668
2270,7698;0,0212355
2271,7341;0,0212141
2272,6982;0,0212007
2273,6626;0,0211898
2274,6267;0,0211764
2275,5911;0,0211556
2276,5552;0,0211226
2277,5195;0,021074
2278,4836;0,0210131
2279,4480;0,0209532
2280,4121;0,0209152
2281,3765;0,0209199
2282,3406;0,0209786
2283,3049;0,0210887
2284,2690;0,0212358
2285,2334;0,0213992
2286,1975;0,0215586
2287,1619;0,0216979
2288,1260;0,0218069
2289,0903;0,0218825
2290,0544;0,0219283
2291,0188;0,0219543
2291,9829;0,021974
2292,9473;0,0220014
2293,9114;0,0220464
2294,8757;0,0221133
2295,8398;0,0221997
2296,8042;0,0222966
2297,7683;0,0223895
2298,7327;0,0224595
2299,6968;0,0224872
2300,6611;0,02246
2301,6252;0,0223795
2302,5896;0,0222669
2303,5537;0,0221592
2304,5181;0,0220972
2305,4822;0,0221072
2306,4465;0,0221852
2307,4106;0,0222931
2308,3750;0,0223728
2309,3391;0,0223731
2310,3035;0,0222761
2311,2676;0,0221061
2312,2319;0,0219148
2313,1960;0,0217505
2314,1604;0,0216323
2315,1245;0,0215455
2316,0889;0,0214588
2317,0530;0,0213501
2318,0173;0,0212245
2318,9814;0,0211164
2319,9458;0,0210754
2320,9099;0,0211442
2321,8743;0,0213406
2322,8384;0,0216469
2323,8027;0,0220109
2324,7668;0,0223568
2325,7312;0,0226061
2326,6953;0,0227044
2327,6597;0,0226422
2328,6238;0,0224622
2329,5881;0,0222474
2330,5522;0,0220923
2331,5166;0,0220623
2332,4807;0,0221647
2333,4451;0,0223496
2334,4092;0,022544
2335,3735;0,0226948
2336,3376;0,0227956
2337,3020;0,0228842
2338,2661;0,0230105
2339,2305;0,0231911
2340,1946;0,0233699
2341,1589;0,023414
2342,1230;0,0231724
2343,0874;0,0226235
2344,0515;0,022021
2345,0159;0,0217841
2345,9800;0,0221316
2346,9443;0,0228971
2347,9084;0,0237016
2348,8728;0,0242157
2349,8369;0,0243042
2350,8013;0,0240439
2351,7654;0,023652
2352,7297;0,0233538
2353,6938;0,0232576
2354,6582;0,0233425
2355,6223;0,0235558
2356,5867;0,0238715
2357,5508;0,0242469
2358,5151;0,0245771
2359,4792;0,0247281
2360,4436;0,0246129
2361,4077;0,024228
2362,3721;0,0236286
2363,3362;0,0228973
2364,3005;0,0221289
2365,2646;0,0214136
2366,2290;0,020807
2367,1931;0,020311
2368,1575;0,0198897
2369,1216;0,0195061
2370,0859;0,0191508
2371,0500;0,0188437
2372,0144;0,0186184
2372,9785;0,0185053
2373,9429;0,0185238
2374,9070;0,0186804
2375,8713;0,0189684
2376,8354;0,0193656
2377,7998;0,0198341
2378,7639;0,0203243
2379,7283;0,0207836
2380,6924;0,0211676
2381,6567;0,0214494
2382,6208;0,0216238
2383,5852;0,0217046
2384,5493;0,0217175
2385,5137;0,0216908
2386,4778;0,0216486
2387,4421;0,0216078
2388,4063;0,0215786
2389,3706;0,0215657
2390,3347;0,0215702
2391,2991;0,0215889
2392,2632;0,0216148
2393,2275;0,0216406
2394,1917;0,0216618
2395,1560;0,0216793
2396,1201;0,0216976
2397,0845;0,0217203
2398,0486;0,0217478
2399,0129;0,0217759
2399,9771;0,0218004
2400,9414;0,0218222
2401,9055;0,0218464
2402,8699;0,0218777
2403,8340;0,0219151
2404,7983;0,0219497
2405,7625;0,0219699
2406,7268;0,0219682
2407,6909;0,0219466
2408,6553;0,0219157
2409,6194;0,0218889
2410,5837;0,0218774
2411,5479;0,0218873
2412,5122;0,0219188
2413,4763;0,0219671
2414,4407;0,022023
2415,4048;0,0220746
2416,3691;0,0221115
2417,3333;0,0221301
2418,2976;0,022136
2419,2617;0,0221412
2420,2261;0,0221559
2421,1902;0,0221817
2422,1545;0,0222119
2423,1187;0,0222373
2424,0830;0,0222543
2425,0471;0,0222678
2426,0115;0,0222871
2426,9756;0,0223185
2427,9399;0,0223605
2428,9041;0,0224051
2429,8684;0,0224434
2430,8325;0,0224699
2431,7969;0,0224837
2432,7610;0,0224869
2433,7253;0,022483
2434,6895;0,022478
2435,6538;0,0224809
2436,6179;0,0225023
2437,5823;0,0225483
2438,5464;0,0226154
2439,5107;0,02269
2440,4749;0,0227536
2441,4392;0,0227929
2442,4033;0,0228063
2443,3677;0,0228037
2444,3318;0,0228001
2445,2961;0,0228071
2446,2603;0,0228272
2447,2246;0,0228545
2448,1887;0,0228791
2449,1531;0,0228933
2450,1172;0,0228957
2451,0815;0,0228921
2452,0457;0,022893
2453,0100;0,0229084
2453,9741;0,0229425
2454,9385;0,0229908
2455,9026;0,0230403
2456,8669;0,0230761
2457,8311;0,0230879
2458,7954;0,0230762
2459,7595;0,0230519
2460,7239;0,0230314
2461,6880;0,0230281
2462,6523;0,023047
2463,6165;0,0230831
2464,5808;0,0231258
2465,5449;0,0231636
2466,5093;0,0231889
2467,4734;0,0231997
2468,4377;0,0231987
2469,4019;0,0231926
2470,3662;0,0231896
2471,3303;0,0231982
2472,2947;0,023224
2473,2588;0,0232675
2474,2231;0,0233231
2475,1873;0,0233804
2476,1516;0,0234283
2477,1157;0,0234592
2478,0801;0,023472
2479,0442;0,0234717
2480,0085;0,0234668
2480,9727;0,0234657
2481,9370;0,0234731
2482,9011;0,0234898
2483,8655;0,0235125
2484,8296;0,0235361
2485,7939;0,0235558
2486,7581;0,0235685
2487,7224;0,0235744
2488,6865;0,0235761
2489,6509;0,0235778
2490,6150;0,0235833
2491,5793;0,0235942
2492,5435;0,0236092
2493,5078;0,023625
2494,4719;0,0236382
2495,4363;0,0236475
2496,4004;0,0236543
2497,3647;0,0236618
2498,3289;0,0236739
2499,2932;0,0236931
2500,2573;0,0237203
2501,2217;0,0237557
2502,1858;0,0237989
2503,1501;0,0238491
2504,1143;0,0239032
2505,0786;0,023955
2506,0427;0,0239959
2507,0071;0,0240171
2507,9712;0,0240142
2508,9355;0,023989
2509,8997;0,0239501
2510,8640;0,02391
2511,8281;0,0238795
2512,7925;0,0238649
2513,7566;0,0238656
2514,7209;0,0238768
2515,6851;0,0238928
2516,6494;0,0239112
2517,6135;0,023934
2518,5779;0,023966
2519,5420;0,02401
2520,5063;0,0240636
2521,4705;0,0241185
2522,4348;0,0241631
2523,3989;0,0241883
2524,3633;0,024192
2525,3274;0,0241792
2526,2917;0,0241589
2527,2559;0,0241401
2528,2202;0,0241282
2529,1843;0,0241249
2530,1487;0,0241286
2531,1128;0,0241357
2532,0771;0,0241414
2533,0413;0,0241417
2534,0056;0,0241356
2534,9697;0,0241282
2535,9341;0,0241294
2536,8982;0,024149
2537,8625;0,024189
2538,8267;0,0242403
2539,7910;0,0242853
2540,7551;0,0243081
2541,7195;0,0243046
2542,6836;0,0242855
2543,6479;0,02427
2544,6121;0,0242737
2545,5764;0,0243
2546,5405;0,0243385
2547,5049;0,0243732
2548,4690;0,0243923
2549,4333;0,0243938
2550,3975;0,0243837
2551,3618;0,0243703
2552,3259;0,0243583
2553,2903;0,0243477
2554,2544;0,0243372
2555,2188;0,0243277
2556,1829;0,0243242
2557,1472;0,0243332
2558,1113;0,0243581
2559,0757;0,0243964
2560,0398;0,0244388
2561,0042;0,0244737
2561,9683;0,0244919
2562,9326;0,0244915
2563,8967;0,0244789
2564,8611;0,0244657
2565,8252;0,0244627
2566,7896;0,0244739
2567,7537;0,024495
2568,7180;0,0245154
2569,6821;0,0245247
2570,6465;0,0245193
2571,6106;0,0245049
2572,5750;0,0244939
2573,5391;0,0244976
2574,5034;0,0245198
2575,4675;0,0245533
2576,4319;0,0245844
2577,3960;0,024601
2578,3604;0,0246
2579,3245;0,0245891
2580,2888;0,0245818
2581,2529;0,024588
2582,2173;0,0246084
2583,1814;0,0246345
2584,1458;0,0246551
2585,1099;0,0246641
2586,0742;0,0246651
2587,0383;0,0246692
2588,0027;0,0246882
2588,9668;0,0247274
2589,9312;0,0247821
2590,8953;0,0248395
2591,8596;0,0248843
2592,8237;0,0249054
2593,7881;0,0249013
2594,7522;0,0248812
2595,7166;0,0248606
2596,6807;0,0248546
2597,6450;0,0248696
2598,6091;0,0249011
2599,5735;0,0249368
2600,5376;0,0249653
2601,5020;0,0249832
2602,4661;0,0249967
2603,4304;0,0250158
2604,3945;0,0250462
2605,3589;0,025084
2606,3230;0,0251191
2607,2874;0,0251425
2608,2515;0,0251533
2609,2158;0,0251592
2610,1799;0,0251701
2611,1443;0,025191
2612,1084;0,025219
2613,0728;0,0252459
2614,0369;0,0252656
2615,0012;0,0252782
2615,9653;0,0252901
2616,9297;0,0253091
2617,8938;0,0253403
2618,8582;0,0253832
2619,8223;0,0254327
2620,7866;0,025481
2621,7507;0,02552
2622,7151;0,0255436
2623,6792;0,0255509
2624,6436;0,025547
2625,6077;0,0255421
2626,5720;0,0255476
2627,5361;0,0255693
2628,5005;0,0256045
2629,4646;0,0256438
2630,4290;0,0256769
2631,3931;0,0256998
2632,3574;0,0257162
2633,3215;0,025733
2634,2859;0,0257545
2635,2500;0,025778
2636,2144;0,0257964
2637,1785;0,0258049
2638,1428;0,0258066
2639,1069;0,0258119
2640,0713;0,0258328
2641,0354;0,0258751
2641,9998;0,0259344
2642,9639;0,0259982
2643,9282;0,0260529
2644,8923;0,0260895
2645,8567;0,0261075
2646,8208;0,0261127
2647,7852;0,0261134
2648,7493;0,0261163
2649,7136;0,0261252
2650,6777;0,0261403
2651,6421;0,0261604
2652,6062;0,0261833
2653,5706;0,0262079
2654,5347;0,0262335
2655,4990;0,0262603
2656,4631;0,0262882
2657,4275;0,0263164
2658,3916;0,0263435
2659,3560;0,0263678
2660,3201;0,0263884
2661,2844;0,0264058
2662,2485;0,026421
2663,2129;0,0264349
2664,1770;0,0264483
2665,1414;0,0264615
2666,1055;0,0264749
2667,0698;0,0264897
2668,0339;0,0265067
2668,9983;0,0265263
2669,9624;0,0265477
2670,9268;0,0265697
2671,8909;0,0265915
2672,8552;0,0266124
2673,8193;0,0266315
2674,7837;0,0266474
2675,7478;0,0266583
2676,7122;0,0266651
2677,6763;0,0266716
2678,6406;0,026685
2679,6047;0,0267122
2680,5691;0,0267561
2681,5332;0,0268131
2682,4976;0,0268743
2683,4617;0,0269296
2684,4260;0,0269718
2685,3901;0,0269989
2686,3545;0,0270135
2687,3186;0,0270208
2688,2830;0,027027
2689,2471;0,0270382
2690,2114;0,0270598
2691,1755;0,0270947
2692,1399;0,0271419
2693,1040;0,0271964
2694,0684;0,0272501
2695,0325;0,0272957
2695,9968;0,0273296
2696,9609;0,0273535
2697,9253;0,0273726
2698,8894;0,0273929
2699,8538;0,0274183
2700,8179;0,02745
2701,7822;0,0274864
2702,7463;0,0275247
2703,7107;0,0275621
2704,6748;0,0275967
2705,6392;0,027628
2706,6033;0,0276578
2707,5676;0,0276892
2708,5317;0,0277259
2709,4961;0,02777
2710,4602;0,0278203
2711,4246;0,0278722
2712,3887;0,0279189
2713,3530;0,027955
2714,3171;0,0279782
2715,2815;0,0279916
2716,2456;0,0280017
2717,2100;0,0280159
2718,1741;0,0280396
2719,1384;0,0280736
2720,1025;0,0281146
2721,0669;0,0281568
2722,0310;0,0281943
2722,9954;0,0282241
2723,9595;0,0282466
2724,9238;0,0282657
2725,8879;0,0282864
2726,8523;0,028313
2727,8164;0,0283472
2728,7808;0,0283874
2729,7449;0,0284301
2730,7092;0,0284715
2731,6733;0,0285085
2732,6377;0,0285399
2733,6018;0,0285656
2734,5662;0,0285862
2735,5303;0,0286027
2736,4946;0,0286165
2737,4587;0,0286299
2738,4231;0,0286462
2739,3872;0,0286689
2740,3516;0,0287007
2741,3157;0,0287418
2742,2800;0,0287886
2743,2441;0,0288341
2744,2085;0,0288695
2745,1726;0,0288877
2746,1370;0,0288876
2747,1011;0,0288754
2748,0654;0,0288634
2749,0295;0,0288646
2749,9939;0,028887
2750,9580;0,02893
2751,9224;0,0289854
2752,8865;0,0290427
2753,8508;0,0290942
2754,8149;0,0291381
2755,7793;0,0291771
2756,7434;0,0292148
2757,7078;0,0292531
2758,6719;0,0292917
2759,6362;0,029329
2760,6003;0,0293642
2761,5647;0,0293968
2762,5288;0,0294265
2763,4932;0,0294526
2764,4573;0,0294752
2765,4216;0,0294967
2766,3857;0,0295224
2767,3501;0,029558
2768,3142;0,0296068
2769,2786;0,0296666
2770,2427;0,0297299
2771,2070;0,0297866
2772,1711;0,0298297
2773,1355;0,0298585
2774,0996;0,0298792
2775,0640;0,0299021
2776,0281;0,0299365
2776,9924;0,0299864
2777,9565;0,0300493
2778,9209;0,0301177
2779,8850;0,0301833
2780,8494;0,0302408
2781,8135;0,0302896
2782,7778;0,0303331
2783,7419;0,0303756
2784,7063;0,0304201
2785,6704;0,0304669
2786,6348;0,0305147
2787,5989;0,0305627
2788,5632;0,0306123
2789,5273;0,0306666
2790,4917;0,0307289
2791,4558;0,0308007
2792,4202;0,0308805
2793,3843;0,0309646
2794,3486;0,031048
2795,3127;0,031127
2796,2771;0,0311997
2797,2412;0,0312665
2798,2056;0,0313301
2799,1697;0,0313948
2800,1340;0,0314657
2801,0981;0,0315468
2802,0625;0,0316392
2803,0266;0,0317396
2803,9910;0,0318419
2804,9551;0,0319392
2805,9194;0,0320282
2806,8835;0,0321104
2807,8479;0,0321916
2808,8120;0,0322783
2809,7764;0,0323742
2810,7405;0,0324785
2811,7048;0,0325875
2812,6689;0,0326979
2813,6333;0,0328091
2814,5974;0,0329235
2815,5618;0,0330452
2816,5259;0,0331769
2817,4902;0,0333188
2818,4543;0,033468
2819,4187;0,0336198
2820,3828;0,0337695
2821,3472;0,0339139
2822,3113;0,0340521
2823,2756;0,0341868
2824,2397;0,0343233
2825,2041;0,0344683
2826,1682;0,0346278
2827,1326;0,0348054
2828,0967;0,0350011
2829,0610;0,0352125
2830,0251;0,0354365
2830,9895;0,0356704
2831,9536;0,0359121
2832,9180;0,0361587
2833,8821;0,0364059
2834,8464;0,0366487
2835,8105;0,0368846
2836,7749;0,0371154
2837,7390;0,0373488
2838,7034;0,0375958
2839,6675;0,0378668
2840,6318;0,0381677
2841,5959;0,038499
2842,5603;0,0388576
2843,5244;0,0392389
2844,4888;0,0396371
2845,4529;0,0400433
2846,4172;0,0404412
2847,3813;0,0408068
2848,3457;0,0411127
2849,3098;0,0413369
2850,2742;0,0414713
2851,2383;0,0415254
2852,2026;0,0415227
2853,1667;0,0414918
2854,1311;0,0414579
2855,0952;0,0414376
2856,0596;0,0414393
2857,0237;0,0414667
2857,9880;0,0415209
2858,9521;0,0416021
2859,9165;0,0417082
2860,8806;0,0418348
2861,8450;0,0419765
2862,8091;0,0421287
2863,7734;0,0422893
2864,7375;0,0424576
2865,7019;0,0426324
2866,6660;0,0428097
2867,6304;0,042982
2868,5945;0,0431401
2869,5588;0,0432772
2870,5229;0,0433911
2871,4873;0,0434862
2872,4514;0,0435707
2873,4158;0,0436534
2874,3799;0,0437389
2875,3442;0,0438264
2876,3083;0,0439104
2877,2727;0,0439845
2878,2368;0,0440449
2879,2012;0,0440932
2880,1653;0,0441356
2881,1296;0,0441805
2882,0938;0,0442352
2883,0581;0,0443029
2884,0222;0,0443817
2884,9866;0,0444664
2885,9507;0,0445512
2886,9150;0,0446323
2887,8792;0,0447105
2888,8435;0,0447897
2889,8076;0,0448744
2890,7720;0,0449662
2891,7361;0,0450621
2892,7004;0,045156
2893,6646;0,0452421
2894,6289;0,0453191
2895,5930;0,0453913
2896,5574;0,045466
2897,5215;0,0455482
2898,4858;0,0456372
2899,4500;0,0457258
2900,4143;0,0458044
2901,3784;0,0458662
2902,3428;0,0459115
2903,3069;0,045948
2904,2712;0,0459869
2905,2354;0,0460386
2906,1997;0,0461087
2907,1638;0,0461983
2908,1282;0,0463062
2909,0923;0,0464324
2910,0566;0,0465785
2911,0208;0,0467458
2911,9851;0,0469303
2912,9492;0,0471196
2913,9136;0,0472928
2914,8777;0,0474251
2915,8420;0,0474954
2916,8062;0,0474937
2917,7705;0,0474232
2918,7346;0,0472983
2919,6990;0,0471375
2920,6631;0,0469573
2921,6274;0,046768
2922,5916;0,046574
2923,5559;0,0463756
2924,5200;0,0461729
2925,4844;0,0459672
2926,4485;0,0457621
2927,4128;0,0455629
2928,3770;0,0453754
2929,3413;0,045203
2930,3054;0,0450456
2931,2698;0,0448982
2932,2339;0,0447526
2933,1982;0,0446013
2934,1624;0,0444411
2935,1267;0,0442744
2936,0908;0,0441069
2937,0552;0,0439425
2938,0193;0,0437796
2938,9836;0,0436105
2939,9478;0,0434244
2940,9121;0,0432137
2941,8762;0,0429781
2942,8406;0,0427246
2943,8047;0,0424644
2944,7690;0,042208
2945,7332;0,0419613
2946,6975;0,041725
2947,6616;0,0414971
2948,6260;0,0412759
2949,5901;0,041062
2950,5544;0,0408583
2951,5186;0,0406686
2952,4829;0,0404946
2953,4470;0,0403353
2954,4114;0,0401864
2955,3755;0,0400419
2956,3398;0,0398963
2957,3040;0,0397461
2958,2683;0,0395908
2959,2324;0,0394321
2960,1968;0,0392727
2961,1609;0,0391145
2962,1252;0,0389585
2963,0894;0,038804
2964,0537;0,0386503
2965,0178;0,0384977
2965,9822;0,0383471
2966,9463;0,0382002
2967,9106;0,0380572
2968,8748;0,037916
2969,8391;0,0377724
2970,8032;0,0376219
2971,7676;0,037462
2972,7317;0,0372942
2973,6960;0,0371238
2974,6602;0,0369577
2975,6245;0,0368016
2976,5886;0,0366573
2977,5530;0,0365227
2978,5171;0,036394
2979,4814;0,0362686
2980,4456;0,0361476
2981,4099;0,0360359
2982,3740;0,0359398
2983,3384;0,035863
2984,3025;0,0358047
2985,2668;0,0357591
2986,2310;0,0357181
2987,1953;0,0356743
2988,1594;0,0356244
2989,1238;0,0355696
2990,0879;0,0355151
2991,0522;0,0354672
2992,0164;0,0354316
2992,9807;0,035411
2993,9448;0,0354051
2994,9092;0,0354105
2995,8733;0,0354234
2996,8376;0,0354412
2997,8018;0,0354633
2998,7661;0,0354908
2999,7302;0,0355244
3000,6946;0,0355627
3001,6587;0,0356028
3002,6230;0,0356424
3003,5872;0,0356822
3004,5515;0,0357261
3005,5156;0,0357785
3006,4800;0,03584
3007,4441;0,035905
3008,4084;0,0359638
3009,3726;0,0360079
3010,3369;0,0360353
3011,3010;0,0360524
3012,2654;0,0360703
3013,2295;0,0360987
3014,1938;0,036141
3015,1580;0,0361941
3016,1223;0,036252
3017,0864;0,0363107
3018,0508;0,0363699
3019,0149;0,0364319
3019,9792;0,0364993
3020,9434;0,0365729
3021,9077;0,0366526
3022,8718;0,0367388
3023,8362;0,036833
3024,8003;0,0369366
3025,7646;0,0370495
3026,7288;0,0371684
3027,6931;0,0372869
3028,6572;0,0373976
3029,6216;0,0374939
3030,5857;0,0375725
3031,5500;0,0376349
3032,5142;0,0376884
3033,4785;0,0377444
3034,4426;0,0378149
3035,4070;0,037907
3036,3711;0,0380194
3037,3354;0,0381414
3038,2996;0,0382579
3039,2639;0,0383567
3040,2280;0,0384352
3041,1924;0,038503
3042,1565;0,038577
3043,1208;0,0386737
3044,0850;0,0387998
3045,0493;0,0389491
3046,0134;0,0391056
3046,9778;0,0392515
3047,9419;0,0393767
3048,9063;0,039483
3049,8704;0,0395826
3050,8347;0,0396901
3051,7988;0,0398142
3052,7632;0,0399527
3053,7273;0,0400946
3054,6917;0,0402274
3055,6558;0,0403452
3056,6201;0,0404527
3057,5842;0,040562
3058,5486;0,0406855
3059,5127;0,0408284
3060,4771;0,0409852
3061,4412;0,0411428
3062,4055;0,0412862
3063,3696;0,0414053
3064,3340;0,0414989
3065,2981;0,0415748
3066,2625;0,0416467
3067,2266;0,0417284
3068,1909;0,0418291
3069,1550;0,0419507
3070,1194;0,0420882
3071,0835;0,042233
3072,0479;0,0423758
3073,0120;0,0425096
3073,9763;0,0426309
3074,9404;0,0427398
3075,9048;0,0428392
3076,8689;0,0429343
3077,8333;0,0430312
3078,7974;0,043135
3079,7617;0,0432472
3080,7258;0,0433656
3081,6902;0,0434853
3082,6543;0,0436017
3083,6187;0,0437134
3084,5828;0,0438219
3085,5471;0,0439299
3086,5112;0,0440392
3087,4756;0,0441498
3088,4397;0,0442617
3089,4041;0,0443758
3090,3682;0,0444948
3091,3325;0,0446208
3092,2966;0,044754
3093,2610;0,044891
3094,2251;0,0450271
3095,1895;0,0451585
3096,1536;0,0452844
3097,1179;0,0454062
3098,0820;0,0455259
3099,0464;0,0456445
3100,0105;0,0457616
3100,9749;0,0458767
3101,9390;0,0459907
3102,9033;0,0461057
3103,8674;0,0462248
3104,8318;0,0463502
3105,7959;0,0464831
3106,7603;0,0466236
3107,7244;0,0467713
3108,6887;0,0469256
3109,6528;0,0470858
3110,6172;0,0472501
3111,5813;0,0474147
3112,5457;0,0475747
3113,5098;0,047725
3114,4741;0,0478636
3115,4382;0,0479926
3116,4026;0,0481184
3117,3667;0,0482484
3118,3311;0,0483876
3119,2952;0,0485357
3120,2595;0,0486887
3121,2236;0,048841
3122,1880;0,048989
3123,1521;0,0491327
3124,1165;0,0492748
3125,0806;0,0494188
3126,0449;0,0495678
3127,0090;0,0497228
3127,9734;0,049883
3128,9375;0,0500458
3129,9019;0,050207
3130,8660;0,0503627
3131,8303;0,0505119
3132,7944;0,0506582
3133,7588;0,0508094
3134,7229;0,0509736
3135,6873;0,0511543
3136,6514;0,0513476
3137,6157;0,051543
3138,5798;0,0517293
3139,5442;0,0519001
3140,5083;0,0520576
3141,4727;0,0522116
3142,4368;0,0523739
3143,4011;0,0525523
3144,3652;0,0527473
3145,3296;0,0529525
3146,2937;0,0531595
3147,2581;0,0533614
3148,2222;0,0535556
3149,1865;0,0537427
3150,1506;0,0539237
3151,1150;0,0540979
3152,0791;0,0542633
3153,0435;0,0544196
3154,0076;0,0545708
3154,9719;0,0547266
3155,9360;0,0548986
3156,9004;0,055095
3157,8645;0,0553156
3158,8289;0,05555
3159,7930;0,0557823
3160,7573;0,0559975
3161,7214;0,0561884
3162,6858;0,0563588
3163,6499;0,0565207
3164,6143;0,056689
3165,5784;0,0568743
3166,5427;0,0570791
3167,5068;0,0572979
3168,4712;0,0575209
3169,4353;0,0576848
3170,3997;0,0578939
3171,3638;0,0580949
3172,3281;0,0582926
3173,2922;0,058492
3174,2566;0,058696
3175,2207;0,0589038
3176,1851;0,0591112
3177,1492;0,0593132
3178,1135;0,0595067
3179,0776;0,0596921
3180,0420;0,0598733
3181,0061;0,0600552
3181,9705;0,0602408
3182,9346;0,0604295
3183,8989;0,0606177
3184,8630;0,0608022
3185,8274;0,0609828
3186,7915;0,0611639
3187,7559;0,0613523
3188,7200;0,0615526
3189,6843;0,0617645
3190,6484;0,0619822
3191,6128;0,0621975
3192,5769;0,062404
3193,5413;0,0625995
3194,5054;0,0627852
3195,4697;0,0629633
3196,4338;0,0631347
3197,3982;0,0633
3198,3623;0,0634621
3199,3267;0,0636274
3200,2908;0,0638046
3201,2551;0,0640008
3202,2192;0,0642164
3203,1836;0,0644441
3204,1477;0,0646713
3205,1121;0,0648854
3206,0762;0,0650786
3207,0405;0,0652503
3208,0046;0,0654064
3208,9690;0,0655564
3209,9331;0,06571
3210,8975;0,065875
3211,8616;0,0660551
3212,8259;0,0662494
3213,7900;0,0664525
3214,7544;0,0666568
3215,7185;0,0668548
3216,6829;0,0670428
3217,6470;0,0672211
3218,6113;0,0673941
3219,5754;0,0675668
3220,5398;0,0677437
3221,5039;0,0679261
3222,4683;0,0681132
3223,4324;0,0683019
3224,3967;0,0684894
3225,3608;0,0686741
3226,3252;0,0688579
3227,2893;0,0690446
3228,2537;0,0692378
3229,2178;0,0694367
3230,1821;0,0696345
3231,1462;0,0698205
3232,1106;0,0699854
3233,0747;0,0701283
3234,0391;0,0702589
3235,0032;0,0703936
3235,9675;0,0705485
3236,9316;0,0707321
3237,8960;0,0709438
3238,8601;0,071176
3239,8245;0,0714187
3240,7886;0,0716617
3241,7529;0,0718951
3242,7170;0,072109
3243,6814;0,0722968
3244,6455;0,0724595
3245,6099;0,0726083
3246,5740;0,0727626
3247,5383;0,0729411
3248,5024;0,0731534
3249,4668;0,0733959
3250,4309;0,0736552
3251,3953;0,073915
3252,3594;0,0741634
3253,3237;0,0743957
3254,2878;0,0746138
3255,2522;0,0748217
3256,2163;0,0750236
3257,1807;0,0752223
3258,1448;0,0754202
3259,1091;0,07562
3260,0732;0,0758249
3261,0376;0,0760372
3262,0017;0,0762583
3262,9661;0,0764864
3263,9302;0,0767165
3264,8945;0,0769403
3265,8586;0,0771493
3266,8230;0,0773377
3267,7871;0,0775066
3268,7515;0,0776632
3269,7156;0,0778175
3270,6799;0,077976
3271,6440;0,078138
3272,6084;0,0782966
3273,5725;0,0784435
3274,5369;0,0785745
3275,5010;0,078692
3276,4653;0,0788015
3277,4294;0,0789071
3278,3938;0,0790083
3279,3579;0,0791004
3280,3223;0,0791796
3281,2864;0,0792463
3282,2507;0,079306
3283,2148;0,0793673
3284,1792;0,0794369
3285,1433;0,0795163
3286,1077;0,0796011
3287,0718;0,0796825
3288,0361;0,0797511
3289,0002;0,0797999
3289,9646;0,0798272
3290,9287;0,0798361
3291,8931;0,0798335
3292,8572;0,0798267
3293,8215;0,0798212
3294,7856;0,0798199
3295,7500;0,0798242
3296,7141;0,0798349
3297,6785;0,0798521
3298,6426;0,0798739
3299,6069;0,0798953
3300,5710;0,079909
3301,5354;0,0799085
3302,4995;0,0798916
3303,4639;0,0798621
3304,4280;0,0798291
3305,3923;0,0798024
3306,3564;0,079789
3307,3208;0,0797897
3308,2849;0,0797997
3309,2493;0,0798121
3310,2134;0,0798222
3311,1777;0,0798303
3312,1418;0,0798414
3313,1062;0,0798623
3314,0703;0,0798972
3315,0347;0,079945
3315,9988;0,0800015
3316,9631;0,0800629
3317,9272;0,08013
3318,8916;0,0802079
3319,8557;0,0803012
3320,8201;0,0804088
3321,7842;0,0805208
3322,7485;0,0806233
3323,7126;0,0807058
3324,6770;0,0807675
3325,6411;0,0808173
3326,6055;0,0808678
3327,5696;0,0809265
3328,5339;0,0809927
3329,4980;0,0810599
3330,4624;0,0811212
3331,4265;0,0811723
3332,3909;0,0812116
3333,3550;0,081236
3334,3193;0,0812398
3335,2834;0,0812168
3336,2478;0,0811651
3337,2119;0,0810902
3338,1763;0,0810031
3339,1404;0,0809138
3340,1047;0,0808259
3341,0688;0,080736
3342,0332;0,0806371
3342,9973;0,080524
3343,9617;0,080397
3344,9258;0,0802603
3345,8901;0,0801181
3346,8542;0,0799714
3347,8186;0,0798174
3348,7827;0,0796529
3349,7471;0,0794771
3350,7112;0,0792936
3351,6755;0,0791089
3352,6396;0,0789286
3353,6040;0,0787548
3354,5681;0,0785855
3355,5325;0,078417
3356,4966;0,0782475
3357,4609;0,0780792
3358,4250;0,0779168
3359,3894;0,0777639
3360,3535;0,0776192
3361,3179;0,0774759
3362,2820;0,0773243
3363,2463;0,0771572
3364,2104;0,076974
3365,1748;0,0767806
3366,1389;0,0765857
3367,1033;0,0763958
3368,0674;0,0762108
3369,0317;0,076025
3369,9958;0,0758315
3370,9602;0,0756265
3371,9243;0,0754129
3372,8887;0,0751996
3373,8528;0,0749973
3374,8171;0,0748135
3375,7813;0,0746494
3376,7456;0,0744989
3377,7097;0,074352
3378,6741;0,074199
3379,6382;0,074034
3380,6025;0,0738566
3381,5667;0,0736707
3382,5310;0,0734829
3383,4951;0,0733007
3384,4595;0,0731307
3385,4236;0,0729773
3386,3879;0,0728404
3387,3521;0,0727146
3388,3164;0,0725895
3389,2805;0,0724535
3390,2449;0,0722977
3391,2090;0,0721199
3392,1733;0,0719254
3393,1375;0,0717246
3394,1018;0,0715286
3395,0659;0,0713451
3396,0303;0,0711765
3396,9944;0,0710204
3397,9587;0,0708702
3398,9229;0,0707171
3399,8872;0,0705518
3400,8513;0,0703674
3401,8157;0,0701615
3402,7798;0,0699377
3403,7441;0,0697047
3404,7083;0,0694742
3405,6726;0,0692572
3406,6367;0,0690603
3407,6011;0,0688829
3408,5652;0,0687163
3409,5295;0,0685461
3410,4937;0,0683581
3411,4580;0,0681461
3412,4221;0,0679164
3413,3865;0,0676845
3414,3506;0,0674665
3415,3149;0,0672679
3416,2791;0,0670798
3417,2434;0,0668829
3418,2075;0,0666588
3419,1719;0,0663999
3420,1360;0,0661147
3421,1003;0,0658218
3422,0645;0,0655403
3423,0288;0,0652803
3423,9929;0,0650414
3424,9573;0,0648163
3425,9214;0,0645961
3426,8857;0,0643735
3427,8499;0,0641434
3428,8142;0,063903
3429,7783;0,0636517
3430,7427;0,0633913
3431,7068;0,0631257
3432,6711;0,0628604
3433,6353;0,0626013
3434,5996;0,062353
3435,5637;0,0621167
3436,5281;0,0618881
3437,4922;0,0616591
3438,4565;0,0614225
3439,4207;0,0611771
3440,3850;0,0609309
3441,3491;0,060696
3442,3135;0,0604789
3443,2776;0,0602722
3444,2419;0,0600549
3445,2061;0,0598029
3446,1704;0,0595058
3447,1345;0,059177
3448,0989;0,0588476
3449,0630;0,0585479
3450,0273;0,0582898
3450,9915;0,0580632
3451,9558;0,0578465
3452,9199;0,0576211
3453,8843;0,0573814
3454,8484;0,0571348
3455,8127;0,0568937
3456,7769;0,0566656
3457,7412;0,0564473
3458,7053;0,0562273
3459,6697;0,0559916
3460,6338;0,0557317
3461,5981;0,0554484
3462,5623;0,0551509
3463,5266;0,0548523
3464,4907;0,0545633
3465,4551;0,0542894
3466,4192;0,0540309
3467,3835;0,0537857
3468,3477;0,0535513
3469,3120;0,0533239
3470,2761;0,0530976
3471,2405;0,0528641
3472,2046;0,0526163
3473,1689;0,0523545
3474,1331;0,0520894
3475,0974;0,0518388
3476,0615;0,0516162
3477,0259;0,0514214
3477,9900;0,0512383
3478,9543;0,0510433
3479,9185;0,0508194
3480,8828;0,0505674
3481,8469;0,0503049
3482,8113;0,0500533
3483,7754;0,0498214
3484,7397;0,0495993
3485,7039;0,0493669
3486,6682;0,0491095
3487,6323;0,0488293
3488,5967;0,0485458
3489,5608;0,0482835
3490,5251;0,0480558
3491,4893;0,0478572
3492,4536;0,0476682
3493,4177;0,0474696
3494,3821;0,0472563
3495,3462;0,0470421
3496,3105;0,0468515
3497,2747;0,0466994
3498,2390;0,0465771
3499,2031;0,0464507
3500,1675;0,0462776
3501,1316;0,0460307
3502,0959;0,0457186
3503,0601;0,0453872
3504,0244;0,0450921
3504,9885;0,0448607
3505,9529;0,0446764
3506,9170;0,0444931
3507,8813;0,0442663
3508,8455;0,0439793
3509,8098;0,0436514
3510,7739;0,043324
3511,7383;0,0430317
3512,7024;0,0427836
3513,6667;0,0425664
3514,6309;0,0423622
3515,5952;0,0421646
3516,5593;0,0419821
3517,5237;0,041828
3518,4878;0,0417074
3519,4521;0,0416104
3520,4163;0,0415158
3521,3806;0,0414014
3522,3447;0,0412529
3523,3091;0,041066
3524,2732;0,0408414
3525,2375;0,0405787
3526,2017;0,0402758
3527,1660;0,0399378
3528,1301;0,0395851
3529,0945;0,0392513
3530,0586;0,0389688
3531,0229;0,0387502
3531,9871;0,0385815
3532,9514;0,0384307
3533,9155;0,0382632
3534,8799;0,0380572
3535,8440;0,0378149
3536,8083;0,0375636
3537,7725;0,0373446
3538,7368;0,0371928
3539,7009;0,0371195
3540,6653;0,0371053
3541,6294;0,0371027
3542,5938;0,0370477
3543,5579;0,0368816
3544,5222;0,0365847
3545,4863;0,0362006
3546,4507;0,0358167
3547,4148;0,0355062
3548,3792;0,0352818
3549,3433;0,0351001
3550,3076;0,0348996
3551,2717;0,0346434
3552,2361;0,0343433
3553,2002;0,0340505
3554,1646;0,0338169
3555,1287;0,0336577
3556,0930;0,033548
3557,0571;0,0334498
3558,0215;0,0333461
3558,9856;0,0332563
3559,9500;0,0332225
3560,9141;0,0332734
3561,8784;0,0333902
3562,8425;0,0334978
3563,8069;0,0334787
3564,7710;0,0332076
3565,7354;0,0326236
3566,6995;0,0318266
3567,6638;0,0310678
3568,6279;0,030565
3569,5923;0,0303514
3570,5564;0,0303172
3571,5208;0,0303259
3572,4849;0,0302859
3573,4492;0,0301667
3574,4133;0,0299855
3575,3777;0,0297787
3576,3418;0,0295757
3577,3062;0,0293891
3578,2703;0,0292264
3579,2346;0,0291063
3580,1987;0,0290573
3581,1631;0,0290966
3582,1272;0,0292051
3583,0916;0,0293203
3584,0557;0,0293468
3585,0200;0,0291857
3585,9841;0,0287914
3586,9485;0,0282483
3587,9126;0,0277669
3588,8770;0,0275296
3589,8411;0,0275502
3590,8054;0,0277022
3591,7695;0,0278291
3592,7339;0,0278233
3593,6980;0,0276628
3594,6624;0,0274104
3595,6265;0,0271647
3596,5908;0,0269833
3597,5549;0,0268479
3598,5193;0,0266984
3599,4834;0,026498
3600,4478;0,0262702
3601,4119;0,0260784
3602,3762;0,0259665
3603,3403;0,0259184
3604,3047;0,0258686
3605,2688;0,0257413
3606,2332;0,0254912
3607,1973;0,0251301
3608,1616;0,024726
3609,1257;0,0243627
3610,0901;0,0240917
3611,0542;0,023921
3612,0186;0,0238381
3612,9827;0,0238279
3613,9470;0,0238669
3614,9111;0,0239075
3615,8755;0,0238764
3616,8396;0,023699
3617,8040;0,0233496
3618,7681;0,0229068
3619,7324;0,022551
3620,6965;0,0224558
3621,6609;0,0226631
3622,6250;0,0230731
3623,5894;0,0235227
3624,5535;0,0238494
3625,5178;0,0239097
3626,4819;0,0235854
3627,4463;0,0228453
3628,4104;0,0218786
3629,3748;0,0210707
3630,3389;0,0206781
3631,3032;0,0206323
3632,2673;0,0207038
3633,2317;0,0207089
3634,1958;0,0205814
3635,1602;0,0203531
3636,1243;0,0200976
3637,0886;0,0198722
3638,0527;0,019694
3639,0171;0,0195588
3639,9812;0,0194732
3640,9456;0,0194676
3641,9097;0,0195747
3642,8740;0,0197965
3643,8381;0,0200881
3644,8025;0,0203592
3645,7666;0,0204753
3646,7310;0,0202512
3647,6951;0,0195197
3648,6594;0,0183876
3649,6235;0,0173615
3650,5879;0,0168695
3651,5520;0,0168695
3652,5164;0,0170637
3653,4805;0,0171884
3654,4448;0,0171143
3655,4089;0,0168541
3656,3733;0,0165328
3657,3374;0,0163003
3658,3018;0,0162235
3659,2659;0,0162609
3660,2302;0,0163343
3661,1943;0,0164077
3662,1587;0,0165063
3663,1228;0,0166752
3664,0872;0,0169189
3665,0513;0,0171782
3666,0156;0,0173561
3666,9797;0,0173715
3667,9441;0,0172132
3668,9082;0,016979
3669,8726;0,016837
3670,8367;0,0168838
3671,8010;0,0170467
3672,7651;0,0171423
3673,7295;0,0169984
3674,6936;0,0165645
3675,6580;0,0159914
3676,6221;0,0155522
3677,5864;0,0153989
3678,5505;0,0154708
3679,5149;0,0156343
3680,4790;0,015816
3681,4434;0,0160228
3682,4075;0,0162913
3683,3718;0,0166286
3684,3359;0,0169868
3685,3003;0,0172792
3686,2644;0,017412
3687,2288;0,0173154
3688,1929;0,016991
3689,1572;0,0165678
3690,1213;0,0162594
3691,0857;0,0161928
3692,0498;0,0163315
3693,0142;0,0165655
3693,9783;0,0168083
3694,9426;0,0170223
3695,9067;0,0171997
3696,8711;0,017335
3697,8352;0,0174118
3698,7996;0,0174066
3699,7637;0,01731
3700,7280;0,0171534
3701,6921;0,017018
3702,6565;0,0170017
3703,6206;0,0171573
3704,5850;0,0174613
3705,5491;0,0178338
3706,5134;0,0181722
3707,4775;0,0183644
3708,4419;0,0182874
3709,4060;0,0178375
3710,3704;0,0170441
3711,3345;0,0161699
3712,2988;0,015569
3713,2629;0,0154097
3714,2273;0,0156205
3715,1914;0,0160344
3716,1558;0,016509
3717,1199;0,0169627
3718,0842;0,0173661
3719,0483;0,0177192
3720,0127;0,0180264
3720,9768;0,0182799
3721,9412;0,0184567
3722,9053;0,0185359
3723,8696;0,0185245
3724,8337;0,0184723
3725,7981;0,0184542
3726,7622;0,0185253
3727,7266;0,0186912
3728,6907;0,018915
3729,6550;0,0191442
3730,6191;0,0193246
3731,5835;0,0193905
3732,5476;0,019248
3733,5120;0,0188054
3734,4761;0,0180952
3735,4404;0,0173695
3736,4045;0,0169474
3737,3689;0,0169448
3738,3330;0,0172291
3739,2974;0,0175629
3740,2615;0,0177298
3741,2258;0,017593
3742,1899;0,0171353
3743,1543;0,0165132
3744,1184;0,0160443
3745,0828;0,0159979
3746,0469;0,0163461
3747,0112;0,0168011
3747,9753;0,0170308
3748,9397;0,0168092
3749,9038;0,0161334
3750,8682;0,0153228
3751,8323;0,0148408
3752,7966;0,0148776
3753,7607;0,0152596
3754,7251;0,0156988
3755,6892;0,0159811
3756,6536;0,0160129
3757,6177;0,0158221
3758,5820;0,0155406
3759,5461;0,0153344
3760,5105;0,0152999
3761,4746;0,0154214
3762,4390;0,0156162
3763,4031;0,0157985
3764,3674;0,0159123
3765,3315;0,015933
3766,2959;0,0158562
3767,2600;0,0156866
3768,2244;0,0154414
3769,1885;0,0151666
3770,1528;0,0149429
3771,1169;0,0148565
3772,0813;0,0149467
3773,0454;0,0151802
3774,0098;0,0154708
3774,9739;0,015721
3775,9382;0,0158549
3776,9023;0,0158418
3777,8667;0,0157107
3778,8308;0,0155449
3779,7952;0,0154351
3780,7593;0,0154209
3781,7236;0,0154742
3782,6877;0,0155329
3783,6521;0,0155433
3784,6162;0,0154854
3785,5806;0,0153776
3786,5447;0,0152654
3787,5090;0,0151993
3788,4731;0,0152122
3789,4375;0,0153072
3790,4016;0,0154587
3791,3660;0,0156273
3792,3301;0,0157817
3793,2944;0,0159169
3794,2585;0,0160571
3795,2229;0,016233
3796,1870;0,0164456
3797,1514;0,0166426
3798,1155;0,0167321
3799,0798;0,0166336
3800,0439;0,0163451
3801,0083;0,015982
3801,9724;0,0157095
3802,9368;0,0155979
3803,9009;0,0155657
3804,8652;0,0154699
3805,8293;0,0152388
3806,7937;0,0149493
3807,7578;0,014788
3808,7222;0,0148966
3809,6863;0,0152517
3810,6506;0,0157021
3811,6147;0,016085
3812,5791;0,0163073
3813,5432;0,0163733
3814,5076;0,0163714
3815,4717;0,0164132
3816,4360;0,0165381
3817,4001;0,0166642
3818,3645;0,016643
3819,3286;0,0163754
3820,2930;0,0159142
3821,2571;0,0154667
3822,2214;0,0152431
3823,1855;0,0152921
3824,1499;0,015509
3825,1140;0,0157538
3826,0784;0,015938
3827,0425;0,0160442
3828,0068;0,0161037
3828,9709;0,0161617
3829,9353;0,0162486
3830,8994;0,0163709
3831,8638;0,0165156
3832,8279;0,0166575
3833,7922;0,0167636
3834,7563;0,0167973
3835,7207;0,0167282
3836,6848;0,0165485
3837,6492;0,0162912
3838,6133;0,016024
3839,5776;0,0158056
3840,5417;0,0156445
3841,5061;0,0155121
3842,4702;0,0153956
3843,4346;0,0153334
3844,3987;0,0154012
3845,3630;0,0156598
3846,3271;0,0161054
3847,2915;0,016661
3848,2556;0,0172015
3849,2200;0,0175795
3850,1841;0,0176297
3851,1484;0,0171758
3852,1125;0,0161484
3853,0769;0,01487
3854,0410;0,0140148
3855,0054;0,0139409
3855,9695;0,0144424
3856,9338;0,0151484
3857,8979;0,0158014
3858,8623;0,0162816
3859,8264;0,0165549
3860,7908;0,0166347
3861,7549;0,0165688
3862,7192;0,0164388
3863,6833;0,0163417
3864,6477;0,0163397
3865,6118;0,0164242
3866,5762;0,0165315
3867,5403;0,016586
3868,5046;0,016534
3869,4688;0,0163625
3870,4331;0,0161083
3871,3972;0,0158494
3872,3616;0,0156703
3873,3257;0,0156214
3874,2900;0,015702
3875,2542;0,0158699
3876,2185;0,0160657
3877,1826;0,0162364
3878,1470;0,0163516
3879,1111;0,0164089
3880,0754;0,016422
3881,0396;0,0163975
3882,0039;0,01632
3882,9680;0,0161694
3883,9324;0,0159631
3884,8965;0,0157766
3885,8608;0,0157031
3886,8250;0,0157749
3887,7893;0,0159268
3888,7534;0,0160387
3889,7178;0,0160173
3890,6819;0,0158686
3891,6462;0,0157136
3892,6104;0,0157079
3893,5747;0,0159126
3894,5388;0,0162556
3895,5032;0,0166055
3896,4673;0,0168562
3897,4316;0,0169631
3898,3958;0,0169392
3899,3601;0,0168269
3900,3242;0,0166591
3901,2886;0,0164354
3902,2527;0,0161427
3903,2170;0,0158039
3904,1812;0,015495
3905,1455;0,0152983
3906,1096;0,015244
3907,0740;0,0153019
3908,0381;0,0154188
3909,0024;0,0155547
3909,9666;0,0156944
3910,9309;0,0158382
3911,8950;0,0159834
3912,8594;0,0161114
3913,8235;0,01619
3914,7878;0,01619
3915,7520;0,0161083
3916,7163;0,0159855
3917,6804;0,0158954
3918,6448;0,0159004
3919,6089;0,0160064
3920,5732;0,0161586
3921,5374;0,0162777
3922,5017;0,0163064
3923,4658;0,0162429
3924,4302;0,0161441
3925,3943;0,0160887
3926,3586;0,0161215
3927,3228;0,0162252
3928,2871;0,0163363
3929,2512;0,0163836
3930,2156;0,0163251
3931,1797;0,0161719
3932,1440;0,015985
3933,1082;0,0158382
3934,0725;0,0157755
3935,0366;0,015798
3936,0010;0,0158798
3936,9651;0,015988
3937,9294;0,0160918
3938,8936;0,0161652
3939,8579;0,0161905
3940,8220;0,016167
3941,7864;0,0161178
3942,7505;0,0160828
3943,7148;0,0160944
3944,6790;0,0161538
3945,6433;0,0162287
3946,6074;0,0162729
3947,5718;0,0162526
3948,5359;0,0161669
3949,5002;0,0160483
3950,4644;0,0159419
3951,4287;0,0158783
3952,3928;0,0158616
3953,3572;0,0158777
3954,3213;0,0159097
3955,2856;0,0159462
3956,2498;0,0159812
3957,2141;0,01601
3958,1782;0,016027
3959,1426;0,0160282
3960,1067;0,0160141
3961,0710;0,0159913
3962,0352;0,0159694
3962,9995;0,0159565
3963,9636;0,0159566
3964,9280;0,0159694
3965,8921;0,0159934
3966,8564;0,0160262
3967,8206;0,0160645
3968,7849;0,0161025
3969,7490;0,0161325
3970,7134;0,0161473
3971,6775;0,0161435
3972,6418;0,0161224
3973,6060;0,0160901
3974,5703;0,0160545
3975,5344;0,0160227
3976,4988;0,0159994
3977,4629;0,0159856
3978,4272;0,0159786
3979,3914;0,015974
3980,3557;0,0159679
3981,3198;0,015959
3982,2842;0,0159505
3983,2483;0,0159479
3984,2126;0,0159558
3985,1768;0,015974
3986,1411;0,0159973
3987,1052;0,0160176
3988,0696;0,0160298
3989,0337;0,0160345
3989,9980;0,0160373
3990,9622;0,016044
3991,9265;0,0160558
3992,8906;0,0160679
3993,8550;0,0160729
3994,8191;0,0160661
3995,7834;0,0160486
3996,7476;0,0160262
3997,7119;0,0160061
3998,6760;0,0159939
3999,6404;0,0159927
4000,6045;0,0161217

##### Extended Information
[Comments]
Sample name
Comment
Username
Division
Organization;UNIVERSIDAD INDUSTRIAL DE SANTANDER

[Detailed Information]
Creation date;14/03/2025 10:30 a.m.

Data array type;Linear data array
Horizontal axis;Wavenumber [cm-1]
Vertical axis;Abs
Start;399,193 cm-1
End;4000,6 cm-1
Data interval;0,964233 cm-1
Data points;3736    

[Measurement Information]
Model name;FT/IR-4X1typeA
Serial No.;A035162111

Accessory;ATR PRO 4X
Accessory S/N;A021162126
Incident angle;45 deg

Measurement date;14/03/2025 10:29 a.m.

Light source;Standard
Detector;TGS
Accumulation;40
Resolution;4 cm-1
Zero filling;On
Apodization;Cosine
Gain;Auto (8)
Aperture;Auto (7 mm)
Scan speed;Auto (2 mm/sec)
Filter;Auto (12800 Hz)

