TITLE;
DATA TYPE;INFRARED SPECTRUM
ORIGIN;JASCO
OWNER;
DATE;25/03/14
TIME;11:25:23
SPECTROMETER/DATA SYSTEM;
LOCALE;9226
RESOLUTION;
DELTAX;0,964233
XUNITS;1/CM
YUNITS;ABSORBANCE
FIRSTX;  399,1927
LASTX; 4000,6047
NPOINTS;    3736
FIRSTY;     0,13701
MAXY;     0,21965
MINY;     0,01569
XYDATA
399,1927;0,137006
400,1569;0,138186
401,1211;0,13864
402,0854;0,138524
403,0496;0,138089
404,0138;0,137548
404,9781;0,137054
405,9423;0,136702
406,9065;0,136548
407,8708;0,136646
408,8350;0,13706
409,7992;0,137859
410,7635;0,139051
411,7277;0,140507
412,6919;0,141957
413,6562;0,143088
414,6204;0,14364
415,5846;0,143455
416,5489;0,14253
417,5131;0,141171
418,4773;0,140139
419,4416;0,140271
420,4058;0,141661
421,3700;0,143626
422,3343;0,14542
423,2985;0,146633
424,2627;0,147178
425,2270;0,147201
426,1912;0,146992
427,1554;0,146839
428,1197;0,146895
429,0839;0,14714
430,0481;0,147447
431,0124;0,147692
431,9766;0,147837
432,9408;0,147933
433,9051;0,148066
434,8693;0,148276
435,8335;0,148524
436,7978;0,148718
437,7620;0,148793
438,7262;0,148754
439,6905;0,148671
440,6547;0,148638
441,6189;0,148711
442,5832;0,148871
443,5474;0,149018
444,5116;0,149021
445,4759;0,148794
446,4401;0,148335
447,4043;0,147714
448,3686;0,147032
449,3328;0,146386
450,2970;0,145852
451,2613;0,145481
452,2255;0,145298
453,1897;0,145295
454,1540;0,145435
455,1182;0,145652
456,0824;0,145864
457,0467;0,146002
458,0109;0,146045
458,9751;0,146045
459,9394;0,146078
460,9036;0,146194
461,8678;0,146391
462,8321;0,146632
463,7963;0,146873
464,7605;0,14707
465,7248;0,147185
466,6890;0,147177
467,6532;0,147013
468,6175;0,146686
469,5817;0,146242
470,5459;0,14579
471,5102;0,14548
472,4744;0,145425
473,4386;0,145629
474,4029;0,14598
475,3671;0,146336
476,3313;0,146601
477,2956;0,14675
478,2598;0,146802
479,2240;0,146783
480,1883;0,146704
481,1525;0,146581
482,1167;0,146457
483,0810;0,146417
484,0452;0,146564
485,0094;0,146947
485,9737;0,147513
486,9379;0,14813
487,9021;0,148661
488,8664;0,149044
489,8306;0,149315
490,7948;0,149576
491,7591;0,14992
492,7233;0,150346
493,6875;0,150759
494,6518;0,151036
495,6160;0,151123
496,5802;0,151083
497,5445;0,151058
498,5087;0,151177
499,4729;0,151487
500,4372;0,151921
501,4014;0,152341
502,3656;0,15263
503,3299;0,152767
504,2941;0,152833
505,2583;0,152939
506,2226;0,153159
507,1868;0,153501
508,1510;0,153925
509,1153;0,15439
510,0795;0,154875
511,0437;0,155387
512,0080;0,155936
512,9722;0,156518
513,9365;0,15711
514,9007;0,15768
515,8649;0,158208
516,8292;0,15869
517,7934;0,15913
518,7576;0,159525
519,7219;0,159852
520,6861;0,160091
521,6503;0,160237
522,6146;0,160319
523,5788;0,160392
524,5430;0,160521
525,5073;0,160737
526,4715;0,161018
527,4357;0,161293
528,4000;0,161483
529,3642;0,161548
530,3284;0,161488
531,2927;0,161336
532,2569;0,161125
533,2211;0,160882
534,1854;0,160626
535,1496;0,160374
536,1138;0,160144
537,0781;0,159952
538,0423;0,159795
539,0065;0,159655
539,9708;0,159509
540,9350;0,159352
541,8992;0,159218
542,8635;0,159171
543,8277;0,159283
544,7919;0,159592
545,7562;0,160076
546,7204;0,160654
547,6846;0,161218
548,6489;0,161687
549,6131;0,162043
550,5773;0,162337
551,5416;0,162654
552,5058;0,163072
553,4700;0,163623
554,4343;0,164283
555,3985;0,164977
556,3627;0,165598
557,3270;0,166038
558,2912;0,166211
559,2554;0,16607
560,2197;0,165616
561,1839;0,164891
562,1481;0,163967
563,1124;0,162922
564,0766;0,161829
565,0408;0,160757
566,0051;0,15978
566,9693;0,158971
567,9335;0,158384
568,8978;0,158022
569,8620;0,157823
570,8262;0,157687
571,7905;0,157524
572,7547;0,157303
573,7189;0,157048
574,6832;0,156814
575,6474;0,156644
576,6116;0,156539
577,5759;0,156468
578,5401;0,156398
579,5043;0,156315
580,4686;0,156231
581,4328;0,156163
582,3970;0,156119
583,3613;0,156094
584,3255;0,156086
585,2897;0,156101
586,2540;0,156152
587,2182;0,156238
588,1824;0,156344
589,1467;0,156435
590,1109;0,156479
591,0751;0,156458
592,0394;0,15637
593,0036;0,156219
593,9678;0,155995
594,9321;0,155681
595,8963;0,155264
596,8605;0,154755
597,8248;0,154202
598,7890;0,153673
599,7532;0,153231
600,7175;0,152898
601,6817;0,152644
602,6459;0,152413
603,6102;0,152151
604,5744;0,15184
605,5386;0,151498
606,5029;0,151164
607,4671;0,150867
608,4313;0,150606
609,3956;0,150354
610,3598;0,150076
611,3240;0,149751
612,2883;0,149383
613,2525;0,148996
614,2167;0,148612
615,1810;0,148232
616,1452;0,147828
617,1094;0,147342
618,0737;0,146714
619,0379;0,145913
620,0021;0,144947
620,9664;0,143864
621,9306;0,142729
622,8948;0,14161
623,8591;0,140563
624,8233;0,139613
625,7875;0,138775
626,7518;0,138032
627,7160;0,137365
628,6802;0,136755
629,6445;0,136193
630,6087;0,135669
631,5729;0,135169
632,5372;0,13467
633,5014;0,134148
634,4656;0,133591
635,4299;0,133005
636,3941;0,13242
637,3583;0,131872
638,3226;0,131395
639,2868;0,131001
640,2510;0,130678
641,2153;0,130395
642,1795;0,130125
643,1437;0,129855
644,1080;0,129588
645,0722;0,129334
646,0364;0,129096
647,0007;0,128856
647,9649;0,128593
648,9291;0,128295
649,8934;0,127982
650,8576;0,127699
651,8218;0,127494
652,7861;0,127392
653,7503;0,127388
654,7145;0,127457
655,6788;0,127566
656,6430;0,127688
657,6072;0,127801
658,5715;0,127876
659,5357;0,127876
660,4999;0,127766
661,4642;0,127541
662,4284;0,127234
663,3926;0,126898
664,3569;0,12658
665,3211;0,126315
666,2853;0,126115
667,2496;0,125909
668,2138;0,125492
669,1780;0,124724
670,1423;0,123744
671,1065;0,122727
672,0707;0,121681
673,0350;0,120534
673,9992;0,119254
674,9634;0,117877
675,9277;0,11649
676,8919;0,115177
677,8561;0,113962
678,8204;0,112819
679,7846;0,11172
680,7488;0,110669
681,7131;0,109702
682,6773;0,10885
683,6415;0,108121
684,6058;0,107495
685,5700;0,106943
686,5342;0,106437
687,4985;0,105959
688,4627;0,105496
689,4269;0,105045
690,3912;0,104614
691,3554;0,104223
692,3196;0,103883
693,2839;0,103589
694,2481;0,103318
695,2123;0,103035
696,1766;0,102716
697,1408;0,102358
698,1050;0,101975
699,0693;0,101586
700,0335;0,101206
700,9977;0,100836
701,9620;0,100464
702,9262;0,100077
703,8904;0,0996592
704,8547;0,099203
705,8189;0,098709
706,7831;0,0981882
707,7474;0,0976611
708,7116;0,097151
709,6758;0,0966734
710,6401;0,096227
711,6043;0,0957936
712,5685;0,095349
713,5328;0,09488
714,4970;0,0943942
715,4612;0,0938176
716,4255;0,0933824
717,3897;0,0929729
718,3539;0,0925457
719,3182;0,0920397
720,2824;0,0914112
721,2466;0,0906651
722,2109;0,0898555
723,1751;0,0890553
724,1393;0,0883189
725,1036;0,0876625
726,0678;0,0870657
727,0320;0,0864865
727,9963;0,0858823
728,9605;0,0852274
729,9247;0,0845233
730,8890;0,0837978
731,8532;0,0830931
732,8174;0,0824493
733,7817;0,0818879
734,7459;0,081405
735,7101;0,0809767
736,6744;0,0805749
737,6386;0,0801823
738,6028;0,0797986
739,5671;0,0794333
740,5313;0,0790924
741,4955;0,0787677
742,4598;0,0784375
743,4240;0,0780769
744,3882;0,0776719
745,3525;0,0772273
746,3167;0,0767637
747,2809;0,0763058
748,2452;0,0758705
749,2094;0,07546
750,1736;0,075065
751,1379;0,0746731
752,1021;0,0742779
753,0663;0,0738811
754,0306;0,0734892
754,9948;0,073106
755,9590;0,0727286
756,9233;0,0723486
757,8875;0,0719602
758,8517;0,0715668
759,8160;0,0711839
760,7802;0,0708318
761,7444;0,0705246
762,7087;0,0702595
763,6729;0,0700157
764,6371;0,0697641
765,6014;0,0694835
766,5656;0,0691724
767,5298;0,0688496
768,4941;0,0685418
769,4583;0,0682677
770,4225;0,0680291
771,3868;0,0678138
772,3510;0,0676067
773,3152;0,0673997
774,2795;0,0671927
775,2437;0,0669869
776,2079;0,0667787
777,1722;0,0665596
778,1364;0,0663222
779,1006;0,0660671
780,0649;0,0658017
781,0291;0,0655344
781,9933;0,0652668
782,9576;0,0649939
783,9218;0,064709
784,8860;0,0644117
785,8503;0,0641097
786,8145;0,0638154
787,7787;0,0635395
788,7430;0,0632882
789,7072;0,0630646
790,6714;0,0628721
791,6357;0,0627145
792,5999;0,0625929
793,5641;0,0625017
794,5284;0,0624285
795,4926;0,0623587
796,4568;0,0622821
797,4211;0,0621961
798,3853;0,062104
799,3495;0,0620092
800,3138;0,0619118
801,2780;0,0618082
802,2422;0,0616953
803,2065;0,0615751
804,1707;0,0614556
805,1349;0,0613461
806,0992;0,0612516
807,0634;0,0611688
808,0276;0,0610871
808,9919;0,0609954
809,9561;0,0608893
810,9203;0,0607737
811,8846;0,0606599
812,8488;0,0605571
813,8130;0,0604655
814,7773;0,0603745
815,7415;0,0602686
816,7057;0,0601358
817,6700;0,0599749
818,6342;0,0597961
819,5984;0,0596166
820,5627;0,0594534
821,5269;0,0593175
822,4911;0,0592122
823,4554;0,0591344
824,4196;0,059077
825,3839;0,0590322
826,3481;0,0589934
827,3123;0,0589561
828,2766;0,058917
829,2408;0,0588729
830,2050;0,0588184
831,1693;0,0587451
832,1335;0,058643
833,0977;0,0585036
834,0620;0,0583234
835,0262;0,0581066
835,9904;0,057865
836,9547;0,0576159
837,9189;0,0573776
838,8831;0,0571641
839,8474;0,056982
840,8116;0,0568281
841,7758;0,0566923
842,7401;0,0565626
843,7043;0,0564314
844,6685;0,056299
845,6328;0,0561726
846,5970;0,0560609
847,5612;0,0559678
848,5255;0,0558896
849,4897;0,055817
850,4539;0,0557409
851,4182;0,0556592
852,3824;0,0555783
853,3466;0,0555101
854,3109;0,0554642
855,2751;0,0554414
856,2393;0,0554314
857,2036;0,0554171
858,1678;0,0553836
859,1320;0,0553264
860,0963;0,0552548
861,0605;0,0551886
862,0247;0,0551488
862,9890;0,0551497
863,9532;0,0551948
864,9174;0,0552775
865,8817;0,0553871
866,8459;0,0555126
867,8101;0,0556443
868,7744;0,055773
869,7386;0,0558894
870,7028;0,0559869
871,6671;0,0560652
872,6313;0,0561328
873,5955;0,0562036
874,5598;0,0562891
875,5240;0,0563908
876,4882;0,0564986
877,4525;0,0565976
878,4167;0,0566802
879,3809;0,0567553
880,3452;0,0568482
881,3094;0,0569905
882,2736;0,0572068
883,2379;0,0575048
884,2021;0,0578768
885,1663;0,0583097
886,1306;0,0587963
887,0948;0,0593401
888,0590;0,0599508
889,0233;0,0606323
889,9875;0,061373
890,9517;0,0621433
891,9160;0,062902
892,8802;0,0636076
893,8444;0,0642264
894,8087;0,0647349
895,7729;0,0651163
896,7371;0,0653565
897,7014;0,0654442
898,6656;0,0653743
899,6298;0,0651534
900,5941;0,064801
901,5583;0,0643463
902,5225;0,0638232
903,4868;0,0632653
904,4510;0,0627044
905,4152;0,0621698
906,3795;0,0616874
907,3437;0,0612751
908,3079;0,0609398
909,2722;0,0606773
910,2364;0,0604774
911,2007;0,0603312
912,1649;0,060235
913,1292;0,0601907
914,0934;0,0602012
915,0576;0,0602666
916,0219;0,060384
916,9861;0,0605475
917,9503;0,0607493
918,9146;0,0609767
919,8788;0,061211
920,8430;0,0614297
921,8073;0,0616147
922,7715;0,0617609
923,7357;0,0618802
924,7000;0,0619944
925,6642;0,0621235
926,6284;0,0622746
927,5927;0,0624392
928,5569;0,0626012
929,5211;0,0627471
930,4854;0,0628742
931,4496;0,0629908
932,4138;0,0631121
933,3781;0,0632542
934,3423;0,0634301
935,3065;0,0636477
936,2708;0,0639089
937,2350;0,0642097
938,1992;0,0645423
939,1635;0,0648995
940,1277;0,065279
941,0919;0,065685
942,0562;0,066126
943,0204;0,0666102
943,9846;0,0671414
944,9489;0,0677197
945,9131;0,0683439
946,8773;0,069015
947,8416;0,0697365
948,8058;0,0705117
949,7700;0,0713415
950,7343;0,0722247
951,6985;0,0731611
952,6627;0,0741539
953,6270;0,0752094
954,5912;0,0763322
955,5554;0,077521
956,5197;0,0787668
957,4839;0,0800572
958,4481;0,0813827
959,4124;0,0827417
960,3766;0,0841393
961,3408;0,085581
962,3051;0,0870668
963,2693;0,088589
964,2335;0,0901366
965,1978;0,0917017
966,1620;0,0932849
967,1262;0,0948938
968,0905;0,0965394
969,0547;0,0982331
970,0189;0,0999889
970,9832;0,101829
971,9474;0,10379
972,9116;0,105917
973,8759;0,108256
974,8401;0,110841
975,8043;0,113683
976,7686;0,11677
977,7328;0,120073
978,6970;0,123554
979,6613;0,12716
980,6255;0,130823
981,5897;0,134447
982,5540;0,137918
983,5182;0,14112
984,4824;0,143963
985,4467;0,146407
986,4109;0,148465
987,3751;0,150199
988,3394;0,151685
989,3036;0,152991
990,2678;0,154162
991,2321;0,155219
992,1963;0,156174
993,1605;0,157043
994,1248;0,157852
995,0890;0,158638
996,0532;0,159438
997,0175;0,16028
997,9817;0,161175
998,9459;0,162117
999,9102;0,163085
1000,8744;0,164058
1001,8386;0,165021
1002,8029;0,165975
1003,7671;0,166939
1004,7313;0,167947
1005,6956;0,169039
1006,6598;0,170252
1007,6240;0,171619
1008,5883;0,173165
1009,5525;0,174904
1010,5167;0,176841
1011,4810;0,178962
1012,4452;0,181233
1013,4094;0,183602
1014,3737;0,186015
1015,3379;0,188422
1016,3021;0,19079
1017,2664;0,193102
1018,2306;0,195348
1019,1948;0,197527
1020,1591;0,199639
1021,1233;0,201694
1022,0875;0,20371
1023,0518;0,205709
1024,0160;0,20771
1024,9802;0,209711
1025,9445;0,211691
1026,9087;0,213603
1027,8729;0,215383
1028,8372;0,216959
1029,8014;0,218251
1030,7656;0,219176
1031,7299;0,219653
1032,6941;0,219611
1033,6583;0,219007
1034,6226;0,217847
1035,5868;0,216199
1036,5510;0,214192
1037,5153;0,212005
1038,4795;0,209829
1039,4437;0,207842
1040,4080;0,206175
1041,3722;0,2049
1042,3364;0,204027
1043,3007;0,203516
1044,2649;0,203287
1045,2291;0,203238
1046,1934;0,203265
1047,1576;0,203276
1048,1218;0,203205
1049,0861;0,203007
1050,0503;0,202655
1051,0145;0,202124
1051,9788;0,201387
1052,9430;0,200417
1053,9072;0,199196
1054,8715;0,19772
1055,8357;0,195995
1056,7999;0,194014
1057,7642;0,191743
1058,7284;0,189128
1059,6926;0,186122
1060,6569;0,182721
1061,6211;0,178995
1062,5853;0,175082
1063,5496;0,171155
1064,5138;0,167373
1065,4780;0,163848
1066,4423;0,160623
1067,4065;0,157691
1068,3707;0,155017
1069,3350;0,152555
1070,2992;0,150268
1071,2634;0,148121
1072,2277;0,146086
1073,1919;0,144137
1074,1561;0,142251
1075,1204;0,140405
1076,0846;0,138581
1077,0488;0,13676
1078,0131;0,134939
1078,9773;0,133129
1079,9415;0,131364
1080,9058;0,129694
1081,8700;0,128169
1082,8342;0,126828
1083,7985;0,125685
1084,7627;0,124726
1085,7269;0,123926
1086,6912;0,123254
1087,6554;0,122689
1088,6196;0,12222
1089,5839;0,121848
1090,5481;0,121574
1091,5123;0,121398
1092,4766;0,121314
1093,4408;0,121315
1094,4050;0,121397
1095,3693;0,12156
1096,3335;0,121806
1097,2977;0,122136
1098,2620;0,122545
1099,2262;0,123017
1100,1904;0,123524
1101,1547;0,124027
1102,1189;0,124479
1103,0831;0,124832
1104,0474;0,125047
1105,0116;0,1251
1105,9758;0,12499
1106,9401;0,124731
1107,9043;0,12434
1108,8685;0,123824
1109,8328;0,123162
1110,7970;0,122315
1111,7612;0,121243
1112,7255;0,119935
1113,6897;0,118426
1114,6539;0,116793
1115,6182;0,115139
1116,5824;0,113562
1117,5466;0,112119
1118,5109;0,110822
1119,4751;0,109638
1120,4393;0,108508
1121,4036;0,107363
1122,3678;0,10614
1123,3320;0,10479
1124,2963;0,103282
1125,2605;0,101603
1126,2247;0,0997645
1127,1890;0,0977944
1128,1532;0,0957355
1129,1174;0,0936353
1130,0817;0,091536
1131,0459;0,0894703
1132,0101;0,0874615
1132,9744;0,0855295
1133,9386;0,0836977
1134,9028;0,0819972
1135,8671;0,0804658
1136,8313;0,0791407
1137,7955;0,0780496
1138,7598;0,0772019
1139,7240;0,0765859
1140,6882;0,0761726
1141,6525;0,0759251
1142,6167;0,0758085
1143,5809;0,0757969
1144,5452;0,0758744
1145,5094;0,0760312
1146,4736;0,0762597
1147,4379;0,0765529
1148,4021;0,076907
1149,3663;0,0773232
1150,3306;0,0778067
1151,2948;0,0783603
1152,2590;0,0789768
1153,2233;0,0796346
1154,1875;0,0802981
1155,1517;0,0809227
1156,1160;0,0814588
1157,0802;0,0818536
1158,0444;0,0820491
1159,0087;0,0819825
1159,9729;0,0815908
1160,9371;0,0808209
1161,9014;0,0796413
1162,8656;0,0780511
1163,8298;0,076082
1164,7941;0,0737945
1165,7583;0,0712712
1166,7225;0,0686086
1167,6868;0,0659083
1168,6510;0,0632666
1169,6152;0,0607641
1170,5795;0,0584575
1171,5437;0,0563761
1172,5079;0,0545252
1173,4722;0,0528941
1174,4364;0,0514646
1175,4006;0,0502186
1176,3649;0,0491412
1177,3291;0,0482213
1178,2933;0,0474494
1179,2576;0,0468142
1180,2218;0,0462999
1181,1860;0,0458863
1182,1503;0,0455521
1183,1145;0,0452801
1184,0787;0,0450624
1185,0430;0,0449013
1186,0072;0,0448052
1186,9714;0,0447824
1187,9357;0,0448356
1188,8999;0,0449604
1189,8641;0,0451488
1190,8284;0,0453933
1191,7926;0,0456916
1192,7568;0,046046
1193,7211;0,0464613
1194,6853;0,046941
1195,6495;0,0474837
1196,6138;0,0480811
1197,5780;0,0487178
1198,5422;0,0493733
1199,5065;0,0499621
1200,4707;0,0505982
1201,4349;0,0511994
1202,3992;0,0517624
1203,3634;0,0522918
1204,3276;0,0527951
1205,2919;0,053278
1206,2561;0,0537423
1207,2203;0,0541882
1208,1846;0,0546195
1209,1488;0,0550478
1210,1130;0,0554934
1211,0773;0,0559802
1212,0415;0,0565281
1213,0057;0,0571453
1213,9700;0,0578267
1214,9342;0,0585568
1215,8984;0,0593166
1216,8627;0,0600888
1217,8269;0,06086
1218,7911;0,0616202
1219,7554;0,0623606
1220,7196;0,0630719
1221,6838;0,0637455
1222,6481;0,0643752
1223,6123;0,0649589
1224,5765;0,065499
1225,5408;0,0660007
1226,5050;0,0664698
1227,4692;0,0669108
1228,4335;0,0673246
1229,3977;0,0677088
1230,3619;0,068058
1231,3262;0,0683652
1232,2904;0,0686248
1233,2546;0,0688346
1234,2189;0,0689981
1235,1831;0,0691237
1236,1473;0,0692228
1237,1116;0,0693055
1238,0758;0,0693775
1239,0400;0,0694392
1240,0043;0,0694866
1240,9685;0,0695142
1241,9327;0,0695164
1242,8970;0,0694876
1243,8612;0,0694219
1244,8254;0,0693123
1245,7897;0,0691536
1246,7539;0,0689453
1247,7181;0,0686937
1248,6824;0,0684115
1249,6466;0,0681138
1250,6108;0,0678138
1251,5751;0,0675201
1252,5393;0,0672368
1253,5035;0,0669657
1254,4678;0,0667068
1255,4320;0,0664586
1256,3962;0,0662153
1257,3605;0,065967
1258,3247;0,0657009
1259,2889;0,0654045
1260,2532;0,0650697
1261,2174;0,0646941
1262,1816;0,0642809
1263,1459;0,0638363
1264,1101;0,0633669
1265,0743;0,0628778
1266,0386;0,0623706
1267,0028;0,061843
1267,9670;0,0612897
1268,9313;0,0607048
1269,8955;0,0600865
1270,8597;0,0594395
1271,8240;0,0587743
1272,7882;0,0581039
1273,7524;0,0574398
1274,7167;0,0567903
1275,6809;0,0561603
1276,6451;0,0555535
1277,6094;0,0549719
1278,5736;0,054415
1279,5378;0,0538784
1280,5021;0,0533543
1281,4663;0,0528345
1282,4305;0,0523135
1283,3948;0,0517913
1284,3590;0,0512744
1285,3232;0,050775
1286,2875;0,0503096
1287,2517;0,0498967
1288,2159;0,0495525
1289,1802;0,0492864
1290,1444;0,0490988
1291,1086;0,0489824
1292,0729;0,0489277
1293,0371;0,0489279
1294,0013;0,0489815
1294,9656;0,0490907
1295,9298;0,0492584
1296,8940;0,0494856
1297,8583;0,0497715
1298,8225;0,0501141
1299,7867;0,0505116
1300,7510;0,0509607
1301,7152;0,0514577
1302,6794;0,0519975
1303,6437;0,0525767
1304,6079;0,0531947
1305,5721;0,053852
1306,5364;0,0545458
1307,5006;0,0552668
1308,4648;0,0560002
1309,4291;0,0567289
1310,3933;0,0574373
1311,3575;0,0581123
1312,3218;0,0587406
1313,2860;0,0593064
1314,2502;0,0597909
1315,2145;0,060174
1316,1787;0,0604379
1317,1429;0,0605705
1318,1072;0,0605712
1319,0714;0,0604546
1320,0356;0,0602498
1320,9999;0,0599929
1321,9641;0,0597176
1322,9283;0,0594493
1323,8926;0,0592046
1324,8568;0,0589934
1325,8210;0,0588198
1326,7853;0,0586817
1327,7495;0,0585712
1328,7137;0,0584764
1329,6780;0,0583839
1330,6422;0,0582807
1331,6064;0,0581556
1332,5707;0,0579973
1333,5349;0,0577939
1334,4991;0,0575314
1335,4634;0,0571934
1336,4276;0,0567659
1337,3918;0,0562474
1338,3561;0,0556618
1339,3203;0,0550625
1340,2845;0,0545129
1341,2488;0,0540527
1342,2130;0,053682
1343,1772;0,053376
1344,1415;0,0531099
1345,1057;0,0528753
1346,0699;0,0526813
1347,0342;0,0525457
1347,9984;0,0524843
1348,9626;0,0525022
1349,9269;0,0525919
1350,8911;0,052738
1351,8553;0,0529255
1352,8196;0,0531465
1353,7838;0,0534041
1354,7480;0,0537083
1355,7123;0,0540657
1356,6765;0,0544702
1357,6407;0,0549021
1358,6050;0,0553369
1359,5692;0,0557557
1360,5334;0,0561499
1361,4977;0,0565191
1362,4619;0,0568687
1363,4261;0,0572064
1364,3904;0,0575372
1365,3546;0,0578579
1366,3188;0,0581591
1367,2831;0,0584287
1368,2473;0,0586536
1369,2115;0,0588185
1370,1758;0,0589046
1371,1400;0,0588914
1372,1042;0,0587623
1373,0685;0,0585152
1374,0327;0,0581741
1374,9969;0,0577854
1375,9612;0,0573892
1376,9254;0,0569883
1377,8896;0,056549
1378,8539;0,0560321
1379,8181;0,0554276
1380,7823;0,054766
1381,7466;0,0540979
1382,7108;0,0534552
1383,6750;0,0528304
1384,6393;0,0521897
1385,6035;0,0515114
1386,5677;0,0508271
1387,5320;0,0502239
1388,4962;0,0497861
1389,4604;0,0495288
1390,4247;0,0493975
1391,3889;0,0493187
1392,3531;0,0492419
1393,3174;0,0491521
1394,2816;0,0490624
1395,2458;0,0489975
1396,2101;0,0489788
1397,1743;0,0490174
1398,1385;0,0491172
1399,1028;0,0492775
1400,0670;0,0494906
1401,0313;0,0497389
1401,9955;0,0500001
1402,9597;0,0502579
1403,9240;0,0505114
1404,8882;0,0507772
1405,8524;0,0510785
1406,8167;0,0514288
1407,7809;0,0518241
1408,7451;0,0522514
1409,7094;0,0527026
1410,6736;0,0531799
1411,6378;0,0536868
1412,6021;0,0542152
1413,5663;0,0547405
1414,5305;0,0552311
1415,4948;0,0556619
1416,4590;0,0560229
1417,4232;0,0563204
1418,3875;0,0565764
1419,3517;0,0568196
1420,3159;0,0570578
1421,2802;0,0572554
1422,2444;0,0573518
1423,2086;0,0573018
1424,1729;0,0571004
1425,1371;0,056776
1426,1013;0,0563562
1427,0656;0,0558392
1428,0298;0,0552001
1428,9940;0,0544349
1429,9583;0,0536006
1430,9225;0,0527957
1431,8867;0,0520842
1432,8510;0,0514434
1433,8152;0,0507835
1434,7794;0,0500162
1435,7437;0,0491418
1436,7079;0,0483023
1437,6721;0,0476967
1438,6364;0,0474047
1439,6006;0,0473491
1440,5648;0,0474068
1441,5291;0,0475004
1442,4933;0,0476134
1443,4575;0,0477641
1444,4218;0,0479729
1445,3860;0,048242
1446,3502;0,0485558
1447,3145;0,0488938
1448,2787;0,0492432
1449,2429;0,0495995
1450,2072;0,0499549
1451,1714;0,0502877
1452,1356;0,0505628
1453,0999;0,0507395
1454,0641;0,0507741
1455,0283;0,0506141
1455,9926;0,0502165
1456,9568;0,0496602
1457,9210;0,0492239
1458,8853;0,0491165
1459,8495;0,04926
1460,8137;0,0494502
1461,7780;0,0495128
1462,7422;0,0493254
1463,7064;0,0488208
1464,6707;0,0480351
1465,6349;0,0471313
1466,5991;0,0462862
1467,5634;0,0455457
1468,5276;0,0448196
1469,4918;0,0439607
1470,4561;0,0428244
1471,4203;0,0413244
1472,3845;0,0395389
1473,3488;0,0377729
1474,3130;0,0363599
1475,2772;0,0353881
1476,2415;0,034733
1477,2057;0,0342442
1478,1699;0,0338314
1479,1342;0,033458
1480,0984;0,0331165
1481,0626;0,0328159
1482,0269;0,032575
1482,9911;0,0324122
1483,9553;0,0323326
1484,9196;0,0323214
1485,8838;0,0323517
1486,8480;0,0323988
1487,8123;0,0324562
1488,7765;0,0325511
1489,7407;0,0327406
1490,7050;0,0330647
1491,6692;0,0335071
1492,6334;0,0340176
1493,5977;0,0345563
1494,5619;0,0351131
1495,5261;0,0357035
1496,4904;0,0363526
1497,4546;0,0370771
1498,4188;0,0378738
1499,3831;0,0387148
1500,3473;0,0395488
1501,3115;0,0403155
1502,2758;0,0409631
1503,2400;0,0414575
1504,2042;0,0417751
1505,1685;0,0418765
1506,1327;0,0416906
1507,0969;0,0412426
1508,0612;0,0408072
1509,0254;0,0406107
1509,9896;0,040597
1510,9539;0,0406148
1511,9181;0,0405573
1512,8823;0,0403686
1513,8466;0,0400244
1514,8108;0,0395293
1515,7750;0,0389227
1516,7393;0,0382686
1517,7035;0,0376193
1518,6677;0,036986
1519,6320;0,0363514
1520,5962;0,035716
1521,5604;0,035131
1522,5247;0,0346671
1523,4889;0,0343514
1524,4531;0,0341561
1525,4174;0,0340429
1526,3816;0,0339996
1527,3458;0,0340343
1528,3101;0,0341456
1529,2743;0,0343076
1530,2385;0,0344823
1531,2028;0,0346435
1532,1670;0,0347939
1533,1312;0,0349666
1534,0955;0,0351987
1535,0597;0,0354939
1536,0239;0,0358149
1536,9882;0,0361122
1537,9524;0,0363436
1538,9166;0,0364619
1539,8809;0,0364005
1540,8451;0,0361655
1541,8093;0,0359477
1542,7736;0,0359155
1543,7378;0,0360443
1544,7020;0,0362412
1545,6663;0,0364482
1546,6305;0,0366439
1547,5947;0,0368175
1548,5590;0,036956
1549,5232;0,037049
1550,4874;0,0371023
1551,4517;0,0371442
1552,4159;0,0372107
1553,3801;0,0373163
1554,3444;0,0374367
1555,3086;0,0375094
1556,2728;0,0374338
1557,2371;0,0370764
1558,2013;0,036414
1559,1655;0,0358016
1560,1298;0,035666
1561,0940;0,0359776
1562,0582;0,0364801
1563,0225;0,0369915
1563,9867;0,0374319
1564,9509;0,0377767
1565,9152;0,0380267
1566,8794;0,0382008
1567,8436;0,0383433
1568,8079;0,0385235
1569,7721;0,0388026
1570,7363;0,0391881
1571,7006;0,0396322
1572,6648;0,0400747
1573,6290;0,0404803
1574,5933;0,0408496
1575,5575;0,0412142
1576,5217;0,041622
1577,4860;0,0421088
1578,4502;0,042673
1579,4144;0,043282
1580,3787;0,0439031
1581,3429;0,0445201
1582,3071;0,0451324
1583,2714;0,0457485
1584,2356;0,0463805
1585,1998;0,0470399
1586,1641;0,0477307
1587,1283;0,0484431
1588,0925;0,0491513
1589,0568;0,0498182
1590,0210;0,050404
1590,9852;0,0508743
1591,9495;0,0512035
1592,9137;0,0513771
1593,8779;0,0513976
1594,8422;0,0512899
1595,8064;0,051097
1596,7706;0,0508645
1597,7349;0,0506242
1598,6991;0,0503899
1599,6633;0,0501634
1600,6276;0,0499443
1601,5918;0,0497364
1602,5560;0,0495488
1603,5203;0,0493902
1604,4845;0,0492615
1605,4487;0,0491516
1606,4130;0,0490424
1607,3772;0,0489232
1608,3414;0,048807
1609,3057;0,0487329
1610,2699;0,0487407
1611,2341;0,0488382
1612,1984;0,0489912
1613,1626;0,0491412
1614,1268;0,0492305
1615,0911;0,0492305
1616,0553;0,0491778
1617,0195;0,0491754
1617,9838;0,0493068
1618,9480;0,049558
1619,9122;0,0498506
1620,8765;0,0501113
1621,8407;0,0503043
1622,8049;0,0504361
1623,7692;0,0505423
1624,7334;0,0506586
1625,6976;0,0507959
1626,6619;0,0509466
1627,6261;0,0511102
1628,5903;0,0513025
1629,5546;0,0515376
1630,5188;0,0518056
1631,4830;0,0520678
1632,4473;0,0522676
1633,4115;0,0523402
1634,3757;0,0522308
1635,3400;0,0519577
1636,3042;0,0516736
1637,2684;0,0515524
1638,2327;0,0516185
1639,1969;0,0517894
1640,1611;0,0519888
1641,1254;0,0521807
1642,0896;0,0523491
1643,0538;0,0524712
1644,0181;0,0524992
1644,9823;0,0523731
1645,9465;0,0520906
1646,9108;0,0517832
1647,8750;0,0516231
1648,8392;0,0516392
1649,8035;0,0517037
1650,7677;0,0516081
1651,7319;0,0510971
1652,6962;0,0500217
1653,6604;0,0487358
1654,6246;0,0478893
1655,5889;0,0476058
1656,5531;0,0475883
1657,5173;0,0475741
1658,4816;0,0474282
1659,4458;0,0470889
1660,4100;0,0465356
1661,3743;0,045807
1662,3385;0,0450278
1663,3027;0,0443547
1664,2670;0,0438627
1665,2312;0,0435064
1666,1954;0,0431704
1667,1597;0,0427273
1668,1239;0,0420909
1669,0881;0,0412856
1670,0524;0,0404652
1671,0166;0,0397868
1671,9808;0,0392607
1672,9451;0,0387708
1673,9093;0,0381987
1674,8735;0,0375242
1675,8378;0,0368505
1676,8020;0,0363235
1677,7662;0,0360084
1678,7305;0,0358561
1679,6947;0,0357552
1680,6589;0,0355758
1681,6232;0,0351768
1682,5874;0,0344378
1683,5516;0,0334042
1684,5159;0,03239
1685,4801;0,0316971
1686,4443;0,031326
1687,4086;0,0311091
1688,3728;0,030914
1689,3370;0,0306966
1690,3013;0,030473
1691,2655;0,0302742
1692,2297;0,0301136
1693,1940;0,0299787
1694,1582;0,0298391
1695,1224;0,0296629
1696,0867;0,0294284
1697,0509;0,029128
1698,0151;0,0287704
1698,9794;0,0283925
1699,9436;0,028067
1700,9078;0,0278692
1701,8721;0,0278225
1702,8363;0,0278889
1703,8005;0,0280037
1704,7648;0,0281163
1705,7290;0,0282138
1706,6932;0,0283225
1707,6575;0,0284839
1708,6217;0,028723
1709,5859;0,0290345
1710,5502;0,0293942
1711,5144;0,0297727
1712,4786;0,0301393
1713,4429;0,0304588
1714,4071;0,0306877
1715,3713;0,0307844
1716,3356;0,0307528
1717,2998;0,0306909
1718,2640;0,0307346
1719,2283;0,0309341
1720,1925;0,0312428
1721,1567;0,0315918
1722,1210;0,0319327
1723,0852;0,0322437
1724,0494;0,0325221
1725,0137;0,0327778
1725,9779;0,0330252
1726,9421;0,0332745
1727,9064;0,0335249
1728,8706;0,0337592
1729,8348;0,0339412
1730,7991;0,0340159
1731,7633;0,0339218
1732,7275;0,03364
1733,6918;0,0332584
1734,6560;0,0329369
1735,6202;0,0327566
1736,5845;0,0326654
1737,5487;0,032555
1738,5129;0,0323372
1739,4772;0,0319781
1740,4414;0,0315062
1741,4056;0,0309926
1742,3699;0,0305013
1743,3341;0,0300513
1744,2983;0,0296228
1745,2626;0,0291816
1746,2268;0,0286898
1747,1910;0,0281011
1748,1553;0,0273704
1749,1195;0,0265027
1750,0837;0,0255984
1751,0480;0,0248082
1752,0122;0,0242178
1752,9764;0,0238029
1753,9407;0,0234775
1754,9049;0,0231587
1755,8691;0,022804
1756,8334;0,0224156
1757,7976;0,0220172
1758,7618;0,021622
1759,7261;0,0212203
1760,6903;0,0208011
1761,6545;0,0203818
1762,6188;0,020009
1763,5830;0,0197245
1764,5472;0,0195332
1765,5115;0,0194056
1766,4757;0,0193019
1767,4399;0,0191914
1768,4042;0,0190568
1769,3684;0,0188855
1770,3326;0,0186646
1771,2969;0,0183931
1772,2611;0,0181063
1773,2253;0,0178709
1774,1896;0,017735
1775,1538;0,0176946
1776,1180;0,0177075
1777,0823;0,0177272
1778,0465;0,0177235
1779,0107;0,0176895
1779,9750;0,0176364
1780,9392;0,0175781
1781,9034;0,0175192
1782,8677;0,017456
1783,8319;0,0173911
1784,7961;0,0173427
1785,7604;0,0173373
1786,7246;0,0173906
1787,6888;0,0174936
1788,6531;0,0176127
1789,6173;0,0176987
1790,5815;0,0177018
1791,5458;0,0176012
1792,5100;0,0174364
1793,4742;0,0172904
1794,4385;0,0172231
1795,4027;0,0172366
1796,3669;0,0172948
1797,3312;0,0173543
1798,2954;0,01738
1799,2596;0,0173548
1800,2239;0,0172861
1801,1881;0,0172035
1802,1523;0,0171421
1803,1166;0,0171237
1804,0808;0,0171499
1805,0450;0,0172067
1806,0093;0,0172719
1806,9735;0,0173215
1807,9377;0,017335
1808,9020;0,0173035
1809,8662;0,0172356
1810,8304;0,0171564
1811,7947;0,0170931
1812,7589;0,0170597
1813,7231;0,0170517
1814,6874;0,0170549
1815,6516;0,0170578
1816,6158;0,0170596
1817,5801;0,0170698
1818,5443;0,0170998
1819,5085;0,0171514
1820,4728;0,0172121
1821,4370;0,0172614
1822,4012;0,0172819
1823,3655;0,0172692
1824,3297;0,0172353
1825,2939;0,0171997
1826,2582;0,0171747
1827,2224;0,0171577
1828,1866;0,0171377
1829,1509;0,0171101
1830,1151;0,0170862
1831,0793;0,017084
1832,0436;0,0171092
1833,0078;0,0171462
1833,9720;0,0171695
1834,9363;0,0171615
1835,9005;0,0171276
1836,8647;0,0170983
1837,8290;0,0171121
1838,7932;0,0171879
1839,7574;0,0173106
1840,7217;0,0174385
1841,6859;0,0175213
1842,6501;0,0175198
1843,6144;0,0174298
1844,5786;0,0172935
1845,5428;0,0171726
1846,5071;0,0171016
1847,4713;0,017075
1848,4355;0,0170702
1849,3998;0,0170702
1850,3640;0,0170713
1851,3282;0,0170776
1852,2925;0,0170912
1853,2567;0,0171077
1854,2209;0,0171186
1855,1852;0,0171188
1856,1494;0,0171106
1857,1136;0,0171023
1858,0779;0,0171024
1859,0421;0,0171151
1860,0063;0,0171402
1860,9706;0,0171777
1861,9348;0,0172295
1862,8990;0,0172985
1863,8633;0,0173832
1864,8275;0,0174732
1865,7917;0,0175485
1866,7560;0,0175827
1867,7202;0,0175575
1868,6844;0,0174794
1869,6487;0,0173819
1870,6129;0,0173014
1871,5771;0,0172541
1872,5414;0,0172347
1873,5056;0,0172295
1874,4698;0,0172281
1875,4341;0,0172277
1876,3983;0,0172319
1877,3625;0,0172441
1878,3268;0,0172612
1879,2910;0,017273
1880,2552;0,0172693
1881,2195;0,0172487
1882,1837;0,0172235
1883,1479;0,0172136
1884,1122;0,017234
1885,0764;0,0172829
1886,0406;0,0173408
1887,0049;0,0173806
1887,9691;0,0173836
1888,9333;0,0173532
1889,8976;0,0173134
1890,8618;0,0172912
1891,8260;0,0172965
1892,7903;0,0173182
1893,7545;0,0173367
1894,7188;0,0173402
1895,6830;0,0173339
1896,6472;0,017335
1897,6115;0,0173574
1898,5757;0,0173989
1899,5399;0,0174415
1900,5042;0,017464
1901,4684;0,0174556
1902,4326;0,0174231
1903,3969;0,0173851
1904,3611;0,0173595
1905,3253;0,0173521
1906,2896;0,0173551
1907,2538;0,0173565
1908,2180;0,0173499
1909,1823;0,0173407
1910,1465;0,0173408
1911,1107;0,0173577
1912,0750;0,0173865
1913,0392;0,0174129
1914,0034;0,0174222
1914,9677;0,017409
1915,9319;0,0173816
1916,8961;0,0173585
1917,8604;0,0173554
1918,8246;0,0173734
1919,7888;0,0173977
1920,7531;0,0174104
1921,7173;0,0174043
1922,6815;0,0173877
1923,6458;0,0173768
1924,6100;0,0173822
1925,5742;0,0173992
1926,5385;0,0174114
1927,5027;0,0174036
1928,4669;0,0173734
1929,4312;0,0173341
1930,3954;0,0173075
1931,3596;0,0173109
1932,3239;0,0173466
1933,2881;0,0173999
1934,2523;0,0174463
1935,2166;0,0174622
1936,1808;0,0174334
1937,1450;0,0173589
1938,1093;0,0172497
1939,0735;0,0171243
1940,0377;0,0170047
1941,0020;0,0169124
1941,9662;0,0168613
1942,9304;0,016852
1943,8947;0,0168696
1944,8589;0,0168905
1945,8231;0,0168934
1946,7874;0,0168672
1947,7516;0,0168132
1948,7158;0,0167445
1949,6801;0,0166807
1950,6443;0,016641
1951,6085;0,0166377
1952,5728;0,0166744
1953,5370;0,016748
1954,5012;0,0168529
1955,4655;0,0169811
1956,4297;0,0171195
1957,3939;0,0172465
1958,3582;0,0173345
1959,3224;0,017359
1960,2866;0,0173122
1961,2509;0,0172117
1962,2151;0,0170966
1963,1793;0,0170126
1964,1436;0,0169938
1965,1078;0,017048
1966,0720;0,0171485
1967,0363;0,0172371
1968,0005;0,0172454
1968,9647;0,017128
1969,9290;0,0168888
1970,8932;0,0165848
1971,8574;0,0163076
1972,8217;0,0161514
1973,7859;0,0161779
1974,7501;0,0163911
1975,7144;0,0167329
1976,6786;0,0171071
1977,6428;0,0174216
1978,6071;0,0176262
1979,5713;0,0177229
1980,5355;0,0177487
1981,4998;0,0177454
1982,4640;0,017736
1983,4282;0,0177167
1984,3925;0,0176648
1985,3567;0,01756
1986,3209;0,0174052
1987,2852;0,017234
1988,2494;0,0170977
1989,2136;0,0170399
1990,1779;0,0170729
1991,1421;0,0171731
1992,1063;0,0172967
1993,0706;0,0174078
1994,0348;0,0174954
1994,9990;0,0175687
1995,9633;0,0176403
1996,9275;0,0177109
1997,8917;0,0177684
1998,8560;0,017797
1999,8202;0,0177912
2000,7844;0,017765
2001,7487;0,0177494
2002,7129;0,0177808
2003,6771;0,0178838
2004,6414;0,0180572
2005,6056;0,018268
2006,5698;0,0184621
2007,5341;0,0185891
2008,4983;0,0186263
2009,4625;0,0185874
2010,4268;0,018509
2011,3910;0,0184311
2012,3552;0,0183837
2013,3195;0,018383
2014,2837;0,0184313
2015,2479;0,0185121
2016,2122;0,018587
2017,1764;0,018605
2018,1406;0,018529
2019,1049;0,0183629
2020,0691;0,0181553
2021,0333;0,0179716
2021,9976;0,0178546
2022,9618;0,0178006
2023,9260;0,0177694
2024,8903;0,0177214
2025,8545;0,0176516
2026,8187;0,0175936
2027,7830;0,0175911
2028,7472;0,0176631
2029,7114;0,0177931
2030,6757;0,0179481
2031,6399;0,0181082
2032,6041;0,018279
2033,5684;0,0184745
2034,5326;0,0186894
2035,4968;0,0188872
2036,4611;0,0190159
2037,4253;0,0190385
2038,3895;0,0189547
2039,3538;0,0188027
2040,3180;0,0186419
2041,2822;0,0185292
2042,2465;0,0184974
2043,2107;0,0185467
2044,1749;0,0186492
2045,1392;0,0187654
2046,1034;0,0188621
2047,0676;0,0189266
2048,0320;0,0189695
2048,9961;0,0190134
2049,9604;0,019075
2050,9246;0,0191538
2051,8889;0,019233
2052,8530;0,0192924
2053,8174;0,0193223
2054,7815;0,0193326
2055,7458;0,01935
2056,7100;0,0194018
2057,6743;0,019497
2058,6384;0,0196147
2059,6028;0,0197102
2060,5669;0,0197361
2061,5313;0,019667
2062,4954;0,0195165
2063,4597;0,0193349
2064,4238;0,0191897
2065,3882;0,0191363
2066,3523;0,019196
2067,3167;0,0193499
2068,2808;0,0195501
2069,2451;0,0197384
2070,2092;0,0198643
2071,1736;0,0198977
2072,1377;0,0198355
2073,1021;0,019702
2074,0662;0,0195412
2075,0305;0,0194036
2075,9946;0,0193303
2076,9590;0,0193406
2077,9231;0,0194279
2078,8875;0,0195644
2079,8516;0,0197119
2080,8159;0,0198345
2081,7800;0,0199079
2082,7444;0,0199255
2083,7085;0,0198975
2084,6729;0,0198456
2085,6370;0,0197931
2086,6013;0,019754
2087,5654;0,0197263
2088,5298;0,0196945
2089,4939;0,0196412
2090,4583;0,0195614
2091,4224;0,0194712
2092,3867;0,0194025
2093,3508;0,0193867
2094,3152;0,0194365
2095,2793;0,0195362
2096,2437;0,0196495
2097,2078;0,0197385
2098,1721;0,0197826
2099,1362;0,0197847
2100,1006;0,0197643
2101,0647;0,0197446
2102,0291;0,0197411
2102,9932;0,0197576
2103,9575;0,0197862
2104,9216;0,0198122
2105,8860;0,0198223
2106,8501;0,019813
2107,8145;0,0197958
2108,7786;0,0197928
2109,7429;0,0198216
2110,7070;0,0198795
2111,6714;0,019938
2112,6355;0,0199569
2113,5999;0,0199104
2114,5640;0,0198091
2115,5283;0,0196994
2116,4924;0,0196386
2117,4568;0,0196624
2118,4209;0,0197646
2119,3853;0,0199034
2120,3494;0,0200273
2121,3137;0,020103
2122,2778;0,0201263
2123,2422;0,0201124
2124,2063;0,0200775
2125,1707;0,0200262
2126,1348;0,0199541
2127,0991;0,0198606
2128,0632;0,0197607
2129,0276;0,0196865
2129,9917;0,0196774
2130,9561;0,0197646
2131,9202;0,0199546
2132,8845;0,0202195
2133,8486;0,0204981
2134,8130;0,0207153
2135,7771;0,0208151
2136,7415;0,0207905
2137,7056;0,0206882
2138,6699;0,0205816
2139,6340;0,0205283
2140,5984;0,0205396
2141,5625;0,0205812
2142,5269;0,0206042
2143,4910;0,0205815
2144,4553;0,020524
2145,4194;0,0204684
2146,3838;0,0204493
2147,3479;0,0204812
2148,3123;0,0205611
2149,2764;0,0206823
2150,2407;0,0208407
2151,2048;0,0210275
2152,1692;0,0212194
2153,1333;0,0213842
2154,0977;0,0215021
2155,0618;0,0215882
2156,0261;0,0216903
2156,9902;0,021852
2157,9546;0,02206
2158,9187;0,0222288
2159,8831;0,0222566
2160,8472;0,0221074
2161,8115;0,0218376
2162,7756;0,0215493
2163,7400;0,0213231
2164,7041;0,0211768
2165,6685;0,0210689
2166,6326;0,0209377
2167,5969;0,0207498
2168,5610;0,020528
2169,5254;0,0203422
2170,4895;0,02027
2171,4539;0,0203501
2172,4180;0,0205508
2173,3823;0,0207746
2174,3464;0,0209015
2175,3108;0,0208525
2176,2749;0,0206366
2177,2393;0,0203492
2178,2034;0,0201201
2179,1677;0,0200437
2180,1318;0,0201315
2181,0962;0,0203153
2182,0603;0,020495
2183,0247;0,0205998
2183,9888;0,0206205
2184,9531;0,0205946
2185,9172;0,0205622
2186,8816;0,0205335
2187,8457;0,0204891
2188,8101;0,0204085
2189,7742;0,0202994
2190,7385;0,0202028
2191,7026;0,0201713
2192,6670;0,0202364
2193,6311;0,020388
2194,5955;0,0205768
2195,5596;0,0207375
2196,5239;0,0208163
2197,4880;0,0207895
2198,4524;0,0206702
2199,4165;0,0205014
2200,3809;0,0203399
2201,3450;0,0202363
2202,3093;0,0202152
2203,2734;0,0202663
2204,2378;0,0203512
2205,2019;0,0204246
2206,1663;0,0204584
2207,1304;0,0204544
2208,0947;0,020437
2209,0588;0,0204326
2210,0232;0,0204499
2210,9873;0,0204738
2211,9517;0,0204771
2212,9158;0,0204397
2213,8801;0,0203622
2214,8442;0,0202661
2215,8086;0,0201824
2216,7727;0,0201364
2217,7371;0,0201384
2218,7012;0,0201832
2219,6655;0,020255
2220,6296;0,0203348
2221,5940;0,0204059
2222,5581;0,0204562
2223,5225;0,0204793
2224,4866;0,0204733
2225,4509;0,0204402
2226,4150;0,0203861
2227,3794;0,0203224
2228,3435;0,020267
2229,3079;0,020241
2230,2720;0,0202612
2231,2363;0,0203305
2232,2004;0,0204338
2233,1648;0,0205424
2234,1289;0,0206272
2235,0933;0,0206735
2236,0574;0,0206869
2237,0217;0,0206877
2237,9858;0,0206953
2238,9502;0,0207155
2239,9143;0,0207393
2240,8787;0,0207524
2241,8428;0,0207481
2242,8071;0,0207336
2243,7712;0,0207241
2244,7356;0,0207297
2245,6997;0,0207463
2246,6641;0,020757
2247,6282;0,0207432
2248,5925;0,0206973
2249,5566;0,0206287
2250,5210;0,0205606
2251,4851;0,02052
2252,4495;0,0205269
2253,4136;0,0205873
2254,3779;0,0206894
2255,3420;0,0208051
2256,3064;0,0208969
2257,2705;0,0209302
2258,2349;0,0208877
2259,1990;0,0207782
2260,1633;0,0206353
2261,1274;0,0205031
2262,0918;0,0204171
2263,0559;0,02039
2264,0203;0,0204107
2264,9844;0,0204558
2265,9487;0,0205051
2266,9128;0,0205519
2267,8772;0,0206011
2268,8413;0,0206594
2269,8057;0,0207265
2270,7698;0,0207917
2271,7341;0,0208386
2272,6982;0,0208531
2273,6626;0,020831
2274,6267;0,0207809
2275,5911;0,0207214
2276,5552;0,0206751
2277,5195;0,0206598
2278,4836;0,020681
2279,4480;0,0207302
2280,4121;0,0207889
2281,3765;0,0208387
2282,3406;0,0208696
2283,3049;0,0208835
2284,2690;0,0208901
2285,2334;0,0208989
2286,1975;0,0209133
2287,1619;0,0209299
2288,1260;0,0209437
2289,0903;0,0209536
2290,0544;0,0209654
2291,0188;0,0209887
2291,9829;0,0210304
2292,9473;0,0210899
2293,9114;0,0211578
2294,8757;0,0212184
2295,8398;0,0212564
2296,8042;0,0212626
2297,7683;0,021238
2298,7327;0,0211942
2299,6968;0,0211499
2300,6611;0,0211234
2301,6252;0,0211247
2302,5896;0,0211517
2303,5537;0,0211913
2304,5181;0,0212268
2305,4822;0,0212448
2306,4465;0,0212394
2307,4106;0,0212109
2308,3750;0,0211621
2309,3391;0,021095
2310,3035;0,0210129
2311,2676;0,020924
2312,2319;0,0208422
2313,1960;0,0207831
2314,1604;0,0207555
2315,1245;0,0207563
2316,0889;0,0207734
2317,0530;0,0207929
2318,0173;0,0208068
2318,9814;0,020814
2319,9458;0,0208167
2320,9099;0,0208167
2321,8743;0,0208164
2322,8384;0,0208218
2323,8027;0,0208413
2324,7668;0,0208785
2325,7312;0,0209277
2326,6953;0,0209744
2327,6597;0,0210005
2328,6238;0,0209917
2329,5881;0,0209466
2330,5522;0,0208832
2331,5166;0,020834
2332,4807;0,0208277
2333,4451;0,0208705
2334,4092;0,0209445
2335,3735;0,021023
2336,3376;0,0210896
2337,3020;0,0211485
2338,2661;0,0212155
2339,2305;0,0212964
2340,1946;0,0213635
2341,1589;0,0213534
2342,1230;0,0212008
2343,0874;0,0209134
2344,0515;0,0206312
2345,0159;0,0205583
2345,9800;0,0207887
2346,9443;0,0212317
2347,9084;0,0216993
2348,8728;0,0220274
2349,8369;0,0221404
2350,8013;0,0220601
2351,7654;0,0218801
2352,7297;0,0217146
2353,6938;0,0216411
2354,6582;0,021672
2355,6223;0,0217689
2356,5867;0,0218691
2357,5508;0,0219052
2358,5151;0,021827
2359,4792;0,021631
2360,4436;0,0213668
2361,4077;0,0211038
2362,3721;0,0208861
2363,3362;0,0207154
2364,3005;0,0205672
2365,2646;0,020416
2366,2290;0,0202488
2367,1931;0,0200661
2368,1575;0,0198773
2369,1216;0,0196973
2370,0859;0,0195434
2371,0500;0,0194304
2372,0144;0,0193673
2372,9785;0,0193571
2373,9429;0,0194001
2374,9070;0,0194963
2375,8713;0,0196456
2376,8354;0,0198444
2377,7998;0,0200826
2378,7639;0,0203415
2379,7283;0,0205962
2380,6924;0,0208208
2381,6567;0,0209963
2382,6208;0,0211157
2383,5852;0,0211859
2384,5493;0,0212233
2385,5137;0,0212468
2386,4778;0,0212702
2387,4421;0,021299
2388,4063;0,0213308
2389,3706;0,021361
2390,3347;0,0213872
2391,2991;0,0214119
2392,2632;0,0214398
2393,2275;0,0214734
2394,1917;0,0215106
2395,1560;0,0215451
2396,1201;0,0215704
2397,0845;0,021584
2398,0486;0,0215901
2399,0129;0,0215968
2399,9771;0,0216124
2400,9414;0,0216422
2401,9055;0,0216859
2402,8699;0,021739
2403,8340;0,0217944
2404,7983;0,0218446
2405,7625;0,0218822
2406,7268;0,0219014
2407,6909;0,0218998
2408,6553;0,0218803
2409,6194;0,0218515
2410,5837;0,0218256
2411,5479;0,0218131
2412,5122;0,0218185
2413,4763;0,0218378
2414,4407;0,0218628
2415,4048;0,0218864
2416,3691;0,0219076
2417,3333;0,0219311
2418,2976;0,0219622
2419,2617;0,0220015
2420,2261;0,0220438
2421,1902;0,0220813
2422,1545;0,02211
2423,1187;0,0221324
2424,0830;0,0221545
2425,0471;0,0221801
2426,0115;0,0222059
2426,9756;0,0222236
2427,9399;0,0222262
2428,9041;0,0222147
2429,8684;0,0221995
2430,8325;0,0221959
2431,7969;0,0222153
2432,7610;0,0222594
2433,7253;0,0223193
2434,6895;0,0223812
2435,6538;0,0224327
2436,6179;0,0224676
2437,5823;0,0224852
2438,5464;0,0224888
2439,5107;0,0224829
2440,4749;0,0224727
2441,4392;0,0224642
2442,4033;0,0224644
2443,3677;0,022479
2444,3318;0,0225094
2445,2961;0,0225507
2446,2603;0,0225926
2447,2246;0,0226242
2448,1887;0,0226393
2449,1531;0,0226398
2450,1172;0,0226343
2451,0815;0,0226335
2452,0457;0,0226441
2453,0100;0,0226658
2453,9741;0,0226922
2454,9385;0,0227159
2455,9026;0,022732
2456,8669;0,0227409
2457,8311;0,0227466
2458,7954;0,0227545
2459,7595;0,0227677
2460,7239;0,022787
2461,6880;0,0228107
2462,6523;0,0228357
2463,6165;0,0228585
2464,5808;0,0228757
2465,5449;0,0228842
2466,5093;0,0228826
2467,4734;0,0228719
2468,4377;0,0228563
2469,4019;0,0228426
2470,3662;0,0228382
2471,3303;0,0228488
2472,2947;0,0228761
2473,2588;0,0229171
2474,2231;0,0229659
2475,1873;0,0230157
2476,1516;0,023062
2477,1157;0,0231028
2478,0801;0,0231385
2479,0442;0,0231695
2480,0085;0,0231946
2480,9727;0,0232108
2481,9370;0,0232142
2482,9011;0,0232025
2483,8655;0,0231771
2484,8296;0,0231446
2485,7939;0,023116
2486,7581;0,0231044
2487,7224;0,0231203
2488,6865;0,023166
2489,6509;0,023233
2490,6150;0,0233035
2491,5793;0,0233569
2492,5435;0,0233794
2493,5078;0,0233702
2494,4719;0,0233414
2495,4363;0,0233111
2496,4004;0,0232943
2497,3647;0,0232967
2498,3289;0,023315
2499,2932;0,0233419
2500,2573;0,0233716
2501,2217;0,0234017
2502,1858;0,023431
2503,1501;0,0234575
2504,1143;0,0234778
2505,0786;0,02349
2506,0427;0,0234956
2507,0071;0,0234989
2507,9712;0,0235035
2508,9355;0,0235085
2509,8997;0,0235086
2510,8640;0,0234995
2511,8281;0,0234831
2512,7925;0,0234692
2513,7566;0,0234708
2514,7209;0,023496
2515,6851;0,0235414
2516,6494;0,023593
2517,6135;0,0236327
2518,5779;0,0236474
2519,5420;0,0236352
2520,5063;0,0236047
2521,4705;0,0235696
2522,4348;0,0235421
2523,3989;0,0235291
2524,3633;0,0235312
2525,3274;0,023545
2526,2917;0,0235656
2527,2559;0,0235892
2528,2202;0,0236139
2529,1843;0,0236394
2530,1487;0,023666
2531,1128;0,0236923
2532,0771;0,0237146
2533,0413;0,023727
2534,0056;0,0237245
2534,9697;0,0237073
2535,9341;0,0236831
2536,8982;0,023666
2537,8625;0,0236706
2538,8267;0,0237039
2539,7910;0,0237609
2540,7551;0,0238257
2541,7195;0,0238786
2542,6836;0,0239065
2543,6479;0,0239079
2544,6121;0,0238921
2545,5764;0,0238722
2546,5405;0,0238568
2547,5049;0,0238473
2548,4690;0,0238408
2549,4333;0,0238362
2550,3975;0,0238384
2551,3618;0,0238561
2552,3259;0,0238952
2553,2903;0,0239522
2554,2544;0,024012
2555,2188;0,0240539
2556,1829;0,0240619
2557,1472;0,0240334
2558,1113;0,0239812
2559,0757;0,0239278
2560,0398;0,0238947
2561,0042;0,0238921
2561,9683;0,023916
2562,9326;0,0239518
2563,8967;0,0239841
2564,8611;0,0240045
2565,8252;0,0240147
2566,7896;0,0240236
2567,7537;0,0240402
2568,7180;0,0240678
2569,6821;0,0241026
2570,6465;0,024136
2571,6106;0,0241601
2572,5750;0,024171
2573,5391;0,02417
2574,5034;0,0241616
2575,4675;0,024151
2576,4319;0,0241427
2577,3960;0,0241396
2578,3604;0,0241438
2579,3245;0,0241562
2580,2888;0,024176
2581,2529;0,0241996
2582,2173;0,0242215
2583,1814;0,0242356
2584,1458;0,0242384
2585,1099;0,0242314
2586,0742;0,0242211
2587,0383;0,024216
2588,0027;0,0242225
2588,9668;0,0242413
2589,9312;0,0242671
2590,8953;0,0242916
2591,8596;0,024308
2592,8237;0,0243148
2593,7881;0,0243164
2594,7522;0,0243207
2595,7166;0,0243344
2596,6807;0,0243601
2597,6450;0,0243948
2598,6091;0,0244321
2599,5735;0,0244654
2600,5376;0,0244914
2601,5020;0,0245102
2602,4661;0,0245252
2603,4304;0,0245403
2604,3945;0,0245586
2605,3589;0,0245814
2606,3230;0,0246092
2607,2874;0,024641
2608,2515;0,0246749
2609,2158;0,0247073
2610,1799;0,0247339
2611,1443;0,0247515
2612,1084;0,02476
2613,0728;0,0247625
2614,0369;0,0247641
2615,0012;0,0247695
2615,9653;0,0247805
2616,9297;0,0247963
2617,8938;0,0248151
2618,8582;0,0248352
2619,8223;0,0248561
2620,7866;0,024877
2621,7507;0,0248969
2622,7151;0,0249152
2623,6792;0,0249321
2624,6436;0,0249498
2625,6077;0,0249711
2626,5720;0,0249976
2627,5361;0,0250276
2628,5005;0,0250571
2629,4646;0,0250815
2630,4290;0,0250985
2631,3931;0,0251097
2632,3574;0,0251197
2633,3215;0,0251338
2634,2859;0,0251548
2635,2500;0,0251816
2636,2144;0,0252102
2637,1785;0,025236
2638,1428;0,0252566
2639,1069;0,0252734
2640,0713;0,0252902
2641,0354;0,025311
2641,9998;0,0253376
2642,9639;0,0253691
2643,9282;0,0254031
2644,8923;0,0254379
2645,8567;0,0254731
2646,8208;0,0255087
2647,7852;0,0255425
2648,7493;0,0255703
2649,7136;0,0255874
2650,6777;0,0255923
2651,6421;0,0255894
2652,6062;0,0255867
2653,5706;0,0255926
2654,5347;0,0256102
2655,4990;0,0256362
2656,4631;0,0256632
2657,4275;0,0256845
2658,3916;0,025698
2659,3560;0,0257068
2660,3201;0,0257162
2661,2844;0,02573
2662,2485;0,0257487
2663,2129;0,0257703
2664,1770;0,0257924
2665,1414;0,0258141
2666,1055;0,0258359
2667,0698;0,0258587
2668,0339;0,0258826
2668,9983;0,0259065
2669,9624;0,0259289
2670,9268;0,0259494
2671,8909;0,0259683
2672,8552;0,0259862
2673,8193;0,0260029
2674,7837;0,0260174
2675,7478;0,0260285
2676,7122;0,0260363
2677,6763;0,0260425
2678,6406;0,0260499
2679,6047;0,0260621
2680,5691;0,0260813
2681,5332;0,0261085
2682,4976;0,0261427
2683,4617;0,0261816
2684,4260;0,0262219
2685,3901;0,0262599
2686,3545;0,0262929
2687,3186;0,0263195
2688,2830;0,0263406
2689,2471;0,0263589
2690,2114;0,0263783
2691,1755;0,026402
2692,1399;0,0264318
2693,1040;0,0264673
2694,0684;0,026506
2695,0325;0,0265438
2695,9968;0,0265769
2696,9609;0,0266033
2697,9253;0,0266233
2698,8894;0,0266399
2699,8538;0,0266572
2700,8179;0,0266793
2701,7822;0,0267081
2702,7463;0,0267432
2703,7107;0,0267822
2704,6748;0,0268217
2705,6392;0,0268583
2706,6033;0,0268904
2707,5676;0,0269185
2708,5317;0,0269449
2709,4961;0,0269724
2710,4602;0,0270019
2711,4246;0,027032
2712,3887;0,0270596
2713,3530;0,027082
2714,3171;0,0270996
2715,2815;0,0271157
2716,2456;0,0271355
2717,2100;0,0271629
2718,1741;0,0271982
2719,1384;0,0272382
2720,1025;0,0272777
2721,0669;0,0273117
2722,0310;0,0273374
2722,9954;0,0273544
2723,9595;0,0273649
2724,9238;0,0273727
2725,8879;0,0273829
2726,8523;0,0273999
2727,8164;0,0274258
2728,7808;0,0274597
2729,7449;0,0274979
2730,7092;0,0275361
2731,6733;0,0275714
2732,6377;0,0276024
2733,6018;0,0276288
2734,5662;0,0276504
2735,5303;0,0276665
2736,4946;0,0276778
2737,4587;0,0276868
2738,4231;0,0276983
2739,3872;0,0277169
2740,3516;0,0277452
2741,3157;0,0277818
2742,2800;0,0278222
2743,2441;0,0278606
2744,2085;0,027892
2745,1726;0,0279138
2746,1370;0,0279267
2747,1011;0,0279344
2748,0654;0,0279432
2749,0295;0,0279599
2749,9939;0,0279883
2750,9580;0,0280271
2751,9224;0,0280693
2752,8865;0,0281053
2753,8508;0,0281283
2754,8149;0,0281382
2755,7793;0,0281425
2756,7434;0,0281523
2757,7078;0,0281769
2758,6719;0,0282186
2759,6362;0,0282727
2760,6003;0,0283299
2761,5647;0,0283813
2762,5288;0,028422
2763,4932;0,0284523
2764,4573;0,0284762
2765,4216;0,0284985
2766,3857;0,0285228
2767,3501;0,0285501
2768,3142;0,0285794
2769,2786;0,0286091
2770,2427;0,0286383
2771,2070;0,0286679
2772,1711;0,0287003
2773,1355;0,0287377
2774,0996;0,0287813
2775,0640;0,0288293
2776,0281;0,0288788
2776,9924;0,0289262
2777,9565;0,0289697
2778,9209;0,02901
2779,8850;0,029049
2780,8494;0,0290892
2781,8135;0,0291317
2782,7778;0,0291758
2783,7419;0,0292199
2784,7063;0,0292627
2785,6704;0,0293044
2786,6348;0,0293473
2787,5989;0,0293948
2788,5632;0,0294496
2789,5273;0,0295124
2790,4917;0,0295812
2791,4558;0,0296519
2792,4202;0,0297201
2793,3843;0,029783
2794,3486;0,0298402
2795,3127;0,0298935
2796,2771;0,0299463
2797,2412;0,0300019
2798,2056;0,0300633
2799,1697;0,0301325
2800,1340;0,0302105
2801,0981;0,0302965
2802,0625;0,0303884
2803,0266;0,0304827
2803,9910;0,0305754
2804,9551;0,0306633
2805,9194;0,0307452
2806,8835;0,0308225
2807,8479;0,0308983
2808,8120;0,0309768
2809,7764;0,031061
2810,7405;0,0311524
2811,7048;0,0312504
2812,6689;0,0313534
2813,6333;0,0314603
2814,5974;0,0315712
2815,5618;0,0316872
2816,5259;0,0318093
2817,4902;0,0319378
2818,4543;0,032071
2819,4187;0,0322065
2820,3828;0,0323417
2821,3472;0,0324754
2822,3113;0,0326078
2823,2756;0,0327404
2824,2397;0,0328765
2825,2041;0,03302
2826,1682;0,0331745
2827,1326;0,0333428
2828,0967;0,033525
2829,0610;0,0337187
2830,0251;0,0339201
2830,9895;0,0341258
2831,9536;0,0343345
2832,9180;0,034547
2833,8821;0,0347654
2834,8464;0,034992
2835,8105;0,0352294
2836,7749;0,0354818
2837,7390;0,0357559
2838,7034;0,0360605
2839,6675;0,0364045
2840,6318;0,0367941
2841,5959;0,0372323
2842,5603;0,0377178
2843,5244;0,0382452
2844,4888;0,038803
2845,4529;0,0393713
2846,4172;0,0399197
2847,3813;0,0404108
2848,3457;0,0408072
2849,3098;0,0410822
2850,2742;0,0412276
2851,2383;0,0412543
2852,2026;0,0411876
2853,1667;0,0410582
2854,1311;0,0408942
2855,0952;0,0407174
2856,0596;0,0405437
2857,0237;0,0403846
2857,9880;0,040249
2858,9521;0,0401435
2859,9165;0,0400715
2860,8806;0,0400332
2861,8450;0,0400262
2862,8091;0,0400473
2863,7734;0,0400942
2864,7375;0,0401665
2865,7019;0,0402642
2866,6660;0,0403848
2867,6304;0,0405209
2868,5945;0,0406596
2869,5588;0,0407847
2870,5229;0,0408824
2871,4873;0,0409466
2872,4514;0,0409814
2873,4158;0,0409994
2874,3799;0,0410158
2875,3442;0,0410435
2876,3083;0,0410887
2877,2727;0,0411511
2878,2368;0,0412265
2879,2012;0,0413099
2880,1653;0,0413969
2881,1296;0,041485
2882,0938;0,041573
2883,0581;0,0416608
2884,0222;0,0417493
2884,9866;0,0418398
2885,9507;0,0419336
2886,9150;0,0420319
2887,8792;0,0421354
2888,8435;0,0422442
2889,8076;0,0423577
2890,7720;0,0424744
2891,7361;0,0425921
2892,7004;0,0427092
2893,6646;0,0428249
2894,6289;0,0429407
2895,5930;0,0430592
2896,5574;0,0431822
2897,5215;0,0433096
2898,4858;0,0434381
2899,4500;0,0435628
2900,4143;0,0436799
2901,3784;0,0437898
2902,3428;0,0438973
2903,3069;0,0440101
2904,2712;0,0441364
2905,2354;0,0442817
2906,1997;0,0444488
2907,1638;0,0446392
2908,1282;0,0448561
2909,0923;0,0451051
2910,0566;0,0453929
2911,0208;0,045722
2911,9851;0,0460847
2912,9492;0,0464609
2913,9136;0,0468189
2914,8777;0,0471239
2915,8420;0,0473463
2916,8062;0,0474703
2917,7705;0,0474958
2918,7346;0,0474351
2919,6990;0,0473063
2920,6631;0,0471263
2921,6274;0,0469071
2922,5916;0,046656
2923,5559;0,0463777
2924,5200;0,0460769
2925,4844;0,0457591
2926,4485;0,045431
2927,4128;0,0450995
2928,3770;0,0447706
2929,3413;0,0444489
2930,3054;0,0441368
2931,2698;0,0438345
2932,2339;0,0435404
2933,1982;0,0432521
2934,1624;0,0429679
2935,1267;0,0426871
2936,0908;0,0424103
2937,0552;0,0421385
2938,0193;0,041872
2938,9836;0,0416106
2939,9478;0,0413536
2940,9121;0,0411
2941,8762;0,0408492
2942,8406;0,0406003
2943,8047;0,0403531
2944,7690;0,0401082
2945,7332;0,0398684
2946,6975;0,0396375
2947,6616;0,0394201
2948,6260;0,039219
2949,5901;0,0390345
2950,5544;0,0388646
2951,5186;0,0387063
2952,4829;0,038557
2953,4470;0,0384147
2954,4114;0,0382771
2955,3755;0,0381404
2956,3398;0,037999
2957,3040;0,0378472
2958,2683;0,0376824
2959,2324;0,0375061
2960,1968;0,0373243
2961,1609;0,0371442
2962,1252;0,0369706
2963,0894;0,0368044
2964,0537;0,0366427
2965,0178;0,0364818
2965,9822;0,0363195
2966,9463;0,0361554
2967,9106;0,0359896
2968,8748;0,0358208
2969,8391;0,0356464
2970,8032;0,0354647
2971,7676;0,0352767
2972,7317;0,0350869
2973,6960;0,0349019
2974,6602;0,0347274
2975,6245;0,0345662
2976,5886;0,0344188
2977,5530;0,0342848
2978,5171;0,0341648
2979,4814;0,03406
2980,4456;0,0339705
2981,4099;0,0338937
2982,3740;0,0338243
2983,3384;0,033757
2984,3025;0,0336882
2985,2668;0,0336181
2986,2310;0,0335496
2987,1953;0,0334864
2988,1594;0,0334314
2989,1238;0,0333859
2990,0879;0,0333501
2991,0522;0,0333242
2992,0164;0,0333085
2992,9807;0,0333037
2993,9448;0,0333099
2994,9092;0,0333264
2995,8733;0,0333515
2996,8376;0,0333822
2997,8018;0,0334147
2998,7661;0,0334446
2999,7302;0,0334685
3000,6946;0,0334849
3001,6587;0,0334959
3002,6230;0,0335067
3003,5872;0,0335245
3004,5515;0,0335553
3005,5156;0,0336015
3006,4800;0,0336603
3007,4441;0,033724
3008,4084;0,0337829
3009,3726;0,0338285
3010,3369;0,0338569
3011,3010;0,0338698
3012,2654;0,0338744
3013,2295;0,0338802
3014,1938;0,0338957
3015,1580;0,0339261
3016,1223;0,0339725
3017,0864;0,0340321
3018,0508;0,0341005
3019,0149;0,0341727
3019,9792;0,0342451
3020,9434;0,0343158
3021,9077;0,0343849
3022,8718;0,0344545
3023,8362;0,0345274
3024,8003;0,0346059
3025,7646;0,0346905
3026,7288;0,0347789
3027,6931;0,0348661
3028,6572;0,0349463
3029,6216;0,035015
3030,5857;0,0350717
3031,5500;0,035121
3032,5142;0,0351717
3033,4785;0,0352327
3034,4426;0,0353089
3035,4070;0,0353986
3036,3711;0,0354945
3037,3354;0,0355879
3038,2996;0,0356732
3039,2639;0,0357512
3040,2280;0,035828
3041,1924;0,0359108
3042,1565;0,0360034
3043,1208;0,036104
3044,0850;0,0362063
3045,0493;0,0363044
3046,0134;0,0363961
3046,9778;0,0364847
3047,9419;0,0365764
3048,9063;0,0366764
3049,8704;0,0367858
3050,8347;0,0369012
3051,7988;0,0370169
3052,7632;0,0371278
3053,7273;0,0372319
3054,6917;0,0373302
3055,6558;0,0374261
3056,6201;0,0375236
3057,5842;0,0376255
3058,5486;0,0377327
3059,5127;0,0378437
3060,4771;0,0379553
3061,4412;0,0380629
3062,4055;0,0381623
3063,3696;0,0382512
3064,3340;0,0383308
3065,2981;0,0384051
3066,2625;0,0384804
3067,2266;0,038562
3068,1909;0,0386529
3069,1550;0,0387528
3070,1194;0,038859
3071,0835;0,0389679
3072,0479;0,039076
3073,0120;0,0391807
3073,9763;0,0392807
3074,9404;0,0393759
3075,9048;0,039467
3076,8689;0,0395552
3077,8333;0,0396414
3078,7974;0,0397261
3079,7617;0,0398099
3080,7258;0,0398943
3081,6902;0,0399819
3082,6543;0,0400757
3083,6187;0,0401765
3084,5828;0,0402823
3085,5471;0,0403891
3086,5112;0,040493
3087,4756;0,0405931
3088,4397;0,0406919
3089,4041;0,0407931
3090,3682;0,0408982
3091,3325;0,0410053
3092,2966;0,0411105
3093,2610;0,0412106
3094,2251;0,0413061
3095,1895;0,0414001
3096,1536;0,0414958
3097,1179;0,0415943
3098,0820;0,0416938
3099,0464;0,0417929
3100,0105;0,0418926
3100,9749;0,0419961
3101,9390;0,0421061
3102,9033;0,0422219
3103,8674;0,0423391
3104,8318;0,0424525
3105,7959;0,0425601
3106,7603;0,0426651
3107,7244;0,0427734
3108,6887;0,0428892
3109,6528;0,0430113
3110,6172;0,0431343
3111,5813;0,0432525
3112,5457;0,0433647
3113,5098;0,0434754
3114,4741;0,0435924
3115,4382;0,0437204
3116,4026;0,0438578
3117,3667;0,0439965
3118,3311;0,0441274
3119,2952;0,0442459
3120,2595;0,0443551
3121,2236;0,0444639
3122,1880;0,044581
3123,1521;0,0447094
3124,1165;0,0448448
3125,0806;0,0449788
3126,0449;0,0451048
3127,0090;0,0452223
3127,9734;0,0453362
3128,9375;0,0454528
3129,9019;0,0455751
3130,8660;0,0457007
3131,8303;0,0458249
3132,7944;0,0459454
3133,7588;0,0460651
3134,7229;0,0461904
3135,6873;0,046327
3136,6514;0,0464754
3137,6157;0,0466302
3138,5798;0,0467838
3139,5442;0,0469308
3140,5083;0,047071
3141,4727;0,0472091
3142,4368;0,0473509
3143,4011;0,0475004
3144,3652;0,0476573
3145,3296;0,0478182
3146,2937;0,0479781
3147,2581;0,0481326
3148,2222;0,0482794
3149,1865;0,048419
3150,1506;0,0485546
3151,1150;0,0486906
3152,0791;0,048831
3153,0435;0,0489777
3154,0076;0,04913
3154,9719;0,0492857
3155,9360;0,0494426
3156,9004;0,0496003
3157,8645;0,0497597
3158,8289;0,0499218
3159,7930;0,0500863
3160,7573;0,0502511
3161,7214;0,0504131
3162,6858;0,0505699
3163,6499;0,0507201
3164,6143;0,0508643
3165,5784;0,0510042
3166,5427;0,0511422
3167,5068;0,051282
3168,4712;0,0514281
3169,4353;0,0515747
3170,3997;0,0517454
3171,3638;0,0519286
3172,3281;0,0521177
3173,2922;0,0523027
3174,2566;0,0524738
3175,2207;0,0526262
3176,1851;0,0527624
3177,1492;0,0528919
3178,1135;0,0530272
3179,0776;0,0531777
3180,0420;0,0533463
3181,0061;0,0535287
3181,9705;0,0537163
3182,9346;0,0539002
3183,8989;0,0540741
3184,8630;0,0542357
3185,8274;0,054386
3186,7915;0,0545287
3187,7559;0,0546695
3188,7200;0,0548145
3189,6843;0,0549688
3190,6484;0,0551343
3191,6128;0,0553076
3192,5769;0,0554811
3193,5413;0,0556467
3194,5054;0,0558003
3195,4697;0,0559445
3196,4338;0,0560873
3197,3982;0,0562367
3198,3623;0,0563954
3199,3267;0,0565588
3200,2908;0,0567179
3201,2551;0,0568652
3202,2192;0,0569995
3203,1836;0,0571261
3204,1477;0,0572534
3205,1121;0,0573881
3206,0762;0,0575323
3207,0405;0,0576839
3208,0046;0,0578389
3208,9690;0,0579942
3209,9331;0,0581484
3210,8975;0,058302
3211,8616;0,0584564
3212,8259;0,0586126
3213,7900;0,0587711
3214,7544;0,0589316
3215,7185;0,0590929
3216,6829;0,0592539
3217,6470;0,0594143
3218,6113;0,0595749
3219,5754;0,0597365
3220,5398;0,0598986
3221,5039;0,0600574
3222,4683;0,0602078
3223,4324;0,0603461
3224,3967;0,0604734
3225,3608;0,0605966
3226,3252;0,0607257
3227,2893;0,0608688
3228,2537;0,0610273
3229,2178;0,0611951
3230,1821;0,0613618
3231,1462;0,0615182
3232,1106;0,0616608
3233,0747;0,0617933
3234,0391;0,0619254
3235,0032;0,0620691
3235,9675;0,0622344
3236,9316;0,0624249
3237,8960;0,0626358
3238,8601;0,0628538
3239,8245;0,0630606
3240,7886;0,0632401
3241,7529;0,0633845
3242,7170;0,0634985
3243,6814;0,0635983
3244,6455;0,0637048
3245,6099;0,0638353
3246,5740;0,0639968
3247,5383;0,0641847
3248,5024;0,0643867
3249,4668;0,0645892
3250,4309;0,0647824
3251,3953;0,0649628
3252,3594;0,0651329
3253,3237;0,0652983
3254,2878;0,0654644
3255,2522;0,0656345
3256,2163;0,0658093
3257,1807;0,0659879
3258,1448;0,06617
3259,1091;0,0663569
3260,0732;0,0665508
3261,0376;0,0667526
3262,0017;0,0669601
3262,9661;0,0671671
3263,9302;0,0673658
3264,8945;0,0675499
3265,8586;0,0677176
3266,8230;0,0678724
3267,7871;0,0680201
3268,7515;0,0681655
3269,7156;0,0683088
3270,6799;0,0684456
3271,6440;0,0685694
3272,6084;0,0686755
3273,5725;0,0687652
3274,5369;0,0688455
3275,5010;0,0689259
3276,4653;0,0690135
3277,4294;0,0691088
3278,3938;0,0692059
3279,3579;0,0692954
3280,3223;0,0693707
3281,2864;0,0694315
3282,2507;0,0694841
3283,2148;0,069537
3284,1792;0,0695955
3285,1433;0,0696574
3286,1077;0,0697144
3287,0718;0,0697568
3288,0361;0,0697803
3289,0002;0,0697886
3289,9646;0,0697918
3290,9287;0,0697999
3291,8931;0,069817
3292,8572;0,0698386
3293,8215;0,0698551
3294,7856;0,0698583
3295,7500;0,0698461
3296,7141;0,0698239
3297,6785;0,0698006
3298,6426;0,0697832
3299,6069;0,0697736
3300,5710;0,069769
3301,5354;0,0697647
3302,4995;0,0697585
3303,4639;0,0697514
3304,4280;0,0697464
3305,3923;0,0697462
3306,3564;0,0697502
3307,3208;0,0697555
3308,2849;0,0697589
3309,2493;0,0697597
3310,2134;0,0697613
3311,1777;0,0697691
3312,1418;0,0697875
3313,1062;0,0698163
3314,0703;0,069852
3315,0347;0,0698901
3315,9988;0,0699292
3316,9631;0,069973
3317,9272;0,0700275
3318,8916;0,0700962
3319,8557;0,0701772
3320,8201;0,0702628
3321,7842;0,0703444
3322,7485;0,0704168
3323,7126;0,0704794
3324,6770;0,0705345
3325,6411;0,0705832
3326,6055;0,0706251
3327,5696;0,0706598
3328,5339;0,0706909
3329,4980;0,0707254
3330,4624;0,0707693
3331,4265;0,0708217
3332,3909;0,0708716
3333,3550;0,0709016
3334,3193;0,0708972
3335,2834;0,0708551
3336,2478;0,0707859
3337,2119;0,0707081
3338,1763;0,0706368
3339,1404;0,0705754
3340,1047;0,0705152
3341,0688;0,0704422
3342,0332;0,0703463
3342,9973;0,0702273
3343,9617;0,0700936
3344,9258;0,0699563
3345,8901;0,0698224
3346,8542;0,0696913
3347,8186;0,0695572
3348,7827;0,0694132
3349,7471;0,0692564
3350,7112;0,0690887
3351,6755;0,0689152
3352,6396;0,0687409
3353,6040;0,0685681
3354,5681;0,0683967
3355,5325;0,0682253
3356,4966;0,0680539
3357,4609;0,0678859
3358,4250;0,0677269
3359,3894;0,0675818
3360,3535;0,0674513
3361,3179;0,0673296
3362,2820;0,0672051
3363,2463;0,067065
3364,2104;0,0669012
3365,1748;0,0667144
3366,1389;0,0665139
3367,1033;0,0663123
3368,0674;0,0661191
3369,0317;0,0659367
3369,9958;0,0657601
3370,9602;0,0655827
3371,9243;0,0654008
3372,8887;0,0652171
3373,8528;0,0650387
3374,8171;0,0648732
3375,7813;0,0647236
3376,7456;0,064586
3377,7097;0,0644508
3378,6741;0,0643064
3379,6382;0,064145
3380,6025;0,0639661
3381,5667;0,0637775
3382,5310;0,0635922
3383,4951;0,0634235
3384,4595;0,0632789
3385,4236;0,0631563
3386,3879;0,0630447
3387,3521;0,0629295
3388,3164;0,0627982
3389,2805;0,0626461
3390,2449;0,0624763
3391,2090;0,0622981
3392,1733;0,0621214
3393,1375;0,0619533
3394,1018;0,0617959
3395,0659;0,0616478
3396,0303;0,0615059
3396,9944;0,0613665
3397,9587;0,0612259
3398,9229;0,0610805
3399,8872;0,0609278
3400,8513;0,0607672
3401,8157;0,0606002
3402,7798;0,0604291
3403,7441;0,060255
3404,7083;0,0600771
3405,6726;0,059894
3406,6367;0,0597062
3407,6011;0,0595168
3408,5652;0,0593297
3409,5295;0,0591465
3410,4937;0,0589652
3411,4580;0,0587819
3412,4221;0,0585948
3413,3865;0,0584067
3414,3506;0,0582234
3415,3149;0,0580478
3416,2791;0,0578758
3417,2434;0,0576968
3418,2075;0,0574987
3419,1719;0,0572759
3420,1360;0,057034
3421,1003;0,0567885
3422,0645;0,0565569
3423,0288;0,0563505
3423,9929;0,0561695
3424,9573;0,0560043
3425,9214;0,0558405
3426,8857;0,055664
3427,8499;0,0554662
3428,8142;0,0552465
3429,7783;0,0550118
3430,7427;0,0547731
3431,7068;0,0545408
3432,6711;0,054322
3433,6353;0,0541188
3434,5996;0,0539286
3435,5637;0,0537454
3436,5281;0,0535609
3437,4922;0,0533678
3438,4565;0,053163
3439,4207;0,0529505
3440,3850;0,0527392
3441,3491;0,0525366
3442,3135;0,0523403
3443,2776;0,0521362
3444,2419;0,0519046
3445,2061;0,0516349
3446,1704;0,0513375
3447,1345;0,0510426
3448,0989;0,0507846
3449,0630;0,0505806
3450,0273;0,0504217
3450,9915;0,0502807
3451,9558;0,0501292
3452,9199;0,0499517
3453,8843;0,04975
3454,8484;0,0495361
3455,8127;0,0493215
3456,7769;0,0491095
3457,7412;0,0488964
3458,7053;0,0486782
3459,6697;0,0484563
3460,6338;0,048238
3461,5981;0,0480314
3462,5623;0,0478392
3463,5266;0,0476559
3464,4907;0,0474708
3465,4551;0,0472747
3466,4192;0,0470644
3467,3835;0,0468443
3468,3477;0,0466223
3469,3120;0,0464036
3470,2761;0,046188
3471,2405;0,0459709
3472,2046;0,0457492
3473,1689;0,0455268
3474,1331;0,045315
3475,0974;0,0451251
3476,0615;0,04496
3477,0259;0,0448093
3477,9900;0,0446528
3478,9543;0,0444712
3479,9185;0,0442577
3480,8828;0,0440223
3481,8469;0,0437868
3482,8113;0,0435713
3483,7754;0,0433828
3484,7397;0,0432129
3485,7039;0,0430461
3486,6682;0,0428694
3487,6323;0,0426794
3488,5967;0,0424819
3489,5608;0,0422858
3490,5251;0,0420951
3491,4893;0,0419055
3492,4536;0,0417086
3493,4177;0,0414998
3494,3821;0,041286
3495,3462;0,0410861
3496,3105;0,0409202
3497,2747;0,0407945
3498,2390;0,0406916
3499,2031;0,0405752
3500,1675;0,0404069
3501,1316;0,0401684
3502,0959;0,039877
3503,0601;0,0395799
3504,0244;0,0393255
3504,9885;0,0391321
3505,9529;0,0389804
3506,9170;0,0388318
3507,8813;0,038654
3508,8455;0,0384402
3509,8098;0,0382113
3510,7739;0,037999
3511,7383;0,0378237
3512,7024;0,0376832
3513,6667;0,0375592
3514,6309;0,0374322
3515,5952;0,037293
3516,5593;0,0371449
3517,5237;0,0369969
3518,4878;0,0368557
3519,4521;0,0367205
3520,4163;0,0365843
3521,3806;0,0364385
3522,3447;0,0362754
3523,3091;0,0360891
3524,2732;0,0358753
3525,2375;0,0356331
3526,2017;0,0353698
3527,1660;0,0351048
3528,1301;0,0348654
3529,0945;0,0346738
3530,0586;0,0345338
3531,0229;0,034426
3531,9871;0,0343179
3532,9514;0,0341793
3533,9155;0,0339965
3534,8799;0,0337782
3535,8440;0,0335525
3536,8083;0,0333545
3537,7725;0,0332098
3538,7368;0,0331245
3539,7009;0,0330831
3540,6653;0,0330538
3541,6294;0,0329946
3542,5938;0,0328644
3543,5579;0,03264
3544,5222;0,0323356
3545,4863;0,0320068
3546,4507;0,0317213
3547,4148;0,0315157
3548,3792;0,0313763
3549,3433;0,0312556
3550,3076;0,0311046
3551,2717;0,0309024
3552,2361;0,030669
3553,2002;0,0304512
3554,1646;0,0302892
3555,1287;0,0301885
3556,0930;0,030121
3557,0571;0,0300491
3558,0215;0,0299523
3558,9856;0,0298419
3559,9500;0,0297534
3560,9141;0,0297172
3561,8784;0,0297278
3562,8425;0,0297324
3563,8069;0,0296426
3564,7710;0,0293717
3565,7354;0,0289004
3566,6995;0,0283351
3567,6638;0,0278597
3568,6279;0,027591
3569,5923;0,0275103
3570,5564;0,0275214
3571,5208;0,0275283
3572,4849;0,0274729
3573,4492;0,0273423
3574,4133;0,02716
3575,3777;0,0269648
3576,3418;0,0267866
3577,3062;0,026637
3578,2703;0,0265185
3579,2346;0,0264404
3580,1987;0,0264186
3581,1631;0,0264608
3582,1272;0,0265463
3583,0916;0,0266187
3584,0557;0,0265952
3585,0200;0,0263983
3585,9841;0,0260131
3586,9485;0,0255421
3587,9126;0,025164
3588,8770;0,0249944
3589,8411;0,0250108
3590,8054;0,0251056
3591,7695;0,0251681
3592,7339;0,0251306
3593,6980;0,0249867
3594,6624;0,0247855
3595,6265;0,0245898
3596,5908;0,0244262
3597,5549;0,0242739
3598,5193;0,0240989
3599,4834;0,0238982
3600,4478;0,0237123
3601,4119;0,0235947
3602,3762;0,0235655
3603,3403;0,0235932
3604,3047;0,0236133
3605,2688;0,0235628
3606,2332;0,0234119
3607,1973;0,0231823
3608,1616;0,0229344
3609,1257;0,0227237
3610,0901;0,0225675
3611,0542;0,0224512
3612,0186;0,0223584
3612,9827;0,0222865
3613,9470;0,0222371
3614,9111;0,0221942
3615,8755;0,0221157
3616,8396;0,0219503
3617,8040;0,0216792
3618,7681;0,0213589
3619,7324;0,021114
3620,6965;0,0210562
3621,6609;0,021207
3622,6250;0,021502
3623,5894;0,0218374
3624,5535;0,0220965
3625,5178;0,0221538
3626,4819;0,0218932
3627,4463;0,021293
3628,4104;0,0205375
3629,3748;0,0199392
3630,3389;0,019658
3631,3032;0,0196132
3632,2673;0,0196432
3633,2317;0,0196362
3634,1958;0,0195567
3635,1602;0,0194255
3636,1243;0,0192837
3637,0886;0,0191608
3638,0527;0,0190635
3639,0171;0,0189904
3639,9812;0,0189516
3640,9456;0,0189734
3641,9097;0,0190818
3642,8740;0,0192787
3643,8381;0,019527
3644,8025;0,0197464
3645,7666;0,0198116
3646,7310;0,0195693
3647,6951;0,01894
3648,6594;0,0181047
3649,6235;0,0174602
3650,5879;0,0172212
3651,5520;0,0172838
3652,5164;0,0174419
3653,4805;0,0175381
3654,4448;0,0174935
3655,4089;0,0173122
3656,3733;0,0170749
3657,3374;0,0168866
3658,3018;0,0168
3659,2659;0,0167938
3660,2302;0,0168183
3661,1943;0,016848
3662,1587;0,0168988
3663,1228;0,0170066
3664,0872;0,017187
3665,0513;0,0174102
3666,0156;0,0176077
3666,9797;0,0177034
3667,9441;0,0176617
3668,9082;0,0175345
3669,8726;0,0174404
3670,8367;0,0174528
3671,8010;0,0175225
3672,7651;0,0175173
3673,7295;0,0173132
3674,6936;0,0168915
3675,6580;0,0163987
3676,6221;0,0160493
3677,5864;0,0159325
3678,5505;0,0159851
3679,5149;0,016111
3680,4790;0,0162609
3681,4434;0,0164376
3682,4075;0,0166645
3683,3718;0,0169494
3684,3359;0,0172617
3685,3003;0,0175311
3686,2644;0,0176606
3687,2288;0,0175627
3688,1929;0,0172305
3689,1572;0,016802
3690,1213;0,0164859
3691,0857;0,0163885
3692,0498;0,0164723
3693,0142;0,0166487
3693,9783;0,0168508
3694,9426;0,0170461
3695,9067;0,0172206
3696,8711;0,0173602
3697,8352;0,0174414
3698,7996;0,0174352
3699,7637;0,0173283
3700,7280;0,0171494
3701,6921;0,0169766
3702,6565;0,0169017
3703,6206;0,0169747
3704,5850;0,0171816
3705,5491;0,0174631
3706,5134;0,0177368
3707,4775;0,0179055
3708,4419;0,0178645
3709,4060;0,0175441
3710,3704;0,0169966
3711,3345;0,0164295
3712,2988;0,0160652
3713,2629;0,0159776
3714,2273;0,016103
3715,1914;0,0163399
3716,1558;0,0166082
3717,1199;0,0168603
3718,0842;0,0170752
3719,0483;0,0172498
3720,0127;0,0173872
3720,9768;0,0174857
3721,9412;0,017537
3722,9053;0,017537
3723,8696;0,0175024
3724,8337;0,0174752
3725,7981;0,0175041
3726,7622;0,0176152
3727,7266;0,0177995
3728,6907;0,0180221
3729,6550;0,0182357
3730,6191;0,0183853
3731,5835;0,018405
3732,5476;0,0182248
3733,5120;0,0178158
3734,4761;0,0172655
3735,4404;0,0167834
3736,4045;0,0165583
3737,3689;0,0166267
3738,3330;0,0168996
3739,2974;0,0172487
3740,2615;0,0175503
3741,2258;0,0176935
3742,1899;0,0176027
3743,1543;0,0173035
3744,1184;0,0169761
3745,0828;0,0168421
3746,0469;0,0169572
3747,0112;0,0171805
3747,9753;0,0172984
3748,9397;0,017136
3749,9038;0,0166698
3750,8682;0,0161145
3751,8323;0,0157798
3752,7966;0,0157798
3753,7607;0,0160001
3754,7251;0,0162651
3755,6892;0,0164414
3756,6536;0,0164631
3757,6177;0,0163429
3758,5820;0,0161685
3759,5461;0,0160502
3760,5105;0,0160459
3761,4746;0,0161403
3762,4390;0,0162801
3763,4031;0,0164145
3764,3674;0,0165116
3765,3315;0,0165559
3766,2959;0,0165387
3767,2600;0,0164531
3768,2244;0,0163021
3769,1885;0,0161151
3770,1528;0,0159511
3771,1169;0,0158736
3772,0813;0,0159121
3773,0454;0,0160463
3774,0098;0,0162207
3774,9739;0,0163698
3775,9382;0,0164394
3776,9023;0,0164075
3777,8667;0,0162993
3778,8308;0,0161795
3779,7952;0,016109
3780,7593;0,0161045
3781,7236;0,0161384
3782,6877;0,0161696
3783,6521;0,0161706
3784,6162;0,0161383
3785,5806;0,0160899
3786,5447;0,0160511
3787,5090;0,0160448
3788,4731;0,0160842
3789,4375;0,0161694
3790,4016;0,0162879
3791,3660;0,0164178
3792,3301;0,016538
3793,2944;0,0166408
3794,2585;0,0167389
3795,2229;0,0168565
3796,1870;0,0170019
3797,1514;0,0171444
3798,1155;0,0172163
3799,0798;0,0171519
3800,0439;0,0169462
3801,0083;0,0166876
3801,9724;0,0165
3802,9368;0,0164315
3803,9009;0,0164207
3804,8652;0,0163661
3805,8293;0,0162164
3806,7937;0,0160226
3807,7578;0,0159111
3808,7222;0,0159793
3809,6863;0,0162197
3810,6506;0,0165437
3811,6147;0,0168469
3812,5791;0,017053
3813,5432;0,0171377
3814,5076;0,0171412
3815,4717;0,017142
3816,4360;0,017183
3817,4001;0,0172208
3818,3645;0,0171612
3819,3286;0,0169442
3820,2930;0,016614
3821,2571;0,0163078
3822,2214;0,0161459
3823,1855;0,0161428
3824,1499;0,016233
3825,1140;0,0163439
3826,0784;0,0164369
3827,0425;0,016509
3828,0068;0,0165783
3828,9709;0,0166653
3829,9353;0,0167821
3830,8994;0,0169304
3831,8638;0,0171034
3832,8279;0,0172824
3833,7922;0,0174321
3834,7563;0,0175015
3835,7207;0,0174414
3836,6848;0,017237
3837,6492;0,0169365
3838,6133;0,0166353
3839,5776;0,0164115
3840,5417;0,0162774
3841,5061;0,0161993
3842,4702;0,0161495
3843,4346;0,0161387
3844,3987;0,0162095
3845,3630;0,0164044
3846,3271;0,0167352
3847,2915;0,0171716
3848,2556;0,0176461
3849,2200;0,0180536
3850,1841;0,018243
3851,1484;0,0180332
3852,1125;0,0173475
3853,0769;0,0164477
3854,0410;0,0158252
3855,0054;0,0156949
3855,9695;0,0159133
3856,9338;0,0162712
3857,8979;0,0166329
3858,8623;0,016925
3859,8264;0,0171061
3860,7908;0,0171597
3861,7549;0,0171077
3862,7192;0,0170185
3863,6833;0,0169758
3864,6477;0,0170216
3865,6118;0,0171294
3866,5762;0,0172309
3867,5403;0,0172568
3868,5046;0,0171676
3869,4688;0,0169725
3870,4331;0,0167305
3871,3972;0,0165228
3872,3616;0,0164127
3873,3257;0,0164209
3874,2900;0,0165291
3875,2542;0,016695
3876,2185;0,0168668
3877,1826;0,0169963
3878,1470;0,0170536
3879,1111;0,0170406
3880,0754;0,0169885
3881,0396;0,016932
3882,0039;0,0168793
3882,9680;0,0168152
3883,9324;0,0167346
3884,8965;0,0166674
3885,8608;0,01666
3886,8250;0,016727
3887,7893;0,0168255
3888,7534;0,0168777
3889,7178;0,0168226
3890,6819;0,0166702
3891,6462;0,0165182
3892,6104;0,0164889
3893,5747;0,0166318
3894,5388;0,0168991
3895,5032;0,0171983
3896,4673;0,0174442
3897,4316;0,0175836
3898,3958;0,017601
3899,3601;0,0175115
3900,3242;0,0173387
3901,2886;0,0170974
3902,2527;0,0168048
3903,2170;0,0165078
3904,1812;0,0162767
3905,1455;0,0161627
3906,1096;0,0161647
3907,0740;0,0162419
3908,0381;0,0163465
3909,0024;0,016449
3909,9666;0,0165441
3910,9309;0,0166423
3911,8950;0,0167527
3912,8594;0,0168669
3913,8235;0,0169563
3914,7878;0,0169855
3915,7520;0,0169372
3916,7163;0,0168336
3917,6804;0,0167311
3918,6448;0,0166832
3919,6089;0,016703
3920,5732;0,0167595
3921,5374;0,0168047
3922,5017;0,0168061
3923,4658;0,0167678
3924,4302;0,0167279
3925,3943;0,0167286
3926,3586;0,0167826
3927,3228;0,0168641
3928,2871;0,0169259
3929,2512;0,0169274
3930,2156;0,0168572
3931,1797;0,0167427
3932,1440;0,0166339
3933,1082;0,016573
3934,0725;0,016573
3935,0366;0,0166227
3936,0010;0,0167015
3936,9651;0,0167888
3937,9294;0,0168639
3938,8936;0,016907
3939,8579;0,0169038
3940,8220;0,0168574
3941,7864;0,0167935
3942,7505;0,0167498
3943,7148;0,0167526
3944,6790;0,0167983
3945,6433;0,0168567
3946,6074;0,0168907
3947,5718;0,0168789
3948,5359;0,0168275
3949,5002;0,0167649
3950,4644;0,0167202
3951,4287;0,0167044
3952,3928;0,0167088
3953,3572;0,0167179
3954,3213;0,0167232
3955,2856;0,016727
3956,2498;0,0167375
3957,2141;0,0167584
3958,1782;0,0167838
3959,1426;0,0168011
3960,1067;0,0168003
3961,0710;0,0167817
3962,0352;0,0167566
3962,9995;0,0167407
3963,9636;0,0167445
3964,9280;0,0167686
3965,8921;0,0168048
3966,8564;0,0168409
3967,8206;0,0168658
3968,7849;0,0168727
3969,7490;0,0168603
3970,7134;0,0168325
3971,6775;0,0167978
3972,6418;0,016768
3973,6060;0,0167544
3974,5703;0,0167633
3975,5344;0,0167913
3976,4988;0,0168265
3977,4629;0,0168535
3978,4272;0,0168613
3979,3914;0,0168487
3980,3557;0,0168246
3981,3198;0,0168029
3982,2842;0,0167952
3983,2483;0,0168054
3984,2126;0,0168297
3985,1768;0,0168599
3986,1411;0,0168884
3987,1052;0,0169112
3988,0696;0,0169278
3989,0337;0,016939
3989,9980;0,0169448
3990,9622;0,0169436
3991,9265;0,0169335
3992,8906;0,0169145
3993,8550;0,0168904
3994,8191;0,0168683
3995,7834;0,0168557
3996,7476;0,0168569
3997,7119;0,0168701
3998,6760;0,016889
3999,6404;0,0169059
4000,6045;0,0168922

##### Extended Information
[Comments]
Sample name
Comment
Username
Division
Organization;UNIVERSIDAD INDUSTRIAL DE SANTANDER

[Detailed Information]
Creation date;14/03/2025 11:25 a.m.

Data array type;Linear data array
Horizontal axis;Wavenumber [cm-1]
Vertical axis;Abs
Start;399,193 cm-1
End;4000,6 cm-1
Data interval;0,964233 cm-1
Data points;3736    

[Measurement Information]
Model name;FT/IR-4X1typeA
Serial No.;A035162111

Accessory;ATR PRO 4X
Accessory S/N;A021162126
Incident angle;45 deg

Measurement date;14/03/2025 11:25 a.m.

Light source;Standard
Detector;TGS
Accumulation;40
Resolution;4 cm-1
Zero filling;On
Apodization;Cosine
Gain;Auto (8)
Aperture;Auto (7 mm)
Scan speed;Auto (2 mm/sec)
Filter;Auto (12800 Hz)

