TITLE;
DATA TYPE;INFRARED SPECTRUM
ORIGIN;JASCO
OWNER;
DATE;25/03/14
TIME;11:37:12
SPECTROMETER/DATA SYSTEM;
LOCALE;9226
RESOLUTION;
DELTAX;0,964233
XUNITS;1/CM
YUNITS;ABSORBANCE
FIRSTX;  399,1927
LASTX; 4000,6047
NPOINTS;    3736
FIRSTY;     0,14740
MAXY;     0,19670
MINY;     0,01271
XYDATA
399,1927;0,1474
400,1569;0,149528
401,1211;0,150543
402,0854;0,150583
403,0496;0,14998
404,0138;0,149086
404,9781;0,148223
405,9423;0,147649
406,9065;0,147535
407,8708;0,147934
408,8350;0,148785
409,7992;0,149933
410,7635;0,151152
411,7277;0,152202
412,6919;0,152919
413,6562;0,153276
414,6204;0,153372
415,5846;0,153384
416,5489;0,153547
417,5131;0,154148
418,4773;0,155407
419,4416;0,157209
420,4058;0,159091
421,3700;0,160625
422,3343;0,161628
423,2985;0,162071
424,2627;0,161979
425,2270;0,161447
426,1912;0,160665
427,1554;0,15987
428,1197;0,159245
429,0839;0,158854
430,0481;0,158659
431,0124;0,158586
431,9766;0,158579
432,9408;0,158624
433,9051;0,158712
434,8693;0,158793
435,8335;0,158771
436,7978;0,158551
437,7620;0,158109
438,7262;0,157512
439,6905;0,156873
440,6547;0,156276
441,6189;0,15572
442,5832;0,15513
443,5474;0,154419
444,5116;0,153573
445,4759;0,152669
446,4401;0,151818
447,4043;0,15109
448,3686;0,150488
449,3328;0,149989
450,2970;0,149589
451,2613;0,149324
452,2255;0,149233
453,1897;0,1493
454,1540;0,149432
455,1182;0,149497
456,0824;0,149396
457,0467;0,149139
458,0109;0,148856
458,9751;0,148701
459,9394;0,148728
460,9036;0,148866
461,8678;0,149002
462,8321;0,149056
463,7963;0,148998
464,7605;0,148825
465,7248;0,148541
466,6890;0,148151
467,6532;0,147685
468,6175;0,147222
469,5817;0,146877
470,5459;0,146761
471,5102;0,146911
472,4744;0,147252
473,4386;0,147629
474,4029;0,147908
475,3671;0,148042
476,3313;0,148065
477,2956;0,148034
478,2598;0,147982
479,2240;0,147914
480,1883;0,147813
481,1525;0,147667
482,1167;0,147481
483,0810;0,147299
484,0452;0,147199
485,0094;0,147277
485,9737;0,147596
486,9379;0,148149
487,9021;0,148847
488,8664;0,149549
489,8306;0,150103
490,7948;0,150413
491,7591;0,150481
492,7233;0,150415
493,6875;0,150367
494,6518;0,15045
495,6160;0,150689
496,5802;0,151027
497,5445;0,151375
498,5087;0,151655
499,4729;0,151836
500,4372;0,151936
501,4014;0,15202
502,3656;0,152171
503,3299;0,152459
504,2941;0,152906
505,2583;0,153485
506,2226;0,154131
507,1868;0,154769
508,1510;0,155344
509,1153;0,155833
510,0795;0,156251
511,0437;0,156628
512,0080;0,156996
512,9722;0,157373
513,9365;0,157768
514,9007;0,158192
515,8649;0,158656
516,8292;0,159163
517,7934;0,159681
518,7576;0,160147
519,7219;0,160489
520,6861;0,16067
521,6503;0,160704
522,6146;0,160646
523,5788;0,16057
524,5430;0,16053
525,5073;0,160541
526,4715;0,160569
527,4357;0,160555
528,4000;0,160459
529,3642;0,160286
530,3284;0,160081
531,2927;0,159898
532,2569;0,159772
533,2211;0,159705
534,1854;0,159664
535,1496;0,159605
536,1138;0,159499
537,0781;0,159345
538,0423;0,159169
539,0065;0,159005
539,9708;0,158887
540,9350;0,158838
541,8992;0,158871
542,8635;0,158988
543,8277;0,159184
544,7919;0,159438
545,7562;0,159723
546,7204;0,160016
547,6846;0,160301
548,6489;0,160581
549,6131;0,160865
550,5773;0,161157
551,5416;0,161453
552,5058;0,16174
553,4700;0,162011
554,4343;0,162269
555,3985;0,162519
556,3627;0,162749
557,3270;0,162908
558,2912;0,162911
559,2554;0,162666
560,2197;0,162121
561,1839;0,161297
562,1481;0,160291
563,1124;0,159244
564,0766;0,158282
565,0408;0,157484
566,0051;0,156868
566,9693;0,156405
567,9335;0,156045
568,8978;0,155742
569,8620;0,155465
570,8262;0,155207
571,7905;0,154979
572,7547;0,1548
573,7189;0,154682
574,6832;0,154613
575,6474;0,154552
576,6116;0,154444
577,5759;0,154247
578,5401;0,153962
579,5043;0,153626
580,4686;0,153294
581,4328;0,153006
582,3970;0,152775
583,3613;0,15259
584,3255;0,152439
585,2897;0,152321
586,2540;0,15224
587,2182;0,152197
588,1824;0,152176
589,1467;0,152154
590,1109;0,152117
591,0751;0,152067
592,0394;0,152016
593,0036;0,151967
593,9678;0,151897
594,9321;0,151768
595,8963;0,151541
596,8605;0,151202
597,8248;0,150767
598,7890;0,15028
599,7532;0,149792
600,7175;0,149344
601,6817;0,148956
602,6459;0,148627
603,6102;0,148345
604,5744;0,14809
605,5386;0,147839
606,5029;0,14757
607,4671;0,147263
608,4313;0,146897
609,3956;0,146456
610,3598;0,145937
611,3240;0,145358
612,2883;0,144757
613,2525;0,144184
614,2167;0,14367
615,1810;0,143207
616,1452;0,142737
617,1094;0,142167
618,0737;0,141423
619,0379;0,140487
620,0021;0,139413
620,9664;0,138295
621,9306;0,137223
622,8948;0,136259
623,8591;0,135427
624,8233;0,1347
625,7875;0,134087
626,7518;0,133554
627,7160;0,133074
628,6802;0,132623
629,6445;0,132183
630,6087;0,131736
631,5729;0,131265
632,5372;0,130755
633,5014;0,130198
634,4656;0,129606
635,4299;0,129011
636,3941;0,128458
637,3583;0,127985
638,3226;0,127605
639,2868;0,1273
640,2510;0,12703
641,2153;0,126755
642,1795;0,126456
643,1437;0,126141
644,1080;0,125839
645,0722;0,125576
646,0364;0,125357
647,0007;0,125166
647,9649;0,124977
648,9291;0,124776
649,8934;0,124575
650,8576;0,124405
651,8218;0,124305
652,7861;0,1243
653,7503;0,124389
654,7145;0,124553
655,6788;0,124751
656,6430;0,124945
657,6072;0,125107
658,5715;0,125223
659,5357;0,125279
660,4999;0,125244
661,4642;0,125074
662,4284;0,124718
663,3926;0,124141
664,3569;0,123356
665,3211;0,122477
666,2853;0,121753
667,2496;0,121437
668,2138;0,121437
669,1780;0,121309
670,1423;0,120863
671,1065;0,120185
672,0707;0,119288
673,0350;0,11813
673,9992;0,116743
674,9634;0,115248
675,9277;0,113794
676,8919;0,112479
677,8561;0,111306
678,8204;0,110224
679,7846;0,109183
680,7488;0,108175
681,7131;0,107218
682,6773;0,10633
683,6415;0,10552
684,6058;0,104794
685,5700;0,104163
686,5342;0,103641
687,4985;0,103226
688,4627;0,102893
689,4269;0,102596
690,3912;0,102295
691,3554;0,101973
692,3196;0,101638
693,2839;0,101308
694,2481;0,100992
695,2123;0,100682
696,1766;0,100363
697,1408;0,100018
698,1050;0,0996397
699,0693;0,0992284
700,0335;0,0987914
700,9977;0,0983376
701,9620;0,0978765
702,9262;0,097417
703,8904;0,0969599
704,8547;0,0965093
705,8189;0,0960616
706,7831;0,0956072
707,7474;0,0951359
708,7116;0,0946428
709,6758;0,0941301
710,6401;0,0936038
711,6043;0,0930675
712,5685;0,0925214
713,5328;0,091968
714,4970;0,0914185
715,4612;0,0905036
716,4255;0,090098
717,3897;0,0897534
718,3539;0,0894042
719,3182;0,0889511
720,2824;0,0883118
721,2466;0,0874755
722,2109;0,0865176
723,1751;0,0855586
724,1393;0,084702
725,1036;0,0839913
726,0678;0,083403
727,0320;0,0828704
727,9963;0,0823208
728,9605;0,0817101
729,9247;0,0810367
730,8890;0,0803346
731,8532;0,079652
732,8174;0,0790319
733,7817;0,0784983
734,7459;0,0780541
735,7101;0,0776851
736,6744;0,077367
737,6386;0,0770732
738,6028;0,0767802
739,5671;0,0764699
740,5313;0,0761318
741,4955;0,0757632
742,4598;0,0753696
743,4240;0,0749638
744,3882;0,0745627
745,3525;0,0741824
746,3167;0,0738307
747,2809;0,0735024
748,2452;0,0731809
749,2094;0,0728456
750,1736;0,0724833
751,1379;0,0720953
752,1021;0,0716955
753,0663;0,0713001
754,0306;0,0709178
754,9948;0,0705455
755,9590;0,0701752
756,9233;0,0698028
757,8875;0,0694344
758,8517;0,0690821
759,8160;0,0687552
760,7802;0,0684534
761,7444;0,0681685
762,7087;0,0678913
763,6729;0,0676193
764,6371;0,0673563
765,6014;0,0671066
766,5656;0,0668668
767,5298;0,0666243
768,4941;0,0663629
769,4583;0,0660732
770,4225;0,0657605
771,3868;0,0654453
772,3510;0,0651565
773,3152;0,0649188
774,2795;0,0647423
775,2437;0,0646163
776,2079;0,064512
777,1722;0,0643929
778,1364;0,0642287
779,1006;0,064007
780,0649;0,0637373
781,0291;0,0634448
781,9933;0,0631588
782,9576;0,0628984
783,9218;0,0626653
784,8860;0,062445
785,8503;0,0622159
786,8145;0,0619619
787,7787;0,061683
788,7430;0,0613973
789,7072;0,0611342
790,6714;0,0609209
791,6357;0,0607692
792,5999;0,0606696
793,5641;0,0605947
794,5284;0,0605118
795,4926;0,0603973
796,4568;0,0602449
797,4211;0,0600658
798,3853;0,0598792
799,3495;0,0597015
800,3138;0,0595394
801,2780;0,0593892
802,2422;0,059243
803,2065;0,0590951
804,1707;0,0589462
805,1349;0,0588008
806,0992;0,0586627
807,0634;0,0585305
808,0276;0,0583978
808,9919;0,0582583
809,9561;0,0581115
810,9203;0,057965
811,8846;0,0578306
812,8488;0,0577177
813,8130;0,0576271
814,7773;0,0575515
815,7415;0,0574806
816,7057;0,0574077
817,6700;0,0573322
818,6342;0,0572566
819,5984;0,0571811
820,5627;0,0571008
821,5269;0,0570086
822,4911;0,056901
823,4554;0,0567816
824,4196;0,0566582
825,3839;0,0565359
826,3481;0,0564119
827,3123;0,0562768
828,2766;0,0561231
829,2408;0,0559533
830,2050;0,0557821
831,1693;0,0556284
832,1335;0,0555028
833,0977;0,0553987
834,0620;0,0552946
835,0262;0,0551654
835,9904;0,0549974
836,9547;0,0547946
837,9189;0,0545762
838,8831;0,0543647
839,8474;0,0541751
840,8116;0,0540092
841,7758;0,053859
842,7401;0,0537137
843,7043;0,0535667
844,6685;0,0534182
845,6328;0,0532734
846,5970;0,0531381
847,5612;0,0530147
848,5255;0,0529005
849,4897;0,0527885
850,4539;0,0526706
851,4182;0,0525428
852,3824;0,0524084
853,3466;0,052278
854,3109;0,0521649
855,2751;0,0520783
856,2393;0,0520174
857,2036;0,0519713
858,1678;0,0519249
859,1320;0,0518678
860,0963;0,0518009
861,0605;0,051737
862,0247;0,0516943
862,9890;0,0516867
863,9532;0,0517185
864,9174;0,0517848
865,8817;0,0518785
866,8459;0,0519973
867,8101;0,0521455
868,7744;0,0523303
869,7386;0,0525541
870,7028;0,0528092
871,6671;0,0530794
872,6313;0,0533458
873,5955;0,0535934
874,5598;0,0538144
875,5240;0,0540067
876,4882;0,0541715
877,4525;0,0543125
878,4167;0,0544394
879,3809;0,0545701
880,3452;0,0547308
881,3094;0,0549497
882,2736;0,0552486
883,2379;0,055637
884,2021;0,0561119
885,1663;0,0566621
886,1306;0,0572741
887,0948;0,0579361
888,0590;0,058638
889,0233;0,0593694
889,9875;0,060117
890,9517;0,0608628
891,9160;0,0615837
892,8802;0,0622521
893,8444;0,0628385
894,8087;0,0633142
895,7729;0,0636561
896,7371;0,0638496
897,7014;0,0638908
898,6656;0,0637868
899,6298;0,0635536
900,5941;0,0632141
901,5583;0,0627957
902,5225;0,0623276
903,4868;0,0618379
904,4510;0,0613515
905,4152;0,0608884
906,3795;0,0604622
907,3437;0,0600796
908,3079;0,059741
909,2722;0,0594413
910,2364;0,0591733
911,2007;0,0589308
912,1649;0,0587117
913,1292;0,0585188
914,0934;0,058359
915,0576;0,0582395
916,0219;0,0581657
916,9861;0,0581389
917,9503;0,058156
918,9146;0,0582099
919,8788;0,0582905
920,8430;0,0583868
921,8073;0,0584886
922,7715;0,0585882
923,7357;0,0586809
924,7000;0,0587648
925,6642;0,0588413
926,6284;0,0589154
927,5927;0,0589964
928,5569;0,0590969
929,5211;0,0592289
930,4854;0,0593979
931,4496;0,0596003
932,4138;0,0598245
933,3781;0,0600581
934,3423;0,0602959
935,3065;0,0605446
936,2708;0,0608202
937,2350;0,0611406
938,1992;0,0615181
939,1635;0,0619558
940,1277;0,0624496
941,0919;0,0629937
942,0562;0,0635848
943,0204;0,0642241
943,9846;0,0649157
944,9489;0,0656641
945,9131;0,0664723
946,8773;0,0673401
947,8416;0,0682632
948,8058;0,069234
949,7700;0,0702439
950,7343;0,071286
951,6985;0,0723582
952,6627;0,073464
953,6270;0,0746097
954,5912;0,0758001
955,5554;0,0770348
956,5197;0,0783071
957,4839;0,0796058
958,4481;0,0809193
959,4124;0,0822392
960,3766;0,0835617
961,3408;0,0848871
962,3051;0,086218
963,2693;0,0875582
964,2335;0,0889128
965,1978;0,0902877
966,1620;0,0916894
967,1262;0,0931241
968,0905;0,0945978
969,0547;0,0961183
970,0189;0,0976987
970,9832;0,0993611
971,9474;0,101137
972,9116;0,103062
973,8759;0,105165
974,8401;0,107462
975,8043;0,10995
976,7686;0,112611
977,7328;0,115415
978,6970;0,118325
979,6613;0,121295
980,6255;0,124268
981,5897;0,127174
982,5540;0,129937
983,5182;0,132494
984,4824;0,134812
985,4467;0,136892
986,4109;0,13877
987,3751;0,140497
988,3394;0,142117
989,3036;0,143651
990,2678;0,145096
991,2321;0,146435
992,1963;0,147648
993,1605;0,14873
994,1248;0,149695
995,0890;0,150573
996,0532;0,151402
997,0175;0,152211
997,9817;0,153021
998,9459;0,15384
999,9102;0,15467
1000,8744;0,15552
1001,8386;0,156405
1002,8029;0,157348
1003,7671;0,158376
1004,7313;0,159513
1005,6956;0,160775
1006,6598;0,162177
1007,6240;0,163729
1008,5883;0,165433
1009,5525;0,167286
1010,5167;0,169269
1011,4810;0,171347
1012,4452;0,173472
1013,4094;0,175591
1014,3737;0,177652
1015,3379;0,179618
1016,3021;0,181466
1017,2664;0,183185
1018,2306;0,184772
1019,1948;0,18623
1020,1591;0,187563
1021,1233;0,18878
1022,0875;0,189901
1023,0518;0,190954
1024,0160;0,191965
1024,9802;0,192951
1025,9445;0,193907
1026,9087;0,194802
1027,8729;0,195589
1028,8372;0,196209
1029,8014;0,196601
1030,7656;0,196704
1031,7299;0,196462
1032,6941;0,195823
1033,6583;0,194756
1034,6226;0,193272
1035,5868;0,191435
1036,5510;0,189368
1037,5153;0,187231
1038,4795;0,185184
1039,4437;0,18336
1040,4080;0,181839
1041,3722;0,180647
1042,3364;0,179762
1043,3007;0,179135
1044,2649;0,178702
1045,2291;0,178394
1046,1934;0,178148
1047,1576;0,177907
1048,1218;0,177625
1049,0861;0,17726
1050,0503;0,176769
1051,0145;0,176116
1051,9788;0,175273
1052,9430;0,174229
1053,9072;0,172997
1054,8715;0,1716
1055,8357;0,170054
1056,7999;0,168343
1057,7642;0,166418
1058,7284;0,164221
1059,6926;0,161714
1060,6569;0,158913
1061,6211;0,155901
1062,5853;0,152806
1063,5496;0,149762
1064,5138;0,146872
1065,4780;0,144192
1066,4423;0,141729
1067,4065;0,139461
1068,3707;0,137358
1069,3350;0,135387
1070,2992;0,133519
1071,2634;0,131725
1072,2277;0,129971
1073,1919;0,128227
1074,1561;0,126467
1075,1204;0,124678
1076,0846;0,122858
1077,0488;0,121023
1078,0131;0,119205
1078,9773;0,117454
1079,9415;0,115823
1080,9058;0,114362
1081,8700;0,113105
1082,8342;0,112062
1083,7985;0,111216
1084,7627;0,11054
1085,7269;0,109998
1086,6912;0,109557
1087,6554;0,109194
1088,6196;0,108889
1089,5839;0,108633
1090,5481;0,108426
1091,5123;0,108273
1092,4766;0,108183
1093,4408;0,108161
1094,4050;0,108202
1095,3693;0,108295
1096,3335;0,108422
1097,2977;0,10857
1098,2620;0,10873
1099,2262;0,108894
1100,1904;0,109053
1101,1547;0,109188
1102,1189;0,109276
1103,0831;0,109293
1104,0474;0,109227
1105,0116;0,109077
1105,9758;0,108859
1106,9401;0,108592
1107,9043;0,108281
1108,8685;0,107912
1109,8328;0,107442
1110,7970;0,106817
1111,7612;0,105988
1112,7255;0,104941
1113,6897;0,103708
1114,6539;0,102363
1115,6182;0,100995
1116,5824;0,0996879
1117,5466;0,0984875
1118,5109;0,0973989
1119,4751;0,09639
1120,4393;0,0954056
1121,4036;0,0943824
1122,3678;0,0932616
1123,3320;0,0919985
1124,2963;0,0905701
1125,2605;0,0889794
1126,2247;0,0872531
1127,1890;0,0854327
1128,1532;0,0835623
1129,1174;0,0816777
1130,0817;0,0798022
1131,0459;0,077951
1132,0101;0,076139
1132,9744;0,0743889
1133,9386;0,0727339
1134,9028;0,0712156
1135,8671;0,0698775
1136,8313;0,0687574
1137,7955;0,0678802
1138,7598;0,0672533
1139,7240;0,0668658
1140,6882;0,0666914
1141,6525;0,0666952
1142,6167;0,0668416
1143,5809;0,0670995
1144,5452;0,0674452
1145,5094;0,0678606
1146,4736;0,0683317
1147,4379;0,0688473
1148,4021;0,0693994
1149,3663;0,0699834
1150,3306;0,0705961
1151,2948;0,071231
1152,2590;0,0718728
1153,2233;0,0724962
1154,1875;0,0730669
1155,1517;0,0735463
1156,1160;0,0738941
1157,0802;0,0740676
1158,0444;0,0740194
1159,0087;0,0736961
1159,9729;0,0730445
1160,9371;0,0720226
1161,9014;0,0706136
1162,8656;0,0688351
1163,8298;0,0667387
1164,7941;0,0644013
1165,7583;0,0619122
1166,7225;0,0593623
1167,6868;0,0568373
1168,6510;0,0544131
1169,6152;0,0521518
1170,5795;0,050096
1171,5437;0,0482656
1172,5079;0,0466577
1173,4722;0,0452532
1174,4364;0,0440269
1175,4006;0,0429565
1176,3649;0,0420276
1177,3291;0,0412322
1178,2933;0,0405635
1179,2576;0,0400107
1180,2218;0,0395576
1181,1860;0,0391856
1182,1503;0,0388786
1183,1145;0,0386272
1184,0787;0,0384297
1185,0430;0,0382893
1186,0072;0,0382107
1186,9714;0,0381971
1187,9357;0,0382495
1188,8999;0,0383671
1189,8641;0,0385489
1190,8284;0,038794
1191,7926;0,0391018
1192,7568;0,0394715
1193,7211;0,0399
1194,6853;0,0403813
1195,6495;0,0409047
1196,6138;0,0414556
1197,5780;0,0420169
1198,5422;0,0425726
1199,5065;0,0430122
1200,4707;0,043537
1201,4349;0,0440353
1202,3992;0,0445057
1203,3634;0,044947
1204,3276;0,0453571
1205,2919;0,0457351
1206,2561;0,0460836
1207,2203;0,0464107
1208,1846;0,0467307
1209,1488;0,047062
1210,1130;0,047425
1211,0773;0,0478379
1212,0415;0,0483136
1213,0057;0,048857
1213,9700;0,0494634
1214,9342;0,0501205
1215,8984;0,050812
1216,8627;0,0515204
1217,8269;0,0522316
1218,7911;0,052937
1219,7554;0,053632
1220,7196;0,0543117
1221,6838;0,0549684
1222,6481;0,05559
1223,6123;0,0561634
1224,5765;0,0566798
1225,5408;0,0571392
1226,5050;0,0575501
1227,4692;0,0579253
1228,4335;0,0582743
1229,3977;0,0585992
1230,3619;0,0588939
1231,3262;0,0591494
1232,2904;0,0593587
1233,2546;0,0595204
1234,2189;0,0596384
1235,1831;0,0597196
1236,1473;0,0597704
1237,1116;0,0597959
1238,0758;0,0598002
1239,0400;0,059787
1240,0043;0,05976
1240,9685;0,0597219
1241,9327;0,0596723
1242,8970;0,0596068
1243,8612;0,0595172
1244,8254;0,0593938
1245,7897;0,0592298
1246,7539;0,0590253
1247,7181;0,0587882
1248,6824;0,0585322
1249,6466;0,0582718
1250,6108;0,058018
1251,5751;0,0577758
1252,5393;0,0575461
1253,5035;0,0573288
1254,4678;0,0571243
1255,4320;0,0569336
1256,3962;0,0567545
1257,3605;0,0565803
1258,3247;0,0563989
1259,2889;0,0561955
1260,2532;0,0559574
1261,2174;0,0556775
1262,1816;0,055356
1263,1459;0,0549989
1264,1101;0,0546147
1265,0743;0,0542105
1266,0386;0,0537893
1267,0028;0,0533494
1267,9670;0,0528859
1268,9313;0,0523943
1269,8955;0,0518734
1270,8597;0,0513262
1271,8240;0,0507586
1272,7882;0,0501778
1273,7524;0,0495912
1274,7167;0,0490071
1275,6809;0,0484358
1276,6451;0,0478874
1277,6094;0,0473683
1278,5736;0,0468767
1279,5378;0,0464027
1280,5021;0,0459322
1281,4663;0,0454552
1282,4305;0,0449718
1283,3948;0,044493
1284,3590;0,0440367
1285,3232;0,0436219
1286,2875;0,0432628
1287,2517;0,0429671
1288,2159;0,0427352
1289,1802;0,0425632
1290,1444;0,0424461
1291,1086;0,0423804
1292,0729;0,042367
1293,0371;0,0424097
1294,0013;0,0425126
1294,9656;0,0426769
1295,9298;0,0428985
1296,8940;0,0431696
1297,8583;0,0434827
1298,8225;0,0438337
1299,7867;0,0442229
1300,7510;0,0446523
1301,7152;0,0451236
1302,6794;0,0456353
1303,6437;0,0461829
1304,6079;0,0467622
1305,5721;0,0473691
1306,5364;0,0480004
1307,5006;0,0486527
1308,4648;0,0493222
1309,4291;0,0500033
1310,3933;0,0506865
1311,3575;0,0513565
1312,3218;0,0519915
1313,2860;0,0525658
1314,2502;0,0530552
1315,2145;0,0534397
1316,1787;0,0537044
1317,1429;0,0538395
1318,1072;0,053844
1319,0714;0,0537317
1320,0356;0,0535328
1320,9999;0,0532871
1321,9641;0,0530316
1322,9283;0,0527917
1323,8926;0,0525804
1324,8568;0,0524022
1325,8210;0,0522567
1326,7853;0,0521412
1327,7495;0,0520488
1328,7137;0,0519688
1329,6780;0,0518869
1330,6422;0,0517885
1331,6064;0,0516618
1332,5707;0,051499
1333,5349;0,0512968
1334,4991;0,0510515
1335,4634;0,0507557
1336,4276;0,0503973
1337,3918;0,0499643
1338,3561;0,049458
1339,3203;0,048907
1340,2845;0,048365
1341,2488;0,0478844
1342,2130;0,047489
1343,1772;0,0471731
1344,1415;0,0469206
1345,1057;0,0467203
1346,0699;0,0465722
1347,0342;0,0464825
1347,9984;0,0464594
1348,9626;0,0465071
1349,9269;0,0466244
1350,8911;0,0468037
1351,8553;0,0470331
1352,8196;0,0473002
1353,7838;0,0475965
1354,7480;0,0479188
1355,7123;0,0482677
1356,6765;0,0486421
1357,6407;0,0490367
1358,6050;0,0494429
1359,5692;0,0498509
1360,5334;0,0502478
1361,4977;0,0506148
1362,4619;0,0509378
1363,4261;0,0512223
1364,3904;0,0514911
1365,3546;0,0517617
1366,3188;0,0520331
1367,2831;0,0522897
1368,2473;0,05251
1369,2115;0,052673
1370,1758;0,0527606
1371,1400;0,0527571
1372,1042;0,0526468
1373,0685;0,052418
1374,0327;0,0520763
1374,9969;0,0516545
1375,9612;0,051197
1376,9254;0,0507248
1377,8896;0,0502226
1378,8539;0,0496605
1379,8181;0,0490292
1380,7823;0,048356
1381,7466;0,0476882
1382,7108;0,0470575
1383,6750;0,0464585
1384,6393;0,0458587
1385,6035;0,0452326
1386,5677;0,0445984
1387,5320;0,04403
1388,4962;0,0436115
1389,4604;0,0433697
1390,4247;0,0432624
1391,3889;0,043223
1392,3531;0,0432046
1393,3174;0,0431925
1394,2816;0,0431913
1395,2458;0,043208
1396,2101;0,0432445
1397,1743;0,043301
1398,1385;0,0433832
1399,1028;0,0435022
1400,0670;0,0436671
1401,0313;0,0438759
1401,9955;0,0441163
1402,9597;0,0443746
1403,9240;0,0446453
1404,8882;0,0449341
1405,8524;0,0452537
1406,8167;0,0456136
1407,7809;0,046012
1408,7451;0,0464403
1409,7094;0,0468935
1410,6736;0,047376
1411,6378;0,047893
1412,6021;0,0484372
1413,5663;0,048984
1414,5305;0,0495013
1415,4948;0,0499646
1416,4590;0,0503642
1417,4232;0,0506977
1418,3875;0,0509688
1419,3517;0,0512012
1420,3159;0,0514245
1421,2802;0,0516264
1422,2444;0,0517476
1423,2086;0,0517293
1424,1729;0,0515549
1425,1371;0,0512512
1426,1013;0,0508543
1427,0656;0,0503748
1428,0298;0,0497957
1428,9940;0,0491087
1429,9583;0,048353
1430,9225;0,0476057
1431,8867;0,0469177
1432,8510;0,0462657
1433,8152;0,0455707
1434,7794;0,0447599
1435,7437;0,0438451
1436,7079;0,0429729
1437,6721;0,0423488
1438,6364;0,0420599
1439,6006;0,0420223
1440,5648;0,0420951
1441,5291;0,0421855
1442,4933;0,042273
1443,4575;0,0423813
1444,4218;0,042539
1445,3860;0,0427539
1446,3502;0,043011
1447,3145;0,0432897
1448,2787;0,0435804
1449,2429;0,0438867
1450,2072;0,0442065
1451,1714;0,0445143
1452,1356;0,0447657
1453,0999;0,0449198
1454,0641;0,0449564
1455,0283;0,0448641
1455,9926;0,0446068
1456,9568;0,0441771
1457,9210;0,0437682
1458,8853;0,0436365
1459,8495;0,0437754
1460,8137;0,0439858
1461,7780;0,0440736
1462,7422;0,0439104
1463,7064;0,0434359
1464,6707;0,0426918
1465,6349;0,0418437
1466,5991;0,0410743
1467,5634;0,040434
1468,5276;0,0398351
1469,4918;0,0391421
1470,4561;0,0382291
1471,4203;0,0370042
1472,3845;0,0354736
1473,3488;0,0338375
1474,3130;0,0324079
1475,2772;0,0313484
1476,2415;0,0306077
1477,2057;0,0300601
1478,1699;0,0296102
1479,1342;0,029209
1480,0984;0,0288387
1481,0626;0,0285013
1482,0269;0,0282138
1482,9911;0,0279987
1483,9553;0,0278698
1484,9196;0,0278239
1485,8838;0,0278438
1486,8480;0,0279022
1487,8123;0,0279597
1488,7765;0,0279822
1489,7407;0,0279981
1490,7050;0,0280978
1491,6692;0,0283361
1492,6334;0,0286892
1493,5977;0,0291087
1494,5619;0,0295703
1495,5261;0,0300756
1496,4904;0,0306233
1497,4546;0,0311944
1498,4188;0,0317806
1499,3831;0,0323895
1500,3473;0,0329998
1501,3115;0,0335496
1502,2758;0,0339756
1503,2400;0,0342547
1504,2042;0,0344167
1505,1685;0,0344991
1506,1327;0,0344244
1507,0969;0,0340207
1508,0612;0,0334114
1509,0254;0,0329397
1509,9896;0,0326812
1510,9539;0,0325051
1511,9181;0,0322917
1512,8823;0,0319859
1513,8466;0,0315761
1514,8108;0,0310705
1515,7750;0,030491
1516,7393;0,0298712
1517,7035;0,0292449
1518,6677;0,0286283
1519,6320;0,0280213
1520,5962;0,0274311
1521,5604;0,0268958
1522,5247;0,0264662
1523,4889;0,0261579
1524,4531;0,02594
1525,4174;0,0257745
1526,3816;0,0256556
1527,3458;0,0256043
1528,3101;0,025635
1529,2743;0,0257371
1530,2385;0,0258902
1531,2028;0,0260876
1532,1670;0,0263384
1533,1312;0,0266478
1534,0955;0,0270006
1535,0597;0,0273619
1536,0239;0,0276923
1536,9882;0,0279761
1537,9524;0,0282391
1538,9166;0,028505
1539,8809;0,0286693
1540,8451;0,0285162
1541,8093;0,0280995
1542,7736;0,0277323
1543,7378;0,0275499
1544,7020;0,0275036
1545,6663;0,0275302
1546,6305;0,0275979
1547,5947;0,0276855
1548,5590;0,0277688
1549,5232;0,0278302
1550,4874;0,0278766
1551,4517;0,0279414
1552,4159;0,028057
1553,3801;0,0282207
1554,3444;0,028388
1555,3086;0,0284989
1556,2728;0,0284989
1557,2371;0,028322
1558,2013;0,0279271
1559,1655;0,0275492
1560,1298;0,0276084
1561,0940;0,0281444
1562,0582;0,0288924
1563,0225;0,0296247
1563,9867;0,0302356
1564,9509;0,0307025
1565,9152;0,0310478
1566,8794;0,031319
1567,8436;0,0315796
1568,8079;0,0318934
1569,7721;0,0322987
1570,7363;0,0327842
1571,7006;0,0332974
1572,6648;0,0337863
1573,6290;0,0342369
1574,5933;0,0346745
1575,5575;0,0351283
1576,5217;0,0356033
1577,4860;0,0361019
1578,4502;0,0366345
1579,4144;0,0371918
1580,3787;0,0377487
1581,3429;0,0382915
1582,3071;0,0388248
1583,2714;0,0393625
1584,2356;0,0399175
1585,1998;0,0404975
1586,1641;0,0411019
1587,1283;0,0417205
1588,0925;0,0423329
1589,0568;0,0429106
1590,0210;0,0434223
1590,9852;0,0438377
1591,9495;0,0441293
1592,9137;0,0442759
1593,8779;0,0442707
1594,8422;0,0441308
1595,8064;0,0438967
1596,7706;0,0436174
1597,7349;0,0433324
1598,6991;0,0430612
1599,6633;0,0428067
1600,6276;0,0425638
1601,5918;0,0423281
1602,5560;0,0421023
1603,5203;0,0418947
1604,4845;0,0417112
1605,4487;0,0415459
1606,4130;0,0413801
1607,3772;0,0411944
1608,3414;0,0409887
1609,3057;0,0407939
1610,2699;0,0406548
1611,2341;0,0405913
1612,1984;0,0405806
1613,1626;0,0405727
1614,1268;0,0405187
1615,0911;0,0403914
1616,0553;0,0402137
1617,0195;0,0400771
1617,9838;0,040078
1618,9480;0,0402156
1619,9122;0,0404002
1620,8765;0,0405358
1621,8407;0,0405722
1622,8049;0,0405157
1623,7692;0,040416
1624,7334;0,0403292
1625,6976;0,0402757
1626,6619;0,0402398
1627,6261;0,0402072
1628,5903;0,0401898
1629,5546;0,0402103
1630,5188;0,0402679
1631,4830;0,0403303
1632,4473;0,040354
1633,4115;0,0403024
1634,3757;0,0401416
1635,3400;0,0398547
1636,3042;0,0395211
1637,2684;0,0393007
1638,2327;0,0392594
1639,1969;0,0393331
1640,1611;0,0394357
1641,1254;0,0395191
1642,0896;0,0395689
1643,0538;0,0395836
1644,0181;0,0395552
1644,9823;0,0394549
1645,9465;0,0392522
1646,9108;0,0389877
1647,8750;0,03877
1648,8392;0,0386355
1649,8035;0,0385031
1650,7677;0,0382477
1651,7319;0,0377421
1652,6962;0,0369193
1653,6604;0,0360209
1654,6246;0,0355337
1655,5889;0,035559
1656,5531;0,0358136
1657,5173;0,036031
1658,4816;0,0360829
1659,4458;0,0359359
1660,4100;0,0356027
1661,3743;0,0351306
1662,3385;0,0346156
1663,3027;0,0341761
1664,2670;0,0338727
1665,2312;0,0336719
1666,1954;0,0334879
1667,1597;0,0332332
1668,1239;0,0328496
1669,0881;0,0323418
1670,0524;0,0317971
1671,0166;0,031321
1671,9808;0,0309303
1672,9451;0,0305489
1673,9093;0,0300998
1674,8735;0,0295885
1675,8378;0,0291197
1676,8020;0,0288185
1677,7662;0,0287192
1678,7305;0,0287445
1679,6947;0,0287715
1680,6589;0,0286882
1681,6232;0,0284013
1682,5874;0,0278351
1683,5516;0,027018
1684,5159;0,0262026
1685,4801;0,0256813
1686,4443;0,0254837
1687,4086;0,0254459
1688,3728;0,0254163
1689,3370;0,0253316
1690,3013;0,0251986
1691,2655;0,0250515
1692,2297;0,0249209
1693,1940;0,024822
1694,1582;0,0247534
1695,1224;0,0246935
1696,0867;0,024597
1697,0509;0,0244066
1698,0151;0,0240946
1698,9794;0,0237153
1699,9436;0,023404
1700,9078;0,0232874
1701,8721;0,0233875
1702,8363;0,0236221
1703,8005;0,0238781
1704,7648;0,024076
1705,7290;0,0241996
1706,6932;0,0242925
1707,6575;0,0244235
1708,6217;0,0246378
1709,5859;0,0249356
1710,5502;0,0252875
1711,5144;0,02566
1712,4786;0,0260266
1713,4429;0,0263656
1714,4071;0,026647
1715,3713;0,0268197
1716,3356;0,0268368
1717,2998;0,026747
1718,2640;0,0267161
1719,2283;0,0268664
1720,1925;0,0271785
1721,1567;0,0275612
1722,1210;0,0279352
1723,0852;0,0282611
1724,0494;0,0285355
1725,0137;0,0287801
1725,9779;0,0290255
1726,9421;0,0292924
1727,9064;0,0295778
1728,8706;0,0298523
1729,8348;0,0300666
1730,7991;0,0301601
1731,7633;0,0300731
1732,7275;0,0297864
1733,6918;0,0293908
1734,6560;0,0290704
1735,6202;0,0289353
1736,5845;0,0289325
1737,5487;0,0289325
1738,5129;0,0288314
1739,4772;0,0285918
1740,4414;0,0282422
1741,4056;0,0278496
1742,3699;0,0274727
1743,3341;0,0271284
1744,2983;0,026797
1745,2626;0,0264464
1746,2268;0,0260406
1747,1910;0,0255303
1748,1553;0,0248566
1749,1195;0,0240024
1750,0837;0,023061
1751,0480;0,0222072
1752,0122;0,0215634
1752,9764;0,0211237
1753,9407;0,0207993
1754,9049;0,0204973
1755,8691;0,0201667
1756,8334;0,0198045
1757,7976;0,0194311
1758,7618;0,0190574
1759,7261;0,0186728
1760,6903;0,0182666
1761,6545;0,0178577
1762,6188;0,0174969
1763,5830;0,0172299
1764,5472;0,017062
1765,5115;0,0169599
1766,4757;0,0168797
1767,4399;0,0167903
1768,4042;0,0166775
1769,3684;0,0165326
1770,3326;0,01634
1771,2969;0,016087
1772,2611;0,0157976
1773,2253;0,0155444
1774,1896;0,0153952
1775,1538;0,0153571
1776,1180;0,0153844
1777,0823;0,0154213
1778,0465;0,0154336
1779,0107;0,0154151
1779,9750;0,0153766
1780,9392;0,0153293
1781,9034;0,0152726
1782,8677;0,0152
1783,8319;0,0151157
1784,7961;0,0150449
1785,7604;0,0150222
1786,7246;0,0150663
1787,6888;0,0151653
1788,6531;0,0152822
1789,6173;0,0153705
1790,5815;0,0153876
1791,5458;0,0153162
1792,5100;0,0151918
1793,4742;0,0150928
1794,4385;0,0150728
1795,4027;0,0151205
1796,3669;0,0151859
1797,3312;0,0152215
1798,2954;0,0152018
1799,2596;0,0151257
1800,2239;0,0150134
1801,1881;0,0148981
1802,1523;0,0148114
1803,1166;0,0147696
1804,0808;0,014771
1805,0450;0,0148032
1806,0093;0,0148509
1806,9735;0,0148991
1807,9377;0,014935
1808,9020;0,0149481
1809,8662;0,0149334
1810,8304;0,0148939
1811,7947;0,0148398
1812,7589;0,0147817
1813,7231;0,0147256
1814,6874;0,0146744
1815,6516;0,014634
1816,6158;0,0146152
1817,5801;0,01463
1818,5443;0,0146827
1819,5085;0,0147635
1820,4728;0,0148509
1821,4370;0,0149202
1822,4012;0,0149546
1823,3655;0,0149532
1824,3297;0,0149313
1825,2939;0,0149124
1826,2582;0,0149108
1827,2224;0,0149208
1828,1866;0,01492
1829,1509;0,0148884
1830,1151;0,0148287
1831,0793;0,0147692
1832,0436;0,0147371
1833,0078;0,0147331
1833,9720;0,0147346
1834,9363;0,0147195
1835,9005;0,014687
1836,8647;0,0146614
1837,8290;0,0146752
1838,7932;0,0147424
1839,7574;0,0148448
1840,7217;0,0149423
1841,6859;0,0149926
1842,6501;0,0149684
1843,6144;0,0148724
1844,5786;0,0147451
1845,5428;0,0146417
1846,5071;0,0145882
1847,4713;0,0145676
1848,4355;0,0145481
1849,3998;0,0145134
1850,3640;0,0144718
1851,3282;0,0144458
1852,2925;0,0144538
1853,2567;0,0144982
1854,2209;0,0145663
1855,1852;0,0146398
1856,1494;0,0147028
1857,1136;0,0147451
1858,0779;0,0147615
1859,0421;0,0147522
1860,0063;0,0147256
1860,9706;0,0147002
1861,9348;0,0146992
1862,8990;0,0147401
1863,8633;0,0148257
1864,8275;0,014942
1865,7917;0,0150614
1866,7560;0,0151468
1867,7202;0,0151626
1868,6844;0,0150986
1869,6487;0,0149845
1870,6129;0,0148671
1871,5771;0,0147738
1872,5414;0,0147052
1873,5056;0,0146527
1874,4698;0,0146141
1875,4341;0,0145966
1876,3983;0,0146084
1877,3625;0,014649
1878,3268;0,0147051
1879,2910;0,0147561
1880,2552;0,0147838
1881,2195;0,0147827
1882,1837;0,0147621
1883,1479;0,0147412
1884,1122;0,0147381
1885,0764;0,01476
1886,0406;0,0148004
1887,0049;0,0148426
1887,9691;0,0148683
1888,9333;0,0148661
1889,8976;0,0148372
1890,8618;0,0147924
1891,8260;0,0147427
1892,7903;0,0146928
1893,7545;0,0146443
1894,7188;0,014602
1895,6830;0,014577
1896,6472;0,0145824
1897,6115;0,014623
1898,5757;0,0146892
1899,5399;0,0147593
1900,5042;0,0148086
1901,4684;0,0148212
1902,4326;0,0147972
1903,3969;0,0147519
1904,3611;0,0147062
1905,3253;0,0146761
1906,2896;0,0146662
1907,2538;0,0146721
1908,2180;0,0146874
1909,1823;0,0147101
1910,1465;0,0147428
1911,1107;0,0147872
1912,0750;0,014838
1913,0392;0,0148824
1914,0034;0,0149068
1914,9677;0,014906
1915,9319;0,0148866
1916,8961;0,0148655
1917,8604;0,0148599
1918,8246;0,0148767
1919,7888;0,0149072
1920,7531;0,0149325
1921,7173;0,0149345
1922,6815;0,0149061
1923,6458;0,014855
1924,6100;0,0147987
1925,5742;0,0147535
1926,5385;0,0147243
1927,5027;0,0147021
1928,4669;0,0146717
1929,4312;0,0146223
1930,3954;0,0145576
1931,3596;0,0144985
1932,3239;0,0144739
1933,2881;0,0145042
1934,2523;0,0145879
1935,2166;0,0147
1936,1808;0,0148042
1937,1450;0,0148705
1938,1093;0,0148876
1939,0735;0,014862
1940,0377;0,0148101
1941,0020;0,0147485
1941,9662;0,0146884
1942,9304;0,0146339
1943,8947;0,014581
1944,8589;0,0145174
1945,8231;0,014428
1946,7874;0,0143067
1947,7516;0,0141686
1948,7158;0,0140519
1949,6801;0,0140029
1950,6443;0,0140467
1951,6085;0,014165
1952,5728;0,0142985
1953,5370;0,014376
1954,5012;0,0143536
1955,4655;0,0142395
1956,4297;0,0140883
1957,3939;0,0139691
1958,3582;0,0139289
1959,3224;0,01397
1960,2866;0,0140546
1961,2509;0,0141318
1962,2151;0,0141705
1963,1793;0,0141789
1964,1436;0,0141976
1965,1078;0,0142704
1966,0720;0,014406
1967,0363;0,0145544
1968,0005;0,0146221
1968,9647;0,0145255
1969,9290;0,0142473
1970,8932;0,0138548
1971,8574;0,0134721
1972,8217;0,0132251
1973,7859;0,013189
1974,7501;0,0133611
1975,7144;0,0136731
1976,6786;0,0140336
1977,6428;0,0143709
1978,6071;0,0146514
1979,5713;0,0148695
1980,5355;0,0150305
1981,4998;0,0151405
1982,4640;0,0152047
1983,4282;0,0152267
1984,3925;0,0152067
1985,3567;0,01514
1986,3209;0,0150217
1987,2852;0,0148563
1988,2494;0,0146637
1989,2136;0,0144783
1990,1779;0,0143384
1991,1421;0,0142713
1992,1063;0,0142833
1993,0706;0,0143612
1994,0348;0,0144826
1994,9990;0,014624
1995,9633;0,0147617
1996,9275;0,0148664
1997,8917;0,0149041
1998,8560;0,014849
1999,8202;0,0147058
2000,7844;0,0145251
2001,7487;0,0143954
2002,7129;0,0144098
2003,6771;0,0146201
2004,6414;0,0150019
2005,6056;0,0154508
2006,5698;0,0158239
2007,5341;0,0160086
2008,4983;0,0159766
2009,4625;0,0157863
2010,4268;0,0155374
2011,3910;0,015317
2012,3552;0,0151734
2013,3195;0,0151211
2014,2837;0,0151586
2015,2479;0,0152757
2016,2122;0,0154465
2017,1764;0,0156203
2018,1406;0,0157302
2019,1049;0,0157208
2020,0691;0,0155768
2021,0333;0,0153346
2021,9976;0,0150688
2022,9618;0,014863
2023,9260;0,0147799
2024,8903;0,0148396
2025,8545;0,0150168
2026,8187;0,0152534
2027,7830;0,0154834
2028,7472;0,0156601
2029,7114;0,0157756
2030,6757;0,0158649
2031,6399;0,0159884
2032,6041;0,0161973
2033,5684;0,0164986
2034,5326;0,0168406
2035,4968;0,0171301
2036,4611;0,0172753
2037,4253;0,0172288
2038,3895;0,0170108
2039,3538;0,0167032
2040,3180;0,0164183
2041,2822;0,0162538
2042,2465;0,0162516
2043,2107;0,0163839
2044,1749;0,0165735
2045,1392;0,0167355
2046,1034;0,0168176
2047,0676;0,0168174
2048,0320;0,0167719
2048,9961;0,0167262
2049,9604;0,0167063
2050,9246;0,0167117
2051,8889;0,0167264
2052,8530;0,0167336
2053,8174;0,0167241
2054,7815;0,0166962
2055,7458;0,0166536
2056,7100;0,0166039
2057,6743;0,0165587
2058,6384;0,016533
2059,6028;0,0165407
2060,5669;0,0165874
2061,5313;0,016666
2062,4954;0,0167595
2063,4597;0,0168509
2064,4238;0,0169322
2065,3882;0,0170068
2066,3523;0,0170803
2067,3167;0,01715
2068,2808;0,0172003
2069,2451;0,0172104
2070,2092;0,0171687
2071,1736;0,0170827
2072,1377;0,0169778
2073,1021;0,0168849
2074,0662;0,0168249
2075,0305;0,0168031
2075,9946;0,0168132
2076,9590;0,016848
2077,9231;0,0169056
2078,8875;0,0169857
2079,8516;0,0170814
2080,8159;0,017174
2081,7800;0,0172378
2082,7444;0,0172531
2083,7085;0,0172187
2084,6729;0,0171539
2085,6370;0,0170884
2086,6013;0,0170441
2087,5654;0,0170234
2088,5298;0,0170099
2089,4939;0,0169834
2090,4583;0,0169381
2091,4224;0,0168908
2092,3867;0,0168734
2093,3508;0,0169123
2094,3152;0,0170095
2095,2793;0,0171383
2096,2437;0,0172571
2097,2078;0,0173325
2098,1721;0,0173545
2099,1362;0,0173351
2100,1006;0,0172947
2101,0647;0,0172496
2102,0291;0,0172107
2102,9932;0,0171875
2103,9575;0,0171909
2104,9216;0,0172297
2105,8860;0,0173018
2106,8501;0,0173915
2107,8145;0,0174754
2108,7786;0,0175348
2109,7429;0,0175641
2110,7070;0,0175683
2111,6714;0,0175533
2112,6355;0,0175193
2113,5999;0,0174637
2114,5640;0,0173907
2115,5283;0,0173185
2116,4924;0,017274
2117,4568;0,0172785
2118,4209;0,0173335
2119,3853;0,0174167
2120,3494;0,0174931
2121,3137;0,0175318
2122,2778;0,0175203
2123,2422;0,0174667
2124,2063;0,0173922
2125,1707;0,0173197
2126,1348;0,0172661
2127,0991;0,0172393
2128,0632;0,0172414
2129,0276;0,017272
2129,9917;0,0173317
2130,9561;0,0174214
2131,9202;0,0175399
2132,8845;0,0176773
2133,8486;0,0178116
2134,8130;0,0179113
2135,7771;0,0179478
2136,7415;0,0179103
2137,7056;0,0178138
2138,6699;0,0176953
2139,6340;0,0175987
2140,5984;0,0175609
2141,5625;0,0176028
2142,5269;0,0177269
2143,4910;0,0179179
2144,4553;0,0181431
2145,4194;0,0183572
2146,3838;0,0185153
2147,3479;0,018594
2148,3123;0,0186073
2149,2764;0,0186015
2150,2407;0,0186261
2151,2048;0,0186963
2152,1692;0,0187737
2153,1333;0,018784
2154,0977;0,0186662
2155,0618;0,018427
2156,0261;0,0181656
2156,9902;0,0180428
2157,9546;0,018188
2158,9187;0,0185982
2159,8831;0,0191203
2160,8472;0,0195476
2161,8115;0,01974
2162,7756;0,019669
2163,7400;0,0193875
2164,7041;0,0189785
2165,6685;0,0185209
2166,6326;0,0180804
2167,5969;0,0177163
2168,5610;0,0174843
2169,5254;0,0174265
2170,4895;0,01755
2171,4539;0,0178096
2172,4180;0,0181125
2173,3823;0,0183498
2174,3464;0,0184452
2175,3108;0,0183925
2176,2749;0,0182563
2177,2393;0,0181324
2178,2034;0,0180927
2179,1677;0,0181486
2180,1318;0,0182533
2181,0962;0,0183372
2182,0603;0,0183546
2183,0247;0,0183079
2183,9888;0,0182356
2184,9531;0,0181738
2185,9172;0,0181235
2186,8816;0,0180493
2187,8457;0,0179091
2188,8101;0,0176933
2189,7742;0,0174446
2190,7385;0,017244
2191,7026;0,017171
2192,6670;0,0172617
2193,6311;0,0174888
2194,5955;0,0177725
2195,5596;0,0180142
2196,5239;0,0181344
2197,4880;0,0180991
2198,4524;0,0179289
2199,4165;0,01769
2200,3809;0,0174714
2201,3450;0,0173536
2202,3093;0,0173775
2203,2734;0,0175267
2204,2378;0,017733
2205,2019;0,0179079
2206,1663;0,0179833
2207,1304;0,0179419
2208,0947;0,0178196
2209,0588;0,0176788
2210,0232;0,0175723
2210,9873;0,0175201
2211,9517;0,0175108
2212,9158;0,0175225
2213,8801;0,0175445
2214,8442;0,0175831
2215,8086;0,0176498
2216,7727;0,0177429
2217,7371;0,017839
2218,7012;0,0179017
2219,6655;0,0179018
2220,6296;0,0178353
2221,5940;0,0177272
2222,5581;0,0176195
2223,5225;0,0175512
2224,4866;0,0175418
2225,4509;0,0175867
2226,4150;0,017663
2227,3794;0,0177428
2228,3435;0,0178054
2229,3079;0,0178422
2230,2720;0,0178543
2231,2363;0,0178472
2232,2004;0,0178253
2233,1648;0,0177901
2234,1289;0,0177424
2235,0933;0,0176855
2236,0574;0,0176264
2237,0217;0,0175739
2237,9858;0,0175355
2238,9502;0,0175148
2239,9143;0,017512
2240,8787;0,0175278
2241,8428;0,0175664
2242,8071;0,0176342
2243,7712;0,0177342
2244,7356;0,0178584
2245,6997;0,0179841
2246,6641;0,0180785
2247,6282;0,018111
2248,5925;0,0180666
2249,5566;0,0179543
2250,5210;0,0178047
2251,4851;0,0176598
2252,4495;0,0175579
2253,4136;0,0175221
2254,3779;0,0175543
2255,3420;0,0176371
2256,3064;0,0177414
2257,2705;0,0178364
2258,2349;0,0178996
2259,1990;0,0179231
2260,1633;0,0179147
2261,1274;0,0178916
2262,0918;0,0178708
2263,0559;0,0178591
2264,0203;0,0178503
2264,9844;0,0178301
2265,9487;0,0177886
2266,9128;0,0177295
2267,8772;0,0176722
2268,8413;0,0176431
2269,8057;0,0176613
2270,7698;0,0177273
2271,7341;0,0178205
2272,6982;0,0179073
2273,6626;0,0179559
2274,6267;0,0179501
2275,5911;0,0178967
2276,5552;0,0178215
2277,5195;0,0177572
2278,4836;0,0177292
2279,4480;0,0177453
2280,4121;0,0177957
2281,3765;0,0178619
2282,3406;0,0179276
2283,3049;0,0179861
2284,2690;0,0180387
2285,2334;0,018089
2286,1975;0,0181366
2287,1619;0,0181767
2288,1260;0,0182057
2289,0903;0,0182282
2290,0544;0,0182588
2291,0188;0,0183152
2291,9829;0,0184073
2292,9473;0,0185276
2293,9114;0,0186517
2294,8757;0,0187488
2295,8398;0,0187962
2296,8042;0,0187907
2297,7683;0,0187487
2298,7327;0,0186962
2299,6968;0,0186551
2300,6611;0,0186341
2301,6252;0,0186294
2302,5896;0,0186319
2303,5537;0,0186372
2304,5181;0,0186477
2305,4822;0,0186677
2306,4465;0,0186929
2307,4106;0,0187052
2308,3750;0,0186772
2309,3391;0,018587
2310,3035;0,0184352
2311,2676;0,0182516
2312,2319;0,0180841
2313,1960;0,0179755
2314,1604;0,0179414
2315,1245;0,0179647
2316,0889;0,0180087
2317,0530;0,0180384
2318,0173;0,0180384
2318,9814;0,0180168
2319,9458;0,0179965
2320,9099;0,0180004
2321,8743;0,0180411
2322,8384;0,0181178
2323,8027;0,018219
2324,7668;0,0183261
2325,7312;0,0184191
2326,6953;0,018484
2327,6597;0,0185158
2328,6238;0,0185177
2329,5881;0,0184986
2330,5522;0,0184749
2331,5166;0,0184698
2332,4807;0,0185017
2333,4451;0,0185712
2334,4092;0,0186603
2335,3735;0,0187492
2336,3376;0,0188348
2337,3020;0,0189358
2338,2661;0,0190769
2339,2305;0,019258
2340,1946;0,0194261
2341,1589;0,019474
2342,1230;0,0192874
2343,0874;0,0188588
2344,0515;0,0183937
2345,0159;0,0182185
2345,9800;0,018498
2346,9443;0,0190981
2347,9084;0,0197217
2348,8728;0,0201125
2349,8369;0,0201658
2350,8013;0,0199411
2351,7654;0,019604
2352,7297;0,0193228
2353,6938;0,0191729
2354,6582;0,0191336
2355,6223;0,0191698
2356,5867;0,0192784
2357,5508;0,0194512
2358,5151;0,0196309
2359,4792;0,0197247
2360,4436;0,0196618
2361,4077;0,0194314
2362,3721;0,0190765
2363,3362;0,0186663
2364,3005;0,0182679
2365,2646;0,0179196
2366,2290;0,0176146
2367,1931;0,0173117
2368,1575;0,0169718
2369,1216;0,0165936
2370,0859;0,0162198
2371,0500;0,0159115
2372,0144;0,0157155
2372,9785;0,0156465
2373,9429;0,0156928
2374,9070;0,0158332
2375,8713;0,0160488
2376,8354;0,0163248
2377,7998;0,0166453
2378,7639;0,0169873
2379,7283;0,0173209
2380,6924;0,0176153
2381,6567;0,0178468
2382,6208;0,0180054
2383,5852;0,018096
2384,5493;0,0181353
2385,5137;0,0181447
2386,4778;0,0181428
2387,4421;0,0181415
2388,4063;0,0181437
2389,3706;0,0181461
2390,3347;0,0181435
2391,2991;0,0181327
2392,2632;0,0181151
2393,2275;0,0180963
2394,1917;0,0180837
2395,1560;0,0180832
2396,1201;0,0180966
2397,0845;0,0181213
2398,0486;0,0181524
2399,0129;0,0181837
2399,9771;0,0182109
2400,9414;0,0182336
2401,9055;0,0182541
2402,8699;0,0182763
2403,8340;0,0183033
2404,7983;0,0183352
2405,7625;0,0183685
2406,7268;0,0183963
2407,6909;0,0184118
2408,6553;0,0184122
2409,6194;0,0184003
2410,5837;0,018385
2411,5479;0,0183773
2412,5122;0,0183846
2413,4763;0,0184072
2414,4407;0,018438
2415,4048;0,0184675
2416,3691;0,0184899
2417,3333;0,0185063
2418,2976;0,018523
2419,2617;0,0185459
2420,2261;0,0185754
2421,1902;0,0186061
2422,1545;0,018631
2423,1187;0,0186475
2424,0830;0,0186585
2425,0471;0,0186696
2426,0115;0,0186833
2426,9756;0,0186966
2427,9399;0,0187035
2428,9041;0,0187013
2429,8684;0,0186945
2430,8325;0,0186938
2431,7969;0,0187099
2432,7610;0,0187464
2433,7253;0,0187978
2434,6895;0,0188525
2435,6538;0,0188986
2436,6179;0,0189281
2437,5823;0,0189389
2438,5464;0,0189329
2439,5107;0,0189151
2440,4749;0,0188935
2441,4392;0,0188781
2442,4033;0,0188795
2443,3677;0,0189041
2444,3318;0,0189507
2445,2961;0,0190093
2446,2603;0,0190652
2447,2246;0,0191049
2448,1887;0,0191233
2449,1531;0,0191253
2450,1172;0,0191234
2451,0815;0,01913
2452,0457;0,0191516
2453,0100;0,0191843
2453,9741;0,0192165
2454,9385;0,0192351
2455,9026;0,0192323
2456,8669;0,0192099
2457,8311;0,019178
2458,7954;0,0191501
2459,7595;0,0191373
2460,7239;0,0191446
2461,6880;0,0191711
2462,6523;0,0192121
2463,6165;0,0192617
2464,5808;0,0193131
2465,5449;0,0193584
2466,5093;0,0193888
2467,4734;0,0193976
2468,4377;0,0193833
2469,4019;0,0193527
2470,3662;0,0193191
2471,3303;0,0192974
2472,2947;0,0192973
2473,2588;0,01932
2474,2231;0,0193588
2475,1873;0,0194044
2476,1516;0,0194496
2477,1157;0,0194924
2478,0801;0,0195337
2479,0442;0,0195738
2480,0085;0,0196097
2480,9727;0,0196355
2481,9370;0,0196462
2482,9011;0,0196405
2483,8655;0,0196225
2484,8296;0,0196
2485,7939;0,0195821
2486,7581;0,0195767
2487,7224;0,0195896
2488,6865;0,0196222
2489,6509;0,0196705
2490,6150;0,0197243
2491,5793;0,0197699
2492,5435;0,0197953
2493,5078;0,0197965
2494,4719;0,0197795
2495,4363;0,0197568
2496,4004;0,019739
2497,3647;0,0197296
2498,3289;0,0197241
2499,2932;0,0197164
2500,2573;0,0197055
2501,2217;0,0196973
2502,1858;0,019701
2503,1501;0,0197212
2504,1143;0,0197545
2505,0786;0,0197917
2506,0427;0,0198242
2507,0071;0,0198495
2507,9712;0,019871
2508,9355;0,019894
2509,8997;0,0199202
2510,8640;0,0199461
2511,8281;0,0199651
2512,7925;0,0199721
2513,7566;0,0199665
2514,7209;0,0199523
2515,6851;0,0199362
2516,6494;0,0199244
2517,6135;0,0199205
2518,5779;0,0199242
2519,5420;0,0199325
2520,5063;0,0199417
2521,4705;0,01995
2522,4348;0,0199597
2523,3989;0,019975
2524,3633;0,0199993
2525,3274;0,0200311
2526,2917;0,0200631
2527,2559;0,020086
2528,2202;0,0200931
2529,1843;0,0200851
2530,1487;0,0200694
2531,1128;0,020056
2532,0771;0,0200514
2533,0413;0,0200554
2534,0056;0,020062
2534,9697;0,0200643
2535,9341;0,0200593
2536,8982;0,0200502
2537,8625;0,0200447
2538,8267;0,0200504
2539,7910;0,0200701
2540,7551;0,0201002
2541,7195;0,020133
2542,6836;0,0201605
2543,6479;0,0201791
2544,6121;0,0201898
2545,5764;0,0201957
2546,5405;0,0201985
2547,5049;0,0201965
2548,4690;0,0201874
2549,4333;0,0201727
2550,3975;0,0201597
2551,3618;0,0201597
2552,3259;0,0201809
2553,2903;0,020222
2554,2544;0,0202705
2555,2188;0,0203088
2556,1829;0,0203232
2557,1472;0,0203119
2558,1113;0,0202858
2559,0757;0,0202619
2560,0398;0,0202539
2561,0042;0,0202649
2561,9683;0,020287
2562,9326;0,0203066
2563,8967;0,020313
2564,8611;0,0203046
2565,8252;0,0202905
2566,7896;0,0202857
2567,7537;0,020303
2568,7180;0,0203461
2569,6821;0,0204063
2570,6465;0,0204658
2571,6106;0,0205071
2572,5750;0,0205215
2573,5391;0,0205141
2574,5034;0,0204998
2575,4675;0,0204941
2576,4319;0,0205032
2577,3960;0,0205208
2578,3604;0,0205328
2579,3245;0,020528
2580,2888;0,0205049
2581,2529;0,0204729
2582,2173;0,0204457
2583,1814;0,0204332
2584,1458;0,0204371
2585,1099;0,0204535
2586,0742;0,0204775
2587,0383;0,0205068
2588,0027;0,0205408
2588,9668;0,0205771
2589,9312;0,0206092
2590,8953;0,020629
2591,8596;0,0206323
2592,8237;0,0206231
2593,7881;0,020613
2594,7522;0,0206151
2595,7166;0,020637
2596,6807;0,0206764
2597,6450;0,0207229
2598,6091;0,0207641
2599,5735;0,0207919
2600,5376;0,0208055
2601,5020;0,0208095
2602,4661;0,0208102
2603,4304;0,0208121
2604,3945;0,0208173
2605,3589;0,0208263
2606,3230;0,0208395
2607,2874;0,0208577
2608,2515;0,0208809
2609,2158;0,0209074
2610,1799;0,0209341
2611,1443;0,020958
2612,1084;0,0209785
2613,0728;0,0209974
2614,0369;0,0210184
2615,0012;0,0210448
2615,9653;0,0210773
2616,9297;0,0211141
2617,8938;0,0211515
2618,8582;0,0211857
2619,8223;0,0212137
2620,7866;0,021234
2621,7507;0,0212466
2622,7151;0,021253
2623,6792;0,0212561
2624,6436;0,0212598
2625,6077;0,021268
2626,5720;0,021283
2627,5361;0,0213051
2628,5005;0,0213319
2629,4646;0,0213594
2630,4290;0,0213834
2631,3931;0,0214012
2632,3574;0,0214121
2633,3215;0,0214179
2634,2859;0,0214213
2635,2500;0,0214254
2636,2144;0,0214323
2637,1785;0,0214437
2638,1428;0,021461
2639,1069;0,0214853
2640,0713;0,0215172
2641,0354;0,021555
2641,9998;0,0215945
2642,9639;0,0216298
2643,9282;0,0216566
2644,8923;0,0216744
2645,8567;0,0216876
2646,8208;0,0217025
2647,7852;0,0217233
2648,7493;0,0217488
2649,7136;0,0217733
2650,6777;0,0217909
2651,6421;0,0217992
2652,6062;0,0218022
2653,5706;0,0218065
2654,5347;0,0218177
2655,4990;0,0218356
2656,4631;0,021856
2657,4275;0,0218736
2658,3916;0,0218866
2659,3560;0,0218981
2660,3201;0,021913
2661,2844;0,021934
2662,2485;0,0219593
2663,2129;0,0219841
2664,1770;0,022004
2665,1414;0,0220191
2666,1055;0,0220331
2667,0698;0,0220507
2668,0339;0,0220738
2668,9983;0,0220998
2669,9624;0,0221237
2670,9268;0,022142
2671,8909;0,0221552
2672,8552;0,022167
2673,8193;0,0221819
2674,7837;0,0222012
2675,7478;0,0222225
2676,7122;0,0222415
2677,6763;0,022255
2678,6406;0,0222639
2679,6047;0,0222724
2680,5691;0,0222859
2681,5332;0,0223082
2682,4976;0,0223392
2683,4617;0,0223755
2684,4260;0,022412
2685,3901;0,0224444
2686,3545;0,0224702
2687,3186;0,0224892
2688,2830;0,0225029
2689,2471;0,0225145
2690,2114;0,0225283
2691,1755;0,0225487
2692,1399;0,0225786
2693,1040;0,0226176
2694,0684;0,0226615
2695,0325;0,0227028
2695,9968;0,0227344
2696,9609;0,0227528
2697,9253;0,0227596
2698,8894;0,0227613
2699,8538;0,0227654
2700,8179;0,0227774
2701,7822;0,0227983
2702,7463;0,0228254
2703,7107;0,0228546
2704,6748;0,0228831
2705,6392;0,0229109
2706,6033;0,0229398
2707,5676;0,0229721
2708,5317;0,0230087
2709,4961;0,0230481
2710,4602;0,0230869
2711,4246;0,023121
2712,3887;0,0231479
2713,3530;0,0231677
2714,3171;0,023183
2715,2815;0,0231983
2716,2456;0,0232182
2717,2100;0,0232452
2718,1741;0,0232789
2719,1384;0,0233159
2720,1025;0,0233506
2721,0669;0,0233768
2722,0310;0,0233906
2722,9954;0,0233922
2723,9595;0,0233865
2724,9238;0,023382
2725,8879;0,0233876
2726,8523;0,0234085
2727,8164;0,0234442
2728,7808;0,0234887
2729,7449;0,0235332
2730,7092;0,0235697
2731,6733;0,0235945
2732,6377;0,0236078
2733,6018;0,0236136
2734,5662;0,0236166
2735,5303;0,0236213
2736,4946;0,0236308
2737,4587;0,0236462
2738,4231;0,023667
2739,3872;0,0236908
2740,3516;0,0237146
2741,3157;0,0237357
2742,2800;0,0237526
2743,2441;0,0237656
2744,2085;0,023776
2745,1726;0,0237853
2746,1370;0,0237952
2747,1011;0,0238077
2748,0654;0,0238255
2749,0295;0,0238509
2749,9939;0,0238843
2750,9580;0,0239228
2751,9224;0,0239602
2752,8865;0,0239897
2753,8508;0,0240083
2754,8149;0,0240186
2755,7793;0,0240282
2756,7434;0,0240452
2757,7078;0,0240735
2758,6719;0,0241106
2759,6362;0,0241486
2760,6003;0,0241799
2761,5647;0,0242012
2762,5288;0,0242158
2763,4932;0,0242313
2764,4573;0,0242554
2765,4216;0,0242918
2766,3857;0,0243385
2767,3501;0,0243887
2768,3142;0,0244339
2769,2786;0,0244671
2770,2427;0,0244854
2771,2070;0,0244912
2772,1711;0,0244916
2773,1355;0,0244958
2774,0996;0,0245118
2775,0640;0,0245431
2776,0281;0,0245871
2776,9924;0,0246368
2777,9565;0,0246845
2778,9209;0,024726
2779,8850;0,024762
2780,8494;0,0247973
2781,8135;0,0248368
2782,7778;0,0248826
2783,7419;0,0249325
2784,7063;0,0249816
2785,6704;0,0250255
2786,6348;0,0250629
2787,5989;0,0250963
2788,5632;0,0251307
2789,5273;0,025171
2790,4917;0,0252194
2791,4558;0,0252745
2792,4202;0,0253321
2793,3843;0,0253872
2794,3486;0,025437
2795,3127;0,025482
2796,2771;0,0255264
2797,2412;0,0255753
2798,2056;0,0256332
2799,1697;0,0257011
2800,1340;0,0257772
2801,0981;0,0258578
2802,0625;0,0259391
2803,0266;0,0260181
2803,9910;0,0260928
2804,9551;0,0261619
2805,9194;0,0262251
2806,8835;0,0262839
2807,8479;0,0263423
2808,8120;0,026406
2809,7764;0,02648
2810,7405;0,0265665
2811,7048;0,0266633
2812,6689;0,0267657
2813,6333;0,0268684
2814,5974;0,0269683
2815,5618;0,0270655
2816,5259;0,0271619
2817,4902;0,0272599
2818,4543;0,0273611
2819,4187;0,0274662
2820,3828;0,0275749
2821,3472;0,0276871
2822,3113;0,0278025
2823,2756;0,0279216
2824,2397;0,0280463
2825,2041;0,0281802
2826,1682;0,0283278
2827,1326;0,0284924
2828,0967;0,0286737
2829,0610;0,0288678
2830,0251;0,0290682
2830,9895;0,0292696
2831,9536;0,0294699
2832,9180;0,029671
2833,8821;0,0298773
2834,8464;0,0300934
2835,8105;0,0303238
2836,7749;0,0305731
2837,7390;0,0308482
2838,7034;0,0311583
2839,6675;0,0315151
2840,6318;0,0319301
2841,5959;0,0324131
2842,5603;0,032968
2843,5244;0,0335882
2844,4888;0,0342515
2845,4529;0,0349165
2846,4172;0,0355263
2847,3813;0,0360187
2848,3457;0,0363426
2849,3098;0,0364729
2850,2742;0,0364173
2851,2383;0,0362127
2852,2026;0,0359123
2853,1667;0,0355713
2854,1311;0,0352356
2855,0952;0,0349364
2856,0596;0,0346904
2857,0237;0,0345025
2857,9880;0,0343691
2858,9521;0,034282
2859,9165;0,0342322
2860,8806;0,0342118
2861,8450;0,0342161
2862,8091;0,0342431
2863,7734;0,0342925
2864,7375;0,0343638
2865,7019;0,0344555
2866,6660;0,034564
2867,6304;0,0346831
2868,5945;0,0348051
2869,5588;0,0349213
2870,5229;0,0350245
2871,4873;0,0351113
2872,4514;0,0351827
2873,4158;0,0352438
2874,3799;0,0353011
2875,3442;0,0353606
2876,3083;0,035426
2877,2727;0,0354986
2878,2368;0,0355786
2879,2012;0,0356653
2880,1653;0,035758
2881,1296;0,0358548
2882,0938;0,0359532
2883,0581;0,0360502
2884,0222;0,0361436
2884,9866;0,0362328
2885,9507;0,0363193
2886,9150;0,0364055
2887,8792;0,0364943
2888,8435;0,0365874
2889,8076;0,0366846
2890,7720;0,0367844
2891,7361;0,0368845
2892,7004;0,0369835
2893,6646;0,0370814
2894,6289;0,0371799
2895,5930;0,037282
2896,5574;0,0373896
2897,5215;0,0375027
2898,4858;0,0376184
2899,4500;0,037732
2900,4143;0,0378396
2901,3784;0,0379402
2902,3428;0,0380378
2903,3069;0,0381404
2904,2712;0,0382587
2905,2354;0,0384034
2906,1997;0,0385832
2907,1638;0,0388057
2908,1282;0,0390775
2909,0923;0,0394051
2910,0566;0,0397926
2911,0208;0,0402371
2911,9851;0,0407226
2912,9492;0,0412166
2913,9136;0,0416718
2914,8777;0,0420348
2915,8420;0,0422592
2916,8062;0,0423179
2917,7705;0,0422095
2918,7346;0,0419561
2919,6990;0,041594
2920,6631;0,0411621
2921,6274;0,0406939
2922,5916;0,0402138
2923,5559;0,0397384
2924,5200;0,0392782
2925,4844;0,0388401
2926,4485;0,0384272
2927,4128;0,0380401
2928,3770;0,0376775
2929,3413;0,0373378
2930,3054;0,0370205
2931,2698;0,0367255
2932,2339;0,0364521
2933,1982;0,0361982
2934,1624;0,0359606
2935,1267;0,0357356
2936,0908;0,0355198
2937,0552;0,0353098
2938,0193;0,0351021
2938,9836;0,0348931
2939,9478;0,0346802
2940,9121;0,0344625
2941,8762;0,0342412
2942,8406;0,0340187
2943,8047;0,0337982
2944,7690;0,0335822
2945,7332;0,0333734
2946,6975;0,0331748
2947,6616;0,0329892
2948,6260;0,0328183
2949,5901;0,0326611
2950,5544;0,0325139
2951,5186;0,0323713
2952,4829;0,0322291
2953,4470;0,0320848
2954,4114;0,0319388
2955,3755;0,0317922
2956,3398;0,0316455
2957,3040;0,0314985
2958,2683;0,0313507
2959,2324;0,0312032
2960,1968;0,0310584
2961,1609;0,0309193
2962,1252;0,0307877
2963,0894;0,0306632
2964,0537;0,030543
2965,0178;0,0304234
2965,9822;0,0303008
2966,9463;0,0301723
2967,9106;0,0300359
2968,8748;0,029891
2969,8391;0,0297392
2970,8032;0,0295845
2971,7676;0,0294333
2972,7317;0,0292924
2973,6960;0,0291663
2974,6602;0,0290555
2975,6245;0,0289562
2976,5886;0,0288624
2977,5530;0,0287691
2978,5171;0,0286749
2979,4814;0,0285821
2980,4456;0,0284952
2981,4099;0,0284186
2982,3740;0,0283541
2983,3384;0,0283008
2984,3025;0,0282565
2985,2668;0,0282193
2986,2310;0,0281885
2987,1953;0,0281639
2988,1594;0,0281447
2989,1238;0,0281287
2990,0879;0,0281131
2991,0522;0,0280959
2992,0164;0,0280773
2992,9807;0,0280598
2993,9448;0,0280465
2994,9092;0,0280399
2995,8733;0,0280412
2996,8376;0,0280504
2997,8018;0,0280674
2998,7661;0,0280916
2999,7302;0,0281208
3000,6946;0,0281517
3001,6587;0,0281801
3002,6230;0,0282032
3003,5872;0,0282214
3004,5515;0,0282384
3005,5156;0,0282593
3006,4800;0,0282885
3007,4441;0,0283272
3008,4084;0,0283729
3009,3726;0,028421
3010,3369;0,0284655
3011,3010;0,0285008
3012,2654;0,0285238
3013,2295;0,0285348
3014,1938;0,0285381
3015,1580;0,0285414
3016,1223;0,0285534
3017,0864;0,0285808
3018,0508;0,0286261
3019,0149;0,0286868
3019,9792;0,0287569
3020,9434;0,02883
3021,9077;0,0289011
3022,8718;0,0289688
3023,8362;0,0290343
3024,8003;0,0291009
3025,7646;0,0291711
3026,7288;0,0292457
3027,6931;0,0293227
3028,6572;0,029398
3029,6216;0,0294675
3030,5857;0,0295286
3031,5500;0,0295814
3032,5142;0,0296287
3033,4785;0,0296744
3034,4426;0,0297216
3035,4070;0,0297725
3036,3711;0,0298286
3037,3354;0,0298913
3038,2996;0,0299623
3039,2639;0,0300425
3040,2280;0,0301304
3041,1924;0,0302218
3042,1565;0,0303116
3043,1208;0,030396
3044,0850;0,0304752
3045,0493;0,0305533
3046,0134;0,0306355
3046,9778;0,0307251
3047,9419;0,0308215
3048,9063;0,0309205
3049,8704;0,0310174
3050,8347;0,0311099
3051,7988;0,0311994
3052,7632;0,0312891
3053,7273;0,0313812
3054,6917;0,0314755
3055,6558;0,0315694
3056,6201;0,0316601
3057,5842;0,0317469
3058,5486;0,0318317
3059,5127;0,0319178
3060,4771;0,0320075
3061,4412;0,0321007
3062,4055;0,0321954
3063,3696;0,0322883
3064,3340;0,0323766
3065,2981;0,0324591
3066,2625;0,0325367
3067,2266;0,0326124
3068,1909;0,0326906
3069,1550;0,0327764
3070,1194;0,0328739
3071,0835;0,0329843
3072,0479;0,0331056
3073,0120;0,0332324
3073,9763;0,0333587
3074,9404;0,0334792
3075,9048;0,0335909
3076,8689;0,0336921
3077,8333;0,0337821
3078,7974;0,0338606
3079,7617;0,0339295
3080,7258;0,0339936
3081,6902;0,0340612
3082,6543;0,0341402
3083,6187;0,0342343
3084,5828;0,0343401
3085,5471;0,0344488
3086,5112;0,0345511
3087,4756;0,0346431
3088,4397;0,0347284
3089,4041;0,0348154
3090,3682;0,0349112
3091,3325;0,0350176
3092,2966;0,0351304
3093,2610;0,035244
3094,2251;0,0353547
3095,1895;0,0354635
3096,1536;0,0355733
3097,1179;0,0356854
3098,0820;0,035798
3099,0464;0,0359077
3100,0105;0,0360123
3100,9749;0,0361133
3101,9390;0,0362145
3102,9033;0,0363191
3103,8674;0,0364276
3104,8318;0,0365379
3105,7959;0,0366478
3106,7603;0,0367575
3107,7244;0,0368694
3108,6887;0,0369868
3109,6528;0,0371113
3110,6172;0,0372413
3111,5813;0,0373738
3112,5457;0,0375055
3113,5098;0,0376348
3114,4741;0,037761
3115,4382;0,0378832
3116,4026;0,0379998
3117,3667;0,0381086
3118,3311;0,0382093
3119,2952;0,0383042
3120,2595;0,0383992
3121,2236;0,0385006
3122,1880;0,0386126
3123,1521;0,0387346
3124,1165;0,0388619
3125,0806;0,0389888
3126,0449;0,0391115
3127,0090;0,0392306
3127,9734;0,0393497
3128,9375;0,0394718
3129,9019;0,0395974
3130,8660;0,0397238
3131,8303;0,039847
3132,7944;0,0399648
3133,7588;0,0400773
3134,7229;0,0401867
3135,6873;0,040295
3136,6514;0,0404034
3137,6157;0,0405131
3138,5798;0,0406262
3139,5442;0,0407462
3140,5083;0,0408763
3141,4727;0,041017
3142,4368;0,0411658
3143,4011;0,0413185
3144,3652;0,0414713
3145,3296;0,0416224
3146,2937;0,0417717
3147,2581;0,0419179
3148,2222;0,0420576
3149,1865;0,0421862
3150,1506;0,0423008
3151,1150;0,0424037
3152,0791;0,0425032
3153,0435;0,0426103
3154,0076;0,042734
3154,9719;0,0428763
3155,9360;0,0430321
3156,9004;0,0431918
3157,8645;0,0433474
3158,8289;0,0434953
3159,7930;0,0436378
3160,7573;0,0437795
3161,7214;0,0439237
3162,6858;0,0440695
3163,6499;0,0442131
3164,6143;0,0443504
3165,5784;0,0444801
3166,5427;0,0446049
3167,5068;0,0447302
3168,4712;0,0448612
3169,4353;0,0449613
3170,3997;0,045111
3171,3638;0,0452689
3172,3281;0,0454321
3173,2922;0,0455964
3174,2566;0,0457572
3175,2207;0,0459095
3176,1851;0,0460504
3177,1492;0,0461803
3178,1135;0,0463045
3179,0776;0,0464302
3180,0420;0,0465632
3181,0061;0,0467042
3181,9705;0,046848
3182,9346;0,0469869
3183,8989;0,0471153
3184,8630;0,047233
3185,8274;0,0473459
3186,7915;0,0474623
3187,7559;0,0475886
3188,7200;0,0477272
3189,6843;0,0478763
3190,6484;0,0480326
3191,6128;0,0481926
3192,5769;0,0483536
3193,5413;0,0485126
3194,5054;0,0486664
3195,4697;0,0488117
3196,4338;0,0489467
3197,3982;0,0490717
3198,3623;0,0491882
3199,3267;0,0492988
3200,2908;0,0494058
3201,2551;0,0495119
3202,2192;0,0496211
3203,1836;0,0497381
3204,1477;0,049867
3205,1121;0,0500081
3206,0762;0,0501574
3207,0405;0,0503065
3208,0046;0,0504469
3208,9690;0,050573
3209,9331;0,0506852
3210,8975;0,0507899
3211,8616;0,0508964
3212,8259;0,0510138
3213,7900;0,0511472
3214,7544;0,0512956
3215,7185;0,0514526
3216,6829;0,051609
3217,6470;0,0517563
3218,6113;0,0518904
3219,5754;0,0520129
3220,5398;0,052129
3221,5039;0,0522445
3222,4683;0,052362
3223,4324;0,0524806
3224,3967;0,0525979
3225,3608;0,0527129
3226,3252;0,0528279
3227,2893;0,0529477
3228,2537;0,0530758
3229,2178;0,0532115
3230,1821;0,0533495
3231,1462;0,0534819
3232,1106;0,0536026
3233,0747;0,0537109
3234,0391;0,0538121
3235,0032;0,0539158
3235,9675;0,0540324
3236,9316;0,0541687
3237,8960;0,0543252
3238,8601;0,0544961
3239,8245;0,0546704
3240,7886;0,0548361
3241,7529;0,0549839
3242,7170;0,0551108
3243,6814;0,0552205
3244,6455;0,055322
3245,6099;0,0554257
3246,5740;0,0555402
3247,5383;0,0556695
3248,5024;0,0558125
3249,4668;0,0559653
3250,4309;0,0561233
3251,3953;0,056283
3252,3594;0,0564418
3253,3237;0,0565976
3254,2878;0,0567473
3255,2522;0,0568873
3256,2163;0,0570151
3257,1807;0,0571324
3258,1448;0,0572461
3259,1091;0,0573672
3260,0732;0,0575054
3261,0376;0,0576637
3262,0017;0,0578354
3262,9661;0,0580063
3263,9302;0,058161
3264,8945;0,0582907
3265,8586;0,058397
3266,8230;0,0584902
3267,7871;0,0585839
3268,7515;0,058687
3269,7156;0,0587999
3270,6799;0,0589139
3271,6440;0,0590168
3272,6084;0,0590991
3273,5725;0,0591598
3274,5369;0,0592073
3275,5010;0,0592553
3276,4653;0,0593163
3277,4294;0,0593948
3278,3938;0,0594858
3279,3579;0,0595776
3280,3223;0,0596581
3281,2864;0,0597207
3282,2507;0,0597669
3283,2148;0,0598041
3284,1792;0,0598405
3285,1433;0,0598811
3286,1077;0,0599259
3287,0718;0,0599719
3288,0361;0,060016
3289,0002;0,0600575
3289,9646;0,0600971
3290,9287;0,0601356
3291,8931;0,0601708
3292,8572;0,0601984
3293,8215;0,0602136
3294,7856;0,0602147
3295,7500;0,0602053
3296,7141;0,0601939
3297,6785;0,0601905
3298,6426;0,0602017
3299,6069;0,0602272
3300,5710;0,0602605
3301,5354;0,0602922
3302,4995;0,0603149
3303,4639;0,060327
3304,4280;0,060333
3305,3923;0,0603403
3306,3564;0,0603552
3307,3208;0,0603804
3308,2849;0,0604146
3309,2493;0,0604538
3310,2134;0,0604936
3311,1777;0,0605298
3312,1418;0,0605594
3313,1062;0,0605815
3314,0703;0,0605993
3315,0347;0,060621
3315,9988;0,060658
3316,9631;0,0607211
3317,9272;0,0608141
3318,8916;0,0609317
3319,8557;0,0610613
3320,8201;0,0611888
3321,7842;0,0613055
3322,7485;0,0614103
3323,7126;0,0615064
3324,6770;0,0615959
3325,6411;0,0616759
3326,6055;0,0617399
3327,5696;0,0617847
3328,5339;0,0618154
3329,4980;0,0618463
3330,4624;0,0618934
3331,4265;0,0619647
3332,3909;0,0620535
3333,3550;0,0621395
3334,3193;0,0621982
3335,2834;0,0622133
3336,2478;0,0621846
3337,2119;0,0621267
3338,1763;0,0620589
3339,1404;0,061994
3340,1047;0,0619322
3341,0688;0,0618647
3342,0332;0,0617821
3342,9973;0,0616823
3343,9617;0,0615716
3344,9258;0,0614596
3345,8901;0,061353
3346,8542;0,061251
3347,8186;0,0611479
3348,7827;0,0610378
3349,7471;0,0609191
3350,7112;0,0607946
3351,6755;0,0606689
3352,6396;0,0605452
3353,6040;0,060424
3354,5681;0,0603031
3355,5325;0,0601802
3356,4966;0,0600542
3357,4609;0,0599259
3358,4250;0,0597984
3359,3894;0,0596763
3360,3535;0,0595639
3361,3179;0,0594629
3362,2820;0,0593711
3363,2463;0,0592819
3364,2104;0,0591881
3365,1748;0,0590847
3366,1389;0,0589712
3367,1033;0,0588502
3368,0674;0,0587248
3369,0317;0,0585953
3369,9958;0,0584594
3370,9602;0,0583142
3371,9243;0,0581598
3372,8887;0,0580007
3373,8528;0,0578455
3374,8171;0,0577044
3375,7813;0,0575859
3376,7456;0,0574927
3377,7097;0,0574203
3378,6741;0,0573571
3379,6382;0,0572882
3380,6025;0,0572011
3381,5667;0,0570913
3382,5310;0,0569641
3383,4951;0,0568322
3384,4595;0,0567093
3385,4236;0,0566033
3386,3879;0,056513
3387,3521;0,0564298
3388,3164;0,0563428
3389,2805;0,0562434
3390,2449;0,0561285
3391,2090;0,0560007
3392,1733;0,0558666
3393,1375;0,0557343
3394,1018;0,0556108
3395,0659;0,0554998
3396,0303;0,0553997
3396,9944;0,0553047
3397,9587;0,0552056
3398,9229;0,0550938
3399,8872;0,0549641
3400,8513;0,0548173
3401,8157;0,0546594
3402,7798;0,0544993
3403,7441;0,0543443
3404,7083;0,0541979
3405,6726;0,0540596
3406,6367;0,0539266
3407,6011;0,0537957
3408,5652;0,0536637
3409,5295;0,0535269
3410,4937;0,05338
3411,4580;0,0532185
3412,4221;0,0530413
3413,3865;0,0528542
3414,3506;0,0526678
3415,3149;0,0524927
3416,2791;0,0523335
3417,2434;0,0521846
3418,2075;0,052033
3419,1719;0,0518645
3420,1360;0,0516717
3421,1003;0,0514581
3422,0645;0,0512366
3423,0288;0,0510221
3423,9929;0,0508246
3424,9573;0,0506464
3425,9214;0,0504829
3426,8857;0,050326
3427,8499;0,050168
3428,8142;0,0500034
3429,7783;0,0498298
3430,7427;0,049647
3431,7068;0,049456
3432,6711;0,0492591
3433,6353;0,0490595
3434,5996;0,0488608
3435,5637;0,0486652
3436,5281;0,048472
3437,4922;0,0482787
3438,4565;0,0480846
3439,4207;0,0478942
3440,3850;0,0477169
3441,3491;0,0475601
3442,3135;0,0474206
3443,2776;0,0472805
3444,2419;0,0471138
3445,2061;0,0469008
3446,1704;0,0466423
3447,1345;0,0463628
3448,0989;0,046097
3449,0630;0,0458693
3450,0273;0,0456814
3450,9915;0,0455172
3451,9558;0,0453564
3452,9199;0,0451874
3453,8843;0,0450104
3454,8484;0,0448314
3455,8127;0,0446549
3456,7769;0,0444798
3457,7412;0,0443026
3458,7053;0,0441222
3459,6697;0,0439415
3460,6338;0,0437648
3461,5981;0,043592
3462,5623;0,0434175
3463,5266;0,0432324
3464,4907;0,0430309
3465,4551;0,0428144
3466,4192;0,0425914
3467,3835;0,0423728
3468,3477;0,0421667
3469,3120;0,0419744
3470,2761;0,0417896
3471,2405;0,0416035
3472,2046;0,0414098
3473,1689;0,0412103
3474,1331;0,0410147
3475,0974;0,0408355
3476,0615;0,0406799
3477,0259;0,0405428
3477,9900;0,040408
3478,9543;0,0402552
3479,9185;0,0400718
3480,8828;0,0398609
3481,8469;0,0396411
3482,8113;0,0394353
3483,7754;0,0392561
3484,7397;0,0390987
3485,7039;0,0389456
3486,6682;0,0387791
3487,6323;0,0385937
3488,5967;0,0383997
3489,5608;0,0382157
3490,5251;0,0380535
3491,4893;0,0379078
3492,4536;0,037759
3493,4177;0,0375862
3494,3821;0,0373851
3495,3462;0,0371756
3496,3105;0,0369924
3497,2747;0,0368616
3498,2390;0,0367794
3499,2031;0,0367106
3500,1675;0,0366055
3501,1316;0,0364283
3502,0959;0,0361818
3503,0601;0,0359096
3504,0244;0,0356686
3504,9885;0,0354893
3505,9529;0,0353589
3506,9170;0,0352347
3507,8813;0,0350746
3508,8455;0,0348618
3509,8098;0,0346143
3510,7739;0,0343711
3511,7383;0,0341661
3512,7024;0,0340093
3513,6667;0,0338883
3514,6309;0,033784
3515,5952;0,033684
3516,5593;0,033587
3517,5237;0,033497
3518,4878;0,0334137
3519,4521;0,0333291
3520,4163;0,0332304
3521,3806;0,0331084
3522,3447;0,0329617
3523,3091;0,0327952
3524,2732;0,032613
3525,2375;0,0324133
3526,2017;0,0321923
3527,1660;0,0319541
3528,1301;0,0317172
3529,0945;0,0315086
3530,0586;0,0313474
3531,0229;0,0312303
3531,9871;0,0311322
3532,9514;0,031019
3533,9155;0,0308657
3534,8799;0,030669
3535,8440;0,0304505
3536,8083;0,0302477
3537,7725;0,0300961
3538,7368;0,0300129
3539,7009;0,0299899
3540,6653;0,0299959
3541,6294;0,029985
3542,5938;0,0299071
3543,5579;0,0297267
3544,5222;0,0294472
3545,4863;0,0291222
3546,4507;0,0288306
3547,4148;0,0286256
3548,3792;0,0285033
3549,3433;0,0284124
3550,3076;0,0282915
3551,2717;0,0281051
3552,2361;0,0278645
3553,2002;0,0276199
3554,1646;0,0274241
3555,1287;0,0272965
3556,0930;0,0272174
3557,0571;0,0271509
3558,0215;0,0270748
3558,9856;0,0269983
3559,9500;0,0269555
3560,9141;0,0269764
3561,8784;0,0270563
3562,8425;0,0271426
3563,8069;0,0271434
3564,7710;0,0269536
3565,7354;0,0265166
3566,6995;0,0259051
3567,6638;0,0253168
3568,6279;0,0249269
3569,5923;0,0247661
3570,5564;0,02475
3571,5208;0,0247713
3572,4849;0,0247559
3573,4492;0,0246779
3574,4133;0,024549
3575,3777;0,0243977
3576,3418;0,024247
3577,3062;0,0241078
3578,2703;0,0239884
3579,2346;0,0239073
3580,1987;0,0238906
3581,1631;0,0239524
3582,1272;0,0240735
3583,0916;0,0241958
3584,0557;0,0242335
3585,0200;0,0241007
3585,9841;0,0237646
3586,9485;0,0233098
3587,9126;0,0229233
3588,8770;0,0227558
3589,8411;0,0228099
3590,8054;0,0229735
3591,7695;0,0231138
3592,7339;0,0231409
3593,6980;0,0230352
3594,6624;0,0228464
3595,6265;0,022653
3596,5908;0,0225014
3597,5549;0,0223786
3598,5193;0,0222429
3599,4834;0,0220748
3600,4478;0,0219034
3601,4119;0,0217835
3602,3762;0,0217446
3603,3403;0,0217624
3604,3047;0,021771
3605,2688;0,0216993
3606,2332;0,0215076
3607,1973;0,0212128
3608,1616;0,0208852
3609,1257;0,0206068
3610,0901;0,0204228
3611,0542;0,0203311
3612,0186;0,0203066
3612,9827;0,0203251
3613,9470;0,0203644
3614,9111;0,020394
3615,8755;0,02037
3616,8396;0,0202483
3617,8040;0,0200176
3618,7681;0,0197369
3619,7324;0,0195316
3620,6965;0,019517
3621,6609;0,0197139
3622,6250;0,0200447
3623,5894;0,0203875
3624,5535;0,0206195
3625,5178;0,0206284
3626,4819;0,0203214
3627,4463;0,019684
3628,4104;0,0188841
3629,3748;0,0182337
3630,3389;0,0179221
3631,3032;0,0178803
3632,2673;0,0179258
3633,2317;0,0179215
3634,1958;0,0178244
3635,1602;0,0176648
3636,1243;0,0174988
3637,0886;0,0173633
3638,0527;0,01726
3639,0171;0,0171754
3639,9812;0,0171096
3640,9456;0,0170887
3641,9097;0,0171465
3642,8740;0,0172952
3643,8381;0,0175068
3644,8025;0,0177115
3645,7666;0,0177974
3646,7310;0,0176106
3647,6951;0,017023
3648,6594;0,0161401
3649,6235;0,0153752
3650,5879;0,0150522
3651,5520;0,015118
3652,5164;0,0153287
3653,4805;0,0154725
3654,4448;0,0154422
3655,4089;0,0152438
3656,3733;0,0149784
3657,3374;0,0147737
3658,3018;0,0146912
3659,2659;0,0146997
3660,2302;0,0147327
3661,1943;0,014757
3662,1587;0,0147945
3663,1228;0,0148915
3664,0872;0,0150675
3665,0513;0,0152874
3666,0156;0,0154756
3666,9797;0,0155534
3667,9441;0,0154846
3668,9082;0,0153172
3669,8726;0,0151728
3670,8367;0,0151439
3671,8010;0,0152013
3672,7651;0,015222
3673,7295;0,0150811
3674,6936;0,0147441
3675,6580;0,0143287
3676,6221;0,0140371
3677,5864;0,0139701
3678,5505;0,0140698
3679,5149;0,0142298
3680,4790;0,0143943
3681,4434;0,0145705
3682,4075;0,0147907
3683,3718;0,015065
3684,3359;0,0153595
3685,3003;0,0156057
3686,2644;0,0157248
3687,2288;0,0156571
3688,1929;0,0154078
3689,1572;0,0150938
3690,1213;0,0148933
3691,0857;0,0149005
3692,0498;0,0150748
3693,0142;0,015322
3693,9783;0,0155719
3694,9426;0,0157943
3695,9067;0,0159809
3696,8711;0,0161228
3697,8352;0,0161981
3698,7996;0,0161779
3699,7637;0,0160468
3700,7280;0,0158314
3701,6921;0,0156115
3702,6565;0,0154875
3703,6206;0,0155196
3704,5850;0,0156966
3705,5491;0,0159538
3706,5134;0,0162037
3707,4775;0,0163494
3708,4419;0,016285
3709,4060;0,0159218
3710,3704;0,0152801
3711,3345;0,0145671
3712,2988;0,0140607
3713,2629;0,0138924
3714,2273;0,0140083
3715,1914;0,0142817
3716,1558;0,0146059
3717,1199;0,0149226
3718,0842;0,0152144
3719,0483;0,0154858
3720,0127;0,0157396
3720,9768;0,0159621
3721,9412;0,0161239
3722,9053;0,0161996
3723,8696;0,0161932
3724,8337;0,0161492
3725,7981;0,0161324
3726,7622;0,0161874
3727,7266;0,0163141
3728,6907;0,0164773
3729,6550;0,0166305
3730,6191;0,01673
3731,5835;0,01673
3732,5476;0,0165726
3733,5120;0,016208
3734,4761;0,0156729
3735,4404;0,0151481
3736,4045;0,0148511
3737,3689;0,0148576
3738,3330;0,0150748
3739,2974;0,0153384
3740,2615;0,0154944
3741,2258;0,015435
3742,1899;0,0151268
3743,1543;0,0146582
3744,1184;0,014254
3745,0828;0,0141374
3746,0469;0,0143271
3747,0112;0,0146344
3747,9753;0,0148141
3748,9397;0,014682
3749,9038;0,0142105
3750,8682;0,0136168
3751,8323;0,013244
3752,7966;0,0132477
3753,7607;0,0135131
3754,7251;0,0138325
3755,6892;0,0140457
3756,6536;0,014079
3757,6177;0,0139496
3758,5820;0,0137538
3759,5461;0,013614
3760,5105;0,0135999
3761,4746;0,0136988
3762,4390;0,0138507
3763,4031;0,0139955
3764,3674;0,0140962
3765,3315;0,0141368
3766,2959;0,0141114
3767,2600;0,0140162
3768,2244;0,013855
3769,1885;0,0136558
3770,1528;0,0134789
3771,1169;0,0133935
3772,0813;0,0134358
3773,0454;0,0135869
3774,0098;0,013786
3774,9739;0,0139611
3775,9382;0,0140541
3776,9023;0,0140394
3777,8667;0,0139363
3778,8308;0,0138063
3779,7952;0,0137179
3780,7593;0,013702
3781,7236;0,0137389
3782,6877;0,013783
3783,6521;0,0137952
3784,6162;0,0137609
3785,5806;0,0136941
3786,5447;0,0136276
3787,5090;0,0135962
3788,4731;0,0136215
3789,4375;0,013704
3790,4016;0,0138248
3791,3660;0,013956
3792,3301;0,0140751
3793,2944;0,0141779
3794,2585;0,0142801
3795,2229;0,0144027
3796,1870;0,0145462
3797,1514;0,0146734
3798,1155;0,0147187
3799,0798;0,014625
3800,0439;0,0143957
3801,0083;0,0141216
3801,9724;0,0139276
3802,9368;0,0138631
3803,9009;0,0138617
3804,8652;0,0138122
3805,8293;0,0136571
3806,7937;0,0134513
3807,7578;0,0133338
3808,7222;0,013413
3809,6863;0,0136754
3810,6506;0,0140114
3811,6147;0,0142999
3812,5791;0,0144685
3813,5432;0,0145169
3814,5076;0,014511
3815,4717;0,0145402
3816,4360;0,0146401
3817,4001;0,0147496
3818,3645;0,0147509
3819,3286;0,0145599
3820,2930;0,0142082
3821,2571;0,0138512
3822,2214;0,0136531
3823,1855;0,0136593
3824,1499;0,0137964
3825,1140;0,0139602
3826,0784;0,0140819
3827,0425;0,0141462
3828,0068;0,014178
3828,9709;0,0142163
3829,9353;0,0142907
3830,8994;0,0144092
3831,8638;0,0145589
3832,8279;0,0147112
3833,7922;0,0148288
3834,7563;0,0148743
3835,7207;0,0148216
3836,6848;0,0146697
3837,6492;0,014454
3838,6133;0,0142354
3839,5776;0,0140618
3840,5417;0,0139383
3841,5061;0,0138415
3842,4702;0,0137609
3843,4346;0,0137239
3844,3987;0,0137851
3845,3630;0,0139873
3846,3271;0,0143267
3847,2915;0,0147467
3848,2556;0,0151546
3849,2200;0,0154383
3850,1841;0,0154678
3851,1484;0,0151065
3852,1125;0,0143125
3853,0769;0,0133528
3854,0410;0,0127385
3855,0054;0,0127113
3855,9695;0,0130953
3856,9338;0,0136121
3857,8979;0,014077
3858,8623;0,014408
3859,8264;0,0145855
3860,7908;0,0146248
3861,7549;0,014567
3862,7192;0,0144756
3863,6833;0,0144183
3864,6477;0,0144302
3865,6118;0,014494
3866,5762;0,0145577
3867,5403;0,0145686
3868,5046;0,0144974
3869,4688;0,0143485
3870,4331;0,0141594
3871,3972;0,0139861
3872,3616;0,0138791
3873,3257;0,0138639
3874,2900;0,0139361
3875,2542;0,0140675
3876,2185;0,0142188
3877,1826;0,0143518
3878,1470;0,0144412
3879,1111;0,0144813
3880,0754;0,0144824
3881,0396;0,0144549
3882,0039;0,0143941
3882,9680;0,014288
3883,9324;0,0141461
3884,8965;0,0140185
3885,8608;0,0139711
3886,8250;0,0140294
3887,7893;0,0141496
3888,7534;0,0142444
3889,7178;0,0142416
3890,6819;0,0141385
3891,6462;0,01402
3892,6104;0,0140037
3893,5747;0,0141433
3894,5388;0,0143944
3895,5032;0,0146641
3896,4673;0,0148719
3897,4316;0,0149768
3898,3958;0,0149768
3899,3601;0,0148916
3900,3242;0,0147386
3901,2886;0,0145198
3902,2527;0,0142384
3903,2170;0,0139316
3904,1812;0,0136731
3905,1455;0,0135303
3906,1096;0,0135184
3907,0740;0,0136014
3908,0381;0,0137265
3909,0024;0,0138548
3909,9666;0,0139724
3910,9309;0,0140838
3911,8950;0,0141959
3912,8594;0,0143043
3913,8235;0,0143887
3914,7878;0,0144214
3915,7520;0,0143857
3916,7163;0,0142958
3917,6804;0,0141987
3918,6448;0,0141467
3919,6089;0,0141602
3920,5732;0,0142157
3921,5374;0,0142669
3922,5017;0,0142774
3923,4658;0,014245
3924,4302;0,0142047
3925,3943;0,0142028
3926,3586;0,0142598
3927,3228;0,0143543
3928,2871;0,0144362
3929,2512;0,0144548
3930,2156;0,0143853
3931,1797;0,0142446
3932,1440;0,0140858
3933,1082;0,0139683
3934,0725;0,013926
3935,0366;0,0139603
3936,0010;0,0140513
3936,9651;0,0141711
3937,9294;0,0142883
3938,8936;0,0143714
3939,8579;0,0143961
3940,8220;0,0143587
3941,7864;0,014285
3942,7505;0,0142215
3943,7148;0,014207
3944,6790;0,0142471
3945,6433;0,0143112
3946,6074;0,0143537
3947,5718;0,014341
3948,5359;0,0142717
3949,5002;0,0141759
3950,4644;0,0140948
3951,4287;0,0140538
3952,3928;0,0140528
3953,3572;0,0140758
3954,3213;0,0141066
3955,2856;0,0141383
3956,2498;0,014172
3957,2141;0,014209
3958,1782;0,0142456
3959,1426;0,0142721
3960,1067;0,0142797
3961,0710;0,0142657
3962,0352;0,0142364
3962,9995;0,0142033
3963,9636;0,014176
3964,9280;0,0141583
3965,8921;0,0141487
3966,8564;0,0141433
3967,8206;0,01414
3968,7849;0,0141382
3969,7490;0,0141382
3970,7134;0,0141386
3971,6775;0,0141364
3972,6418;0,0141297
3973,6060;0,0141199
3974,5703;0,014112
3975,5344;0,0141119
3976,4988;0,0141218
3977,4629;0,0141379
3978,4272;0,0141518
3979,3914;0,0141555
3980,3557;0,0141464
3981,3198;0,0141288
3982,2842;0,0141126
3983,2483;0,0141072
3984,2126;0,0141176
3985,1768;0,0141429
3986,1411;0,014178
3987,1052;0,014217
3988,0696;0,0142555
3989,0337;0,01429
3989,9980;0,0143156
3990,9622;0,0143255
3991,9265;0,0143129
3992,8906;0,0142755
3993,8550;0,0142189
3994,8191;0,0141572
3995,7834;0,0141074
3996,7476;0,0140822
3997,7119;0,0140841
3998,6760;0,014106
3999,6404;0,0141364
4000,6045;0,0142364

##### Extended Information
[Comments]
Sample name
Comment
Username
Division
Organization;UNIVERSIDAD INDUSTRIAL DE SANTANDER

[Detailed Information]
Creation date;14/03/2025 11:37 a.m.

Data array type;Linear data array
Horizontal axis;Wavenumber [cm-1]
Vertical axis;Abs
Start;399,193 cm-1
End;4000,6 cm-1
Data interval;0,964233 cm-1
Data points;3736    

[Measurement Information]
Model name;FT/IR-4X1typeA
Serial No.;A035162111

Accessory;ATR PRO 4X
Accessory S/N;A021162126
Incident angle;45 deg

Measurement date;14/03/2025 11:36 a.m.

Light source;Standard
Detector;TGS
Accumulation;40
Resolution;4 cm-1
Zero filling;On
Apodization;Cosine
Gain;Auto (8)
Aperture;Auto (7 mm)
Scan speed;Auto (2 mm/sec)
Filter;Auto (12800 Hz)

