TITLE;
DATA TYPE;INFRARED SPECTRUM
ORIGIN;JASCO
OWNER;
DATE;25/01/29
TIME;14:35:56
SPECTROMETER/DATA SYSTEM;
LOCALE;9226
RESOLUTION;
DELTAX;0,964233
XUNITS;1/CM
YUNITS;ABSORBANCE
FIRSTX;  399,1927
LASTX; 4000,6047
NPOINTS;    3736
FIRSTY;     0,13012
MAXY;     0,22520
MINY;     0,01596
XYDATA
399,1927;0,130116
400,1569;0,130556
401,1211;0,130686
402,0854;0,130623
403,0496;0,130462
404,0138;0,130295
404,9781;0,130228
405,9423;0,130349
406,9065;0,130677
407,8708;0,131134
408,8350;0,13158
409,7992;0,131893
410,7635;0,132028
411,7277;0,132036
412,6919;0,132012
413,6562;0,132032
414,6204;0,132138
415,5846;0,132369
416,5489;0,1328
417,5131;0,133542
418,4773;0,134611
419,4416;0,135794
420,4058;0,136774
421,3700;0,137421
422,3343;0,137834
423,2985;0,138171
424,2627;0,138533
425,2270;0,138918
426,1912;0,139242
427,1554;0,139411
428,1197;0,139396
429,0839;0,139272
430,0481;0,139185
431,0124;0,13929
431,9766;0,139674
432,9408;0,140318
433,9051;0,141104
434,8693;0,141858
435,8335;0,142413
436,7978;0,142663
437,7620;0,142589
438,7262;0,142247
439,6905;0,141739
440,6547;0,141177
441,6189;0,140664
442,5832;0,140272
443,5474;0,140027
444,5116;0,139906
445,4759;0,13986
446,4401;0,139836
447,4043;0,139784
448,3686;0,139652
449,3328;0,139398
450,2970;0,13901
451,2613;0,138527
452,2255;0,138039
453,1897;0,13764
454,1540;0,137383
455,1182;0,137252
456,0824;0,137178
457,0467;0,137088
458,0109;0,136959
458,9751;0,136844
459,9394;0,136816
460,9036;0,136898
461,8678;0,137048
462,8321;0,137179
463,7963;0,137214
464,7605;0,137128
465,7248;0,136965
466,6890;0,136816
467,6532;0,13676
468,6175;0,136815
469,5817;0,136926
470,5459;0,13699
471,5102;0,136916
472,4744;0,136683
473,4386;0,136369
474,4029;0,136108
475,3671;0,136014
476,3313;0,136144
477,2956;0,136484
478,2598;0,136966
479,2240;0,137485
480,1883;0,137931
481,1525;0,138232
482,1167;0,13838
483,0810;0,138436
484,0452;0,138504
485,0094;0,138681
485,9737;0,139014
486,9379;0,139494
487,9021;0,140077
488,8664;0,140712
489,8306;0,141341
490,7948;0,141905
491,7591;0,14235
492,7233;0,14265
493,6875;0,142819
494,6518;0,142906
495,6160;0,142965
496,5802;0,143027
497,5445;0,143099
498,5087;0,143182
499,4729;0,143291
500,4372;0,143459
501,4014;0,143718
502,3656;0,144082
503,3299;0,14453
504,2941;0,14503
505,2583;0,145563
506,2226;0,146121
507,1868;0,146691
508,1510;0,147228
509,1153;0,147662
510,0795;0,147942
511,0437;0,148077
512,0080;0,148146
512,9722;0,148272
513,9365;0,148565
514,9007;0,149085
515,8649;0,149822
516,8292;0,150698
517,7934;0,151603
518,7576;0,152424
519,7219;0,153084
520,6861;0,153549
521,6503;0,153816
522,6146;0,153901
523,5788;0,153836
524,5430;0,153678
525,5073;0,15351
526,4715;0,15342
527,4357;0,153465
528,4000;0,153648
529,3642;0,153919
530,3284;0,154199
531,2927;0,154401
532,2569;0,154454
533,2211;0,154315
534,1854;0,15399
535,1496;0,15353
536,1138;0,153021
537,0781;0,152559
538,0423;0,15223
539,0065;0,152088
539,9708;0,152141
540,9350;0,152347
541,8992;0,152635
542,8635;0,152925
543,8277;0,153166
544,7919;0,153352
545,7562;0,153522
546,7204;0,153736
547,6846;0,154045
548,6489;0,15447
549,6131;0,155
550,5773;0,155615
551,5416;0,156302
552,5058;0,157049
553,4700;0,15784
554,4343;0,158634
555,3985;0,159369
556,3627;0,159973
557,3270;0,16038
558,2912;0,160542
559,2554;0,160433
560,2197;0,160049
561,1839;0,159407
562,1481;0,158551
563,1124;0,157549
564,0766;0,15648
565,0408;0,15542
566,0051;0,15443
566,9693;0,153558
567,9335;0,152846
568,8978;0,152319
569,8620;0,151982
570,8262;0,151807
571,7905;0,151739
572,7547;0,151713
573,7189;0,15167
574,6832;0,151579
575,6474;0,151438
576,6116;0,151271
577,5759;0,151113
578,5401;0,150993
579,5043;0,150925
580,4686;0,150913
581,4328;0,150947
582,3970;0,151015
583,3613;0,151096
584,3255;0,151165
585,2897;0,151198
586,2540;0,151184
587,2182;0,151134
588,1824;0,151073
589,1467;0,151031
590,1109;0,151025
591,0751;0,151042
592,0394;0,15104
593,0036;0,150972
593,9678;0,150807
594,9321;0,150546
595,8963;0,150208
596,8605;0,149817
597,8248;0,149389
598,7890;0,148937
599,7532;0,148478
600,7175;0,148039
601,6817;0,147652
602,6459;0,147341
603,6102;0,147114
604,5744;0,146962
605,5386;0,146859
606,5029;0,146766
607,4671;0,146639
608,4313;0,146431
609,3956;0,146112
610,3598;0,145685
611,3240;0,145187
612,2883;0,144684
613,2525;0,144238
614,2167;0,143873
615,1810;0,143558
616,1452;0,143215
617,1094;0,142751
618,0737;0,142099
619,0379;0,141249
620,0021;0,140237
620,9664;0,139118
621,9306;0,13795
622,8948;0,136791
623,8591;0,135702
624,8233;0,134735
625,7875;0,133922
626,7518;0,133242
627,7160;0,132636
628,6802;0,132033
629,6445;0,131392
630,6087;0,130714
631,5729;0,130033
632,5372;0,129388
633,5014;0,1288
634,4656;0,128265
635,4299;0,127772
636,3941;0,127319
637,3583;0,126916
638,3226;0,126576
639,2868;0,126291
640,2510;0,126032
641,2153;0,125765
642,1795;0,12547
643,1437;0,12516
644,1080;0,124869
645,0722;0,124629
646,0364;0,12444
647,0007;0,124268
647,9649;0,124064
648,9291;0,123805
649,8934;0,123516
650,8576;0,123266
651,8218;0,123129
652,7861;0,12314
653,7503;0,123278
654,7145;0,123476
655,6788;0,12366
656,6430;0,123788
657,6072;0,123861
658,5715;0,123906
659,5357;0,123934
660,4999;0,123922
661,4642;0,123834
662,4284;0,123656
663,3926;0,123423
664,3569;0,123197
665,3211;0,123048
666,2853;0,123013
667,2496;0,123013
668,2138;0,122779
669,1780;0,12206
670,1423;0,12095
671,1065;0,119704
672,0707;0,118439
673,0350;0,117145
673,9992;0,115795
674,9634;0,114394
675,9277;0,112985
676,8919;0,111619
677,8561;0,11032
678,8204;0,109082
679,7846;0,1079
680,7488;0,106789
681,7131;0,105785
682,6773;0,104912
683,6415;0,104174
684,6058;0,103546
685,5700;0,10299
686,5342;0,102468
687,4985;0,101949
688,4627;0,10142
689,4269;0,100886
690,3912;0,100372
691,3554;0,0999023
692,3196;0,0994814
693,2839;0,0990906
694,2481;0,0986995
695,2123;0,0982882
696,1766;0,0978637
697,1408;0,0974548
698,1050;0,0970895
699,0693;0,0967726
700,0335;0,0964786
700,9977;0,0961665
701,9620;0,0958037
702,9262;0,0953832
703,8904;0,094925
704,8547;0,094464
705,8189;0,0940312
706,7831;0,0936404
707,7474;0,0932859
708,7116;0,0929461
709,6758;0,0925919
710,6401;0,0921946
711,6043;0,0917351
712,5685;0,0912128
713,5328;0,09065
714,4970;0,0900859
715,4612;0,0895303
716,4255;0,089059
717,3897;0,0886204
718,3539;0,0881633
719,3182;0,0876298
720,2824;0,0869875
721,2466;0,0862483
722,2109;0,0854588
723,1751;0,0846709
724,1393;0,0839177
725,1036;0,0832101
726,0678;0,0825476
727,0320;0,0819294
727,9963;0,0813556
728,9605;0,0808198
729,9247;0,0803032
730,8890;0,0797783
731,8532;0,0792228
732,8174;0,0786339
733,7817;0,0780335
734,7459;0,0774597
735,7101;0,0769492
736,6744;0,0765212
737,6386;0,0761701
738,6028;0,0758689
739,5671;0,07558
740,5313;0,0752675
741,4955;0,0749067
742,4598;0,0744906
743,4240;0,0740307
744,3882;0,0735532
745,3525;0,0730894
746,3167;0,0726634
747,2809;0,0722819
748,2452;0,0719312
749,2094;0,0715847
750,1736;0,0712175
751,1379;0,0708201
752,1021;0,0704016
753,0663;0,0699818
754,0306;0,0695758
754,9948;0,0691836
755,9590;0,0687922
756,9233;0,0683883
757,8875;0,0679725
758,8517;0,0675637
759,8160;0,0671901
760,7802;0,0668718
761,7444;0,0666082
762,7087;0,0663771
763,6729;0,0661473
764,6371;0,0658947
765,6014;0,0656126
766,5656;0,0653107
767,5298;0,0650056
768,4941;0,0647094
769,4583;0,0644251
770,4225;0,0641496
771,3868;0,063882
772,3510;0,0636278
773,3152;0,0633974
774,2795;0,0631982
775,2437;0,0630268
776,2079;0,0628675
777,1722;0,0626987
778,1364;0,0625038
779,1006;0,062279
780,0649;0,0620325
781,0291;0,0617778
781,9933;0,0615248
782,9576;0,0612759
783,9218;0,0610292
784,8860;0,0607838
785,8503;0,0605434
786,8145;0,0603151
787,7787;0,0601053
788,7430;0,0599162
789,7072;0,0597472
790,6714;0,0595973
791,6357;0,0594672
792,5999;0,0593568
793,5641;0,0592615
794,5284;0,0591707
795,4926;0,0590722
796,4568;0,0589594
797,4211;0,0588367
798,3853;0,0587176
799,3495;0,058617
800,3138;0,0585416
801,2780;0,0584879
802,2422;0,0584453
803,2065;0,0584041
804,1707;0,0583605
805,1349;0,0583147
806,0992;0,0582663
807,0634;0,0582108
808,0276;0,0581406
808,9919;0,0580509
809,9561;0,0579449
810,9203;0,0578336
811,8846;0,0577315
812,8488;0,0576492
813,8130;0,0575885
814,7773;0,0575423
815,7415;0,0574975
816,7057;0,0574401
817,6700;0,0573604
818,6342;0,057256
819,5984;0,0571329
820,5627;0,0570037
821,5269;0,0568836
822,4911;0,0567854
823,4554;0,056716
824,4196;0,0566758
825,3839;0,0566605
826,3481;0,0566635
827,3123;0,0566766
828,2766;0,0566898
829,2408;0,0566907
830,2050;0,056666
831,1693;0,0566056
832,1335;0,0565068
833,0977;0,0563753
834,0620;0,0562219
835,0262;0,0560579
835,9904;0,0558895
836,9547;0,0557175
837,9189;0,0555406
838,8831;0,0553596
839,8474;0,0551801
840,8116;0,055011
841,7758;0,0548609
842,7401;0,0547336
843,7043;0,0546272
844,6685;0,0545347
845,6328;0,0544483
846,5970;0,0543627
847,5612;0,0542772
848,5255;0,0541952
849,4897;0,0541216
850,4539;0,0540592
851,4182;0,0540065
852,3824;0,0539582
853,3466;0,0539079
854,3109;0,0538517
855,2751;0,0537905
856,2393;0,0537303
857,2036;0,0536788
858,1678;0,0536425
859,1320;0,0536242
860,0963;0,053623
861,0605;0,0536354
862,0247;0,0536581
862,9890;0,0536897
863,9532;0,053732
864,9174;0,0537899
865,8817;0,05387
866,8459;0,0539775
867,8101;0,0541135
868,7744;0,0542729
869,7386;0,0544457
870,7028;0,0546196
871,6671;0,0547832
872,6313;0,0549277
873,5955;0,0550464
874,5598;0,0551346
875,5240;0,0551914
876,4882;0,0552236
877,4525;0,055249
878,4167;0,0552954
879,3809;0,0553939
880,3452;0,0555685
881,3094;0,0558282
882,2736;0,0561658
883,2379;0,0565648
884,2021;0,0570095
885,1663;0,0574925
886,1306;0,0580171
887,0948;0,0585918
888,0590;0,0592233
889,0233;0,0599104
889,9875;0,0606418
890,9517;0,0613967
891,9160;0,0621472
892,8802;0,0628612
893,8444;0,0635056
894,8087;0,0640493
895,7729;0,0644662
896,7371;0,0647368
897,7014;0,0648496
898,6656;0,0648007
899,6298;0,0645943
900,5941;0,0642428
901,5583;0,0637671
902,5225;0,063196
903,4868;0,0625642
904,4510;0,0619099
905,4152;0,061272
906,3795;0,0606865
907,3437;0,0601827
908,3079;0,0597792
909,2722;0,0594805
910,2364;0,0592787
911,2007;0,0591574
912,1649;0,0590997
913,1292;0,059093
914,0934;0,059131
915,0576;0,0592104
916,0219;0,059327
916,9861;0,0594727
917,9503;0,059637
918,9146;0,0598107
919,8788;0,0599888
920,8430;0,0601704
921,8073;0,0603565
922,7715;0,0605459
923,7357;0,0607336
924,7000;0,0609126
925,6642;0,0610768
926,6284;0,0612243
927,5927;0,0613588
928,5569;0,0614874
929,5211;0,0616172
930,4854;0,0617518
931,4496;0,0618904
932,4138;0,0620301
933,3781;0,0621704
934,3423;0,0623168
935,3065;0,0624822
936,2708;0,0626832
937,2350;0,062935
938,1992;0,0632465
939,1635;0,0636181
940,1277;0,0640424
941,0919;0,0645073
942,0562;0,0649989
943,0204;0,0655056
943,9846;0,0660223
944,9489;0,0665544
945,9131;0,0671186
946,8773;0,0677389
947,8416;0,0684363
948,8058;0,0692192
949,7700;0,0700789
950,7343;0,0709948
951,6985;0,071948
952,6627;0,0729331
953,6270;0,0739619
954,5912;0,0750561
955,5554;0,0762331
956,5197;0,077496
957,4839;0,0788326
958,4481;0,0802245
959,4124;0,0816575
960,3766;0,0831266
961,3408;0,084632
962,3051;0,0861716
963,2693;0,0877356
964,2335;0,0893098
965,1978;0,0908839
966,1620;0,0924606
967,1262;0,0940576
968,0905;0,0957023
969,0547;0,0974234
970,0189;0,0992458
970,9832;0,10119
971,9474;0,103277
972,9116;0,10553
973,8759;0,107977
974,8401;0,110643
975,8043;0,113548
976,7686;0,116698
977,7328;0,120088
978,6970;0,123692
979,6613;0,127462
980,6255;0,131317
981,5897;0,135149
982,5540;0,138828
983,5182;0,142227
984,4824;0,145252
985,4467;0,147856
986,4109;0,150049
987,3751;0,151881
988,3394;0,153426
989,3036;0,154753
990,2678;0,155918
991,2321;0,15696
992,1963;0,157903
993,1605;0,158767
994,1248;0,159575
995,0890;0,160353
996,0532;0,16113
997,0175;0,161932
997,9817;0,162778
998,9459;0,163669
999,9102;0,164592
1000,8744;0,165524
1001,8386;0,16645
1002,8029;0,167373
1003,7671;0,168318
1004,7313;0,169327
1005,6956;0,170451
1006,6598;0,171736
1007,6240;0,173217
1008,5883;0,174916
1009,5525;0,176843
1010,5167;0,178988
1011,4810;0,181325
1012,4452;0,183811
1013,4094;0,186389
1014,3737;0,189002
1015,3379;0,1916
1016,3021;0,194147
1017,2664;0,196621
1018,2306;0,199014
1019,1948;0,201326
1020,1591;0,203567
1021,1233;0,205754
1022,0875;0,207908
1023,0518;0,210048
1024,0160;0,212185
1024,9802;0,214314
1025,9445;0,216413
1026,9087;0,218441
1027,8729;0,220345
1028,8372;0,222056
1029,8014;0,223495
1030,7656;0,224566
1031,7299;0,225167
1032,6941;0,225204
1033,6583;0,224617
1034,6226;0,223407
1035,5868;0,221652
1036,5510;0,219506
1037,5153;0,21717
1038,4795;0,214859
1039,4437;0,212761
1040,4080;0,211016
1041,3722;0,209696
1042,3364;0,208817
1043,3007;0,208337
1044,2649;0,208169
1045,2291;0,208201
1046,1934;0,208316
1047,1576;0,208411
1048,1218;0,208415
1049,0861;0,208288
1050,0503;0,208005
1051,0145;0,207544
1051,9788;0,20687
1052,9430;0,205948
1053,9072;0,204747
1054,8715;0,203252
1055,8357;0,201459
1056,7999;0,199357
1057,7642;0,196918
1058,7284;0,194102
1059,6926;0,190875
1060,6569;0,187248
1061,6211;0,183293
1062,5853;0,179141
1063,5496;0,174955
1064,5138;0,170892
1065,4780;0,167065
1066,4423;0,163533
1067,4065;0,160303
1068,3707;0,15735
1069,3350;0,154637
1070,2992;0,152124
1071,2634;0,149778
1072,2277;0,147568
1073,1919;0,145465
1074,1561;0,143435
1075,1204;0,141445
1076,0846;0,139466
1077,0488;0,137483
1078,0131;0,1355
1078,9773;0,133546
1079,9415;0,131668
1080,9058;0,129919
1081,8700;0,128345
1082,8342;0,126975
1083,7985;0,125812
1084,7627;0,12484
1085,7269;0,124032
1086,6912;0,123357
1087,6554;0,122791
1088,6196;0,122319
1089,5839;0,121937
1090,5481;0,121647
1091,5123;0,121453
1092,4766;0,121361
1093,4408;0,121371
1094,4050;0,121485
1095,3693;0,121699
1096,3335;0,122011
1097,2977;0,122412
1098,2620;0,122889
1099,2262;0,123424
1100,1904;0,123989
1101,1547;0,124553
1102,1189;0,12508
1103,0831;0,125529
1104,0474;0,125863
1105,0116;0,126048
1105,9758;0,126064
1106,9401;0,125906
1107,9043;0,125575
1108,8685;0,125075
1109,8328;0,12439
1110,7970;0,123494
1111,7612;0,12236
1112,7255;0,120982
1113,6897;0,119397
1114,6539;0,117686
1115,6182;0,115959
1116,5824;0,114319
1117,5466;0,112838
1118,5109;0,111535
1119,4751;0,110378
1120,4393;0,109296
1121,4036;0,108197
1122,3678;0,106991
1123,3320;0,105608
1124,2963;0,104008
1125,2605;0,102192
1126,2247;0,100191
1127,1890;0,0980555
1128,1532;0,0958423
1129,1174;0,0935984
1130,0817;0,091357
1131,0459;0,08914
1132,0101;0,0869663
1132,9744;0,0848603
1133,9386;0,0828562
1134,9028;0,0809969
1135,8671;0,0793273
1136,8313;0,0778848
1137,7955;0,0766924
1138,7598;0,0757552
1139,7240;0,0750622
1140,6882;0,0745907
1141,6525;0,0743118
1142,6167;0,074195
1143,5809;0,0742109
1144,5452;0,0743341
1145,5094;0,0745456
1146,4736;0,0748351
1147,4379;0,0752007
1148,4021;0,0756463
1149,3663;0,0761755
1150,3306;0,0767859
1151,2948;0,0774651
1152,2590;0,0781906
1153,2233;0,078932
1154,1875;0,079655
1155,1517;0,0803226
1156,1160;0,080894
1157,0802;0,0813214
1158,0444;0,0815483
1159,0087;0,0815093
1159,9729;0,0811369
1160,9371;0,0803705
1161,9014;0,0791695
1162,8656;0,077524
1163,8298;0,0754606
1164,7941;0,0730421
1165,7583;0,0703605
1166,7225;0,067525
1167,6868;0,0646482
1168,6510;0,0618326
1169,6152;0,0591599
1170,5795;0,0566866
1171,5437;0,0544448
1172,5079;0,0524472
1173,4722;0,0506943
1174,4364;0,0491785
1175,4006;0,0478864
1176,3649;0,0467991
1177,3291;0,0458926
1178,2933;0,0451406
1179,2576;0,0445178
1180,2218;0,0440026
1181,1860;0,0435779
1182,1503;0,0432307
1183,1145;0,0429505
1184,0787;0,0427296
1185,0430;0,0425645
1186,0072;0,0424566
1186,9714;0,0424119
1187,9357;0,0424388
1188,8999;0,0425443
1189,8641;0,0427316
1190,8284;0,0429993
1191,7926;0,0433426
1192,7568;0,0437549
1193,7211;0,044229
1194,6853;0,044758
1195,6495;0,0453339
1196,6138;0,0459476
1197,5780;0,0465876
1198,5422;0,0472411
1199,5065;0,0478926
1200,4707;0,0485347
1201,4349;0,0491566
1202,3992;0,0497534
1203,3634;0,0503224
1204,3276;0,050861
1205,2919;0,0513662
1206,2561;0,0518361
1207,2203;0,0522744
1208,1846;0,0526939
1209,1488;0,0531176
1210,1130;0,0535738
1211,0773;0,0540884
1212,0415;0,0546767
1213,0057;0,0553397
1213,9700;0,0560653
1214,9342;0,0568343
1215,8984;0,0576253
1216,8627;0,0584191
1217,8269;0,0591993
1218,7911;0,059954
1219,7554;0,0606754
1220,7196;0,0613607
1221,6838;0,0620105
1222,6481;0,0626267
1223,6123;0,0632099
1224,5765;0,0637583
1225,5408;0,0642694
1226,5050;0,0647413
1227,4692;0,0651742
1228,4335;0,0655694
1229,3977;0,0659272
1230,3619;0,0662456
1231,3262;0,0665211
1232,2904;0,0667499
1233,2546;0,066931
1234,2189;0,0670667
1235,1831;0,0671622
1236,1473;0,0672249
1237,1116;0,0672626
1238,0758;0,0672821
1239,0400;0,0672885
1240,0043;0,0672843
1240,9685;0,0672679
1241,9327;0,0672341
1242,8970;0,0671749
1243,8612;0,0670811
1244,8254;0,0669455
1245,7897;0,0667642
1246,7539;0,0665382
1247,7181;0,0662729
1248,6824;0,0659773
1249,6466;0,0656623
1250,6108;0,0653398
1251,5751;0,0650203
1252,5393;0,0647118
1253,5035;0,064418
1254,4678;0,0641374
1255,4320;0,0638644
1256,3962;0,0635917
1257,3605;0,0633129
1258,3247;0,0630239
1259,2889;0,0627221
1260,2532;0,0624042
1261,2174;0,0620638
1262,1816;0,0616932
1263,1459;0,0612854
1264,1101;0,060838
1265,0743;0,0603533
1266,0386;0,0598361
1267,0028;0,0592903
1267,9670;0,0587166
1268,9313;0,0581137
1269,8955;0,0574822
1270,8597;0,0568268
1271,8240;0,0561563
1272,7882;0,0554808
1273,7524;0,0548088
1274,7167;0,0541475
1275,6809;0,0535033
1276,6451;0,0528833
1277,6094;0,0522928
1278,5736;0,0517317
1279,5378;0,0511923
1280,5021;0,0506614
1281,4663;0,0501256
1282,4305;0,0495785
1283,3948;0,0490245
1284,3590;0,048478
1285,3232;0,0479595
1286,2875;0,0474907
1287,2517;0,0470903
1288,2159;0,04677
1289,1802;0,0465319
1290,1444;0,0463691
1291,1086;0,0462691
1292,0729;0,0462201
1293,0371;0,0462165
1294,0013;0,0462608
1294,9656;0,0463616
1295,9298;0,0465279
1296,8940;0,0467653
1297,8583;0,0470747
1298,8225;0,0474535
1299,7867;0,047898
1300,7510;0,0484035
1301,7152;0,0489639
1302,6794;0,0495712
1303,6437;0,0502174
1304,6079;0,0508959
1305,5721;0,0516024
1306,5364;0,0523322
1307,5006;0,0530787
1308,4648;0,0538317
1309,4291;0,0545794
1310,3933;0,0553106
1311,3575;0,0560145
1312,3218;0,0566799
1313,2860;0,0572925
1314,2502;0,0578333
1315,2145;0,0582797
1316,1787;0,0586086
1317,1429;0,0588017
1318,1072;0,0588533
1319,0714;0,0587756
1320,0356;0,0585983
1320,9999;0,0583596
1321,9641;0,0580958
1322,9283;0,0578338
1323,8926;0,0575916
1324,8568;0,0573806
1325,8210;0,0572064
1326,7853;0,057068
1327,7495;0,0569569
1328,7137;0,0568587
1329,6780;0,0567563
1330,6422;0,0566341
1331,6064;0,05648
1332,5707;0,0562847
1333,5349;0,0560386
1334,4991;0,0557284
1335,4634;0,0553361
1336,4276;0,0548453
1337,3918;0,054256
1338,3561;0,0536018
1339,3203;0,0529505
1340,2845;0,0523741
1341,2488;0,0519086
1342,2130;0,0515434
1343,1772;0,0512427
1344,1415;0,0509739
1345,1057;0,0507233
1346,0699;0,0504985
1347,0342;0,0503216
1347,9984;0,0502165
1348,9626;0,0501979
1349,9269;0,0502658
1350,8911;0,0504071
1351,8553;0,0506039
1352,8196;0,0508414
1353,7838;0,0511147
1354,7480;0,0514266
1355,7123;0,0517804
1356,6765;0,0521703
1357,6407;0,0525797
1358,6050;0,0529867
1359,5692;0,0533729
1360,5334;0,0537318
1361,4977;0,0540701
1362,4619;0,0544027
1363,4261;0,0547386
1364,3904;0,0550731
1365,3546;0,0553914
1366,3188;0,0556777
1367,2831;0,0559186
1368,2473;0,0561032
1369,2115;0,05622
1370,1758;0,0562542
1371,1400;0,0561864
1372,1042;0,0559982
1373,0685;0,0556859
1374,0327;0,0552755
1374,9969;0,0548179
1375,9612;0,0543553
1376,9254;0,0538889
1377,8896;0,0533815
1378,8539;0,0527905
1379,8181;0,0521034
1380,7823;0,0513529
1381,7466;0,0505972
1382,7108;0,0498783
1383,6750;0,0491946
1384,6393;0,0485095
1385,6035;0,0477909
1386,5677;0,0470592
1387,5320;0,0463947
1388,4962;0,0458822
1389,4604;0,0455441
1390,4247;0,0453383
1391,3889;0,0451999
1392,3531;0,0450769
1393,3174;0,044946
1394,2816;0,0448153
1395,2458;0,0447142
1396,2101;0,0446731
1397,1743;0,044707
1398,1385;0,0448141
1399,1028;0,0449829
1400,0670;0,0451976
1401,0313;0,0454403
1401,9955;0,0456955
1402,9597;0,0459561
1403,9240;0,0462282
1404,8882;0,0465285
1405,8524;0,0468733
1406,8167;0,0472655
1407,7809;0,0476955
1408,7451;0,0481525
1409,7094;0,0486348
1410,6736;0,0491491
1411,6378;0,0496996
1412,6021;0,0502788
1413,5663;0,0508679
1414,5305;0,0514462
1415,4948;0,0519981
1416,4590;0,0525135
1417,4232;0,0529856
1418,3875;0,0534084
1419,3517;0,0537721
1420,3159;0,0540588
1421,2802;0,0542449
1422,2444;0,0543091
1423,2086;0,0542418
1424,1729;0,0540514
1425,1371;0,053758
1426,1013;0,0533708
1427,0656;0,0528704
1428,0298;0,0522207
1428,9940;0,0514157
1429,9583;0,0505216
1430,9225;0,0496555
1431,8867;0,0489027
1432,8510;0,0482545
1433,8152;0,0476185
1434,7794;0,0468842
1435,7437;0,046022
1436,7079;0,0451536
1437,6721;0,044477
1438,6364;0,0440902
1439,6006;0,043947
1440,5648;0,0439517
1441,5291;0,0440359
1442,4933;0,0441722
1443,4575;0,0443597
1444,4218;0,0446044
1445,3860;0,0449054
1446,3502;0,0452515
1447,3145;0,0456231
1448,2787;0,0459982
1449,2429;0,0463582
1450,2072;0,0466936
1451,1714;0,0470025
1452,1356;0,0472823
1453,0999;0,0475166
1454,0641;0,0476597
1455,0283;0,0476306
1455,9926;0,047359
1456,9568;0,0469192
1457,9210;0,0465565
1458,8853;0,0464227
1459,8495;0,0464564
1460,8137;0,0465259
1461,7780;0,0465087
1462,7422;0,0462884
1463,7064;0,0457739
1464,6707;0,0449745
1465,6349;0,0440392
1466,5991;0,0431486
1467,5634;0,0423686
1468,5276;0,0416319
1469,4918;0,0407973
1470,4561;0,0397045
1471,4203;0,0382503
1472,3845;0,0365205
1473,3488;0,0348368
1474,3130;0,0335153
1475,2772;0,0326061
1476,2415;0,0319712
1477,2057;0,0314721
1478,1699;0,0310357
1479,1342;0,0306381
1480,0984;0,0302796
1481,0626;0,0299728
1482,0269;0,0297358
1482,9911;0,0295827
1483,9553;0,0295124
1484,9196;0,0295027
1485,8838;0,0295162
1486,8480;0,0295187
1487,8123;0,0295117
1488,7765;0,0295576
1489,7407;0,0297421
1490,7050;0,0300888
1491,6692;0,0305497
1492,6334;0,0310682
1493,5977;0,0316142
1494,5619;0,0321791
1495,5261;0,0327659
1496,4904;0,0333857
1497,4546;0,03405
1498,4188;0,034754
1499,3831;0,0354721
1500,3473;0,0361763
1501,3115;0,0368474
1502,2758;0,0374657
1503,2400;0,0379911
1504,2042;0,038337
1505,1685;0,0383511
1506,1327;0,0378927
1507,0969;0,0370929
1508,0612;0,0363786
1509,0254;0,0359629
1509,9896;0,0357371
1510,9539;0,0355503
1511,9181;0,0353072
1512,8823;0,0349487
1513,8466;0,0344387
1514,8108;0,0337797
1515,7750;0,033026
1516,7393;0,0322606
1517,7035;0,031537
1518,6677;0,0308415
1519,6320;0,0301199
1520,5962;0,0293522
1521,5604;0,0286026
1522,5247;0,0279762
1523,4889;0,0275282
1524,4531;0,027237
1525,4174;0,0270506
1526,3816;0,0269353
1527,3458;0,0268849
1528,3101;0,0268997
1529,2743;0,0269644
1530,2385;0,0270446
1531,2028;0,0271036
1532,1670;0,0271301
1533,1312;0,0271617
1534,0955;0,0272619
1535,0597;0,0274636
1536,0239;0,027744
1536,9882;0,028038
1537,9524;0,028247
1538,9166;0,028247
1539,8809;0,0279707
1540,8451;0,0275733
1541,8093;0,027347
1542,7736;0,027374
1543,7378;0,0275427
1544,7020;0,0277542
1545,6663;0,0279692
1546,6305;0,0281787
1547,5947;0,0283787
1548,5590;0,0285609
1549,5232;0,028717
1550,4874;0,0288483
1551,4517;0,0289734
1552,4159;0,0291207
1553,3801;0,0293088
1554,3444;0,0295285
1555,3086;0,029733
1556,2728;0,0298313
1557,2371;0,0297191
1558,2013;0,0294261
1559,1655;0,0292225
1560,1298;0,0292958
1561,0940;0,0295627
1562,0582;0,0299067
1563,0225;0,0302779
1563,9867;0,0306562
1564,9509;0,0310201
1565,9152;0,0313443
1566,8794;0,0316142
1567,8436;0,0318493
1568,8079;0,0321064
1569,7721;0,0324398
1570,7363;0,0328542
1571,7006;0,0333118
1572,6648;0,033772
1573,6290;0,0342131
1574,5933;0,0346368
1575,5575;0,0350722
1576,5217;0,0355599
1577,4860;0,0361126
1578,4502;0,0367089
1579,4144;0,0373305
1580,3787;0,0379768
1581,3429;0,038651
1582,3071;0,0393489
1583,2714;0,0400602
1584,2356;0,040777
1585,1998;0,0414985
1586,1641;0,0422259
1587,1283;0,0429519
1588,0925;0,043655
1589,0568;0,0443033
1590,0210;0,0448635
1590,9852;0,0453064
1591,9495;0,0456073
1592,9137;0,0457486
1593,8779;0,0457287
1594,8422;0,0455713
1595,8064;0,0453206
1596,7706;0,0450235
1597,7349;0,0447102
1598,6991;0,0443901
1599,6633;0,0440623
1600,6276;0,0437286
1601,5918;0,0434013
1602,5560;0,0430997
1603,5203;0,0428389
1604,4845;0,0426188
1605,4487;0,042422
1606,4130;0,0422222
1607,3772;0,0420017
1608,3414;0,0417697
1609,3057;0,0415657
1610,2699;0,0414357
1611,2341;0,0413987
1612,1984;0,041432
1613,1626;0,041479
1614,1268;0,0414687
1615,0911;0,0413529
1616,0553;0,0411615
1617,0195;0,0410056
1617,9838;0,0409756
1618,9480;0,0410651
1619,9122;0,0412081
1620,8765;0,0413367
1621,8407;0,0414069
1622,8049;0,0414129
1623,7692;0,0413861
1624,7334;0,0413676
1625,6976;0,0413745
1626,6619;0,0414014
1627,6261;0,0414456
1628,5903;0,0415217
1629,5546;0,0416497
1630,5188;0,0418338
1631,4830;0,0420472
1632,4473;0,0422269
1633,4115;0,0422757
1634,3757;0,042101
1635,3400;0,041723
1636,3042;0,0413365
1637,2684;0,0411309
1638,2327;0,0411188
1639,1969;0,041217
1640,1611;0,0413596
1641,1254;0,0415149
1642,0896;0,0416614
1643,0538;0,0417598
1644,0181;0,0417412
1644,9823;0,0415384
1645,9465;0,04118
1646,9108;0,0408427
1647,8750;0,0407058
1648,8392;0,0407838
1649,8035;0,0409503
1650,7677;0,0410026
1651,7319;0,0406909
1652,6962;0,0398939
1653,6604;0,0389404
1654,6246;0,0383271
1655,5889;0,0381083
1656,5531;0,0380776
1657,5173;0,0380773
1658,4816;0,0380194
1659,4458;0,0378404
1660,4100;0,0374963
1661,3743;0,0370009
1662,3385;0,0364555
1663,3027;0,0359928
1664,2670;0,0356761
1665,2312;0,0354711
1666,1954;0,0352827
1667,1597;0,0349978
1668,1239;0,0345345
1669,0881;0,0339134
1670,0524;0,0332754
1671,0166;0,032764
1671,9808;0,0323971
1672,9451;0,0320855
1673,9093;0,03173
1674,8735;0,0312977
1675,8378;0,0308467
1676,8020;0,0304773
1677,7662;0,030249
1678,7305;0,0301488
1679,6947;0,0301112
1680,6589;0,0300337
1681,6232;0,0297819
1682,5874;0,0292422
1683,5516;0,0284689
1684,5159;0,0277327
1685,4801;0,0272502
1686,4443;0,027
1687,4086;0,0268655
1688,3728;0,0267698
1689,3370;0,0266925
1690,3013;0,0266429
1691,2655;0,0266324
1692,2297;0,0266542
1693,1940;0,0266809
1694,1582;0,0266736
1695,1224;0,0266012
1696,0867;0,0264567
1697,0509;0,0262595
1698,0151;0,0260416
1698,9794;0,0258377
1699,9436;0,0256828
1700,9078;0,0256042
1701,8721;0,0256086
1702,8363;0,0256828
1703,8005;0,0258038
1704,7648;0,0259511
1705,7290;0,0261159
1706,6932;0,026305
1707,6575;0,0265335
1708,6217;0,0268129
1709,5859;0,0271445
1710,5502;0,0275202
1711,5144;0,0279223
1712,4786;0,0283219
1713,4429;0,0286797
1714,4071;0,0289537
1715,3713;0,0291258
1716,3356;0,0292415
1717,2998;0,0294011
1718,2640;0,0296648
1719,2283;0,0300072
1720,1925;0,030379
1721,1567;0,0307527
1722,1210;0,0311176
1723,0852;0,0314663
1724,0494;0,0317916
1725,0137;0,0320903
1725,9779;0,0323674
1726,9421;0,0326341
1727,9064;0,0329005
1728,8706;0,0331656
1729,8348;0,0334059
1730,7991;0,0335675
1731,7633;0,0335774
1732,7275;0,0333952
1733,6918;0,0330834
1734,6560;0,0327781
1735,6202;0,0325618
1736,5845;0,032415
1737,5487;0,0322668
1738,5129;0,0320475
1739,4772;0,0317177
1740,4414;0,0312879
1741,4056;0,0308116
1742,3699;0,0303456
1743,3341;0,0299124
1744,2983;0,0295003
1745,2626;0,0290823
1746,2268;0,0286247
1747,1910;0,0280858
1748,1553;0,0274289
1749,1195;0,0266641
1750,0837;0,0258777
1751,0480;0,0251859
1752,0122;0,0246473
1752,9764;0,0242358
1753,9407;0,023881
1754,9049;0,023518
1755,8691;0,0231175
1756,8334;0,0226917
1757,7976;0,0222716
1758,7618;0,0218728
1759,7261;0,0214805
1760,6903;0,021073
1761,6545;0,0206557
1762,6188;0,02027
1763,5830;0,0199618
1764,5472;0,0197472
1765,5115;0,0196071
1766,4757;0,0195048
1767,4399;0,0194038
1768,4042;0,0192749
1769,3684;0,019095
1770,3326;0,0188493
1771,2969;0,0185472
1772,2611;0,0182389
1773,2253;0,0179948
1774,1896;0,0178569
1775,1538;0,0178176
1776,1180;0,0178388
1777,0823;0,0178768
1778,0465;0,0178984
1779,0107;0,0178892
1779,9750;0,0178557
1780,9392;0,0178141
1781,9034;0,0177748
1782,8677;0,0177379
1783,8319;0,0177036
1784,7961;0,0176827
1785,7604;0,0176938
1786,7246;0,0177486
1787,6888;0,0178384
1788,6531;0,0179297
1789,6173;0,0179728
1790,5815;0,0179245
1791,5458;0,0177867
1792,5100;0,0176234
1793,4742;0,0175146
1794,4385;0,0174921
1795,4027;0,0175335
1796,3669;0,0175953
1797,3312;0,0176369
1798,2954;0,0176333
1799,2596;0,0175834
1800,2239;0,0175127
1801,1881;0,0174573
1802,1523;0,0174412
1803,1166;0,0174656
1804,0808;0,0175161
1805,0450;0,0175738
1806,0093;0,0176208
1806,9735;0,017642
1807,9377;0,0176285
1808,9020;0,0175829
1809,8662;0,0175229
1810,8304;0,0174761
1811,7947;0,0174635
1812,7589;0,017487
1813,7231;0,0175293
1814,6874;0,0175651
1815,6516;0,0175751
1816,6158;0,0175571
1817,5801;0,0175295
1818,5443;0,0175206
1819,5085;0,0175494
1820,4728;0,0176124
1821,4370;0,0176869
1822,4012;0,0177452
1823,3655;0,0177722
1824,3297;0,0177735
1825,2939;0,0177679
1826,2582;0,0177679
1827,2224;0,0177664
1828,1866;0,0177429
1829,1509;0,0176851
1830,1151;0,0176074
1831,0793;0,0175443
1832,0436;0,0175239
1833,0078;0,017549
1833,9720;0,0176004
1834,9363;0,0176512
1835,9005;0,0176833
1836,8647;0,017699
1837,8290;0,017719
1838,7932;0,0177646
1839,7574;0,017839
1840,7217;0,0179211
1841,6859;0,0179718
1842,6501;0,0179543
1843,6144;0,0178626
1844,5786;0,0177356
1845,5428;0,0176301
1846,5071;0,0175774
1847,4713;0,0175737
1848,4355;0,0175979
1849,3998;0,0176302
1850,3640;0,0176598
1851,3282;0,0176859
1852,2925;0,0177122
1853,2567;0,0177406
1854,2209;0,0177678
1855,1852;0,0177877
1856,1494;0,0177962
1857,1136;0,017795
1858,0779;0,0177902
1859,0421;0,0177889
1860,0063;0,0177958
1860,9706;0,0178132
1861,9348;0,0178417
1862,8990;0,0178802
1863,8633;0,0179231
1864,8275;0,0179573
1865,7917;0,0179629
1866,7560;0,0179233
1867,7202;0,0178423
1868,6844;0,0177516
1869,6487;0,017691
1870,6129;0,017679
1871,5771;0,0177072
1872,5414;0,0177549
1873,5056;0,0178031
1874,4698;0,0178408
1875,4341;0,0178667
1876,3983;0,0178865
1877,3625;0,0179067
1878,3268;0,0179289
1879,2910;0,0179489
1880,2552;0,0179616
1881,2195;0,0179654
1882,1837;0,0179646
1883,1479;0,0179658
1884,1122;0,0179736
1885,0764;0,0179868
1886,0406;0,0179994
1887,0049;0,0180048
1887,9691;0,0180002
1888,9333;0,0179895
1889,8976;0,0179798
1890,8618;0,0179754
1891,8260;0,017974
1892,7903;0,0179676
1893,7545;0,017948
1894,7188;0,0179128
1895,6830;0,017869
1896,6472;0,0178326
1897,6115;0,0178205
1898,5757;0,0178427
1899,5399;0,0178967
1900,5042;0,0179691
1901,4684;0,0180407
1902,4326;0,0180944
1903,3969;0,0181222
1904,3611;0,0181265
1905,3253;0,0181167
1906,2896;0,0181017
1907,2538;0,0180858
1908,2180;0,0180699
1909,1823;0,0180558
1910,1465;0,0180502
1911,1107;0,0180625
1912,0750;0,0180988
1913,0392;0,0181559
1914,0034;0,0182194
1914,9677;0,0182669
1915,9319;0,0182759
1916,8961;0,0182351
1917,8604;0,0181513
1918,8246;0,0180472
1919,7888;0,01795
1920,7531;0,0178817
1921,7173;0,0178553
1922,6815;0,0178731
1923,6458;0,0179258
1924,6100;0,0179936
1925,5742;0,0180537
1926,5385;0,0180899
1927,5027;0,0180991
1928,4669;0,0180889
1929,4312;0,0180721
1930,3954;0,0180606
1931,3596;0,0180626
1932,3239;0,0180827
1933,2881;0,0181229
1934,2523;0,0181805
1935,2166;0,0182439
1936,1808;0,0182924
1937,1450;0,0183049
1938,1093;0,0182725
1939,0735;0,0182079
1940,0377;0,0181437
1941,0020;0,0181186
1941,9662;0,0181548
1942,9304;0,0182395
1943,8947;0,01833
1944,8589;0,0183806
1945,8231;0,0183692
1946,7874;0,0183028
1947,7516;0,0182062
1948,7158;0,0181072
1949,6801;0,0180279
1950,6443;0,0179829
1951,6085;0,0179811
1952,5728;0,0180266
1953,5370;0,0181161
1954,5012;0,0182355
1955,4655;0,0183603
1956,4297;0,0184623
1957,3939;0,0185183
1958,3582;0,0185163
1959,3224;0,0184567
1960,2866;0,0183508
1961,2509;0,018219
1962,2151;0,0180905
1963,1793;0,0180006
1964,1436;0,0179804
1965,1078;0,0180421
1966,0720;0,0181636
1967,0363;0,018289
1968,0005;0,0183527
1968,9647;0,0183158
1969,9290;0,018186
1970,8932;0,0180072
1971,8574;0,0178296
1972,8217;0,0176874
1973,7859;0,0175965
1974,7501;0,017571
1975,7144;0,0176356
1976,6786;0,0178164
1977,6428;0,0181105
1978,6071;0,0184644
1979,5713;0,0187905
1980,5355;0,0190092
1981,4998;0,0190847
1982,4640;0,0190291
1983,4282;0,0188821
1984,3925;0,0186843
1985,3567;0,0184642
1986,3209;0,018245
1987,2852;0,0180604
1988,2494;0,0179615
1989,2136;0,018
1990,1779;0,0181946
1991,1421;0,0185031
1992,1063;0,0188293
1993,0706;0,0190702
1994,0348;0,0191718
1994,9990;0,019151
1995,9633;0,0190734
1996,9275;0,0190076
1997,8917;0,0189871
1998,8560;0,0189956
1999,8202;0,0189826
2000,7844;0,0188977
2001,7487;0,0187246
2002,7129;0,0184954
2003,6771;0,018283
2004,6414;0,0181735
2005,6056;0,0182301
2006,5698;0,0184607
2007,5341;0,0188064
2008,4983;0,0191642
2009,4625;0,019432
2010,4268;0,0195525
2011,3910;0,0195312
2012,3552;0,0194265
2013,3195;0,0193206
2014,2837;0,0192845
2015,2479;0,0193485
2016,2122;0,0194903
2017,1764;0,019645
2018,1406;0,0197373
2019,1049;0,0197177
2020,0691;0,0195836
2021,0333;0,0193757
2021,9976;0,0191571
2022,9618;0,018987
2023,9260;0,0189017
2024,8903;0,0189061
2025,8545;0,0189791
2026,8187;0,0190861
2027,7830;0,0191919
2028,7472;0,0192691
2029,7114;0,0193034
2030,6757;0,0192966
2031,6399;0,019268
2032,6041;0,0192511
2033,5684;0,0192815
2034,5326;0,0193804
2035,4968;0,0195423
2036,4611;0,0197359
2037,4253;0,0199164
2038,3895;0,0200436
2039,3538;0,0200948
2040,3180;0,02007
2041,2822;0,0199882
2042,2465;0,0198795
2043,2107;0,0197759
2044,1749;0,019704
2045,1392;0,0196811
2046,1034;0,019712
2047,0676;0,019787
2048,0320;0,0198838
2048,9961;0,019977
2049,9604;0,0200489
2050,9246;0,0200956
2051,8889;0,0201242
2052,8530;0,020145
2053,8174;0,0201639
2054,7815;0,0201799
2055,7458;0,0201881
2056,7100;0,0201847
2057,6743;0,0201701
2058,6384;0,0201472
2059,6028;0,0201176
2060,5669;0,0200804
2061,5313;0,0200359
2062,4954;0,0199914
2063,4597;0,0199634
2064,4238;0,0199722
2065,3882;0,0200297
2066,3523;0,0201301
2067,3167;0,0202499
2068,2808;0,0203591
2069,2451;0,0204342
2070,2092;0,0204659
2071,1736;0,0204581
2072,1377;0,0204198
2073,1021;0,0203582
2074,0662;0,0202781
2075,0305;0,0201868
2075,9946;0,0201004
2076,9590;0,020043
2077,9231;0,0200372
2078,8875;0,0200904
2079,8516;0,0201868
2080,8159;0,0202902
2081,7800;0,0203605
2082,7444;0,020372
2083,7085;0,0203263
2084,6729;0,0202489
2085,6370;0,0201735
2086,6013;0,020124
2087,5654;0,0201037
2088,5298;0,0201006
2089,4939;0,0201007
2090,4583;0,0201003
2091,4224;0,0201079
2092,3867;0,0201342
2093,3508;0,0201804
2094,3152;0,0202339
2095,2793;0,020275
2096,2437;0,0202899
2097,2078;0,0202792
2098,1721;0,0202548
2099,1362;0,0202304
2100,1006;0,0202137
2101,0647;0,0202084
2102,0291;0,020217
2102,9932;0,0202454
2103,9575;0,0202998
2104,9216;0,0203805
2105,8860;0,0204793
2106,8501;0,0205824
2107,8145;0,0206763
2108,7786;0,0207503
2109,7429;0,0207951
2110,7070;0,0207996
2111,6714;0,0207545
2112,6355;0,0206616
2113,5999;0,0205419
2114,5640;0,0204337
2115,5283;0,0203781
2116,4924;0,0203976
2117,4568;0,0204833
2118,4209;0,0205982
2119,3853;0,0206958
2120,3494;0,0207433
2121,3137;0,020736
2122,2778;0,0206955
2123,2422;0,020655
2124,2063;0,0206418
2125,1707;0,0206645
2126,1348;0,0207123
2127,0991;0,0207621
2128,0632;0,0207905
2129,0276;0,0207862
2129,9917;0,0207557
2130,9561;0,0207221
2131,9202;0,0207148
2132,8845;0,0207543
2133,8486;0,0208399
2134,8130;0,0209473
2135,7771;0,0210392
2136,7415;0,0210829
2137,7056;0,0210636
2138,6699;0,0209867
2139,6340;0,0208731
2140,5984;0,0207533
2141,5625;0,0206632
2142,5269;0,0206383
2143,4910;0,0207036
2144,4553;0,020863
2145,4194;0,0210943
2146,3838;0,0213567
2147,3479;0,0216079
2148,3123;0,0218173
2149,2764;0,0219673
2150,2407;0,0220444
2151,2048;0,0220348
2152,1692;0,021934
2153,1333;0,0217674
2154,0977;0,0216027
2155,0618;0,0215389
2156,0261;0,0216647
2156,9902;0,0220026
2157,9546;0,0224741
2158,9187;0,0229274
2159,8831;0,0232245
2160,8472;0,0233128
2161,8115;0,0232219
2162,7756;0,0230134
2163,7400;0,0227435
2164,7041;0,0224588
2165,6685;0,0222052
2166,6326;0,0220255
2167,5969;0,0219418
2168,5610;0,0219378
2169,5254;0,0219617
2170,4895;0,0219529
2171,4539;0,0218773
2172,4180;0,0217478
2173,3823;0,0216139
2174,3464;0,0215254
2175,3108;0,0214942
2176,2749;0,0214817
2177,2393;0,0214252
2178,2034;0,0212831
2179,1677;0,0210683
2180,1318;0,0208471
2181,0962;0,0207037
2182,0603;0,020691
2183,0247;0,0208001
2183,9888;0,0209668
2184,9531;0,021112
2185,9172;0,0211858
2186,8816;0,0211882
2187,8457;0,0211594
2188,8101;0,0211501
2189,7742;0,0211926
2190,7385;0,0212878
2191,7026;0,0214119
2192,6670;0,0215318
2193,6311;0,0216202
2194,5955;0,0216615
2195,5596;0,0216512
2196,5239;0,021593
2197,4880;0,0214988
2198,4524;0,0213887
2199,4165;0,0212884
2200,3809;0,0212215
2201,3450;0,0212015
2202,3093;0,0212277
2203,2734;0,0212894
2204,2378;0,0213738
2205,2019;0,0214716
2206,1663;0,0215739
2207,1304;0,0216654
2208,0947;0,021719
2209,0588;0,0217028
2210,0232;0,0215951
2210,9873;0,0214014
2211,9517;0,0211595
2212,9158;0,0209284
2213,8801;0,0207661
2214,8442;0,020707
2215,8086;0,0207503
2216,7727;0,020863
2217,7371;0,0209942
2218,7012;0,0210948
2219,6655;0,0211347
2220,6296;0,0211129
2221,5940;0,0210551
2222,5581;0,0209991
2223,5225;0,0209733
2224,4866;0,0209807
2225,4509;0,0209988
2226,4150;0,0209977
2227,3794;0,020964
2228,3435;0,0209132
2229,3079;0,0208787
2230,2720;0,0208851
2231,2363;0,0209266
2232,2004;0,0209687
2233,1648;0,0209737
2234,1289;0,0209311
2235,0933;0,0208695
2236,0574;0,0208403
2237,0217;0,0208833
2237,9858;0,0210001
2238,9502;0,0211517
2239,9143;0,0212802
2240,8787;0,0213402
2241,8428;0,0213188
2242,8071;0,0212374
2243,7712;0,0211374
2244,7356;0,0210605
2245,6997;0,0210332
2246,6641;0,0210595
2247,6282;0,0211218
2248,5925;0,0211901
2249,5566;0,0212366
2250,5210;0,0212489
2251,4851;0,0212353
2252,4495;0,0212176
2253,4136;0,0212147
2254,3779;0,0212283
2255,3420;0,0212405
2256,3064;0,0212278
2257,2705;0,0211795
2258,2349;0,0211076
2259,1990;0,0210404
2260,1633;0,021005
2261,1274;0,0210107
2262,0918;0,0210448
2263,0559;0,0210834
2264,0203;0,0211079
2264,9844;0,0211149
2265,9487;0,0211144
2266,9128;0,021119
2267,8772;0,0211334
2268,8413;0,0211515
2269,8057;0,0211617
2270,7698;0,0211549
2271,7341;0,0211295
2272,6982;0,0210908
2273,6626;0,0210487
2274,6267;0,0210146
2275,5911;0,0209991
2276,5552;0,0210096
2277,5195;0,0210469
2278,4836;0,0211033
2279,4480;0,0211645
2280,4121;0,0212154
2281,3765;0,021248
2282,3406;0,0212646
2283,3049;0,0212754
2284,2690;0,0212915
2285,2334;0,021319
2286,1975;0,0213565
2287,1619;0,0213992
2288,1260;0,0214425
2289,0903;0,0214851
2290,0544;0,0215279
2291,0188;0,0215713
2291,9829;0,0216141
2292,9473;0,0216547
2293,9114;0,0216936
2294,8757;0,0217336
2295,8398;0,021777
2296,8042;0,0218227
2297,7683;0,0218637
2298,7327;0,0218903
2299,6968;0,0218954
2300,6611;0,0218802
2301,6252;0,0218566
2302,5896;0,0218429
2303,5537;0,0218567
2304,5181;0,0219058
2305,4822;0,0219829
2306,4465;0,0220646
2307,4106;0,0221192
2308,3750;0,0221192
2309,3391;0,0220546
2310,3035;0,02194
2311,2676;0,0218098
2312,2319;0,0217041
2313,1960;0,0216512
2314,1604;0,0216567
2315,1245;0,0217049
2316,0889;0,0217688
2317,0530;0,0218222
2318,0173;0,0218482
2318,9814;0,021843
2319,9458;0,0218157
2320,9099;0,0217856
2321,8743;0,021776
2322,8384;0,0218038
2323,8027;0,021869
2324,7668;0,0219525
2325,7312;0,0220253
2326,6953;0,0220632
2327,6597;0,0220582
2328,6238;0,0220208
2329,5881;0,0219742
2330,5522;0,0219462
2331,5166;0,021958
2332,4807;0,0220165
2333,4451;0,0221109
2334,4092;0,0222184
2335,3735;0,0223152
2336,3376;0,0223862
2337,3020;0,0224288
2338,2661;0,022449
2339,2305;0,0224483
2340,1946;0,0224101
2341,1589;0,0222945
2342,1230;0,0220627
2343,0874;0,0217389
2344,0515;0,0214615
2345,0159;0,0214193
2345,9800;0,0216873
2346,9443;0,0221617
2347,9084;0,0226507
2348,8728;0,0229953
2349,8369;0,023131
2350,8013;0,0230931
2351,7654;0,0229822
2352,7297;0,0229027
2353,6938;0,0229029
2354,6582;0,0229648
2355,6223;0,0230459
2356,5867;0,0231116
2357,5508;0,0231328
2358,5151;0,0230826
2359,4792;0,022953
2360,4436;0,022766
2361,4077;0,0225544
2362,3721;0,0223318
2363,3362;0,0220857
2364,3005;0,0217998
2365,2646;0,0214765
2366,2290;0,0211407
2367,1931;0,0208249
2368,1575;0,0205551
2369,1216;0,020346
2370,0859;0,0202019
2371,0500;0,0201196
2372,0144;0,0200904
2372,9785;0,0201048
2373,9429;0,0201563
2374,9070;0,0202432
2375,8713;0,0203666
2376,8354;0,0205253
2377,7998;0,0207124
2378,7639;0,0209139
2379,7283;0,0211116
2380,6924;0,0212884
2381,6567;0,021433
2382,6208;0,021542
2383,5852;0,0216198
2384,5493;0,0216751
2385,5137;0,0217171
2386,4778;0,0217522
2387,4421;0,0217824
2388,4063;0,0218064
2389,3706;0,0218217
2390,3347;0,0218279
2391,2991;0,0218277
2392,2632;0,0218271
2393,2275;0,0218329
2394,1917;0,0218492
2395,1560;0,0218751
2396,1201;0,0219054
2397,0845;0,0219329
2398,0486;0,021954
2399,0129;0,0219692
2399,9771;0,0219828
2400,9414;0,0219991
2401,9055;0,0220185
2402,8699;0,0220367
2403,8340;0,022048
2404,7983;0,0220494
2405,7625;0,0220434
2406,7268;0,0220369
2407,6909;0,0220371
2408,6553;0,0220478
2409,6194;0,0220678
2410,5837;0,0220926
2411,5479;0,0221173
2412,5122;0,0221394
2413,4763;0,0221592
2414,4407;0,022179
2415,4048;0,0222015
2416,3691;0,0222292
2417,3333;0,0222624
2418,2976;0,0222996
2419,2617;0,0223372
2420,2261;0,022371
2421,1902;0,0223974
2422,1545;0,022416
2423,1187;0,0224298
2424,0830;0,0224435
2425,0471;0,0224616
2426,0115;0,0224862
2426,9756;0,0225164
2427,9399;0,0225488
2428,9041;0,022579
2429,8684;0,0226039
2430,8325;0,0226219
2431,7969;0,0226337
2432,7610;0,0226409
2433,7253;0,0226458
2434,6895;0,0226498
2435,6538;0,0226536
2436,6179;0,0226576
2437,5823;0,0226623
2438,5464;0,0226686
2439,5107;0,0226768
2440,4749;0,022686
2441,4392;0,0226948
2442,4033;0,0227026
2443,3677;0,0227118
2444,3318;0,0227266
2445,2961;0,0227507
2446,2603;0,0227833
2447,2246;0,0228176
2448,1887;0,0228435
2449,1531;0,0228539
2450,1172;0,0228493
2451,0815;0,0228387
2452,0457;0,0228343
2453,0100;0,0228446
2453,9741;0,02287
2454,9385;0,0229039
2455,9026;0,0229381
2456,8669;0,0229676
2457,8311;0,0229926
2458,7954;0,0230154
2459,7595;0,0230373
2460,7239;0,023056
2461,6880;0,0230677
2462,6523;0,0230704
2463,6165;0,0230661
2464,5808;0,0230607
2465,5449;0,023061
2466,5093;0,0230718
2467,4734;0,0230936
2468,4377;0,0231227
2469,4019;0,0231524
2470,3662;0,0231755
2471,3303;0,0231863
2472,2947;0,0231825
2473,2588;0,0231665
2474,2231;0,0231446
2475,1873;0,0231257
2476,1516;0,0231187
2477,1157;0,0231297
2478,0801;0,0231604
2479,0442;0,0232073
2480,0085;0,0232615
2480,9727;0,0233108
2481,9370;0,0233431
2482,9011;0,0233507
2483,8655;0,0233342
2484,8296;0,0233035
2485,7939;0,0232738
2486,7581;0,0232599
2487,7224;0,023269
2488,6865;0,0232986
2489,6509;0,0233385
2490,6150;0,0233766
2491,5793;0,0234042
2492,5435;0,0234194
2493,5078;0,0234255
2494,4719;0,0234285
2495,4363;0,0234342
2496,4004;0,0234467
2497,3647;0,023467
2498,3289;0,0234929
2499,2932;0,0235189
2500,2573;0,0235378
2501,2217;0,023544
2502,1858;0,0235371
2503,1501;0,0235231
2504,1143;0,0235118
2505,0786;0,0235111
2506,0427;0,0235225
2507,0071;0,0235404
2507,9712;0,0235564
2508,9355;0,023565
2509,8997;0,0235672
2510,8640;0,0235689
2511,8281;0,0235765
2512,7925;0,0235924
2513,7566;0,0236141
2514,7209;0,0236367
2515,6851;0,0236562
2516,6494;0,0236702
2517,6135;0,0236779
2518,5779;0,0236786
2519,5420;0,0236723
2520,5063;0,0236615
2521,4705;0,0236514
2522,4348;0,0236484
2523,3989;0,0236558
2524,3633;0,0236714
2525,3274;0,0236889
2526,2917;0,0237018
2527,2559;0,0237081
2528,2202;0,0237113
2529,1843;0,023717
2530,1487;0,0237286
2531,1128;0,0237455
2532,0771;0,0237639
2533,0413;0,0237807
2534,0056;0,0237962
2534,9697;0,0238129
2535,9341;0,0238329
2536,8982;0,0238553
2537,8625;0,0238755
2538,8267;0,0238876
2539,7910;0,0238878
2540,7551;0,0238762
2541,7195;0,0238572
2542,6836;0,0238374
2543,6479;0,023824
2544,6121;0,0238218
2545,5764;0,0238323
2546,5405;0,0238525
2547,5049;0,0238757
2548,4690;0,0238947
2549,4333;0,0239042
2550,3975;0,0239039
2551,3618;0,0238986
2552,3259;0,0238955
2553,2903;0,0239
2554,2544;0,0239126
2555,2188;0,0239281
2556,1829;0,0239385
2557,1472;0,0239378
2558,1113;0,0239261
2559,0757;0,0239101
2560,0398;0,0238996
2561,0042;0,0239015
2561,9683;0,0239161
2562,9326;0,0239367
2563,8967;0,0239539
2564,8611;0,0239611
2565,8252;0,0239579
2566,7896;0,0239488
2567,7537;0,0239398
2568,7180;0,0239345
2569,6821;0,0239332
2570,6465;0,0239352
2571,6106;0,0239406
2572,5750;0,0239515
2573,5391;0,0239703
2574,5034;0,0239975
2575,4675;0,0240304
2576,4319;0,0240648
2577,3960;0,0240963
2578,3604;0,0241223
2579,3245;0,0241416
2580,2888;0,0241534
2581,2529;0,0241567
2582,2173;0,024152
2583,1814;0,0241418
2584,1458;0,0241319
2585,1099;0,0241288
2586,0742;0,0241369
2587,0383;0,0241566
2588,0027;0,0241842
2588,9668;0,0242143
2589,9312;0,0242425
2590,8953;0,0242663
2591,8596;0,0242845
2592,8237;0,0242963
2593,7881;0,0243014
2594,7522;0,0243008
2595,7166;0,0242982
2596,6807;0,024299
2597,6450;0,0243079
2598,6091;0,0243253
2599,5735;0,0243465
2600,5376;0,0243639
2601,5020;0,0243712
2602,4661;0,0243674
2603,4304;0,0243576
2604,3945;0,02435
2605,3589;0,0243524
2606,3230;0,0243682
2607,2874;0,0243971
2608,2515;0,0244356
2609,2158;0,0244784
2610,1799;0,02452
2611,1443;0,0245542
2612,1084;0,0245763
2613,0728;0,0245851
2614,0369;0,0245846
2615,0012;0,0245833
2615,9653;0,0245899
2616,9297;0,0246091
2617,8938;0,0246385
2618,8582;0,0246706
2619,8223;0,0246971
2620,7866;0,0247142
2621,7507;0,0247239
2622,7151;0,0247309
2623,6792;0,0247393
2624,6436;0,0247491
2625,6077;0,0247574
2626,5720;0,024762
2627,5361;0,0247646
2628,5005;0,0247706
2629,4646;0,0247868
2630,4290;0,0248162
2631,3931;0,0248567
2632,3574;0,024901
2633,3215;0,0249407
2634,2859;0,0249698
2635,2500;0,0249864
2636,2144;0,0249931
2637,1785;0,0249955
2638,1428;0,0250001
2639,1069;0,0250127
2640,0713;0,0250368
2641,0354;0,0250717
2641,9998;0,0251123
2642,9639;0,0251501
2643,9282;0,0251771
2644,8923;0,0251892
2645,8567;0,0251887
2646,8208;0,0251838
2647,7852;0,0251843
2648,7493;0,0251972
2649,7136;0,0252235
2650,6777;0,0252585
2651,6421;0,0252947
2652,6062;0,0253256
2653,5706;0,0253481
2654,5347;0,0253631
2655,4990;0,0253738
2656,4631;0,025384
2657,4275;0,025396
2658,3916;0,025411
2659,3560;0,0254289
2660,3201;0,0254491
2661,2844;0,0254704
2662,2485;0,025491
2663,2129;0,0255096
2664,1770;0,0255251
2665,1414;0,0255375
2666,1055;0,0255484
2667,0698;0,0255599
2668,0339;0,0255742
2668,9983;0,0255919
2669,9624;0,0256123
2670,9268;0,0256339
2671,8909;0,0256548
2672,8552;0,025674
2673,8193;0,025691
2674,7837;0,0257053
2675,7478;0,0257168
2676,7122;0,0257255
2677,6763;0,0257331
2678,6406;0,025743
2679,6047;0,0257595
2680,5691;0,0257857
2681,5332;0,0258217
2682,4976;0,0258635
2683,4617;0,0259048
2684,4260;0,0259398
2685,3901;0,0259659
2686,3545;0,0259841
2687,3186;0,0259982
2688,2830;0,0260116
2689,2471;0,0260262
2690,2114;0,0260425
2691,1755;0,0260605
2692,1399;0,0260812
2693,1040;0,026106
2694,0684;0,0261353
2695,0325;0,0261673
2695,9968;0,0261989
2696,9609;0,0262266
2697,9253;0,0262497
2698,8894;0,0262697
2699,8538;0,0262901
2700,8179;0,0263134
2701,7822;0,0263403
2702,7463;0,0263696
2703,7107;0,0263995
2704,6748;0,0264289
2705,6392;0,0264577
2706,6033;0,0264865
2707,5676;0,0265158
2708,5317;0,0265456
2709,4961;0,0265761
2710,4602;0,0266077
2711,4246;0,0266411
2712,3887;0,0266764
2713,3530;0,0267128
2714,3171;0,0267485
2715,2815;0,0267811
2716,2456;0,0268087
2717,2100;0,0268306
2718,1741;0,0268482
2719,1384;0,0268636
2720,1025;0,0268794
2721,0669;0,026897
2722,0310;0,0269159
2722,9954;0,0269348
2723,9595;0,0269527
2724,9238;0,0269705
2725,8879;0,0269914
2726,8523;0,027019
2727,8164;0,0270551
2728,7808;0,0270979
2729,7449;0,0271416
2730,7092;0,0271794
2731,6733;0,0272056
2732,6377;0,0272187
2733,6018;0,0272216
2734,5662;0,0272199
2735,5303;0,0272197
2736,4946;0,0272254
2737,4587;0,0272382
2738,4231;0,0272568
2739,3872;0,0272789
2740,3516;0,0273028
2741,3157;0,0273276
2742,2800;0,0273531
2743,2441;0,027378
2744,2085;0,0273992
2745,1726;0,0274129
2746,1370;0,0274166
2747,1011;0,0274116
2748,0654;0,0274037
2749,0295;0,0274013
2749,9939;0,0274118
2750,9580;0,0274382
2751,9224;0,027478
2752,8865;0,0275245
2753,8508;0,0275701
2754,8149;0,0276092
2755,7793;0,0276401
2756,7434;0,0276642
2757,7078;0,0276847
2758,6719;0,027705
2759,6362;0,0277265
2760,6003;0,0277492
2761,5647;0,0277722
2762,5288;0,0277947
2763,4932;0,0278176
2764,4573;0,0278429
2765,4216;0,027873
2766,3857;0,0279093
2767,3501;0,0279514
2768,3142;0,0279973
2769,2786;0,0280439
2770,2427;0,0280883
2771,2070;0,0281283
2772,1711;0,0281624
2773,1355;0,02819
2774,0996;0,0282124
2775,0640;0,0282331
2776,0281;0,0282566
2776,9924;0,0282872
2777,9565;0,0283262
2778,9209;0,0283716
2779,8850;0,0284196
2780,8494;0,0284668
2781,8135;0,0285127
2782,7778;0,0285592
2783,7419;0,0286079
2784,7063;0,0286577
2785,6704;0,0287042
2786,6348;0,0287423
2787,5989;0,0287703
2788,5632;0,0287928
2789,5273;0,0288189
2790,4917;0,0288579
2791,4558;0,0289138
2792,4202;0,0289831
2793,3843;0,0290571
2794,3486;0,0291265
2795,3127;0,0291867
2796,2771;0,0292393
2797,2412;0,0292903
2798,2056;0,0293458
2799,1697;0,0294097
2800,1340;0,029482
2801,0981;0,0295605
2802,0625;0,0296423
2803,0266;0,0297254
2803,9910;0,0298084
2804,9551;0,0298898
2805,9194;0,0299681
2806,8835;0,0300425
2807,8479;0,0301141
2808,8120;0,0301859
2809,7764;0,0302624
2810,7405;0,0303469
2811,7048;0,03044
2812,6689;0,0305393
2813,6333;0,0306409
2814,5974;0,0307422
2815,5618;0,0308436
2816,5259;0,0309481
2817,4902;0,0310591
2818,4543;0,031178
2819,4187;0,031303
2820,3828;0,0314301
2821,3472;0,0315553
2822,3113;0,0316769
2823,2756;0,0317969
2824,2397;0,0319198
2825,2041;0,0320507
2826,1682;0,0321934
2827,1326;0,0323488
2828,0967;0,0325157
2829,0610;0,0326916
2830,0251;0,0328747
2830,9895;0,0330642
2831,9536;0,0332609
2832,9180;0,0334648
2833,8821;0,0336746
2834,8464;0,0338877
2835,8105;0,0341016
2836,7749;0,034316
2837,7390;0,0345346
2838,7034;0,0347637
2839,6675;0,0350108
2840,6318;0,035281
2841,5959;0,0355767
2842,5603;0,0358965
2843,5244;0,0362362
2844,4888;0,0365879
2845,4529;0,0369396
2846,4172;0,0372743
2847,3813;0,0375724
2848,3457;0,0378155
2849,3098;0,0379921
2850,2742;0,0381005
2851,2383;0,0381489
2852,2026;0,0381525
2853,1667;0,0381278
2854,1311;0,0380894
2855,0952;0,0380484
2856,0596;0,0380124
2857,0237;0,0379876
2857,9880;0,037979
2858,9521;0,037991
2859,9165;0,0380265
2860,8806;0,0380859
2861,8450;0,0381672
2862,8091;0,0382668
2863,7734;0,03838
2864,7375;0,0385026
2865,7019;0,0386307
2866,6660;0,0387605
2867,6304;0,0388873
2868,5945;0,0390054
2869,5588;0,0391094
2870,5229;0,0391957
2871,4873;0,0392643
2872,4514;0,0393198
2873,4158;0,0393692
2874,3799;0,0394197
2875,3442;0,0394755
2876,3083;0,0395374
2877,2727;0,0396034
2878,2368;0,0396714
2879,2012;0,0397409
2880,1653;0,0398134
2881,1296;0,0398906
2882,0938;0,0399733
2883,0581;0,0400599
2884,0222;0,0401473
2884,9866;0,0402318
2885,9507;0,0403106
2886,9150;0,0403831
2887,8792;0,0404505
2888,8435;0,0405157
2889,8076;0,0405822
2890,7720;0,0406531
2891,7361;0,0407294
2892,7004;0,0408097
2893,6646;0,0408912
2894,6289;0,0409709
2895,5930;0,0410474
2896,5574;0,041121
2897,5215;0,0411924
2898,4858;0,0412599
2899,4500;0,0413195
2900,4143;0,041366
2901,3784;0,0413968
2902,3428;0,0414149
2903,3069;0,0414286
2904,2712;0,0414482
2905,2354;0,0414822
2906,1997;0,0415338
2907,1638;0,0416021
2908,1282;0,0416851
2909,0923;0,0417827
2910,0566;0,0418966
2911,0208;0,0420277
2911,9851;0,0421716
2912,9492;0,0423173
2913,9136;0,042448
2914,8777;0,0425466
2915,8420;0,0426006
2916,8062;0,042605
2917,7705;0,0425617
2918,7346;0,0424762
2919,6990;0,0423547
2920,6631;0,0422023
2921,6274;0,0420242
2922,5916;0,0418258
2923,5559;0,0416138
2924,5200;0,0413943
2925,4844;0,0411717
2926,4485;0,0409485
2927,4128;0,0407266
2928,3770;0,0405089
2929,3413;0,0403003
2930,3054;0,0401057
2931,2698;0,0399276
2932,2339;0,039764
2933,1982;0,0396089
2934,1624;0,0394551
2935,1267;0,0392974
2936,0908;0,0391344
2937,0552;0,0389674
2938,0193;0,0387982
2938,9836;0,0386263
2939,9478;0,038448
2940,9121;0,0382576
2941,8762;0,0380505
2942,8406;0,0378262
2943,8047;0,0375899
2944,7690;0,0373514
2945,7332;0,0371214
2946,6975;0,0369072
2947,6616;0,0367099
2948,6260;0,036525
2949,5901;0,036346
2950,5544;0,0361683
2951,5186;0,0359915
2952,4829;0,0358185
2953,4470;0,0356529
2954,4114;0,0354959
2955,3755;0,0353456
2956,3398;0,0351986
2957,3040;0,0350526
2958,2683;0,0349069
2959,2324;0,0347627
2960,1968;0,0346209
2961,1609;0,0344817
2962,1252;0,0343447
2963,0894;0,0342095
2964,0537;0,0340769
2965,0178;0,0339478
2965,9822;0,0338224
2966,9463;0,0336982
2967,9106;0,0335708
2968,8748;0,0334349
2969,8391;0,0332868
2970,8032;0,0331268
2971,7676;0,0329599
2972,7317;0,032795
2973,6960;0,0326409
2974,6602;0,0325037
2975,6245;0,032384
2976,5886;0,0322776
2977,5530;0,0321789
2978,5171;0,0320839
2979,4814;0,0319925
2980,4456;0,0319082
2981,4099;0,0318349
2982,3740;0,0317747
2983,3384;0,0317265
2984,3025;0,0316874
2985,2668;0,0316537
2986,2310;0,0316223
2987,1953;0,0315909
2988,1594;0,0315576
2989,1238;0,0315216
2990,0879;0,031484
2991,0522;0,0314488
2992,0164;0,0314219
2992,9807;0,0314091
2993,9448;0,0314139
2994,9092;0,0314358
2995,8733;0,0314714
2996,8376;0,0315157
2997,8018;0,0315645
2998,7661;0,0316142
2999,7302;0,031662
3000,6946;0,0317053
3001,6587;0,0317421
3002,6230;0,0317724
3003,5872;0,0317982
3004,5515;0,0318234
3005,5156;0,0318518
3006,4800;0,0318847
3007,4441;0,0319206
3008,4084;0,0319555
3009,3726;0,0319852
3010,3369;0,0320069
3011,3010;0,0320209
3012,2654;0,0320303
3013,2295;0,03204
3014,1938;0,0320556
3015,1580;0,0320819
3016,1223;0,0321213
3017,0864;0,0321737
3018,0508;0,0322354
3019,0149;0,0323005
3019,9792;0,0323631
3020,9434;0,0324191
3021,9077;0,0324689
3022,8718;0,0325164
3023,8362;0,0325676
3024,8003;0,0326271
3025,7646;0,0326957
3026,7288;0,0327698
3027,6931;0,0328429
3028,6572;0,0329088
3029,6216;0,0329639
3030,5857;0,0330086
3031,5500;0,033047
3032,5142;0,0330853
3033,4785;0,0331301
3034,4426;0,0331868
3035,4070;0,0332585
3036,3711;0,0333451
3037,3354;0,0334425
3038,2996;0,0335437
3039,2639;0,0336403
3040,2280;0,0337265
3041,1924;0,0338009
3042,1565;0,0338678
3043,1208;0,0339342
3044,0850;0,0340056
3045,0493;0,0340836
3046,0134;0,0341647
3046,9778;0,034244
3047,9419;0,0343186
3048,9063;0,0343908
3049,8704;0,0344665
3050,8347;0,0345516
3051,7988;0,0346486
3052,7632;0,0347548
3053,7273;0,0348643
3054,6917;0,0349708
3055,6558;0,0350709
3056,6201;0,0351644
3057,5842;0,0352535
3058,5486;0,035341
3059,5127;0,035429
3060,4771;0,0355185
3061,4412;0,0356091
3062,4055;0,0356996
3063,3696;0,0357877
3064,3340;0,0358717
3065,2981;0,035952
3066,2625;0,0360315
3067,2266;0,0361152
3068,1909;0,0362078
3069,1550;0,0363104
3070,1194;0,0364201
3071,0835;0,0365316
3072,0479;0,0366394
3073,0120;0,0367407
3073,9763;0,0368352
3074,9404;0,0369245
3075,9048;0,0370097
3076,8689;0,0370918
3077,8333;0,0371717
3078,7974;0,0372513
3079,7617;0,0373334
3080,7258;0,03742
3081,6902;0,0375113
3082,6543;0,0376048
3083,6187;0,0376969
3084,5828;0,0377846
3085,5471;0,0378678
3086,5112;0,0379494
3087,4756;0,0380337
3088,4397;0,0381245
3089,4041;0,0382228
3090,3682;0,0383263
3091,3325;0,0384313
3092,2966;0,0385352
3093,2610;0,0386382
3094,2251;0,0387428
3095,1895;0,0388515
3096,1536;0,0389631
3097,1179;0,0390725
3098,0820;0,0391728
3099,0464;0,0392602
3100,0105;0,0393372
3100,9749;0,0394129
3101,9390;0,0394984
3102,9033;0,0396007
3103,8674;0,0397192
3104,8318;0,0398472
3105,7959;0,0399764
3106,7603;0,0401017
3107,7244;0,0402229
3108,6887;0,040343
3109,6528;0,0404641
3110,6172;0,0405852
3111,5813;0,0407021
3112,5457;0,0408109
3113,5098;0,0409104
3114,4741;0,0410036
3115,4382;0,041096
3116,4026;0,0411931
3117,3667;0,0412972
3118,3311;0,0414072
3119,2952;0,0415203
3120,2595;0,0416336
3121,2236;0,0417462
3122,1880;0,041859
3123,1521;0,0419746
3124,1165;0,0420955
3125,0806;0,0422231
3126,0449;0,042357
3127,0090;0,0424945
3127,9734;0,0426315
3128,9375;0,0427642
3129,9019;0,0428908
3130,8660;0,0430126
3131,8303;0,0431335
3132,7944;0,0432576
3133,7588;0,0433864
3134,7229;0,0435186
3135,6873;0,0436506
3136,6514;0,0437799
3137,6157;0,0439064
3138,5798;0,0440327
3139,5442;0,0441616
3140,5083;0,0442936
3141,4727;0,0444264
3142,4368;0,0445568
3143,4011;0,0446833
3144,3652;0,0448082
3145,3296;0,0449361
3146,2937;0,0450713
3147,2581;0,0452147
3148,2222;0,0453629
3149,1865;0,04551
3150,1506;0,0456514
3151,1150;0,0457859
3152,0791;0,0459173
3153,0435;0,0460516
3154,0076;0,0461943
3154,9719;0,0463472
3155,9360;0,0465076
3156,9004;0,0466691
3157,8645;0,0468245
3158,8289;0,0469685
3159,7930;0,0471001
3160,7573;0,0472232
3161,7214;0,047345
3162,6858;0,0474734
3163,6499;0,0476138
3164,6143;0,0477668
3165,5784;0,0479281
3166,5427;0,0480907
3167,5068;0,048249
3168,4712;0,0484011
3169,4353;0,0485512
3170,3997;0,0487012
3171,3638;0,0488551
3172,3281;0,0490118
3173,2922;0,0491662
3174,2566;0,0493135
3175,2207;0,0494521
3176,1851;0,0495861
3177,1492;0,0497234
3178,1135;0,0498708
3179,0776;0,0500295
3180,0420;0,0501947
3181,0061;0,0503575
3181,9705;0,050511
3182,9346;0,050654
3183,8989;0,0507909
3184,8630;0,0509286
3185,8274;0,0510717
3186,7915;0,0512198
3187,7559;0,051369
3188,7200;0,0515164
3189,6843;0,0516629
3190,6484;0,0518135
3191,6128;0,0519726
3192,5769;0,0521397
3193,5413;0,052308
3194,5054;0,0524673
3195,4697;0,0526106
3196,4338;0,0527387
3197,3982;0,0528602
3198,3623;0,0529863
3199,3267;0,0531254
3200,2908;0,0532784
3201,2551;0,0534411
3202,2192;0,0536066
3203,1836;0,0537699
3204,1477;0,0539283
3205,1121;0,0540813
3206,0762;0,0542294
3207,0405;0,0543737
3208,0046;0,0545164
3208,9690;0,0546602
3209,9331;0,0548075
3210,8975;0,0549594
3211,8616;0,0551149
3212,8259;0,0552725
3213,7900;0,0554304
3214,7544;0,0555875
3215,7185;0,0557428
3216,6829;0,0558948
3217,6470;0,0560418
3218,6113;0,0561839
3219,5754;0,0563237
3220,5398;0,0564656
3221,5039;0,0566138
3222,4683;0,0567698
3223,4324;0,0569313
3224,3967;0,0570935
3225,3608;0,0572523
3226,3252;0,0574055
3227,2893;0,0575539
3228,2537;0,0577
3229,2178;0,057846
3230,1821;0,0579932
3231,1462;0,0581417
3232,1106;0,0582905
3233,0747;0,0584387
3234,0391;0,0585863
3235,0032;0,0587351
3235,9675;0,0588883
3236,9316;0,0590494
3237,8960;0,0592197
3238,8601;0,0593961
3239,8245;0,0595715
3240,7886;0,0597375
3241,7529;0,0598891
3242,7170;0,0600273
3243,6814;0,0601598
3244,6455;0,0602969
3245,6099;0,0604474
3246,5740;0,0606143
3247,5383;0,0607949
3248,5024;0,0609828
3249,4668;0,0611712
3250,4309;0,061355
3251,3953;0,061532
3252,3594;0,0617026
3253,3237;0,0618692
3254,2878;0,0620351
3255,2522;0,0622025
3256,2163;0,0623723
3257,1807;0,0625439
3258,1448;0,0627168
3259,1091;0,0628914
3260,0732;0,063069
3261,0376;0,0632514
3262,0017;0,063439
3262,9661;0,0636306
3263,9302;0,0638234
3264,8945;0,0640143
3265,8586;0,0641999
3266,8230;0,0643774
3267,7871;0,0645442
3268,7515;0,0646981
3269,7156;0,0648382
3270,6799;0,0649648
3271,6440;0,0650801
3272,6084;0,0651865
3273,5725;0,0652865
3274,5369;0,0653825
3275,5010;0,0654768
3276,4653;0,0655719
3277,4294;0,0656695
3278,3938;0,0657692
3279,3579;0,0658684
3280,3223;0,0659636
3281,2864;0,0660519
3282,2507;0,0661332
3283,2148;0,0662096
3284,1792;0,066284
3285,1433;0,0663575
3286,1077;0,0664288
3287,0718;0,0664953
3288,0361;0,0665545
3289,0002;0,0666055
3289,9646;0,0666492
3290,9287;0,0666869
3291,8931;0,0667198
3292,8572;0,0667481
3293,8215;0,0667723
3294,7856;0,0667931
3295,7500;0,0668122
3296,7141;0,0668317
3297,6785;0,0668536
3298,6426;0,0668795
3299,6069;0,0669099
3300,5710;0,0669437
3301,5354;0,0669784
3302,4995;0,0670105
3303,4639;0,0670369
3304,4280;0,0670566
3305,3923;0,0670709
3306,3564;0,067083
3307,3208;0,0670958
3308,2849;0,06711
3309,2493;0,0671248
3310,2134;0,067139
3311,1777;0,0671536
3312,1418;0,0671723
3313,1062;0,0672006
3314,0703;0,0672434
3315,0347;0,0673028
3315,9988;0,0673782
3316,9631;0,0674671
3317,9272;0,0675671
3318,8916;0,0676753
3319,8557;0,0677881
3320,8201;0,0679005
3321,7842;0,0680072
3322,7485;0,0681041
3323,7126;0,0681901
3324,6770;0,0682672
3325,6411;0,0683391
3326,6055;0,0684089
3327,5696;0,0684779
3328,5339;0,0685456
3329,4980;0,0686112
3330,4624;0,0686743
3331,4265;0,0687349
3332,3909;0,0687918
3333,3550;0,0688415
3334,3193;0,0688778
3335,2834;0,0688934
3336,2478;0,0688822
3337,2119;0,0688424
3338,1763;0,0687769
3339,1404;0,0686935
3340,1047;0,0686012
3341,0688;0,0685083
3342,0332;0,0684192
3342,9973;0,068334
3343,9617;0,0682491
3344,9258;0,0681586
3345,8901;0,0680577
3346,8542;0,0679439
3347,8186;0,0678178
3348,7827;0,0676825
3349,7471;0,0675411
3350,7112;0,067395
3351,6755;0,0672433
3352,6396;0,0670844
3353,6040;0,0669181
3354,5681;0,0667474
3355,5325;0,0665777
3356,4966;0,0664141
3357,4609;0,0662588
3358,4250;0,0661102
3359,3894;0,065965
3360,3535;0,065821
3361,3179;0,0656782
3362,2820;0,0655384
3363,2463;0,0654023
3364,2104;0,0652672
3365,1748;0,0651276
3366,1389;0,0649784
3367,1033;0,0648179
3368,0674;0,0646493
3369,0317;0,0644789
3369,9958;0,0643119
3370,9602;0,06415
3371,9243;0,0639914
3372,8887;0,0638322
3373,8528;0,0636694
3374,8171;0,0635028
3375,7813;0,0633351
3376,7456;0,0631698
3377,7097;0,0630099
3378,6741;0,0628558
3379,6382;0,062705
3380,6025;0,0625538
3381,5667;0,0623995
3382,5310;0,0622422
3383,4951;0,0620857
3384,4595;0,0619355
3385,4236;0,061796
3386,3879;0,0616672
3387,3521;0,061545
3388,3164;0,061423
3389,2805;0,0612955
3390,2449;0,06116
3391,2090;0,0610163
3392,1733;0,0608656
3393,1375;0,0607091
3394,1018;0,0605481
3395,0659;0,0603852
3396,0303;0,0602252
3396,9944;0,0600729
3397,9587;0,0599299
3398,9229;0,0597921
3399,8872;0,0596506
3400,8513;0,0594964
3401,8157;0,0593251
3402,7798;0,0591398
3403,7441;0,0589494
3404,7083;0,058764
3405,6726;0,05859
3406,6367;0,0584274
3407,6011;0,0582705
3408,5652;0,0581108
3409,5295;0,057941
3410,4937;0,0577574
3411,4580;0,0575621
3412,4221;0,0573617
3413,3865;0,057164
3414,3506;0,0569734
3415,3149;0,0567877
3416,2791;0,0565981
3417,2434;0,0563935
3418,2075;0,0561677
3419,1719;0,0559243
3420,1360;0,0556767
3421,1003;0,0554424
3422,0645;0,0552337
3423,0288;0,0550517
3423,9929;0,0548861
3424,9573;0,054721
3425,9214;0,0545421
3426,8857;0,0543421
3427,8499;0,054123
3428,8142;0,0538942
3429,7783;0,0536671
3430,7427;0,0534495
3431,7068;0,0532429
3432,6711;0,0530431
3433,6353;0,0528444
3434,5996;0,0526426
3435,5637;0,0524373
3436,5281;0,0522303
3437,4922;0,052024
3438,4565;0,0518201
3439,4207;0,0516195
3440,3850;0,0514221
3441,3491;0,0512249
3442,3135;0,0510208
3443,2776;0,0508001
3444,2419;0,0505553
3445,2061;0,0502883
3446,1704;0,0500138
3447,1345;0,0497543
3448,0989;0,0495286
3449,0630;0,0493411
3450,0273;0,0491798
3450,9915;0,0490249
3451,9558;0,0488596
3452,9199;0,0486777
3453,8843;0,0484833
3454,8484;0,0482856
3455,8127;0,0480907
3456,7769;0,0478973
3457,7412;0,0476986
3458,7053;0,0474877
3459,6697;0,0472631
3460,6338;0,0470304
3461,5981;0,0467989
3462,5623;0,0465763
3463,5266;0,0463642
3464,4907;0,0461593
3465,4551;0,0459567
3466,4192;0,0457548
3467,3835;0,0455562
3468,3477;0,0453643
3469,3120;0,045178
3470,2761;0,0449898
3471,2405;0,0447895
3472,2046;0,0445725
3473,1689;0,0443457
3474,1331;0,0441261
3475,0974;0,0439303
3476,0615;0,0437622
3477,0259;0,0436078
3477,9900;0,0434422
3478,9543;0,0432446
3479,9185;0,0430121
3480,8828;0,0427632
3481,8469;0,0425266
3482,8113;0,0423224
3483,7754;0,0421496
3484,7397;0,0419889
3485,7039;0,0418167
3486,6682;0,0416199
3487,6323;0,041403
3488,5967;0,0411835
3489,5608;0,0409793
3490,5251;0,040797
3491,4893;0,0406291
3492,4536;0,040461
3493,4177;0,0402832
3494,3821;0,0400993
3495,3462;0,0399251
3496,3105;0,0397766
3497,2747;0,0396543
3498,2390;0,0395365
3499,2031;0,039387
3500,1675;0,0391746
3501,1316;0,038895
3502,0959;0,0385816
3503,0601;0,0382914
3504,0244;0,0380698
3504,9885;0,0379227
3505,9529;0,0378171
3506,9170;0,0377062
3507,8813;0,0375564
3508,8455;0,0373632
3509,8098;0,0371492
3510,7739;0,0369449
3511,7383;0,0367678
3512,7024;0,0366151
3513,6667;0,0364733
3514,6309;0,0363313
3515,5952;0,0361878
3516,5593;0,0360486
3517,5237;0,0359172
3518,4878;0,0357891
3519,4521;0,0356527
3520,4163;0,0354969
3521,3806;0,0353188
3522,3447;0,0351257
3523,3091;0,0349283
3524,2732;0,0347317
3525,2375;0,034531
3526,2017;0,0343174
3527,1660;0,0340899
3528,1301;0,0338621
3529,0945;0,033657
3530,0586;0,0334915
3531,0229;0,0333647
3531,9871;0,033257
3532,9514;0,0331409
3533,9155;0,0329954
3534,8799;0,0328179
3535,8440;0,0326257
3536,8083;0,0324474
3537,7725;0,0323063
3538,7368;0,0322082
3539,7009;0,032139
3540,6653;0,0320708
3541,6294;0,0319703
3542,5938;0,0318097
3543,5579;0,0315806
3544,5222;0,0313056
3545,4863;0,0310331
3546,4507;0,0308092
3547,4148;0,0306481
3548,3792;0,0305266
3549,3433;0,0304025
3550,3076;0,0302412
3551,2717;0,0300361
3552,2361;0,0298146
3553,2002;0,029622
3554,1646;0,0294892
3555,1287;0,0294116
3556,0930;0,0293551
3557,0571;0,0292799
3558,0215;0,0291666
3558,9856;0,0290302
3559,9500;0,0289112
3560,9141;0,0288448
3561,8784;0,0288285
3562,8425;0,0288099
3563,8069;0,0287011
3564,7710;0,0284208
3565,7354;0,0279638
3566,6995;0,0274467
3567,6638;0,0270399
3568,6279;0,0268297
3569,5923;0,0267793
3570,5564;0,0267976
3571,5208;0,0268061
3572,4849;0,0267629
3573,4492;0,0266638
3574,4133;0,0265317
3575,3777;0,0263952
3576,3418;0,0262686
3577,3062;0,0261492
3578,2703;0,0260327
3579,2346;0,0259305
3580,1987;0,0258685
3581,1631;0,0258672
3582,1272;0,0259161
3583,0916;0,0259635
3584,0557;0,0259262
3585,0200;0,0257255
3585,9841;0,0253526
3586,9485;0,0249178
3587,9126;0,0245938
3588,8770;0,0244747
3589,8411;0,0245204
3590,8054;0,0246212
3591,7695;0,0246729
3592,7339;0,0246161
3593,6980;0,0244555
3594,6624;0,0242518
3595,6265;0,0240748
3596,5908;0,0239478
3597,5549;0,0238388
3598,5193;0,0237016
3599,4834;0,0235245
3600,4478;0,0233466
3601,4119;0,0232272
3602,3762;0,023196
3603,3403;0,0232276
3604,3047;0,0232564
3605,2688;0,0232094
3606,2332;0,0230442
3607,1973;0,0227754
3608,1616;0,0224667
3609,1257;0,0221848
3610,0901;0,0219592
3611,0542;0,0217865
3612,0186;0,0216598
3612,9827;0,0215843
3613,9470;0,0215647
3614,9111;0,0215809
3615,8755;0,0215798
3616,8396;0,0214948
3617,8040;0,0212931
3618,7681;0,0210222
3619,7324;0,0208035
3620,6965;0,0207493
3621,6609;0,0208893
3622,6250;0,0211754
3623,5894;0,0215207
3624,5535;0,0218172
3625,5178;0,0219329
3626,4819;0,0217339
3627,4463;0,021181
3628,4104;0,0204491
3629,3748;0,0198425
3630,3389;0,0195202
3631,3032;0,0194221
3632,2673;0,0194169
3633,2317;0,0194095
3634,1958;0,0193589
3635,1602;0,0192648
3636,1243;0,0191461
3637,0886;0,0190215
3638,0527;0,0189015
3639,0171;0,0187944
3639,9812;0,0187188
3640,9456;0,0187049
3641,9097;0,018781
3642,8740;0,018953
3643,8381;0,0191873
3644,8025;0,0194
3645,7666;0,0194509
3646,7310;0,0191724
3647,6951;0,018504
3648,6594;0,0176796
3649,6235;0,0171078
3650,5879;0,0169535
3651,5520;0,0170783
3652,5164;0,0172821
3653,4805;0,0174215
3654,4448;0,0174172
3655,4089;0,0172622
3656,3733;0,0170294
3657,3374;0,0168277
3658,3018;0,016724
3659,2659;0,0167121
3660,2302;0,0167496
3661,1943;0,0168071
3662,1587;0,0168891
3663,1228;0,017021
3664,0872;0,0172156
3665,0513;0,0174445
3666,0156;0,0176372
3666,9797;0,0177078
3667,9441;0,017614
3668,9082;0,0174208
3669,8726;0,0172759
3670,8367;0,0172723
3671,8010;0,0173597
3672,7651;0,0173921
3673,7295;0,0172288
3674,6936;0,0168418
3675,6580;0,0163801
3676,6221;0,0160588
3677,5864;0,0159637
3678,5505;0,0160354
3679,5149;0,0161847
3680,4790;0,0163619
3681,4434;0,0165594
3682,4075;0,0167903
3683,3718;0,0170602
3684,3359;0,0173442
3685,3003;0,0175788
3686,2644;0,0176711
3687,2288;0,0175432
3688,1929;0,0172135
3689,1572;0,0168409
3690,1213;0,0166125
3691,0857;0,0165851
3692,0498;0,0166932
3693,0142;0,0168539
3693,9783;0,0170205
3694,9426;0,0171798
3695,9067;0,0173316
3696,8711;0,0174691
3697,8352;0,0175692
3698,7996;0,0175984
3699,7637;0,0175367
3700,7280;0,0174077
3701,6921;0,0172851
3702,6565;0,0172552
3703,6206;0,0173628
3704,5850;0,0175923
3705,5491;0,0178836
3706,5134;0,0181495
3707,4775;0,0182815
3708,4419;0,0181668
3709,4060;0,0177512
3710,3704;0,0171335
3711,3345;0,0165597
3712,2988;0,0162406
3713,2629;0,0162093
3714,2273;0,0163783
3715,1914;0,0166461
3716,1558;0,0169397
3717,1199;0,017214
3718,0842;0,0174458
3719,0483;0,0176302
3720,0127;0,017773
3720,9768;0,0178786
3721,9412;0,0179431
3722,9053;0,017963
3723,8696;0,0179525
3724,8337;0,0179507
3725,7981;0,018004
3726,7622;0,0181374
3727,7266;0,0183417
3728,6907;0,0185806
3729,6550;0,0188025
3730,6191;0,0189441
3731,5835;0,0189326
3732,5476;0,0187043
3733,5120;0,0182542
3734,4761;0,0176953
3735,4404;0,0172291
3736,4045;0,0170055
3737,3689;0,0170412
3738,3330;0,0172692
3739,2974;0,0176015
3740,2615;0,0179393
3741,2258;0,0181643
3742,1899;0,0181598
3743,1543;0,0178984
3744,1184;0,0175295
3745,0828;0,0172864
3746,0469;0,0172645
3747,0112;0,0173667
3747,9753;0,0174089
3748,9397;0,01723
3749,9038;0,0168076
3750,8682;0,0163334
3751,8323;0,016061
3752,7966;0,0160609
3753,7607;0,0162281
3754,7251;0,0164247
3755,6892;0,0165477
3756,6536;0,0165432
3757,6177;0,0164248
3758,5820;0,0162748
3759,5461;0,0161927
3760,5105;0,0162242
3761,4746;0,0163471
3762,4390;0,0165074
3763,4031;0,0166554
3764,3674;0,0167588
3765,3315;0,0168019
3766,2959;0,0167779
3767,2600;0,0166834
3768,2244;0,016525
3769,1885;0,0163349
3770,1528;0,0161734
3771,1169;0,0161034
3772,0813;0,0161547
3773,0454;0,0163091
3774,0098;0,0165121
3774,9739;0,0166941
3775,9382;0,0167912
3776,9023;0,0167709
3777,8667;0,0166569
3778,8308;0,0165224
3779,7952;0,0164396
3780,7593;0,0164301
3781,7236;0,0164642
3782,6877;0,0164964
3783,6521;0,0164958
3784,6162;0,0164588
3785,5806;0,0164047
3786,5447;0,0163625
3787,5090;0,0163573
3788,4731;0,0164025
3789,4375;0,0164979
3790,4016;0,0166291
3791,3660;0,0167696
3792,3301;0,0168903
3793,2944;0,0169746
3794,2585;0,0170322
3795,2229;0,0170962
3796,1870;0,0171945
3797,1514;0,0173152
3798,1155;0,017398
3799,0798;0,0173678
3800,0439;0,0171997
3801,0083;0,0169633
3801,9724;0,0167766
3802,9368;0,0166991
3803,9009;0,0166904
3804,8652;0,0166631
3805,8293;0,0165594
3806,7937;0,0164051
3807,7578;0,0162998
3808,7222;0,0163353
3809,6863;0,0165271
3810,6506;0,0168201
3811,6147;0,0171298
3812,5791;0,0173716
3813,5432;0,0174924
3814,5076;0,0175042
3815,4717;0,0174801
3816,4360;0,0174801
3817,4001;0,0174842
3818,3645;0,0174102
3819,3286;0,0171966
3820,2930;0,0168788
3821,2571;0,0165828
3822,2214;0,016421
3823,1855;0,0164095
3824,1499;0,0164934
3825,1140;0,0166107
3826,0784;0,0167243
3827,0425;0,0168243
3828,0068;0,0169181
3828,9709;0,017017
3829,9353;0,0171281
3830,8994;0,0172538
3831,8638;0,0173935
3832,8279;0,0175394
3833,7922;0,0176669
3834,7563;0,01773
3835,7207;0,0176752
3836,6848;0,0174756
3837,6492;0,017168
3838,6133;0,016845
3839,5776;0,0165936
3840,5417;0,0164431
3841,5061;0,0163744
3842,4702;0,0163621
3843,4346;0,0164029
3844,3987;0,0165168
3845,3630;0,0167308
3846,3271;0,0170598
3847,2915;0,0174953
3848,2556;0,0179958
3849,2200;0,0184699
3850,1841;0,0187552
3851,1484;0,0186377
3852,1125;0,0180114
3853,0769;0,0171266
3854,0410;0,0164582
3855,0054;0,0162132
3855,9695;0,0162867
3856,9338;0,0165286
3857,8979;0,0168396
3858,8623;0,0171464
3859,8264;0,0173784
3860,7908;0,0174763
3861,7549;0,0174283
3862,7192;0,0172988
3863,6833;0,0171989
3864,6477;0,0172075
3865,6118;0,0173208
3866,5762;0,0174701
3867,5403;0,0175661
3868,5046;0,0175397
3869,4688;0,0173752
3870,4331;0,0171244
3871,3972;0,0168823
3872,3616;0,0167349
3873,3257;0,0167205
3874,2900;0,0168275
3875,2542;0,0170107
3876,2185;0,0172091
3877,1826;0,0173616
3878,1470;0,0174272
3879,1111;0,0174054
3880,0754;0,0173384
3881,0396;0,0172783
3882,0039;0,0172445
3882,9680;0,0172173
3883,9324;0,0171743
3884,8965;0,0171247
3885,8608;0,0171043
3886,8250;0,0171349
3887,7893;0,0171933
3888,7534;0,0172199
3889,7178;0,0171584
3890,6819;0,0170088
3891,6462;0,0168511
3892,6104;0,0167963
3893,5747;0,0168989
3894,5388;0,0171325
3895,5032;0,0174269
3896,4673;0,0177059
3897,4316;0,0179073
3898,3958;0,0179956
3899,3601;0,0179652
3900,3242;0,0178277
3901,2886;0,017597
3902,2527;0,0172989
3903,2170;0,0169894
3904,1812;0,0167427
3905,1455;0,0166087
3906,1096;0,0165881
3907,0740;0,0166469
3908,0381;0,0167454
3909,0024;0,016856
3909,9666;0,0169688
3910,9309;0,0170854
3911,8950;0,0172066
3912,8594;0,0173204
3913,8235;0,0173994
3914,7878;0,0174138
3915,7520;0,0173547
3916,7163;0,0172517
3917,6804;0,0171611
3918,6448;0,0171271
3919,6089;0,0171507
3920,5732;0,0171952
3921,5374;0,0172152
3922,5017;0,0171862
3923,4658;0,0171224
3924,4302;0,0170692
3925,3943;0,0170703
3926,3586;0,0171344
3927,3228;0,0172301
3928,2871;0,0173057
3929,2512;0,0173164
3930,2156;0,0172489
3931,1797;0,0171315
3932,1440;0,0170179
3933,1082;0,0169535
3934,0725;0,0169535
3935,0366;0,0170074
3936,0010;0,0170938
3936,9651;0,0171889
3937,9294;0,0172683
3938,8936;0,0173095
3939,8579;0,0172998
3940,8220;0,0172469
3941,7864;0,0171819
3942,7505;0,0171447
3943,7148;0,0171577
3944,6790;0,0172108
3945,6433;0,0172677
3946,6074;0,0172892
3947,5718;0,0172566
3948,5359;0,0171846
3949,5002;0,0171126
3950,4644;0,0170773
3951,4287;0,0170898
3952,3928;0,0171332
3953,3572;0,017179
3954,3213;0,0172056
3955,2856;0,0172081
3956,2498;0,0171959
3957,2141;0,017183
3958,1782;0,0171769
3959,1426;0,0171763
3960,1067;0,0171764
3961,0710;0,0171753
3962,0352;0,0171763
3962,9995;0,0171844
3963,9636;0,0172
3964,9280;0,0172181
3965,8921;0,0172311
3966,8564;0,0172354
3967,8206;0,0172335
3968,7849;0,0172329
3969,7490;0,0172393
3970,7134;0,0172519
3971,6775;0,0172631
3972,6418;0,0172644
3973,6060;0,0172535
3974,5703;0,0172368
3975,5344;0,017226
3976,4988;0,0172304
3977,4629;0,0172505
3978,4272;0,0172776
3979,3914;0,0172993
3980,3557;0,0173064
3981,3198;0,0172988
3982,2842;0,0172847
3983,2483;0,0172756
3984,2126;0,0172796
3985,1768;0,0172972
3986,1411;0,0173219
3987,1052;0,0173442
3988,0696;0,0173574
3989,0337;0,0173597
3989,9980;0,0173539
3990,9622;0,0173444
3991,9265;0,0173343
3992,8906;0,0173254
3993,8550;0,0173188
3994,8191;0,0173165
3995,7834;0,0173204
3996,7476;0,0173305
3997,7119;0,0173434
3998,6760;0,0173541
3999,6404;0,0173592
4000,6045;0,0172528

##### Extended Information
[Comments]
Sample name
Comment
Username
Division
Organization;UNIVERSIDAD INDUSTRIAL DE SANTANDER

[Detailed Information]
Creation date;29/01/2025 2:35 p.m.

Data array type;Linear data array
Horizontal axis;Wavenumber [cm-1]
Vertical axis;Abs
Start;399,193 cm-1
End;4000,6 cm-1
Data interval;0,964233 cm-1
Data points;3736    

[Measurement Information]
Model name;FT/IR-4X1typeA
Serial No.;A035162111

Accessory;ATR PRO 4X
Accessory S/N;A021162126
Incident angle;45 deg

Measurement date;29/01/2025 2:35 p.m.

Light source;Standard
Detector;TGS
Accumulation;Auto (74)
Resolution;4 cm-1
Zero filling;On
Apodization;Cosine
Gain;Auto (8)
Aperture;Auto (7 mm)
Scan speed;Auto (2 mm/sec)
Filter;Auto (12800 Hz)

