TITLE;
DATA TYPE;INFRARED SPECTRUM
ORIGIN;JASCO
OWNER;
DATE;25/01/29
TIME;14:25:56
SPECTROMETER/DATA SYSTEM;
LOCALE;9226
RESOLUTION;
DELTAX;0,964233
XUNITS;1/CM
YUNITS;ABSORBANCE
FIRSTX;  399,1927
LASTX; 4000,6047
NPOINTS;    3736
FIRSTY;     0,14295
MAXY;     0,17688
MINY;     0,01712
XYDATA
399,1927;0,142953
400,1569;0,143079
401,1211;0,143442
402,0854;0,144005
403,0496;0,144567
404,0138;0,144915
404,9781;0,144924
405,9423;0,14462
406,9065;0,144169
407,8708;0,143781
408,8350;0,143592
409,7992;0,143614
410,7635;0,14376
411,7277;0,143927
412,6919;0,144077
413,6562;0,14425
414,6204;0,144536
415,5846;0,145031
416,5489;0,145795
417,5131;0,14679
418,4773;0,147816
419,4416;0,148586
420,4058;0,148986
421,3700;0,149136
422,3343;0,149191
423,2985;0,149213
424,2627;0,149189
425,2270;0,149102
426,1912;0,148981
427,1554;0,148905
428,1197;0,14895
429,0839;0,149146
430,0481;0,149457
431,0124;0,149821
431,9766;0,150197
432,9408;0,150598
433,9051;0,151065
434,8693;0,151604
435,8335;0,152129
436,7978;0,152491
437,7620;0,152553
438,7262;0,152274
439,6905;0,151726
440,6547;0,15105
441,6189;0,150407
442,5832;0,149935
443,5474;0,149719
444,5116;0,149779
445,4759;0,150068
446,4401;0,150486
447,4043;0,15089
448,3686;0,151121
449,3328;0,151057
450,2970;0,150655
451,2613;0,149995
452,2255;0,149246
453,1897;0,148598
454,1540;0,148194
455,1182;0,148098
456,0824;0,148307
457,0467;0,148758
458,0109;0,149344
458,9751;0,149933
459,9394;0,150409
460,9036;0,150704
461,8678;0,150797
462,8321;0,150702
463,7963;0,150464
464,7605;0,150165
465,7248;0,149909
466,6890;0,149781
467,6532;0,149799
468,6175;0,149895
469,5817;0,149941
470,5459;0,1498
471,5102;0,1494
472,4744;0,148792
473,4386;0,148131
474,4029;0,147585
475,3671;0,147239
476,3313;0,147068
477,2956;0,146989
478,2598;0,146913
479,2240;0,146789
480,1883;0,146626
481,1525;0,146479
482,1167;0,146418
483,0810;0,146489
484,0452;0,146689
485,0094;0,146961
485,9737;0,147226
486,9379;0,147424
487,9021;0,147537
488,8664;0,147583
489,8306;0,147594
490,7948;0,1476
491,7591;0,147619
492,7233;0,147659
493,6875;0,147718
494,6518;0,147794
495,6160;0,147884
496,5802;0,147977
497,5445;0,148059
498,5087;0,14811
499,4729;0,148118
500,4372;0,148083
501,4014;0,148032
502,3656;0,148013
503,3299;0,148079
504,2941;0,148261
505,2583;0,148557
506,2226;0,148929
507,1868;0,14932
508,1510;0,149672
509,1153;0,149945
510,0795;0,150121
511,0437;0,150214
512,0080;0,150254
512,9722;0,150293
513,9365;0,150394
514,9007;0,150621
515,8649;0,151002
516,8292;0,151505
517,7934;0,152019
518,7576;0,152407
519,7219;0,152582
520,6861;0,152562
521,6503;0,152448
522,6146;0,15236
523,5788;0,152377
524,5430;0,152507
525,5073;0,152685
526,4715;0,152809
527,4357;0,152805
528,4000;0,152661
529,3642;0,152422
530,3284;0,152147
531,2927;0,151881
532,2569;0,151639
533,2211;0,151409
534,1854;0,151168
535,1496;0,150902
536,1138;0,150618
537,0781;0,15035
538,0423;0,150136
539,0065;0,149997
539,9708;0,149913
540,9350;0,149829
541,8992;0,149685
542,8635;0,149458
543,8277;0,149189
544,7919;0,148973
545,7562;0,148907
546,7204;0,149037
547,6846;0,149324
548,6489;0,149667
549,6131;0,149969
550,5773;0,150184
551,5416;0,150337
552,5058;0,15049
553,4700;0,15069
554,4343;0,150938
555,3985;0,151189
556,3627;0,151376
557,3270;0,151437
558,2912;0,151328
559,2554;0,151022
560,2197;0,150509
561,1839;0,149808
562,1481;0,148972
563,1124;0,148083
564,0766;0,147229
565,0408;0,146472
566,0051;0,145833
566,9693;0,145298
567,9335;0,144842
568,8978;0,144452
569,8620;0,144126
570,8262;0,143861
571,7905;0,143642
572,7547;0,143434
573,7189;0,143202
574,6832;0,142925
575,6474;0,142612
576,6116;0,142299
577,5759;0,142028
578,5401;0,141826
579,5043;0,141695
580,4686;0,141613
581,4328;0,141546
582,3970;0,141467
583,3613;0,141365
584,3255;0,141247
585,2897;0,141135
586,2540;0,141053
587,2182;0,141009
588,1824;0,140995
589,1467;0,140989
590,1109;0,140962
591,0751;0,140894
592,0394;0,140784
593,0036;0,140647
593,9678;0,140502
594,9321;0,140362
595,8963;0,140219
596,8605;0,14005
597,8248;0,139836
598,7890;0,139567
599,7532;0,139257
600,7175;0,138929
601,6817;0,138605
602,6459;0,138291
603,6102;0,137976
604,5744;0,137646
605,5386;0,137293
606,5029;0,136918
607,4671;0,136524
608,4313;0,136113
609,3956;0,135681
610,3598;0,135227
611,3240;0,134758
612,2883;0,13429
613,2525;0,133835
614,2167;0,133392
615,1810;0,132938
616,1452;0,132435
617,1094;0,131845
618,0737;0,131151
619,0379;0,130358
620,0021;0,129492
620,9664;0,128582
621,9306;0,127659
622,8948;0,126763
623,8591;0,125937
624,8233;0,125219
625,7875;0,124622
626,7518;0,124116
627,7160;0,123643
628,6802;0,123145
629,6445;0,122592
630,6087;0,121993
631,5729;0,121386
632,5372;0,120813
633,5014;0,120297
634,4656;0,119838
635,4299;0,119415
636,3941;0,11901
637,3583;0,118612
638,3226;0,118221
639,2868;0,117839
640,2510;0,117469
641,2153;0,117112
642,1795;0,116779
643,1437;0,116481
644,1080;0,116228
645,0722;0,116011
646,0364;0,115799
647,0007;0,11555
647,9649;0,115234
648,9291;0,114862
649,8934;0,114485
650,8576;0,114173
651,8218;0,113975
652,7861;0,113894
653,7503;0,113902
654,7145;0,113957
655,6788;0,114034
656,6430;0,11413
657,6072;0,114246
658,5715;0,114367
659,5357;0,114455
660,4999;0,114469
661,4642;0,114396
662,4284;0,114272
663,3926;0,114155
664,3569;0,11409
665,3211;0,114087
666,2853;0,114087
667,2496;0,113917
668,2138;0,113338
669,1780;0,112326
670,1423;0,11117
671,1065;0,110101
672,0707;0,109124
673,0350;0,108158
673,9992;0,107144
674,9634;0,10608
675,9277;0,105005
676,8919;0,103962
677,8561;0,102964
678,8204;0,102
679,7846;0,101065
680,7488;0,100185
681,7131;0,0993988
682,6773;0,0987305
683,6415;0,0981704
684,6058;0,0976831
685,5700;0,0972312
686,5342;0,096793
687,4985;0,0963675
688,4627;0,0959672
689,4269;0,0956062
690,3912;0,0952914
691,3554;0,095016
692,3196;0,0947604
693,2839;0,0944994
694,2481;0,0942149
695,2123;0,093905
696,1766;0,0935841
697,1408;0,0932719
698,1050;0,0929791
699,0693;0,0926992
700,0335;0,0924119
700,9977;0,0920941
701,9620;0,0917316
702,9262;0,0913233
703,8904;0,0908797
704,8547;0,0904184
705,8189;0,0899589
706,7831;0,0895185
707,7474;0,0891084
708,7116;0,0887307
709,6758;0,0883753
710,6401;0,0880231
711,6043;0,0876534
712,5685;0,0872547
713,5328;0,086832
714,4970;0,0864051
715,4612;0,0859737
716,4255;0,0855923
717,3897;0,0852207
718,3539;0,0848226
719,3182;0,0843594
720,2824;0,0838123
721,2466;0,0831939
722,2109;0,0825384
723,1751;0,0818798
724,1393;0,0812367
725,1036;0,0806132
726,0678;0,0800097
727,0320;0,0794313
727,9963;0,0788856
728,9605;0,0783734
729,9247;0,0778827
730,8890;0,0773939
731,8532;0,0768938
732,8174;0,0763892
733,7817;0,0759074
734,7459;0,075482
735,7101;0,0751318
736,6744;0,0748485
737,6386;0,0745989
738,6028;0,0743433
739,5671;0,0740555
740,5313;0,0737344
741,4955;0,0733987
742,4598;0,0730712
743,4240;0,0727619
744,3882;0,0724628
745,3525;0,0721553
746,3167;0,0718252
747,2809;0,0714734
748,2452;0,0711159
749,2094;0,0707742
750,1736;0,0704628
751,1379;0,0701816
752,1021;0,0699178
753,0663;0,0696521
754,0306;0,0693673
754,9948;0,0690529
755,9590;0,0687068
756,9233;0,0683354
757,8875;0,0679529
758,8517;0,0675796
759,8160;0,0672371
760,7802;0,0669407
761,7444;0,0666929
762,7087;0,0664809
763,6729;0,0662819
764,6371;0,0660736
765,6014;0,0658439
766,5656;0,0655946
767,5298;0,0653357
768,4941;0,0650759
769,4583;0,0648158
770,4225;0,0645497
771,3868;0,0642737
772,3510;0,063994
773,3152;0,0637276
774,2795;0,0634931
775,2437;0,063299
776,2079;0,0631367
777,1722;0,0629855
778,1364;0,062825
779,1006;0,0626452
780,0649;0,0624484
781,0291;0,0622415
781,9933;0,0620271
782,9576;0,0618004
783,9218;0,0615553
784,8860;0,0612938
785,8503;0,0610295
786,8145;0,0607831
787,7787;0,0605705
788,7430;0,0603935
789,7072;0,0602398
790,6714;0,060091
791,6357;0,0599342
792,5999;0,0597684
793,5641;0,0596033
794,5284;0,0594515
795,4926;0,0593212
796,4568;0,059213
797,4211;0,0591228
798,3853;0,059047
799,3495;0,0589846
800,3138;0,0589356
801,2780;0,0588963
802,2422;0,0588579
803,2065;0,0588088
804,1707;0,058741
805,1349;0,0586552
806,0992;0,0585613
807,0634;0,0584721
808,0276;0,0583956
808,9919;0,05833
809,9561;0,058266
810,9203;0,058194
811,8846;0,0581115
812,8488;0,0580253
813,8130;0,057947
814,7773;0,0578849
815,7415;0,0578382
816,7057;0,0577962
817,6700;0,0577449
818,6342;0,0576753
819,5984;0,0575892
820,5627;0,0574994
821,5269;0,057422
822,4911;0,0573677
823,4554;0,0573352
824,4196;0,0573128
825,3839;0,0572866
826,3481;0,05725
827,3123;0,0572083
828,2766;0,0571729
829,2408;0,0571504
830,2050;0,0571331
831,1693;0,0570989
832,1335;0,0570218
833,0977;0,0568876
834,0620;0,0567029
835,0262;0,0564923
835,9904;0,0562861
836,9547;0,0561056
837,9189;0,0559565
838,8831;0,0558316
839,8474;0,0557202
840,8116;0,0556158
841,7758;0,0555177
842,7401;0,055427
843,7043;0,0553427
844,6685;0,0552609
845,6328;0,0551779
846,5970;0,0550947
847,5612;0,0550182
848,5255;0,0549575
849,4897;0,0549191
850,4539;0,0549015
851,4182;0,0548955
852,3824;0,0548882
853,3466;0,0548689
854,3109;0,0548342
855,2751;0,05479
856,2393;0,0547482
857,2036;0,0547224
858,1678;0,054722
859,1320;0,0547487
860,0963;0,0547956
861,0605;0,0548501
862,0247;0,0548997
862,9890;0,0549385
863,9532;0,0549715
864,9174;0,0550141
865,8817;0,0550857
866,8459;0,0551988
867,8101;0,0553518
868,7744;0,0555278
869,7386;0,055701
870,7028;0,0558481
871,6671;0,0559575
872,6313;0,0560309
873,5955;0,0560783
874,5598;0,05611
875,5240;0,0561321
876,4882;0,0561477
877,4525;0,0561611
878,4167;0,0561821
879,3809;0,0562264
880,3452;0,0563106
881,3094;0,0564473
882,2736;0,0566419
883,2379;0,0568933
884,2021;0,0571985
885,1663;0,0575558
886,1306;0,0579667
887,0948;0,0584338
888,0590;0,0589571
889,0233;0,0595298
889,9875;0,0601372
890,9517;0,0607572
891,9160;0,0613638
892,8802;0,0619301
893,8444;0,0624315
894,8087;0,0628473
895,7729;0,0631616
896,7371;0,0633639
897,7014;0,0634492
898,6656;0,0634183
899,6298;0,0632777
900,5941;0,0630394
901,5583;0,0627205
902,5225;0,0623423
903,4868;0,0619298
904,4510;0,0615105
905,4152;0,0611124
906,3795;0,0607618
907,3437;0,0604794
908,3079;0,0602772
909,2722;0,0601568
910,2364;0,0601103
911,2007;0,0601246
912,1649;0,0601858
913,1292;0,0602831
914,0934;0,0604094
915,0576;0,0605595
916,0219;0,0607279
916,9861;0,0609076
917,9503;0,0610919
918,9146;0,0612768
919,8788;0,0614629
920,8430;0,0616542
921,8073;0,0618553
922,7715;0,0620678
923,7357;0,0622886
924,7000;0,0625107
925,6642;0,0627251
926,6284;0,0629243
927,5927;0,0631048
928,5569;0,0632676
929,5211;0,0634176
930,4854;0,0635618
931,4496;0,0637066
932,4138;0,0638565
933,3781;0,0640145
934,3423;0,064183
935,3065;0,0643663
936,2708;0,0645705
937,2350;0,0648041
938,1992;0,065076
939,1635;0,0653949
940,1277;0,0657671
941,0919;0,0661949
942,0562;0,0666756
943,0204;0,0672019
943,9846;0,0677652
944,9489;0,0683604
945,9131;0,06899
946,8773;0,0696637
947,8416;0,0703934
948,8058;0,0711869
949,7700;0,0720443
950,7343;0,07296
951,6985;0,0739288
952,6627;0,0749495
953,6270;0,0760247
954,5912;0,0771546
955,5554;0,0783316
956,5197;0,0795414
957,4839;0,0807693
958,4481;0,0820089
959,4124;0,0832654
960,3766;0,0845498
961,3408;0,0858684
962,3051;0,0872152
963,2693;0,0885733
964,2335;0,0899233
965,1978;0,091255
966,1620;0,0925718
967,1262;0,0938879
968,0905;0,0952213
969,0547;0,0965882
970,0189;0,0980037
970,9832;0,0994855
971,9474;0,101056
972,9116;0,102739
973,8759;0,104554
974,8401;0,106508
975,8043;0,108599
976,7686;0,110815
977,7328;0,113143
978,6970;0,115565
979,6613;0,118046
980,6255;0,120535
981,5897;0,12296
982,5540;0,125241
983,5182;0,127314
984,4824;0,129143
985,4467;0,13073
986,4109;0,132102
987,3751;0,133298
988,3394;0,134353
989,3036;0,135293
990,2678;0,136135
991,2321;0,136893
992,1963;0,137578
993,1605;0,138205
994,1248;0,138787
995,0890;0,139339
996,0532;0,139872
997,0175;0,140403
997,9817;0,140944
998,9459;0,141511
999,9102;0,142114
1000,8744;0,142763
1001,8386;0,14347
1002,8029;0,144245
1003,7671;0,145102
1004,7313;0,146054
1005,6956;0,147113
1006,6598;0,148287
1007,6240;0,149583
1008,5883;0,151004
1009,5525;0,152547
1010,5167;0,154194
1011,4810;0,155915
1012,4452;0,157668
1013,4094;0,159408
1014,3737;0,161095
1015,3379;0,162699
1016,3021;0,164202
1017,2664;0,165589
1018,2306;0,166855
1019,1948;0,167996
1020,1591;0,169022
1021,1233;0,169953
1022,0875;0,170822
1023,0518;0,171662
1024,0160;0,172497
1024,9802;0,173337
1025,9445;0,174166
1026,9087;0,174956
1027,8729;0,175666
1028,8372;0,176253
1029,8014;0,176672
1030,7656;0,176879
1031,7299;0,176824
1032,6941;0,176463
1033,6583;0,175766
1034,6226;0,174741
1035,5868;0,17344
1036,5510;0,171955
1037,5153;0,170407
1038,4795;0,168919
1039,4437;0,167592
1040,4080;0,166492
1041,3722;0,165648
1042,3364;0,165049
1043,3007;0,164656
1044,2649;0,164406
1045,2291;0,164228
1046,1934;0,164054
1047,1576;0,163833
1048,1218;0,163531
1049,0861;0,163127
1050,0503;0,162604
1051,0145;0,16194
1051,9788;0,161115
1052,9430;0,160118
1053,9072;0,158956
1054,8715;0,157648
1055,8357;0,15621
1056,7999;0,154642
1057,7642;0,152919
1058,7284;0,150998
1059,6926;0,148847
1060,6569;0,146467
1061,6211;0,143908
1062,5853;0,141262
1063,5496;0,138639
1064,5138;0,136139
1065,4780;0,133828
1066,4423;0,131737
1067,4065;0,12986
1068,3707;0,128171
1069,3350;0,126633
1070,2992;0,125208
1071,2634;0,123856
1072,2277;0,122546
1073,1919;0,121248
1074,1561;0,119943
1075,1204;0,118618
1076,0846;0,117267
1077,0488;0,11589
1078,0131;0,114497
1078,9773;0,113106
1079,9415;0,111745
1080,9058;0,110448
1081,8700;0,109245
1082,8342;0,108156
1083,7985;0,107186
1084,7627;0,106324
1085,7269;0,105551
1086,6912;0,104846
1087,6554;0,104195
1088,6196;0,103598
1089,5839;0,103063
1090,5481;0,102609
1091,5123;0,102252
1092,4766;0,102004
1093,4408;0,101863
1094,4050;0,101816
1095,3693;0,101841
1096,3335;0,101915
1097,2977;0,102021
1098,2620;0,10215
1099,2262;0,1023
1100,1904;0,10247
1101,1547;0,102651
1102,1189;0,102826
1103,0831;0,102968
1104,0474;0,10305
1105,0116;0,103053
1105,9758;0,102969
1106,9401;0,102803
1107,9043;0,102563
1108,8685;0,102245
1109,8328;0,101832
1110,7970;0,101291
1111,7612;0,100591
1112,7255;0,0997199
1113,6897;0,0987007
1114,6539;0,0975882
1115,6182;0,0964572
1116,5824;0,0953792
1117,5466;0,094402
1118,5109;0,0935384
1119,4751;0,0927662
1120,4393;0,0920386
1121,4036;0,0912978
1122,3678;0,0904887
1123,3320;0,0895684
1124,2963;0,0885119
1125,2605;0,087313
1126,2247;0,0859825
1127,1890;0,0845438
1128,1532;0,0830278
1129,1174;0,0814674
1130,0817;0,0798935
1131,0459;0,0783331
1132,0101;0,0768095
1132,9744;0,0753458
1133,9386;0,0739667
1134,9028;0,0726993
1135,8671;0,0715702
1136,8313;0,0706001
1137,7955;0,0698
1138,7598;0,0691701
1139,7240;0,0687022
1140,6882;0,0683832
1141,6525;0,068198
1142,6167;0,0681294
1143,5809;0,068158
1144,5452;0,0682637
1145,5094;0,0684287
1146,4736;0,0686416
1147,4379;0,0688992
1148,4021;0,0692035
1149,3663;0,0695562
1150,3306;0,069953
1151,2948;0,0703811
1152,2590;0,0708203
1153,2233;0,0712471
1154,1875;0,0716377
1155,1517;0,0719675
1156,1160;0,0722091
1157,0802;0,0723286
1158,0444;0,0722845
1159,0087;0,0720301
1159,9729;0,0715206
1160,9371;0,0707229
1161,9014;0,0696252
1162,8656;0,0682427
1163,8298;0,0666175
1164,7941;0,0648123
1165,7583;0,0629005
1166,7225;0,0609556
1167,6868;0,0590425
1168,6510;0,0572123
1169,6152;0,0555
1170,5795;0,0539257
1171,5437;0,0524978
1172,5079;0,0512177
1173,4722;0,0500842
1174,4364;0,049095
1175,4006;0,048246
1176,3649;0,0475295
1177,3291;0,046933
1178,2933;0,0464397
1179,2576;0,0460315
1180,2218;0,0456921
1181,1860;0,0454095
1182,1503;0,0451763
1183,1145;0,0449885
1184,0787;0,0448453
1185,0430;0,0447477
1186,0072;0,0446988
1186,9714;0,0447028
1187,9357;0,0447641
1188,8999;0,0448861
1189,8641;0,04507
1190,8284;0,0453148
1191,7926;0,0456179
1192,7568;0,0459757
1193,7211;0,0463841
1194,6853;0,0468384
1195,6495;0,0473331
1196,6138;0,0478622
1197,5780;0,0484192
1198,5422;0,0489981
1199,5065;0,0495723
1200,4707;0,050183
1201,4349;0,0508041
1202,3992;0,0514334
1203,3634;0,0520677
1204,3276;0,0527022
1205,2919;0,0533303
1206,2561;0,0539465
1207,2203;0,0545492
1208,1846;0,0551439
1209,1488;0,0557433
1210,1130;0,056364
1211,0773;0,0570216
1212,0415;0,057725
1213,0057;0,058474
1213,9700;0,0592597
1214,9342;0,0600683
1215,8984;0,060885
1216,8627;0,0616964
1217,8269;0,0624912
1218,7911;0,0632603
1219,7554;0,0639975
1220,7196;0,0646996
1221,6838;0,0653666
1222,6481;0,066001
1223,6123;0,0666056
1224,5765;0,0671818
1225,5408;0,067729
1226,5050;0,0682447
1227,4692;0,0687256
1228,4335;0,0691688
1229,3977;0,0695722
1230,3619;0,0699338
1231,3262;0,0702517
1232,2904;0,0705231
1233,2546;0,0707459
1234,2189;0,0709194
1235,1831;0,0710455
1236,1473;0,0711294
1237,1116;0,071178
1238,0758;0,0711984
1239,0400;0,0711947
1240,0043;0,0711678
1240,9685;0,071115
1241,9327;0,0710316
1242,8970;0,0709127
1243,8612;0,0707535
1244,8254;0,0705493
1245,7897;0,070297
1246,7539;0,0699957
1247,7181;0,0696496
1248,6824;0,0692679
1249,6466;0,0688638
1250,6108;0,0684512
1251,5751;0,0680414
1252,5393;0,067641
1253,5035;0,0672517
1254,4678;0,0668704
1255,4320;0,0664899
1256,3962;0,0661004
1257,3605;0,0656917
1258,3247;0,0652564
1259,2889;0,0647925
1260,2532;0,0643036
1261,2174;0,0637955
1262,1816;0,0632723
1263,1459;0,0627335
1264,1101;0,0621749
1265,0743;0,0615915
1266,0386;0,0609808
1267,0028;0,0603434
1267,9670;0,0596823
1268,9313;0,0590012
1269,8955;0,0583049
1270,8597;0,0575999
1271,8240;0,0568938
1272,7882;0,0561942
1273,7524;0,0555066
1274,7167;0,0548345
1275,6809;0,0541795
1276,6451;0,0535438
1277,6094;0,0529298
1278,5736;0,0523399
1279,5378;0,0517739
1280,5021;0,0512286
1281,4663;0,0506997
1282,4305;0,050184
1283,3948;0,0496823
1284,3590;0,0491999
1285,3232;0,0487459
1286,2875;0,0483311
1287,2517;0,0479655
1288,2159;0,0476559
1289,1802;0,047404
1290,1444;0,0472065
1291,1086;0,0470566
1292,0729;0,046948
1293,0371;0,0468778
1294,0013;0,0468476
1294,9656;0,0468628
1295,9298;0,0469286
1296,8940;0,047048
1297,8583;0,04722
1298,8225;0,0474409
1299,7867;0,0477052
1300,7510;0,0480068
1301,7152;0,0483394
1302,6794;0,0486973
1303,6437;0,0490758
1304,6079;0,0494728
1305,5721;0,0498877
1306,5364;0,0503194
1307,5006;0,0507644
1308,4648;0,0512164
1309,4291;0,0516679
1310,3933;0,0521126
1311,3575;0,0525457
1312,3218;0,0529616
1313,2860;0,0533502
1314,2502;0,0536948
1315,2145;0,0539741
1316,1787;0,0541675
1317,1429;0,0542625
1318,1072;0,054261
1319,0714;0,0541809
1320,0356;0,05405
1320,9999;0,0538959
1321,9641;0,0537381
1322,9283;0,0535863
1323,8926;0,0534453
1324,8568;0,0533185
1325,8210;0,0532088
1326,7853;0,0531161
1327,7495;0,0530356
1328,7137;0,0529581
1329,6780;0,0528735
1330,6422;0,0527742
1331,6064;0,0526558
1332,5707;0,0525151
1333,5349;0,0523457
1334,4991;0,0521355
1335,4634;0,0518674
1336,4276;0,0515271
1337,3918;0,0511154
1338,3561;0,0506617
1339,3203;0,0502217
1340,2845;0,0498516
1341,2488;0,049576
1342,2130;0,0493806
1343,1772;0,0492317
1344,1415;0,0491001
1345,1057;0,0489739
1346,0699;0,0488594
1347,0342;0,0487752
1347,9984;0,0487426
1348,9626;0,0487758
1349,9269;0,0488766
1350,8911;0,0490351
1351,8553;0,0492365
1352,8196;0,0494691
1353,7838;0,0497314
1354,7480;0,050031
1355,7123;0,0503752
1356,6765;0,0507606
1357,6407;0,0511688
1358,6050;0,0515743
1359,5692;0,0519569
1360,5334;0,0523115
1361,4977;0,0526518
1362,4619;0,0530011
1363,4261;0,0533737
1364,3904;0,0537619
1365,3546;0,0541424
1366,3188;0,0544892
1367,2831;0,0547839
1368,2473;0,0550173
1369,2115;0,0551866
1370,1758;0,0552895
1371,1400;0,0553192
1372,1042;0,0552653
1373,0685;0,055122
1374,0327;0,0548999
1374,9969;0,0546259
1375,9612;0,0543235
1376,9254;0,0539906
1377,8896;0,0536007
1378,8539;0,0531258
1379,8181;0,0525645
1380,7823;0,0519511
1381,7466;0,0513354
1382,7108;0,0507477
1383,6750;0,0501769
1384,6393;0,0495836
1385,6035;0,0489389
1386,5677;0,0482686
1387,5320;0,0476589
1388,4962;0,0471973
1389,4604;0,0469057
1390,4247;0,0467376
1391,3889;0,0466244
1392,3531;0,0465139
1393,3174;0,0463859
1394,2816;0,046252
1395,2458;0,0461422
1396,2101;0,0460848
1397,1743;0,0460922
1398,1385;0,0461631
1399,1028;0,0462895
1400,0670;0,0464586
1401,0313;0,0466525
1401,9955;0,0468512
1402,9597;0,0470404
1403,9240;0,0472205
1404,8882;0,0474083
1405,8524;0,0476275
1406,8167;0,0478919
1407,7809;0,048197
1408,7451;0,0485292
1409,7094;0,0488798
1410,6736;0,0492505
1411,6378;0,0496476
1412,6021;0,0500692
1413,5663;0,050499
1414,5305;0,0509096
1415,4948;0,0512708
1416,4590;0,0515573
1417,4232;0,0517586
1418,3875;0,0518913
1419,3517;0,0519924
1420,3159;0,0520835
1421,2802;0,0521475
1422,2444;0,0521475
1423,2086;0,0520591
1424,1729;0,0518849
1425,1371;0,0516448
1426,1013;0,0513514
1427,0656;0,0509924
1428,0298;0,0505429
1428,9940;0,0500029
1429,9583;0,0494255
1430,9225;0,0488941
1431,8867;0,0484576
1432,8510;0,04809
1433,8152;0,0477074
1434,7794;0,0472233
1435,7437;0,0466257
1436,7079;0,0460277
1437,6721;0,0455981
1438,6364;0,0454131
1439,6006;0,0454223
1440,5648;0,0455342
1441,5291;0,0456843
1442,4933;0,0458489
1443,4575;0,0460306
1444,4218;0,0462392
1445,3860;0,046478
1446,3502;0,0467408
1447,3145;0,047017
1448,2787;0,0472995
1449,2429;0,0475869
1450,2072;0,0478798
1451,1714;0,048173
1452,1356;0,0484505
1453,0999;0,0486795
1454,0641;0,0488015
1455,0283;0,0487258
1455,9926;0,0483751
1456,9568;0,0478349
1457,9210;0,0474016
1458,8853;0,0472746
1459,8495;0,0473832
1460,8137;0,0475592
1461,7780;0,0476589
1462,7422;0,0475689
1463,7064;0,047213
1464,6707;0,046606
1465,6349;0,0458816
1466,5991;0,0451952
1467,5634;0,0445972
1468,5276;0,0440191
1469,4918;0,0433299
1470,4561;0,0423843
1471,4203;0,0410864
1472,3845;0,0395086
1473,3488;0,0379464
1474,3130;0,0367095
1475,2772;0,0358668
1476,2415;0,0352975
1477,2057;0,0348661
1478,1699;0,034495
1479,1342;0,0341555
1480,0984;0,0338471
1481,0626;0,033586
1482,0269;0,0333961
1482,9911;0,0332961
1483,9553;0,0332851
1484,9196;0,0333392
1485,8838;0,0334212
1486,8480;0,0335016
1487,8123;0,0335872
1488,7765;0,0337375
1489,7407;0,0340255
1490,7050;0,0344641
1491,6692;0,0350007
1492,6334;0,0355766
1493,5977;0,0361603
1494,5619;0,0367451
1495,5261;0,0373404
1496,4904;0,0379668
1497,4546;0,0386488
1498,4188;0,0393962
1499,3831;0,0401897
1500,3473;0,0409926
1501,3115;0,0417692
1502,2758;0,042489
1503,2400;0,0431187
1504,2042;0,0436043
1505,1685;0,0438531
1506,1327;0,043771
1507,0969;0,043438
1508,0612;0,043158
1509,0254;0,0431059
1509,9896;0,043208
1510,9539;0,0433404
1511,9181;0,0434174
1512,8823;0,0433832
1513,8466;0,043202
1514,8108;0,0428673
1515,7750;0,0424149
1516,7393;0,0419079
1517,7035;0,0413952
1518,6677;0,0408818
1519,6320;0,0403482
1520,5962;0,0398019
1521,5604;0,0393061
1522,5247;0,03894
1523,4889;0,0387358
1524,4531;0,038672
1525,4174;0,0387125
1526,3816;0,0388348
1527,3458;0,0390267
1528,3101;0,0392713
1529,2743;0,0395427
1530,2385;0,0398158
1531,2028;0,0400815
1532,1670;0,0403573
1533,1312;0,0406807
1534,0955;0,0410772
1535,0597;0,0415338
1536,0239;0,0420073
1536,9882;0,0424432
1537,9524;0,042769
1538,9166;0,0428753
1539,8809;0,0426576
1540,8451;0,0421895
1541,8093;0,0417602
1542,7736;0,0415441
1543,7378;0,0414847
1544,7020;0,0414784
1545,6663;0,0414685
1546,6305;0,0414379
1547,5947;0,0413822
1548,5590;0,0412943
1549,5232;0,0411639
1550,4874;0,0409918
1551,4517;0,0408023
1552,4159;0,0406375
1553,3801;0,0405299
1554,3444;0,0404739
1555,3086;0,0404078
1556,2728;0,0401986
1557,2371;0,039664
1558,2013;0,0387792
1559,1655;0,0379445
1560,1298;0,0375721
1561,0940;0,0376056
1562,0582;0,0378161
1563,0225;0,0380604
1563,9867;0,038277
1564,9509;0,0384405
1565,9152;0,0385389
1566,8794;0,0385745
1567,8436;0,0385777
1568,8079;0,0386135
1569,7721;0,0387487
1570,7363;0,0390008
1571,7006;0,0393306
1572,6648;0,0396763
1573,6290;0,0399801
1574,5933;0,0402008
1575,5575;0,0403364
1576,5217;0,0404457
1577,4860;0,0406122
1578,4502;0,0408681
1579,4144;0,0411879
1580,3787;0,0415331
1581,3429;0,0418793
1582,3071;0,0422208
1583,2714;0,0425658
1584,2356;0,0429285
1585,1998;0,0433186
1586,1641;0,043735
1587,1283;0,0441678
1588,0925;0,0446012
1589,0568;0,0450171
1590,0210;0,0453949
1590,9852;0,0457116
1591,9495;0,0459442
1592,9137;0,0460757
1593,8779;0,0461052
1594,8422;0,0460525
1595,8064;0,0459528
1596,7706;0,0458401
1597,7349;0,0457335
1598,6991;0,0456356
1599,6633;0,0455408
1600,6276;0,0454481
1601,5918;0,0453677
1602,5560;0,0453187
1603,5203;0,0453172
1604,4845;0,0453637
1605,4487;0,0454403
1606,4130;0,0455215
1607,3772;0,0455943
1608,3414;0,0456745
1609,3057;0,0458027
1610,2699;0,0460153
1611,2341;0,0463145
1612,1984;0,0466656
1613,1626;0,0470144
1614,1268;0,0473095
1615,0911;0,0475291
1616,0553;0,0477106
1617,0195;0,0479375
1617,9838;0,0482628
1618,9480;0,0486689
1619,9122;0,0491075
1620,8765;0,0495399
1621,8407;0,0499475
1622,8049;0,0503274
1623,7692;0,0506852
1624,7334;0,0510269
1625,6976;0,0513568
1626,6619;0,0516829
1627,6261;0,0520217
1628,5903;0,052392
1629,5546;0,0528022
1630,5188;0,0532413
1631,4830;0,0536787
1632,4473;0,0540639
1633,4115;0,0543243
1634,3757;0,0543871
1635,3400;0,0542617
1636,3042;0,0541048
1637,2684;0,0540922
1638,2327;0,0542568
1639,1969;0,0545344
1640,1611;0,0548614
1641,1254;0,0551991
1642,0896;0,0555175
1643,0538;0,0557717
1644,0181;0,0558897
1644,9823;0,0557992
1645,9465;0,0555206
1646,9108;0,0552327
1647,8750;0,055132
1648,8392;0,0552424
1649,8035;0,0554205
1650,7677;0,0554215
1651,7319;0,0549258
1652,6962;0,0537467
1653,6604;0,0522869
1654,6246;0,0512526
1655,5889;0,0507771
1656,5531;0,0505768
1657,5173;0,0504076
1658,4816;0,0501362
1659,4458;0,0496867
1660,4100;0,0490216
1661,3743;0,0481779
1662,3385;0,0472943
1663,3027;0,0465387
1664,2670;0,0459861
1665,2312;0,0455867
1666,1954;0,0452179
1667,1597;0,0447391
1668,1239;0,0440515
1669,0881;0,043179
1670,0524;0,0422911
1671,0166;0,0415609
1671,9808;0,0410081
1672,9451;0,0405195
1673,9093;0,0399704
1674,8735;0,0393212
1675,8378;0,0386471
1676,8020;0,0380759
1677,7662;0,0376813
1678,7305;0,0374441
1679,6947;0,0372828
1680,6589;0,0370805
1681,6232;0,0366894
1682,5874;0,0359763
1683,5516;0,0349782
1684,5159;0,0339862
1685,4801;0,0332676
1686,4443;0,0328238
1687,4086;0,0325213
1688,3728;0,0322596
1689,3370;0,0320079
1690,3013;0,0317794
1691,2655;0,0315945
1692,2297;0,031453
1693,1940;0,0313274
1694,1582;0,0311748
1695,1224;0,030961
1696,0867;0,0306806
1697,0509;0,0303595
1698,0151;0,0300353
1698,9794;0,0297408
1699,9436;0,0295057
1700,9078;0,0293565
1701,8721;0,029303
1702,8363;0,0293326
1703,8005;0,0294201
1704,7648;0,0295429
1705,7290;0,0296929
1706,6932;0,0298787
1707,6575;0,0301153
1708,6217;0,0304102
1709,5859;0,0307584
1710,5502;0,0311463
1711,5144;0,031554
1712,4786;0,031956
1713,4429;0,032321
1714,4071;0,032618
1715,3713;0,0328344
1716,3356;0,033003
1717,2998;0,0331981
1718,2640;0,0334691
1719,2283;0,033804
1720,1925;0,0341693
1721,1567;0,0345445
1722,1210;0,0349204
1723,0852;0,0352893
1724,0494;0,035641
1725,0137;0,0359666
1725,9779;0,0362631
1726,9421;0,0365354
1727,9064;0,0367914
1728,8706;0,0370315
1729,8348;0,0372378
1730,7991;0,0373655
1731,7633;0,0373506
1732,7275;0,0371565
1733,6918;0,0368393
1734,6560;0,0365268
1735,6202;0,0362981
1736,5845;0,0361304
1737,5487;0,0359481
1738,5129;0,0356774
1739,4772;0,0352775
1740,4414;0,0347594
1741,4056;0,0341789
1742,3699;0,0335956
1743,3341;0,0330361
1744,2983;0,0324933
1745,2626;0,0319467
1746,2268;0,0313693
1747,1910;0,0307222
1748,1553;0,0299629
1749,1195;0,0290875
1750,0837;0,0281729
1751,0480;0,0273414
1752,0122;0,0266664
1752,9764;0,0261307
1753,9407;0,0256635
1754,9049;0,0251951
1755,8691;0,0246942
1756,8334;0,0241757
1757,7976;0,0236772
1758,7618;0,0232196
1759,7261;0,0227893
1760,6903;0,022359
1761,6545;0,0219249
1762,6188;0,0215185
1763,5830;0,02118
1764,5472;0,020924
1765,5115;0,0207329
1766,4757;0,0205743
1767,4399;0,0204186
1768,4042;0,0202468
1769,3684;0,0200467
1770,3326;0,0198098
1771,2969;0,0195392
1772,2611;0,019265
1773,2253;0,0190365
1774,1896;0,0188886
1775,1538;0,0188201
1776,1180;0,0188038
1777,0823;0,0188057
1778,0465;0,0187993
1779,0107;0,0187732
1779,9750;0,0187323
1780,9392;0,0186886
1781,9034;0,0186491
1782,8677;0,018613
1783,8319;0,0185798
1784,7961;0,0185579
1785,7604;0,0185624
1786,7246;0,0186031
1787,6888;0,0186737
1788,6531;0,0187492
1789,6173;0,0187922
1790,5815;0,0187693
1791,5458;0,0186789
1792,5100;0,0185652
1793,4742;0,0184862
1794,4385;0,0184659
1795,4027;0,0184882
1796,3669;0,0185206
1797,3312;0,0185341
1798,2954;0,0185132
1799,2596;0,0184617
1800,2239;0,0184019
1801,1881;0,0183594
1802,1523;0,0183473
1803,1166;0,0183616
1804,0808;0,0183911
1805,0450;0,018425
1806,0093;0,0184555
1806,9735;0,0184757
1807,9377;0,0184786
1808,9020;0,0184606
1809,8662;0,0184262
1810,8304;0,0183886
1811,7947;0,0183634
1812,7589;0,0183587
1813,7231;0,0183702
1814,6874;0,0183855
1815,6516;0,0183919
1816,6158;0,0183853
1817,5801;0,0183743
1818,5443;0,0183753
1819,5085;0,0184008
1820,4728;0,0184493
1821,4370;0,0185058
1822,4012;0,0185509
1823,3655;0,0185715
1824,3297;0,0185686
1825,2939;0,0185534
1826,2582;0,0185358
1827,2224;0,0185154
1828,1866;0,018485
1829,1509;0,0184429
1830,1151;0,018402
1831,0793;0,0183816
1832,0436;0,0183913
1833,0078;0,0184237
1833,9720;0,0184611
1834,9363;0,0184871
1835,9005;0,0184975
1836,8647;0,0185046
1837,8290;0,0185303
1838,7932;0,0185887
1839,7574;0,0186739
1840,7217;0,0187601
1841,6859;0,0188102
1842,6501;0,0187935
1843,6144;0,0187087
1844,5786;0,0185942
1845,5428;0,0185019
1846,5071;0,0184587
1847,4713;0,0184588
1848,4355;0,0184809
1849,3998;0,0185051
1850,3640;0,01852
1851,3282;0,0185222
1852,2925;0,0185137
1853,2567;0,018498
1854,2209;0,0184788
1855,1852;0,0184618
1856,1494;0,0184552
1857,1136;0,018466
1858,0779;0,0184954
1859,0421;0,0185361
1860,0063;0,0185753
1860,9706;0,0186031
1861,9348;0,0186188
1862,8990;0,0186304
1863,8633;0,0186465
1864,8275;0,0186681
1865,7917;0,0186856
1866,7560;0,0186841
1867,7202;0,0186563
1868,6844;0,0186115
1869,6487;0,0185687
1870,6129;0,0185413
1871,5771;0,0185314
1872,5414;0,0185351
1873,5056;0,0185487
1874,4698;0,0185704
1875,4341;0,0185981
1876,3983;0,0186275
1877,3625;0,0186507
1878,3268;0,0186603
1879,2910;0,0186547
1880,2552;0,0186409
1881,2195;0,018632
1882,1837;0,0186397
1883,1479;0,0186684
1884,1122;0,0187125
1885,0764;0,0187596
1886,0406;0,0187964
1887,0049;0,0188113
1887,9691;0,0187983
1888,9333;0,0187588
1889,8976;0,018703
1890,8618;0,0186469
1891,8260;0,0186068
1892,7903;0,0185927
1893,7545;0,0186051
1894,7188;0,0186357
1895,6830;0,018672
1896,6472;0,0187048
1897,6115;0,018733
1898,5757;0,0187629
1899,5399;0,0188008
1900,5042;0,0188453
1901,4684;0,0188849
1902,4326;0,0189038
1903,3969;0,0188915
1904,3611;0,0188508
1905,3253;0,0187975
1906,2896;0,0187515
1907,2538;0,0187267
1908,2180;0,0187249
1909,1823;0,0187373
1910,1465;0,0187528
1911,1107;0,0187671
1912,0750;0,0187845
1913,0392;0,0188111
1914,0034;0,0188467
1914,9677;0,0188794
1915,9319;0,0188893
1916,8961;0,0188587
1917,8604;0,018785
1918,8246;0,0186837
1919,7888;0,0185808
1920,7531;0,0184997
1921,7173;0,0184537
1922,6815;0,018445
1923,6458;0,0184671
1924,6100;0,0185076
1925,5742;0,0185529
1926,5385;0,0185918
1927,5027;0,0186182
1928,4669;0,0186309
1929,4312;0,0186345
1930,3954;0,0186379
1931,3596;0,0186527
1932,3239;0,0186876
1933,2881;0,0187438
1934,2523;0,0188106
1935,2166;0,0188666
1936,1808;0,0188868
1937,1450;0,0188545
1938,1093;0,0187713
1939,0735;0,0186606
1940,0377;0,0185621
1941,0020;0,0185167
1941,9662;0,0185444
1942,9304;0,0186266
1943,8947;0,0187127
1944,8589;0,0187524
1945,8231;0,0187266
1946,7874;0,0186541
1947,7516;0,0185747
1948,7158;0,0185222
1949,6801;0,018505
1950,6443;0,0185047
1951,6085;0,018494
1952,5728;0,0184599
1953,5370;0,0184134
1954,5012;0,0183796
1955,4655;0,0183752
1956,4297;0,0183938
1957,3939;0,0184102
1958,3582;0,0184011
1959,3224;0,0183642
1960,2866;0,0183225
1961,2509;0,0183069
1962,2151;0,0183332
1963,1793;0,0183892
1964,1436;0,0184387
1965,1078;0,0184384
1966,0720;0,0183554
1967,0363;0,0181825
1968,0005;0,0179438
1968,9647;0,0176864
1969,9290;0,0174611
1970,8932;0,0173019
1971,8574;0,0172161
1972,8217;0,0171906
1973,7859;0,0172116
1974,7501;0,0172848
1975,7144;0,0174359
1976,6786;0,0176823
1977,6428;0,0179988
1978,6071;0,0183139
1979,5713;0,0185498
1980,5355;0,0186726
1981,4998;0,0187069
1982,4640;0,0187084
1983,4282;0,0187184
1984,3925;0,0187354
1985,3567;0,0187249
1986,3209;0,0186597
1987,2852;0,0185581
1988,2494;0,0184862
1989,2136;0,0185183
1990,1779;0,0186812
1991,1421;0,0189248
1992,1063;0,0191457
1993,0706;0,0192513
1994,0348;0,0192152
1994,9990;0,0190828
1995,9633;0,0189339
1996,9275;0,018837
1997,8917;0,0188206
1998,8560;0,0188677
1999,8202;0,0189269
2000,7844;0,018935
2001,7487;0,0188426
2002,7129;0,0186415
2003,6771;0,0183826
2004,6414;0,0181726
2005,6056;0,0181356
2006,5698;0,0183436
2007,5341;0,0187581
2008,4983;0,0192322
2009,4625;0,0195842
2010,4268;0,0196932
2011,3910;0,0195528
2012,3552;0,0192559
2013,3195;0,0189325
2014,2837;0,0186865
2015,2479;0,0185604
2016,2122;0,0185394
2017,1764;0,0185796
2018,1406;0,0186397
2019,1049;0,0186974
2020,0691;0,0187509
2021,0333;0,0188124
2021,9976;0,0189
2022,9618;0,019026
2023,9260;0,0191836
2024,8903;0,0193385
2025,8545;0,0194372
2026,8187;0,0194348
2027,7830;0,0193256
2028,7472;0,019157
2029,7114;0,019013
2030,6757;0,0189748
2031,6399;0,0190829
2032,6041;0,0193218
2033,5684;0,0196363
2034,5326;0,0199631
2035,4968;0,0202548
2036,4611;0,0204836
2037,4253;0,0206272
2038,3895;0,0206593
2039,3538;0,0205553
2040,3180;0,0203142
2041,2822;0,0199785
2042,2465;0,0196349
2043,2107;0,0193877
2044,1749;0,0193184
2045,1392;0,019454
2046,1034;0,0197547
2047,0676;0,0201278
2048,0320;0,0204624
2048,9961;0,0206719
2049,9604;0,0207222
2050,9246;0,0206329
2051,8889;0,0204618
2052,8530;0,0202842
2053,8174;0,0201719
2054,7815;0,020171
2055,7458;0,0202827
2056,7100;0,020459
2057,6743;0,0206224
2058,6384;0,0207039
2059,6028;0,0206762
2060,5669;0,0205652
2061,5313;0,0204327
2062,4954;0,0203413
2063,4597;0,0203238
2064,4238;0,0203742
2065,3882;0,020462
2066,3523;0,0205568
2067,3167;0,0206427
2068,2808;0,0207156
2069,2451;0,0207703
2070,2092;0,0207935
2071,1736;0,0207694
2072,1377;0,0206945
2073,1021;0,0205878
2074,0662;0,0204861
2075,0305;0,0204264
2075,9946;0,020428
2076,9590;0,0204851
2077,9231;0,0205745
2078,8875;0,02067
2079,8516;0,0207524
2080,8159;0,020811
2081,7800;0,0208384
2082,7444;0,0208276
2083,7085;0,0207749
2084,6729;0,0206876
2085,6370;0,0205869
2086,6013;0,0205028
2087,5654;0,0204603
2088,5298;0,0204671
2089,4939;0,0205095
2090,4583;0,0205602
2091,4224;0,020593
2092,3867;0,0205949
2093,3508;0,0205689
2094,3152;0,0205286
2095,2793;0,0204891
2096,2437;0,0204598
2097,2078;0,0204437
2098,1721;0,0204401
2099,1362;0,0204486
2100,1006;0,0204708
2101,0647;0,0205099
2102,0291;0,0205662
2102,9932;0,0206354
2103,9575;0,0207078
2104,9216;0,0207714
2105,8860;0,0208171
2106,8501;0,0208445
2107,8145;0,0208626
2108,7786;0,0208836
2109,7429;0,0209141
2110,7070;0,020948
2111,6714;0,0209697
2112,6355;0,0209645
2113,5999;0,0209304
2114,5640;0,0208807
2115,5283;0,0208371
2116,4924;0,0208165
2117,4568;0,0208216
2118,4209;0,020842
2119,3853;0,0208642
2120,3494;0,0208811
2121,3137;0,0208965
2122,2778;0,0209204
2123,2422;0,0209598
2124,2063;0,0210123
2125,1707;0,0210648
2126,1348;0,0210973
2127,0991;0,021091
2128,0632;0,0210369
2129,0276;0,0209439
2129,9917;0,0208417
2130,9561;0,0207738
2131,9202;0,0207786
2132,8845;0,0208672
2133,8486;0,0210099
2134,8130;0,0211468
2135,7771;0,0212212
2136,7415;0,0212128
2137,7056;0,0211461
2138,6699;0,021066
2139,6340;0,0210026
2140,5984;0,0209552
2141,5625;0,0209067
2142,5269;0,0208552
2143,4910;0,0208325
2144,4553;0,0208898
2145,4194;0,021057
2146,3838;0,0213079
2147,3479;0,0215597
2148,3123;0,0217116
2149,2764;0,0216983
2150,2407;0,0215222
2151,2048;0,0212494
2152,1692;0,0209785
2153,1333;0,0208047
2154,0977;0,0207965
2155,0618;0,0209885
2156,0261;0,0213754
2156,9902;0,0219015
2157,9546;0,0224543
2158,9187;0,0228879
2159,8831;0,0230817
2160,8472;0,0229949
2161,8115;0,0226762
2162,7756;0,0222361
2163,7400;0,0218108
2164,7041;0,0215265
2165,6685;0,0214624
2166,6326;0,0216184
2167,5969;0,0219097
2168,5610;0,0221995
2169,5254;0,0223576
2170,4895;0,0223154
2171,4539;0,0220895
2172,4180;0,0217665
2173,3823;0,0214559
2174,3464;0,0212378
2175,3108;0,0211335
2176,2749;0,0211117
2177,2393;0,021122
2178,2034;0,0211296
2179,1677;0,0211286
2180,1318;0,0211326
2181,0962;0,0211549
2182,0603;0,0211942
2183,0247;0,0212345
2183,9888;0,021257
2184,9531;0,0212524
2185,9172;0,0212252
2186,8816;0,0211899
2187,8457;0,021164
2188,8101;0,0211641
2189,7742;0,0212022
2190,7385;0,0212831
2191,7026;0,0213975
2192,6670;0,0215189
2193,6311;0,0216068
2194,5955;0,0216226
2195,5596;0,0215497
2196,5239;0,0214066
2197,4880;0,0212422
2198,4524;0,0211119
2199,4165;0,0210502
2200,3809;0,021055
2201,3450;0,0210967
2202,3093;0,0211421
2203,2734;0,0211781
2204,2378;0,021215
2205,2019;0,0212705
2206,1663;0,0213463
2207,1304;0,0214171
2208,0947;0,0214413
2209,0588;0,0213876
2210,0232;0,0212575
2210,9873;0,0210886
2211,9517;0,0209366
2212,9158;0,0208471
2213,8801;0,0208356
2214,8442;0,020885
2215,8086;0,0209605
2216,7727;0,0210289
2217,7371;0,0210727
2218,7012;0,0210932
2219,6655;0,0211036
2220,6296;0,02112
2221,5940;0,0211527
2222,5581;0,0211998
2223,5225;0,0212456
2224,4866;0,0212665
2225,4509;0,0212418
2226,4150;0,0211686
2227,3794;0,0210695
2228,3435;0,0209879
2229,3079;0,0209683
2230,2720;0,0210331
2231,2363;0,0211702
2232,2004;0,0213381
2233,1648;0,0214871
2234,1289;0,021582
2235,0933;0,0216147
2236,0574;0,0215999
2237,0217;0,0215621
2237,9858;0,0215222
2238,9502;0,0214919
2239,9143;0,0214739
2240,8787;0,0214661
2241,8428;0,0214641
2242,8071;0,0214632
2243,7712;0,0214597
2244,7356;0,0214539
2245,6997;0,0214503
2246,6641;0,0214551
2247,6282;0,0214721
2248,5925;0,0214999
2249,5566;0,0215326
2250,5210;0,0215643
2251,4851;0,0215927
2252,4495;0,0216187
2253,4136;0,0216427
2254,3779;0,0216611
2255,3420;0,0216661
2256,3064;0,0216505
2257,2705;0,0216129
2258,2349;0,0215606
2259,1990;0,0215074
2260,1633;0,0214684
2261,1274;0,0214556
2262,0918;0,0214746
2263,0559;0,021524
2264,0203;0,021597
2264,9844;0,0216825
2265,9487;0,0217671
2266,9128;0,0218365
2267,8772;0,021878
2268,8413;0,0218836
2269,8057;0,0218528
2270,7698;0,0217953
2271,7341;0,0217286
2272,6982;0,0216735
2273,6626;0,0216458
2274,6267;0,0216494
2275,5911;0,0216754
2276,5552;0,0217083
2277,5195;0,0217351
2278,4836;0,0217527
2279,4480;0,0217673
2280,4121;0,0217875
2281,3765;0,0218166
2282,3406;0,0218494
2283,3049;0,0218767
2284,2690;0,0218923
2285,2334;0,0218982
2286,1975;0,0219036
2287,1619;0,0219194
2288,1260;0,0219516
2289,0903;0,0219986
2290,0544;0,0220526
2291,0188;0,0221042
2291,9829;0,0221463
2292,9473;0,0221759
2293,9114;0,0221943
2294,8757;0,0222056
2295,8398;0,0222141
2296,8042;0,022222
2297,7683;0,0222271
2298,7327;0,0222239
2299,6968;0,0222071
2300,6611;0,0221769
2301,6252;0,0221423
2302,5896;0,0221178
2303,5537;0,0221167
2304,5181;0,0221429
2305,4822;0,0221867
2306,4465;0,0222287
2307,4106;0,022248
2308,3750;0,022232
2309,3391;0,0221806
2310,3035;0,0221048
2311,2676;0,0220207
2312,2319;0,0219453
2313,1960;0,0218923
2314,1604;0,0218715
2315,1245;0,0218861
2316,0889;0,0219312
2317,0530;0,0219942
2318,0173;0,0220571
2318,9814;0,0221023
2319,9458;0,0221197
2320,9099;0,0221115
2321,8743;0,0220915
2322,8384;0,0220755
2323,8027;0,0220703
2324,7668;0,0220696
2325,7312;0,0220599
2326,6953;0,0220311
2327,6597;0,0219848
2328,6238;0,0219348
2329,5881;0,0219015
2330,5522;0,021903
2331,5166;0,0219464
2332,4807;0,0220229
2333,4451;0,0221101
2334,4092;0,0221804
2335,3735;0,0222131
2336,3376;0,0222034
2337,3020;0,0221644
2338,2661;0,0221193
2339,2305;0,0220856
2340,1946;0,0220591
2341,1589;0,0220099
2342,1230;0,0219015
2343,0874;0,0217348
2344,0515;0,0215875
2345,0159;0,0215773
2345,9800;0,0217561
2346,9443;0,0220633
2347,9084;0,0223815
2348,8728;0,0226153
2349,8369;0,0227316
2350,8013;0,0227613
2351,7654;0,0227718
2352,7297;0,0228171
2353,6938;0,0228953
2354,6582;0,022956
2355,6223;0,022956
2356,5867;0,0228963
2357,5508;0,0228063
2358,5151;0,0227116
2359,4792;0,0226179
2360,4436;0,0225161
2361,4077;0,0223919
2362,3721;0,0222339
2363,3362;0,0220398
2364,3005;0,0218189
2365,2646;0,021589
2366,2290;0,0213672
2367,1931;0,0211639
2368,1575;0,0209843
2369,1216;0,0208338
2370,0859;0,0207205
2371,0500;0,020653
2372,0144;0,0206368
2372,9785;0,0206724
2373,9429;0,0207552
2374,9070;0,020876
2375,8713;0,0210221
2376,8354;0,0211797
2377,7998;0,0213368
2378,7639;0,0214863
2379,7283;0,0216266
2380,6924;0,0217589
2381,6567;0,0218843
2382,6208;0,0220004
2383,5852;0,0221019
2384,5493;0,022183
2385,5137;0,0222408
2386,4778;0,0222768
2387,4421;0,0222971
2388,4063;0,0223097
2389,3706;0,0223213
2390,3347;0,0223354
2391,2991;0,0223525
2392,2632;0,0223714
2393,2275;0,0223911
2394,1917;0,0224111
2395,1560;0,0224309
2396,1201;0,0224493
2397,0845;0,0224649
2398,0486;0,0224781
2399,0129;0,0224916
2399,9771;0,0225096
2400,9414;0,0225354
2401,9055;0,0225679
2402,8699;0,0226011
2403,8340;0,0226258
2404,7983;0,022635
2405,7625;0,0226276
2406,7268;0,0226106
2407,6909;0,0225964
2408,6553;0,0225969
2409,6194;0,0226177
2410,5837;0,0226554
2411,5479;0,0226998
2412,5122;0,0227386
2413,4763;0,0227642
2414,4407;0,0227765
2415,4048;0,0227821
2416,3691;0,0227896
2417,3333;0,0228045
2418,2976;0,0228268
2419,2617;0,0228519
2420,2261;0,0228747
2421,1902;0,0228918
2422,1545;0,0229041
2423,1187;0,0229148
2424,0830;0,0229278
2425,0471;0,0229462
2426,0115;0,0229707
2426,9756;0,0229995
2427,9399;0,0230279
2428,9041;0,0230499
2429,8684;0,0230606
2430,8325;0,0230598
2431,7969;0,0230527
2432,7610;0,0230488
2433,7253;0,0230567
2434,6895;0,0230788
2435,6538;0,0231101
2436,6179;0,0231408
2437,5823;0,0231628
2438,5464;0,023174
2439,5107;0,0231793
2440,4749;0,0231865
2441,4392;0,023201
2442,4033;0,0232229
2443,3677;0,0232476
2444,3318;0,0232684
2445,2961;0,0232803
2446,2603;0,0232814
2447,2246;0,0232738
2448,1887;0,0232625
2449,1531;0,0232544
2450,1172;0,0232566
2451,0815;0,0232735
2452,0457;0,0233044
2453,0100;0,0233433
2453,9741;0,0233814
2454,9385;0,0234112
2455,9026;0,02343
2456,8669;0,0234409
2457,8311;0,0234491
2458,7954;0,0234585
2459,7595;0,0234688
2460,7239;0,0234768
2461,6880;0,0234796
2462,6523;0,0234782
2463,6165;0,023478
2464,5808;0,0234857
2465,5449;0,023505
2466,5093;0,0235342
2467,4734;0,0235665
2468,4377;0,0235934
2469,4019;0,0236096
2470,3662;0,0236152
2471,3303;0,0236143
2472,2947;0,0236122
2473,2588;0,0236123
2474,2231;0,0236149
2475,1873;0,0236185
2476,1516;0,0236227
2477,1157;0,023629
2478,0801;0,0236397
2479,0442;0,0236561
2480,0085;0,0236767
2480,9727;0,0236969
2481,9370;0,023712
2482,9011;0,023719
2483,8655;0,0237189
2484,8296;0,023716
2485,7939;0,0237158
2486,7581;0,0237227
2487,7224;0,0237381
2488,6865;0,0237599
2489,6509;0,0237837
2490,6150;0,0238052
2491,5793;0,023822
2492,5435;0,0238347
2493,5078;0,0238459
2494,4719;0,023859
2495,4363;0,0238756
2496,4004;0,0238955
2497,3647;0,0239166
2498,3289;0,0239361
2499,2932;0,0239517
2500,2573;0,0239622
2501,2217;0,0239678
2502,1858;0,0239703
2503,1501;0,0239728
2504,1143;0,0239777
2505,0786;0,0239848
2506,0427;0,0239905
2507,0071;0,0239895
2507,9712;0,0239788
2508,9355;0,0239603
2509,8997;0,0239415
2510,8640;0,0239315
2511,8281;0,0239358
2512,7925;0,0239533
2513,7566;0,0239774
2514,7209;0,0240009
2515,6851;0,0240191
2516,6494;0,0240308
2517,6135;0,0240363
2518,5779;0,0240351
2519,5420;0,0240264
2520,5063;0,0240115
2521,4705;0,0239953
2522,4348;0,0239846
2523,3989;0,0239842
2524,3633;0,0239937
2525,3274;0,024008
2526,2917;0,0240214
2527,2559;0,0240313
2528,2202;0,0240392
2529,1843;0,0240474
2530,1487;0,0240556
2531,1128;0,0240606
2532,0771;0,0240595
2533,0413;0,024054
2534,0056;0,0240514
2534,9697;0,0240606
2535,9341;0,024086
2536,8982;0,0241237
2537,8625;0,0241627
2538,8267;0,0241907
2539,7910;0,0242003
2540,7551;0,0241916
2541,7195;0,0241711
2542,6836;0,024147
2543,6479;0,0241263
2544,6121;0,0241136
2545,5764;0,024111
2546,5405;0,024119
2547,5049;0,0241363
2548,4690;0,0241599
2549,4333;0,0241851
2550,3975;0,0242079
2551,3618;0,0242256
2552,3259;0,0242375
2553,2903;0,0242442
2554,2544;0,0242458
2555,2188;0,0242417
2556,1829;0,0242319
2557,1472;0,024219
2558,1113;0,0242082
2559,0757;0,0242057
2560,0398;0,0242155
2561,0042;0,0242361
2561,9683;0,024261
2562,9326;0,0242824
2563,8967;0,024295
2564,8611;0,0242989
2565,8252;0,0242983
2566,7896;0,0242978
2567,7537;0,0242991
2568,7180;0,0243016
2569,6821;0,0243038
2570,6465;0,0243066
2571,6106;0,024313
2572,5750;0,0243258
2573,5391;0,0243447
2574,5034;0,0243651
2575,4675;0,024381
2576,4319;0,0243885
2577,3960;0,0243889
2578,3604;0,0243878
2579,3245;0,0243917
2580,2888;0,0244041
2581,2529;0,0244236
2582,2173;0,024445
2583,1814;0,0244629
2584,1458;0,0244741
2585,1099;0,0244791
2586,0742;0,024481
2587,0383;0,0244835
2588,0027;0,0244892
2588,9668;0,0244987
2589,9312;0,0245109
2590,8953;0,0245245
2591,8596;0,0245379
2592,8237;0,0245502
2593,7881;0,0245606
2594,7522;0,0245693
2595,7166;0,0245773
2596,6807;0,0245865
2597,6450;0,0245982
2598,6091;0,0246121
2599,5735;0,0246261
2600,5376;0,0246371
2601,5020;0,0246443
2602,4661;0,0246496
2603,4304;0,0246577
2604,3945;0,0246728
2605,3589;0,0246956
2606,3230;0,0247223
2607,2874;0,0247473
2608,2515;0,0247663
2609,2158;0,0247791
2610,1799;0,024789
2611,1443;0,0247996
2612,1084;0,024813
2613,0728;0,0248289
2614,0369;0,024846
2615,0012;0,0248642
2615,9653;0,0248836
2616,9297;0,0249036
2617,8938;0,0249211
2618,8582;0,0249312
2619,8223;0,0249303
2620,7866;0,0249195
2621,7507;0,0249055
2622,7151;0,0248977
2623,6792;0,0249032
2624,6436;0,0249231
2625,6077;0,0249516
2626,5720;0,0249798
2627,5361;0,0250009
2628,5005;0,0250138
2629,4646;0,0250233
2630,4290;0,0250358
2631,3931;0,0250551
2632,3574;0,0250797
2633,3215;0,0251041
2634,2859;0,0251222
2635,2500;0,0251312
2636,2144;0,0251334
2637,1785;0,0251349
2638,1428;0,0251427
2639,1069;0,0251616
2640,0713;0,0251927
2641,0354;0,0252326
2641,9998;0,0252747
2642,9639;0,0253109
2643,9282;0,0253349
2644,8923;0,0253442
2645,8567;0,0253414
2646,8208;0,0253337
2647,7852;0,0253292
2648,7493;0,0253334
2649,7136;0,0253476
2650,6777;0,0253687
2651,6421;0,0253919
2652,6062;0,0254137
2653,5706;0,0254328
2654,5347;0,0254497
2655,4990;0,0254653
2656,4631;0,0254796
2657,4275;0,0254921
2658,3916;0,0255022
2659,3560;0,0255106
2660,3201;0,0255189
2661,2844;0,025529
2662,2485;0,0255412
2663,2129;0,0255543
2664,1770;0,0255654
2665,1414;0,0255726
2666,1055;0,0255756
2667,0698;0,025577
2668,0339;0,0255809
2668,9983;0,0255913
2669,9624;0,0256096
2670,9268;0,0256337
2671,8909;0,0256591
2672,8552;0,0256812
2673,8193;0,0256975
2674,7837;0,0257087
2675,7478;0,0257175
2676,7122;0,0257269
2677,6763;0,0257382
2678,6406;0,0257513
2679,6047;0,0257653
2680,5691;0,02578
2681,5332;0,025796
2682,4976;0,0258143
2683,4617;0,0258354
2684,4260;0,0258586
2685,3901;0,0258827
2686,3545;0,0259065
2687,3186;0,0259292
2688,2830;0,0259501
2689,2471;0,0259683
2690,2114;0,0259826
2691,1755;0,0259931
2692,1399;0,026002
2693,1040;0,0260131
2694,0684;0,0260308
2695,0325;0,0260568
2695,9968;0,026089
2696,9609;0,026122
2697,9253;0,0261498
2698,8894;0,0261688
2699,8538;0,0261796
2700,8179;0,0261869
2701,7822;0,0261967
2702,7463;0,0262141
2703,7107;0,0262407
2704,6748;0,0262745
2705,6392;0,0263114
2706,6033;0,026347
2707,5676;0,0263785
2708,5317;0,0264057
2709,4961;0,0264304
2710,4602;0,0264551
2711,4246;0,026481
2712,3887;0,0265077
2713,3530;0,0265339
2714,3171;0,0265584
2715,2815;0,0265812
2716,2456;0,0266032
2717,2100;0,0266253
2718,1741;0,0266477
2719,1384;0,0266695
2720,1025;0,0266893
2721,0669;0,0267061
2722,0310;0,0267199
2722,9954;0,0267323
2723,9595;0,0267463
2724,9238;0,0267658
2725,8879;0,0267943
2726,8523;0,0268332
2727,8164;0,0268808
2728,7808;0,0269322
2729,7449;0,026981
2730,7092;0,0270212
2731,6733;0,0270498
2732,6377;0,0270661
2733,6018;0,0270723
2734,5662;0,0270711
2735,5303;0,0270663
2736,4946;0,0270619
2737,4587;0,0270624
2738,4231;0,0270717
2739,3872;0,0270922
2740,3516;0,0271231
2741,3157;0,0271607
2742,2800;0,027199
2743,2441;0,0272314
2744,2085;0,0272525
2745,1726;0,0272599
2746,1370;0,0272551
2747,1011;0,0272438
2748,0654;0,0272348
2749,0295;0,0272371
2749,9939;0,0272569
2750,9580;0,0272949
2751,9224;0,0273464
2752,8865;0,0274028
2753,8508;0,0274551
2754,8149;0,0274971
2755,7793;0,0275268
2756,7434;0,0275469
2757,7078;0,0275629
2758,6719;0,0275811
2759,6362;0,0276056
2760,6003;0,0276372
2761,5647;0,0276733
2762,5288;0,0277087
2763,4932;0,0277387
2764,4573;0,0277615
2765,4216;0,0277792
2766,3857;0,0277975
2767,3501;0,0278229
2768,3142;0,0278599
2769,2786;0,0279081
2770,2427;0,0279622
2771,2070;0,0280138
2772,1711;0,0280545
2773,1355;0,02808
2774,0996;0,0280918
2775,0640;0,0280971
2776,0281;0,028105
2776,9924;0,0281232
2777,9565;0,0281549
2778,9209;0,0281988
2779,8850;0,0282515
2780,8494;0,0283102
2781,8135;0,0283729
2782,7778;0,0284375
2783,7419;0,0285003
2784,7063;0,0285554
2785,6704;0,0285971
2786,6348;0,0286235
2787,5989;0,0286391
2788,5632;0,0286539
2789,5273;0,0286793
2790,4917;0,028723
2791,4558;0,0287852
2792,4202;0,0288592
2793,3843;0,0289348
2794,3486;0,0290029
2795,3127;0,02906
2796,2771;0,0291083
2797,2412;0,0291537
2798,2056;0,0292028
2799,1697;0,0292598
2800,1340;0,0293253
2801,0981;0,0293975
2802,0625;0,029474
2803,0266;0,0295533
2803,9910;0,0296351
2804,9551;0,0297187
2805,9194;0,0298021
2806,8835;0,0298816
2807,8479;0,0299541
2808,8120;0,0300195
2809,7764;0,0300815
2810,7405;0,0301471
2811,7048;0,0302228
2812,6689;0,0303114
2813,6333;0,0304111
2814,5974;0,0305164
2815,5618;0,0306218
2816,5259;0,0307245
2817,4902;0,0308252
2818,4543;0,0309265
2819,4187;0,0310312
2820,3828;0,0311409
2821,3472;0,0312553
2822,3113;0,0313738
2823,2756;0,0314964
2824,2397;0,0316242
2825,2041;0,0317593
2826,1682;0,031904
2827,1326;0,0320596
2828,0967;0,0322262
2829,0610;0,0324031
2830,0251;0,0325897
2830,9895;0,0327859
2831,9536;0,0329927
2832,9180;0,033211
2833,8821;0,0334409
2834,8464;0,0336817
2835,8105;0,0339331
2836,7749;0,0341973
2837,7390;0,0344807
2838,7034;0,0347932
2839,6675;0,035147
2840,6318;0,0355539
2841,5959;0,0360237
2842,5603;0,036562
2843,5244;0,0371668
2844,4888;0,0378241
2845,4529;0,0385033
2846,4172;0,0391568
2847,3813;0,0397264
2848,3457;0,0401562
2849,3098;0,0404084
2850,2742;0,0404744
2851,2383;0,0403761
2852,2026;0,0401579
2853,1667;0,0398715
2854,1311;0,0395625
2855,0952;0,0392617
2856,0596;0,0389853
2857,0237;0,0387389
2857,9880;0,0385244
2858,9521;0,0383438
2859,9165;0,0382001
2860,8806;0,0380955
2861,8450;0,0380295
2862,8091;0,0379984
2863,7734;0,0379968
2864,7375;0,0380194
2865,7019;0,038063
2866,6660;0,0381252
2867,6304;0,0382026
2868,5945;0,0382881
2869,5588;0,0383716
2870,5229;0,0384423
2871,4873;0,038493
2872,4514;0,0385227
2873,4158;0,0385363
2874,3799;0,038542
2875,3442;0,0385477
2876,3083;0,038559
2877,2727;0,0385799
2878,2368;0,0386135
2879,2012;0,0386627
2880,1653;0,0387293
2881,1296;0,0388117
2882,0938;0,0389053
2883,0581;0,0390033
2884,0222;0,0391002
2884,9866;0,0391937
2885,9507;0,0392854
2886,9150;0,0393788
2887,8792;0,0394779
2888,8435;0,0395862
2889,8076;0,0397059
2890,7720;0,0398384
2891,7361;0,0399831
2892,7004;0,0401366
2893,6646;0,0402933
2894,6289;0,040447
2895,5930;0,0405942
2896,5574;0,0407359
2897,5215;0,0408768
2898,4858;0,0410225
2899,4500;0,0411762
2900,4143;0,0413369
2901,3784;0,0415012
2902,3428;0,0416666
2903,3069;0,0418346
2904,2712;0,0420122
2905,2354;0,0422108
2906,1997;0,0424439
2907,1638;0,0427252
2908,1282;0,0430661
2909,0923;0,0434746
2910,0566;0,0439516
2911,0208;0,0444876
2911,9851;0,0450592
2912,9492;0,0456293
2913,9136;0,0461525
2914,8777;0,0465839
2915,8420;0,0468903
2916,8062;0,0470566
2917,7705;0,0470873
2918,7346;0,0470009
2919,6990;0,046822
2920,6631;0,046574
2921,6274;0,0462757
2922,5916;0,0459411
2923,5559;0,0455815
2924,5200;0,0452055
2925,4844;0,0448198
2926,4485;0,0444287
2927,4128;0,044035
2928,3770;0,043642
2929,3413;0,0432543
2930,3054;0,0428774
2931,2698;0,0425155
2932,2339;0,0421695
2933,1982;0,0418371
2934,1624;0,0415145
2935,1267;0,0411993
2936,0908;0,0408918
2937,0552;0,0405946
2938,0193;0,0403099
2938,9836;0,0400374
2939,9478;0,0397741
2940,9121;0,0395153
2941,8762;0,0392584
2942,8406;0,0390048
2943,8047;0,0387604
2944,7690;0,0385341
2945,7332;0,0383339
2946,6975;0,0381633
2947,6616;0,03802
2948,6260;0,0378968
2949,5901;0,037785
2950,5544;0,0376772
2951,5186;0,0375692
2952,4829;0,0374587
2953,4470;0,0373437
2954,4114;0,0372212
2955,3755;0,0370873
2956,3398;0,0369385
2957,3040;0,0367735
2958,2683;0,0365935
2959,2324;0,0364018
2960,1968;0,0362021
2961,1609;0,0359975
2962,1252;0,0357899
2963,0894;0,0355802
2964,0537;0,0353686
2965,0178;0,0351556
2965,9822;0,0349417
2966,9463;0,0347283
2967,9106;0,0345168
2968,8748;0,034308
2969,8391;0,0341021
2970,8032;0,0338988
2971,7676;0,0336986
2972,7317;0,0335039
2973,6960;0,0333188
2974,6602;0,0331472
2975,6245;0,0329912
2976,5886;0,0328499
2977,5530;0,0327205
2978,5171;0,0326011
2979,4814;0,0324911
2980,4456;0,0323918
2981,4099;0,0323038
2982,3740;0,0322257
2983,3384;0,0321545
2984,3025;0,0320877
2985,2668;0,0320249
2986,2310;0,0319672
2987,1953;0,0319151
2988,1594;0,0318667
2989,1238;0,0318183
2990,0879;0,0317675
2991,0522;0,031716
2992,0164;0,0316708
2992,9807;0,0316405
2993,9448;0,0316314
2994,9092;0,0316441
2995,8733;0,0316741
2996,8376;0,0317145
2997,8018;0,0317593
2998,7661;0,031804
2999,7302;0,0318454
3000,6946;0,0318809
3001,6587;0,0319089
3002,6230;0,0319303
3003,5872;0,0319486
3004,5515;0,031969
3005,5156;0,0319953
3006,4800;0,0320276
3007,4441;0,0320622
3008,4084;0,0320935
3009,3726;0,0321178
3010,3369;0,0321355
3011,3010;0,0321509
3012,2654;0,0321694
3013,2295;0,0321945
3014,1938;0,032226
3015,1580;0,0322607
3016,1223;0,0322959
3017,0864;0,0323309
3018,0508;0,0323688
3019,0149;0,0324134
3019,9792;0,0324671
3020,9434;0,032529
3021,9077;0,0325956
3022,8718;0,0326634
3023,8362;0,0327316
3024,8003;0,0328019
3025,7646;0,0328767
3026,7288;0,0329557
3027,6931;0,0330344
3028,6572;0,0331055
3029,6216;0,0331621
3030,5857;0,0332022
3031,5500;0,0332301
3032,5142;0,0332561
3033,4785;0,033292
3034,4426;0,033347
3035,4070;0,033424
3036,3711;0,0335181
3037,3354;0,0336191
3038,2996;0,0337145
3039,2639;0,0337952
3040,2280;0,0338588
3041,1924;0,0339109
3042,1565;0,0339626
3043,1208;0,034025
3044,0850;0,0341036
3045,0493;0,0341956
3046,0134;0,0342911
3046,9778;0,0343795
3047,9419;0,0344548
3048,9063;0,0345192
3049,8704;0,0345816
3050,8347;0,0346511
3051,7988;0,0347315
3052,7632;0,0348192
3053,7273;0,0349062
3054,6917;0,0349861
3055,6558;0,0350589
3056,6201;0,035131
3057,5842;0,0352111
3058,5486;0,035304
3059,5127;0,0354072
3060,4771;0,035512
3061,4412;0,035608
3062,4055;0,0356873
3063,3696;0,0357474
3064,3340;0,0357917
3065,2981;0,0358272
3066,2625;0,0358627
3067,2266;0,0359062
3068,1909;0,0359633
3069,1550;0,0360361
3070,1194;0,0361228
3071,0835;0,0362179
3072,0479;0,0363139
3073,0120;0,0364031
3073,9763;0,0364803
3074,9404;0,0365434
3075,9048;0,0365944
3076,8689;0,0366378
3077,8333;0,0366794
3078,7974;0,0367247
3079,7617;0,0367772
3080,7258;0,0368377
3081,6902;0,0369048
3082,6543;0,0369751
3083,6187;0,0370446
3084,5828;0,0371097
3085,5471;0,0371687
3086,5112;0,0372225
3087,4756;0,0372744
3088,4397;0,0373285
3089,4041;0,0373876
3090,3682;0,0374522
3091,3325;0,0375203
3092,2966;0,0375897
3093,2610;0,0376594
3094,2251;0,0377293
3095,1895;0,0377992
3096,1536;0,0378667
3097,1179;0,0379277
3098,0820;0,0379792
3099,0464;0,0380229
3100,0105;0,0380664
3100,9749;0,03812
3101,9390;0,0381916
3102,9033;0,0382812
3103,8674;0,0383806
3104,8318;0,0384781
3105,7959;0,038565
3106,7603;0,0386401
3107,7244;0,0387096
3108,6887;0,0387819
3109,6528;0,038862
3110,6172;0,0389478
3111,5813;0,0390328
3112,5457;0,0391106
3113,5098;0,0391796
3114,4741;0,0392442
3115,4382;0,0393109
3116,4026;0,0393844
3117,3667;0,0394644
3118,3311;0,0395469
3119,2952;0,0396289
3120,2595;0,0397113
3121,2236;0,0397989
3122,1880;0,0398966
3123,1521;0,0400051
3124,1165;0,0401199
3125,0806;0,0402333
3126,0449;0,0403397
3127,0090;0,0404383
3127,9734;0,040533
3128,9375;0,040629
3129,9019;0,0407294
3130,8660;0,0408341
3131,8303;0,0409402
3132,7944;0,0410454
3133,7588;0,0411487
3134,7229;0,0412505
3135,6873;0,0413518
3136,6514;0,0414528
3137,6157;0,0415536
3138,5798;0,0416545
3139,5442;0,0417565
3140,5083;0,0418606
3141,4727;0,0419674
3142,4368;0,0420767
3143,4011;0,0421879
3144,3652;0,0423005
3145,3296;0,0424144
3146,2937;0,0425294
3147,2581;0,0426445
3148,2222;0,0427578
3149,1865;0,0428675
3150,1506;0,042973
3151,1150;0,0430758
3152,0791;0,0431795
3153,0435;0,0432883
3154,0076;0,0434053
3154,9719;0,0435313
3155,9360;0,0436638
3156,9004;0,0437984
3157,8645;0,0439301
3158,8289;0,0440554
3159,7930;0,0441734
3160,7573;0,044286
3161,7214;0,044397
3162,6858;0,0445099
3163,6499;0,0446269
3164,6143;0,0447478
3165,5784;0,0448712
3166,5427;0,0449951
3167,5068;0,0451185
3168,4712;0,0452421
3169,4353;0,0453619
3170,3997;0,0454911
3171,3638;0,0456238
3172,3281;0,0457569
3173,2922;0,0458849
3174,2566;0,0460021
3175,2207;0,0461057
3176,1851;0,0461985
3177,1492;0,0462891
3178,1135;0,0463885
3179,0776;0,0465055
3180,0420;0,0466416
3181,0061;0,0467914
3181,9705;0,0469449
3182,9346;0,0470929
3183,8989;0,0472298
3184,8630;0,0473546
3185,8274;0,0474691
3186,7915;0,0475763
3187,7559;0,0476798
3188,7200;0,0477842
3189,6843;0,0478955
3190,6484;0,0480181
3191,6128;0,0481518
3192,5769;0,0482899
3193,5413;0,0484209
3194,5054;0,0485341
3195,4697;0,0486252
3196,4338;0,0486999
3197,3982;0,0487709
3198,3623;0,0488528
3199,3267;0,0489548
3200,2908;0,0490782
3201,2551;0,0492171
3202,2192;0,0493619
3203,1836;0,0495037
3204,1477;0,049637
3205,1121;0,0497603
3206,0762;0,0498755
3207,0405;0,0499856
3208,0046;0,0500931
3208,9690;0,0501987
3209,9331;0,0503018
3210,8975;0,0504021
3211,8616;0,0505012
3212,8259;0,0506017
3213,7900;0,0507061
3214,7544;0,0508148
3215,7185;0,0509256
3216,6829;0,0510355
3217,6470;0,0511426
3218,6113;0,0512477
3219,5754;0,0513527
3220,5398;0,0514593
3221,5039;0,0515674
3222,4683;0,051675
3223,4324;0,0517811
3224,3967;0,051887
3225,3608;0,0519964
3226,3252;0,0521132
3227,2893;0,052238
3228,2537;0,0523676
3229,2178;0,0524956
3230,1821;0,0526157
3231,1462;0,052725
3232,1106;0,0528253
3233,0747;0,0529222
3234,0391;0,053023
3235,0032;0,0531342
3235,9675;0,0532596
3236,9316;0,053399
3237,8960;0,053548
3238,8601;0,0536991
3239,8245;0,0538437
3240,7886;0,0539756
3241,7529;0,054093
3242,7170;0,0541996
3243,6814;0,054303
3244,6455;0,054411
3245,6099;0,0545296
3246,5740;0,0546609
3247,5383;0,0548046
3248,5024;0,0549582
3249,4668;0,055118
3250,4309;0,0552787
3251,3953;0,0554344
3252,3594;0,0555806
3253,3237;0,0557166
3254,2878;0,0558468
3255,2522;0,0559789
3256,2163;0,0561198
3257,1807;0,0562714
3258,1448;0,0564292
3259,1091;0,0565856
3260,0732;0,0567345
3261,0376;0,0568743
3262,0017;0,0570092
3262,9661;0,0571449
3263,9302;0,057285
3264,8945;0,0574278
3265,8586;0,0575672
3266,8230;0,0576956
3267,7871;0,0578081
3268,7515;0,0579044
3269,7156;0,0579878
3270,6799;0,0580629
3271,6440;0,0581327
3272,6084;0,0581982
3273,5725;0,0582596
3274,5369;0,0583183
3275,5010;0,0583772
3276,4653;0,0584397
3277,4294;0,0585071
3278,3938;0,0585768
3279,3579;0,0586431
3280,3223;0,0586993
3281,2864;0,0587418
3282,2507;0,0587716
3283,2148;0,0587937
3284,1792;0,0588143
3285,1433;0,0588373
3286,1077;0,0588623
3287,0718;0,0588851
3288,0361;0,0589011
3289,0002;0,0589073
3289,9646;0,0589045
3290,9287;0,0588961
3291,8931;0,0588858
3292,8572;0,0588752
3293,8215;0,0588633
3294,7856;0,0588476
3295,7500;0,058827
3296,7141;0,0588029
3297,6785;0,0587796
3298,6426;0,0587623
3299,6069;0,0587538
3300,5710;0,0587529
3301,5354;0,0587537
3302,4995;0,0587483
3303,4639;0,05873
3304,4280;0,0586964
3305,3923;0,0586513
3306,3564;0,0586024
3307,3208;0,0585585
3308,2849;0,0585248
3309,2493;0,0585012
3310,2134;0,0584839
3311,1777;0,0584681
3312,1418;0,0584519
3313,1062;0,0584362
3314,0703;0,0584243
3315,0347;0,0584198
3315,9988;0,0584256
3316,9631;0,0584438
3317,9272;0,0584748
3318,8916;0,0585162
3319,8557;0,0585609
3320,8201;0,0585985
3321,7842;0,0586199
3322,7485;0,0586225
3323,7126;0,0586133
3324,6770;0,0586061
3325,6411;0,0586136
3326,6055;0,05864
3327,5696;0,0586785
3328,5339;0,0587163
3329,4980;0,0587429
3330,4624;0,0587559
3331,4265;0,0587604
3332,3909;0,0587628
3333,3550;0,0587651
3334,3193;0,0587623
3335,2834;0,0587456
3336,2478;0,0587081
3337,2119;0,0586485
3338,1763;0,0585712
3339,1404;0,0584833
3340,1047;0,0583912
3341,0688;0,0582998
3342,0332;0,0582128
3342,9973;0,0581325
3343,9617;0,058059
3344,9258;0,057989
3345,8901;0,0579165
3346,8542;0,0578348
3347,8186;0,0577402
3348,7827;0,0576329
3349,7471;0,0575163
3350,7112;0,0573942
3351,6755;0,0572689
3352,6396;0,0571412
3353,6040;0,0570127
3354,5681;0,0568863
3355,5325;0,0567658
3356,4966;0,0566541
3357,4609;0,0565513
3358,4250;0,0564548
3359,3894;0,0563613
3360,3535;0,0562681
3361,3179;0,0561734
3362,2820;0,0560752
3363,2463;0,0559716
3364,2104;0,0558614
3365,1748;0,0557462
3366,1389;0,0556301
3367,1033;0,0555184
3368,0674;0,0554144
3369,0317;0,0553168
3369,9958;0,0552206
3370,9602;0,0551197
3371,9243;0,0550105
3372,8887;0,0548932
3373,8528;0,0547711
3374,8171;0,0546482
3375,7813;0,0545283
3376,7456;0,0544138
3377,7097;0,054306
3378,6741;0,0542049
3379,6382;0,0541088
3380,6025;0,054014
3381,5667;0,053916
3382,5310;0,0538121
3383,4951;0,0537036
3384,4595;0,0535958
3385,4236;0,0534958
3386,3879;0,0534084
3387,3521;0,0533336
3388,3164;0,0532654
3389,2805;0,0531952
3390,2449;0,053114
3391,2090;0,0530165
3392,1733;0,0529025
3393,1375;0,0527772
3394,1018;0,0526499
3395,0659;0,0525298
3396,0303;0,0524234
3396,9944;0,0523305
3397,9587;0,0522446
3398,9229;0,0521551
3399,8872;0,052053
3400,8513;0,0519355
3401,8157;0,0518067
3402,7798;0,0516748
3403,7441;0,0515472
3404,7083;0,0514273
3405,6726;0,0513141
3406,6367;0,0512052
3407,6011;0,0510983
3408,5652;0,0509914
3409,5295;0,0508814
3410,4937;0,0507644
3411,4580;0,050638
3412,4221;0,0505042
3413,3865;0,0503695
3414,3506;0,0502401
3415,3149;0,0501159
3416,2791;0,0499883
3417,2434;0,0498444
3418,2075;0,0496756
3419,1719;0,0494861
3420,1360;0,049293
3421,1003;0,0491183
3422,0645;0,0489757
3423,0288;0,0488629
3423,9929;0,0487638
3424,9573;0,0486583
3425,9214;0,0485331
3426,8857;0,0483867
3427,8499;0,0482284
3428,8142;0,0480715
3429,7783;0,0479252
3430,7427;0,0477904
3431,7068;0,0476603
3432,6711;0,0475255
3433,6353;0,04738
3434,5996;0,0472237
3435,5637;0,0470616
3436,5281;0,0468999
3437,4922;0,0467438
3438,4565;0,0465962
3439,4207;0,0464584
3440,3850;0,0463299
3441,3491;0,046207
3442,3135;0,0460813
3443,2776;0,0459415
3444,2419;0,0457783
3445,2061;0,0455914
3446,1704;0,0453925
3447,1345;0,0452014
3448,0989;0,0450347
3449,0630;0,0448964
3450,0273;0,0447763
3450,9915;0,0446582
3451,9558;0,04453
3452,9199;0,0443896
3453,8843;0,0442436
3454,8484;0,0441006
3455,8127;0,0439638
3456,7769;0,0438278
3457,7412;0,0436828
3458,7053;0,0435216
3459,6697;0,0433449
3460,6338;0,043161
3461,5981;0,0429809
3462,5623;0,0428115
3463,5266;0,0426533
3464,4907;0,0425017
3465,4551;0,0423523
3466,4192;0,0422047
3467,3835;0,0420614
3468,3477;0,041924
3469,3120;0,0417888
3470,2761;0,0416471
3471,2405;0,0414911
3472,2046;0,0413206
3473,1689;0,0411468
3474,1331;0,0409869
3475,0974;0,0408535
3476,0615;0,0407442
3477,0259;0,040641
3477,9900;0,0405189
3478,9543;0,0403615
3479,9185;0,040171
3480,8828;0,0399688
3481,8469;0,0397835
3482,8113;0,039632
3483,7754;0,0395101
3484,7397;0,0393964
3485,7039;0,0392663
3486,6682;0,0391067
3487,6323;0,0389228
3488,5967;0,0387343
3489,5608;0,038563
3490,5251;0,0384191
3491,4893;0,0382972
3492,4536;0,0381813
3493,4177;0,0380572
3494,3821;0,0379229
3495,3462;0,0377901
3496,3105;0,0376744
3497,2747;0,0375804
3498,2390;0,0374929
3499,2031;0,0373821
3500,1675;0,0372209
3501,1316;0,0370055
3502,0959;0,0367645
3503,0601;0,0365466
3504,0244;0,0363883
3504,9885;0,0362892
3505,9529;0,0362147
3506,9170;0,0361201
3507,8813;0,0359771
3508,8455;0,0357884
3509,8098;0,0355837
3510,7739;0,0353982
3511,7383;0,0352506
3512,7024;0,0351366
3513,6667;0,0350392
3514,6309;0,0349445
3515,5952;0,0348487
3516,5593;0,0347552
3517,5237;0,034665
3518,4878;0,0345709
3519,4521;0,0344598
3520,4163;0,0343213
3521,3806;0,0341563
3522,3447;0,0339777
3523,3091;0,0338026
3524,2732;0,0336403
3525,2375;0,0334861
3526,2017;0,0333273
3527,1660;0,0331562
3528,1301;0,0329793
3529,0945;0,0328145
3530,0586;0,0326783
3531,0229;0,032573
3531,9871;0,0324846
3532,9514;0,0323909
3533,9155;0,032274
3534,8799;0,0321303
3535,8440;0,0319732
3536,8083;0,0318257
3537,7725;0,0317077
3538,7368;0,0316247
3539,7009;0,0315649
3540,6653;0,0315039
3541,6294;0,0314116
3542,5938;0,0312632
3543,5579;0,0310523
3544,5222;0,0308021
3545,4863;0,0305603
3546,4507;0,0303714
3547,4148;0,0302472
3548,3792;0,0301628
3549,3433;0,0300752
3550,3076;0,0299504
3551,2717;0,0297824
3552,2361;0,0295979
3553,2002;0,0294381
3554,1646;0,0293288
3555,1287;0,0292625
3556,0930;0,0292065
3557,0571;0,0291272
3558,0215;0,0290139
3558,9856;0,0288873
3559,9500;0,0287874
3560,9141;0,028743
3561,8784;0,0287452
3562,8425;0,0287415
3563,8069;0,0286528
3564,7710;0,0284103
3565,7354;0,0280122
3566,6995;0,0275606
3567,6638;0,0272035
3568,6279;0,027018
3569,5923;0,0269737
3570,5564;0,0269919
3571,5208;0,0270036
3572,4849;0,0269711
3573,4492;0,0268881
3574,4133;0,0267712
3575,3777;0,0266433
3576,3418;0,026519
3577,3062;0,0264018
3578,2703;0,026294
3579,2346;0,0262071
3580,1987;0,0261597
3581,1631;0,026162
3582,1272;0,0261983
3583,0916;0,0262222
3584,0557;0,0261662
3585,0200;0,0259709
3585,9841;0,0256357
3586,9485;0,0252563
3587,9126;0,0249761
3588,8770;0,0248701
3589,8411;0,0249008
3590,8054;0,0249737
3591,7695;0,0250026
3592,7339;0,0249426
3593,6980;0,0248026
3594,6624;0,0246347
3595,6265;0,0244918
3596,5908;0,0243848
3597,5549;0,0242807
3598,5193;0,0241416
3599,4834;0,0239662
3600,4478;0,0237988
3601,4119;0,0236969
3602,3762;0,0236848
3603,3403;0,0237338
3604,3047;0,0237801
3605,2688;0,0237572
3606,2332;0,0236291
3607,1973;0,0234111
3608,1616;0,0231615
3609,1257;0,0229397
3610,0901;0,0227703
3611,0542;0,0226464
3612,0186;0,0225566
3612,9827;0,0225
3613,9470;0,0224779
3614,9111;0,0224746
3615,8755;0,0224489
3616,8396;0,0223494
3617,8040;0,0221515
3618,7681;0,0218951
3619,7324;0,0216811
3620,6965;0,0216044
3621,6609;0,0216914
3622,6250;0,021902
3623,5894;0,0221632
3624,5535;0,022387
3625,5178;0,0224691
3626,4819;0,0223028
3627,4463;0,021851
3628,4104;0,0212423
3629,3748;0,0207194
3630,3389;0,0204233
3631,3032;0,0203179
3632,2673;0,0203011
3633,2317;0,0202945
3634,1958;0,0202638
3635,1602;0,0202068
3636,1243;0,0201354
3637,0886;0,0200592
3638,0527;0,0199803
3639,0171;0,0199009
3639,9812;0,0198345
3640,9456;0,0198073
3641,9097;0,0198467
3642,8740;0,0199633
3643,8381;0,0201356
3644,8025;0,0203019
3645,7666;0,0203545
3646,7310;0,0201584
3647,6951;0,0196491
3648,6594;0,018988
3649,6235;0,018499
3650,5879;0,0183393
3651,5520;0,0184166
3652,5164;0,0185685
3653,4805;0,0186699
3654,4448;0,0186505
3655,4089;0,0185035
3656,3733;0,0182911
3657,3374;0,0181063
3658,3018;0,0180053
3659,2659;0,0179812
3660,2302;0,0179966
3661,1943;0,0180274
3662,1587;0,0180803
3663,1228;0,0181805
3664,0872;0,0183396
3665,0513;0,0185321
3666,0156;0,0186957
3666,9797;0,0187549
3667,9441;0,0186695
3668,9082;0,0184889
3669,8726;0,0183374
3670,8367;0,0183034
3671,8010;0,0183588
3672,7651;0,0183918
3673,7295;0,0182882
3674,6936;0,0180153
3675,6580;0,0176738
3676,6221;0,017422
3677,5864;0,0173292
3678,5505;0,0173555
3679,5149;0,0174363
3680,4790;0,0175368
3681,4434;0,0176567
3682,4075;0,0178111
3683,3718;0,0180063
3684,3359;0,0182213
3685,3003;0,0184028
3686,2644;0,0184751
3687,2288;0,0183739
3688,1929;0,0181088
3689,1572;0,0178023
3690,1213;0,0176079
3691,0857;0,0175799
3692,0498;0,0176692
3693,0142;0,0178044
3693,9783;0,0179396
3694,9426;0,0180578
3695,9067;0,018157
3696,8711;0,0182358
3697,8352;0,0182835
3698,7996;0,0182818
3699,7637;0,018219
3700,7280;0,0181109
3701,6921;0,0180085
3702,6565;0,017975
3703,6206;0,0180472
3704,5850;0,0182189
3705,5491;0,0184493
3706,5134;0,0186737
3707,4775;0,0188071
3708,4419;0,0187549
3709,4060;0,0184608
3710,3704;0,0179859
3711,3345;0,0175204
3712,2988;0,0172461
3713,2629;0,0172065
3714,2273;0,0173364
3715,1914;0,017548
3716,1558;0,0177735
3717,1199;0,0179712
3718,0842;0,0181222
3719,0483;0,0182275
3720,0127;0,0182987
3720,9768;0,0183448
3721,9412;0,0183642
3722,9053;0,0183519
3723,8696;0,0183173
3724,8337;0,018294
3725,7981;0,0183244
3726,7622;0,018433
3727,7266;0,0186126
3728,6907;0,0188302
3729,6550;0,0190396
3730,6191;0,0191866
3731,5835;0,0192112
3732,5476;0,0190585
3733,5120;0,0187178
3734,4761;0,0182723
3735,4404;0,0178861
3736,4045;0,0176939
3737,3689;0,0177212
3738,3330;0,0179148
3739,2974;0,0181975
3740,2615;0,0184842
3741,2258;0,0186796
3742,1899;0,0186942
3743,1543;0,0185097
3744,1184;0,0182443
3745,0828;0,0180805
3746,0469;0,0180918
3747,0112;0,0181974
3747,9753;0,018246
3748,9397;0,0181049
3749,9038;0,0177549
3750,8682;0,0173542
3751,8323;0,0171201
3752,7966;0,0171202
3753,7607;0,0172677
3754,7251;0,0174421
3755,6892;0,0175532
3756,6536;0,0175558
3757,6177;0,0174624
3758,5820;0,017341
3759,5461;0,0172713
3760,5105;0,017288
3761,4746;0,0173698
3762,4390;0,0174722
3763,4031;0,0175587
3764,3674;0,0176117
3765,3315;0,0176297
3766,2959;0,0176149
3767,2600;0,0175641
3768,2244;0,0174725
3769,1885;0,0173513
3770,1528;0,0172373
3771,1169;0,0171795
3772,0813;0,0172074
3773,0454;0,017314
3774,0098;0,0174602
3774,9739;0,0175918
3775,9382;0,017658
3776,9023;0,0176341
3777,8667;0,0175405
3778,8308;0,0174374
3779,7952;0,0173837
3780,7593;0,0173947
3781,7236;0,0174425
3782,6877;0,0174845
3783,6521;0,0174909
3784,6162;0,0174568
3785,5806;0,0174001
3786,5447;0,0173492
3787,5090;0,0173288
3788,4731;0,0173519
3789,4375;0,0174177
3790,4016;0,0175133
3791,3660;0,0176186
3792,3301;0,0177139
3793,2944;0,0177898
3794,2585;0,0178551
3795,2229;0,0179303
3796,1870;0,0180271
3797,1514;0,0181265
3798,1155;0,0181787
3799,0798;0,0181325
3800,0439;0,0179835
3801,0083;0,0178009
3801,9724;0,0176801
3802,9368;0,0176554
3803,9009;0,0176767
3804,8652;0,0176605
3805,8293;0,0175573
3806,7937;0,0173963
3807,7578;0,0172739
3808,7222;0,0172789
3809,6863;0,0174266
3810,6506;0,0176659
3811,6147;0,0179192
3812,5791;0,018114
3813,5432;0,0182083
3814,5076;0,0182168
3815,4717;0,0182027
3816,4360;0,0182158
3817,4001;0,0182361
3818,3645;0,0181897
3819,3286;0,0180187
3820,2930;0,0177481
3821,2571;0,0174859
3822,2214;0,0173356
3823,1855;0,0173188
3824,1499;0,0173909
3825,1140;0,0174963
3826,0784;0,0175996
3827,0425;0,0176911
3828,0068;0,0177766
3828,9709;0,0178654
3829,9353;0,017962
3830,8994;0,0180653
3831,8638;0,0181719
3832,8279;0,0182748
3833,7922;0,0183568
3834,7563;0,0183868
3835,7207;0,0183289
3836,6848;0,0181679
3837,6492;0,017936
3838,6133;0,017705
3839,5776;0,0175375
3840,5417;0,0174467
3841,5061;0,0174075
3842,4702;0,0173932
3843,4346;0,0174017
3844,3987;0,0174573
3845,3630;0,0175932
3846,3271;0,0178306
3847,2915;0,0181651
3848,2556;0,0185606
3849,2200;0,01894
3850,1841;0,0191721
3851,1484;0,0190872
3852,1125;0,0185986
3853,0769;0,0179009
3854,0410;0,0173757
3855,0054;0,0171958
3855,9695;0,0172754
3856,9338;0,017485
3857,8979;0,0177385
3858,8623;0,0179774
3859,8264;0,0181504
3860,7908;0,0182165
3861,7549;0,0181698
3862,7192;0,0180604
3863,6833;0,0179732
3864,6477;0,0179688
3865,6118;0,0180454
3866,5762;0,0181512
3867,5403;0,0182196
3868,5046;0,0181993
3869,4688;0,0180787
3870,4331;0,0178954
3871,3972;0,0177177
3872,3616;0,0176077
3873,3257;0,017594
3874,2900;0,017669
3875,2542;0,0178008
3876,2185;0,0179448
3877,1826;0,0180569
3878,1470;0,0181081
3879,1111;0,0181002
3880,0754;0,0180654
3881,0396;0,0180396
3882,0039;0,01803
3882,9680;0,0180137
3883,9324;0,0179696
3884,8965;0,0179088
3885,8608;0,0178689
3886,8250;0,0178774
3887,7893;0,0179211
3888,7534;0,0179516
3889,7178;0,0179187
3890,6819;0,0178144
3891,6462;0,0176957
3892,6104;0,0176488
3893,5747;0,0177205
3894,5388;0,017894
3895,5032;0,0181167
3896,4673;0,0183308
3897,4316;0,0184899
3898,3958;0,0185679
3899,3601;0,0185594
3900,3242;0,0184685
3901,2886;0,0183003
3902,2527;0,0180707
3903,2170;0,0178232
3904,1812;0,0176188
3905,1455;0,0175002
3906,1096;0,01747
3907,0740;0,0175018
3908,0381;0,0175646
3909,0024;0,0176392
3909,9666;0,0177216
3910,9309;0,0178168
3911,8950;0,0179262
3912,8594;0,0180367
3913,8235;0,0181198
3914,7878;0,0181444
3915,7520;0,0180989
3916,7163;0,0180074
3917,6804;0,0179211
3918,6448;0,0178833
3919,6089;0,0178996
3920,5732;0,0179401
3921,5374;0,0179645
3922,5017;0,0179498
3923,4658;0,0179058
3924,4302;0,0178695
3925,3943;0,0178765
3926,3586;0,0179333
3927,3228;0,0180123
3928,2871;0,0180699
3929,2512;0,0180696
3930,2156;0,0180029
3931,1797;0,0178951
3932,1440;0,0177912
3933,1082;0,0177277
3934,0725;0,0177158
3935,0366;0,0177476
3936,0010;0,0178077
3936,9651;0,0178792
3937,9294;0,0179431
3938,8936;0,0179794
3939,8579;0,0179738
3940,8220;0,0179297
3941,7864;0,0178734
3942,7505;0,0178421
3943,7148;0,0178591
3944,6790;0,0179178
3945,6433;0,0179858
3946,6074;0,0180257
3947,5718;0,0180167
3948,5359;0,0179672
3949,5002;0,0179085
3950,4644;0,0178727
3951,4287;0,0178723
3952,3928;0,0178973
3953,3572;0,0179276
3954,3213;0,0179471
3955,2856;0,017951
3956,2498;0,0179443
3957,2141;0,0179351
3958,1782;0,0179284
3959,1426;0,0179251
3960,1067;0,0179249
3961,0710;0,0179291
3962,0352;0,0179396
3962,9995;0,0179566
3963,9636;0,0179765
3964,9280;0,0179933
3965,8921;0,0180022
3966,8564;0,0180026
3967,8206;0,0179988
3968,7849;0,0179965
3969,7490;0,0179996
3970,7134;0,018007
3971,6775;0,0180139
3972,6418;0,0180158
3973,6060;0,0180113
3974,5703;0,0180037
3975,5344;0,0179989
3976,4988;0,0180011
3977,4629;0,0180107
3978,4272;0,018024
3979,3914;0,0180355
3980,3557;0,0180408
3981,3198;0,0180391
3982,2842;0,0180335
3983,2483;0,0180285
3984,2126;0,0180278
3985,1768;0,0180314
3986,1411;0,0180364
3987,1052;0,0180394
3988,0696;0,018039
3989,0337;0,0180373
3989,9980;0,0180384
3990,9622;0,0180449
3991,9265;0,0180558
3992,8906;0,0180668
3993,8550;0,0180731
3994,8191;0,0180731
3995,7834;0,018069
3996,7476;0,0180651
3997,7119;0,0180654
3998,6760;0,0180716
3999,6404;0,0180835
4000,6045;0,0180283

##### Extended Information
[Comments]
Sample name
Comment
Username
Division
Organization;UNIVERSIDAD INDUSTRIAL DE SANTANDER

[Detailed Information]
Creation date;29/01/2025 2:25 p.m.

Data array type;Linear data array
Horizontal axis;Wavenumber [cm-1]
Vertical axis;Abs
Start;399,193 cm-1
End;4000,6 cm-1
Data interval;0,964233 cm-1
Data points;3736    

[Measurement Information]
Model name;FT/IR-4X1typeA
Serial No.;A035162111

Accessory;ATR PRO 4X
Accessory S/N;A021162126
Incident angle;45 deg

Measurement date;29/01/2025 2:25 p.m.

Light source;Standard
Detector;TGS
Accumulation;Auto (74)
Resolution;4 cm-1
Zero filling;On
Apodization;Cosine
Gain;Auto (8)
Aperture;Auto (7 mm)
Scan speed;Auto (2 mm/sec)
Filter;Auto (12800 Hz)

