TITLE;
DATA TYPE;INFRARED SPECTRUM
ORIGIN;JASCO
OWNER;
DATE;25/03/14
TIME;11:44:29
SPECTROMETER/DATA SYSTEM;
LOCALE;9226
RESOLUTION;
DELTAX;0,964233
XUNITS;1/CM
YUNITS;ABSORBANCE
FIRSTX;  399,1927
LASTX; 4000,6047
NPOINTS;    3736
FIRSTY;     0,19868
MAXY;     0,28818
MINY;     0,01263
XYDATA
399,1927;0,198684
400,1569;0,199591
401,1211;0,199204
402,0854;0,197956
403,0496;0,196369
404,0138;0,194891
404,9781;0,193852
405,9423;0,193426
406,9065;0,193599
407,8708;0,19421
408,8350;0,195068
409,7992;0,19606
410,7635;0,197162
411,7277;0,198366
412,6919;0,19959
413,6562;0,200664
414,6204;0,201394
415,5846;0,201648
416,5489;0,201443
417,5131;0,201066
418,4773;0,20108
419,4416;0,201912
420,4058;0,203336
421,3700;0,204698
422,3343;0,205513
423,2985;0,205662
424,2627;0,2053
425,2270;0,204742
426,1912;0,204334
427,1554;0,204307
428,1197;0,204693
429,0839;0,205352
430,0481;0,206083
431,0124;0,206722
431,9766;0,207201
432,9408;0,207541
433,9051;0,207788
434,8693;0,207954
435,8335;0,208012
436,7978;0,207948
437,7620;0,207814
438,7262;0,207722
439,6905;0,207768
440,6547;0,207938
441,6189;0,208072
442,5832;0,207921
443,5474;0,207315
444,5116;0,206309
445,4759;0,205178
446,4401;0,20425
447,4043;0,203737
448,3686;0,203671
449,3328;0,203943
450,2970;0,204389
451,2613;0,204854
452,2255;0,205235
453,1897;0,205464
454,1540;0,205496
455,1182;0,205301
456,0824;0,204883
457,0467;0,204323
458,0109;0,203792
458,9751;0,203479
459,9394;0,203483
460,9036;0,203765
461,8678;0,204198
462,8321;0,20463
463,7963;0,204924
464,7605;0,204989
465,7248;0,204804
466,6890;0,204416
467,6532;0,203917
468,6175;0,203408
469,5817;0,202978
470,5459;0,202715
471,5102;0,202696
472,4744;0,202948
473,4386;0,203404
474,4029;0,203911
475,3671;0,204306
476,3313;0,204491
477,2956;0,204455
478,2598;0,20425
479,2240;0,203954
480,1883;0,203632
481,1525;0,203335
482,1167;0,203132
483,0810;0,203129
484,0452;0,203444
485,0094;0,204129
485,9737;0,205105
486,9379;0,206176
487,9021;0,20712
488,8664;0,207783
489,8306;0,208124
490,7948;0,208212
491,7591;0,208177
492,7233;0,208149
493,6875;0,208197
494,6518;0,208324
495,6160;0,208491
496,5802;0,208659
497,5445;0,208802
498,5087;0,20892
499,4729;0,209021
500,4372;0,209124
501,4014;0,209248
502,3656;0,209416
503,3299;0,209647
504,2941;0,209958
505,2583;0,210355
506,2226;0,210826
507,1868;0,211339
508,1510;0,211846
509,1153;0,212307
510,0795;0,212715
511,0437;0,213099
512,0080;0,213505
512,9722;0,21396
513,9365;0,214454
514,9007;0,21494
515,8649;0,215365
516,8292;0,215714
517,7934;0,21602
518,7576;0,216347
519,7219;0,216729
520,6861;0,217131
521,6503;0,217476
522,6146;0,217679
523,5788;0,217699
524,5430;0,217553
525,5073;0,21731
526,4715;0,21705
527,4357;0,216821
528,4000;0,216618
529,3642;0,216418
530,3284;0,21621
531,2927;0,21601
532,2569;0,215845
533,2211;0,215726
534,1854;0,215629
535,1496;0,215504
536,1138;0,215307
537,0781;0,215023
538,0423;0,214673
539,0065;0,2143
539,9708;0,213953
540,9350;0,213679
541,8992;0,213523
542,8635;0,213527
543,8277;0,213717
544,7919;0,214086
545,7562;0,214584
546,7204;0,215131
547,6846;0,215649
548,6489;0,216095
549,6131;0,216474
550,5773;0,216817
551,5416;0,21716
552,5058;0,217523
553,4700;0,217901
554,4343;0,218275
555,3985;0,218612
556,3627;0,218862
557,3270;0,218959
558,2912;0,21882
559,2554;0,218375
560,2197;0,217593
561,1839;0,216508
562,1481;0,215218
563,1124;0,213856
564,0766;0,212545
565,0408;0,211363
566,0051;0,210335
566,9693;0,209447
567,9335;0,20867
568,8978;0,207987
569,8620;0,207393
570,8262;0,206892
571,7905;0,206484
572,7547;0,206167
573,7189;0,205927
574,6832;0,205742
575,6474;0,205583
576,6116;0,205419
577,5759;0,20523
578,5401;0,205018
579,5043;0,204802
580,4686;0,204609
581,4328;0,204451
582,3970;0,204318
583,3613;0,204179
584,3255;0,203999
585,2897;0,203772
586,2540;0,203524
587,2182;0,203311
588,1824;0,203184
589,1467;0,203169
590,1109;0,20324
591,0751;0,203329
592,0394;0,203349
593,0036;0,203229
593,9678;0,202944
594,9321;0,202513
595,8963;0,201979
596,8605;0,201393
597,8248;0,200803
598,7890;0,200252
599,7532;0,199772
600,7175;0,199371
601,6817;0,199025
602,6459;0,19869
603,6102;0,19832
604,5744;0,197892
605,5386;0,197417
606,5029;0,196927
607,4671;0,196442
608,4313;0,195951
609,3956;0,195417
610,3598;0,194807
611,3240;0,194129
612,2883;0,193441
613,2525;0,19282
614,2167;0,192306
615,1810;0,191864
616,1452;0,191382
617,1094;0,190718
618,0737;0,189779
619,0379;0,188568
620,0021;0,187177
620,9664;0,185722
621,9306;0,184299
622,8948;0,182967
623,8591;0,181755
624,8233;0,180653
625,7875;0,179716
626,7518;0,178929
627,7160;0,178255
628,6802;0,177643
629,6445;0,177052
630,6087;0,176458
631,5729;0,175858
632,5372;0,175257
633,5014;0,17466
634,4656;0,174072
635,4299;0,1735
636,3941;0,172961
637,3583;0,17247
638,3226;0,172033
639,2868;0,171636
640,2510;0,171254
641,2153;0,170867
642,1795;0,170476
643,1437;0,170108
644,1080;0,169792
645,0722;0,169538
646,0364;0,169329
647,0007;0,169126
647,9649;0,168896
648,9291;0,168634
649,8934;0,16837
650,8576;0,168146
651,8218;0,167994
652,7861;0,167922
653,7503;0,167919
654,7145;0,16797
655,6788;0,16806
656,6430;0,168174
657,6072;0,168292
658,5715;0,168381
659,5357;0,168381
660,4999;0,168211
661,4642;0,167792
662,4284;0,167064
663,3926;0,165997
664,3569;0,164623
665,3211;0,163113
666,2853;0,161847
667,2496;0,161244
668,2138;0,161244
669,1780;0,16122
670,1423;0,16082
671,1065;0,160089
672,0707;0,159021
673,0350;0,157564
673,9992;0,155776
674,9634;0,153833
675,9277;0,151939
676,8919;0,150219
677,8561;0,148682
678,8204;0,147272
679,7846;0,145944
680,7488;0,144695
681,7131;0,143545
682,6773;0,1425
683,6415;0,141544
684,6058;0,140655
685,5700;0,139828
686,5342;0,13907
687,4985;0,138384
688,4627;0,137763
689,4269;0,137184
690,3912;0,136628
691,3554;0,136092
692,3196;0,135579
693,2839;0,135094
694,2481;0,134632
695,2123;0,134183
696,1766;0,13374
697,1408;0,133298
698,1050;0,132852
699,0693;0,132396
700,0335;0,131924
700,9977;0,131437
701,9620;0,130937
702,9262;0,130428
703,8904;0,129897
704,8547;0,129337
705,8189;0,128743
706,7831;0,128121
707,7474;0,127487
708,7116;0,126865
709,6758;0,126269
710,6401;0,125693
711,6043;0,125112
712,5685;0,124498
713,5328;0,123841
714,4970;0,123165
715,4612;0,121935
716,4255;0,121462
717,3897;0,121087
718,3539;0,120717
719,3182;0,120212
720,2824;0,119456
721,2466;0,118437
722,2109;0,117252
723,1751;0,116054
724,1393;0,114971
725,1036;0,114053
726,0678;0,113275
727,0320;0,112562
727,9963;0,111837
728,9605;0,111057
729,9247;0,11022
730,8890;0,109362
731,8532;0,108533
732,8174;0,107774
733,7817;0,107105
734,7459;0,106517
735,7101;0,105984
736,6744;0,105477
737,6386;0,104975
738,6028;0,104474
739,5671;0,103981
740,5313;0,103506
741,4955;0,103048
742,4598;0,102593
743,4240;0,10212
744,3882;0,101616
745,3525;0,101081
746,3167;0,100532
747,2809;0,0999916
748,2452;0,099474
749,2094;0,0989762
750,1736;0,0984815
751,1379;0,0979725
752,1021;0,0974454
753,0663;0,0969135
754,0306;0,0963978
754,9948;0,0959105
755,9590;0,0954448
756,9233;0,0949799
757,8875;0,0944972
758,8517;0,0939969
759,8160;0,093502
760,7802;0,0930454
761,7444;0,092649
762,7087;0,0923086
763,6729;0,0919952
764,6371;0,0916708
765,6014;0,09131
766,5656;0,0909128
767,5298;0,0905021
768,4941;0,0901089
769,4583;0,0897535
770,4225;0,0894369
771,3868;0,089143
772,3510;0,0888515
773,3152;0,0885503
774,2795;0,0882411
775,2437;0,0879354
776,2079;0,0876439
777,1722;0,0873683
778,1364;0,0870979
779,1006;0,0868144
780,0649;0,0865002
781,0291;0,0861463
781,9933;0,0857565
782,9576;0,0853453
783,9218;0,0849327
784,8860;0,0845362
785,8503;0,0841648
786,8145;0,0838178
787,7787;0,0834895
788,7430;0,0831775
789,7072;0,0828875
790,6714;0,0826326
791,6357;0,0824244
792,5999;0,0822633
793,5641;0,0821344
794,5284;0,0820146
795,4926;0,0818852
796,4568;0,0817437
797,4211;0,0816034
798,3853;0,0814824
799,3495;0,0813894
800,3138;0,0813159
801,2780;0,0812416
802,2422;0,0811478
803,2065;0,0810291
804,1707;0,0808953
805,1349;0,0807627
806,0992;0,0806416
807,0634;0,0805303
808,0276;0,080418
808,9919;0,0802945
809,9561;0,0801581
810,9203;0,0800159
811,8846;0,0798789
812,8488;0,0797547
813,8130;0,0796431
814,7773;0,0795373
815,7415;0,0794268
816,7057;0,0793011
817,6700;0,079152
818,6342;0,0789756
819,5984;0,0787755
820,5627;0,0785651
821,5269;0,0783658
822,4911;0,078201
823,4554;0,0780855
824,4196;0,0780177
825,3839;0,0779784
826,3481;0,0779386
827,3123;0,077872
828,2766;0,0777658
829,2408;0,0776239
830,2050;0,0774619
831,1693;0,0772965
832,1335;0,0771351
833,0977;0,0769722
834,0620;0,0767913
835,0262;0,0765741
835,9904;0,0763108
836,9547;0,0760065
837,9189;0,0756806
838,8831;0,0753592
839,8474;0,0750637
840,8116;0,074803
841,7758;0,0745747
842,7401;0,0743724
843,7043;0,0741952
844,6685;0,07405
845,6328;0,0739456
846,5970;0,0738819
847,5612;0,0738451
848,5255;0,0738125
849,4897;0,0737651
850,4539;0,0736991
851,4182;0,073627
852,3824;0,0735691
853,3466;0,0735394
854,3109;0,0735376
855,2751;0,0735505
856,2393;0,0735602
857,2036;0,0735524
858,1678;0,0735213
859,1320;0,07347
860,0963;0,0734103
861,0605;0,0733611
862,0247;0,0733453
862,9890;0,0733821
863,9532;0,0734791
864,9174;0,0736271
865,8817;0,0738054
866,8459;0,0739933
867,8101;0,0741817
868,7744;0,0743765
869,7386;0,0745914
870,7028;0,0748346
871,6671;0,075101
872,6313;0,0753728
873,5955;0,075628
874,5598;0,0758501
875,5240;0,0760331
876,4882;0,0761815
877,4525;0,076309
878,4167;0,0764383
879,3809;0,0766012
880,3452;0,0768354
881,3094;0,0771762
882,2736;0,0776461
883,2379;0,0782488
884,2021;0,0789708
885,1663;0,0797912
886,1306;0,0806919
887,0948;0,0816618
888,0590;0,0826945
889,0233;0,0837813
889,9875;0,084905
890,9517;0,0860394
891,9160;0,0871509
892,8802;0,0882016
893,8444;0,0891498
894,8087;0,0899502
895,7729;0,0905553
896,7371;0,0909218
897,7014;0,0910184
898,6656;0,0908343
899,6298;0,0903831
900,5941;0,0897013
901,5583;0,0888433
902,5225;0,0878733
903,4868;0,0868577
904,4510;0,0858575
905,4152;0,0849217
906,3795;0,0840828
907,3437;0,0833555
908,3079;0,0827399
909,2722;0,0822285
910,2364;0,0818132
911,2007;0,08149
912,1649;0,0812596
913,1292;0,0811242
914,0934;0,0810839
915,0576;0,0811339
916,0219;0,0812646
916,9861;0,0814621
917,9503;0,0817105
918,9146;0,081993
919,8788;0,0822938
920,8430;0,0826002
921,8073;0,082904
922,7715;0,0832015
923,7357;0,0834924
924,7000;0,0837769
925,6642;0,0840548
926,6284;0,0843256
927,5927;0,0845913
928,5569;0,0848572
929,5211;0,0851321
930,4854;0,0854253
931,4496;0,085743
932,4138;0,0860872
933,3781;0,086456
934,3423;0,0868469
935,3065;0,0872597
936,2708;0,0876999
937,2350;0,0881792
938,1992;0,0887147
939,1635;0,0893254
940,1277;0,0900266
941,0919;0,090824
942,0562;0,091712
943,0204;0,0926769
943,9846;0,0937058
944,9489;0,0947955
945,9131;0,0959552
946,8773;0,0972018
947,8416;0,0985489
948,8058;0,0999997
949,7700;0,101546
950,7343;0,103177
951,6985;0,104887
952,6627;0,106683
953,6270;0,108577
954,5912;0,110576
955,5554;0,112675
956,5197;0,114854
957,4839;0,117088
958,4481;0,119352
959,4124;0,121631
960,3766;0,123918
961,3408;0,126209
962,3051;0,1285
963,2693;0,130787
964,2335;0,13307
965,1978;0,135357
966,1620;0,137665
967,1262;0,140017
968,0905;0,142439
969,0547;0,144952
970,0189;0,147576
970,9832;0,150329
971,9474;0,153236
972,9116;0,156325
973,8759;0,15963
974,8401;0,163181
975,8043;0,166998
976,7686;0,171083
977,7328;0,175413
978,6970;0,179936
979,6613;0,184566
980,6255;0,189189
981,5897;0,193672
982,5540;0,197878
983,5182;0,201695
984,4824;0,205054
985,4467;0,20794
986,4109;0,210396
987,3751;0,212498
988,3394;0,214336
989,3036;0,215987
990,2678;0,217497
991,2321;0,218888
992,1963;0,220162
993,1605;0,221327
994,1248;0,222404
995,0890;0,223433
996,0532;0,224458
997,0175;0,225513
997,9817;0,226609
998,9459;0,227732
999,9102;0,228861
1000,8744;0,229987
1001,8386;0,231126
1002,8029;0,232317
1003,7671;0,233618
1004,7313;0,235082
1005,6956;0,236752
1006,6598;0,238655
1007,6240;0,240808
1008,5883;0,243219
1009,5525;0,245881
1010,5167;0,248768
1011,4810;0,251829
1012,4452;0,254987
1013,4094;0,258161
1014,3737;0,261272
1015,3379;0,264258
1016,3021;0,267077
1017,2664;0,269697
1018,2306;0,272097
1019,1948;0,274268
1020,1591;0,276218
1021,1233;0,277975
1022,0875;0,279583
1023,0518;0,281084
1024,0160;0,282508
1024,9802;0,283855
1025,9445;0,285103
1026,9087;0,28621
1027,8729;0,287127
1028,8372;0,2878
1029,8014;0,288172
1030,7656;0,288178
1031,7299;0,28775
1032,6941;0,286832
1033,6583;0,285401
1034,6226;0,28349
1035,5868;0,281199
1036,5510;0,278686
1037,5153;0,276141
1038,4795;0,27375
1039,4437;0,271653
1040,4080;0,269928
1041,3722;0,268584
1042,3364;0,267576
1043,3007;0,266824
1044,2649;0,266237
1045,2291;0,265723
1046,1934;0,265202
1047,1576;0,264601
1048,1218;0,263863
1049,0861;0,262942
1050,0503;0,261802
1051,0145;0,26042
1051,9788;0,258783
1052,9430;0,256893
1053,9072;0,254761
1054,8715;0,252407
1055,8357;0,249843
1056,7999;0,24706
1057,7642;0,244023
1058,7284;0,240683
1059,6926;0,237009
1060,6569;0,233011
1061,6211;0,228769
1062,5853;0,224417
1063,5496;0,220115
1064,5138;0,216008
1065,4780;0,212195
1066,4423;0,208717
1067,4065;0,205567
1068,3707;0,202704
1069,3350;0,200074
1070,2992;0,197622
1071,2634;0,195295
1072,2277;0,193048
1073,1919;0,190841
1074,1561;0,188639
1075,1204;0,186415
1076,0846;0,184154
1077,0488;0,18186
1078,0131;0,179563
1078,9773;0,17732
1079,9415;0,1752
1080,9058;0,173266
1081,8700;0,171554
1082,8342;0,170067
1083,7985;0,168778
1084,7627;0,167648
1085,7269;0,166641
1086,6912;0,165732
1087,6554;0,164907
1088,6196;0,164162
1089,5839;0,163495
1090,5481;0,162911
1091,5123;0,162419
1092,4766;0,162031
1093,4408;0,161753
1094,4050;0,161584
1095,3693;0,16151
1096,3335;0,161515
1097,2977;0,161585
1098,2620;0,161713
1099,2262;0,161887
1100,1904;0,16209
1101,1547;0,162284
1102,1189;0,162422
1103,0831;0,162451
1104,0474;0,162336
1105,0116;0,162067
1105,9758;0,161662
1106,9401;0,16115
1107,9043;0,160552
1108,8685;0,159863
1109,8328;0,159044
1110,7970;0,158036
1111,7612;0,156784
1112,7255;0,155271
1113,6897;0,153535
1114,6539;0,151674
1115,6182;0,149808
1116,5824;0,148048
1117,5466;0,146456
1118,5109;0,14503
1119,4751;0,143712
1120,4393;0,142412
1121,4036;0,141032
1122,3678;0,13949
1123,3320;0,137733
1124,2963;0,135739
1125,2605;0,133518
1126,2247;0,131099
1127,1890;0,128528
1128,1532;0,125854
1129,1174;0,123126
1130,0817;0,120389
1131,0459;0,117686
1132,0101;0,115056
1132,9744;0,112538
1133,9386;0,110169
1134,9028;0,107991
1135,8671;0,106044
1136,8313;0,104369
1137,7955;0,102993
1138,7598;0,10193
1139,7240;0,101171
1140,6882;0,100685
1141,6525;0,100431
1142,6167;0,100366
1143,5809;0,100453
1144,5452;0,100668
1145,5094;0,10099
1146,4736;0,101409
1147,4379;0,101918
1148,4021;0,102517
1149,3663;0,103206
1150,3306;0,103983
1151,2948;0,104828
1152,2590;0,105703
1153,2233;0,106557
1154,1875;0,107328
1155,1517;0,107953
1156,1160;0,108378
1157,0802;0,108548
1158,0444;0,108404
1159,0087;0,107884
1159,9729;0,106928
1160,9371;0,105488
1161,9014;0,103545
1162,8656;0,101115
1163,8298;0,0982569
1164,7941;0,0950594
1165,7583;0,0916364
1166,7225;0,0881116
1167,6868;0,0846064
1168,6510;0,0812276
1169,6152;0,0780584
1170,5795;0,0751526
1171,5437;0,0725348
1172,5079;0,0702054
1173,4722;0,0681493
1174,4364;0,0663448
1175,4006;0,0647706
1176,3649;0,0634085
1177,3291;0,0622425
1178,2933;0,0612555
1179,2576;0,0604274
1180,2218;0,0597353
1181,1860;0,0591575
1182,1503;0,0586788
1183,1145;0,0582928
1184,0787;0,0580004
1185,0430;0,057805
1186,0072;0,057707
1186,9714;0,0577027
1187,9357;0,057787
1188,8999;0,0579577
1189,8641;0,0582182
1190,8284;0,0585754
1191,7926;0,0590357
1192,7568;0,0595997
1193,7211;0,0602612
1194,6853;0,0610089
1195,6495;0,0618285
1196,6138;0,0627043
1197,5780;0,0636195
1198,5422;0,0645556
1199,5065;0,0653886
1200,4707;0,0663274
1201,4349;0,0672445
1202,3992;0,0681363
1203,3634;0,0690029
1204,3276;0,0698455
1205,2919;0,0706641
1206,2561;0,0714579
1207,2203;0,0722294
1208,1846;0,0729885
1209,1488;0,0737549
1210,1130;0,0745558
1211,0773;0,0754199
1212,0415;0,0763679
1213,0057;0,0774061
1213,9700;0,0785238
1214,9342;0,0796971
1215,8984;0,0808965
1216,8627;0,0820941
1217,8269;0,0832684
1218,7911;0,0844065
1219,7554;0,0855008
1220,7196;0,0865454
1221,6838;0,0875334
1222,6481;0,0884565
1223,6123;0,0893075
1224,5765;0,0900837
1225,5408;0,0907888
1226,5050;0,0914314
1227,4692;0,0920214
1228,4335;0,0925644
1229,3977;0,0930595
1230,3619;0,0934996
1231,3262;0,0938757
1232,2904;0,0941823
1233,2546;0,0944204
1234,2189;0,0945982
1235,1831;0,0947275
1236,1473;0,0948203
1237,1116;0,0948852
1238,0758;0,0949265
1239,0400;0,0949454
1240,0043;0,094941
1240,9685;0,0949116
1241,9327;0,0948538
1242,8970;0,0947616
1243,8612;0,0946251
1244,8254;0,0944331
1245,7897;0,094176
1246,7539;0,093851
1247,7181;0,0934647
1248,6824;0,0930327
1249,6466;0,0925756
1250,6108;0,092114
1251,5751;0,091665
1252,5393;0,0912396
1253,5035;0,0908419
1254,4678;0,0904689
1255,4320;0,0901102
1256,3962;0,08975
1257,3605;0,0893701
1258,3247;0,0889554
1259,2889;0,0884968
1260,2532;0,0879919
1261,2174;0,0874419
1262,1816;0,0868474
1263,1459;0,0862062
1264,1101;0,0855154
1265,0743;0,084773
1266,0386;0,0839795
1267,0028;0,0831356
1267,9670;0,0822402
1268,9313;0,0812901
1269,8955;0,0802838
1270,8597;0,0792251
1271,8240;0,0781258
1272,7882;0,0770033
1273,7524;0,0758771
1274,7167;0,0747651
1275,6809;0,073682
1276,6451;0,0726379
1277,6094;0,0716374
1278,5736;0,0706772
1279,5378;0,0697471
1280,5021;0,068835
1281,4663;0,0679343
1282,4305;0,0670486
1283,3948;0,0661917
1284,3590;0,0653827
1285,3232;0,0646399
1286,2875;0,0639771
1287,2517;0,0634032
1288,2159;0,0629234
1289,1802;0,0625396
1290,1444;0,0622506
1291,1086;0,0620529
1292,0729;0,0619423
1293,0371;0,0619162
1294,0013;0,0619745
1294,9656;0,0621175
1295,9298;0,062344
1296,8940;0,0626505
1297,8583;0,0630324
1298,8225;0,0634862
1299,7867;0,0640106
1300,7510;0,0646046
1301,7152;0,0652662
1302,6794;0,0659905
1303,6437;0,0667711
1304,6079;0,0676023
1305,5721;0,0684783
1306,5364;0,0693914
1307,5006;0,0703315
1308,4648;0,071287
1309,4291;0,0722474
1310,3933;0,0732023
1311,3575;0,0741379
1312,3218;0,075032
1313,2860;0,0758539
1314,2502;0,0765688
1315,2145;0,0771449
1316,1787;0,0775581
1317,1429;0,0777954
1318,1072;0,0778575
1319,0714;0,0777635
1320,0356;0,0775498
1320,9999;0,0772629
1321,9641;0,076946
1322,9283;0,0766319
1323,8926;0,0763409
1324,8568;0,0760844
1325,8210;0,0758669
1326,7853;0,0756858
1327,7495;0,0755302
1328,7137;0,0753822
1329,6780;0,0752193
1330,6422;0,0750205
1331,6064;0,0747708
1332,5707;0,0744634
1333,5349;0,0740981
1334,4991;0,0736752
1335,4634;0,0731895
1336,4276;0,07263
1337,3918;0,0719871
1338,3561;0,0712672
1339,3203;0,0705077
1340,2845;0,0697701
1341,2488;0,0691081
1342,2130;0,068541
1343,1772;0,0680577
1344,1415;0,0676412
1345,1057;0,0672878
1346,0699;0,0670104
1347,0342;0,0668295
1347,9984;0,0667606
1348,9626;0,0668055
1349,9269;0,0669512
1350,8911;0,0671767
1351,8553;0,0674624
1352,8196;0,0677979
1353,7838;0,0681839
1354,7480;0,0686263
1355,7123;0,0691261
1356,6765;0,069673
1357,6407;0,0702492
1358,6050;0,0708405
1359,5692;0,0714432
1360,5334;0,0720562
1361,4977;0,0726655
1362,4619;0,0732408
1363,4261;0,0737568
1364,3904;0,074211
1365,3546;0,0746158
1366,3188;0,0749811
1367,2831;0,0753048
1368,2473;0,0755731
1369,2115;0,0757648
1370,1758;0,075858
1371,1400;0,0758353
1372,1042;0,0756839
1373,0685;0,0753971
1374,0327;0,0749821
1374,9969;0,0744655
1375,9612;0,0738794
1376,9254;0,0732318
1377,8896;0,0724973
1378,8539;0,0716424
1379,8181;0,0706637
1380,7823;0,0696047
1381,7466;0,0685344
1382,7108;0,0675005
1383,6750;0,0665019
1384,6393;0,0655013
1385,6035;0,0644695
1386,5677;0,0634341
1387,5320;0,0624921
1388,4962;0,061749
1389,4604;0,0612362
1390,4247;0,0609
1391,3889;0,0606603
1392,3531;0,0604644
1393,3174;0,0603009
1394,2816;0,0601831
1395,2458;0,0601256
1396,2101;0,0601326
1397,1743;0,0602018
1398,1385;0,0603323
1399,1028;0,0605253
1400,0670;0,0607779
1401,0313;0,0610789
1401,9955;0,0614149
1402,9597;0,0617809
1403,9240;0,062185
1404,8882;0,062642
1405,8524;0,0631598
1406,8167;0,0637324
1407,7809;0,0643468
1408,7451;0,0649966
1409,7094;0,0656901
1410,6736;0,0664405
1411,6378;0,0672451
1412,6021;0,068072
1413,5663;0,0688721
1414,5305;0,0696067
1415,4948;0,0702693
1416,4590;0,0708843
1417,4232;0,0714776
1418,3875;0,0720436
1419,3517;0,0725503
1420,3159;0,0729665
1421,2802;0,0732546
1422,2444;0,0733623
1423,2086;0,0732489
1424,1729;0,0729173
1425,1371;0,0724108
1426,1013;0,0717757
1427,0656;0,0710213
1428,0298;0,0701222
1428,9940;0,0690679
1429,9583;0,0679152
1430,9225;0,0667746
1431,8867;0,0657248
1432,8510;0,0647495
1433,8152;0,0637595
1434,7794;0,0626723
1435,7437;0,0615051
1436,7079;0,0604271
1437,6721;0,0596641
1438,6364;0,0593021
1439,6006;0,0592419
1440,5648;0,0593309
1441,5291;0,0594763
1442,4933;0,0596643
1443,4575;0,0599257
1444,4218;0,0602923
1445,3860;0,0607705
1446,3502;0,0613398
1447,3145;0,0619639
1448,2787;0,0626039
1449,2429;0,0632246
1450,2072;0,0637922
1451,1714;0,0642675
1452,1356;0,0646092
1453,0999;0,0647896
1454,0641;0,0648104
1455,0283;0,0646969
1455,9926;0,0644618
1456,9568;0,0641213
1457,9210;0,0638221
1458,8853;0,0637511
1459,8495;0,0638783
1460,8137;0,0640123
1461,7780;0,0639677
1462,7422;0,0636145
1463,7064;0,0628823
1464,6707;0,0618059
1465,6349;0,0605622
1466,5991;0,0593562
1467,5634;0,0582467
1468,5276;0,0571309
1469,4918;0,055842
1470,4561;0,0542237
1471,4203;0,0521818
1472,3845;0,0497862
1473,3488;0,0473621
1474,3130;0,0453119
1475,2772;0,0437884
1476,2415;0,0426806
1477,2057;0,0418205
1478,1699;0,0410992
1479,1342;0,0404685
1480,0984;0,0399136
1481,0626;0,0394367
1482,0269;0,0390516
1482,9911;0,0387752
1483,9553;0,0386144
1484,9196;0,038561
1485,8838;0,0386029
1486,8480;0,0387358
1487,8123;0,0389583
1488,7765;0,0392592
1489,7407;0,039633
1490,7050;0,0400958
1491,6692;0,0406531
1492,6334;0,0412838
1493,5977;0,0419747
1494,5619;0,0427539
1495,5261;0,0436826
1496,4904;0,0448026
1497,4546;0,0460753
1498,4188;0,0473951
1499,3831;0,0486623
1500,3473;0,049805
1501,3115;0,0507614
1502,2758;0,0514859
1503,2400;0,0519775
1504,2042;0,052298
1505,1685;0,0525377
1506,1327;0,0526759
1507,0969;0,0525198
1508,0612;0,0520705
1509,0254;0,0516024
1509,9896;0,0512209
1510,9539;0,0508387
1511,9181;0,050356
1512,8823;0,0497188
1513,8466;0,0489065
1514,8108;0,0479235
1515,7750;0,0468061
1516,7393;0,0456202
1517,7035;0,0444288
1518,6677;0,0432542
1519,6320;0,0420851
1520,5962;0,040932
1521,5604;0,0398729
1522,5247;0,0390118
1523,4889;0,0383843
1524,4531;0,037933
1525,4174;0,0375776
1526,3816;0,0372834
1527,3458;0,0370657
1528,3101;0,0369425
1529,2743;0,036898
1530,2385;0,0368914
1531,2028;0,0368893
1532,1670;0,0368868
1533,1312;0,0369101
1534,0955;0,0369934
1535,0597;0,037137
1536,0239;0,0372964
1536,9882;0,0374255
1537,9524;0,0375267
1538,9166;0,0376395
1539,8809;0,0377417
1540,8451;0,037722
1541,8093;0,0376106
1542,7736;0,037582
1543,7378;0,0376824
1544,7020;0,0378509
1545,6663;0,0380395
1546,6305;0,0382332
1547,5947;0,0384228
1548,5590;0,0385909
1549,5232;0,0387217
1550,4874;0,0388196
1551,4517;0,0389126
1552,4159;0,0390301
1553,3801;0,0391696
1554,3444;0,0392891
1555,3086;0,0393285
1556,2728;0,039228
1557,2371;0,0389132
1558,2013;0,0383533
1559,1655;0,0378391
1560,1298;0,0378392
1561,0940;0,0383755
1562,0582;0,0391432
1563,0225;0,0398894
1563,9867;0,0404988
1564,9509;0,0409482
1565,9152;0,0412651
1566,8794;0,041508
1567,8436;0,0417564
1568,8079;0,0420884
1569,7721;0,0425431
1570,7363;0,043094
1571,7006;0,0436714
1572,6648;0,0442197
1573,6290;0,0447435
1574,5933;0,0453102
1575,5575;0,0459977
1576,5217;0,0468203
1577,4860;0,047727
1578,4502;0,0486665
1579,4144;0,0496134
1580,3787;0,0505631
1581,3429;0,051527
1582,3071;0,0525202
1583,2714;0,0535469
1584,2356;0,0545986
1585,1998;0,0556667
1586,1641;0,0567472
1587,1283;0,0578313
1588,0925;0,0588933
1589,0568;0,0598897
1590,0210;0,0607697
1590,9852;0,0614875
1591,9495;0,0620059
1592,9137;0,0622977
1593,8779;0,0623545
1594,8422;0,0621993
1595,8064;0,0618882
1596,7706;0,0614917
1597,7349;0,0610683
1598,6991;0,0606512
1599,6633;0,0602525
1600,6276;0,0598766
1601,5918;0,0595299
1602,5560;0,0592229
1603,5203;0,0589635
1604,4845;0,0587481
1605,4487;0,058558
1606,4130;0,0583679
1607,3772;0,0581639
1608,3414;0,0579603
1609,3057;0,0577997
1610,2699;0,0577232
1611,2341;0,0577333
1612,1984;0,0577903
1613,1626;0,0578433
1614,1268;0,0578654
1615,0911;0,0578698
1616,0553;0,0579058
1617,0195;0,0580373
1617,9838;0,0582942
1618,9480;0,0586347
1619,9122;0,0589794
1620,8765;0,0592731
1621,8407;0,0595093
1622,8049;0,059715
1623,7692;0,0599207
1624,7334;0,0601382
1625,6976;0,06036
1626,6619;0,0605744
1627,6261;0,0607823
1628,5903;0,0609965
1629,5546;0,0612217
1630,5188;0,0614386
1631,4830;0,0616123
1632,4473;0,061719
1633,4115;0,0617617
1634,3757;0,0617542
1635,3400;0,0616993
1636,3042;0,0616293
1637,2684;0,061631
1638,2327;0,0617431
1639,1969;0,061915
1640,1611;0,0620766
1641,1254;0,062187
1642,0896;0,0622357
1643,0538;0,0622298
1644,0181;0,0621814
1644,9823;0,062091
1645,9465;0,0619455
1646,9108;0,0617621
1647,8750;0,0615963
1648,8392;0,0614487
1649,8035;0,0612341
1650,7677;0,0608417
1651,7319;0,0601733
1652,6962;0,0592049
1653,6604;0,0582036
1654,6246;0,0576276
1655,5889;0,057535
1656,5531;0,0576264
1657,5173;0,0576379
1658,4816;0,0574496
1659,4458;0,057036
1660,4100;0,0564146
1661,3743;0,0556384
1662,3385;0,0548145
1663,3027;0,0540778
1664,2670;0,0534966
1665,2312;0,0530285
1666,1954;0,0525646
1667,1597;0,0519907
1668,1239;0,051234
1669,0881;0,050316
1670,0524;0,0493722
1671,0166;0,0485474
1671,9808;0,0478529
1672,9451;0,0471785
1673,9093;0,0464194
1674,8735;0,0455803
1675,8378;0,0447896
1676,8020;0,0441974
1677,7662;0,0438414
1678,7305;0,0436259
1679,6947;0,0434011
1680,6589;0,0430279
1681,6232;0,0423886
1682,5874;0,0414021
1683,5516;0,0401452
1684,5159;0,0389647
1685,4801;0,0381985
1686,4443;0,0378365
1687,4086;0,0376544
1688,3728;0,0374654
1689,3370;0,037199
1690,3013;0,0368711
1691,2655;0,036529
1692,2297;0,0362109
1693,1940;0,0359323
1694,1582;0,0356886
1695,1224;0,0354578
1696,0867;0,035201
1697,0509;0,0348724
1698,0151;0,0344553
1698,9794;0,0340082
1699,9436;0,0336648
1700,9078;0,0335471
1701,8721;0,033671
1702,8363;0,0339497
1703,8005;0,0342688
1704,7648;0,0345525
1705,7290;0,034788
1706,6932;0,0350173
1707,6575;0,0353002
1708,6217;0,0356709
1709,5859;0,0361227
1710,5502;0,0366236
1711,5144;0,0371395
1712,4786;0,0376445
1713,4429;0,0381217
1714,4071;0,0385558
1715,3713;0,0389206
1716,3356;0,0391864
1717,2998;0,0393814
1718,2640;0,0396217
1719,2283;0,0400002
1720,1925;0,0405026
1721,1567;0,0410551
1722,1210;0,0415902
1723,0852;0,0420694
1724,0494;0,0424823
1725,0137;0,0428418
1725,9779;0,0431748
1726,9421;0,0435051
1727,9064;0,0438358
1728,8706;0,0441415
1729,8348;0,0443733
1730,7991;0,0444685
1731,7633;0,0443639
1732,7275;0,0440352
1733,6918;0,0435703
1734,6560;0,0431533
1735,6202;0,0428941
1736,5845;0,042735
1737,5487;0,0425394
1738,5129;0,0422018
1739,4772;0,0416942
1740,4414;0,0410641
1741,4056;0,0403958
1742,3699;0,0397505
1743,3341;0,0391332
1744,2983;0,0385116
1745,2626;0,0378492
1746,2268;0,0371117
1747,1910;0,0362492
1748,1553;0,035196
1749,1195;0,0339327
1750,0837;0,032571
1751,0480;0,0313186
1752,0122;0,030317
1752,9764;0,0295504
1753,9407;0,0289047
1754,9049;0,0282663
1755,8691;0,0275826
1756,8334;0,0268682
1757,7976;0,026165
1758,7618;0,0254915
1759,7261;0,0248248
1760,6903;0,024135
1761,6545;0,0234345
1762,6188;0,022786
1763,5830;0,0222527
1764,5472;0,0218473
1765,5115;0,0215312
1766,4757;0,0212509
1767,4399;0,0209699
1768,4042;0,0206743
1769,3684;0,0203577
1770,3326;0,0200049
1771,2969;0,0196031
1772,2611;0,0191822
1773,2253;0,0188244
1774,1896;0,0186014
1775,1538;0,0185119
1776,1180;0,0184948
1777,0823;0,0184814
1778,0465;0,0184316
1779,0107;0,0183416
1779,9750;0,0182306
1780,9392;0,0181177
1781,9034;0,0180052
1782,8677;0,0178843
1783,8319;0,0177564
1784,7961;0,0176465
1785,7604;0,0175906
1786,7246;0,0176081
1787,6888;0,0176843
1788,6531;0,0177771
1789,6173;0,0178332
1790,5815;0,0178057
1791,5458;0,0176787
1792,5100;0,0174994
1793,4742;0,0173615
1794,4385;0,0173267
1795,4027;0,0173804
1796,3669;0,0174632
1797,3312;0,0175165
1798,2954;0,0175048
1799,2596;0,0174197
1800,2239;0,017281
1801,1881;0,0171303
1802,1523;0,0170123
1803,1166;0,0169533
1804,0808;0,0169534
1805,0450;0,0169934
1806,0093;0,0170463
1806,9735;0,0170847
1807,9377;0,0170867
1808,9020;0,0170414
1809,8662;0,0169547
1810,8304;0,0168482
1811,7947;0,0167486
1812,7589;0,016673
1813,7231;0,0166221
1814,6874;0,0165886
1815,6516;0,0165681
1816,6158;0,0165648
1817,5801;0,0165874
1818,5443;0,0166398
1819,5085;0,0167122
1820,4728;0,016783
1821,4370;0,0168285
1822,4012;0,0168351
1823,3655;0,0168079
1824,3297;0,0167693
1825,2939;0,0167451
1826,2582;0,0167452
1827,2224;0,0167536
1828,1866;0,0167384
1829,1509;0,0166767
1830,1151;0,0165784
1831,0793;0,0164852
1832,0436;0,0164354
1833,0078;0,0164336
1833,9720;0,0164557
1834,9363;0,016476
1835,9005;0,0164874
1836,8647;0,0165043
1837,8290;0,016548
1838,7932;0,0166259
1839,7574;0,0167217
1840,7217;0,0168046
1841,6859;0,0168452
1842,6501;0,0168245
1843,6144;0,0167418
1844,5786;0,0166221
1845,5428;0,016507
1846,5071;0,0164233
1847,4713;0,0163681
1848,4355;0,0163248
1849,3998;0,0162844
1850,3640;0,0162521
1851,3282;0,0162392
1852,2925;0,0162514
1853,2567;0,0162848
1854,2209;0,0163283
1855,1852;0,0163703
1856,1494;0,0164012
1857,1136;0,0164136
1858,0779;0,016403
1859,0421;0,0163719
1860,0063;0,0163346
1860,9706;0,0163158
1861,9348;0,0163409
1862,8990;0,0164211
1863,8633;0,016546
1864,8275;0,0166866
1865,7917;0,0168036
1866,7560;0,0168569
1867,7202;0,0168211
1868,6844;0,0167083
1869,6487;0,0165704
1870,6129;0,0164626
1871,5771;0,0164043
1872,5414;0,0163795
1873,5056;0,0163608
1874,4698;0,0163295
1875,4341;0,0162827
1876,3983;0,0162325
1877,3625;0,0161987
1878,3268;0,0161979
1879,2910;0,0162347
1880,2552;0,0162987
1881,2195;0,0163693
1882,1837;0,0164244
1883,1479;0,0164509
1884,1122;0,0164489
1885,0764;0,0164288
1886,0406;0,0164038
1887,0049;0,0163834
1887,9691;0,0163708
1888,9333;0,0163648
1889,8976;0,0163636
1890,8618;0,0163658
1891,8260;0,0163681
1892,7903;0,0163642
1893,7545;0,0163486
1894,7188;0,0163224
1895,6830;0,0162955
1896,6472;0,0162826
1897,6115;0,0162923
1898,5757;0,0163208
1899,5399;0,0163535
1900,5042;0,0163741
1901,4684;0,0163736
1902,4326;0,0163541
1903,3969;0,0163248
1904,3611;0,0162939
1905,3253;0,0162644
1906,2896;0,0162361
1907,2538;0,0162119
1908,2180;0,0162014
1909,1823;0,0162177
1910,1465;0,0162675
1911,1107;0,0163425
1912,0750;0,0164206
1913,0392;0,0164757
1914,0034;0,0164907
1914,9677;0,0164656
1915,9319;0,016419
1916,8961;0,0163803
1917,8604;0,0163752
1918,8246;0,0164101
1919,7888;0,0164686
1920,7531;0,0165219
1921,7173;0,0165458
1922,6815;0,0165324
1923,6458;0,0164915
1924,6100;0,0164417
1925,5742;0,016396
1926,5385;0,0163544
1927,5027;0,0163096
1928,4669;0,0162587
1929,4312;0,0162115
1930,3954;0,0161878
1931,3596;0,016205
1932,3239;0,0162645
1933,2881;0,0163487
1934,2523;0,0164306
1935,2166;0,0164894
1936,1808;0,0165194
1937,1450;0,0165282
1938,1093;0,0165245
1939,0735;0,0165086
1940,0377;0,0164711
1941,0020;0,0164003
1941,9662;0,016295
1942,9304;0,0161708
1943,8947;0,0160543
1944,8589;0,0159685
1945,8231;0,0159241
1946,7874;0,0159218
1947,7516;0,0159576
1948,7158;0,0160221
1949,6801;0,0160955
1950,6443;0,0161469
1951,6085;0,0161465
1952,5728;0,0160846
1953,5370;0,0159845
1954,5012;0,0158958
1955,4655;0,0158685
1956,4297;0,0159226
1957,3939;0,0160358
1958,3582;0,0161594
1959,3224;0,0162522
1960,2866;0,0163088
1961,2509;0,0163606
1962,2151;0,0164481
1963,1793;0,016587
1964,1436;0,0167547
1965,1078;0,0169036
1966,0720;0,0169877
1967,0363;0,0169825
1968,0005;0,0168855
1968,9647;0,0167011
1969,9290;0,0164332
1970,8932;0,0160987
1971,8574;0,0157515
1972,8217;0,0154919
1973,7859;0,0154383
1974,7501;0,0156668
1975,7144;0,0161535
1976,6786;0,0167673
1977,6428;0,0173333
1978,6071;0,0177269
1979,5713;0,017924
1980,5355;0,0179784
1981,4998;0,0179588
1982,4640;0,0179031
1983,4282;0,0178122
1984,3925;0,0176751
1985,3567;0,0174978
1986,3209;0,017315
1987,2852;0,0171789
1988,2494;0,0171335
1989,2136;0,0171942
1990,1779;0,0173384
1991,1421;0,0175117
1992,1063;0,0176467
1993,0706;0,0176905
1994,0348;0,0176255
1994,9990;0,0174744
1995,9633;0,0172877
1996,9275;0,0171207
1997,8917;0,0170093
1998,8560;0,0169561
1999,8202;0,0169377
2000,7844;0,0169338
2001,7487;0,0169577
2002,7129;0,0170614
2003,6771;0,0173047
2004,6414;0,0177032
2005,6056;0,0181911
2006,5698;0,018634
2007,5341;0,0188939
2008,4983;0,0189064
2009,4625;0,0187092
2010,4268;0,0184067
2011,3910;0,0181059
2012,3552;0,0178741
2013,3195;0,0177375
2014,2837;0,0177037
2015,2479;0,0177746
2016,2122;0,0179387
2017,1764;0,0181527
2018,1406;0,0183427
2019,1049;0,0184359
2020,0691;0,0184022
2021,0333;0,018273
2021,9976;0,0181224
2022,9618;0,0180234
2023,9260;0,0180068
2024,8903;0,0180506
2025,8545;0,0181045
2026,8187;0,0181293
2027,7830;0,0181239
2028,7472;0,0181197
2029,7114;0,0181519
2030,6757;0,0182306
2031,6399;0,0183332
2032,6041;0,0184218
2033,5684;0,0184726
2034,5326;0,0184924
2035,4968;0,0185103
2036,4611;0,0185516
2037,4253;0,0186154
2038,3895;0,0186717
2039,3538;0,0186784
2040,3180;0,0186069
2041,2822;0,0184631
2042,2465;0,0182915
2043,2107;0,0181608
2044,1749;0,0181396
2045,1392;0,0182715
2046,1034;0,0185566
2047,0676;0,0189425
2048,0320;0,0193363
2048,9961;0,0196379
2049,9604;0,0197807
2050,9246;0,0197549
2051,8889;0,0196022
2052,8530;0,0193924
2053,8174;0,0191955
2054,7815;0,0190594
2055,7458;0,0189996
2056,7100;0,0190043
2057,6743;0,0190501
2058,6384;0,0191171
2059,6028;0,0191935
2060,5669;0,0192714
2061,5313;0,0193396
2062,4954;0,0193834
2063,4597;0,0193925
2064,4238;0,019371
2065,3882;0,0193387
2066,3523;0,0193224
2067,3167;0,0193389
2068,2808;0,0193842
2069,2451;0,0194341
2070,2092;0,0194582
2071,1736;0,0194364
2072,1377;0,0193709
2073,1021;0,0192848
2074,0662;0,0192098
2075,0305;0,0191695
2075,9946;0,0191689
2076,9590;0,0191966
2077,9231;0,0192349
2078,8875;0,0192724
2079,8516;0,0193082
2080,8159;0,0193468
2081,7800;0,0193887
2082,7444;0,0194253
2083,7085;0,019443
2084,6729;0,0194333
2085,6370;0,0194
2086,6013;0,0193568
2087,5654;0,019317
2088,5298;0,0192831
2089,4939;0,0192466
2090,4583;0,0191991
2091,4224;0,0191451
2092,3867;0,0191053
2093,3508;0,0191061
2094,3152;0,0191618
2095,2793;0,0192637
2096,2437;0,0193846
2097,2078;0,019495
2098,1721;0,0195779
2099,1362;0,0196296
2100,1006;0,0196527
2101,0647;0,0196476
2102,0291;0,0196176
2102,9932;0,0195737
2103,9575;0,0195366
2104,9216;0,0195267
2105,8860;0,0195508
2106,8501;0,0195964
2107,8145;0,0196415
2108,7786;0,0196704
2109,7429;0,0196827
2110,7070;0,0196871
2111,6714;0,0196867
2112,6355;0,0196712
2113,5999;0,0196246
2114,5640;0,0195437
2115,5283;0,0194494
2116,4924;0,0193805
2117,4568;0,0193726
2118,4209;0,0194351
2119,3853;0,019545
2120,3494;0,0196585
2121,3137;0,0197336
2122,2778;0,0197483
2123,2422;0,019705
2124,2063;0,019622
2125,1707;0,0195202
2126,1348;0,0194145
2127,0991;0,0193121
2128,0632;0,0192182
2129,0276;0,0191448
2129,9917;0,0191161
2130,9561;0,0191668
2131,9202;0,0193285
2132,8845;0,0196073
2133,8486;0,0199633
2134,8130;0,0203112
2135,7771;0,0205504
2136,7415;0,0206132
2137,7056;0,0204994
2138,6699;0,0202743
2139,6340;0,0200333
2140,5984;0,0198582
2141,5625;0,0197915
2142,5269;0,019838
2143,4910;0,0199824
2144,4553;0,0202027
2145,4194;0,0204718
2146,3838;0,020752
2147,3479;0,0209971
2148,3123;0,0211674
2149,2764;0,0212454
2150,2407;0,0212368
2151,2048;0,0211553
2152,1692;0,0210068
2153,1333;0,0207921
2154,0977;0,0205337
2155,0618;0,0203075
2156,0261;0,0202456
2156,9902;0,0204823
2157,9546;0,0210514
2158,9187;0,0218138
2159,8831;0,0225129
2160,8472;0,0229357
2161,8115;0,0230308
2162,7756;0,0228932
2163,7400;0,0226633
2164,7041;0,0224308
2165,6685;0,0221978
2166,6326;0,0219103
2167,5969;0,0215284
2168,5610;0,0210819
2169,5254;0,0206717
2170,4895;0,0204176
2171,4539;0,0203869
2172,4180;0,0205496
2173,3823;0,0207886
2174,3464;0,0209622
2175,3108;0,0209823
2176,2749;0,02086
2177,2393;0,0206879
2178,2034;0,020576
2179,1677;0,0205856
2180,1318;0,0206999
2181,0962;0,0208439
2182,0603;0,0209361
2183,0247;0,0209367
2183,9888;0,0208635
2184,9531;0,0207698
2185,9172;0,0207058
2186,8816;0,0206926
2187,8457;0,0207201
2188,8101;0,0207637
2189,7742;0,0208018
2190,7385;0,0208227
2191,7026;0,0208194
2192,6670;0,0207841
2193,6311;0,0207097
2194,5955;0,0206002
2195,5596;0,0204796
2196,5239;0,0203873
2197,4880;0,0203588
2198,4524;0,0204025
2199,4165;0,0204893
2200,3809;0,020566
2201,3450;0,0205835
2202,3093;0,0205224
2203,2734;0,0203994
2204,2378;0,0202526
2205,2019;0,0201201
2206,1663;0,0200275
2207,1304;0,0199881
2208,0947;0,020008
2209,0588;0,0200844
2210,0232;0,0201969
2210,9873;0,0203038
2211,9517;0,0203552
2212,9158;0,0203205
2213,8801;0,0202116
2214,8442;0,0200812
2215,8086;0,0199932
2216,7727;0,0199816
2217,7371;0,0200306
2218,7012;0,0200874
2219,6655;0,0201003
2220,6296;0,0200521
2221,5940;0,0199654
2222,5581;0,0198819
2223,5225;0,0198322
2224,4866;0,0198216
2225,4509;0,0198366
2226,4150;0,0198626
2227,3794;0,0198948
2228,3435;0,0199375
2229,3079;0,0199935
2230,2720;0,020057
2231,2363;0,0201156
2232,2004;0,0201563
2233,1648;0,0201712
2234,1289;0,0201576
2235,0933;0,0201184
2236,0574;0,0200628
2237,0217;0,0200077
2237,9858;0,0199735
2238,9502;0,0199739
2239,9143;0,0200049
2240,8787;0,0200436
2241,8428;0,0200609
2242,8071;0,0200408
2243,7712;0,0199937
2244,7356;0,0199504
2245,6997;0,0199414
2246,6641;0,0199746
2247,6282;0,0200291
2248,5925;0,0200696
2249,5566;0,0200715
2250,5210;0,02004
2251,4851;0,0200086
2252,4495;0,0200182
2253,4136;0,0200903
2254,3779;0,020212
2255,3420;0,0203428
2256,3064;0,0204371
2257,2705;0,0204688
2258,2349;0,0204412
2259,1990;0,0203803
2260,1633;0,0203163
2261,1274;0,0202683
2262,0918;0,0202392
2263,0559;0,0202213
2264,0203;0,020207
2264,9844;0,0201954
2265,9487;0,0201924
2266,9128;0,0202063
2267,8772;0,0202413
2268,8413;0,020295
2269,8057;0,0203576
2270,7698;0,0204141
2271,7341;0,0204472
2272,6982;0,0204421
2273,6626;0,0203929
2274,6267;0,0203067
2275,5911;0,0202038
2276,5552;0,0201104
2277,5195;0,0200485
2278,4836;0,0200275
2279,4480;0,0200424
2280,4121;0,02008
2281,3765;0,0201282
2282,3406;0,0201821
2283,3049;0,0202443
2284,2690;0,0203197
2285,2334;0,0204081
2286,1975;0,0205022
2287,1619;0,0205899
2288,1260;0,0206623
2289,0903;0,0207203
2290,0544;0,0207763
2291,0188;0,0208479
2291,9829;0,0209476
2292,9473;0,021074
2293,9114;0,0212092
2294,8757;0,021326
2295,8398;0,0213991
2296,8042;0,0214156
2297,7683;0,0213792
2298,7327;0,0213064
2299,6968;0,0212187
2300,6611;0,0211345
2301,6252;0,0210654
2302,5896;0,0210168
2303,5537;0,0209913
2304,5181;0,02099
2305,4822;0,0210102
2306,4465;0,0210408
2307,4106;0,0210594
2308,3750;0,0210355
2309,3391;0,0209421
2310,3035;0,0207699
2311,2676;0,020538
2312,2319;0,0202898
2313,1960;0,0200749
2314,1604;0,0199255
2315,1245;0,0198431
2316,0889;0,0198046
2317,0530;0,0197821
2318,0173;0,0197628
2318,9814;0,0197572
2319,9458;0,0197916
2320,9099;0,0198904
2321,8743;0,0200604
2322,8384;0,020285
2323,8027;0,0205266
2324,7668;0,0207355
2325,7312;0,0208653
2326,6953;0,0208905
2327,6597;0,020818
2328,6238;0,0206869
2329,5881;0,0205569
2330,5522;0,0204901
2331,5166;0,0205277
2332,4807;0,0206701
2333,4451;0,0208744
2334,4092;0,0210777
2335,3735;0,0212343
2336,3376;0,0213412
2337,3020;0,0214366
2338,2661;0,0215689
2339,2305;0,0217512
2340,1946;0,0219261
2341,1589;0,0219634
2342,1230;0,0217191
2343,0874;0,02118
2344,0515;0,0206076
2345,0159;0,0204255
2345,9800;0,0208429
2346,9443;0,0216659
2347,9084;0,0224817
2348,8728;0,0229389
2349,8369;0,0229046
2350,8013;0,0224848
2351,7654;0,0219469
2352,7297;0,0215713
2353,6938;0,0215013
2354,6582;0,0217109
2355,6223;0,0221014
2356,5867;0,0225764
2357,5508;0,0230242
2358,5151;0,023304
2359,4792;0,0233055
2360,4436;0,0230224
2361,4077;0,0225421
2362,3721;0,0219672
2363,3362;0,021362
2364,3005;0,0207584
2365,2646;0,0201785
2366,2290;0,0196371
2367,1931;0,0191308
2368,1575;0,0186429
2369,1216;0,0181642
2370,0859;0,0177096
2371,0500;0,0173143
2372,0144;0,017017
2372,9785;0,0168461
2373,9429;0,0168168
2374,9070;0,0169342
2375,8713;0,0171939
2376,8354;0,0175781
2377,7998;0,0180515
2378,7639;0,0185627
2379,7283;0,0190531
2380,6924;0,0194711
2381,6567;0,0197841
2382,6208;0,0199848
2383,5852;0,0200888
2384,5493;0,0201251
2385,5137;0,0201251
2386,4778;0,0201126
2387,4421;0,0200996
2388,4063;0,0200877
2389,3706;0,0200739
2390,3347;0,0200565
2391,2991;0,0200388
2392,2632;0,0200292
2393,2275;0,0200372
2394,1917;0,020069
2395,1560;0,0201235
2396,1201;0,0201913
2397,0845;0,0202576
2398,0486;0,0203086
2399,0129;0,0203349
2399,9771;0,020336
2400,9414;0,0203221
2401,9055;0,020309
2402,8699;0,0203137
2403,8340;0,0203469
2404,7983;0,0204095
2405,7625;0,020491
2406,7268;0,020573
2407,6909;0,0206362
2408,6553;0,0206676
2409,6194;0,0206647
2410,5837;0,020637
2411,5479;0,0206016
2412,5122;0,0205775
2413,4763;0,0205781
2414,4407;0,0206081
2415,4048;0,020662
2416,3691;0,0207276
2417,3333;0,0207907
2418,2976;0,0208394
2419,2617;0,0208673
2420,2261;0,0208738
2421,1902;0,0208632
2422,1545;0,0208437
2423,1187;0,0208251
2424,0830;0,0208165
2425,0471;0,0208225
2426,0115;0,0208422
2426,9756;0,0208697
2427,9399;0,0208979
2428,9041;0,020923
2429,8684;0,0209472
2430,8325;0,0209765
2431,7969;0,0210165
2432,7610;0,0210675
2433,7253;0,021123
2434,6895;0,021173
2435,6538;0,0212095
2436,6179;0,0212303
2437,5823;0,0212394
2438,5464;0,0212437
2439,5107;0,0212497
2440,4749;0,0212616
2441,4392;0,0212815
2442,4033;0,0213108
2443,3677;0,0213499
2444,3318;0,0213976
2445,2961;0,0214485
2446,2603;0,0214948
2447,2246;0,0215288
2448,1887;0,0215475
2449,1531;0,0215547
2450,1172;0,0215594
2451,0815;0,0215706
2452,0457;0,0215918
2453,0100;0,0216199
2453,9741;0,0216473
2454,9385;0,0216676
2455,9026;0,0216795
2456,8669;0,021687
2457,8311;0,0216952
2458,7954;0,021707
2459,7595;0,0217219
2460,7239;0,0217376
2461,6880;0,0217534
2462,6523;0,0217708
2463,6165;0,021792
2464,5808;0,0218164
2465,5449;0,0218399
2466,5093;0,0218577
2467,4734;0,0218675
2468,4377;0,0218721
2469,4019;0,021877
2470,3662;0,0218869
2471,3303;0,0219023
2472,2947;0,0219195
2473,2588;0,0219341
2474,2231;0,021945
2475,1873;0,0219559
2476,1516;0,0219728
2477,1157;0,0220005
2478,0801;0,0220396
2479,0442;0,0220856
2480,0085;0,0221314
2480,9727;0,02217
2481,9370;0,0221965
2482,9011;0,0222097
2483,8655;0,0222115
2484,8296;0,0222061
2485,7939;0,0221989
2486,7581;0,0221954
2487,7224;0,0222
2488,6865;0,0222155
2489,6509;0,0222424
2490,6150;0,0222781
2491,5793;0,0223173
2492,5435;0,0223537
2493,5078;0,0223817
2494,4719;0,0223989
2495,4363;0,0224065
2496,4004;0,0224081
2497,3647;0,0224077
2498,3289;0,0224081
2499,2932;0,0224116
2500,2573;0,0224205
2501,2217;0,0224378
2502,1858;0,0224653
2503,1501;0,0225015
2504,1143;0,0225407
2505,0786;0,0225756
2506,0427;0,0226017
2507,0071;0,0226194
2507,9712;0,0226332
2508,9355;0,022647
2509,8997;0,0226601
2510,8640;0,0226677
2511,8281;0,0226661
2512,7925;0,0226588
2513,7566;0,0226572
2514,7209;0,022675
2515,6851;0,022718
2516,6494;0,0227782
2517,6135;0,0228348
2518,5779;0,0228653
2519,5420;0,0228572
2520,5063;0,0228163
2521,4705;0,0227636
2522,4348;0,0227252
2523,3989;0,0227198
2524,3633;0,0227511
2525,3274;0,0228081
2526,2917;0,0228719
2527,2559;0,022925
2528,2202;0,0229572
2529,1843;0,0229677
2530,1487;0,0229623
2531,1128;0,0229496
2532,0771;0,0229367
2533,0413;0,0229273
2534,0056;0,0229216
2534,9697;0,0229171
2535,9341;0,0229115
2536,8982;0,0229043
2537,8625;0,0228985
2538,8267;0,0228991
2539,7910;0,0229105
2540,7551;0,0229345
2541,7195;0,0229687
2542,6836;0,0230079
2543,6479;0,0230473
2544,6121;0,0230831
2545,5764;0,0231127
2546,5405;0,0231324
2547,5049;0,023138
2548,4690;0,0231267
2549,4333;0,0231016
2550,3975;0,0230741
2551,3618;0,02306
2552,3259;0,023072
2553,2903;0,0231118
2554,2544;0,023168
2555,2188;0,0232217
2556,1829;0,0232566
2557,1472;0,0232673
2558,1113;0,0232602
2559,0757;0,0232482
2560,0398;0,0232424
2561,0042;0,0232469
2561,9683;0,0232588
2562,9326;0,023272
2563,8967;0,0232819
2564,8611;0,0232877
2565,8252;0,0232928
2566,7896;0,0233033
2567,7537;0,0233257
2568,7180;0,0233638
2569,6821;0,0234162
2570,6465;0,0234755
2571,6106;0,0235302
2572,5750;0,0235693
2573,5391;0,0235868
2574,5034;0,0235839
2575,4675;0,0235672
2576,4319;0,0235448
2577,3960;0,023523
2578,3604;0,023506
2579,3245;0,0234965
2580,2888;0,0234971
2581,2529;0,0235089
2582,2173;0,02353
2583,1814;0,0235547
2584,1458;0,0235766
2585,1099;0,0235927
2586,0742;0,0236056
2587,0383;0,0236218
2588,0027;0,0236464
2588,9668;0,0236786
2589,9312;0,0237108
2590,8953;0,0237336
2591,8596;0,0237421
2592,8237;0,02374
2593,7881;0,0237378
2594,7522;0,0237468
2595,7166;0,0237723
2596,6807;0,0238104
2597,6450;0,0238516
2598,6091;0,0238862
2599,5735;0,023911
2600,5376;0,0239303
2601,5020;0,0239519
2602,4661;0,0239818
2603,4304;0,0240193
2604,3945;0,0240585
2605,3589;0,0240923
2606,3230;0,0241177
2607,2874;0,0241369
2608,2515;0,024155
2609,2158;0,0241755
2610,1799;0,0241979
2611,1443;0,0242197
2612,1084;0,0242396
2613,0728;0,0242597
2614,0369;0,0242847
2615,0012;0,0243181
2615,9653;0,0243597
2616,9297;0,0244057
2617,8938;0,0244514
2618,8582;0,0244928
2619,8223;0,0245276
2620,7866;0,0245539
2621,7507;0,0245699
2622,7151;0,0245761
2623,6792;0,0245771
2624,6436;0,0245822
2625,6077;0,0246009
2626,5720;0,0246382
2627,5361;0,0246908
2628,5005;0,0247487
2629,4646;0,0248013
2630,4290;0,0248425
2631,3931;0,0248725
2632,3574;0,0248957
2633,3215;0,0249161
2634,2859;0,0249351
2635,2500;0,0249524
2636,2144;0,0249691
2637,1785;0,0249888
2638,1428;0,0250166
2639,1069;0,0250559
2640,0713;0,0251058
2641,0354;0,025161
2641,9998;0,0252144
2642,9639;0,02526
2643,9282;0,0252959
2644,8923;0,0253242
2645,8567;0,0253489
2646,8208;0,0253738
2647,7852;0,0254001
2648,7493;0,0254262
2649,7136;0,0254487
2650,6777;0,0254658
2651,6421;0,0254786
2652,6062;0,0254913
2653,5706;0,025509
2654,5347;0,0255337
2655,4990;0,0255631
2656,4631;0,0255913
2657,4275;0,0256122
2658,3916;0,0256233
2659,3560;0,0256269
2660,3201;0,0256286
2661,2844;0,0256339
2662,2485;0,0256452
2663,2129;0,0256625
2664,1770;0,0256846
2665,1414;0,0257114
2666,1055;0,0257438
2667,0698;0,0257822
2668,0339;0,0258241
2668,9983;0,0258649
2669,9624;0,0258998
2670,9268;0,0259266
2671,8909;0,0259475
2672,8552;0,0259672
2673,8193;0,0259897
2674,7837;0,0260159
2675,7478;0,0260434
2676,7122;0,0260687
2677,6763;0,0260904
2678,6406;0,0261109
2679,6047;0,0261349
2680,5691;0,0261674
2681,5332;0,02621
2682,4976;0,0262601
2683,4617;0,026312
2684,4260;0,0263591
2685,3901;0,0263968
2686,3545;0,0264247
2687,3186;0,0264461
2688,2830;0,0264674
2689,2471;0,0264949
2690,2114;0,0265327
2691,1755;0,0265804
2692,1399;0,0266341
2693,1040;0,0266881
2694,0684;0,0267379
2695,0325;0,0267818
2695,9968;0,0268213
2696,9609;0,026859
2697,9253;0,0268971
2698,8894;0,0269356
2699,8538;0,0269732
2700,8179;0,0270089
2701,7822;0,0270432
2702,7463;0,0270785
2703,7107;0,0271178
2704,6748;0,0271624
2705,6392;0,0272112
2706,6033;0,0272613
2707,5676;0,0273092
2708,5317;0,0273528
2709,4961;0,0273914
2710,4602;0,0274263
2711,4246;0,0274597
2712,3887;0,0274939
2713,3530;0,0275308
2714,3171;0,0275715
2715,2815;0,0276159
2716,2456;0,0276629
2717,2100;0,0277111
2718,1741;0,0277589
2719,1384;0,0278053
2720,1025;0,0278495
2721,0669;0,027891
2722,0310;0,027929
2722,9954;0,0279634
2723,9595;0,0279954
2724,9238;0,0280273
2725,8879;0,0280613
2726,8523;0,0280986
2727,8164;0,0281382
2728,7808;0,0281777
2729,7449;0,0282148
2730,7092;0,0282489
2731,6733;0,0282809
2732,6377;0,0283122
2733,6018;0,0283434
2734,5662;0,0283737
2735,5303;0,0284013
2736,4946;0,0284252
2737,4587;0,0284457
2738,4231;0,0284646
2739,3872;0,0284845
2740,3516;0,0285086
2741,3157;0,0285389
2742,2800;0,0285762
2743,2441;0,0286189
2744,2085;0,0286623
2745,1726;0,0287003
2746,1370;0,0287277
2747,1011;0,0287434
2748,0654;0,0287525
2749,0295;0,0287644
2749,9939;0,0287884
2750,9580;0,0288287
2751,9224;0,0288812
2752,8865;0,0289362
2753,8508;0,0289833
2754,8149;0,0290184
2755,7793;0,0290452
2756,7434;0,0290729
2757,7078;0,0291102
2758,6719;0,0291597
2759,6362;0,0292168
2760,6003;0,0292726
2761,5647;0,0293198
2762,5288;0,0293564
2763,4932;0,0293871
2764,4573;0,0294198
2765,4216;0,029462
2766,3857;0,0295166
2767,3501;0,0295815
2768,3142;0,0296501
2769,2786;0,0297146
2770,2427;0,0297687
2771,2070;0,0298101
2772,1711;0,0298413
2773,1355;0,0298688
2774,0996;0,0299013
2775,0640;0,0299462
2776,0281;0,0300069
2776,9924;0,0300808
2777,9565;0,0301612
2778,9209;0,0302393
2779,8850;0,030309
2780,8494;0,0303693
2781,8135;0,030424
2782,7778;0,0304795
2783,7419;0,0305405
2784,7063;0,0306074
2785,6704;0,0306767
2786,6348;0,0307439
2787,5989;0,0308075
2788,5632;0,0308709
2789,5273;0,0309406
2790,4917;0,0310223
2791,4558;0,0311168
2792,4202;0,0312195
2793,3843;0,0313224
2794,3486;0,0314185
2795,3127;0,0315054
2796,2771;0,0315852
2797,2412;0,0316635
2798,2056;0,0317462
2799,1697;0,0318374
2800,1340;0,0319386
2801,0981;0,03205
2802,0625;0,0321707
2803,0266;0,0322991
2803,9910;0,0324329
2804,9551;0,0325681
2805,9194;0,0327003
2806,8835;0,032826
2807,8479;0,0329446
2808,8120;0,0330595
2809,7764;0,0331771
2810,7405;0,0333042
2811,7048;0,0334448
2812,6689;0,0335984
2813,6333;0,0337609
2814,5974;0,0339274
2815,5618;0,0340951
2816,5259;0,034265
2817,4902;0,0344399
2818,4543;0,0346225
2819,4187;0,0348128
2820,3828;0,0350081
2821,3472;0,0352053
2822,3113;0,0354031
2823,2756;0,0356048
2824,2397;0,0358167
2825,2041;0,0360467
2826,1682;0,0363002
2827,1326;0,0365783
2828,0967;0,0368775
2829,0610;0,0371917
2830,0251;0,0375154
2830,9895;0,0378459
2831,9536;0,0381834
2832,9180;0,0385301
2833,8821;0,0388885
2834,8464;0,0392599
2835,8105;0,0396454
2836,7749;0,0400476
2837,7390;0,0404721
2838,7034;0,0409275
2839,6675;0,0414252
2840,6318;0,0419776
2841,5959;0,0425962
2842,5603;0,0432897
2843,5244;0,0440597
2844,4888;0,0448952
2845,4529;0,0457675
2846,4172;0,0466285
2847,3813;0,0474161
2848,3457;0,0480665
2849,3098;0,04853
2850,2742;0,0487848
2851,2383;0,0488424
2852,2026;0,0487425
2853,1667;0,04854
2854,1311;0,0482903
2855,0952;0,048037
2856,0596;0,047808
2857,0237;0,0476171
2857,9880;0,0474706
2858,9521;0,0473727
2859,9165;0,0473278
2860,8806;0,0473389
2861,8450;0,0474043
2862,8091;0,0475165
2863,7734;0,0476633
2864,7375;0,047832
2865,7019;0,0480136
2866,6660;0,0482035
2867,6304;0,0483994
2868,5945;0,0485975
2869,5588;0,0487897
2870,5229;0,0489651
2871,4873;0,0491143
2872,4514;0,0492346
2873,4158;0,0493316
2874,3799;0,0494176
2875,3442;0,049506
2876,3083;0,0496062
2877,2727;0,0497208
2878,2368;0,0498467
2879,2012;0,0499786
2880,1653;0,050112
2881,1296;0,0502451
2882,0938;0,0503775
2883,0581;0,0505096
2884,0222;0,0506415
2884,9866;0,0507732
2885,9507;0,0509055
2886,9150;0,0510405
2887,8792;0,0511805
2888,8435;0,0513262
2889,8076;0,0514758
2890,7720;0,0516257
2891,7361;0,0517718
2892,7004;0,0519123
2893,6646;0,0520485
2894,6289;0,0521842
2895,5930;0,0523235
2896,5574;0,0524684
2897,5215;0,0526178
2898,4858;0,0527683
2899,4500;0,0529167
2900,4143;0,0530621
2901,3784;0,0532069
2902,3428;0,0533571
2903,3069;0,0535198
2904,2712;0,0537014
2905,2354;0,0539069
2906,1997;0,0541406
2907,1638;0,0544081
2908,1282;0,0547175
2909,0923;0,0550795
2910,0566;0,055503
2911,0208;0,0559901
2911,9851;0,0565296
2912,9492;0,057094
2913,9136;0,0576419
2914,8777;0,058125
2915,8420;0,0584987
2916,8062;0,058733
2917,7705;0,0588178
2918,7346;0,0587631
2919,6990;0,0585926
2920,6631;0,0583347
2921,6274;0,0580136
2922,5916;0,057646
2923,5559;0,0572412
2924,5200;0,0568062
2925,4844;0,0563494
2926,4485;0,0558825
2927,4128;0,0554183
2928,3770;0,0549667
2929,3413;0,0545315
2930,3054;0,0541108
2931,2698;0,0536997
2932,2339;0,0532944
2933,1982;0,0528945
2934,1624;0,0525021
2935,1267;0,0521185
2936,0908;0,0517417
2937,0552;0,0513667
2938,0193;0,0509878
2938,9836;0,0506014
2939,9478;0,0502077
2940,9121;0,0498086
2941,8762;0,049406
2942,8406;0,049001
2943,8047;0,0485949
2944,7690;0,0481917
2945,7332;0,0477986
2946,6975;0,0474245
2947,6616;0,0470757
2948,6260;0,0467536
2949,5901;0,0464544
2950,5544;0,0461715
2951,5186;0,0458985
2952,4829;0,0456313
2953,4470;0,0453678
2954,4114;0,0451063
2955,3755;0,0448454
2956,3398;0,0445837
2957,3040;0,0443207
2958,2683;0,0440575
2959,2324;0,0437961
2960,1968;0,0435383
2961,1609;0,0432855
2962,1252;0,0430388
2963,0894;0,0427987
2964,0537;0,042565
2965,0178;0,0423355
2965,9822;0,0421052
2966,9463;0,0418669
2967,9106;0,0416138
2968,8748;0,0413426
2969,8391;0,0410556
2970,8032;0,0407607
2971,7676;0,0404684
2972,7317;0,0401886
2973,6960;0,039927
2974,6602;0,0396847
2975,6245;0,0394597
2976,5886;0,0392493
2977,5530;0,0390522
2978,5171;0,038868
2979,4814;0,0386964
2980,4456;0,0385347
2981,4099;0,0383792
2982,3740;0,0382268
2983,3384;0,0380773
2984,3025;0,0379346
2985,2668;0,0378042
2986,2310;0,0376901
2987,1953;0,0375925
2988,1594;0,0375079
2989,1238;0,0374326
2990,0879;0,0373656
2991,0522;0,0373091
2992,0164;0,0372664
2992,9807;0,0372389
2993,9448;0,0372239
2994,9092;0,0372164
2995,8733;0,0372122
2996,8376;0,0372104
2997,8018;0,0372136
2998,7661;0,0372246
2999,7302;0,0372442
3000,6946;0,0372689
3001,6587;0,0372936
3002,6230;0,0373142
3003,5872;0,0373305
3004,5515;0,0373463
3005,5156;0,0373673
3006,4800;0,0373984
3007,4441;0,0374403
3008,4084;0,0374897
3009,3726;0,0375399
3010,3369;0,0375836
3011,3010;0,0376152
3012,2654;0,0376335
3013,2295;0,0376424
3014,1938;0,0376502
3015,1580;0,0376666
3016,1223;0,0376996
3017,0864;0,0377531
3018,0508;0,0378252
3019,0149;0,0379099
3019,9792;0,0379993
3020,9434;0,0380871
3021,9077;0,0381705
3022,8718;0,0382513
3023,8362;0,0383349
3024,8003;0,0384272
3025,7646;0,0385321
3026,7288;0,0386489
3027,6931;0,0387723
3028,6572;0,0388938
3029,6216;0,039005
3030,5857;0,0391007
3031,5500;0,0391815
3032,5142;0,0392537
3033,4785;0,0393268
3034,4426;0,03941
3035,4070;0,0395085
3036,3711;0,0396226
3037,3354;0,0397485
3038,2996;0,0398799
3039,2639;0,0400112
3040,2280;0,0401391
3041,1924;0,0402637
3042,1565;0,040388
3043,1208;0,0405163
3044,0850;0,0406526
3045,0493;0,0407981
3046,0134;0,0409507
3046,9778;0,0411053
3047,9419;0,041257
3048,9063;0,0414036
3049,8704;0,0415476
3050,8347;0,0416947
3051,7988;0,0418495
3052,7632;0,0420122
3053,7273;0,0421776
3054,6917;0,0423374
3055,6558;0,0424859
3056,6201;0,0426239
3057,5842;0,0427582
3058,5486;0,0428975
3059,5127;0,0430469
3060,4771;0,043205
3061,4412;0,0433659
3062,4055;0,0435232
3063,3696;0,0436746
3064,3340;0,0438224
3065,2981;0,0439716
3066,2625;0,044126
3067,2266;0,0442856
3068,1909;0,0444468
3069,1550;0,0446052
3070,1194;0,0447582
3071,0835;0,044906
3072,0479;0,0450517
3073,0120;0,0451994
3073,9763;0,0453526
3074,9404;0,0455129
3075,9048;0,0456792
3076,8689;0,0458477
3077,8333;0,0460132
3078,7974;0,0461708
3079,7617;0,0463186
3080,7258;0,0464585
3081,6902;0,0465953
3082,6543;0,0467344
3083,6187;0,0468786
3084,5828;0,0470275
3085,5471;0,0471785
3086,5112;0,0473289
3087,4756;0,0474788
3088,4397;0,0476308
3089,4041;0,0477884
3090,3682;0,0479541
3091,3325;0,0481269
3092,2966;0,0483022
3093,2610;0,0484739
3094,2251;0,0486363
3095,1895;0,048787
3096,1536;0,0489285
3097,1179;0,0490678
3098,0820;0,0492144
3099,0464;0,0493757
3100,0105;0,0495542
3100,9749;0,0497449
3101,9390;0,049938
3102,9033;0,0501235
3103,8674;0,0502968
3104,8318;0,0504615
3105,7959;0,0506275
3106,7603;0,0508052
3107,7244;0,0509997
3108,6887;0,0512076
3109,6528;0,0514188
3110,6172;0,0516222
3111,5813;0,0518122
3112,5457;0,0519916
3113,5098;0,0521703
3114,4741;0,0523596
3115,4382;0,0525657
3116,4026;0,0527853
3117,3667;0,053007
3118,3311;0,0532168
3119,2952;0,0534061
3120,2595;0,0535762
3121,2236;0,0537377
3122,1880;0,0539047
3123,1521;0,0540869
3124,1165;0,0542849
3125,0806;0,0544922
3126,0449;0,0547001
3127,0090;0,0549041
3127,9734;0,0551057
3128,9375;0,0553094
3129,9019;0,0555182
3130,8660;0,0557306
3131,8303;0,0559418
3132,7944;0,0561479
3133,7588;0,0563491
3134,7229;0,0565504
3135,6873;0,0567587
3136,6514;0,0569784
3137,6157;0,057209
3138,5798;0,0574453
3139,5442;0,0576803
3140,5083;0,0579085
3141,4727;0,0581286
3142,4368;0,0583445
3143,4011;0,0585636
3144,3652;0,0587933
3145,3296;0,0590374
3146,2937;0,0592942
3147,2581;0,0595559
3148,2222;0,0598125
3149,1865;0,0600552
3150,1506;0,0602809
3151,1150;0,0604937
3152,0791;0,0607025
3153,0435;0,0609175
3154,0076;0,0611456
3154,9719;0,0613883
3155,9360;0,0616415
3156,9004;0,0618992
3157,8645;0,0621563
3158,8289;0,0624113
3159,7930;0,0626656
3160,7573;0,0629215
3161,7214;0,0631802
3162,6858;0,0634405
3163,6499;0,0637001
3164,6143;0,0639569
3165,5784;0,0642096
3166,5427;0,0644583
3167,5068;0,0647033
3168,4712;0,0649454
3169,4353;0,0651526
3170,3997;0,0653968
3171,3638;0,0656473
3172,3281;0,065905
3173,2922;0,0661672
3174,2566;0,0664289
3175,2207;0,0666853
3176,1851;0,0669352
3177,1492;0,0671817
3178,1135;0,0674293
3179,0776;0,0676806
3180,0420;0,0679342
3181,0061;0,0681866
3181,9705;0,0684353
3182,9346;0,0686816
3183,8989;0,0689295
3184,8630;0,0691829
3185,8274;0,0694411
3186,7915;0,0696994
3187,7559;0,0699517
3188,7200;0,0701954
3189,6843;0,0704338
3190,6484;0,0706742
3191,6128;0,070923
3192,5769;0,0711812
3193,5413;0,0714434
3194,5054;0,0717005
3195,4697;0,0719452
3196,4338;0,0721747
3197,3982;0,0723915
3198,3623;0,0726006
3199,3267;0,072808
3200,2908;0,0730195
3201,2551;0,0732405
3202,2192;0,0734758
3203,1836;0,0737261
3204,1477;0,0739866
3205,1121;0,074247
3206,0762;0,0744959
3207,0405;0,0747274
3208,0046;0,0749437
3208,9690;0,0751542
3209,9331;0,0753686
3210,8975;0,0755916
3211,8616;0,0758213
3212,8259;0,0760525
3213,7900;0,0762822
3214,7544;0,0765114
3215,7185;0,076743
3216,6829;0,0769785
3217,6470;0,0772151
3218,6113;0,0774481
3219,5754;0,0776744
3220,5398;0,0778949
3221,5039;0,0781133
3222,4683;0,0783326
3223,4324;0,0785522
3224,3967;0,0787687
3225,3608;0,07898
3226,3252;0,0791882
3227,2893;0,0794001
3228,2537;0,079623
3229,2178;0,0798589
3230,1821;0,0801019
3231,1462;0,0803405
3232,1106;0,0805641
3233,0747;0,080769
3234,0391;0,0809616
3235,0032;0,0811551
3235,9675;0,0813632
3236,9316;0,0815936
3237,8960;0,0818442
3238,8601;0,0821053
3239,8245;0,0823643
3240,7886;0,0826108
3241,7529;0,0828403
3242,7170;0,0830545
3243,6814;0,0832593
3244,6455;0,0834621
3245,6099;0,0836695
3246,5740;0,0838857
3247,5383;0,0841122
3248,5024;0,0843481
3249,4668;0,0845913
3250,4309;0,0848399
3251,3953;0,0850926
3252,3594;0,0853495
3253,3237;0,0856104
3254,2878;0,0858742
3255,2522;0,0861378
3256,2163;0,0863965
3257,1807;0,0866458
3258,1448;0,0868834
3259,1091;0,0871113
3260,0732;0,0873347
3261,0376;0,0875601
3262,0017;0,0877921
3262,9661;0,0880318
3263,9302;0,0882764
3264,8945;0,0885213
3265,8586;0,0887615
3266,8230;0,0889933
3267,7871;0,089214
3268,7515;0,0894221
3269,7156;0,0896167
3270,6799;0,0897986
3271,6440;0,0899695
3272,6084;0,0901316
3273,5725;0,0902856
3274,5369;0,0904304
3275,5010;0,0905636
3276,4653;0,0906842
3277,4294;0,0907945
3278,3938;0,0908993
3279,3579;0,0910039
3280,3223;0,0911114
3281,2864;0,0912211
3282,2507;0,09133
3283,2148;0,0914347
3284,1792;0,0915332
3285,1433;0,0916245
3286,1077;0,0917079
3287,0718;0,0917829
3288,0361;0,0918501
3289,0002;0,0919119
3289,9646;0,0919717
3290,9287;0,0920317
3291,8931;0,0920896
3292,8572;0,092139
3293,8215;0,0921735
3294,7856;0,092191
3295,7500;0,0921963
3296,7141;0,0921994
3297,6785;0,0922102
3298,6426;0,0922334
3299,6069;0,0922672
3300,5710;0,0923056
3301,5354;0,0923427
3302,4995;0,0923759
3303,4639;0,0924054
3304,4280;0,0924322
3305,3923;0,092456
3306,3564;0,0924757
3307,3208;0,0924905
3308,2849;0,0925027
3309,2493;0,0925175
3310,2134;0,0925407
3311,1777;0,0925754
3312,1418;0,0926203
3313,1062;0,0926709
3314,0703;0,0927235
3315,0347;0,0927795
3315,9988;0,0928466
3316,9631;0,0929348
3317,9272;0,0930503
3318,8916;0,0931899
3319,8557;0,0933411
3320,8201;0,0934875
3321,7842;0,0936173
3322,7485;0,0937281
3323,7126;0,0938261
3324,6770;0,0939192
3325,6411;0,0940117
3326,6055;0,0941024
3327,5696;0,0941889
3328,5339;0,0942724
3329,4980;0,0943581
3330,4624;0,0944503
3331,4265;0,0945457
3332,3909;0,0946315
3333,3550;0,0946902
3334,3193;0,0947087
3335,2834;0,0946866
3336,2478;0,0946353
3337,2119;0,0945713
3338,1763;0,0945053
3339,1404;0,0944377
3340,1047;0,0943604
3341,0688;0,0942651
3342,0332;0,0941499
3342,9973;0,0940214
3343,9617;0,0938896
3344,9258;0,0937614
3345,8901;0,0936362
3346,8542;0,093506
3347,8186;0,0933604
3348,7827;0,0931922
3349,7471;0,0930019
3350,7112;0,0927966
3351,6755;0,0925874
3352,6396;0,0923843
3353,6040;0,0921925
3354,5681;0,0920109
3355,5325;0,0918342
3356,4966;0,091656
3357,4609;0,0914733
3358,4250;0,0912884
3359,3894;0,0911087
3360,3535;0,0909427
3361,3179;0,0907954
3362,2820;0,0906641
3363,2463;0,0905394
3364,2104;0,0904079
3365,1748;0,0902593
3366,1389;0,0900901
3367,1033;0,0899044
3368,0674;0,0897096
3369,0317;0,0895105
3369,9958;0,0893063
3370,9602;0,0890923
3371,9243;0,088865
3372,8887;0,0886275
3373,8528;0,0883907
3374,8171;0,0881693
3375,7813;0,0879745
3376,7456;0,0878079
3377,7097;0,0876601
3378,6741;0,0875146
3379,6382;0,0873556
3380,6025;0,0871748
3381,5667;0,0869752
3382,5310;0,0867685
3383,4951;0,08657
3384,4595;0,0863918
3385,4236;0,0862373
3386,3879;0,0861011
3387,3521;0,0859721
3388,3164;0,0858388
3389,2805;0,0856935
3390,2449;0,0855332
3391,2090;0,0853588
3392,1733;0,0851726
3393,1375;0,0849772
3394,1018;0,0847759
3395,0659;0,0845734
3396,0303;0,0843753
3396,9944;0,0841859
3397,9587;0,0840057
3398,9229;0,0838295
3399,8872;0,083648
3400,8513;0,0834517
3401,8157;0,0832356
3402,7798;0,0830013
3403,7441;0,0827563
3404,7083;0,0825109
3405,6726;0,0822737
3406,6367;0,0820494
3407,6011;0,0818371
3408,5652;0,0816306
3409,5295;0,0814205
3410,4937;0,0811972
3411,4580;0,0809546
3412,4221;0,080694
3413,3865;0,0804241
3414,3506;0,0801577
3415,3149;0,0799055
3416,2791;0,0796708
3417,2434;0,0794471
3418,2075;0,0792199
3419,1719;0,0789735
3420,1360;0,0786984
3421,1003;0,0783975
3422,0645;0,078086
3423,0288;0,0777845
3423,9929;0,0775095
3424,9573;0,0772656
3425,9214;0,0770436
3426,8857;0,0768243
3427,8499;0,0765878
3428,8142;0,0763228
3429,7783;0,0760306
3430,7427;0,075723
3431,7068;0,0754141
3432,6711;0,0751132
3433,6353;0,0748216
3434,5996;0,0745352
3435,5637;0,074249
3436,5281;0,0739603
3437,4922;0,0736701
3438,4565;0,0733828
3439,4207;0,0731047
3440,3850;0,0728413
3441,3491;0,0725935
3442,3135;0,0723533
3443,2776;0,0721045
3444,2419;0,0718281
3445,2061;0,071512
3446,1704;0,0711598
3447,1345;0,0707911
3448,0989;0,0704314
3449,0630;0,0700979
3450,0273;0,0697916
3450,9915;0,0695023
3451,9558;0,0692184
3452,9199;0,0689348
3453,8843;0,0686538
3454,8484;0,0683788
3455,8127;0,0681085
3456,7769;0,0678359
3457,7412;0,067552
3458,7053;0,067253
3459,6697;0,0669424
3460,6338;0,0666291
3461,5981;0,0663221
3462,5623;0,066025
3463,5266;0,0657341
3464,4907;0,0654422
3465,4551;0,0651421
3466,4192;0,0648316
3467,3835;0,0645144
3468,3477;0,0641983
3469,3120;0,063891
3470,2761;0,0635961
3471,2405;0,063311
3472,2046;0,0630295
3473,1689;0,0627459
3474,1331;0,0624599
3475,0974;0,0621769
3476,0615;0,0619033
3477,0259;0,0616403
3477,9900;0,0613805
3478,9543;0,0611102
3479,9185;0,0608167
3480,8828;0,0604976
3481,8469;0,0601645
3482,8113;0,0598364
3483,7754;0,0595282
3484,7397;0,059241
3485,7039;0,0589626
3486,6682;0,0586762
3487,6323;0,0583726
3488,5967;0,0580571
3489,5608;0,0577456
3490,5251;0,057453
3491,4893;0,0571817
3492,4536;0,0569197
3493,4177;0,0566506
3494,3821;0,056367
3495,3462;0,0560794
3496,3105;0,0558106
3497,2747;0,055578
3498,2390;0,0553769
3499,2031;0,0551787
3500,1675;0,0549443
3501,1316;0,0546468
3502,0959;0,054291
3503,0601;0,0539136
3504,0244;0,053561
3504,9885;0,0532578
3505,9529;0,0529949
3506,9170;0,0527419
3507,8813;0,0524692
3508,8455;0,0521654
3509,8098;0,0518404
3510,7739;0,0515153
3511,7383;0,0512068
3512,7024;0,0509188
3513,6667;0,0506457
3514,6309;0,0503829
3515,5952;0,050132
3516,5593;0,0498989
3517,5237;0,0496872
3518,4878;0,0494925
3519,4521;0,0493027
3520,4163;0,049103
3521,3806;0,0488818
3522,3447;0,0486328
3523,3091;0,0483545
3524,2732;0,0480459
3525,2375;0,0477068
3526,2017;0,0473412
3527,1660;0,0469636
3528,1301;0,0465999
3529,0945;0,0462785
3530,0586;0,0460148
3531,0229;0,0458006
3531,9871;0,0456067
3532,9514;0,0453966
3533,9155;0,0451425
3534,8799;0,0448373
3535,8440;0,0444996
3536,8083;0,044166
3537,7725;0,0438758
3538,7368;0,0436524
3539,7009;0,0434938
3540,6653;0,0433732
3541,6294;0,0432469
3542,5938;0,0430656
3543,5579;0,0427934
3544,5222;0,0424307
3545,4863;0,0420248
3546,4507;0,0416461
3547,4148;0,041342
3548,3792;0,0411065
3549,3433;0,040891
3550,3076;0,0406386
3551,2717;0,0403185
3552,2361;0,0399465
3553,2002;0,0395763
3554,1646;0,0392625
3555,1287;0,0390249
3556,0930;0,0388426
3557,0571;0,0386777
3558,0215;0,0385058
3558,9856;0,0383347
3559,9500;0,0381972
3560,9141;0,0381206
3561,8784;0,0380948
3562,8425;0,0380594
3563,8069;0,0379149
3564,7710;0,0375581
3565,7354;0,0369508
3566,6995;0,0361973
3567,6638;0,0355147
3568,6279;0,0350682
3569,5923;0,0348605
3570,5564;0,0347838
3571,5208;0,0347203
3572,4849;0,0345968
3573,4492;0,0343957
3574,4133;0,0341407
3575,3777;0,0338703
3576,3418;0,033612
3577,3062;0,0333756
3578,2703;0,033166
3579,2346;0,0329982
3580,1987;0,0328961
3581,1631;0,0328721
3582,1272;0,0329052
3583,0916;0,0329354
3584,0557;0,0328762
3585,0200;0,0326441
3585,9841;0,0322138
3586,9485;0,0316784
3587,9126;0,031227
3588,8770;0,0310024
3589,8411;0,0309955
3590,8054;0,0310871
3591,7695;0,0311421
3592,7339;0,0310721
3593,6980;0,0308625
3594,6624;0,0305694
3595,6265;0,0302757
3596,5908;0,0300264
3597,5549;0,0298036
3598,5193;0,02956
3599,4834;0,0292744
3600,4478;0,0289791
3601,4119;0,0287348
3602,3762;0,0285759
3603,3403;0,0284787
3604,3047;0,0283748
3605,2688;0,0281891
3606,2332;0,0278783
3607,1973;0,027457
3608,1616;0,0269947
3609,1257;0,0265739
3610,0901;0,0262426
3611,0542;0,0260051
3612,0186;0,0258455
3612,9827;0,025747
3613,9470;0,0256888
3614,9111;0,0256332
3615,8755;0,0255256
3616,8396;0,0253141
3617,8040;0,0249897
3618,7681;0,0246242
3619,7324;0,0243577
3620,6965;0,0243102
3621,6609;0,0244943
3622,6250;0,0248202
3623,5894;0,0251553
3624,5535;0,0253666
3625,5178;0,0253298
3626,4819;0,0249404
3627,4463;0,0241828
3628,4104;0,023246
3629,3748;0,0224729
3630,3389;0,0220625
3631,3032;0,0219317
3632,2673;0,0218789
3633,2317;0,0217561
3634,1958;0,0215191
3635,1602;0,021205
3636,1243;0,0208804
3637,0886;0,0205912
3638,0527;0,0203449
3639,0171;0,0201306
3639,9812;0,0199518
3640,9456;0,0198375
3641,9097;0,0198228
3642,8740;0,0199166
3643,8381;0,0200828
3644,8025;0,0202391
3645,7666;0,0202578
3646,7310;0,0199697
3647,6951;0,0192446
3648,6594;0,0182145
3649,6235;0,0173298
3650,5879;0,0169226
3651,5520;0,0169227
3652,5164;0,0170695
3653,4805;0,0171446
3654,4448;0,0170434
3655,4089;0,0167799
3656,3733;0,0164632
3657,3374;0,0162212
3658,3018;0,0161067
3659,2659;0,0160783
3660,2302;0,0160661
3661,1943;0,01604
3662,1587;0,0160282
3663,1228;0,016081
3664,0872;0,0162168
3665,0513;0,0163964
3666,0156;0,0165418
3666,9797;0,0165802
3667,9441;0,0164894
3668,9082;0,0163315
3669,8726;0,0162245
3670,8367;0,0162347
3671,8010;0,016303
3672,7651;0,01629
3673,7295;0,0160724
3674,6936;0,0156367
3675,6580;0,0151344
3676,6221;0,0147906
3677,5864;0,0147023
3678,5505;0,0147935
3679,5149;0,0149458
3680,4790;0,0150992
3681,4434;0,0152618
3682,4075;0,015466
3683,3718;0,0157199
3684,3359;0,0159858
3685,3003;0,0161917
3686,2644;0,01626
3687,2288;0,0161423
3688,1929;0,015866
3689,1572;0,0155651
3690,1213;0,0154093
3691,0857;0,015465
3692,0498;0,0156706
3693,0142;0,0159296
3693,9783;0,0161796
3694,9426;0,0163995
3695,9067;0,0165863
3696,8711;0,0167311
3697,8352;0,0168111
3698,7996;0,0167988
3699,7637;0,0166855
3700,7280;0,0165067
3701,6921;0,0163449
3702,6565;0,0162919
3703,6206;0,0163917
3704,5850;0,0166195
3705,5491;0,0169034
3706,5134;0,0171539
3707,4775;0,0172723
3708,4419;0,0171503
3709,4060;0,0167009
3710,3704;0,015958
3711,3345;0,0151537
3712,2988;0,0145867
3713,2629;0,0143953
3714,2273;0,014523
3715,1914;0,0148401
3716,1558;0,0152374
3717,1199;0,0156505
3718,0842;0,0160495
3719,0483;0,0164199
3720,0127;0,0167485
3720,9768;0,0170183
3721,9412;0,0172137
3722,9053;0,0173298
3723,8696;0,0173817
3724,8337;0,0174048
3725,7981;0,0174405
3726,7622;0,017514
3727,7266;0,0176223
3728,6907;0,0177418
3729,6550;0,0178436
3730,6191;0,0178979
3731,5835;0,0178642
3732,5476;0,0176783
3733,5120;0,0172738
3734,4761;0,0166739
3735,4404;0,0160644
3736,4045;0,0156854
3737,3689;0,0156324
3738,3330;0,0158166
3739,2974;0,0160654
3740,2615;0,0162092
3741,2258;0,0161229
3742,1899;0,0157595
3743,1543;0,0152115
3744,1184;0,0147314
3745,0828;0,0145733
3746,0469;0,0147582
3747,0112;0,0150711
3747,9753;0,0152346
3748,9397;0,0150439
3749,9038;0,014478
3750,8682;0,0137921
3751,8323;0,0133677
3752,7966;0,0133624
3753,7607;0,0136387
3754,7251;0,0139682
3755,6892;0,0141826
3756,6536;0,0142108
3757,6177;0,0140783
3758,5820;0,0138885
3759,5461;0,0137622
3760,5105;0,01376
3761,4746;0,0138603
3762,4390;0,0140008
3763,4031;0,014126
3764,3674;0,0142061
3765,3315;0,0142312
3766,2959;0,0141962
3767,2600;0,014092
3768,2244;0,013916
3769,1885;0,0136957
3770,1528;0,0134987
3771,1169;0,0134044
3772,0813;0,0134543
3773,0454;0,0136255
3774,0098;0,0138479
3774,9739;0,0140397
3775,9382;0,0141368
3776,9023;0,0141139
3777,8667;0,0139973
3778,8308;0,0138572
3779,7952;0,0137663
3780,7593;0,0137514
3781,7236;0,0137858
3782,6877;0,0138195
3783,6521;0,0138139
3784,6162;0,0137586
3785,5806;0,0136728
3786,5447;0,013593
3787,5090;0,0135565
3788,4731;0,0135858
3789,4375;0,0136813
3790,4016;0,0138226
3791,3660;0,013978
3792,3301;0,0141203
3793,2944;0,0142411
3794,2585;0,0143541
3795,2229;0,0144805
3796,1870;0,014622
3797,1514;0,0147416
3798,1155;0,0147737
3799,0798;0,0146634
3800,0439;0,01442
3801,0083;0,0141403
3801,9724;0,0139479
3802,9368;0,0138814
3803,9009;0,0138628
3804,8652;0,0137775
3805,8293;0,0135788
3806,7937;0,0133431
3807,7578;0,0132284
3808,7222;0,0133445
3809,6863;0,0136621
3810,6506;0,0140512
3811,6147;0,0143763
3812,5791;0,0145582
3813,5432;0,0145972
3814,5076;0,014567
3815,4717;0,0145672
3816,4360;0,0146394
3817,4001;0,0147218
3818,3645;0,0146957
3819,3286;0,0144824
3820,2930;0,0141245
3821,2571;0,0137814
3822,2214;0,0136073
3823,1855;0,0136307
3824,1499;0,0137682
3825,1140;0,0139176
3826,0784;0,0140205
3827,0425;0,0140735
3828,0068;0,0141085
3828,9709;0,0141627
3829,9353;0,014257
3830,8994;0,01439
3831,8638;0,0145441
3832,8279;0,0146925
3833,7922;0,0148037
3834,7563;0,0148455
3835,7207;0,014794
3836,6848;0,014648
3837,6492;0,0144405
3838,6133;0,0142292
3839,5776;0,0140585
3840,5417;0,0139307
3841,5061;0,0138225
3842,4702;0,0137269
3843,4346;0,0136783
3844,3987;0,0137387
3845,3630;0,0139556
3846,3271;0,0143248
3847,2915;0,0147849
3848,2556;0,0152356
3849,2200;0,0155539
3850,1841;0,0155963
3851,1484;0,0152112
3852,1125;0,0143531
3853,0769;0,013317
3854,0410;0,0126574
3855,0054;0,0126303
3855,9695;0,013044
3856,9338;0,0136008
3857,8979;0,0141037
3858,8623;0,0144625
3859,8264;0,0146522
3860,7908;0,0146858
3861,7549;0,0146071
3862,7192;0,0144892
3863,6833;0,0144107
3864,6477;0,0144123
3865,6118;0,0144735
3866,5762;0,014535
3867,5403;0,0145375
3868,5046;0,0144492
3869,4688;0,014279
3870,4331;0,0140733
3871,3972;0,0138976
3872,3616;0,0138052
3873,3257;0,0138163
3874,2900;0,0139158
3875,2542;0,0140659
3876,2185;0,0142213
3877,1826;0,0143445
3878,1470;0,0144174
3879,1111;0,0144446
3880,0754;0,0144435
3881,0396;0,014423
3882,0039;0,0143693
3882,9680;0,0142627
3883,9324;0,0141145
3884,8965;0,0139834
3885,8608;0,0139419
3886,8250;0,0140123
3887,7893;0,0141383
3888,7534;0,0142215
3889,7178;0,0141878
3890,6819;0,014047
3891,6462;0,0139053
3892,6104;0,0138953
3893,5747;0,0140676
3894,5388;0,014363
3895,5032;0,0146745
3896,4673;0,014915
3897,4316;0,0150423
3898,3958;0,0150546
3899,3601;0,0149683
3900,3242;0,0147952
3901,2886;0,0145357
3902,2527;0,0142046
3903,2170;0,013861
3904,1812;0,0135971
3905,1455;0,0134804
3906,1096;0,0135095
3907,0740;0,0136282
3908,0381;0,0137708
3909,0024;0,0138972
3909,9666;0,0140009
3910,9309;0,0140964
3911,8950;0,0141962
3912,8594;0,014294
3913,8235;0,014362
3914,7878;0,014367
3915,7520;0,0142965
3916,7163;0,0141787
3917,6804;0,0140761
3918,6448;0,0140457
3919,6089;0,0140973
3920,5732;0,0141897
3921,5374;0,0142622
3922,5017;0,0142739
3923,4658;0,0142288
3924,4302;0,0141746
3925,3943;0,0141679
3926,3586;0,0142323
3927,3228;0,014342
3928,2871;0,01444
3929,2512;0,0144699
3930,2156;0,0144048
3931,1797;0,0142633
3932,1440;0,0141016
3933,1082;0,013981
3934,0725;0,013936
3935,0366;0,0139669
3936,0010;0,014053
3936,9651;0,0141663
3937,9294;0,0142768
3938,8936;0,0143547
3939,8579;0,014377
3940,8220;0,0143396
3941,7864;0,0142667
3942,7505;0,0142024
3943,7148;0,014185
3944,6790;0,0142221
3945,6433;0,0142875
3946,6074;0,0143396
3947,5718;0,014346
3948,5359;0,0143015
3949,5002;0,014229
3950,4644;0,0141621
3951,4287;0,0141238
3952,3928;0,0141163
3953,3572;0,014129
3954,3213;0,0141505
3955,2856;0,014175
3956,2498;0,0142018
3957,2141;0,0142293
3958,1782;0,0142526
3959,1426;0,0142646
3960,1067;0,0142605
3961,0710;0,0142417
3962,0352;0,014215
3962,9995;0,0141896
3963,9636;0,014172
3964,9280;0,0141649
3965,8921;0,014168
3966,8564;0,0141801
3967,8206;0,0141996
3968,7849;0,0142238
3969,7490;0,0142478
3970,7134;0,0142654
3971,6775;0,0142717
3972,6418;0,0142656
3973,6060;0,0142508
3974,5703;0,0142338
3975,5344;0,0142203
3976,4988;0,0142121
3977,4629;0,0142067
3978,4272;0,0141999
3979,3914;0,0141891
3980,3557;0,0141746
3981,3198;0,0141601
3982,2842;0,0141508
3983,2483;0,0141515
3984,2126;0,0141649
3985,1768;0,0141909
3986,1411;0,0142267
3987,1052;0,0142666
3988,0696;0,0143038
3989,0337;0,014331
3989,9980;0,0143427
3990,9622;0,0143359
3991,9265;0,0143109
3992,8906;0,0142722
3993,8550;0,0142285
3994,8191;0,0141908
3995,7834;0,0141694
3996,7476;0,0141688
3997,7119;0,0141852
3998,6760;0,0142079
3999,6404;0,0142254
4000,6045;0,014302

##### Extended Information
[Comments]
Sample name
Comment
Username
Division
Organization;UNIVERSIDAD INDUSTRIAL DE SANTANDER

[Detailed Information]
Creation date;14/03/2025 11:44 a.m.

Data array type;Linear data array
Horizontal axis;Wavenumber [cm-1]
Vertical axis;Abs
Start;399,193 cm-1
End;4000,6 cm-1
Data interval;0,964233 cm-1
Data points;3736    

[Measurement Information]
Model name;FT/IR-4X1typeA
Serial No.;A035162111

Accessory;ATR PRO 4X
Accessory S/N;A021162126
Incident angle;45 deg

Measurement date;14/03/2025 11:43 a.m.

Light source;Standard
Detector;TGS
Accumulation;40
Resolution;4 cm-1
Zero filling;On
Apodization;Cosine
Gain;Auto (8)
Aperture;Auto (7 mm)
Scan speed;Auto (2 mm/sec)
Filter;Auto (12800 Hz)

