TITLE;
DATA TYPE;INFRARED SPECTRUM
ORIGIN;JASCO
OWNER;
DATE;25/01/29
TIME;14:51:14
SPECTROMETER/DATA SYSTEM;
LOCALE;9226
RESOLUTION;
DELTAX;0,964233
XUNITS;1/CM
YUNITS;ABSORBANCE
FIRSTX;  399,1927
LASTX; 4000,6047
NPOINTS;    3736
FIRSTY;     0,07446
MAXY;     0,10464
MINY;     0,00941
XYDATA
399,1927;0,0744634
400,1569;0,0743415
401,1211;0,0738205
402,0854;0,073346
403,0496;0,0730969
404,0138;0,0730573
404,9781;0,0731119
405,9423;0,0731371
406,9065;0,0730829
407,8708;0,0730039
408,8350;0,0730116
409,7992;0,0731819
410,7635;0,0734842
411,7277;0,0737885
412,6919;0,0739574
413,6562;0,0739486
414,6204;0,0738501
415,5846;0,0738506
416,5489;0,0741883
417,5131;0,0750487
418,4773;0,076358
419,4416;0,0776735
420,4058;0,0785262
421,3700;0,0788293
422,3343;0,0787852
423,2985;0,0786061
424,2627;0,0784001
425,2270;0,0781857
426,1912;0,0779452
427,1554;0,0776739
428,1197;0,0773975
429,0839;0,0771554
430,0481;0,0769716
431,0124;0,076838
431,9766;0,0767235
432,9408;0,0766001
433,9051;0,0764627
434,8693;0,0763236
435,8335;0,0761879
436,7978;0,0760358
437,7620;0,0758374
438,7262;0,0755859
439,6905;0,0753208
440,6547;0,0751154
441,6189;0,0750345
442,5832;0,0750859
443,5474;0,0752048
444,5116;0,0752968
445,4759;0,0753044
446,4401;0,07523
447,4043;0,0750981
448,3686;0,0749016
449,3328;0,0745877
450,2970;0,0740979
451,2613;0,0734352
452,2255;0,072701
453,1897;0,0720662
454,1540;0,071696
455,1182;0,0716785
456,0824;0,0719868
457,0467;0,0724802
458,0109;0,0729563
458,9751;0,0732476
459,9394;0,0732933
460,9036;0,0731192
461,8678;0,0727714
462,8321;0,0722855
463,7963;0,0717088
464,7605;0,0711355
465,7248;0,0707066
466,6890;0,0705546
467,6532;0,0707282
468,6175;0,0711544
469,5817;0,0716631
470,5459;0,0720553
471,5102;0,0721943
472,4744;0,0720799
473,4386;0,0718456
474,4029;0,0716586
475,3671;0,071607
476,3313;0,0716662
477,2956;0,0717439
478,2598;0,071749
479,2240;0,0716476
480,1883;0,0714836
481,1525;0,0713601
482,1167;0,0713899
483,0810;0,0716381
484,0452;0,0720829
485,0094;0,0726199
485,9737;0,0731168
486,9379;0,0734821
487,9021;0,0736983
488,8664;0,0738067
489,8306;0,0738693
490,7948;0,0739351
491,7591;0,0740265
492,7233;0,0741444
493,6875;0,0742821
494,6518;0,0744325
495,6160;0,0745854
496,5802;0,0747241
497,5445;0,0748335
498,5087;0,0749151
499,4729;0,0749986
500,4372;0,0751333
501,4014;0,0753582
502,3656;0,0756682
503,3299;0,07601
504,2941;0,0763178
505,2583;0,0765584
506,2226;0,0767455
507,1868;0,0769145
508,1510;0,0770818
509,1153;0,0772227
510,0795;0,0772912
511,0437;0,0772669
512,0080;0,0771907
512,9722;0,0771588
513,9365;0,0772793
514,9007;0,0776149
515,8649;0,0781424
516,8292;0,078752
517,7934;0,0792954
518,7576;0,0796654
519,7219;0,0798482
520,6861;0,0799078
521,6503;0,0799264
522,6146;0,0799561
523,5788;0,0800069
524,5430;0,080059
525,5073;0,0800836
526,4715;0,0800642
527,4357;0,0800077
528,4000;0,0799417
529,3642;0,0799011
530,3284;0,0799141
531,2927;0,0799886
532,2569;0,0801034
533,2211;0,0802087
534,1854;0,080244
535,1496;0,0801693
536,1138;0,0799922
537,0781;0,0797707
538,0423;0,0795864
539,0065;0,079502
539,9708;0,0795281
540,9350;0,0796206
541,8992;0,0797098
542,8635;0,0797432
543,8277;0,0797149
544,7919;0,0796664
545,7562;0,0796601
546,7204;0,0797417
547,6846;0,0799178
548,6489;0,0801605
549,6131;0,0804316
550,5773;0,080705
551,5416;0,0809717
552,5058;0,0812289
553,4700;0,0814684
554,4343;0,0816757
555,3985;0,0818399
556,3627;0,0819639
557,3270;0,0820617
558,2912;0,082143
559,2554;0,0821974
560,2197;0,0821917
561,1839;0,0820877
562,1481;0,0818667
563,1124;0,0815456
564,0766;0,0811722
565,0408;0,0808048
566,0051;0,0804906
566,9693;0,0802547
567,9335;0,080102
568,8978;0,0800242
569,8620;0,0800063
570,8262;0,0800279
571,7905;0,0800628
572,7547;0,0800814
573,7189;0,0800582
574,6832;0,0799832
575,6474;0,0798684
576,6116;0,0797428
577,5759;0,0796368
578,5401;0,0795652
579,5043;0,0795215
580,4686;0,0794873
581,4328;0,0794481
582,3970;0,0794042
583,3613;0,0793682
584,3255;0,079352
585,2897;0,0793551
586,2540;0,0793632
587,2182;0,0793589
588,1824;0,079333
589,1467;0,0792877
590,1109;0,0792293
591,0751;0,0791591
592,0394;0,0790713
593,0036;0,0789604
593,9678;0,0788314
594,9321;0,0786999
595,8963;0,0785812
596,8605;0,078478
597,8248;0,0783766
598,7890;0,0782564
599,7532;0,0781048
600,7175;0,0779261
601,6817;0,0777364
602,6459;0,0775507
603,6102;0,0773742
604,5744;0,0772041
605,5386;0,0770389
606,5029;0,0768828
607,4671;0,0767411
608,4313;0,0766118
609,3956;0,0764819
610,3598;0,0763354
611,3240;0,0761671
612,2883;0,0759888
613,2525;0,0758219
614,2167;0,0756802
615,1810;0,0755538
616,1452;0,075408
617,1094;0,0751971
618,0737;0,0748887
619,0379;0,0744789
620,0021;0,0739894
620,9664;0,0734524
621,9306;0,0729005
622,8948;0,0723644
623,8591;0,0718747
624,8233;0,0714461
625,7875;0,0711099
626,7518;0,0708512
627,7160;0,0706344
628,6802;0,0704166
629,6445;0,0701684
630,6087;0,0698832
631,5729;0,0695767
632,5372;0,0692759
633,5014;0,0690064
634,4656;0,0687837
635,4299;0,0686099
636,3941;0,0684754
637,3583;0,0683631
638,3226;0,0682539
639,2868;0,0681337
640,2510;0,068
641,2153;0,0678637
642,1795;0,0677443
643,1437;0,0676572
644,1080;0,0676021
645,0722;0,0675583
646,0364;0,0674932
647,0007;0,0673804
647,9649;0,0672165
648,9291;0,0670283
649,8934;0,066862
650,8576;0,0667621
651,8218;0,0667521
652,7861;0,0668269
653,7503;0,066959
654,7145;0,0671084
655,6788;0,0672375
656,6430;0,0673247
657,6072;0,0673723
658,5715;0,0673989
659,5357;0,0674179
660,4999;0,0674147
661,4642;0,0673413
662,4284;0,0671373
663,3926;0,0667602
664,3569;0,0662158
665,3211;0,0655954
666,2853;0,0651001
667,2496;0,0649654
668,2138;0,0651957
669,1780;0,0654477
670,1423;0,0654477
671,1065;0,0651903
672,0707;0,0647265
673,0350;0,06409
673,9992;0,063338
674,9634;0,0625572
675,9277;0,0618306
676,8919;0,0611975
677,8561;0,0606432
678,8204;0,0601276
679,7846;0,0596224
680,7488;0,0591269
681,7131;0,0586604
682,6773;0,0582408
683,6415;0,0578722
684,6058;0,0575429
685,5700;0,057234
686,5342;0,0569296
687,4985;0,0566248
688,4627;0,0563302
689,4269;0,0560616
690,3912;0,0558321
691,3554;0,055641
692,3196;0,0554707
693,2839;0,0552958
694,2481;0,055098
695,2123;0,0548776
696,1766;0,0546525
697,1408;0,0544461
698,1050;0,0542721
699,0693;0,0541275
700,0335;0,0539968
700,9977;0,0538614
701,9620;0,053709
702,9262;0,0535359
703,8904;0,0533406
704,8547;0,0531292
705,8189;0,0529079
706,7831;0,0526816
707,7474;0,0524539
708,7116;0,0522251
709,6758;0,0519926
710,6401;0,0517511
711,6043;0,051497
712,5685;0,0512318
713,5328;0,0509653
714,4970;0,0507131
715,4612;0,0502646
716,4255;0,0501179
717,3897;0,050001
718,3539;0,0498646
719,3182;0,0496489
720,2824;0,049315
721,2466;0,04887
722,2109;0,0483653
723,1751;0,0478668
724,1393;0,0474225
725,1036;0,0470486
726,0678;0,0467357
727,0320;0,0464644
727,9963;0,0462185
728,9605;0,0459869
729,9247;0,0457601
730,8890;0,0455257
731,8532;0,0452734
732,8174;0,045003
733,7817;0,0447306
734,7459;0,0444825
735,7101;0,0442806
736,6744;0,0441285
737,6386;0,0440077
738,6028;0,0438866
739,5671;0,0437364
740,5313;0,0435428
741,4955;0,0433094
742,4598;0,0430518
743,4240;0,0427889
744,3882;0,0425364
745,3525;0,042304
746,3167;0,0420937
747,2809;0,041901
748,2452;0,0417179
749,2094;0,0415379
750,1736;0,0413613
751,1379;0,0411951
752,1021;0,0410468
753,0663;0,0409141
754,0306;0,0407799
754,9948;0,0406172
755,9590;0,0404046
756,9233;0,0401407
757,8875;0,0398501
758,8517;0,0395726
759,8160;0,0393446
760,7802;0,0391811
761,7444;0,0390698
762,7087;0,0389797
763,6729;0,0388782
764,6371;0,0387465
765,6014;0,0385859
766,5656;0,0384132
767,5298;0,0382477
768,4941;0,0381008
769,4583;0,0379706
770,4225;0,0378461
771,3868;0,0377168
772,3510;0,0375806
773,3152;0,0374449
774,2795;0,0373208
775,2437;0,0372147
776,2079;0,0371231
777,1722;0,0370364
778,1364;0,036946
779,1006;0,0368512
780,0649;0,0367578
781,0291;0,0366718
781,9933;0,0365913
782,9576;0,0365052
783,9218;0,0363992
784,8860;0,0362651
785,8503;0,0361066
786,8145;0,0359383
787,7787;0,0357782
788,7430;0,0356397
789,7072;0,0355283
790,6714;0,0354423
791,6357;0,0353767
792,5999;0,0353253
793,5641;0,0352811
794,5284;0,0352368
795,4926;0,0351866
796,4568;0,0351293
797,4211;0,0350699
798,3853;0,0350182
799,3495;0,0349833
800,3138;0,0349679
801,2780;0,0349655
802,2422;0,0349643
803,2065;0,0349535
804,1707;0,03493
805,1349;0,034899
806,0992;0,0348699
807,0634;0,034849
808,0276;0,0348355
808,9919;0,0348226
809,9561;0,0348029
810,9203;0,0347732
811,8846;0,0347368
812,8488;0,0347003
813,8130;0,0346678
814,7773;0,0346378
815,7415;0,0346032
816,7057;0,0345557
817,6700;0,0344894
818,6342;0,0344049
819,5984;0,0343082
820,5627;0,0342097
821,5269;0,0341212
822,4911;0,0340537
823,4554;0,0340141
824,4196;0,0340036
825,3839;0,0340165
826,3481;0,0340416
827,3123;0,0340658
828,2766;0,0340788
829,2408;0,0340755
830,2050;0,0340558
831,1693;0,0340212
832,1335;0,0339721
833,0977;0,0339069
834,0620;0,0338239
835,0262;0,033724
835,9904;0,0336126
836,9547;0,0334976
837,9189;0,0333865
838,8831;0,0332832
839,8474;0,0331889
840,8116;0,0331033
841,7758;0,0330277
842,7401;0,0329648
843,7043;0,0329169
844,6685;0,0328835
845,6328;0,0328597
846,5970;0,032839
847,5612;0,0328158
848,5255;0,0327879
849,4897;0,0327564
850,4539;0,0327233
851,4182;0,0326894
852,3824;0,0326532
853,3466;0,0326123
854,3109;0,0325648
855,2751;0,032511
856,2393;0,0324538
857,2036;0,032399
858,1678;0,0323541
859,1320;0,0323263
860,0963;0,03232
861,0605;0,0323333
862,0247;0,0323576
862,9890;0,0323814
863,9532;0,0323961
864,9174;0,0324021
865,8817;0,0324102
866,8459;0,0324365
867,8101;0,0324936
868,7744;0,0325834
869,7386;0,0326955
870,7028;0,032812
871,6671;0,032916
872,6313;0,0329983
873,5955;0,0330585
874,5598;0,0331021
875,5240;0,0331356
876,4882;0,0331646
877,4525;0,0331939
878,4167;0,0332303
879,3809;0,0332831
880,3452;0,0333631
881,3094;0,0334786
882,2736;0,033634
883,2379;0,0338296
884,2021;0,034064
885,1663;0,0343361
886,1306;0,0346452
887,0948;0,0349883
888,0590;0,0353585
889,0233;0,0357445
889,9875;0,0361332
890,9517;0,0365128
891,9160;0,036874
892,8802;0,0372094
893,8444;0,0375099
894,8087;0,0377637
895,7729;0,0379562
896,7371;0,0380735
897,7014;0,0381062
898,6656;0,0380518
899,6298;0,037915
900,5941;0,0377054
901,5583;0,0374362
902,5225;0,0371226
903,4868;0,0367815
904,4510;0,0364309
905,4152;0,0360894
906,3795;0,0357742
907,3437;0,0354997
908,3079;0,0352753
909,2722;0,0351047
910,2364;0,0349867
911,2007;0,0349167
912,1649;0,0348884
913,1292;0,0348947
914,0934;0,034928
915,0576;0,0349798
916,0219;0,0350416
916,9861;0,0351067
917,9503;0,0351719
918,9146;0,0352382
919,8788;0,0353095
920,8430;0,0353889
921,8073;0,0354755
922,7715;0,0355634
923,7357;0,0356442
924,7000;0,0357114
925,6642;0,035765
926,6284;0,0358118
927,5927;0,0358625
928,5569;0,035926
929,5211;0,0360049
930,4854;0,0360942
931,4496;0,0361845
932,4138;0,0362679
933,3781;0,0363429
934,3423;0,0364155
935,3065;0,0364966
936,2708;0,0365979
937,2350;0,0367278
938,1992;0,0368901
939,1635;0,0370844
940,1277;0,0373077
941,0919;0,0375552
942,0562;0,0378215
943,0204;0,0381018
943,9846;0,0383944
944,9489;0,0387019
945,9131;0,0390317
946,8773;0,0393928
947,8416;0,0397912
948,8058;0,0402269
949,7700;0,0406942
950,7343;0,0411859
951,6985;0,0416971
952,6627;0,0422281
953,6270;0,0427824
954,5912;0,043363
955,5554;0,0439692
956,5197;0,0445969
957,4839;0,0452418
958,4481;0,0459025
959,4124;0,0465818
960,3766;0,0472834
961,3408;0,0480085
962,3051;0,0487526
963,2693;0,049507
964,2335;0,0502628
965,1978;0,0510157
966,1620;0,0517676
967,1262;0,0525256
968,0905;0,0532995
969,0547;0,0540994
970,0189;0,0549355
970,9832;0,0558197
971,9474;0,0567655
972,9116;0,0577879
973,8759;0,0589003
974,8401;0,0601119
975,8043;0,0614258
976,7686;0,0628384
977,7328;0,064339
978,6970;0,0659097
979,6613;0,067524
980,6255;0,0691467
981,5897;0,070735
982,5540;0,0722428
983,5182;0,0736277
984,4824;0,074858
985,4467;0,075919
986,4109;0,0768145
987,3751;0,0775644
988,3394;0,0781981
989,3036;0,0787468
990,2678;0,0792365
991,2321;0,079684
992,1963;0,0800959
993,1605;0,080473
994,1248;0,080816
995,0890;0,0811312
996,0532;0,0814327
997,0175;0,0817396
997,9817;0,0820688
998,9459;0,0824279
999,9102;0,082813
1000,8744;0,0832121
1001,8386;0,083614
1002,8029;0,0840166
1003,7671;0,0844304
1004,7313;0,0848759
1005,6956;0,0853775
1006,6598;0,0859564
1007,6240;0,0866267
1008,5883;0,0873943
1009,5525;0,0882568
1010,5167;0,0892038
1011,4810;0,0902176
1012,4452;0,0912749
1013,4094;0,0923493
1014,3737;0,0934153
1015,3379;0,0944505
1016,3021;0,095438
1017,2664;0,0963672
1018,2306;0,0972334
1019,1948;0,0980379
1020,1591;0,0987868
1021,1233;0,0994898
1022,0875;0,100159
1023,0518;0,100806
1024,0160;0,10144
1024,9802;0,102064
1025,9445;0,102672
1026,9087;0,103244
1027,8729;0,103754
1028,8372;0,104173
1029,8014;0,104473
1030,7656;0,104632
1031,7299;0,104636
1032,6941;0,10447
1033,6583;0,104126
1034,6226;0,103606
1035,5868;0,102929
1036,5510;0,102134
1037,5153;0,101279
1038,4795;0,100429
1039,4437;0,099646
1040,4080;0,098973
1041,3722;0,0984331
1042,3364;0,0980276
1043,3007;0,0977402
1044,2649;0,0975417
1045,2291;0,0973957
1046,1934;0,0972646
1047,1576;0,097115
1048,1218;0,0969219
1049,0861;0,096669
1050,0503;0,0963464
1051,0145;0,0959477
1051,9788;0,095468
1052,9430;0,0949039
1053,9072;0,0942543
1054,8715;0,0935198
1055,8357;0,0926995
1056,7999;0,0917868
1057,7642;0,0907679
1058,7284;0,0896252
1059,6926;0,0883464
1060,6569;0,0869354
1061,6211;0,0854196
1062,5853;0,0838489
1063,5496;0,0822852
1064,5138;0,0807873
1065,4780;0,0793954
1066,4423;0,078124
1067,4065;0,0769631
1068,3707;0,0758889
1069,3350;0,074876
1070,2992;0,0739072
1071,2634;0,0729766
1072,2277;0,0720854
1073,1919;0,0712349
1074,1561;0,0704199
1075,1204;0,0696276
1076,0846;0,0688413
1077,0488;0,0680479
1078,0131;0,0672454
1078,9773;0,0664459
1079,9415;0,0656739
1080,9058;0,0649579
1081,8700;0,064321
1082,8342;0,0637735
1083,7985;0,0633106
1084,7627;0,0629174
1085,7269;0,0625766
1086,6912;0,0622756
1087,6554;0,0620095
1088,6196;0,06178
1089,5839;0,0615908
1090,5481;0,0614444
1091,5123;0,0613407
1092,4766;0,0612789
1093,4408;0,0612582
1094,4050;0,0612786
1095,3693;0,061339
1096,3335;0,0614354
1097,2977;0,0615603
1098,2620;0,0617035
1099,2262;0,0618545
1100,1904;0,0620047
1101,1547;0,0621476
1102,1189;0,0622769
1103,0831;0,0623849
1104,0474;0,062461
1105,0116;0,0624933
1105,9758;0,0624711
1106,9401;0,0623874
1107,9043;0,0622387
1108,8685;0,0620223
1109,8328;0,061733
1110,7970;0,0613623
1111,7612;0,0609031
1112,7255;0,0603564
1113,6897;0,0597369
1114,6539;0,0590738
1115,6182;0,0584044
1116,5824;0,0577648
1117,5466;0,0571801
1118,5109;0,0566594
1119,4751;0,0561937
1120,4393;0,0557584
1121,4036;0,0553174
1122,3678;0,0548304
1123,3320;0,0542617
1124,2963;0,0535897
1125,2605;0,0528114
1126,2247;0,0519421
1127,1890;0,0510085
1128,1532;0,0500388
1129,1174;0,0490547
1130,0817;0,0480687
1131,0459;0,0470863
1132,0101;0,046113
1132,9744;0,0451597
1133,9386;0,0442464
1134,9028;0,0433991
1135,8671;0,0426446
1136,8313;0,0420024
1137,7955;0,0414801
1138,7598;0,0410742
1139,7240;0,0407738
1140,6882;0,0405663
1141,6525;0,0404401
1142,6167;0,0403849
1143,5809;0,0403896
1144,5452;0,0404422
1145,5094;0,0405323
1146,4736;0,0406546
1147,4379;0,0408105
1148,4021;0,0410053
1149,3663;0,0412423
1150,3306;0,0415168
1151,2948;0,0418157
1152,2590;0,0421204
1153,2233;0,0424133
1154,1875;0,0426816
1155,1517;0,042916
1156,1160;0,0431064
1157,0802;0,0432354
1158,0444;0,0432765
1159,0087;0,0431962
1159,9729;0,0429604
1160,9371;0,0425427
1161,9014;0,04193
1162,8656;0,0411248
1163,8298;0,0401444
1164,7941;0,039018
1165,7583;0,0377831
1166,7225;0,0364829
1167,6868;0,0351626
1168,6510;0,0338657
1169,6152;0,0326294
1170,5795;0,0314816
1171,5437;0,03044
1172,5079;0,0295128
1173,4722;0,0287012
1174,4364;0,0280008
1175,4006;0,0274024
1176,3649;0,0268933
1177,3291;0,0264599
1178,2933;0,0260908
1179,2576;0,0257792
1180,2218;0,0255221
1181,1860;0,0253172
1182,1503;0,0251598
1183,1145;0,0250418
1184,0787;0,0249546
1185,0430;0,0248928
1186,0072;0,0248564
1186,9714;0,0248498
1187,9357;0,0248786
1188,8999;0,0249459
1189,8641;0,0250522
1190,8284;0,0251961
1191,7926;0,0253773
1192,7568;0,0255965
1193,7211;0,0258542
1194,6853;0,0261479
1195,6495;0,0264713
1196,6138;0,0268154
1197,5780;0,0271699
1198,5422;0,0275263
1199,5065;0,0278469
1200,4707;0,0281952
1201,4349;0,0285356
1202,3992;0,0288686
1203,3634;0,0291955
1204,3276;0,0295156
1205,2919;0,0298266
1206,2561;0,0301247
1207,2203;0,0304081
1208,1846;0,0306803
1209,1488;0,0309514
1210,1130;0,0312364
1211,0773;0,0315504
1212,0415;0,0319033
1213,0057;0,0322965
1213,9700;0,0327233
1214,9342;0,0331713
1215,8984;0,0336266
1216,8627;0,0340762
1217,8269;0,0345098
1218,7911;0,0349211
1219,7554;0,0353078
1220,7196;0,0356706
1221,6838;0,0360119
1222,6481;0,0363334
1223,6123;0,0366354
1224,5765;0,0369176
1225,5408;0,0371794
1226,5050;0,0374215
1227,4692;0,0376452
1228,4335;0,0378514
1229,3977;0,0380392
1230,3619;0,0382059
1231,3262;0,0383479
1232,2904;0,0384628
1233,2546;0,0385501
1234,2189;0,0386113
1235,1831;0,0386496
1236,1473;0,0386693
1237,1116;0,0386753
1238,0758;0,0386731
1239,0400;0,0386679
1240,0043;0,0386628
1240,9685;0,0386576
1241,9327;0,0386473
1242,8970;0,0386238
1243,8612;0,0385777
1244,8254;0,0385022
1245,7897;0,0383955
1246,7539;0,0382611
1247,7181;0,0381064
1248,6824;0,0379402
1249,6466;0,0377704
1250,6108;0,0376032
1251,5751;0,0374429
1252,5393;0,0372924
1253,5035;0,0371524
1254,4678;0,0370211
1255,4320;0,0368931
1256,3962;0,0367612
1257,3605;0,0366186
1258,3247;0,0364615
1259,2889;0,0362895
1260,2532;0,0361051
1261,2174;0,0359098
1262,1816;0,0357029
1263,1459;0,0354815
1264,1101;0,0352424
1265,0743;0,0349843
1266,0386;0,0347081
1267,0028;0,0344151
1267,9670;0,0341054
1268,9313;0,0337775
1269,8955;0,033431
1270,8597;0,0330679
1271,8240;0,0326937
1272,7882;0,0323153
1273,7524;0,0319383
1274,7167;0,0315653
1275,6809;0,0311977
1276,6451;0,0308374
1277,6094;0,030488
1278,5736;0,0301533
1279,5378;0,0298346
1280,5021;0,0295291
1281,4663;0,0292317
1282,4305;0,0289385
1283,3948;0,0286505
1284,3590;0,028374
1285,3232;0,0281184
1286,2875;0,0278923
1287,2517;0,0277004
1288,2159;0,0275431
1289,1802;0,0274178
1290,1444;0,0273212
1291,1086;0,0272518
1292,0729;0,0272101
1293,0371;0,0271985
1294,0013;0,0272201
1294,9656;0,0272775
1295,9298;0,0273719
1296,8940;0,0275026
1297,8583;0,0276683
1298,8225;0,0278671
1299,7867;0,0280972
1300,7510;0,0283564
1301,7152;0,0286419
1302,6794;0,0289495
1303,6437;0,0292752
1304,6079;0,0296162
1305,5721;0,0299712
1306,5364;0,0303392
1307,5006;0,0307183
1308,4648;0,0311038
1309,4291;0,0314892
1310,3933;0,0318662
1311,3575;0,0322265
1312,3218;0,0325625
1313,2860;0,0328674
1314,2502;0,0331349
1315,2145;0,0333582
1316,1787;0,0335284
1317,1429;0,0336362
1318,1072;0,0336757
1319,0714;0,0336486
1320,0356;0,0335675
1320,9999;0,0334529
1321,9641;0,033326
1322,9283;0,0332035
1323,8926;0,0330949
1324,8568;0,0330035
1325,8210;0,0329279
1326,7853;0,0328642
1327,7495;0,0328072
1328,7137;0,0327515
1329,6780;0,0326913
1330,6422;0,0326206
1331,6064;0,0325335
1332,5707;0,0324253
1333,5349;0,0322929
1334,4991;0,032134
1335,4634;0,0319449
1336,4276;0,0317197
1337,3918;0,0314538
1338,3561;0,031151
1339,3203;0,0308308
1340,2845;0,030525
1341,2488;0,0302608
1342,2130;0,0300478
1343,1772;0,0298787
1344,1415;0,0297404
1345,1057;0,0296232
1346,0699;0,0295254
1347,0342;0,029452
1347,9984;0,0294113
1348,9626;0,0294091
1349,9269;0,0294464
1350,8911;0,0295189
1351,8553;0,02962
1352,8196;0,0297445
1353,7838;0,0298906
1354,7480;0,0300585
1355,7123;0,0302477
1356,6765;0,0304545
1357,6407;0,0306727
1358,6050;0,0308967
1359,5692;0,0311228
1360,5334;0,0313479
1361,4977;0,0315666
1362,4619;0,0317716
1363,4261;0,0319588
1364,3904;0,0321295
1365,3546;0,0322862
1366,3188;0,0324267
1367,2831;0,0325443
1368,2473;0,0326301
1369,2115;0,032677
1370,1758;0,0326814
1371,1400;0,0326422
1372,1042;0,0325577
1373,0685;0,0324262
1374,0327;0,0322506
1374,9969;0,0320416
1375,9612;0,0318119
1376,9254;0,0315641
1377,8896;0,0312872
1378,8539;0,0309662
1379,8181;0,0305984
1380,7823;0,0302011
1381,7466;0,0298032
1382,7108;0,0294257
1383,6750;0,0290683
1384,6393;0,0287128
1385,6035;0,0283417
1386,5677;0,0279612
1387,5320;0,027609
1388,4962;0,0273309
1389,4604;0,0271437
1390,4247;0,0270292
1391,3889;0,0269549
1392,3531;0,0268959
1393,3174;0,0268435
1394,2816;0,0268016
1395,2458;0,026779
1396,2101;0,0267806
1397,1743;0,0268061
1398,1385;0,0268541
1399,1028;0,0269258
1400,0670;0,0270231
1401,0313;0,0271449
1401,9955;0,0272857
1402,9597;0,0274388
1403,9240;0,0276011
1404,8882;0,0277749
1405,8524;0,0279661
1406,8167;0,0281802
1407,7809;0,028418
1408,7451;0,0286767
1409,7094;0,028953
1410,6736;0,0292444
1411,6378;0,029547
1412,6021;0,0298542
1413,5663;0,030158
1414,5305;0,0304528
1415,4948;0,0307363
1416,4590;0,0310076
1417,4232;0,03126
1418,3875;0,0314786
1419,3517;0,0316523
1420,3159;0,0317811
1421,2802;0,0318631
1422,2444;0,0318851
1423,2086;0,0318323
1424,1729;0,0317023
1425,1371;0,0315078
1426,1013;0,0312627
1427,0656;0,0309676
1428,0298;0,0306101
1428,9940;0,0301851
1429,9583;0,0297186
1430,9225;0,0292618
1431,8867;0,0288539
1432,8510;0,0284914
1433,8152;0,0281324
1434,7794;0,0277276
1435,7437;0,0272651
1436,7079;0,0268054
1437,6721;0,0264507
1438,6364;0,0262562
1439,6006;0,0261985
1440,5648;0,0262224
1441,5291;0,0262875
1442,4933;0,0263798
1443,4575;0,0265017
1444,4218;0,0266581
1445,3860;0,0268472
1446,3502;0,0270575
1447,3145;0,0272726
1448,2787;0,0274767
1449,2429;0,0276609
1450,2072;0,0278231
1451,1714;0,0279629
1452,1356;0,0280772
1453,0999;0,0281608
1454,0641;0,0282064
1455,0283;0,0281989
1455,9926;0,0281101
1456,9568;0,0279332
1457,9210;0,0277466
1458,8853;0,0276508
1459,8495;0,0276508
1460,8137;0,02768
1461,7780;0,0276629
1462,7422;0,0275338
1463,7064;0,0272456
1464,6707;0,0268026
1465,6349;0,0262837
1466,5991;0,025789
1467,5634;0,0253574
1468,5276;0,024953
1469,4918;0,0245033
1470,4561;0,0239311
1471,4203;0,0231834
1472,3845;0,0222854
1473,3488;0,0213781
1474,3130;0,0206285
1475,2772;0,0200924
1476,2415;0,0197177
1477,2057;0,0194335
1478,1699;0,0191948
1479,1342;0,0189824
1480,0984;0,0187926
1481,0626;0,0186307
1482,0269;0,0185075
1482,9911;0,0184334
1483,9553;0,0184108
1484,9196;0,0184302
1485,8838;0,0184728
1486,8480;0,0185172
1487,8123;0,0185511
1488,7765;0,0185862
1489,7407;0,0186632
1490,7050;0,0188204
1491,6692;0,0190593
1492,6334;0,019354
1493,5977;0,0196791
1494,5619;0,0200228
1495,5261;0,0203851
1496,4904;0,0207686
1497,4546;0,0211712
1498,4188;0,0215863
1499,3831;0,0220031
1500,3473;0,0224043
1501,3115;0,0227675
1502,2758;0,0230727
1503,2400;0,0233071
1504,2042;0,0234614
1505,1685;0,0235136
1506,1327;0,0234113
1507,0969;0,0231318
1508,0612;0,0227922
1509,0254;0,0225306
1509,9896;0,022354
1510,9539;0,0222032
1511,9181;0,0220272
1512,8823;0,0217946
1513,8466;0,0214888
1514,8108;0,0211088
1515,7750;0,0206741
1516,7393;0,0202175
1517,7035;0,0197625
1518,6677;0,0193065
1519,6320;0,0188325
1520,5962;0,0183447
1521,5604;0,0178912
1522,5247;0,0175337
1523,4889;0,0172949
1524,4531;0,0171466
1525,4174;0,0170459
1526,3816;0,0169706
1527,3458;0,0169241
1528,3101;0,0169154
1529,2743;0,0169397
1530,2385;0,0169759
1531,2028;0,0169997
1532,1670;0,017001
1533,1312;0,016997
1534,0955;0,0170235
1535,0597;0,0171009
1536,0239;0,0172148
1536,9882;0,0173281
1537,9524;0,0173977
1538,9166;0,0173783
1539,8809;0,01724
1540,8451;0,0170365
1541,8093;0,0169096
1542,7736;0,0169264
1543,7378;0,0170361
1544,7020;0,0171741
1545,6663;0,0173112
1546,6305;0,0174423
1547,5947;0,0175659
1548,5590;0,0176751
1549,5232;0,0177598
1550,4874;0,0178172
1551,4517;0,0178582
1552,4159;0,0179031
1553,3801;0,0179653
1554,3444;0,0180393
1555,3086;0,0181001
1556,2728;0,0181061
1557,2371;0,0180069
1558,2013;0,0178034
1559,1655;0,017643
1560,1298;0,0176879
1561,0940;0,0179167
1562,0582;0,0182219
1563,0225;0,0185276
1563,9867;0,0187989
1564,9509;0,0190228
1565,9152;0,0191973
1566,8794;0,0193312
1567,8436;0,0194479
1568,8079;0,0195841
1569,7721;0,0197708
1570,7363;0,0200108
1571,7006;0,0202816
1572,6648;0,0205571
1573,6290;0,0208243
1574,5933;0,0210844
1575,5575;0,021347
1576,5217;0,0216234
1577,4860;0,0219243
1578,4502;0,0222557
1579,4144;0,0226153
1580,3787;0,0229963
1581,3429;0,0233923
1582,3071;0,0237972
1583,2714;0,0242055
1584,2356;0,0246147
1585,1998;0,0250261
1586,1641;0,0254405
1587,1283;0,0258522
1588,0925;0,0262461
1589,0568;0,0266025
1590,0210;0,0269032
1590,9852;0,0271344
1591,9495;0,027286
1592,9137;0,0273507
1593,8779;0,0273287
1594,8422;0,0272331
1595,8064;0,0270895
1596,7706;0,0269258
1597,7349;0,0267601
1598,6991;0,0265968
1599,6633;0,0264316
1600,6276;0,0262602
1601,5918;0,0260851
1602,5560;0,0259164
1603,5203;0,0257662
1604,4845;0,0256397
1605,4487;0,0255308
1606,4130;0,0254239
1607,3772;0,025304
1608,3414;0,0251701
1609,3057;0,0250414
1610,2699;0,0249464
1611,2341;0,0249021
1612,1984;0,0249018
1613,1626;0,0249194
1614,1268;0,0249203
1615,0911;0,0248754
1616,0553;0,0247855
1617,0195;0,0246956
1617,9838;0,0246607
1618,9480;0,0246935
1619,9122;0,0247657
1620,8765;0,0248394
1621,8407;0,0248881
1622,8049;0,024904
1623,7692;0,0248985
1624,7334;0,0248906
1625,6976;0,0248904
1626,6619;0,0248959
1627,6261;0,0249044
1628,5903;0,0249226
1629,5546;0,0249626
1630,5188;0,0250287
1631,4830;0,0251108
1632,4473;0,0251846
1633,4115;0,0252142
1634,3757;0,0251588
1635,3400;0,025007
1636,3042;0,024823
1637,2684;0,0247037
1638,2327;0,0246814
1639,1969;0,0247257
1640,1611;0,0247986
1641,1254;0,0248776
1642,0896;0,0249502
1643,0538;0,025
1644,0181;0,0249973
1644,9823;0,0249038
1645,9465;0,0247124
1646,9108;0,0244931
1647,8750;0,0243476
1648,8392;0,0243073
1649,8035;0,0243206
1650,7677;0,0242944
1651,7319;0,0241153
1652,6962;0,0237119
1653,6604;0,0232155
1654,6246;0,0228883
1655,5889;0,0227907
1656,5531;0,022808
1657,5173;0,0228329
1658,4816;0,0228068
1659,4458;0,0227005
1660,4100;0,0225016
1661,3743;0,0222245
1662,3385;0,0219226
1663,3027;0,0216654
1664,2670;0,0214884
1665,2312;0,0213752
1666,1954;0,0212764
1667,1597;0,0211333
1668,1239;0,0208996
1669,0881;0,020575
1670,0524;0,0202224
1671,0166;0,019919
1671,9808;0,0196842
1672,9451;0,0194767
1673,9093;0,019245
1674,8735;0,0189758
1675,8378;0,018711
1676,8020;0,018516
1677,7662;0,0184237
1678,7305;0,0184148
1679,6947;0,0184368
1680,6589;0,0184222
1681,6232;0,0182917
1682,5874;0,0179756
1683,5516;0,0174966
1684,5159;0,0170248
1685,4801;0,0167246
1686,4443;0,0165988
1687,4086;0,0165589
1688,3728;0,0165328
1689,3370;0,0164943
1690,3013;0,0164499
1691,2655;0,0164157
1692,2297;0,016401
1693,1940;0,016401
1694,1582;0,0163999
1695,1224;0,0163772
1696,0867;0,0163152
1697,0509;0,0162044
1698,0151;0,0160509
1698,9794;0,0158843
1699,9436;0,0157545
1700,9078;0,0157051
1701,8721;0,0157447
1702,8363;0,0158472
1703,8005;0,015974
1704,7648;0,0160952
1705,7290;0,0162014
1706,6932;0,016306
1707,6575;0,0164336
1708,6217;0,0166021
1709,5859;0,016813
1710,5502;0,0170549
1711,5144;0,0173105
1712,4786;0,0175612
1713,4429;0,0177872
1714,4071;0,0179673
1715,3713;0,0180853
1716,3356;0,0181482
1717,2998;0,0182032
1718,2640;0,0183091
1719,2283;0,0184851
1720,1925;0,0187103
1721,1567;0,0189537
1722,1210;0,0191912
1723,0852;0,0194085
1724,0494;0,0196001
1725,0137;0,0197702
1725,9779;0,0199296
1726,9421;0,0200907
1727,9064;0,0202597
1728,8706;0,0204321
1729,8348;0,0205891
1730,7991;0,0206958
1731,7633;0,0207058
1732,7275;0,0205887
1733,6918;0,0203783
1734,6560;0,020169
1735,6202;0,0200296
1736,5845;0,0199528
1737,5487;0,0198875
1738,5129;0,0197833
1739,4772;0,0196138
1740,4414;0,019385
1741,4056;0,0191285
1742,3699;0,0188772
1743,3341;0,0186447
1744,2983;0,0184254
1745,2626;0,0182053
1746,2268;0,0179654
1747,1910;0,0176767
1748,1553;0,0173045
1749,1195;0,0168376
1750,0837;0,0163223
1751,0480;0,0158461
1752,0122;0,0154709
1752,9764;0,0151959
1753,9407;0,0149784
1754,9049;0,0147717
1755,8691;0,0145502
1756,8334;0,0143149
1757,7976;0,0140793
1758,7618;0,0138477
1759,7261;0,0136066
1760,6903;0,0133398
1761,6545;0,0130539
1762,6188;0,0127841
1763,5830;0,0125711
1764,5472;0,0124329
1765,5115;0,0123578
1766,4757;0,0123176
1767,4399;0,0122816
1768,4042;0,0122228
1769,3684;0,0121188
1770,3326;0,0119555
1771,2969;0,0117398
1772,2611;0,0115139
1773,2253;0,0113388
1774,1896;0,0112523
1775,1538;0,0112466
1776,1180;0,0112852
1777,0823;0,0113282
1778,0465;0,0113476
1779,0107;0,0113342
1779,9750;0,0112968
1780,9392;0,0112522
1781,9034;0,0112119
1782,8677;0,0111773
1783,8319;0,0111472
1784,7961;0,0111275
1785,7604;0,0111306
1786,7246;0,0111648
1787,6888;0,0112235
1788,6531;0,0112843
1789,6173;0,0113146
1790,5815;0,0112869
1791,5458;0,0112021
1792,5100;0,0111026
1793,4742;0,0110451
1794,4385;0,0110531
1795,4027;0,0111073
1796,3669;0,0111703
1797,3312;0,0112093
1798,2954;0,011207
1799,2596;0,0111662
1800,2239;0,0111071
1801,1881;0,0110557
1802,1523;0,0110276
1803,1166;0,0110237
1804,0808;0,0110358
1805,0450;0,0110553
1806,0093;0,0110755
1806,9735;0,0110905
1807,9377;0,0110939
1808,9020;0,0110808
1809,8662;0,0110528
1810,8304;0,0110208
1811,7947;0,0110001
1812,7589;0,0110001
1813,7231;0,011018
1814,6874;0,0110407
1815,6516;0,0110533
1816,6158;0,0110483
1817,5801;0,0110319
1818,5443;0,0110207
1819,5085;0,0110302
1820,4728;0,0110635
1821,4370;0,0111096
1822,4012;0,0111505
1823,3655;0,0111727
1824,3297;0,0111747
1825,2939;0,0111657
1826,2582;0,0111549
1827,2224;0,0111419
1828,1866;0,0111172
1829,1509;0,0110745
1830,1151;0,0110228
1831,0793;0,0109843
1832,0436;0,0109769
1833,0078;0,0110006
1833,9720;0,0110402
1834,9363;0,0110762
1835,9005;0,0110966
1836,8647;0,0111048
1837,8290;0,0111163
1838,7932;0,0111471
1839,7574;0,0112002
1840,7217;0,0112627
1841,6859;0,01131
1842,6501;0,0113159
1843,6144;0,011269
1844,5786;0,0111859
1845,5428;0,0111032
1846,5071;0,0110497
1847,4713;0,0110309
1848,4355;0,0110362
1849,3998;0,0110516
1850,3640;0,0110668
1851,3282;0,0110771
1852,2925;0,0110819
1853,2567;0,0110818
1854,2209;0,0110783
1855,1852;0,0110742
1856,1494;0,0110746
1857,1136;0,011085
1858,0779;0,0111077
1859,0421;0,0111388
1860,0063;0,0111699
1860,9706;0,0111936
1861,9348;0,0112092
1862,8990;0,0112228
1863,8633;0,0112417
1864,8275;0,0112657
1865,7917;0,0112828
1866,7560;0,0112717
1867,7202;0,0112166
1868,6844;0,0111249
1869,6487;0,0110296
1870,6129;0,0109659
1871,5771;0,0109489
1872,5414;0,0109726
1873,5056;0,0110216
1874,4698;0,0110803
1875,4341;0,0111372
1876,3983;0,0111851
1877,3625;0,0112196
1878,3268;0,0112388
1879,2910;0,0112441
1880,2552;0,0112417
1881,2195;0,011241
1882,1837;0,0112506
1883,1479;0,0112734
1884,1122;0,0113031
1885,0764;0,0113273
1886,0406;0,0113333
1887,0049;0,0113138
1887,9691;0,0112717
1888,9333;0,0112204
1889,8976;0,0111788
1890,8618;0,0111621
1891,8260;0,0111745
1892,7903;0,0112082
1893,7545;0,0112488
1894,7188;0,0112811
1895,6830;0,0112972
1896,6472;0,0112996
1897,6115;0,0112995
1898,5757;0,0113085
1899,5399;0,0113306
1900,5042;0,0113603
1901,4684;0,0113875
1902,4326;0,0114049
1903,3969;0,0114134
1904,3611;0,0114216
1905,3253;0,0114387
1906,2896;0,0114677
1907,2538;0,0115023
1908,2180;0,0115305
1909,1823;0,0115403
1910,1465;0,0115268
1911,1107;0,0114924
1912,0750;0,0114444
1913,0392;0,01139
1914,0034;0,0113351
1914,9677;0,0112855
1915,9319;0,0112483
1916,8961;0,0112301
1917,8604;0,0112326
1918,8246;0,0112493
1919,7888;0,0112669
1920,7531;0,011272
1921,7173;0,0112572
1922,6815;0,0112259
1923,6458;0,0111937
1924,6100;0,0111828
1925,5742;0,0112113
1926,5385;0,0112821
1927,5027;0,0113777
1928,4669;0,0114653
1929,4312;0,0115096
1930,3954;0,0114922
1931,3596;0,0114256
1932,3239;0,0113497
1933,2881;0,0113097
1934,2523;0,011329
1935,2166;0,0113957
1936,1808;0,0114724
1937,1450;0,0115238
1938,1093;0,011541
1939,0735;0,0115452
1940,0377;0,0115699
1941,0020;0,0116325
1941,9662;0,0117144
1942,9304;0,0117685
1943,8947;0,0117539
1944,8589;0,0116692
1945,8231;0,0115546
1946,7874;0,0114641
1947,7516;0,0114336
1948,7158;0,011464
1949,6801;0,0115253
1950,6443;0,0115797
1951,6085;0,0116077
1952,5728;0,0116195
1953,5370;0,0116451
1954,5012;0,0117103
1955,4655;0,0118151
1956,4297;0,0119297
1957,3939;0,0120089
1958,3582;0,0120168
1959,3224;0,0119477
1960,2866;0,0118326
1961,2509;0,0117255
1962,2151;0,0116796
1963,1793;0,011723
1964,1436;0,0118473
1965,1078;0,0120087
1966,0720;0,0121441
1967,0363;0,0121978
1968,0005;0,0121499
1968,9647;0,0120259
1969,9290;0,0118776
1970,8932;0,0117508
1971,8574;0,0116641
1972,8217;0,0116124
1973,7859;0,0115872
1974,7501;0,0115973
1975,7144;0,0116696
1976,6786;0,0118248
1977,6428;0,0120505
1978,6071;0,0122984
1979,5713;0,012511
1980,5355;0,0126516
1981,4998;0,0127117
1982,4640;0,0126967
1983,4282;0,0126121
1984,3925;0,0124638
1985,3567;0,0122715
1986,3209;0,01208
1987,2852;0,0119506
1988,2494;0,0119335
1989,2136;0,012037
1990,1779;0,0122157
1991,1421;0,0123891
1992,1063;0,0124844
1993,0706;0,0124758
1994,0348;0,0123923
1994,9990;0,0122937
1995,9633;0,0122367
1996,9275;0,0122532
1997,8917;0,0123428
1998,8560;0,0124739
1999,8202;0,0125936
2000,7844;0,0126456
2001,7487;0,0125946
2002,7129;0,0124485
2003,6771;0,0122674
2004,6414;0,0121482
2005,6056;0,0121827
2006,5698;0,0124034
2007,5341;0,012753
2008,4983;0,0131051
2009,4625;0,0133306
2010,4268;0,013364
2011,3910;0,0132292
2012,3552;0,0130154
2013,3195;0,0128233
2014,2837;0,0127145
2015,2479;0,0126874
2016,2122;0,0126903
2017,1764;0,0126618
2018,1406;0,0125737
2019,1049;0,0124467
2020,0691;0,0123321
2021,0333;0,0122794
2021,9976;0,0123123
2022,9618;0,0124222
2023,9260;0,0125757
2024,8903;0,0127268
2025,8545;0,0128292
2026,8187;0,0128499
2027,7830;0,0127847
2028,7472;0,0126694
2029,7114;0,0125762
2030,6757;0,012586
2031,6399;0,0127467
2032,6041;0,013041
2033,5684;0,0133883
2034,5326;0,013684
2035,4968;0,0138525
2036,4611;0,0138768
2037,4253;0,0137895
2038,3895;0,0136411
2039,3538;0,0134724
2040,3180;0,0133079
2041,2822;0,0131645
2042,2465;0,0130604
2043,2107;0,0130131
2044,1749;0,0130282
2045,1392;0,0130915
2046,1034;0,0131713
2047,0676;0,0132324
2048,0320;0,0132518
2048,9961;0,0132256
2049,9604;0,0131629
2050,9246;0,0130771
2051,8889;0,012982
2052,8530;0,0128941
2053,8174;0,0128337
2054,7815;0,0128193
2055,7458;0,0128554
2056,7100;0,0129243
2057,6743;0,0129911
2058,6384;0,0130205
2059,6028;0,0129967
2060,5669;0,0129315
2061,5313;0,0128572
2062,4954;0,0128083
2063,4597;0,012805
2064,4238;0,012847
2065,3882;0,0129195
2066,3523;0,0130045
2067,3167;0,0130869
2068,2808;0,0131543
2069,2451;0,0131928
2070,2092;0,0131878
2071,1736;0,0131312
2072,1377;0,0130292
2073,1021;0,0129068
2074,0662;0,0128004
2075,0305;0,0127448
2075,9946;0,0127592
2076,9590;0,0128402
2077,9231;0,0129635
2078,8875;0,0130927
2079,8516;0,0131911
2080,8159;0,0132315
2081,7800;0,0132029
2082,7444;0,0131119
2083,7085;0,0129807
2084,6729;0,0128404
2085,6370;0,0127234
2086,6013;0,0126536
2087,5654;0,0126405
2088,5298;0,0126762
2089,4939;0,0127397
2090,4583;0,0128051
2091,4224;0,0128519
2092,3867;0,012872
2093,3508;0,0128704
2094,3152;0,0128612
2095,2793;0,0128579
2096,2437;0,0128661
2097,2078;0,0128807
2098,1721;0,0128893
2099,1362;0,0128814
2100,1006;0,012856
2101,0647;0,0128247
2102,0291;0,0128062
2102,9932;0,0128166
2103,9575;0,0128591
2104,9216;0,0129213
2105,8860;0,0129813
2106,8501;0,0130212
2107,8145;0,0130378
2108,7786;0,013043
2109,7429;0,0130541
2110,7070;0,0130794
2111,6714;0,0131106
2112,6355;0,0131278
2113,5999;0,0131128
2114,5640;0,0130626
2115,5283;0,012993
2116,4924;0,0129308
2117,4568;0,0128999
2118,4209;0,0129105
2119,3853;0,0129561
2120,3494;0,0130198
2121,3137;0,0130834
2122,2778;0,0131361
2123,2422;0,0131766
2124,2063;0,0132106
2125,1707;0,0132432
2126,1348;0,0132737
2127,0991;0,0132927
2128,0632;0,0132871
2129,0276;0,0132494
2129,9917;0,0131864
2130,9561;0,0131222
2131,9202;0,0130912
2132,8845;0,0131227
2133,8486;0,0132247
2134,8130;0,0133768
2135,7771;0,0135369
2136,7415;0,013658
2137,7056;0,0137055
2138,6699;0,0136652
2139,6340;0,0135442
2140,5984;0,0133684
2141,5625;0,01318
2142,5269;0,0130322
2143,4910;0,0129779
2144,4553;0,0130513
2145,4194;0,0132521
2146,3838;0,0135404
2147,3479;0,0138478
2148,3123;0,0141024
2149,2764;0,0142543
2150,2407;0,0142918
2151,2048;0,0142419
2152,1692;0,0141587
2153,1333;0,0141041
2154,0977;0,0141272
2155,0618;0,0142469
2156,0261;0,0144408
2156,9902;0,0146453
2157,9546;0,0147766
2158,9187;0,014772
2159,8831;0,0146273
2160,8472;0,0143966
2161,8115;0,0141565
2162,7756;0,01397
2163,7400;0,0138691
2164,7041;0,0138542
2165,6685;0,0139011
2166,6326;0,0139735
2167,5969;0,0140378
2168,5610;0,0140763
2169,5254;0,0140924
2170,4895;0,0141045
2171,4539;0,0141323
2172,4180;0,0141804
2173,3823;0,0142301
2174,3464;0,0142444
2175,3108;0,0141877
2176,2749;0,0140484
2177,2393;0,0138517
2178,2034;0,0136529
2179,1677;0,0135152
2180,1318;0,0134831
2181,0962;0,0135638
2182,0603;0,0137252
2183,0247;0,0139117
2183,9888;0,0140685
2184,9531;0,014161
2185,9172;0,0141799
2186,8816;0,0141349
2187,8457;0,0140459
2188,8101;0,0139373
2189,7742;0,0138348
2190,7385;0,0137618
2191,7026;0,0137316
2192,6670;0,0137414
2193,6311;0,0137712
2194,5955;0,0137917
2195,5596;0,0137781
2196,5239;0,0137225
2197,4880;0,0136352
2198,4524;0,0135382
2199,4165;0,0134528
2200,3809;0,0133927
2201,3450;0,0133642
2202,3093;0,0133698
2203,2734;0,0134108
2204,2378;0,013484
2205,2019;0,0135767
2206,1663;0,0136644
2207,1304;0,0137179
2208,0947;0,0137142
2209,0588;0,0136481
2210,0232;0,0135353
2210,9873;0,0134053
2211,9517;0,013289
2212,9158;0,0132071
2213,8801;0,0131646
2214,8442;0,0131541
2215,8086;0,0131621
2216,7727;0,0131761
2217,7371;0,0131875
2218,7012;0,0131914
2219,6655;0,0131855
2220,6296;0,0131693
2221,5940;0,013145
2222,5581;0,0131179
2223,5225;0,0130943
2224,4866;0,0130789
2225,4509;0,0130731
2226,4150;0,0130748
2227,3794;0,0130808
2228,3435;0,0130897
2229,3079;0,0131015
2230,2720;0,0131167
2231,2363;0,0131345
2232,2004;0,0131534
2233,1648;0,0131717
2234,1289;0,0131885
2235,0933;0,0132022
2236,0574;0,0132103
2237,0217;0,0132098
2237,9858;0,0131996
2238,9502;0,0131822
2239,9143;0,0131624
2240,8787;0,0131427
2241,8428;0,0131211
2242,8071;0,0130933
2243,7712;0,0130592
2244,7356;0,0130276
2245,6997;0,0130134
2246,6641;0,0130278
2247,6282;0,0130678
2248,5925;0,013115
2249,5566;0,0131458
2250,5210;0,0131467
2251,4851;0,0131236
2252,4495;0,0130972
2253,4136;0,013089
2254,3779;0,0131073
2255,3420;0,0131439
2256,3064;0,0131818
2257,2705;0,0132078
2258,2349;0,0132183
2259,1990;0,0132165
2260,1633;0,0132058
2261,1274;0,0131862
2262,0918;0,0131571
2263,0559;0,0131232
2264,0203;0,0130969
2264,9844;0,0130937
2265,9487;0,0131223
2266,9128;0,013177
2267,8772;0,0132385
2268,8413;0,0132819
2269,8057;0,0132896
2270,7698;0,0132595
2271,7341;0,0132056
2272,6982;0,0131494
2273,6626;0,0131102
2274,6267;0,0130955
2275,5911;0,0131003
2276,5552;0,0131108
2277,5195;0,0131124
2278,4836;0,0130966
2279,4480;0,0130633
2280,4121;0,0130203
2281,3765;0,0129791
2282,3406;0,0129515
2283,3049;0,0129462
2284,2690;0,0129669
2285,2334;0,0130123
2286,1975;0,0130777
2287,1619;0,0131571
2288,1260;0,0132453
2289,0903;0,0133381
2290,0544;0,0134313
2291,0188;0,0135181
2291,9829;0,0135899
2292,9473;0,0136394
2293,9114;0,0136648
2294,8757;0,0136725
2295,8398;0,013674
2296,8042;0,0136793
2297,7683;0,0136906
2298,7327;0,0137019
2299,6968;0,0137042
2300,6611;0,013694
2301,6252;0,0136784
2302,5896;0,0136724
2303,5537;0,0136909
2304,5181;0,0137393
2305,4822;0,0138087
2306,4465;0,0138777
2307,4106;0,0139209
2308,3750;0,0139183
2309,3391;0,013864
2310,3035;0,0137676
2311,2676;0,0136512
2312,2319;0,0135414
2313,1960;0,01346
2314,1604;0,0134169
2315,1245;0,0134088
2316,0889;0,0134221
2317,0530;0,0134405
2318,0173;0,0134516
2318,9814;0,0134516
2319,9458;0,0134459
2320,9099;0,0134465
2321,8743;0,013467
2322,8384;0,0135139
2323,8027;0,0135813
2324,7668;0,01365
2325,7312;0,0136976
2326,6953;0,0137101
2327,6597;0,013691
2328,6238;0,0136605
2329,5881;0,0136457
2330,5522;0,0136669
2331,5166;0,0137258
2332,4807;0,0138049
2333,4451;0,0138759
2334,4092;0,0139157
2335,3735;0,0139188
2336,3376;0,0139004
2337,3020;0,0138878
2338,2661;0,0139037
2339,2305;0,0139492
2340,1946;0,0139936
2341,1589;0,0139788
2342,1230;0,0138453
2343,0874;0,0135901
2344,0515;0,0133242
2345,0159;0,0132252
2345,9800;0,0133863
2346,9443;0,0137395
2347,9084;0,0141276
2348,8728;0,0144131
2349,8369;0,0145368
2350,8013;0,0145223
2351,7654;0,0144438
2352,7297;0,0143731
2353,6938;0,014339
2354,6582;0,0143363
2355,6223;0,0143649
2356,5867;0,0144358
2357,5508;0,0145391
2358,5151;0,0146303
2359,4792;0,0146555
2360,4436;0,0145867
2361,4077;0,0144278
2362,3721;0,014195
2363,3362;0,0139041
2364,3005;0,0135763
2365,2646;0,0132428
2366,2290;0,012936
2367,1931;0,0126752
2368,1575;0,0124631
2369,1216;0,0122945
2370,0859;0,0121664
2371,0500;0,0120797
2372,0144;0,0120355
2372,9785;0,0120316
2373,9429;0,0120631
2374,9070;0,0121253
2375,8713;0,0122145
2376,8354;0,012327
2377,7998;0,0124562
2378,7639;0,0125917
2379,7283;0,0127215
2380,6924;0,0128349
2381,6567;0,0129255
2382,6208;0,0129915
2383,5852;0,0130344
2384,5493;0,0130576
2385,5137;0,0130644
2386,4778;0,0130585
2387,4421;0,0130441
2388,4063;0,0130261
2389,3706;0,0130087
2390,3347;0,0129949
2391,2991;0,012986
2392,2632;0,0129823
2393,2275;0,0129841
2394,1917;0,0129914
2395,1560;0,0130037
2396,1201;0,0130189
2397,0845;0,0130342
2398,0486;0,0130486
2399,0129;0,013063
2399,9771;0,0130805
2400,9414;0,0131029
2401,9055;0,013128
2402,8699;0,0131496
2403,8340;0,0131602
2404,7983;0,0131563
2405,7625;0,0131413
2406,7268;0,0131246
2407,6909;0,0131163
2408,6553;0,0131222
2409,6194;0,0131404
2410,5837;0,0131628
2411,5479;0,0131808
2412,5122;0,0131894
2413,4763;0,0131905
2414,4407;0,0131914
2415,4048;0,0132001
2416,3691;0,0132211
2417,3333;0,0132524
2418,2976;0,013287
2419,2617;0,0133175
2420,2261;0,01334
2421,1902;0,0133554
2422,1545;0,0133678
2423,1187;0,0133808
2424,0830;0,0133955
2425,0471;0,0134109
2426,0115;0,0134259
2426,9756;0,0134406
2427,9399;0,0134557
2428,9041;0,013471
2429,8684;0,0134849
2430,8325;0,0134955
2431,7969;0,0135032
2432,7610;0,0135105
2433,7253;0,0135205
2434,6895;0,013533
2435,6538;0,013544
2436,6179;0,0135473
2437,5823;0,0135394
2438,5464;0,0135227
2439,5107;0,0135047
2440,4749;0,0134943
2441,4392;0,0134964
2442,4033;0,01351
2443,3677;0,0135298
2444,3318;0,0135495
2445,2961;0,0135644
2446,2603;0,0135726
2447,2246;0,0135746
2448,1887;0,0135731
2449,1531;0,0135727
2450,1172;0,0135793
2451,0815;0,0135976
2452,0457;0,0136279
2453,0100;0,0136653
2453,9741;0,0137008
2454,9385;0,0137261
2455,9026;0,0137386
2456,8669;0,0137425
2457,8311;0,0137458
2458,7954;0,0137542
2459,7595;0,0137668
2460,7239;0,0137765
2461,6880;0,0137755
2462,6523;0,0137619
2463,6165;0,013742
2464,5808;0,013728
2465,5449;0,0137304
2466,5093;0,013752
2467,4734;0,0137858
2468,4377;0,0138197
2469,4019;0,0138432
2470,3662;0,013852
2471,3303;0,0138484
2472,2947;0,0138375
2473,2588;0,0138236
2474,2231;0,0138089
2475,1873;0,013795
2476,1516;0,0137849
2477,1157;0,0137825
2478,0801;0,013791
2479,0442;0,0138102
2480,0085;0,0138364
2480,9727;0,0138637
2481,9370;0,0138865
2482,9011;0,0139011
2483,8655;0,0139059
2484,8296;0,0139015
2485,7939;0,0138915
2486,7581;0,0138823
2487,7224;0,0138814
2488,6865;0,0138946
2489,6509;0,0139225
2490,6150;0,0139597
2491,5793;0,0139971
2492,5435;0,0140272
2493,5078;0,0140473
2494,4719;0,0140602
2495,4363;0,0140713
2496,4004;0,0140847
2497,3647;0,0141006
2498,3289;0,014116
2499,2932;0,0141265
2500,2573;0,0141291
2501,2217;0,0141244
2502,1858;0,0141165
2503,1501;0,0141111
2504,1143;0,0141126
2505,0786;0,0141212
2506,0427;0,0141321
2507,0071;0,0141385
2507,9712;0,014136
2508,9355;0,0141263
2509,8997;0,0141162
2510,8640;0,0141125
2511,8281;0,0141166
2512,7925;0,0141236
2513,7566;0,0141261
2514,7209;0,014121
2515,6851;0,0141128
2516,6494;0,0141104
2517,6135;0,0141201
2518,5779;0,0141406
2519,5420;0,0141633
2520,5063;0,0141789
2521,4705;0,0141834
2522,4348;0,0141804
2523,3989;0,0141774
2524,3633;0,0141799
2525,3274;0,0141887
2526,2917;0,0142006
2527,2559;0,0142125
2528,2202;0,014223
2529,1843;0,0142329
2530,1487;0,0142431
2531,1128;0,014254
2532,0771;0,0142657
2533,0413;0,0142789
2534,0056;0,0142948
2534,9697;0,0143129
2535,9341;0,0143302
2536,8982;0,0143417
2537,8625;0,0143434
2538,8267;0,0143353
2539,7910;0,0143228
2540,7551;0,0143134
2541,7195;0,0143126
2542,6836;0,0143209
2543,6479;0,0143333
2544,6121;0,0143427
2545,5764;0,0143437
2546,5405;0,0143362
2547,5049;0,0143249
2548,4690;0,0143171
2549,4333;0,0143184
2550,3975;0,01433
2551,3618;0,0143476
2552,3259;0,0143641
2553,2903;0,0143723
2554,2544;0,0143688
2555,2188;0,0143553
2556,1829;0,0143378
2557,1472;0,0143238
2558,1113;0,0143195
2559,0757;0,0143269
2560,0398;0,014343
2561,0042;0,014362
2561,9683;0,014378
2562,9326;0,0143883
2563,8967;0,014394
2564,8611;0,0143988
2565,8252;0,0144058
2566,7896;0,0144146
2567,7537;0,0144222
2568,7180;0,0144247
2569,6821;0,0144217
2570,6465;0,014417
2571,6106;0,0144166
2572,5750;0,0144251
2573,5391;0,0144425
2574,5034;0,0144642
2575,4675;0,0144839
2576,4319;0,0144976
2577,3960;0,0145054
2578,3604;0,0145106
2579,3245;0,014517
2580,2888;0,0145269
2581,2529;0,0145403
2582,2173;0,0145558
2583,1814;0,0145716
2584,1458;0,0145861
2585,1099;0,0145979
2586,0742;0,0146061
2587,0383;0,0146102
2588,0027;0,0146112
2588,9668;0,0146113
2589,9312;0,0146138
2590,8953;0,0146212
2591,8596;0,0146343
2592,8237;0,0146512
2593,7881;0,0146686
2594,7522;0,0146833
2595,7166;0,0146935
2596,6807;0,0146997
2597,6450;0,0147033
2598,6091;0,0147051
2599,5735;0,014705
2600,5376;0,0147019
2601,5020;0,0146956
2602,4661;0,0146882
2603,4304;0,0146837
2604,3945;0,0146862
2605,3589;0,0146968
2606,3230;0,014713
2607,2874;0,0147299
2608,2515;0,0147434
2609,2158;0,0147529
2610,1799;0,0147613
2611,1443;0,0147733
2612,1084;0,0147919
2613,0728;0,0148171
2614,0369;0,0148462
2615,0012;0,0148751
2615,9653;0,0149003
2616,9297;0,0149187
2617,8938;0,0149278
2618,8582;0,0149265
2619,8223;0,0149156
2620,7866;0,0148992
2621,7507;0,0148837
2622,7151;0,014876
2623,6792;0,0148798
2624,6436;0,014894
2625,6077;0,0149132
2626,5720;0,0149311
2627,5361;0,0149441
2628,5005;0,0149524
2629,4646;0,0149603
2630,4290;0,0149726
2631,3931;0,0149916
2632,3574;0,0150159
2633,3215;0,0150401
2634,2859;0,0150579
2635,2500;0,015065
2636,2144;0,0150618
2637,1785;0,0150531
2638,1428;0,0150468
2639,1069;0,0150499
2640,0713;0,015065
2641,0354;0,0150894
2641,9998;0,0151165
2642,9639;0,0151391
2643,9282;0,0151531
2644,8923;0,0151588
2645,8567;0,01516
2646,8208;0,015161
2647,7852;0,0151649
2648,7493;0,0151729
2649,7136;0,0151846
2650,6777;0,0151996
2651,6421;0,0152175
2652,6062;0,0152373
2653,5706;0,0152566
2654,5347;0,0152723
2655,4990;0,0152819
2656,4631;0,0152853
2657,4275;0,0152855
2658,3916;0,0152872
2659,3560;0,0152947
2660,3201;0,0153101
2661,2844;0,0153316
2662,2485;0,0153551
2663,2129;0,0153753
2664,1770;0,0153883
2665,1414;0,015393
2666,1055;0,0153914
2667,0698;0,0153882
2668,0339;0,0153895
2668,9983;0,0153994
2669,9624;0,015419
2670,9268;0,015445
2671,8909;0,0154714
2672,8552;0,0154926
2673,8193;0,0155053
2674,7837;0,0155098
2675,7478;0,0155088
2676,7122;0,0155058
2677,6763;0,0155037
2678,6406;0,0155048
2679,6047;0,0155113
2680,5691;0,015525
2681,5332;0,0155465
2682,4976;0,0155736
2683,4617;0,0156022
2684,4260;0,0156272
2685,3901;0,0156454
2686,3545;0,015657
2687,3186;0,0156644
2688,2830;0,0156704
2689,2471;0,0156766
2690,2114;0,0156828
2691,1755;0,0156887
2692,1399;0,0156951
2693,1040;0,0157044
2694,0684;0,0157191
2695,0325;0,0157398
2695,9968;0,0157642
2696,9609;0,0157883
2697,9253;0,0158078
2698,8894;0,0158211
2699,8538;0,0158299
2700,8179;0,0158382
2701,7822;0,0158505
2702,7463;0,0158692
2703,7107;0,015893
2704,6748;0,0159177
2705,6392;0,0159382
2706,6033;0,0159515
2707,5676;0,0159585
2708,5317;0,0159643
2709,4961;0,0159752
2710,4602;0,0159958
2711,4246;0,0160259
2712,3887;0,0160609
2713,3530;0,0160931
2714,3171;0,0161165
2715,2815;0,0161285
2716,2456;0,0161314
2717,2100;0,0161305
2718,1741;0,0161311
2719,1384;0,016136
2720,1025;0,0161449
2721,0669;0,016155
2722,0310;0,0161634
2722,9954;0,016169
2723,9595;0,0161735
2724,9238;0,0161808
2725,8879;0,0161951
2726,8523;0,0162185
2727,8164;0,0162506
2728,7808;0,0162876
2729,7449;0,0163244
2730,7092;0,016356
2731,6733;0,0163785
2732,6377;0,01639
2733,6018;0,016391
2734,5662;0,016384
2735,5303;0,0163737
2736,4946;0,0163651
2737,4587;0,0163627
2738,4231;0,0163683
2739,3872;0,0163806
2740,3516;0,0163962
2741,3157;0,0164114
2742,2800;0,0164238
2743,2441;0,0164328
2744,2085;0,0164388
2745,1726;0,016442
2746,1370;0,016442
2747,1011;0,0164389
2748,0654;0,0164343
2749,0295;0,0164321
2749,9939;0,0164367
2750,9580;0,0164511
2751,9224;0,0164754
2752,8865;0,0165061
2753,8508;0,0165383
2754,8149;0,0165673
2755,7793;0,0165903
2756,7434;0,0166067
2757,7078;0,0166174
2758,6719;0,0166245
2759,6362;0,0166304
2760,6003;0,0166372
2761,5647;0,0166464
2762,5288;0,0166581
2763,4932;0,0166717
2764,4573;0,0166866
2765,4216;0,0167029
2766,3857;0,0167216
2767,3501;0,0167438
2768,3142;0,0167698
2769,2786;0,016798
2770,2427;0,0168254
2771,2070;0,0168491
2772,1711;0,0168672
2773,1355;0,0168802
2774,0996;0,0168901
2775,0640;0,0168994
2776,0281;0,0169099
2776,9924;0,0169223
2777,9565;0,0169365
2778,9209;0,0169528
2779,8850;0,016972
2780,8494;0,0169958
2781,8135;0,0170249
2782,7778;0,0170587
2783,7419;0,0170947
2784,7063;0,0171289
2785,6704;0,017158
2786,6348;0,0171803
2787,5989;0,0171968
2788,5632;0,0172104
2789,5273;0,0172249
2790,4917;0,0172433
2791,4558;0,017267
2792,4202;0,0172953
2793,3843;0,0173264
2794,3486;0,0173583
2795,3127;0,0173895
2796,2771;0,0174203
2797,2412;0,0174522
2798,2056;0,0174878
2799,1697;0,017529
2800,1340;0,017576
2801,0981;0,0176264
2802,0625;0,0176765
2803,0266;0,0177225
2803,9910;0,0177626
2804,9551;0,0177975
2805,9194;0,01783
2806,8835;0,0178634
2807,8479;0,0179004
2808,8120;0,0179424
2809,7764;0,0179898
2810,7405;0,0180418
2811,7048;0,0180972
2812,6689;0,0181541
2813,6333;0,0182105
2814,5974;0,0182647
2815,5618;0,0183164
2816,5259;0,0183671
2817,4902;0,0184191
2818,4543;0,0184752
2819,4187;0,0185367
2820,3828;0,0186037
2821,3472;0,0186747
2822,3113;0,0187481
2823,2756;0,0188231
2824,2397;0,0189002
2825,2041;0,0189813
2826,1682;0,019068
2827,1326;0,0191612
2828,0967;0,0192598
2829,0610;0,0193616
2830,0251;0,0194636
2830,9895;0,0195643
2831,9536;0,0196636
2832,9180;0,0197629
2833,8821;0,0198639
2834,8464;0,0199676
2835,8105;0,0200747
2836,7749;0,0201862
2837,7390;0,0203045
2838,7034;0,0204323
2839,6675;0,0205717
2840,6318;0,020722
2841,5959;0,0208801
2842,5603;0,0210414
2843,5244;0,0212024
2844,4888;0,0213611
2845,4529;0,0215155
2846,4172;0,0216615
2847,3813;0,0217918
2848,3457;0,0218982
2849,3098;0,0219752
2850,2742;0,0220232
2851,2383;0,0220487
2852,2026;0,0220608
2853,1667;0,022067
2854,1311;0,0220705
2855,0952;0,0220713
2856,0596;0,022069
2857,0237;0,0220657
2857,9880;0,0220665
2858,9521;0,0220777
2859,9165;0,0221034
2860,8806;0,0221441
2861,8450;0,0221977
2862,8091;0,0222609
2863,7734;0,022331
2864,7375;0,0224068
2865,7019;0,0224869
2866,6660;0,0225687
2867,6304;0,0226479
2868,5945;0,0227195
2869,5588;0,0227794
2870,5229;0,0228259
2871,4873;0,0228605
2872,4514;0,0228874
2873,4158;0,0229117
2874,3799;0,022938
2875,3442;0,0229685
2876,3083;0,0230035
2877,2727;0,0230412
2878,2368;0,0230795
2879,2012;0,0231169
2880,1653;0,023153
2881,1296;0,0231879
2882,0938;0,0232218
2883,0581;0,0232548
2884,0222;0,0232866
2884,9866;0,0233172
2885,9507;0,0233475
2886,9150;0,0233787
2887,8792;0,0234122
2888,8435;0,0234488
2889,8076;0,0234877
2890,7720;0,0235274
2891,7361;0,0235661
2892,7004;0,0236029
2893,6646;0,0236376
2894,6289;0,023671
2895,5930;0,0237029
2896,5574;0,0237322
2897,5215;0,0237567
2898,4858;0,0237744
2899,4500;0,0237853
2900,4143;0,023792
2901,3784;0,0237989
2902,3428;0,0238101
2903,3069;0,0238268
2904,2712;0,0238472
2905,2354;0,0238681
2906,1997;0,0238872
2907,1638;0,0239058
2908,1282;0,0239287
2909,0923;0,0239613
2910,0566;0,0240072
2911,0208;0,0240654
2911,9851;0,0241306
2912,9492;0,0241945
2913,9136;0,024248
2914,8777;0,0242839
2915,8420;0,0242973
2916,8062;0,0242866
2917,7705;0,0242524
2918,7346;0,0241973
2919,6990;0,0241242
2920,6631;0,0240359
2921,6274;0,023935
2922,5916;0,0238246
2923,5559;0,0237087
2924,5200;0,0235918
2925,4844;0,0234789
2926,4485;0,0233735
2927,4128;0,0232782
2928,3770;0,0231932
2929,3413;0,0231176
2930,3054;0,0230484
2931,2698;0,0229818
2932,2339;0,0229129
2933,1982;0,0228378
2934,1624;0,0227547
2935,1267;0,0226652
2936,0908;0,0225732
2937,0552;0,022483
2938,0193;0,0223969
2938,9836;0,0223134
2939,9478;0,0222276
2940,9121;0,0221339
2941,8762;0,0220284
2942,8406;0,0219115
2943,8047;0,0217872
2944,7690;0,0216619
2945,7332;0,0215408
2946,6975;0,021426
2947,6616;0,0213159
2948,6260;0,0212078
2949,5901;0,0210997
2950,5544;0,0209923
2951,5186;0,0208887
2952,4829;0,0207918
2953,4470;0,0207029
2954,4114;0,0206201
2955,3755;0,0205403
2956,3398;0,0204601
2957,3040;0,0203781
2958,2683;0,0202946
2959,2324;0,020211
2960,1968;0,0201283
2961,1609;0,020047
2962,1252;0,0199672
2963,0894;0,0198886
2964,0537;0,0198112
2965,0178;0,0197343
2965,9822;0,0196568
2966,9463;0,0195774
2967,9106;0,0194949
2968,8748;0,0194092
2969,8391;0,0193208
2970,8032;0,0192315
2971,7676;0,0191441
2972,7317;0,0190611
2973,6960;0,0189848
2974,6602;0,0189155
2975,6245;0,0188519
2976,5886;0,0187913
2977,5530;0,0187318
2978,5171;0,0186735
2979,4814;0,0186192
2980,4456;0,018573
2981,4099;0,0185378
2982,3740;0,0185129
2983,3384;0,0184948
2984,3025;0,0184782
2985,2668;0,0184593
2986,2310;0,0184371
2987,1953;0,0184131
2988,1594;0,0183894
2989,1238;0,0183673
2990,0879;0,0183474
2991,0522;0,0183306
2992,0164;0,0183195
2992,9807;0,0183176
2993,9448;0,0183276
2994,9092;0,0183494
2995,8733;0,0183793
2996,8376;0,0184123
2997,8018;0,0184442
2998,7661;0,0184732
2999,7302;0,0185001
3000,6946;0,0185257
3001,6587;0,0185501
3002,6230;0,0185719
3003,5872;0,0185896
3004,5515;0,0186035
3005,5156;0,0186154
3006,4800;0,0186276
3007,4441;0,0186412
3008,4084;0,0186555
3009,3726;0,0186681
3010,3369;0,0186775
3011,3010;0,0186846
3012,2654;0,0186927
3013,2295;0,0187057
3014,1938;0,018726
3015,1580;0,0187531
3016,1223;0,0187843
3017,0864;0,0188162
3018,0508;0,018847
3019,0149;0,0188762
3019,9792;0,0189048
3020,9434;0,0189338
3021,9077;0,0189639
3022,8718;0,0189955
3023,8362;0,0190292
3024,8003;0,0190658
3025,7646;0,0191046
3026,7288;0,0191434
3027,6931;0,0191786
3028,6572;0,0192072
3029,6216;0,019229
3030,5857;0,0192472
3031,5500;0,0192673
3032,5142;0,0192941
3033,4785;0,01933
3034,4426;0,0193736
3035,4070;0,019422
3036,3711;0,0194721
3037,3354;0,019522
3038,2996;0,01957
3039,2639;0,0196156
3040,2280;0,0196589
3041,1924;0,0197013
3042,1565;0,0197455
3043,1208;0,0197938
3044,0850;0,0198462
3045,0493;0,0198996
3046,0134;0,0199493
3046,9778;0,0199922
3047,9419;0,0200293
3048,9063;0,020066
3049,8704;0,020109
3050,8347;0,0201623
3051,7988;0,0202254
3052,7632;0,0202933
3053,7273;0,0203599
3054,6917;0,0204204
3055,6558;0,0204731
3056,6201;0,0205195
3057,5842;0,0205627
3058,5486;0,0206066
3059,5127;0,0206545
3060,4771;0,0207085
3061,4412;0,0207686
3062,4055;0,0208319
3063,3696;0,0208936
3064,3340;0,0209484
3065,2981;0,0209937
3066,2625;0,0210313
3067,2266;0,0210673
3068,1909;0,0211093
3069,1550;0,0211629
3070,1194;0,0212287
3071,0835;0,0213026
3072,0479;0,0213776
3073,0120;0,0214469
3073,9763;0,0215069
3074,9404;0,0215574
3075,9048;0,0216008
3076,8689;0,0216409
3077,8333;0,021681
3078,7974;0,0217239
3079,7617;0,0217718
3080,7258;0,0218259
3081,6902;0,0218854
3082,6543;0,021947
3083,6187;0,0220057
3084,5828;0,0220566
3085,5471;0,0220978
3086,5112;0,0221321
3087,4756;0,0221661
3088,4397;0,0222071
3089,4041;0,0222595
3090,3682;0,0223225
3091,3325;0,0223911
3092,2966;0,0224595
3093,2610;0,0225246
3094,2251;0,0225874
3095,1895;0,0226512
3096,1536;0,0227186
3097,1179;0,0227882
3098,0820;0,0228552
3099,0464;0,0229142
3100,0105;0,0229626
3100,9749;0,0230029
3101,9390;0,0230415
3102,9033;0,023086
3103,8674;0,0231412
3104,8318;0,023208
3105,7959;0,0232833
3106,7603;0,0233626
3107,7244;0,0234412
3108,6887;0,0235157
3109,6528;0,023584
3110,6172;0,0236457
3111,5813;0,0237022
3112,5457;0,0237571
3113,5098;0,0238154
3114,4741;0,0238812
3115,4382;0,0239562
3116,4026;0,0240377
3117,3667;0,02412
3118,3311;0,0241967
3119,2952;0,0242644
3120,2595;0,0243231
3121,2236;0,0243761
3122,1880;0,0244273
3123,1521;0,0244795
3124,1165;0,024534
3125,0806;0,0245923
3126,0449;0,0246568
3127,0090;0,0247305
3127,9734;0,0248144
3128,9375;0,0249061
3129,9019;0,0249992
3130,8660;0,0250858
3131,8303;0,0251609
3132,7944;0,025225
3133,7588;0,0252832
3134,7229;0,0253425
3135,6873;0,0254079
3136,6514;0,0254806
3137,6157;0,0255588
3138,5798;0,0256397
3139,5442;0,0257214
3140,5083;0,0258034
3141,4727;0,0258851
3142,4368;0,0259655
3143,4011;0,0260431
3144,3652;0,0261164
3145,3296;0,0261851
3146,2937;0,0262499
3147,2581;0,0263127
3148,2222;0,0263758
3149,1865;0,0264416
3150,1506;0,0265117
3151,1150;0,0265866
3152,0791;0,0266658
3153,0435;0,0267491
3154,0076;0,0268369
3154,9719;0,0269307
3155,9360;0,0270317
3156,9004;0,0271386
3157,8645;0,0272461
3158,8289;0,0273462
3159,7930;0,0274314
3160,7573;0,0274987
3161,7214;0,027552
3162,6858;0,0276002
3163,6499;0,0276534
3164,6143;0,0277186
3165,5784;0,027797
3166,5427;0,0278854
3167,5068;0,0279793
3168,4712;0,0280756
3169,4353;0,0281666
3170,3997;0,0282674
3171,3638;0,0283704
3172,3281;0,0284729
3173,2922;0,0285696
3174,2566;0,0286552
3175,2207;0,0287272
3176,1851;0,0287879
3177,1492;0,0288442
3178,1135;0,0289041
3179,0776;0,0289733
3180,0420;0,0290524
3181,0061;0,0291384
3181,9705;0,0292269
3182,9346;0,0293158
3183,8989;0,0294058
3184,8630;0,0294983
3185,8274;0,0295926
3186,7915;0,0296846
3187,7559;0,029769
3188,7200;0,0298436
3189,6843;0,0299123
3190,6484;0,0299835
3191,6128;0,0300655
3192,5769;0,0301607
3193,5413;0,0302626
3194,5054;0,0303592
3195,4697;0,0304394
3196,4338;0,0305002
3197,3982;0,0305486
3198,3623;0,0305976
3199,3267;0,0306594
3200,2908;0,0307391
3201,2551;0,0308332
3202,2192;0,0309329
3203,1836;0,0310295
3204,1477;0,0311184
3205,1121;0,0311997
3206,0762;0,0312756
3207,0405;0,0313486
3208,0046;0,0314195
3208,9690;0,031488
3209,9331;0,0315545
3210,8975;0,0316204
3211,8616;0,0316889
3212,8259;0,0317636
3213,7900;0,0318475
3214,7544;0,0319416
3215,7185;0,0320441
3216,6829;0,0321491
3217,6470;0,0322484
3218,6113;0,0323346
3219,5754;0,0324045
3220,5398;0,032462
3221,5039;0,0325166
3222,4683;0,0325787
3223,4324;0,0326539
3224,3967;0,0327404
3225,3608;0,0328303
3226,3252;0,032915
3227,2893;0,0329907
3228,2537;0,0330601
3229,2178;0,03313
3230,1821;0,0332061
3231,1462;0,033289
3232,1106;0,0333748
3233,0747;0,0334575
3234,0391;0,0335341
3235,0032;0,0336059
3235,9675;0,0336777
3236,9316;0,0337541
3237,8960;0,0338361
3238,8601;0,0339203
3239,8245;0,0340011
3240,7886;0,0340743
3241,7529;0,0341398
3242,7170;0,0342025
3243,6814;0,0342693
3244,6455;0,0343455
3245,6099;0,0344318
3246,5740;0,0345242
3247,5383;0,0346164
3248,5024;0,0347032
3249,4668;0,034783
3250,4309;0,0348578
3251,3953;0,0349322
3252,3594;0,0350112
3253,3237;0,0350986
3254,2878;0,0351959
3255,2522;0,0353018
3256,2163;0,0354118
3257,1807;0,0355193
3258,1448;0,0356182
3259,1091;0,035705
3260,0732;0,0357811
3261,0376;0,0358522
3262,0017;0,0359249
3262,9661;0,0360034
3263,9302;0,036087
3264,8945;0,0361708
3265,8586;0,0362489
3266,8230;0,0363185
3267,7871;0,0363813
3268,7515;0,0364422
3269,7156;0,0365056
3270,6799;0,0365729
3271,6440;0,0366408
3272,6084;0,0367042
3273,5725;0,0367589
3274,5369;0,0368049
3275,5010;0,0368461
3276,4653;0,0368878
3277,4294;0,0369331
3278,3938;0,0369814
3279,3579;0,0370291
3280,3223;0,0370728
3281,2864;0,0371117
3282,2507;0,0371479
3283,2148;0,0371844
3284,1792;0,0372217
3285,1433;0,0372569
3286,1077;0,037286
3287,0718;0,0373066
3288,0361;0,037321
3289,0002;0,0373346
3289,9646;0,0373534
3290,9287;0,0373794
3291,8931;0,0374105
3292,8572;0,0374415
3293,8215;0,0374679
3294,7856;0,0374881
3295,7500;0,037503
3296,7141;0,0375145
3297,6785;0,0375236
3298,6426;0,0375302
3299,6069;0,0375342
3300,5710;0,0375357
3301,5354;0,0375357
3302,4995;0,0375352
3303,4639;0,0375349
3304,4280;0,0375357
3305,3923;0,0375394
3306,3564;0,0375481
3307,3208;0,0375631
3308,2849;0,0375831
3309,2493;0,0376041
3310,2134;0,0376209
3311,1777;0,0376304
3312,1418;0,0376332
3313,1062;0,0376333
3314,0703;0,0376366
3315,0347;0,0376476
3315,9988;0,0376684
3316,9631;0,0376989
3317,9272;0,0377377
3318,8916;0,0377826
3319,8557;0,0378312
3320,8201;0,0378807
3321,7842;0,0379282
3322,7485;0,0379721
3323,7126;0,0380124
3324,6770;0,0380503
3325,6411;0,0380869
3326,6055;0,0381216
3327,5696;0,0381522
3328,5339;0,0381764
3329,4980;0,0381944
3330,4624;0,0382099
3331,4265;0,0382288
3332,3909;0,0382555
3333,3550;0,0382893
3334,3193;0,038323
3335,2834;0,0383447
3336,2478;0,0383434
3337,2119;0,0383145
3338,1763;0,0382615
3339,1404;0,0381949
3340,1047;0,0381268
3341,0688;0,0380659
3342,0332;0,0380152
3342,9973;0,037972
3343,9617;0,0379306
3344,9258;0,0378854
3345,8901;0,0378337
3346,8542;0,0377757
3347,8186;0,0377142
3348,7827;0,037652
3349,7471;0,0375903
3350,7112;0,0375281
3351,6755;0,0374629
3352,6396;0,0373928
3353,6040;0,037318
3354,5681;0,0372412
3355,5325;0,0371659
3356,4966;0,0370948
3357,4609;0,0370277
3358,4250;0,0369624
3359,3894;0,0368963
3360,3535;0,036828
3361,3179;0,0367586
3362,2820;0,0366903
3363,2463;0,0366254
3364,2104;0,0365643
3365,1748;0,0365055
3366,1389;0,036446
3367,1033;0,0363823
3368,0674;0,036312
3369,0317;0,0362346
3369,9958;0,0361517
3370,9602;0,0360657
3371,9243;0,0359787
3372,8887;0,0358918
3373,8528;0,0358051
3374,8171;0,035719
3375,7813;0,0356345
3376,7456;0,0355535
3377,7097;0,0354779
3378,6741;0,0354083
3379,6382;0,0353438
3380,6025;0,0352824
3381,5667;0,0352224
3382,5310;0,0351622
3383,4951;0,0351002
3384,4595;0,0350339
3385,4236;0,0349608
3386,3879;0,0348804
3387,3521;0,0347953
3388,3164;0,0347112
3389,2805;0,0346338
3390,2449;0,0345661
3391,2090;0,0345055
3392,1733;0,0344452
3393,1375;0,0343776
3394,1018;0,0342992
3395,0659;0,0342122
3396,0303;0,0341231
3396,9944;0,0340383
3397,9587;0,0339602
3398,9229;0,0338863
3399,8872;0,0338112
3400,8513;0,0337295
3401,8157;0,0336395
3402,7798;0,0335432
3403,7441;0,0334448
3404,7083;0,0333483
3405,6726;0,0332563
3406,6367;0,0331697
3407,6011;0,0330881
3408,5652;0,0330098
3409,5295;0,0329312
3410,4937;0,0328476
3411,4580;0,032755
3412,4221;0,0326526
3413,3865;0,0325443
3414,3506;0,0324366
3415,3149;0,0323352
3416,2791;0,0322406
3417,2434;0,0321478
3418,2075;0,0320496
3419,1719;0,0319414
3420,1360;0,0318239
3421,1003;0,0317024
3422,0645;0,0315829
3423,0288;0,0314685
3423,9929;0,0313587
3424,9573;0,0312524
3425,9214;0,0311499
3426,8857;0,0310537
3427,8499;0,0309653
3428,8142;0,0308829
3429,7783;0,0308004
3430,7427;0,0307098
3431,7068;0,0306051
3432,6711;0,0304857
3433,6353;0,0303565
3434,5996;0,0302259
3435,5637;0,030101
3436,5281;0,0299856
3437,4922;0,0298791
3438,4565;0,0297788
3439,4207;0,0296821
3440,3850;0,029588
3441,3491;0,0294961
3442,3135;0,0294045
3443,2776;0,0293087
3444,2419;0,0292024
3445,2061;0,029081
3446,1704;0,0289453
3447,1345;0,0288027
3448,0989;0,0286635
3449,0630;0,0285353
3450,0273;0,0284194
3450,9915;0,0283119
3451,9558;0,0282073
3452,9199;0,0281029
3453,8843;0,0279995
3454,8484;0,0278995
3455,8127;0,0278039
3456,7769;0,02771
3457,7412;0,0276121
3458,7053;0,0275048
3459,6697;0,0273862
3460,6338;0,027259
3461,5981;0,0271294
3462,5623;0,0270039
3463,5266;0,0268854
3464,4907;0,026773
3465,4551;0,0266634
3466,4192;0,0265544
3467,3835;0,0264468
3468,3477;0,0263434
3469,3120;0,0262459
3470,2761;0,0261512
3471,2405;0,0260521
3472,2046;0,0259408
3473,1689;0,0258155
3474,1331;0,025684
3475,0974;0,0255605
3476,0615;0,0254572
3477,0259;0,0253765
3477,9900;0,0253082
3478,9543;0,0252354
3479,9185;0,0251443
3480,8828;0,0250322
3481,8469;0,0249086
3482,8113;0,024787
3483,7754;0,0246748
3484,7397;0,0245687
3485,7039;0,0244583
3486,6682;0,0243351
3487,6323;0,0241995
3488,5967;0,0240623
3489,5608;0,0239384
3490,5251;0,0238377
3491,4893;0,0237593
3492,4536;0,0236924
3493,4177;0,0236233
3494,3821;0,0235437
3495,3462;0,0234558
3496,3105;0,02337
3497,2747;0,0232958
3498,2390;0,023232
3499,2031;0,0231644
3500,1675;0,0230719
3501,1316;0,0229413
3502,0959;0,0227793
3503,0601;0,022614
3504,0244;0,0224781
3504,9885;0,0223879
3505,9529;0,0223326
3506,9170;0,0222833
3507,8813;0,0222094
3508,8455;0,0220954
3509,8098;0,0219485
3510,7739;0,0217929
3511,7383;0,0216544
3512,7024;0,0215461
3513,6667;0,0214665
3514,6309;0,0214058
3515,5952;0,0213536
3516,5593;0,0213029
3517,5237;0,0212494
3518,4878;0,0211895
3519,4521;0,0211195
3520,4163;0,0210372
3521,3806;0,0209446
3522,3447;0,0208483
3523,3091;0,0207552
3524,2732;0,0206659
3525,2375;0,0205723
3526,2017;0,0204614
3527,1660;0,0203259
3528,1301;0,020172
3529,0945;0,0200195
3530,0586;0,019891
3531,0229;0,0197985
3531,9871;0,0197372
3532,9514;0,0196891
3533,9155;0,0196318
3534,8799;0,0195498
3535,8440;0,0194415
3536,8083;0,0193202
3537,7725;0,0192072
3538,7368;0,0191213
3539,7009;0,0190704
3540,6653;0,0190486
3541,6294;0,0190378
3542,5938;0,0190118
3543,5579;0,0189453
3544,5222;0,0188278
3545,4863;0,0186733
3546,4507;0,018514
3547,4148;0,0183784
3548,3792;0,0182737
3549,3433;0,0181851
3550,3076;0,0180898
3551,2717;0,0179738
3552,2361;0,0178436
3553,2002;0,0177228
3554,1646;0,0176345
3555,1287;0,0175834
3556,0930;0,0175533
3557,0571;0,0175192
3558,0215;0,0174653
3558,9856;0,0173983
3559,9500;0,0173446
3560,9141;0,0173317
3561,8784;0,0173643
3562,8425;0,0174126
3563,8069;0,0174159
3564,7710;0,0173047
3565,7354;0,0170456
3566,6995;0,01669
3567,6638;0,0163586
3568,6279;0,016148
3569,5923;0,0160695
3570,5564;0,0160742
3571,5208;0,0161031
3572,4849;0,0161147
3573,4492;0,0160922
3574,4133;0,0160396
3575,3777;0,0159698
3576,3418;0,0158926
3577,3062;0,0158109
3578,2703;0,0157277
3579,2346;0,0156565
3580,1987;0,0156204
3581,1631;0,0156391
3582,1272;0,0157113
3583,0916;0,0158053
3584,0557;0,0158621
3585,0200;0,0158138
3585,9841;0,015625
3586,9485;0,0153417
3587,9126;0,0150837
3588,8770;0,0149524
3589,8411;0,0149587
3590,8054;0,0150407
3591,7695;0,0151183
3592,7339;0,0151324
3593,6980;0,0150677
3594,6624;0,0149558
3595,6265;0,0148475
3596,5908;0,0147695
3597,5549;0,0147065
3598,5193;0,0146239
3599,4834;0,0145062
3600,4478;0,0143773
3601,4119;0,0142849
3602,3762;0,0142606
3603,3403;0,0142936
3604,3047;0,0143361
3605,2688;0,0143275
3606,2332;0,0142255
3607,1973;0,014031
3608,1616;0,0137915
3609,1257;0,0135697
3610,0901;0,013405
3611,0542;0,0133041
3612,0186;0,0132593
3612,9827;0,0132638
3613,9470;0,0133095
3614,9111;0,0133744
3615,8755;0,0134158
3616,8396;0,0133811
3617,8040;0,0132393
3618,7681;0,0130203
3619,7324;0,0128208
3620,6965;0,0127459
3621,6609;0,0128382
3622,6250;0,0130669
3623,5894;0,0133601
3624,5535;0,0136291
3625,5178;0,0137719
3626,4819;0,0136824
3627,4463;0,0133107
3628,4104;0,0127617
3629,3748;0,0122723
3630,3389;0,0120048
3631,3032;0,0119403
3632,2673;0,0119715
3633,2317;0,0120049
3634,1958;0,0119946
3635,1602;0,011937
3636,1243;0,0118524
3637,0886;0,0117633
3638,0527;0,0116819
3639,0171;0,0116137
3639,9812;0,0115686
3640,9456;0,011566
3641,9097;0,0116268
3642,8740;0,0117577
3643,8381;0,011938
3644,8025;0,0121119
3645,7666;0,0121824
3646,7310;0,0120216
3647,6951;0,0115517
3648,6594;0,0109031
3649,6235;0,010396
3650,5879;0,0102244
3651,5520;0,0103212
3652,5164;0,0105178
3653,4805;0,0106727
3654,4448;0,0107026
3655,4089;0,010594
3656,3733;0,0104079
3657,3374;0,0102428
3658,3018;0,0101635
3659,2659;0,0101672
3660,2302;0,0102128
3661,1943;0,0102686
3662,1587;0,0103351
3663,1228;0,0104353
3664,0872;0,0105838
3665,0513;0,0107618
3666,0156;0,0109151
3666,9797;0,0109759
3667,9441;0,0109057
3668,9082;0,0107445
3669,8726;0,0106048
3670,8367;0,0105732
3671,8010;0,0106286
3672,7651;0,0106659
3673,7295;0,010573
3674,6936;0,0103151
3675,6580;0,00999158
3676,6221;0,00976906
3677,5864;0,0097273
3678,5505;0,00982293
3679,5149;0,00997529
3680,4790;0,0101335
3681,4434;0,0102879
3682,4075;0,0104516
3683,3718;0,0106343
3684,3359;0,0108223
3685,3003;0,0109733
3686,2644;0,0110253
3687,2288;0,0109253
3688,1929;0,010681
3689,1572;0,0103988
3690,1213;0,0102206
3691,0857;0,0102048
3692,0498;0,0103098
3693,0142;0,0104658
3693,9783;0,0106251
3694,9426;0,010769
3695,9067;0,0108948
3696,8711;0,0109997
3697,8352;0,0110714
3698,7996;0,0110895
3699,7637;0,0110407
3700,7280;0,0109404
3701,6921;0,0108408
3702,6565;0,0108081
3703,6206;0,0108817
3704,5850;0,0110541
3705,5491;0,0112812
3706,5134;0,0114974
3707,4775;0,0116214
3708,4419;0,011564
3709,4060;0,0112661
3710,3704;0,0107752
3711,3345;0,0102742
3712,2988;0,00996026
3713,2629;0,0099015
3714,2273;0,0100425
3715,1914;0,0102904
3716,1558;0,0105675
3717,1199;0,0108233
3718,0842;0,0110331
3719,0483;0,0111931
3720,0127;0,011313
3720,9768;0,0114031
3721,9412;0,0114641
3722,9053;0,0114905
3723,8696;0,011485
3724,8337;0,0114708
3725,7981;0,0114847
3726,7622;0,0115536
3727,7266;0,0116791
3728,6907;0,0118387
3729,6550;0,0119965
3730,6191;0,0121103
3731,5835;0,0121309
3732,5476;0,0120063
3733,5120;0,0117077
3734,4761;0,0112839
3735,4404;0,0108775
3736,4045;0,0106365
3737,3689;0,0106128
3738,3330;0,0107616
3739,2974;0,0109964
3740,2615;0,011221
3741,2258;0,011339
3742,1899;0,0112703
3743,1543;0,0110093
3744,1184;0,0106829
3745,0828;0,0104809
3746,0469;0,0104809
3747,0112;0,0105969
3747,9753;0,0106673
3748,9397;0,0105484
3749,9038;0,010207
3750,8682;0,00979349
3751,8323;0,00954299
3752,7966;0,00955332
3753,7607;0,00974632
3754,7251;0,00998786
3755,6892;0,0101687
3756,6536;0,010227
3757,6177;0,0101604
3758,5820;0,0100297
3759,5461;0,00992401
3760,5105;0,00990046
3761,4746;0,00995791
3762,4390;0,0100593
3763,4031;0,0101635
3764,3674;0,0102423
3765,3315;0,0102818
3766,2959;0,0102753
3767,2600;0,0102187
3768,2244;0,0101133
3769,1885;0,00997882
3770,1528;0,0098586
3771,1169;0,00980302
3772,0813;0,0098398
3773,0454;0,00995789
3774,0098;0,010115
3774,9739;0,0102559
3775,9382;0,0103311
3776,9023;0,0103159
3777,8667;0,0102271
3778,8308;0,0101204
3779,7952;0,0100544
3780,7593;0,0100506
3781,7236;0,0100875
3782,6877;0,0101259
3783,6521;0,0101358
3784,6162;0,01011
3785,5806;0,0100633
3786,5447;0,0100216
3787,5090;0,0100084
3788,4731;0,0100352
3789,4375;0,0100998
3790,4016;0,010188
3791,3660;0,0102789
3792,3301;0,0103534
3793,2944;0,0104047
3794,2585;0,0104439
3795,2229;0,0104944
3796,1870;0,0105708
3797,1514;0,0106573
3798,1155;0,0107061
3799,0798;0,0106632
3800,0439;0,0105149
3801,0083;0,0103193
3801,9724;0,0101718
3802,9368;0,0101211
3803,9009;0,0101322
3804,8652;0,010128
3805,8293;0,0100562
3806,7937;0,00993558
3807,7578;0,00985049
3808,7222;0,00988148
3809,6863;0,0100403
3810,6506;0,0102728
3811,6147;0,0105009
3812,5791;0,0106571
3813,5432;0,0107087
3814,5076;0,0106774
3815,4717;0,0106285
3816,4360;0,0106132
3817,4001;0,0106152
3818,3645;0,0105656
3819,3286;0,0104093
3820,2930;0,0101698
3821,2571;0,00995044
3822,2214;0,009851
3823,1855;0,00988775
3824,1499;0,0100058
3825,1140;0,0101379
3826,0784;0,0102421
3827,0425;0,0103092
3828,0068;0,0103534
3828,9709;0,0103945
3829,9353;0,0104451
3830,8994;0,0105075
3831,8638;0,0105774
3832,8279;0,0106472
3833,7922;0,0107036
3834,7563;0,0107245
3835,7207;0,010684
3836,6848;0,0105693
3837,6492;0,0104001
3838,6133;0,010227
3839,5776;0,0100975
3840,5417;0,0100238
3841,5061;0,00998906
3842,4702;0,0099757
3843,4346;0,0099875
3844,3987;0,0100493
3845,3630;0,0101893
3846,3271;0,0104184
3847,2915;0,0107205
3848,2556;0,0110519
3849,2200;0,0113391
3850,1841;0,0114699
3851,1484;0,011304
3852,1125;0,0107721
3853,0769;0,0100599
3854,0410;0,00954475
3855,0054;0,00941356
3855,9695;0,00957519
3856,9338;0,009873
3857,8979;0,0101982
3858,8623;0,0104855
3859,8264;0,0106894
3860,7908;0,0107775
3861,7549;0,0107448
3862,7192;0,0106325
3863,6833;0,0105182
3864,6477;0,0104669
3865,6118;0,0104912
3866,5762;0,0105555
3867,5403;0,0106053
3868,5046;0,0105957
3869,4688;0,0105122
3870,4331;0,0103787
3871,3972;0,0102454
3872,3616;0,0101615
3873,3257;0,0101528
3874,2900;0,0102173
3875,2542;0,0103314
3876,2185;0,0104599
3877,1826;0,0105658
3878,1470;0,0106226
3879,1111;0,010626
3880,0754;0,0105957
3881,0396;0,0105579
3882,0039;0,0105212
3882,9680;0,0104745
3883,9324;0,0104115
3884,8965;0,0103518
3885,8608;0,0103327
3886,8250;0,0103736
3887,7893;0,0104508
3888,7534;0,0105075
3889,7178;0,0104905
3890,6819;0,0103924
3891,6462;0,0102735
3892,6104;0,0102251
3893,5747;0,0102982
3894,5388;0,0104733
3895,5032;0,0106906
3896,4673;0,0108875
3897,4316;0,0110187
3898,3958;0,0110631
3899,3601;0,011021
3900,3242;0,0109028
3901,2886;0,0107181
3902,2527;0,0104839
3903,2170;0,0102413
3904,1812;0,010049
3905,1455;0,00995035
3906,1096;0,00994719
3907,0740;0,0100087
3908,0381;0,0100969
3909,0024;0,0101866
3909,9666;0,0102715
3910,9309;0,0103584
3911,8950;0,010454
3912,8594;0,0105521
3913,8235;0,0106298
3914,7878;0,0106573
3915,7520;0,0106183
3916,7163;0,0105292
3917,6804;0,0104369
3918,6448;0,010389
3919,6089;0,0104005
3920,5732;0,0104471
3921,5374;0,0104864
3922,5017;0,0104858
3923,4658;0,010445
3924,4302;0,0103968
3925,3943;0,0103843
3926,3586;0,0104285
3927,3228;0,0105137
3928,2871;0,0105979
3929,2512;0,0106347
3930,2156;0,0105965
3931,1797;0,0104915
3932,1440;0,0103608
3933,1082;0,0102553
3934,0725;0,0102078
3935,0366;0,0102246
3936,0010;0,0102913
3936,9651;0,0103827
3937,9294;0,010469
3938,8936;0,0105217
3939,8579;0,0105238
3940,8220;0,0104796
3941,7864;0,0104184
3942,7505;0,0103804
3943,7148;0,0103921
3944,6790;0,0104486
3945,6433;0,0105177
3946,6074;0,0105592
3947,5718;0,0105475
3948,5359;0,0104861
3949,5002;0,0104043
3950,4644;0,0103379
3951,4287;0,0103072
3952,3928;0,0103098
3953,3572;0,01033
3954,3213;0,010352
3955,2856;0,0103685
3956,2498;0,0103802
3957,2141;0,0103904
3958,1782;0,0103989
3959,1426;0,0104016
3960,1067;0,0103944
3961,0710;0,0103779
3962,0352;0,0103581
3962,9995;0,0103434
3963,9636;0,0103391
3964,9280;0,0103445
3965,8921;0,0103557
3966,8564;0,0103684
3967,8206;0,0103818
3968,7849;0,0103971
3969,7490;0,0104147
3970,7134;0,0104315
3971,6775;0,010441
3972,6418;0,0104372
3973,6060;0,0104202
3974,5703;0,010397
3975,5344;0,0103787
3976,4988;0,0103736
3977,4629;0,0103821
3978,4272;0,0103963
3979,3914;0,0104048
3980,3557;0,010399
3981,3198;0,0103788
3982,2842;0,0103523
3983,2483;0,0103316
3984,2126;0,0103265
3985,1768;0,0103397
3986,1411;0,010366
3987,1052;0,0103954
3988,0696;0,0104179
3989,0337;0,010428
3989,9980;0,0104251
3990,9622;0,0104126
3991,9265;0,0103944
3992,8906;0,0103738
3993,8550;0,010353
3994,8191;0,010335
3995,7834;0,0103232
3996,7476;0,0103207
3997,7119;0,0103282
3998,6760;0,0103434
3999,6404;0,0103618
4000,6045;0,0103642

##### Extended Information
[Comments]
Sample name
Comment
Username
Division
Organization;UNIVERSIDAD INDUSTRIAL DE SANTANDER

[Detailed Information]
Creation date;29/01/2025 2:51 p.m.

Data array type;Linear data array
Horizontal axis;Wavenumber [cm-1]
Vertical axis;Abs
Start;399,193 cm-1
End;4000,6 cm-1
Data interval;0,964233 cm-1
Data points;3736    

[Measurement Information]
Model name;FT/IR-4X1typeA
Serial No.;A035162111

Accessory;ATR PRO 4X
Accessory S/N;A021162126
Incident angle;45 deg

Measurement date;29/01/2025 2:51 p.m.

Light source;Standard
Detector;TGS
Accumulation;Auto (71)
Resolution;4 cm-1
Zero filling;On
Apodization;Cosine
Gain;Auto (8)
Aperture;Auto (7 mm)
Scan speed;Auto (2 mm/sec)
Filter;Auto (12800 Hz)

