TITLE;
DATA TYPE;INFRARED SPECTRUM
ORIGIN;JASCO
OWNER;
DATE;25/03/14
TIME;11:28:20
SPECTROMETER/DATA SYSTEM;
LOCALE;9226
RESOLUTION;
DELTAX;0,964233
XUNITS;1/CM
YUNITS;ABSORBANCE
FIRSTX;  399,1927
LASTX; 4000,6047
NPOINTS;    3736
FIRSTY;     0,19830
MAXY;     0,28389
MINY;     0,01592
XYDATA
399,1927;0,198299
400,1569;0,197658
401,1211;0,19719
402,0854;0,196877
403,0496;0,196709
404,0138;0,19668
404,9781;0,196777
405,9423;0,196966
406,9065;0,197198
407,8708;0,19743
408,8350;0,197659
409,7992;0,197963
410,7635;0,198503
411,7277;0,199466
412,6919;0,200937
413,6562;0,202807
414,6204;0,204786
415,5846;0,206453
416,5489;0,207338
417,5131;0,207129
418,4773;0,206106
419,4416;0,205293
420,4058;0,205596
421,3700;0,206954
422,3343;0,208659
423,2985;0,210008
424,2627;0,210599
425,2270;0,210406
426,1912;0,209738
427,1554;0,209056
428,1197;0,208736
429,0839;0,208928
430,0481;0,20957
431,0124;0,210481
431,9766;0,211452
432,9408;0,212294
433,9051;0,212859
434,8693;0,213051
435,8335;0,21285
436,7978;0,212349
437,7620;0,21173
438,7262;0,2112
439,6905;0,210899
440,6547;0,210845
441,6189;0,210922
442,5832;0,21093
443,5474;0,210678
444,5116;0,210092
445,4759;0,209242
446,4401;0,208275
447,4043;0,207323
448,3686;0,206465
449,3328;0,205749
450,2970;0,20522
451,2613;0,204943
452,2255;0,204962
453,1897;0,205264
454,1540;0,205743
455,1182;0,206213
456,0824;0,20645
457,0467;0,206277
458,0109;0,205674
458,9751;0,204818
459,9394;0,203984
460,9036;0,203381
461,8678;0,203089
462,8321;0,203097
463,7963;0,203342
464,7605;0,20373
465,7248;0,20414
466,6890;0,204445
467,6532;0,20456
468,6175;0,20448
469,5817;0,204282
470,5459;0,2041
471,5102;0,204061
472,4744;0,204212
473,4386;0,204486
474,4029;0,204769
475,3671;0,204996
476,3313;0,205201
477,2956;0,20548
478,2598;0,20591
479,2240;0,20648
480,1883;0,207076
481,1525;0,207531
482,1167;0,20772
483,0810;0,207639
484,0452;0,207426
485,0094;0,207287
485,9737;0,207388
486,9379;0,207772
487,9021;0,208379
488,8664;0,209114
489,8306;0,209913
490,7948;0,210758
491,7591;0,211648
492,7233;0,212562
493,6875;0,213423
494,6518;0,214124
495,6160;0,21458
496,5802;0,214769
497,5445;0,214743
498,5087;0,214603
499,4729;0,214452
500,4372;0,214369
501,4014;0,214389
502,3656;0,214521
503,3299;0,214764
504,2941;0,215125
505,2583;0,215614
506,2226;0,216235
507,1868;0,216968
508,1510;0,217774
509,1153;0,218605
510,0795;0,219417
511,0437;0,220185
512,0080;0,220896
512,9722;0,221548
513,9365;0,222146
514,9007;0,222707
515,8649;0,223251
516,8292;0,223794
517,7934;0,224336
518,7576;0,224848
519,7219;0,225284
520,6861;0,225597
521,6503;0,22576
522,6146;0,225767
523,5788;0,225633
524,5430;0,225398
525,5073;0,225125
526,4715;0,224874
527,4357;0,224685
528,4000;0,224554
529,3642;0,224448
530,3284;0,224323
531,2927;0,224141
532,2569;0,223881
533,2211;0,22354
534,1854;0,22314
535,1496;0,222732
536,1138;0,222388
537,0781;0,222175
538,0423;0,222135
539,0065;0,222265
539,9708;0,22252
540,9350;0,222846
541,8992;0,223208
542,8635;0,223607
543,8277;0,224068
544,7919;0,224613
545,7562;0,225234
546,7204;0,225895
547,6846;0,226562
548,6489;0,227225
549,6131;0,227908
550,5773;0,228646
551,5416;0,229456
552,5058;0,230322
553,4700;0,231203
554,4343;0,232051
555,3985;0,232817
556,3627;0,233431
557,3270;0,233781
558,2912;0,23372
559,2554;0,233107
560,2197;0,231881
561,1839;0,230113
562,1481;0,228003
563,1124;0,22581
564,0766;0,223758
565,0408;0,221974
566,0051;0,220488
566,9693;0,219268
567,9335;0,218278
568,8978;0,2175
569,8620;0,21692
570,8262;0,216512
571,7905;0,216231
572,7547;0,216022
573,7189;0,215835
574,6832;0,215634
575,6474;0,215394
576,6116;0,2151
577,5759;0,214747
578,5401;0,214351
579,5043;0,213957
580,4686;0,213626
581,4328;0,213413
582,3970;0,213337
583,3613;0,213367
584,3255;0,213432
585,2897;0,213463
586,2540;0,213421
587,2182;0,213317
588,1824;0,213192
589,1467;0,213088
590,1109;0,213017
591,0751;0,212953
592,0394;0,212843
593,0036;0,212637
593,9678;0,212314
594,9321;0,21188
595,8963;0,211354
596,8605;0,210759
597,8248;0,210122
598,7890;0,209482
599,7532;0,208884
600,7175;0,208369
601,6817;0,207943
602,6459;0,207574
603,6102;0,207208
604,5744;0,206805
605,5386;0,206358
606,5029;0,205892
607,4671;0,20544
608,4313;0,205005
609,3956;0,204556
610,3598;0,204044
611,3240;0,203441
612,2883;0,202757
613,2525;0,202031
614,2167;0,201291
615,1810;0,200526
616,1452;0,199672
617,1094;0,198642
618,0737;0,19738
619,0379;0,195897
620,0021;0,194272
620,9664;0,192612
621,9306;0,191022
622,8948;0,189579
623,8591;0,188327
624,8233;0,187268
625,7875;0,186368
626,7518;0,185563
627,7160;0,184786
628,6802;0,18399
629,6445;0,183156
630,6087;0,182295
631,5729;0,181437
632,5372;0,180612
633,5014;0,179837
634,4656;0,179109
635,4299;0,178412
636,3941;0,177723
637,3583;0,177037
638,3226;0,176366
639,2868;0,175734
640,2510;0,175166
641,2153;0,174666
642,1795;0,174212
643,1437;0,173771
644,1080;0,173309
645,0722;0,172811
646,0364;0,172287
647,0007;0,171767
647,9649;0,17129
648,9291;0,170899
649,8934;0,170626
650,8576;0,17049
651,8218;0,170491
652,7861;0,170616
653,7503;0,170847
654,7145;0,171167
655,6788;0,171563
656,6430;0,172021
657,6072;0,172507
658,5715;0,172951
659,5357;0,173252
660,4999;0,173311
661,4642;0,173106
662,4284;0,172722
663,3926;0,172305
664,3569;0,171992
665,3211;0,171856
666,2853;0,171856
667,2496;0,171735
668,2138;0,171029
669,1780;0,169492
670,1423;0,167446
671,1065;0,165311
672,0707;0,163217
673,0350;0,161118
673,9992;0,158973
674,9634;0,156819
675,9277;0,154764
676,8919;0,152896
677,8561;0,151223
678,8204;0,149681
679,7846;0,148209
680,7488;0,146804
681,7131;0,145508
682,6773;0,144366
683,6415;0,14339
684,6058;0,142558
685,5700;0,141836
686,5342;0,141196
687,4985;0,140623
688,4627;0,140101
689,4269;0,139621
690,3912;0,139175
691,3554;0,138766
692,3196;0,138393
693,2839;0,13805
694,2481;0,137718
695,2123;0,137369
696,1766;0,136976
697,1408;0,136526
698,1050;0,136023
699,0693;0,135484
700,0335;0,134931
700,9977;0,134378
701,9620;0,133827
702,9262;0,133265
703,8904;0,132674
704,8547;0,132037
705,8189;0,131347
706,7831;0,13061
707,7474;0,129842
708,7116;0,129057
709,6758;0,128266
710,6401;0,127463
711,6043;0,126635
712,5685;0,125766
713,5328;0,124858
714,4970;0,123931
715,4612;0,123018
716,4255;0,122145
717,3897;0,121307
718,3539;0,120458
719,3182;0,119533
720,2824;0,118481
721,2466;0,117299
722,2109;0,116039
723,1751;0,114777
724,1393;0,113571
725,1036;0,112446
726,0678;0,111392
727,0320;0,110385
727,9963;0,109399
728,9605;0,108418
729,9247;0,107442
730,8890;0,10648
731,8532;0,105553
732,8174;0,104685
733,7817;0,103895
734,7459;0,103191
735,7101;0,102564
736,6744;0,101992
737,6386;0,101449
738,6028;0,100916
739,5671;0,100385
740,5313;0,099857
741,4955;0,0993325
742,4598;0,0988056
743,4240;0,0982675
744,3882;0,0977146
745,3525;0,0971548
746,3167;0,0966067
747,2809;0,0960885
748,2452;0,0956061
749,2094;0,0951475
750,1736;0,0946897
751,1379;0,0942123
752,1021;0,0937094
753,0663;0,0931901
754,0306;0,0926683
754,9948;0,0921513
755,9590;0,0916357
756,9233;0,0911139
757,8875;0,0905856
758,8517;0,0900647
759,8160;0,0895747
760,7802;0,0891364
761,7444;0,0887562
762,7087;0,0884219
763,6729;0,0881102
764,6371;0,0877986
765,6014;0,0874746
766,5656;0,0871378
767,5298;0,0867938
768,4941;0,0864463
769,4583;0,0860929
770,4225;0,085728
771,3868;0,0853506
772,3510;0,0849707
773,3152;0,0846084
774,2795;0,0842856
775,2437;0,0840134
776,2079;0,0837841
777,1722;0,0835735
778,1364;0,0833526
779,1006;0,0831007
780,0649;0,082813
781,0291;0,0824974
781,9933;0,0821647
782,9576;0,08182
783,9218;0,0814617
784,8860;0,0810869
785,8503;0,080699
786,8145;0,0803099
787,7787;0,0799362
788,7430;0,0795913
789,7072;0,0792804
790,6714;0,0790009
791,6357;0,0787465
792,5999;0,0785114
793,5641;0,0782906
794,5284;0,0780787
795,4926;0,0778689
796,4568;0,0776555
797,4211;0,0774369
798,3853;0,0772168
799,3495;0,0770019
800,3138;0,0767974
801,2780;0,0766062
802,2422;0,076431
803,2065;0,0762773
804,1707;0,0761521
805,1349;0,0760567
806,0992;0,0759794
807,0634;0,0758937
808,0276;0,075769
808,9919;0,0755867
809,9561;0,0753529
810,9203;0,0750982
811,8846;0,0748631
812,8488;0,0746792
813,8130;0,0745561
814,7773;0,0744822
815,7415;0,0744352
816,7057;0,0743957
817,6700;0,0743534
818,6342;0,0743059
819,5984;0,0742534
820,5627;0,074194
821,5269;0,0741233
822,4911;0,0740374
823,4554;0,0739346
824,4196;0,0738163
825,3839;0,0736848
826,3481;0,0735415
827,3123;0,0733864
828,2766;0,0732189
829,2408;0,0730382
830,2050;0,0728449
831,1693;0,0726399
832,1335;0,0724248
833,0977;0,0722008
834,0620;0,0719685
835,0262;0,0717281
835,9904;0,0714801
836,9547;0,0712278
837,9189;0,0709778
838,8831;0,0707388
839,8474;0,0705169
840,8116;0,0703117
841,7758;0,070116
842,7401;0,0699201
843,7043;0,06972
844,6685;0,0695211
845,6328;0,069336
846,5970;0,0691744
847,5612;0,069034
848,5255;0,0688987
849,4897;0,0687479
850,4539;0,0685702
851,4182;0,0683735
852,3824;0,0681823
853,3466;0,0680247
854,3109;0,067916
855,2751;0,0678501
856,2393;0,0678023
857,2036;0,0677426
858,1678;0,0676514
859,1320;0,0675291
860,0963;0,0673964
861,0605;0,0672854
862,0247;0,0672265
862,9890;0,0672368
863,9532;0,0673149
864,9174;0,067444
865,8817;0,0676024
866,8459;0,0677726
867,8101;0,0679475
868,7744;0,0681288
869,7386;0,0683209
870,7028;0,0685266
871,6671;0,0687461
872,6313;0,0689789
873,5955;0,0692251
874,5598;0,0694846
875,5240;0,0697538
876,4882;0,070026
877,4525;0,0702971
878,4167;0,0705721
879,3809;0,070869
880,3452;0,0712152
881,3094;0,0716373
882,2736;0,0721522
883,2379;0,0727635
884,2021;0,0734662
885,1663;0,0742529
886,1306;0,0751175
887,0948;0,0760543
888,0590;0,0770537
889,0233;0,0780998
889,9875;0,0791705
890,9517;0,0802394
891,9160;0,0812758
892,8802;0,082243
893,8444;0,083098
894,8087;0,0837945
895,7729;0,0842926
896,7371;0,084569
897,7014;0,0846231
898,6656;0,0844741
899,6298;0,0841527
900,5941;0,0836899
901,5583;0,0831125
902,5225;0,0824451
903,4868;0,0817166
904,4510;0,0809647
905,4152;0,0802338
906,3795;0,0795666
907,3437;0,0789927
908,3079;0,0785232
909,2722;0,078151
910,2364;0,0778597
911,2007;0,0776331
912,1649;0,0774632
913,1292;0,0773508
914,0934;0,0773023
915,0576;0,0773243
916,0219;0,0774184
916,9861;0,0775792
917,9503;0,0777945
918,9146;0,0780478
919,8788;0,0783219
920,8430;0,0786028
921,8073;0,0788821
922,7715;0,0791568
923,7357;0,079426
924,7000;0,0796879
925,6642;0,0799376
926,6284;0,0801692
927,5927;0,0803802
928,5569;0,0805741
929,5211;0,0807614
930,4854;0,0809553
931,4496;0,0811672
932,4138;0,0814043
933,3781;0,0816706
934,3423;0,0819717
935,3065;0,0823179
936,2708;0,0827249
937,2350;0,0832088
938,1992;0,0837808
939,1635;0,0844425
940,1277;0,0851864
941,0919;0,0860001
942,0562;0,0868719
943,0204;0,0877955
943,9846;0,0887716
944,9489;0,0898059
945,9131;0,0909066
946,8773;0,0920805
947,8416;0,0933312
948,8058;0,0946573
949,7700;0,0960546
950,7343;0,0975178
951,6985;0,0990439
952,6627;0,100634
953,6270;0,102293
954,5912;0,104025
955,5554;0,105833
956,5197;0,107715
957,4839;0,109667
958,4481;0,111683
959,4124;0,113764
960,3766;0,115913
961,3408;0,118132
962,3051;0,120419
963,2693;0,122766
964,2335;0,125166
965,1978;0,127611
966,1620;0,1301
967,1262;0,13264
968,0905;0,135246
969,0547;0,137939
970,0189;0,14075
970,9832;0,143715
971,9474;0,146877
972,9116;0,150283
973,8759;0,153973
974,8401;0,157975
975,8043;0,162296
976,7686;0,166914
977,7328;0,171775
978,6970;0,176788
979,6613;0,181824
980,6255;0,186722
981,5897;0,191313
982,5540;0,195446
983,5182;0,199024
984,4824;0,202028
985,4467;0,20452
986,4109;0,206622
987,3751;0,20847
988,3394;0,210183
989,3036;0,211828
990,2678;0,213425
991,2321;0,21496
992,1963;0,21641
993,1605;0,217762
994,1248;0,219017
995,0890;0,220187
996,0532;0,22128
997,0175;0,222297
997,9817;0,223229
998,9459;0,224065
999,9102;0,224811
1000,8744;0,225497
1001,8386;0,226181
1002,8029;0,226942
1003,7671;0,227864
1004,7313;0,229017
1005,6956;0,230449
1006,6598;0,232179
1007,6240;0,234208
1008,5883;0,23652
1009,5525;0,239089
1010,5167;0,24187
1011,4810;0,244799
1012,4452;0,247795
1013,4094;0,250773
1014,3737;0,253657
1015,3379;0,256397
1016,3021;0,258974
1017,2664;0,261387
1018,2306;0,26365
1019,1948;0,265779
1020,1591;0,26779
1021,1233;0,269702
1022,0875;0,271541
1023,0518;0,273331
1024,0160;0,275088
1024,9802;0,27681
1025,9445;0,278474
1026,9087;0,280041
1027,8729;0,281454
1028,8372;0,282639
1029,8014;0,283494
1030,7656;0,283887
1031,7299;0,283666
1032,6941;0,282698
1033,6583;0,280911
1034,6226;0,27834
1035,5868;0,275141
1036,5510;0,271569
1037,5153;0,267933
1038,4795;0,264528
1039,4437;0,261592
1040,4080;0,259272
1041,3722;0,257621
1042,3364;0,256608
1043,3007;0,256139
1044,2649;0,256086
1045,2291;0,256307
1046,1934;0,256672
1047,1576;0,257075
1048,1218;0,257427
1049,0861;0,257654
1050,0503;0,257681
1051,0145;0,257434
1051,9788;0,256849
1052,9430;0,255888
1053,9072;0,254542
1054,8715;0,252823
1055,8357;0,250731
1056,7999;0,248229
1057,7642;0,245234
1058,7284;0,24165
1059,6926;0,237423
1060,6569;0,232593
1061,6211;0,227316
1062,5853;0,221839
1063,5496;0,216432
1064,5138;0,211319
1065,4780;0,206636
1066,4423;0,202416
1067,4065;0,198618
1068,3707;0,195165
1069,3350;0,191981
1070,2992;0,189002
1071,2634;0,18618
1072,2277;0,183468
1073,1919;0,180816
1074,1561;0,178167
1075,1204;0,17547
1076,0846;0,1727
1077,0488;0,169872
1078,0131;0,167047
1078,9773;0,164317
1079,9415;0,16178
1080,9058;0,159518
1081,8700;0,157578
1082,8342;0,155967
1083,7985;0,154664
1084,7627;0,153629
1085,7269;0,152818
1086,6912;0,15219
1087,6554;0,151712
1088,6196;0,151361
1089,5839;0,151126
1090,5481;0,151006
1091,5123;0,151004
1092,4766;0,151124
1093,4408;0,151364
1094,4050;0,151716
1095,3693;0,152163
1096,3335;0,152686
1097,2977;0,153265
1098,2620;0,153879
1099,2262;0,154501
1100,1904;0,155096
1101,1547;0,155618
1102,1189;0,156012
1103,0831;0,156227
1104,0474;0,15624
1105,0116;0,156064
1105,9758;0,155747
1106,9401;0,15535
1107,9043;0,154905
1108,8685;0,15438
1109,8328;0,153677
1110,7970;0,152655
1111,7612;0,151194
1112,7255;0,149249
1113,6897;0,146884
1114,6539;0,144256
1115,6182;0,141565
1116,5824;0,138995
1117,5466;0,136659
1118,5109;0,134587
1119,4751;0,132735
1120,4393;0,131008
1121,4036;0,129293
1122,3678;0,127484
1123,3320;0,125502
1124,2963;0,123307
1125,2605;0,120903
1126,2247;0,11833
1127,1890;0,115654
1128,1532;0,11294
1129,1174;0,110244
1130,0817;0,107599
1131,0459;0,105024
1132,0101;0,102536
1132,9744;0,100155
1133,9386;0,097916
1134,9028;0,0958675
1135,8671;0,0940639
1136,8313;0,0925555
1137,7955;0,0913783
1138,7598;0,0905465
1139,7240;0,0900509
1140,6882;0,0898614
1141,6525;0,0899344
1142,6167;0,0902198
1143,5809;0,0906669
1144,5452;0,0912298
1145,5094;0,0918708
1146,4736;0,0925651
1147,4379;0,0933038
1148,4021;0,0940924
1149,3663;0,0949448
1150,3306;0,0958714
1151,2948;0,0968687
1152,2590;0,0979134
1153,2233;0,0989656
1154,1875;0,0999761
1155,1517;0,100894
1156,1160;0,101667
1157,0802;0,102236
1158,0444;0,102526
1159,0087;0,102447
1159,9729;0,101896
1160,9371;0,10078
1161,9014;0,0990398
1162,8656;0,0966665
1163,8298;0,0937158
1164,7941;0,0903006
1165,7583;0,0865737
1166,7225;0,0827035
1167,6868;0,0788498
1168,6510;0,0751453
1169,6152;0,071686
1170,5795;0,0685313
1171,5437;0,0657091
1172,5079;0,0632244
1173,4722;0,0610664
1174,4364;0,0592129
1175,4006;0,0576338
1176,3649;0,0562936
1177,3291;0,0551558
1178,2933;0,0541864
1179,2576;0,0533562
1180,2218;0,0526417
1181,1860;0,0520258
1182,1503;0,0514986
1183,1145;0,0510584
1184,0787;0,0507103
1185,0430;0,0504635
1186,0072;0,050326
1186,9714;0,050301
1187,9357;0,0503861
1188,8999;0,0505756
1189,8641;0,0508637
1190,8284;0,0512464
1191,7926;0,0517195
1192,7568;0,0522766
1193,7211;0,0529073
1194,6853;0,0535984
1195,6495;0,0543345
1196,6138;0,055099
1197,5780;0,0558733
1198,5422;0,0566374
1199,5065;0,057312
1200,4707;0,0580086
1201,4349;0,0586525
1202,3992;0,0592394
1203,3634;0,0597646
1204,3276;0,0602179
1205,2919;0,0605847
1206,2561;0,0608532
1207,2203;0,0610257
1208,1846;0,0611266
1209,1488;0,0612015
1210,1130;0,0613075
1211,0773;0,061498
1212,0415;0,0618092
1213,0057;0,0622535
1213,9700;0,0628222
1214,9342;0,0634928
1215,8984;0,0642391
1216,8627;0,0650367
1217,8269;0,0658651
1218,7911;0,0667079
1219,7554;0,0675512
1220,7196;0,0683822
1221,6838;0,0691895
1222,6481;0,0699642
1223,6123;0,0707
1224,5765;0,0713946
1225,5408;0,0720495
1226,5050;0,0726689
1227,4692;0,0732583
1228,4335;0,0738216
1229,3977;0,0743583
1230,3619;0,0748619
1231,3262;0,0753199
1232,2904;0,0757173
1233,2546;0,0760413
1234,2189;0,0762872
1235,1831;0,0764599
1236,1473;0,0765735
1237,1116;0,0766463
1238,0758;0,0766951
1239,0400;0,0767319
1240,0043;0,0767621
1240,9685;0,0767855
1241,9327;0,0767969
1242,8970;0,0767871
1243,8612;0,0767429
1244,8254;0,0766504
1245,7897;0,0764993
1246,7539;0,0762881
1247,7181;0,0760261
1248,6824;0,0757296
1249,6466;0,0754165
1250,6108;0,0751007
1251,5751;0,0747905
1252,5393;0,0744915
1253,5035;0,0742103
1254,4678;0,073955
1255,4320;0,073732
1256,3962;0,0735399
1257,3605;0,0733674
1258,3247;0,0731943
1259,2889;0,0729981
1260,2532;0,0727616
1261,2174;0,0724772
1262,1816;0,0721475
1263,1459;0,0717814
1264,1101;0,0713897
1265,0743;0,0709817
1266,0386;0,0705631
1267,0028;0,0701356
1267,9670;0,0696968
1268,9313;0,0692417
1269,8955;0,0687646
1270,8597;0,0682613
1271,8240;0,0677308
1272,7882;0,0671776
1273,7524;0,0666113
1274,7167;0,0660468
1275,6809;0,0655005
1276,6451;0,0649852
1277,6094;0,0645028
1278,5736;0,0640418
1279,5378;0,06358
1280,5021;0,0630936
1281,4663;0,0625689
1282,4305;0,0620086
1283,3948;0,0614302
1284,3590;0,0608594
1285,3232;0,0603232
1286,2875;0,059846
1287,2517;0,0594483
1288,2159;0,0591448
1289,1802;0,058941
1290,1444;0,0588311
1291,1086;0,0588007
1292,0729;0,0588337
1293,0371;0,0589221
1294,0013;0,0590697
1294,9656;0,0592894
1295,9298;0,0595953
1296,8940;0,0599943
1297,8583;0,0604841
1298,8225;0,0610556
1299,7867;0,0616986
1300,7510;0,062405
1301,7152;0,0631704
1302,6794;0,0639925
1303,6437;0,0648704
1304,6079;0,0658035
1305,5721;0,0667887
1306,5364;0,0678182
1307,5006;0,0688782
1308,4648;0,069952
1309,4291;0,0710223
1310,3933;0,0720716
1311,3575;0,0730776
1312,3218;0,0740088
1313,2860;0,0748235
1314,2502;0,0754757
1315,2145;0,0759243
1316,1787;0,0761413
1317,1429;0,0761197
1318,1072;0,07588
1319,0714;0,0754715
1320,0356;0,0749635
1320,9999;0,0744251
1321,9641;0,073907
1322,9283;0,073436
1323,8926;0,0730214
1324,8568;0,0726666
1325,8210;0,0723757
1326,7853;0,0721543
1327,7495;0,0720053
1328,7137;0,0719235
1329,6780;0,0718923
1330,6422;0,071883
1331,6064;0,0718591
1332,5707;0,0717821
1333,5349;0,0716197
1334,4991;0,071348
1335,4634;0,0709509
1336,4276;0,0704193
1337,3918;0,069757
1338,3561;0,0689923
1339,3203;0,0681838
1340,2845;0,0674037
1341,2488;0,0667021
1342,2130;0,0660894
1343,1772;0,0655489
1344,1415;0,0650639
1345,1057;0,0646349
1346,0699;0,064281
1347,0342;0,0640302
1347,9984;0,0639051
1348,9626;0,063913
1349,9269;0,0640428
1350,8911;0,064269
1351,8553;0,064561
1352,8196;0,0648923
1353,7838;0,0652485
1354,7480;0,0656292
1355,7123;0,0660408
1356,6765;0,0664859
1357,6407;0,0669562
1358,6050;0,0674339
1359,5692;0,0678993
1360,5334;0,0683362
1361,4977;0,0687356
1362,4619;0,0691014
1363,4261;0,0694514
1364,3904;0,069806
1365,3546;0,0701718
1366,3188;0,0705383
1367,2831;0,0708821
1368,2473;0,0711735
1369,2115;0,0713797
1370,1758;0,0714682
1371,1400;0,0714086
1372,1042;0,071176
1373,0685;0,0707628
1374,0327;0,0701966
1374,9969;0,0695423
1375,9612;0,0688685
1376,9254;0,0682015
1377,8896;0,0675167
1378,8539;0,0667735
1379,8181;0,0659581
1380,7823;0,0651004
1381,7466;0,0642524
1382,7108;0,0634472
1383,6750;0,0626751
1384,6393;0,0618981
1385,6035;0,0610919
1386,5677;0,0602894
1387,5320;0,0595833
1388,4962;0,0590642
1389,4604;0,0587493
1390,4247;0,058582
1391,3889;0,0584864
1392,3531;0,0584115
1393,3174;0,0583435
1394,2816;0,0582952
1395,2458;0,0582883
1396,2101;0,0583381
1397,1743;0,0584495
1398,1385;0,0586213
1399,1028;0,0588494
1400,0670;0,0591243
1401,0313;0,0594296
1401,9955;0,0597464
1402,9597;0,0600629
1403,9240;0,0603819
1404,8882;0,0607196
1405,8524;0,061095
1406,8167;0,0615162
1407,7809;0,0619764
1408,7451;0,0624636
1409,7094;0,0629732
1410,6736;0,0635113
1411,6378;0,0640836
1412,6021;0,064682
1413,5663;0,0652819
1414,5305;0,0658543
1415,4948;0,0663805
1416,4590;0,0668579
1417,4232;0,0672922
1418,3875;0,0676881
1419,3517;0,0680479
1420,3159;0,0683661
1421,2802;0,0686127
1422,2444;0,068739
1423,2086;0,0687079
1424,1729;0,0685183
1425,1371;0,0681993
1426,1013;0,0677759
1427,0656;0,0672396
1428,0298;0,0665543
1428,9940;0,0657057
1429,9583;0,0647499
1430,9225;0,0637978
1431,8867;0,0629301
1432,8510;0,0621322
1433,8152;0,0613095
1434,7794;0,0603619
1435,7437;0,0592851
1436,7079;0,0582385
1437,6721;0,0574548
1438,6364;0,0570356
1439,6006;0,0568978
1440,5648;0,0568982
1441,5291;0,0569415
1442,4933;0,0570018
1443,4575;0,0570949
1444,4218;0,057242
1445,3860;0,0574464
1446,3502;0,0576933
1447,3145;0,0579641
1448,2787;0,0582498
1449,2429;0,0585509
1450,2072;0,0588621
1451,1714;0,0591609
1452,1356;0,0594098
1453,0999;0,0595675
1454,0641;0,0595913
1455,0283;0,0594206
1455,9926;0,058976
1456,9568;0,058281
1457,9210;0,057619
1458,8853;0,05728
1459,8495;0,057237
1460,8137;0,0572766
1461,7780;0,0571946
1462,7422;0,0568444
1463,7064;0,0561493
1464,6707;0,0551582
1465,6349;0,0540656
1466,5991;0,0530742
1467,5634;0,0522301
1468,5276;0,0514259
1469,4918;0,0504951
1470,4561;0,049278
1471,4203;0,0476729
1472,3845;0,045742
1473,3488;0,0437894
1474,3130;0,0421756
1475,2772;0,0410206
1476,2415;0,0402128
1477,2057;0,0395979
1478,1699;0,0390756
1479,1342;0,038598
1480,0984;0,038147
1481,0626;0,0377248
1482,0269;0,037351
1482,9911;0,0370535
1483,9553;0,0368499
1484,9196;0,0367348
1485,8838;0,0366834
1486,8480;0,0366637
1487,8123;0,0366523
1488,7765;0,0366591
1489,7407;0,0367433
1490,7050;0,0369703
1491,6692;0,0373457
1492,6334;0,0378216
1493,5977;0,0383501
1494,5619;0,0389136
1495,5261;0,0395214
1496,4904;0,040188
1497,4546;0,0409155
1498,4188;0,0416956
1499,3831;0,0425106
1500,3473;0,0433208
1501,3115;0,0440678
1502,2758;0,0446982
1503,2400;0,0451814
1504,2042;0,0455081
1505,1685;0,0456564
1506,1327;0,0455443
1507,0969;0,0451353
1508,0612;0,044674
1509,0254;0,0444386
1509,9896;0,0444143
1510,9539;0,0444515
1511,9181;0,0444349
1512,8823;0,0443064
1513,8466;0,0440445
1514,8108;0,043655
1515,7750;0,0431713
1516,7393;0,0426457
1517,7035;0,0421199
1518,6677;0,0416004
1519,6320;0,0410672
1520,5962;0,040517
1521,5604;0,0399966
1522,5247;0,039579
1523,4889;0,0393008
1524,4531;0,039144
1525,4174;0,0390741
1526,3816;0,0390771
1527,3458;0,0391565
1528,3101;0,0393073
1529,2743;0,0395038
1530,2385;0,039713
1531,2028;0,0399167
1532,1670;0,0401229
1533,1312;0,0403608
1534,0955;0,0406566
1535,0597;0,0410059
1536,0239;0,0413735
1536,9882;0,0417212
1537,9524;0,0420255
1538,9166;0,0422481
1539,8809;0,0422796
1540,8451;0,0420313
1541,8093;0,0416804
1542,7736;0,0414974
1543,7378;0,0415282
1544,7020;0,041682
1545,6663;0,0418789
1546,6305;0,0420753
1547,5947;0,0422444
1548,5590;0,0423638
1549,5232;0,042422
1550,4874;0,042432
1551,4517;0,0424345
1552,4159;0,0424753
1553,3801;0,0425697
1554,3444;0,0426867
1555,3086;0,0427562
1556,2728;0,0426725
1557,2371;0,0422892
1558,2013;0,0415542
1559,1655;0,0408345
1560,1298;0,0406393
1561,0940;0,0409739
1562,0582;0,0415462
1563,0225;0,0421315
1563,9867;0,0426274
1564,9509;0,0430045
1565,9152;0,0432696
1566,8794;0,0434524
1567,8436;0,0436066
1568,8079;0,043805
1569,7721;0,0441074
1570,7363;0,0445189
1571,7006;0,0449896
1572,6648;0,0454584
1573,6290;0,0458933
1574,5933;0,0463009
1575,5575;0,0467128
1576,5217;0,0471669
1577,4860;0,0476935
1578,4502;0,0482968
1579,4144;0,0489502
1580,3787;0,0496209
1581,3429;0,050291
1582,3071;0,0509594
1583,2714;0,0516338
1584,2356;0,0523247
1585,1998;0,0530425
1586,1641;0,0537915
1587,1283;0,054564
1588,0925;0,0553371
1589,0568;0,0560761
1590,0210;0,0567421
1590,9852;0,0572998
1591,9495;0,0577206
1592,9137;0,0579845
1593,8779;0,0580873
1594,8422;0,0580477
1595,8064;0,057906
1596,7706;0,0577095
1597,7349;0,0574953
1598,6991;0,0572832
1599,6633;0,0570809
1600,6276;0,0568922
1601,5918;0,0567229
1602,5560;0,0565812
1603,5203;0,0564729
1604,4845;0,0563955
1605,4487;0,056336
1606,4130;0,0562772
1607,3772;0,0562117
1608,3414;0,056155
1609,3057;0,0561446
1610,2699;0,0562146
1611,2341;0,0563645
1612,1984;0,0565552
1613,1626;0,0567302
1614,1268;0,0568438
1615,0911;0,0568851
1616,0553;0,0569008
1617,0195;0,056988
1617,9838;0,0572154
1618,9480;0,0575571
1619,9122;0,057928
1620,8765;0,0582546
1621,8407;0,0585073
1622,8049;0,0586997
1623,7692;0,0588725
1624,7334;0,0590635
1625,6976;0,0592844
1626,6619;0,0595259
1627,6261;0,0597821
1628,5903;0,0600597
1629,5546;0,0603642
1630,5188;0,0606805
1631,4830;0,0609712
1632,4473;0,0611898
1633,4115;0,06129
1634,3757;0,0612331
1635,3400;0,0610297
1636,3042;0,0608065
1637,2684;0,0607307
1638,2327;0,0608387
1639,1969;0,0610498
1640,1611;0,0612792
1641,1254;0,0614825
1642,0896;0,0616424
1643,0538;0,0617411
1644,0181;0,0617411
1644,9823;0,0615875
1645,9465;0,0612702
1646,9108;0,0609095
1647,8750;0,0606814
1648,8392;0,0606218
1649,8035;0,0605981
1650,7677;0,0603925
1651,7319;0,0597398
1652,6962;0,0584783
1653,6604;0,0569842
1654,6246;0,0559908
1655,5889;0,0556548
1656,5531;0,0556309
1657,5173;0,0556021
1658,4816;0,0554063
1659,4458;0,0549767
1660,4100;0,0542972
1661,3743;0,0534154
1662,3385;0,0524727
1663,3027;0,051649
1664,2670;0,0510336
1665,2312;0,0505766
1666,1954;0,0501455
1667,1597;0,0495952
1668,1239;0,048827
1669,0881;0,0478629
1670,0524;0,0468723
1671,0166;0,0460373
1671,9808;0,0453805
1672,9451;0,0447794
1673,9093;0,0441044
1674,8735;0,0433309
1675,8378;0,0425649
1676,8020;0,0419545
1677,7662;0,0415587
1678,7305;0,0413137
1679,6947;0,0410931
1680,6589;0,0407606
1681,6232;0,0401796
1682,5874;0,0392414
1683,5516;0,0380102
1684,5159;0,0368325
1685,4801;0,0360394
1686,4443;0,0356228
1687,4086;0,0353791
1688,3728;0,0351434
1689,3370;0,0348574
1690,3013;0,0345375
1691,2655;0,0342228
1692,2297;0,0339364
1693,1940;0,0336733
1694,1582;0,0334093
1695,1224;0,0331147
1696,0867;0,0327632
1697,0509;0,0323352
1698,0151;0,0318288
1698,9794;0,0312865
1699,9436;0,0308114
1700,9078;0,0305138
1701,8721;0,0304278
1702,8363;0,030494
1703,8005;0,0306133
1704,7648;0,0307065
1705,7290;0,0307496
1706,6932;0,0307771
1707,6575;0,0308498
1708,6217;0,0310067
1709,5859;0,0312438
1710,5502;0,0315301
1711,5144;0,0318313
1712,4786;0,0321198
1713,4429;0,032371
1714,4071;0,0325516
1715,3713;0,0326166
1716,3356;0,032544
1717,2998;0,0324075
1718,2640;0,0323591
1719,2283;0,0324847
1720,1925;0,0327482
1721,1567;0,0330663
1722,1210;0,033374
1723,0852;0,0336407
1724,0494;0,0338641
1725,0137;0,034059
1725,9779;0,0342458
1726,9421;0,0344398
1727,9064;0,0346417
1728,8706;0,034834
1729,8348;0,0349795
1730,7991;0,0350231
1731,7633;0,0349004
1732,7275;0,034583
1733,6918;0,034152
1734,6560;0,0337801
1735,6202;0,0335709
1736,5845;0,0334776
1737,5487;0,0333818
1738,5129;0,0331865
1739,4772;0,0328562
1740,4414;0,032421
1741,4056;0,0319514
1742,3699;0,0315069
1743,3341;0,0311009
1744,2983;0,0307077
1745,2626;0,0302895
1746,2268;0,0298068
1747,1910;0,0292143
1748,1553;0,0284698
1749,1195;0,0275822
1750,0837;0,0266595
1751,0480;0,0258611
1752,0122;0,0252765
1752,9764;0,024876
1753,9407;0,0245645
1754,9049;0,0242541
1755,8691;0,023903
1756,8334;0,0235177
1757,7976;0,0231261
1758,7618;0,0227423
1759,7261;0,0223557
1760,6903;0,0219529
1761,6545;0,0215491
1762,6188;0,0211903
1763,5830;0,0209176
1764,5472;0,020734
1765,5115;0,0206068
1766,4757;0,0204941
1767,4399;0,0203663
1768,4042;0,0202104
1769,3684;0,0200203
1770,3326;0,0197885
1771,2969;0,0195165
1772,2611;0,0192402
1773,2253;0,0190275
1774,1896;0,0189275
1775,1538;0,0189302
1776,1180;0,0189822
1777,0823;0,0190265
1778,0465;0,0190284
1779,0107;0,0189832
1779,9750;0,018909
1780,9392;0,0188298
1781,9034;0,0187589
1782,8677;0,0186969
1783,8319;0,0186442
1784,7961;0,0186113
1785,7604;0,0186143
1786,7246;0,0186585
1787,6888;0,0187295
1788,6531;0,0187968
1789,6173;0,0188255
1790,5815;0,0187874
1791,5458;0,0186792
1792,5100;0,0185396
1793,4742;0,0184333
1794,4385;0,018398
1795,4027;0,0184209
1796,3669;0,0184627
1797,3312;0,0184883
1798,2954;0,0184794
1799,2596;0,0184344
1800,2239;0,0183662
1801,1881;0,0182969
1802,1523;0,0182487
1803,1166;0,0182337
1804,0808;0,0182513
1805,0450;0,0182911
1806,0093;0,0183381
1806,9735;0,0183759
1807,9377;0,01839
1808,9020;0,0183728
1809,8662;0,0183271
1810,8304;0,0182677
1811,7947;0,0182128
1812,7589;0,0181734
1813,7231;0,0181485
1814,6874;0,0181307
1815,6516;0,0181151
1816,6158;0,0181051
1817,5801;0,0181098
1818,5443;0,0181371
1819,5085;0,0181853
1820,4728;0,0182424
1821,4370;0,018292
1822,4012;0,018322
1823,3655;0,0183306
1824,3297;0,0183256
1825,2939;0,0183178
1826,2582;0,0183112
1827,2224;0,0182993
1828,1866;0,018272
1829,1509;0,0182279
1830,1151;0,0181822
1831,0793;0,0181573
1832,0436;0,0181626
1833,0078;0,0181836
1833,9720;0,0181946
1834,9363;0,0181787
1835,9005;0,0181422
1836,8647;0,0181127
1837,8290;0,0181212
1838,7932;0,0181782
1839,7574;0,0182655
1840,7217;0,0183478
1841,6859;0,0183903
1842,6501;0,0183724
1843,6144;0,0182991
1844,5786;0,0182041
1845,5428;0,0181299
1846,5071;0,0180945
1847,4713;0,0180833
1848,4355;0,018071
1849,3998;0,0180442
1850,3640;0,0180092
1851,3282;0,0179844
1852,2925;0,0179867
1853,2567;0,018021
1854,2209;0,0180787
1855,1852;0,0181453
1856,1494;0,0182075
1857,1136;0,0182586
1858,0779;0,0182981
1859,0421;0,0183277
1860,0063;0,01835
1860,9706;0,0183676
1861,9348;0,0183837
1862,8990;0,0184017
1863,8633;0,0184243
1864,8275;0,0184529
1865,7917;0,0184859
1866,7560;0,0185159
1867,7202;0,0185289
1868,6844;0,0185124
1869,6487;0,0184687
1870,6129;0,0184126
1871,5771;0,0183569
1872,5414;0,0183055
1873,5056;0,0182585
1874,4698;0,0182205
1875,4341;0,0182014
1876,3983;0,0182128
1877,3625;0,0182601
1878,3268;0,0183364
1879,2910;0,0184218
1880,2552;0,0184892
1881,2195;0,0185152
1882,1837;0,018491
1883,1479;0,0184279
1884,1122;0,0183517
1885,0764;0,0182901
1886,0406;0,0182604
1887,0049;0,0182637
1887,9691;0,0182884
1888,9333;0,0183185
1889,8976;0,0183428
1890,8618;0,0183595
1891,8260;0,0183717
1892,7903;0,018382
1893,7545;0,018392
1894,7188;0,0184049
1895,6830;0,0184266
1896,6472;0,0184612
1897,6115;0,0185042
1898,5757;0,0185401
1899,5399;0,0185484
1900,5042;0,0185156
1901,4684;0,0184439
1902,4326;0,0183529
1903,3969;0,0182696
1904,3611;0,0182142
1905,3253;0,0181925
1906,2896;0,0181987
1907,2538;0,018225
1908,2180;0,0182672
1909,1823;0,0183229
1910,1465;0,0183841
1911,1107;0,0184339
1912,0750;0,0184537
1913,0392;0,0184337
1914,0034;0,0183821
1914,9677;0,0183245
1915,9319;0,0182944
1916,8961;0,0183154
1917,8604;0,018386
1918,8246;0,0184789
1919,7888;0,0185583
1920,7531;0,0185997
1921,7173;0,018598
1922,6815;0,0185642
1923,6458;0,018517
1924,6100;0,018474
1925,5742;0,0184454
1926,5385;0,0184326
1927,5027;0,0184305
1928,4669;0,0184305
1929,4312;0,0184244
1930,3954;0,0184082
1931,3596;0,0183873
1932,3239;0,0183751
1933,2881;0,0183869
1934,2523;0,018429
1935,2166;0,0184905
1936,1808;0,0185443
1937,1450;0,0185584
1938,1093;0,018511
1939,0735;0,0184017
1940,0377;0,0182543
1941,0020;0,0181102
1941,9662;0,0180128
1942,9304;0,0179856
1943,8947;0,0180203
1944,8589;0,0180841
1945,8231;0,018143
1946,7874;0,0181808
1947,7516;0,0182028
1948,7158;0,0182245
1949,6801;0,018256
1950,6443;0,0182927
1951,6085;0,018322
1952,5728;0,0183407
1953,5370;0,0183677
1954,5012;0,0184371
1955,4655;0,0185725
1956,4297;0,018761
1957,3939;0,0189484
1958,3582;0,0190642
1959,3224;0,0190622
1960,2866;0,0189494
1961,2509;0,0187811
1962,2151;0,0186267
1963,1793;0,0185357
1964,1436;0,0185269
1965,1078;0,0186005
1966,0720;0,0187479
1967,0363;0,0189467
1968,0005;0,0191466
1968,9647;0,0192725
1969,9290;0,0192575
1970,8932;0,0190864
1971,8574;0,0188207
1972,8217;0,0185818
1973,7859;0,0184961
1974,7501;0,0186235
1975,7144;0,0189167
1976,6786;0,0192446
1977,6428;0,0194747
1978,6071;0,0195542
1979,5713;0,0195251
1980,5355;0,0194733
1981,4998;0,0194608
1982,4640;0,0194923
1983,4282;0,0195261
1984,3925;0,0195115
1985,3567;0,019427
1986,3209;0,0192961
1987,2852;0,0191729
1988,2494;0,0191089
1989,2136;0,0191248
1990,1779;0,0192036
1991,1421;0,0193061
1992,1063;0,0193984
1993,0706;0,0194703
1994,0348;0,0195332
1994,9990;0,0196023
1995,9633;0,0196794
1996,9275;0,0197473
1997,8917;0,0197762
1998,8560;0,0197384
1999,8202;0,0196245
2000,7844;0,0194559
2001,7487;0,0192857
2002,7129;0,0191858
2003,6771;0,0192237
2004,6414;0,0194322
2005,6056;0,0197858
2006,5698;0,0201989
2007,5341;0,0205576
2008,4983;0,0207711
2009,4625;0,0208115
2010,4268;0,020718
2011,3910;0,0205693
2012,3552;0,0204458
2013,3195;0,0204027
2014,2837;0,0204584
2015,2479;0,0205954
2016,2122;0,0207691
2017,1764;0,0209219
2018,1406;0,0210025
2019,1049;0,020981
2020,0691;0,0208551
2021,0333;0,0206467
2021,9976;0,0203945
2022,9618;0,0201455
2023,9260;0,0199476
2024,8903;0,0198398
2025,8545;0,0198434
2026,8187;0,019956
2027,7830;0,0201534
2028,7472;0,0203985
2029,7114;0,0206545
2030,6757;0,0208953
2031,6399;0,0211096
2032,6041;0,0212984
2033,5684;0,0214671
2034,5326;0,0216144
2035,4968;0,0217255
2036,4611;0,0217714
2037,4253;0,0217211
2038,3895;0,0215611
2039,3538;0,0213154
2040,3180;0,0210497
2041,2822;0,0208516
2042,2465;0,0207919
2043,2107;0,0208878
2044,1749;0,0210946
2045,1392;0,0213286
2046,1034;0,0215081
2047,0676;0,021589
2048,0320;0,0215774
2048,9961;0,0215126
2049,9604;0,0214367
2050,9246;0,0213727
2051,8889;0,021322
2052,8530;0,0212756
2053,8174;0,0212273
2054,7815;0,0211811
2055,7458;0,0211509
2056,7100;0,0211541
2057,6743;0,0212023
2058,6384;0,0212936
2059,6028;0,0214103
2060,5669;0,0215238
2061,5313;0,0216038
2062,4954;0,0216313
2063,4597;0,0216076
2064,4238;0,0215557
2065,3882;0,0215099
2066,3523;0,0214996
2067,3167;0,0215333
2068,2808;0,0215954
2069,2451;0,0216548
2070,2092;0,0216831
2071,1736;0,0216699
2072,1377;0,0216287
2073,1021;0,0215882
2074,0662;0,0215754
2075,0305;0,0216009
2075,9946;0,0216552
2076,9590;0,0217177
2077,9231;0,021769
2078,8875;0,0217992
2079,8516;0,0218067
2080,8159;0,0217931
2081,7800;0,0217596
2082,7444;0,0217084
2083,7085;0,0216464
2084,6729;0,0215855
2085,6370;0,021536
2086,6013;0,0214988
2087,5654;0,0214618
2088,5298;0,0214076
2089,4939;0,021328
2090,4583;0,0212359
2091,4224;0,0211654
2092,3867;0,0211556
2093,3508;0,0212293
2094,3152;0,021377
2095,2793;0,0215598
2096,2437;0,0217288
2097,2078;0,0218496
2098,1721;0,0219144
2099,1362;0,0219358
2100,1006;0,0219303
2101,0647;0,0219048
2102,0291;0,0218587
2102,9932;0,0217919
2103,9575;0,0217138
2104,9216;0,0216427
2105,8860;0,0215976
2106,8501;0,02159
2107,8145;0,0216202
2108,7786;0,0216807
2109,7429;0,0217591
2110,7070;0,0218386
2111,6714;0,0218975
2112,6355;0,0219133
2113,5999;0,0218737
2114,5640;0,0217877
2115,5283;0,0216882
2116,4924;0,0216206
2117,4568;0,0216218
2118,4209;0,0217019
2119,3853;0,021838
2120,3494;0,0219845
2121,3137;0,0220931
2122,2778;0,0221312
2123,2422;0,022092
2124,2063;0,0219933
2125,1707;0,0218684
2126,1348;0,0217541
2127,0991;0,0216795
2128,0632;0,0216582
2129,0276;0,0216889
2129,9917;0,0217622
2130,9561;0,0218711
2131,9202;0,0220181
2132,8845;0,0222095
2133,8486;0,0224414
2134,8130;0,0226855
2135,7771;0,0228899
2136,7415;0,0230006
2137,7056;0,0229904
2138,6699;0,0228756
2139,6340;0,0227088
2140,5984;0,0225551
2141,5625;0,0224659
2142,5269;0,0224663
2143,4910;0,0225585
2144,4553;0,0227325
2145,4194;0,0229733
2146,3838;0,0232605
2147,3479;0,0235638
2148,3123;0,0238438
2149,2764;0,0240609
2150,2407;0,0241857
2151,2048;0,0242076
2152,1692;0,024137
2153,1333;0,0240059
2154,0977;0,0238702
2155,0618;0,0238098
2156,0261;0,0239144
2156,9902;0,024241
2157,9546;0,0247523
2158,9187;0,025291
2159,8831;0,0256474
2160,8472;0,0256845
2161,8115;0,0254106
2162,7756;0,0249488
2163,7400;0,0244484
2164,7041;0,0240058
2165,6685;0,0236354
2166,6326;0,0232983
2167,5969;0,0229637
2168,5610;0,0226563
2169,5254;0,022453
2170,4895;0,0224317
2171,4539;0,0226103
2172,4180;0,0229194
2173,3823;0,0232307
2174,3464;0,0234244
2175,3108;0,0234532
2176,2749;0,0233579
2177,2393;0,0232281
2178,2034;0,0231413
2179,1677;0,0231234
2180,1318;0,0231528
2181,0962;0,0231929
2182,0603;0,0232236
2183,0247;0,023248
2183,9888;0,0232724
2184,9531;0,023284
2185,9172;0,0232481
2186,8816;0,0231316
2187,8457;0,0229351
2188,8101;0,0227076
2189,7742;0,022531
2190,7385;0,022479
2191,7026;0,0225759
2192,6670;0,0227798
2193,6311;0,0230038
2194,5955;0,0231606
2195,5596;0,0232056
2196,5239;0,0231522
2197,4880;0,0230541
2198,4524;0,0229688
2199,4165;0,0229285
2200,3809;0,0229315
2201,3450;0,0229553
2202,3093;0,0229751
2203,2734;0,0229744
2204,2378;0,0229437
2205,2019;0,0228772
2206,1663;0,0227735
2207,1304;0,0226433
2208,0947;0,0225138
2209,0588;0,0224219
2210,0232;0,0223973
2210,9873;0,0224456
2211,9517;0,0225439
2212,9158;0,0226519
2213,8801;0,0227311
2214,8442;0,0227594
2215,8086;0,0227351
2216,7727;0,0226706
2217,7371;0,0225845
2218,7012;0,0224983
2219,6655;0,0224333
2220,6296;0,0224076
2221,5940;0,0224274
2222,5581;0,022481
2223,5225;0,02254
2224,4866;0,0225721
2225,4509;0,0225575
2226,4150;0,0225006
2227,3794;0,0224273
2228,3435;0,0223719
2229,3079;0,0223594
2230,2720;0,0223938
2231,2363;0,022459
2232,2004;0,0225271
2233,1648;0,0225715
2234,1289;0,0225772
2235,0933;0,0225458
2236,0574;0,022493
2237,0217;0,0224403
2237,9858;0,0224046
2238,9502;0,0223904
2239,9143;0,0223901
2240,8787;0,0223917
2241,8428;0,0223891
2242,8071;0,0223857
2243,7712;0,0223898
2244,7356;0,0224041
2245,6997;0,0224178
2246,6641;0,0224097
2247,6282;0,0223608
2248,5925;0,0222678
2249,5566;0,022149
2250,5210;0,0220372
2251,4851;0,0219646
2252,4495;0,0219493
2253,4136;0,0219888
2254,3779;0,0220639
2255,3420;0,0221482
2256,3064;0,0222188
2257,2705;0,0222625
2258,2349;0,0222778
2259,1990;0,0222719
2260,1633;0,0222564
2261,1274;0,0222417
2262,0918;0,0222332
2263,0559;0,0222309
2264,0203;0,0222314
2264,9844;0,0222319
2265,9487;0,0222328
2266,9128;0,0222372
2267,8772;0,0222485
2268,8413;0,0222676
2269,8057;0,0222922
2270,7698;0,0223172
2271,7341;0,0223361
2272,6982;0,0223409
2273,6626;0,022324
2274,6267;0,0222804
2275,5911;0,0222128
2276,5552;0,0221338
2277,5195;0,0220644
2278,4836;0,0220258
2279,4480;0,0220294
2280,4121;0,0220711
2281,3765;0,0221338
2282,3406;0,0221976
2283,3049;0,0222497
2284,2690;0,0222892
2285,2334;0,0223231
2286,1975;0,0223583
2287,1619;0,0223966
2288,1260;0,0224346
2289,0903;0,0224696
2290,0544;0,022504
2291,0188;0,0225443
2291,9829;0,0225949
2292,9473;0,0226515
2293,9114;0,0227019
2294,8757;0,0227326
2295,8398;0,0227393
2296,8042;0,0227312
2297,7683;0,0227262
2298,7327;0,0227391
2299,6968;0,022771
2300,6611;0,022808
2301,6252;0,0228305
2302,5896;0,0228272
2303,5537;0,022804
2304,5181;0,0227811
2305,4822;0,0227804
2306,4465;0,0228089
2307,4106;0,0228509
2308,3750;0,0228737
2309,3391;0,0228465
2310,3035;0,0227617
2311,2676;0,0226444
2312,2319;0,0225418
2313,1960;0,0224963
2314,1604;0,0225212
2315,1245;0,0225938
2316,0889;0,0226703
2317,0530;0,0227119
2318,0173;0,0227058
2318,9814;0,02267
2319,9458;0,0226398
2320,9099;0,0226449
2321,8743;0,0226913
2322,8384;0,0227618
2323,8027;0,0228305
2324,7668;0,0228765
2325,7312;0,0228909
2326,6953;0,0228763
2327,6597;0,0228428
2328,6238;0,022803
2329,5881;0,0227696
2330,5522;0,0227576
2331,5166;0,0227844
2332,4807;0,022862
2333,4451;0,022986
2334,4092;0,0231338
2335,3735;0,0232747
2336,3376;0,0233844
2337,3020;0,0234539
2338,2661;0,0234881
2339,2305;0,0234939
2340,1946;0,0234629
2341,1589;0,0233617
2342,1230;0,02315
2343,0874;0,0228405
2344,0515;0,0225627
2345,0159;0,0225102
2345,9800;0,0227708
2346,9443;0,0232421
2347,9084;0,0237196
2348,8728;0,0240297
2349,8369;0,0241032
2350,8013;0,0239835
2351,7654;0,0237899
2352,7297;0,0236501
2353,6938;0,0236361
2354,6582;0,0237513
2355,6223;0,0239634
2356,5867;0,0242212
2357,5508;0,024441
2358,5151;0,0245176
2359,4792;0,0243803
2360,4436;0,0240458
2361,4077;0,0236065
2362,3721;0,0231686
2363,3362;0,0228014
2364,3005;0,0225264
2365,2646;0,0223273
2366,2290;0,0221641
2367,1931;0,0219891
2368,1575;0,0217683
2369,1216;0,0215
2370,0859;0,0212166
2371,0500;0,0209676
2372,0144;0,0207935
2372,9785;0,0207099
2373,9429;0,0207099
2374,9070;0,020777
2375,8713;0,0208982
2376,8354;0,021068
2377,7998;0,0212833
2378,7639;0,0215347
2379,7283;0,021802
2380,6924;0,0220578
2381,6567;0,0222757
2382,6208;0,0224393
2383,5852;0,0225467
2384,5493;0,0226076
2385,5137;0,0226375
2386,4778;0,0226504
2387,4421;0,0226552
2388,4063;0,0226564
2389,3706;0,022657
2390,3347;0,022661
2391,2991;0,022673
2392,2632;0,0226953
2393,2275;0,022726
2394,1917;0,0227592
2395,1560;0,0227885
2396,1201;0,0228107
2397,0845;0,0228281
2398,0486;0,022847
2399,0129;0,0228729
2399,9771;0,022907
2400,9414;0,0229469
2401,9055;0,0229884
2402,8699;0,0230297
2403,8340;0,0230723
2404,7983;0,0231189
2405,7625;0,0231686
2406,7268;0,0232143
2407,6909;0,0232446
2408,6553;0,0232511
2409,6194;0,0232343
2410,5837;0,0232063
2411,5479;0,023186
2412,5122;0,0231887
2413,4763;0,0232185
2414,4407;0,0232661
2415,4048;0,0233158
2416,3691;0,0233552
2417,3333;0,0233819
2418,2976;0,0234025
2419,2617;0,0234253
2420,2261;0,0234535
2421,1902;0,0234824
2422,1545;0,0235044
2423,1187;0,0235153
2424,0830;0,0235182
2425,0471;0,0235204
2426,0115;0,0235283
2426,9756;0,0235433
2427,9399;0,0235623
2428,9041;0,0235822
2429,8684;0,0236036
2430,8325;0,0236308
2431,7969;0,0236682
2432,7610;0,0237158
2433,7253;0,0237681
2434,6895;0,023816
2435,6538;0,0238512
2436,6179;0,0238693
2437,5823;0,0238707
2438,5464;0,0238597
2439,5107;0,0238429
2440,4749;0,0238278
2441,4392;0,0238217
2442,4033;0,0238303
2443,3677;0,0238555
2444,3318;0,0238941
2445,2961;0,0239385
2446,2603;0,0239807
2447,2246;0,0240162
2448,1887;0,024047
2449,1531;0,0240796
2450,1172;0,0241198
2451,0815;0,0241667
2452,0457;0,0242108
2453,0100;0,0242386
2453,9741;0,0242414
2454,9385;0,0242217
2455,9026;0,0241937
2456,8669;0,024176
2457,8311;0,0241813
2458,7954;0,0242102
2459,7595;0,0242516
2460,7239;0,0242914
2461,6880;0,0243211
2462,6523;0,0243419
2463,6165;0,0243628
2464,5808;0,0243928
2465,5449;0,0244345
2466,5093;0,0244818
2467,4734;0,024522
2468,4377;0,0245431
2469,4019;0,02454
2470,3662;0,0245182
2471,3303;0,0244921
2472,2947;0,0244787
2473,2588;0,0244902
2474,2231;0,0245289
2475,1873;0,0245868
2476,1516;0,0246508
2477,1157;0,0247089
2478,0801;0,0247546
2479,0442;0,0247864
2480,0085;0,024806
2480,9727;0,024816
2481,9370;0,0248196
2482,9011;0,024821
2483,8655;0,0248248
2484,8296;0,0248336
2485,7939;0,0248462
2486,7581;0,0248589
2487,7224;0,0248691
2488,6865;0,0248794
2489,6509;0,0248965
2490,6150;0,0249255
2491,5793;0,0249645
2492,5435;0,0250021
2493,5078;0,0250235
2494,4719;0,0250192
2495,4363;0,0249915
2496,4004;0,0249536
2497,3647;0,0249233
2498,3289;0,0249142
2499,2932;0,0249315
2500,2573;0,0249723
2501,2217;0,0250289
2502,1858;0,0250916
2503,1501;0,0251509
2504,1143;0,0251986
2505,0786;0,02523
2506,0427;0,0252459
2507,0071;0,0252521
2507,9712;0,0252559
2508,9355;0,0252625
2509,8997;0,0252719
2510,8640;0,0252811
2511,8281;0,0252882
2512,7925;0,0252959
2513,7566;0,0253103
2514,7209;0,0253367
2515,6851;0,0253745
2516,6494;0,0254152
2517,6135;0,0254458
2518,5779;0,0254551
2519,5420;0,0254392
2520,5063;0,0254036
2521,4705;0,0253616
2522,4348;0,0253293
2523,3989;0,0253194
2524,3633;0,0253367
2525,3274;0,0253755
2526,2917;0,0254226
2527,2559;0,025462
2528,2202;0,0254826
2529,1843;0,0254831
2530,1487;0,0254716
2531,1128;0,025461
2532,0771;0,0254611
2533,0413;0,0254737
2534,0056;0,025493
2534,9697;0,0255106
2535,9341;0,0255222
2536,8982;0,0255307
2537,8625;0,0255432
2538,8267;0,025565
2539,7910;0,0255949
2540,7551;0,0256254
2541,7195;0,025648
2542,6836;0,0256604
2543,6479;0,0256688
2544,6121;0,0256849
2545,5764;0,0257164
2546,5405;0,0257612
2547,5049;0,0258063
2548,4690;0,0258355
2549,4333;0,0258396
2550,3975;0,0258225
2551,3618;0,0257997
2552,3259;0,0257892
2553,2903;0,0258017
2554,2544;0,0258349
2555,2188;0,0258761
2556,1829;0,0259099
2557,1472;0,0259258
2558,1113;0,0259222
2559,0757;0,0259059
2560,0398;0,025888
2561,0042;0,0258792
2561,9683;0,0258866
2562,9326;0,0259116
2563,8967;0,0259505
2564,8611;0,0259955
2565,8252;0,0260382
2566,7896;0,0260724
2567,7537;0,0260951
2568,7180;0,0261062
2569,6821;0,0261059
2570,6465;0,0260946
2571,6106;0,0260739
2572,5750;0,0260487
2573,5391;0,0260279
2574,5034;0,026021
2575,4675;0,0260334
2576,4319;0,026062
2577,3960;0,0260961
2578,3604;0,0261235
2579,3245;0,0261369
2580,2888;0,0261373
2581,2529;0,0261321
2582,2173;0,0261294
2583,1814;0,0261334
2584,1458;0,0261441
2585,1099;0,0261597
2586,0742;0,0261799
2587,0383;0,0262061
2588,0027;0,0262386
2588,9668;0,0262747
2589,9312;0,0263087
2590,8953;0,0263352
2591,8596;0,0263527
2592,8237;0,0263647
2593,7881;0,0263774
2594,7522;0,0263953
2595,7166;0,0264199
2596,6807;0,0264491
2597,6450;0,0264801
2598,6091;0,0265111
2599,5735;0,0265412
2600,5376;0,0265701
2601,5020;0,0265975
2602,4661;0,0266234
2603,4304;0,0266493
2604,3945;0,0266767
2605,3589;0,0267056
2606,3230;0,026733
2607,2874;0,0267535
2608,2515;0,0267632
2609,2158;0,0267644
2610,1799;0,0267664
2611,1443;0,0267818
2612,1084;0,0268187
2613,0728;0,0268745
2614,0369;0,0269363
2615,0012;0,026987
2615,9653;0,0270157
2616,9297;0,0270233
2617,8938;0,0270213
2618,8582;0,0270246
2619,8223;0,027042
2620,7866;0,0270724
2621,7507;0,0271072
2622,7151;0,0271378
2623,6792;0,0271612
2624,6436;0,0271813
2625,6077;0,027205
2626,5720;0,0272365
2627,5361;0,0272744
2628,5005;0,0273126
2629,4646;0,0273447
2630,4290;0,0273676
2631,3931;0,0273826
2632,3574;0,0273943
2633,3215;0,0274076
2634,2859;0,0274258
2635,2500;0,02745
2636,2144;0,0274804
2637,1785;0,0275167
2638,1428;0,0275587
2639,1069;0,0276058
2640,0713;0,0276558
2641,0354;0,0277051
2641,9998;0,0277496
2642,9639;0,0277859
2643,9282;0,0278136
2644,8923;0,0278353
2645,8567;0,0278556
2646,8208;0,027879
2647,7852;0,0279075
2648,7493;0,0279395
2649,7136;0,0279709
2650,6777;0,0279979
2651,6421;0,028019
2652,6062;0,0280361
2653,5706;0,0280528
2654,5347;0,028072
2655,4990;0,0280942
2656,4631;0,0281174
2657,4275;0,0281388
2658,3916;0,0281572
2659,3560;0,0281732
2660,3201;0,028189
2661,2844;0,0282063
2662,2485;0,0282257
2663,2129;0,0282467
2664,1770;0,0282688
2665,1414;0,0282921
2666,1055;0,0283172
2667,0698;0,0283444
2668,0339;0,0283731
2668,9983;0,0284021
2669,9624;0,0284304
2670,9268;0,028458
2671,8909;0,0284858
2672,8552;0,0285147
2673,8193;0,0285439
2674,7837;0,0285715
2675,7478;0,028595
2676,7122;0,0286135
2677,6763;0,0286286
2678,6406;0,0286445
2679,6047;0,0286667
2680,5691;0,0286994
2681,5332;0,0287435
2682,4976;0,0287963
2683,4617;0,0288519
2684,4260;0,0289042
2685,3901;0,0289491
2686,3545;0,0289858
2687,3186;0,0290166
2688,2830;0,029045
2689,2471;0,0290743
2690,2114;0,0291061
2691,1755;0,0291408
2692,1399;0,0291784
2693,1040;0,0292183
2694,0684;0,0292597
2695,0325;0,0293009
2695,9968;0,0293395
2696,9609;0,0293733
2697,9253;0,0294017
2698,8894;0,0294261
2699,8538;0,0294502
2700,8179;0,029478
2701,7822;0,0295128
2702,7463;0,0295556
2703,7107;0,0296046
2704,6748;0,029656
2705,6392;0,0297054
2706,6033;0,0297497
2707,5676;0,0297884
2708,5317;0,0298235
2709,4961;0,0298583
2710,4602;0,0298951
2711,4246;0,0299336
2712,3887;0,0299715
2713,3530;0,0300069
2714,3171;0,0300401
2715,2815;0,0300742
2716,2456;0,0301127
2717,2100;0,0301573
2718,1741;0,030206
2719,1384;0,0302536
2720,1025;0,0302943
2721,0669;0,0303245
2722,0310;0,0303441
2722,9954;0,0303566
2723,9595;0,0303677
2724,9238;0,0303839
2725,8879;0,0304108
2726,8523;0,0304505
2727,8164;0,0305013
2728,7808;0,0305568
2729,7449;0,0306088
2730,7092;0,0306502
2731,6733;0,0306784
2732,6377;0,0306959
2733,6018;0,0307086
2734,5662;0,0307227
2735,5303;0,0307425
2736,4946;0,0307691
2737,4587;0,0308014
2738,4231;0,0308375
2739,3872;0,030875
2740,3516;0,0309115
2741,3157;0,0309452
2742,2800;0,030975
2743,2441;0,031001
2744,2085;0,0310241
2745,1726;0,0310451
2746,1370;0,0310644
2747,1011;0,0310825
2748,0654;0,0311013
2749,0295;0,0311245
2749,9939;0,0311566
2750,9580;0,0312
2751,9224;0,0312523
2752,8865;0,0313072
2753,8508;0,0313574
2754,8149;0,0313984
2755,7793;0,0314315
2756,7434;0,0314624
2757,7078;0,0314969
2758,6719;0,0315369
2759,6362;0,0315795
2760,6003;0,0316198
2761,5647;0,0316547
2762,5288;0,0316857
2763,4932;0,0317185
2764,4573;0,0317595
2765,4216;0,0318114
2766,3857;0,0318723
2767,3501;0,0319365
2768,3142;0,0319976
2769,2786;0,0320507
2770,2427;0,0320945
2771,2070;0,0321298
2772,1711;0,0321599
2773,1355;0,0321894
2774,0996;0,0322232
2775,0640;0,0322652
2776,0281;0,0323162
2776,9924;0,0323735
2777,9565;0,0324323
2778,9209;0,032488
2779,8850;0,0325396
2780,8494;0,0325903
2781,8135;0,0326452
2782,7778;0,0327072
2783,7419;0,032775
2784,7063;0,0328432
2785,6704;0,0329062
2786,6348;0,032962
2787,5989;0,0330139
2788,5632;0,0330684
2789,5273;0,0331312
2790,4917;0,0332045
2791,4558;0,0332866
2792,4202;0,0333735
2793,3843;0,0334618
2794,3486;0,0335499
2795,3127;0,0336372
2796,2771;0,033723
2797,2412;0,0338069
2798,2056;0,0338893
2799,1697;0,0339727
2800,1340;0,0340617
2801,0981;0,0341609
2802,0625;0,0342728
2803,0266;0,034395
2803,9910;0,0345212
2804,9551;0,0346432
2805,9194;0,0347549
2806,8835;0,0348548
2807,8479;0,0349473
2808,8120;0,0350413
2809,7764;0,0351465
2810,7405;0,0352695
2811,7048;0,0354103
2812,6689;0,035563
2813,6333;0,0357179
2814,5974;0,035867
2815,5618;0,036007
2816,5259;0,0361404
2817,4902;0,0362739
2818,4543;0,0364143
2819,4187;0,0365656
2820,3828;0,0367273
2821,3472;0,0368962
2822,3113;0,0370683
2823,2756;0,0372415
2824,2397;0,0374172
2825,2041;0,0375995
2826,1682;0,0377938
2827,1326;0,038004
2828,0967;0,0382308
2829,0610;0,0384716
2830,0251;0,0387226
2830,9895;0,0389811
2831,9536;0,0392474
2832,9180;0,0395238
2833,8821;0,0398122
2834,8464;0,0401125
2835,8105;0,0404236
2836,7749;0,0407458
2837,7390;0,0410842
2838,7034;0,0414494
2839,6675;0,0418552
2840,6318;0,0423145
2841,5959;0,0428366
2842,5603;0,0434246
2843,5244;0,0440749
2844,4888;0,0447743
2845,4529;0,045497
2846,4172;0,0462029
2847,3813;0,0468407
2848,3457;0,047359
2849,3098;0,0477195
2850,2742;0,0479101
2851,2383;0,0479473
2852,2026;0,0478701
2853,1667;0,0477261
2854,1311;0,0475576
2855,0952;0,0473934
2856,0596;0,0472481
2857,0237;0,047128
2857,9880;0,0470369
2858,9521;0,0469797
2859,9165;0,0469621
2860,8806;0,0469868
2861,8450;0,0470518
2862,8091;0,0471502
2863,7734;0,0472735
2864,7375;0,0474152
2865,7019;0,047572
2866,6660;0,0477416
2867,6304;0,0479189
2868,5945;0,0480943
2869,5588;0,0482549
2870,5229;0,0483892
2871,4873;0,0484917
2872,4514;0,048566
2873,4158;0,0486222
2874,3799;0,0486736
2875,3442;0,0487315
2876,3083;0,0488028
2877,2727;0,0488901
2878,2368;0,0489925
2879,2012;0,0491069
2880,1653;0,0492289
2881,1296;0,0493547
2882,0938;0,0494817
2883,0581;0,0496101
2884,0222;0,0497416
2884,9866;0,0498784
2885,9507;0,0500205
2886,9150;0,050166
2887,8792;0,0503114
2888,8435;0,0504546
2889,8076;0,0505957
2890,7720;0,050737
2891,7361;0,0508815
2892,7004;0,0510311
2893,6646;0,0511857
2894,6289;0,0513436
2895,5930;0,0515022
2896,5574;0,0516585
2897,5215;0,051809
2898,4858;0,0519502
2899,4500;0,0520797
2900,4143;0,0521979
2901,3784;0,0523081
2902,3428;0,0524157
2903,3069;0,0525265
2904,2712;0,0526444
2905,2354;0,0527716
2906,1997;0,0529104
2907,1638;0,0530659
2908,1282;0,0532472
2909,0923;0,053466
2910,0566;0,0537321
2911,0208;0,0540483
2911,9851;0,0544052
2912,9492;0,0547795
2913,9136;0,0551372
2914,8777;0,0554391
2915,8420;0,05565
2916,8062;0,0557461
2917,7705;0,0557193
2918,7346;0,0555776
2919,6990;0,0553408
2920,6631;0,0550341
2921,6274;0,0546823
2922,5916;0,0543056
2923,5559;0,0539185
2924,5200;0,0535296
2925,4844;0,0531429
2926,4485;0,05276
2927,4128;0,0523815
2928,3770;0,0520086
2929,3413;0,0516429
2930,3054;0,0512853
2931,2698;0,0509355
2932,2339;0,0505922
2933,1982;0,0502542
2934,1624;0,0499228
2935,1267;0,0496008
2936,0908;0,0492912
2937,0552;0,0489942
2938,0193;0,0487058
2938,9836;0,0484185
2939,9478;0,0481253
2940,9121;0,0478217
2941,8762;0,0475073
2942,8406;0,047185
2943,8047;0,0468588
2944,7690;0,0465342
2945,7332;0,0462179
2946,6975;0,0459178
2947,6616;0,0456407
2948,6260;0,0453891
2949,5901;0,045159
2950,5544;0,0449409
2951,5186;0,0447237
2952,4829;0,0445006
2953,4470;0,0442717
2954,4114;0,0440428
2955,3755;0,0438217
2956,3398;0,0436129
2957,3040;0,0434157
2958,2683;0,0432247
2959,2324;0,0430337
2960,1968;0,0428379
2961,1609;0,0426363
2962,1252;0,0424306
2963,0894;0,0422242
2964,0537;0,0420199
2965,0178;0,0418191
2965,9822;0,0416206
2966,9463;0,0414206
2967,9106;0,0412136
2968,8748;0,0409941
2969,8391;0,0407588
2970,8032;0,0405093
2971,7676;0,0402526
2972,7317;0,0399998
2973,6960;0,0397616
2974,6602;0,0395449
2975,6245;0,0393499
2976,5886;0,0391723
2977,5530;0,0390061
2978,5171;0,0388484
2979,4814;0,0387004
2980,4456;0,038566
2981,4099;0,0384483
2982,3740;0,038347
2983,3384;0,0382584
2984,3025;0,0381776
2985,2668;0,0381013
2986,2310;0,0380288
2987,1953;0,0379616
2988,1594;0,0379023
2989,1238;0,0378536
2990,0879;0,037817
2991,0522;0,0377934
2992,0164;0,0377812
2992,9807;0,0377773
2993,9448;0,0377774
2994,9092;0,0377792
2995,8733;0,0377842
2996,8376;0,0377973
2997,8018;0,0378237
2998,7661;0,0378645
2999,7302;0,0379145
3000,6946;0,0379651
3001,6587;0,0380085
3002,6230;0,0380433
3003,5872;0,0380752
3004,5515;0,0381129
3005,5156;0,0381634
3006,4800;0,0382277
3007,4441;0,0383005
3008,4084;0,0383738
3009,3726;0,0384404
3010,3369;0,0384963
3011,3010;0,0385416
3012,2654;0,0385798
3013,2295;0,0386172
3014,1938;0,0386609
3015,1580;0,0387172
3016,1223;0,038789
3017,0864;0,0388751
3018,0508;0,0389711
3019,0149;0,0390708
3019,9792;0,0391686
3020,9434;0,0392621
3021,9077;0,0393516
3022,8718;0,0394405
3023,8362;0,0395338
3024,8003;0,0396365
3025,7646;0,0397518
3026,7288;0,0398786
3027,6931;0,0400113
3028,6572;0,040141
3029,6216;0,0402593
3030,5857;0,0403625
3031,5500;0,0404538
3032,5142;0,040542
3033,4785;0,0406366
3034,4426;0,040743
3035,4070;0,0408597
3036,3711;0,0409799
3037,3354;0,0410972
3038,2996;0,0412094
3039,2639;0,0413205
3040,2280;0,041438
3041,1924;0,0415684
3042,1565;0,0417127
3043,1208;0,0418657
3044,0850;0,0420188
3045,0493;0,0421645
3046,0134;0,0423004
3046,9778;0,0424291
3047,9419;0,0425566
3048,9063;0,0426884
3049,8704;0,042827
3050,8347;0,0429715
3051,7988;0,0431185
3052,7632;0,043264
3053,7273;0,0434051
3054,6917;0,0435415
3055,6558;0,0436752
3056,6201;0,0438106
3057,5842;0,0439518
3058,5486;0,0441006
3059,5127;0,0442551
3060,4771;0,0444104
3061,4412;0,0445608
3062,4055;0,0447026
3063,3696;0,0448363
3064,3340;0,044965
3065,2981;0,045093
3066,2625;0,0452228
3067,2266;0,0453546
3068,1909;0,0454878
3069,1550;0,0456227
3070,1194;0,0457617
3071,0835;0,0459074
3072,0479;0,0460615
3073,0120;0,0462222
3073,9763;0,0463846
3074,9404;0,0465424
3075,9048;0,0466901
3076,8689;0,0468243
3077,8333;0,0469447
3078,7974;0,0470541
3079,7617;0,0471575
3080,7258;0,047262
3081,6902;0,0473744
3082,6543;0,0474997
3083,6187;0,0476391
3084,5828;0,0477894
3085,5471;0,0479451
3086,5112;0,0481007
3087,4756;0,0482529
3088,4397;0,0484012
3089,4041;0,0485465
3090,3682;0,0486897
3091,3325;0,0488304
3092,2966;0,0489686
3093,2610;0,0491048
3094,2251;0,0492413
3095,1895;0,04938
3096,1536;0,049522
3097,1179;0,0496664
3098,0820;0,0498123
3099,0464;0,0499605
3100,0105;0,0501135
3100,9749;0,0502742
3101,9390;0,0504427
3102,9033;0,0506145
3103,8674;0,0507821
3104,8318;0,0509399
3105,7959;0,0510878
3106,7603;0,0512324
3107,7244;0,0513834
3108,6887;0,0515483
3109,6528;0,051728
3110,6172;0,0519169
3111,5813;0,0521063
3112,5457;0,05229
3113,5098;0,0524672
3114,4741;0,0526411
3115,4382;0,0528156
3116,4026;0,0529915
3117,3667;0,053166
3118,3311;0,0533353
3119,2952;0,0534977
3120,2595;0,0536562
3121,2236;0,053816
3122,1880;0,0539821
3123,1521;0,054156
3124,1165;0,054336
3125,0806;0,0545191
3126,0449;0,054704
3127,0090;0,0548914
3127,9734;0,0550823
3128,9375;0,0552755
3129,9019;0,0554671
3130,8660;0,0556518
3131,8303;0,0558272
3132,7944;0,0559963
3133,7588;0,0561672
3134,7229;0,0563486
3135,6873;0,0565455
3136,6514;0,0567555
3137,6157;0,0569698
3138,5798;0,0571776
3139,5442;0,0573715
3140,5083;0,0575524
3141,4727;0,0577292
3142,4368;0,0579156
3143,4011;0,0581226
3144,3652;0,0583533
3145,3296;0,0586001
3146,2937;0,0588483
3147,2581;0,0590823
3148,2222;0,0592932
3149,1865;0,059482
3150,1506;0,0596584
3151,1150;0,059836
3152,0791;0,0600264
3153,0435;0,0602353
3154,0076;0,0604619
3154,9719;0,0607
3155,9360;0,0609416
3156,9004;0,0611797
3157,8645;0,0614102
3158,8289;0,0616337
3159,7930;0,0618542
3160,7573;0,0620765
3161,7214;0,0623029
3162,6858;0,0625317
3163,6499;0,0627583
3164,6143;0,0629783
3165,5784;0,0631909
3166,5427;0,0633987
3167,5068;0,0636069
3168,4712;0,0638199
3169,4353;0,0640136
3170,3997;0,0642431
3171,3638;0,0644816
3172,3281;0,0647277
3173,2922;0,064977
3174,2566;0,065222
3175,2207;0,0654541
3176,1851;0,065668
3177,1492;0,0658658
3178,1135;0,0660567
3179,0776;0,0662534
3180,0420;0,0664651
3181,0061;0,0666933
3181,9705;0,0669325
3182,9346;0,067174
3183,8989;0,0674112
3184,8630;0,0676424
3185,8274;0,0678703
3186,7915;0,068099
3187,7559;0,0683321
3188,7200;0,0685707
3189,6843;0,0688129
3190,6484;0,0690541
3191,6128;0,0692882
3192,5769;0,0695093
3193,5413;0,069715
3194,5054;0,0699088
3195,4697;0,0700994
3196,4338;0,0702974
3197,3982;0,0705093
3198,3623;0,0707334
3199,3267;0,0709608
3200,2908;0,0711811
3201,2551;0,0713884
3202,2192;0,0715859
3203,1836;0,071783
3204,1477;0,0719899
3205,1121;0,0722113
3206,0762;0,072444
3207,0405;0,0726791
3208,0046;0,0729077
3208,9690;0,0731251
3209,9331;0,0733326
3210,8975;0,0735355
3211,8616;0,0737392
3212,8259;0,073947
3213,7900;0,0741591
3214,7544;0,0743737
3215,7185;0,0745885
3216,6829;0,0748021
3217,6470;0,0750146
3218,6113;0,0752268
3219,5754;0,0754401
3220,5398;0,0756549
3221,5039;0,0758699
3222,4683;0,0760828
3223,4324;0,0762911
3224,3967;0,0764946
3225,3608;0,0766967
3226,3252;0,0769034
3227,2893;0,07712
3228,2537;0,0773481
3229,2178;0,0775831
3230,1821;0,0778164
3231,1462;0,0780394
3232,1106;0,0782484
3233,0747;0,0784473
3234,0391;0,0786458
3235,0032;0,0788555
3235,9675;0,0790843
3236,9316;0,0793329
3237,8960;0,0795948
3238,8601;0,079858
3239,8245;0,0801101
3240,7886;0,080342
3241,7529;0,0805518
3242,7170;0,0807463
3243,6814;0,0809397
3244,6455;0,0811482
3245,6099;0,081384
3246,5740;0,0816495
3247,5383;0,081936
3248,5024;0,0822284
3249,4668;0,0825126
3250,4309;0,0827817
3251,3953;0,0830382
3252,3594;0,083291
3253,3237;0,083549
3254,2878;0,0838159
3255,2522;0,0840891
3256,2163;0,0843628
3257,1807;0,0846333
3258,1448;0,0849023
3259,1091;0,0851763
3260,0732;0,0854615
3261,0376;0,0857595
3262,0017;0,0860642
3262,9661;0,0863636
3263,9302;0,0866451
3264,8945;0,0869009
3265,8586;0,0871318
3266,8230;0,0873458
3267,7871;0,0875529
3268,7515;0,0877585
3269,7156;0,0879603
3270,6799;0,0881486
3271,6440;0,0883126
3272,6084;0,088447
3273,5725;0,0885558
3274,5369;0,0886503
3275,5010;0,0887427
3276,4653;0,0888392
3277,4294;0,0889374
3278,3938;0,0890292
3279,3579;0,0891067
3280,3223;0,0891677
3281,2864;0,0892166
3282,2507;0,089262
3283,2148;0,0893116
3284,1792;0,089369
3285,1433;0,0894333
3286,1077;0,0895007
3287,0718;0,0895668
3288,0361;0,0896283
3289,0002;0,0896822
3289,9646;0,0897252
3290,9287;0,0897533
3291,8931;0,0897632
3292,8572;0,0897534
3293,8215;0,0897264
3294,7856;0,0896878
3295,7500;0,0896452
3296,7141;0,089606
3297,6785;0,0895754
3298,6426;0,0895551
3299,6069;0,0895434
3300,5710;0,0895358
3301,5354;0,089526
3302,4995;0,0895076
3303,4639;0,0894762
3304,4280;0,0894305
3305,3923;0,0893735
3306,3564;0,0893122
3307,3208;0,089256
3308,2849;0,0892137
3309,2493;0,0891908
3310,2134;0,0891868
3311,1777;0,0891953
3312,1418;0,0892065
3313,1062;0,0892118
3314,0703;0,0892098
3315,0347;0,0892094
3315,9988;0,0892274
3316,9631;0,0892816
3317,9272;0,0893807
3318,8916;0,0895183
3319,8557;0,0896755
3320,8201;0,0898302
3321,7842;0,0899688
3322,7485;0,0900914
3323,7126;0,0902077
3324,6770;0,0903271
3325,6411;0,09045
3326,6055;0,0905678
3327,5696;0,0906701
3328,5339;0,0907544
3329,4980;0,0908274
3330,4624;0,0908993
3331,4265;0,0909733
3332,3909;0,0910404
3333,3550;0,0910832
3334,3193;0,0910865
3335,2834;0,0910474
3336,2478;0,0909772
3337,2119;0,0908932
3338,1763;0,0908066
3339,1404;0,0907153
3340,1047;0,0906058
3341,0688;0,0904633
3342,0332;0,0902811
3342,9973;0,0900655
3343,9617;0,089831
3344,9258;0,0895925
3345,8901;0,0893587
3346,8542;0,0891297
3347,8186;0,0889007
3348,7827;0,0886657
3349,7471;0,0884209
3350,7112;0,0881651
3351,6755;0,087899
3352,6396;0,0876252
3353,6040;0,0873476
3354,5681;0,0870705
3355,5325;0,0867968
3356,4966;0,0865271
3357,4609;0,0862601
3358,4250;0,0859954
3359,3894;0,0857367
3360,3535;0,0854912
3361,3179;0,0852659
3362,2820;0,0850624
3363,2463;0,0848747
3364,2104;0,0846911
3365,1748;0,0845005
3366,1389;0,0842969
3367,1033;0,0840805
3368,0674;0,0838542
3369,0317;0,0836193
3369,9958;0,0833749
3370,9602;0,08312
3371,9243;0,082858
3372,8887;0,0825974
3373,8528;0,0823491
3374,8171;0,0821213
3375,7813;0,0819155
3376,7456;0,0817261
3377,7097;0,0815432
3378,6741;0,0813572
3379,6382;0,0811606
3380,6025;0,0809502
3381,5667;0,0807271
3382,5310;0,0804971
3383,4951;0,0802697
3384,4595;0,0800558
3385,4236;0,0798628
3386,3879;0,0796912
3387,3521;0,0795335
3388,3164;0,0793783
3389,2805;0,0792148
3390,2449;0,0790376
3391,2090;0,0788474
3392,1733;0,0786492
3393,1375;0,0784492
3394,1018;0,0782524
3395,0659;0,078062
3396,0303;0,0778794
3396,9944;0,077703
3397,9587;0,0775273
3398,9229;0,077344
3399,8872;0,0771455
3400,8513;0,0769291
3401,8157;0,0766992
3402,7798;0,0764651
3403,7441;0,0762346
3404,7083;0,0760097
3405,6726;0,0757861
3406,6367;0,0755582
3407,6011;0,0753241
3408,5652;0,0750869
3409,5295;0,074851
3410,4937;0,0746158
3411,4580;0,0743739
3412,4221;0,074115
3413,3865;0,0738336
3414,3506;0,0735338
3415,3149;0,0732278
3416,2791;0,0729291
3417,2434;0,0726438
3418,2075;0,0723685
3419,1719;0,0720927
3420,1360;0,071807
3421,1003;0,0715096
3422,0645;0,0712085
3423,0288;0,070916
3423,9929;0,0706408
3424,9573;0,0703827
3425,9214;0,0701321
3426,8857;0,0698752
3427,8499;0,0696013
3428,8142;0,0693095
3429,7783;0,0690081
3430,7427;0,0687094
3431,7068;0,0684212
3432,6711;0,0681424
3433,6353;0,0678647
3434,5996;0,067579
3435,5637;0,0672815
3436,5281;0,0669756
3437,4922;0,0666689
3438,4565;0,0663697
3439,4207;0,0660834
3440,3850;0,0658124
3441,3491;0,0655547
3442,3135;0,0653031
3443,2776;0,0650458
3444,2419;0,0647689
3445,2061;0,0644637
3446,1704;0,0641324
3447,1345;0,0637894
3448,0989;0,0634538
3449,0630;0,063139
3450,0273;0,0628472
3450,9915;0,0625721
3451,9558;0,062307
3452,9199;0,0620497
3453,8843;0,0618012
3454,8484;0,0615598
3455,8127;0,0613177
3456,7769;0,061062
3457,7412;0,0607828
3458,7053;0,0604807
3459,6697;0,0601679
3460,6338;0,0598627
3461,5981;0,0595795
3462,5623;0,0593202
3463,5266;0,0590739
3464,4907;0,0588237
3465,4551;0,058555
3466,4192;0,0582628
3467,3835;0,057952
3468,3477;0,0576333
3469,3120;0,0573162
3470,2761;0,0570047
3471,2405;0,0566978
3472,2046;0,0563941
3473,1689;0,0560967
3474,1331;0,0558144
3475,0974;0,0555562
3476,0615;0,0553232
3477,0259;0,0551035
3477,9900;0,0548749
3478,9543;0,0546155
3479,9185;0,0543165
3480,8828;0,0539887
3481,8469;0,0536584
3482,8113;0,0533513
3483,7754;0,053078
3484,7397;0,05283
3485,7039;0,0525885
3486,6682;0,0523382
3487,6323;0,0520762
3488,5967;0,051812
3489,5608;0,0515577
3490,5251;0,0513174
3491,4893;0,0510831
3492,4536;0,0508396
3493,4177;0,0505762
3494,3821;0,0502958
3495,3462;0,0500161
3496,3105;0,0497587
3497,2747;0,0495333
3498,2390;0,0493273
3499,2031;0,0491105
3500,1675;0,0488508
3501,1316;0,0485351
3502,0959;0,0481831
3503,0601;0,0478406
3504,0244;0,0475515
3504,9885;0,047328
3505,9529;0,0471442
3506,9170;0,0469543
3507,8813;0,0467199
3508,8455;0,0464311
3509,8098;0,0461114
3510,7739;0,0458018
3511,7383;0,0455343
3512,7024;0,0453147
3513,6667;0,0451254
3514,6309;0,0449417
3515,5952;0,0447473
3516,5593;0,0445408
3517,5237;0,0443317
3518,4878;0,0441295
3519,4521;0,0439357
3520,4163;0,0437428
3521,3806;0,0435385
3522,3447;0,0433122
3523,3091;0,043058
3524,2732;0,0427742
3525,2375;0,0424626
3526,2017;0,0421309
3527,1660;0,041797
3528,1301;0,0414879
3529,0945;0,0412301
3530,0586;0,0410336
3531,0229;0,0408837
3531,9871;0,0407462
3532,9514;0,0405829
3533,9155;0,0403683
3534,8799;0,0401009
3535,8440;0,0398042
3536,8083;0,0395177
3537,7725;0,0392783
3538,7368;0,0391053
3539,7009;0,0389927
3540,6653;0,0389119
3541,6294;0,0388184
3542,5938;0,0386625
3543,5579;0,0384092
3544,5222;0,0380616
3545,4863;0,0376716
3546,4507;0,0373138
3547,4148;0,0370373
3548,3792;0,0368378
3549,3433;0,0366695
3550,3076;0,0364781
3551,2717;0,0362334
3552,2361;0,0359453
3553,2002;0,0356553
3554,1646;0,0354051
3555,1287;0,0352083
3556,0930;0,0350481
3557,0571;0,0348977
3558,0215;0,0347445
3558,9856;0,0346014
3559,9500;0,034497
3560,9141;0,0344493
3561,8784;0,0344408
3562,8425;0,0344109
3563,8069;0,0342689
3564,7710;0,0339284
3565,7354;0,0333708
3566,6995;0,0327075
3567,6638;0,0321376
3568,6279;0,0317957
3569,5923;0,031669
3570,5564;0,0316545
3571,5208;0,031645
3572,4849;0,0315736
3573,4492;0,0314219
3574,4133;0,0312102
3575,3777;0,0309753
3576,3418;0,0307465
3577,3062;0,0305365
3578,2703;0,0303517
3579,2346;0,0302059
3580,1987;0,0301203
3581,1631;0,0301047
3582,1272;0,0301377
3583,0916;0,0301602
3584,0557;0,0300874
3585,0200;0,029841
3585,9841;0,0294067
3586,9485;0,0288885
3587,9126;0,0284702
3588,8770;0,0282728
3589,8411;0,0282711
3590,8054;0,0283477
3591,7695;0,0283818
3592,7339;0,0283019
3593,6980;0,0281058
3594,6624;0,0278515
3595,6265;0,0276112
3596,5908;0,0274158
3597,5549;0,0272424
3598,5193;0,0270521
3599,4834;0,0268376
3600,4478;0,0266378
3601,4119;0,0265057
3602,3762;0,0264583
3603,3403;0,0264569
3604,3047;0,0264285
3605,2688;0,0263032
3606,2332;0,0260515
3607,1973;0,025705
3608,1616;0,025343
3609,1257;0,0250422
3610,0901;0,0248318
3611,0542;0,0246963
3612,0186;0,0246078
3612,9827;0,0245482
3613,9470;0,0245037
3614,9111;0,0244492
3615,8755;0,0243411
3616,8396;0,0241356
3617,8040;0,0238259
3618,7681;0,0234792
3619,7324;0,0232228
3620,6965;0,023162
3621,6609;0,023306
3622,6250;0,0235773
3623,5894;0,0238641
3624,5535;0,0240514
3625,5178;0,0240264
3626,4819;0,023692
3627,4463;0,0230384
3628,4104;0,0222451
3629,3748;0,0216156
3630,3389;0,0213098
3631,3032;0,0212471
3632,2673;0,0212595
3633,2317;0,0212282
3634,1958;0,021116
3635,1602;0,0209462
3636,1243;0,0207629
3637,0886;0,0205956
3638,0527;0,0204494
3639,0171;0,0203221
3639,9812;0,0202269
3640,9456;0,0201968
3641,9097;0,0202635
3642,8740;0,0204295
3643,8381;0,0206536
3644,8025;0,0208495
3645,7666;0,0208887
3646,7310;0,0206147
3647,6951;0,0199394
3648,6594;0,0190397
3649,6235;0,0183379
3650,5879;0,0180832
3651,5520;0,0181708
3652,5164;0,018365
3653,4805;0,018481
3654,4448;0,0184279
3655,4089;0,0182126
3656,3733;0,0179301
3657,3374;0,0177019
3658,3018;0,0175901
3659,2659;0,0175708
3660,2302;0,0175858
3661,1943;0,0176029
3662,1587;0,0176367
3663,1228;0,0177247
3664,0872;0,0178835
3665,0513;0,0180833
3666,0156;0,018257
3666,9797;0,0183336
3667,9441;0,0182828
3668,9082;0,018156
3669,8726;0,0180661
3670,8367;0,0180833
3671,8010;0,0181598
3672,7651;0,0181661
3673,7295;0,0179781
3674,6936;0,0175691
3675,6580;0,0170727
3676,6221;0,0167008
3677,5864;0,0165538
3678,5505;0,016578
3679,5149;0,0166782
3680,4790;0,0168054
3681,4434;0,0169645
3682,4075;0,0171794
3683,3718;0,0174525
3684,3359;0,0177446
3685,3003;0,0179808
3686,2644;0,0180716
3687,2288;0,0179497
3688,1929;0,0176319
3689,1572;0,0172619
3690,1213;0,0170299
3691,0857;0,0170136
3692,0498;0,017154
3693,0142;0,0173541
3693,9783;0,0175489
3694,9426;0,0177142
3695,9067;0,017847
3696,8711;0,0179442
3697,8352;0,0179917
3698,7996;0,0179692
3699,7637;0,0178684
3700,7280;0,017716
3701,6921;0,0175793
3702,6565;0,0175357
3703,6206;0,0176258
3704,5850;0,0178334
3705,5491;0,0181015
3706,5134;0,0183529
3707,4775;0,0184962
3708,4419;0,0184294
3709,4060;0,0180774
3710,3704;0,0174832
3711,3345;0,0168569
3712,2988;0,0164431
3713,2629;0,016336
3714,2273;0,0164732
3715,1914;0,0167415
3716,1558;0,0170492
3717,1199;0,0173427
3718,0842;0,0175996
3719,0483;0,0178166
3720,0127;0,0179951
3720,9768;0,0181301
3721,9412;0,0182095
3722,9053;0,0182263
3723,8696;0,0181967
3724,8337;0,0181659
3725,7981;0,0181884
3726,7622;0,0182955
3727,7266;0,0184778
3728,6907;0,0186957
3729,6550;0,0188974
3730,6191;0,0190281
3731,5835;0,0190281
3732,5476;0,0188365
3733,5120;0,018427
3734,4761;0,0178798
3735,4404;0,0173959
3736,4045;0,0171651
3737,3689;0,0172279
3738,3330;0,017489
3739,2974;0,0178065
3740,2615;0,0180458
3741,2258;0,0180967
3742,1899;0,0178991
3743,1543;0,0175068
3744,1184;0,0171278
3745,0828;0,0169958
3746,0469;0,017155
3747,0112;0,0174414
3747,9753;0,0176224
3748,9397;0,0175122
3749,9038;0,017075
3750,8682;0,0165159
3751,8323;0,0161546
3752,7966;0,0161297
3753,7607;0,0163383
3754,7251;0,0166003
3755,6892;0,0167761
3756,6536;0,0167977
3757,6177;0,0166774
3758,5820;0,0165019
3759,5461;0,0163814
3760,5105;0,0163764
3761,4746;0,0164733
3762,4390;0,016618
3763,4031;0,0167562
3764,3674;0,0168523
3765,3315;0,0168883
3766,2959;0,0168559
3767,2600;0,0167522
3768,2244;0,0165863
3769,1885;0,0163924
3770,1528;0,0162313
3771,1169;0,0161648
3772,0813;0,0162188
3773,0454;0,0163694
3774,0098;0,0165588
3774,9739;0,0167212
3775,9382;0,0168041
3776,9023;0,016786
3777,8667;0,0166883
3778,8308;0,0165691
3779,7952;0,0164869
3780,7593;0,0164625
3781,7236;0,0164755
3782,6877;0,0164908
3783,6521;0,0164839
3784,6162;0,0164508
3785,5806;0,0164053
3786,5447;0,0163699
3787,5090;0,0163662
3788,4731;0,0164082
3789,4375;0,0164978
3790,4016;0,0166229
3791,3660;0,0167603
3792,3301;0,0168861
3793,2944;0,0169897
3794,2585;0,0170815
3795,2229;0,0171849
3796,1870;0,0173107
3797,1514;0,0174332
3798,1155;0,0174914
3799,0798;0,0174247
3800,0439;0,0172274
3801,0083;0,0169809
3801,9724;0,0168011
3802,9368;0,0167324
3803,9009;0,0167126
3804,8652;0,0166403
3805,8293;0,016467
3806,7937;0,016251
3807,7578;0,0161286
3808,7222;0,016203
3809,6863;0,0164625
3810,6506;0,0168071
3811,6147;0,0171231
3812,5791;0,0173328
3813,5432;0,0174176
3814,5076;0,017426
3815,4717;0,017442
3816,4360;0,0175105
3817,4001;0,017586
3818,3645;0,0175652
3819,3286;0,0173736
3820,2930;0,0170421
3821,2571;0,0167094
3822,2214;0,0165158
3823,1855;0,0164958
3824,1499;0,0165885
3825,1140;0,0167123
3826,0784;0,0168166
3827,0425;0,0168918
3828,0068;0,0169571
3828,9709;0,0170398
3829,9353;0,0171579
3830,8994;0,0173132
3831,8638;0,0174918
3832,8279;0,0176665
3833,7922;0,0177988
3834,7563;0,0178446
3835,7207;0,0177682
3836,6848;0,0175652
3837,6492;0,0172815
3838,6133;0,0169999
3839,5776;0,0167872
3840,5417;0,0166549
3841,5061;0,0165759
3842,4702;0,0165293
3843,4346;0,0165285
3844,3987;0,0166143
3845,3630;0,0168244
3846,3271;0,0171637
3847,2915;0,0175956
3848,2556;0,0180482
3849,2200;0,0184174
3850,1841;0,0185601
3851,1484;0,0183063
3852,1125;0,0175844
3853,0769;0,0166547
3854,0410;0,0160227
3855,0054;0,015921
3855,9695;0,016196
3856,9338;0,0166109
3857,8979;0,0170099
3858,8623;0,0173159
3859,8264;0,0174967
3860,7908;0,0175502
3861,7549;0,0175065
3862,7192;0,0174288
3863,6833;0,0173872
3864,6477;0,0174149
3865,6118;0,0174891
3866,5762;0,0175539
3867,5403;0,0175549
3868,5046;0,0174624
3869,4688;0,0172842
3870,4331;0,0170663
3871,3972;0,0168748
3872,3616;0,0167664
3873,3257;0,0167664
3874,2900;0,0168648
3875,2542;0,0170249
3876,2185;0,0171963
3877,1826;0,0173302
3878,1470;0,0173951
3879,1111;0,0173906
3880,0754;0,0173455
3881,0396;0,0172928
3882,0039;0,0172414
3882,9680;0,0171771
3883,9324;0,0170953
3884,8965;0,0170259
3885,8608;0,0170154
3886,8250;0,0170792
3887,7893;0,0171745
3888,7534;0,0172235
3889,7178;0,0171663
3890,6819;0,0170144
3891,6462;0,0168665
3892,6104;0,0168445
3893,5747;0,0169957
3894,5388;0,0172675
3895,5032;0,0175625
3896,4673;0,0177941
3897,4316;0,0179126
3898,3958;0,0179092
3899,3601;0,017806
3900,3242;0,0176322
3901,2886;0,0174039
3902,2527;0,0171351
3903,2170;0,0168643
3904,1812;0,0166538
3905,1455;0,0165513
3906,1096;0,0165569
3907,0740;0,0166322
3908,0381;0,0167324
3909,0024;0,0168305
3909,9666;0,016923
3910,9309;0,0170208
3911,8950;0,0171316
3912,8594;0,0172457
3913,8235;0,0173352
3914,7878;0,0173677
3915,7520;0,0173295
3916,7163;0,0172436
3917,6804;0,0171629
3918,6448;0,0171344
3919,6089;0,0171656
3920,5732;0,0172224
3921,5374;0,017257
3922,5017;0,0172398
3923,4658;0,0171803
3924,4302;0,0171224
3925,3943;0,0171135
3926,3586;0,0171687
3927,3228;0,0172615
3928,2871;0,0173413
3929,2512;0,0173621
3930,2156;0,0173061
3931,1797;0,017195
3932,1440;0,0170783
3933,1082;0,0170036
3934,0725;0,0169923
3935,0366;0,0170382
3936,0010;0,0171211
3936,9651;0,017217
3937,9294;0,0173015
3938,8936;0,0173519
3939,8579;0,0173535
3940,8220;0,0173088
3941,7864;0,0172425
3942,7505;0,0171906
3943,7148;0,0171791
3944,6790;0,0172063
3945,6433;0,0172469
3946,6074;0,0172698
3947,5718;0,017258
3948,5359;0,0172184
3949,5002;0,0171752
3950,4644;0,0171515
3951,4287;0,0171534
3952,3928;0,0171703
3953,3572;0,0171871
3954,3213;0,0171962
3955,2856;0,0172006
3956,2498;0,0172085
3957,2141;0,0172245
3958,1782;0,0172446
3959,1426;0,0172594
3960,1067;0,0172611
3961,0710;0,0172499
3962,0352;0,0172347
3962,9995;0,017227
3963,9636;0,0172344
3964,9280;0,0172559
3965,8921;0,0172838
3966,8564;0,0173081
3967,8206;0,017321
3968,7849;0,0173199
3969,7490;0,0173072
3970,7134;0,0172887
3971,6775;0,0172701
3972,6418;0,0172557
3973,6060;0,0172481
3974,5703;0,0172483
3975,5344;0,0172559
3976,4988;0,017269
3977,4629;0,0172832
3978,4272;0,0172926
3979,3914;0,0172913
3980,3557;0,0172771
3981,3198;0,0172534
3982,2842;0,0172291
3983,2483;0,0172154
3984,2126;0,0172201
3985,1768;0,017244
3986,1411;0,017281
3987,1052;0,0173213
3988,0696;0,0173564
3989,0337;0,0173813
3989,9980;0,0173939
3990,9622;0,0173932
3991,9265;0,0173775
3992,8906;0,0173467
3993,8550;0,0173054
3994,8191;0,017264
3995,7834;0,017236
3996,7476;0,0172303
3997,7119;0,0172468
3998,6760;0,0172756
3999,6404;0,017303
4000,6045;0,0173233

##### Extended Information
[Comments]
Sample name
Comment
Username
Division
Organization;UNIVERSIDAD INDUSTRIAL DE SANTANDER

[Detailed Information]
Creation date;14/03/2025 11:28 a.m.

Data array type;Linear data array
Horizontal axis;Wavenumber [cm-1]
Vertical axis;Abs
Start;399,193 cm-1
End;4000,6 cm-1
Data interval;0,964233 cm-1
Data points;3736    

[Measurement Information]
Model name;FT/IR-4X1typeA
Serial No.;A035162111

Accessory;ATR PRO 4X
Accessory S/N;A021162126
Incident angle;45 deg

Measurement date;14/03/2025 11:26 a.m.

Light source;Standard
Detector;TGS
Accumulation;40
Resolution;4 cm-1
Zero filling;On
Apodization;Cosine
Gain;Auto (8)
Aperture;Auto (7 mm)
Scan speed;Auto (2 mm/sec)
Filter;Auto (12800 Hz)

