TITLE;
DATA TYPE;INFRARED SPECTRUM
ORIGIN;JASCO
OWNER;
DATE;25/03/14
TIME;11:24:37
SPECTROMETER/DATA SYSTEM;
LOCALE;9226
RESOLUTION;
DELTAX;0,964233
XUNITS;1/CM
YUNITS;ABSORBANCE
FIRSTX;  399,1927
LASTX; 4000,6047
NPOINTS;    3736
FIRSTY;     0,14309
MAXY;     0,21585
MINY;     0,01295
XYDATA
399,1927;0,143094
400,1569;0,142275
401,1211;0,141127
402,0854;0,14021
403,0496;0,139797
404,0138;0,139898
404,9781;0,140308
405,9423;0,140698
406,9065;0,140771
407,8708;0,140411
408,8350;0,139747
409,7992;0,139084
410,7635;0,138768
411,7277;0,139032
412,6919;0,139883
413,6562;0,141127
414,6204;0,142474
415,5846;0,14364
416,5489;0,14438
417,5131;0,144561
418,4773;0,144323
419,4416;0,144143
420,4058;0,144444
421,3700;0,145217
422,3343;0,146149
423,2985;0,146912
424,2627;0,147288
425,2270;0,147214
426,1912;0,146789
427,1554;0,146218
428,1197;0,145712
429,0839;0,145413
430,0481;0,145395
431,0124;0,145694
431,9766;0,146332
432,9408;0,1473
433,9051;0,14852
434,8693;0,149806
435,8335;0,150901
436,7978;0,151576
437,7620;0,151756
438,7262;0,151547
439,6905;0,151165
440,6547;0,150815
441,6189;0,150595
442,5832;0,150457
443,5474;0,150263
444,5116;0,149889
445,4759;0,149311
446,4401;0,148595
447,4043;0,147829
448,3686;0,147069
449,3328;0,146342
450,2970;0,145687
451,2613;0,145184
452,2255;0,144939
453,1897;0,145024
454,1540;0,145425
455,1182;0,146023
456,0824;0,146618
457,0467;0,14699
458,0109;0,147013
458,9751;0,146738
459,9394;0,146359
460,9036;0,146079
461,8678;0,146009
462,8321;0,146162
463,7963;0,14648
464,7605;0,146856
465,7248;0,147151
466,6890;0,147232
467,6532;0,147013
468,6175;0,146484
469,5817;0,145726
470,5459;0,144906
471,5102;0,144246
472,4744;0,143942
473,4386;0,144064
474,4029;0,144537
475,3671;0,145206
476,3313;0,145931
477,2956;0,146615
478,2598;0,147192
479,2240;0,147598
480,1883;0,147769
481,1525;0,147674
482,1167;0,147355
483,0810;0,146937
484,0452;0,14661
485,0094;0,146541
485,9737;0,146792
486,9379;0,147292
487,9021;0,14789
488,8664;0,148425
489,8306;0,148797
490,7948;0,148998
491,7591;0,149111
492,7233;0,149271
493,6875;0,149582
494,6518;0,15006
495,6160;0,150615
496,5802;0,151106
497,5445;0,151414
498,5087;0,151501
499,4729;0,151428
500,4372;0,15132
501,4014;0,151299
502,3656;0,151425
503,3299;0,151673
504,2941;0,151978
505,2583;0,152298
506,2226;0,152642
507,1868;0,153047
508,1510;0,153532
509,1153;0,154077
510,0795;0,154629
511,0437;0,155141
512,0080;0,155592
512,9722;0,155998
513,9365;0,156391
514,9007;0,156803
515,8649;0,157254
516,8292;0,157748
517,7934;0,158272
518,7576;0,158789
519,7219;0,159252
520,6861;0,159617
521,6503;0,159853
522,6146;0,159952
523,5788;0,159922
524,5430;0,159799
525,5073;0,159653
526,4715;0,159571
527,4357;0,159627
528,4000;0,159833
529,3642;0,160133
530,3284;0,160422
531,2927;0,160587
532,2569;0,160557
533,2211;0,160329
534,1854;0,159969
535,1496;0,159578
536,1138;0,159246
537,0781;0,159022
538,0423;0,158914
539,0065;0,15891
539,9708;0,158984
540,9350;0,159104
541,8992;0,159232
542,8635;0,159336
543,8277;0,159408
544,7919;0,159477
545,7562;0,159593
546,7204;0,159801
547,6846;0,160106
548,6489;0,160468
549,6131;0,160835
550,5773;0,161177
551,5416;0,161511
552,5058;0,161893
553,4700;0,162378
554,4343;0,162983
555,3985;0,16366
556,3627;0,164302
557,3270;0,164774
558,2912;0,164965
559,2554;0,164817
560,2197;0,164347
561,1839;0,163629
562,1481;0,162759
563,1124;0,161823
564,0766;0,160877
565,0408;0,15995
566,0051;0,159066
566,9693;0,158259
567,9335;0,157569
568,8978;0,157028
569,8620;0,156637
570,8262;0,156365
571,7905;0,156164
572,7547;0,155993
573,7189;0,155832
574,6832;0,155676
575,6474;0,155528
576,6116;0,155392
577,5759;0,155268
578,5401;0,155159
579,5043;0,155065
580,4686;0,154985
581,4328;0,154916
582,3970;0,154848
583,3613;0,154774
584,3255;0,154697
585,2897;0,154624
586,2540;0,154569
587,2182;0,154539
588,1824;0,154531
589,1467;0,154536
590,1109;0,154535
591,0751;0,15451
592,0394;0,15444
593,0036;0,154306
593,9678;0,154093
594,9321;0,153796
595,8963;0,153428
596,8605;0,153014
597,8248;0,152595
598,7890;0,152202
599,7532;0,151852
600,7175;0,151538
601,6817;0,15124
602,6459;0,150943
603,6102;0,150643
604,5744;0,150352
605,5386;0,150076
606,5029;0,149811
607,4671;0,14954
608,4313;0,149248
609,3956;0,148929
610,3598;0,148583
611,3240;0,148212
612,2883;0,147806
613,2525;0,147346
614,2167;0,146815
615,1810;0,146208
616,1452;0,145536
617,1094;0,144818
618,0737;0,144068
619,0379;0,143282
620,0021;0,142448
620,9664;0,141555
621,9306;0,140608
622,8948;0,139625
623,8591;0,138642
624,8233;0,137694
625,7875;0,136807
626,7518;0,135994
627,7160;0,135259
628,6802;0,134598
629,6445;0,134001
630,6087;0,133452
631,5729;0,132924
632,5372;0,132391
633,5014;0,131832
634,4656;0,131244
635,4299;0,130644
636,3941;0,130061
637,3583;0,12952
638,3226;0,129031
639,2868;0,128589
640,2510;0,128182
641,2153;0,127805
642,1795;0,127468
643,1437;0,127182
644,1080;0,126951
645,0722;0,126757
646,0364;0,126563
647,0007;0,126328
647,9649;0,126032
648,9291;0,12569
649,8934;0,125349
650,8576;0,125065
651,8218;0,124873
652,7861;0,12478
653,7503;0,124773
654,7145;0,124835
655,6788;0,124958
656,6430;0,125137
657,6072;0,125359
658,5715;0,125578
659,5357;0,12572
660,4999;0,12571
661,4642;0,125524
662,4284;0,12522
663,3926;0,124899
664,3569;0,124661
665,3211;0,124557
666,2853;0,124557
667,2496;0,124499
668,2138;0,124101
669,1780;0,123194
670,1423;0,12193
671,1065;0,120559
672,0707;0,119191
673,0350;0,117829
673,9992;0,11646
674,9634;0,115099
675,9277;0,113784
676,8919;0,112541
677,8561;0,111357
678,8204;0,1102
679,7846;0,109056
680,7488;0,107955
681,7131;0,106949
682,6773;0,106071
683,6415;0,105322
684,6058;0,104678
685,5700;0,104117
686,5342;0,103623
687,4985;0,103186
688,4627;0,102786
689,4269;0,102398
690,3912;0,102003
691,3554;0,1016
692,3196;0,101205
693,2839;0,10084
694,2481;0,100516
695,2123;0,10023
696,1766;0,099959
697,1408;0,0996784
698,1050;0,099367
699,0693;0,0990154
700,0335;0,0986274
700,9977;0,0982161
701,9620;0,0977985
702,9262;0,0973891
703,8904;0,0969946
704,8547;0,0966094
705,8189;0,0962183
706,7831;0,0958038
707,7474;0,0953549
708,7116;0,0948733
709,6758;0,0943712
710,6401;0,0938646
711,6043;0,0933643
712,5685;0,0928731
713,5328;0,0923902
714,4970;0,0919167
715,4612;0,0915001
716,4255;0,0910521
717,3897;0,0906119
718,3539;0,0901554
719,3182;0,0896472
720,2824;0,0890567
721,2466;0,0883774
722,2109;0,0876328
723,1751;0,0868646
724,1393;0,0861126
725,1036;0,0853996
726,0678;0,0847276
727,0320;0,0840825
727,9963;0,0834451
728,9605;0,082803
729,9247;0,0821589
730,8890;0,0815292
731,8532;0,0809352
732,8174;0,0803902
733,7817;0,0798912
734,7459;0,0794211
735,7101;0,0789599
736,6744;0,0784979
737,6386;0,0780422
738,6028;0,0776109
739,5671;0,0772202
740,5313;0,076871
741,4955;0,0765453
742,4598;0,0762132
743,4240;0,0758477
744,3882;0,0754376
745,3525;0,0749921
746,3167;0,0745345
747,2809;0,0740891
748,2452;0,0736684
749,2094;0,0732691
750,1736;0,0728772
751,1379;0,0724795
752,1021;0,0720732
753,0663;0,0716663
754,0306;0,071271
754,9948;0,0708928
755,9590;0,0705274
756,9233;0,0701638
757,8875;0,0697943
758,8517;0,0694211
759,8160;0,0690551
760,7802;0,0687082
761,7444;0,0683839
762,7087;0,0680756
763,6729;0,0677713
764,6371;0,0674636
765,6014;0,0671569
766,5656;0,0668644
767,5298;0,0665988
768,4941;0,0663608
769,4583;0,066135
770,4225;0,0658973
771,3868;0,0656295
772,3510;0,065331
773,3152;0,06502
774,2795;0,0647221
775,2437;0,0644546
776,2079;0,0642166
777,1722;0,0639923
778,1364;0,0637626
779,1006;0,0635178
780,0649;0,0632612
781,0291;0,063003
781,9933;0,0627505
782,9576;0,062503
783,9218;0,0622534
784,8860;0,0619956
785,8503;0,06173
786,8145;0,061464
787,7787;0,061208
788,7430;0,0609711
789,7072;0,0607589
790,6714;0,0605741
791,6357;0,0604167
792,5999;0,0602845
793,5641;0,0601724
794,5284;0,0600731
795,4926;0,0599794
796,4568;0,0598869
797,4211;0,0597944
798,3853;0,0597017
799,3495;0,0596054
800,3138;0,0594995
801,2780;0,0593781
802,2422;0,0592422
803,2065;0,059103
804,1707;0,0589781
805,1349;0,058883
806,0992;0,0588204
807,0634;0,0587775
808,0276;0,0587307
808,9919;0,0586577
809,9561;0,0585473
810,9203;0,0584039
811,8846;0,0582431
812,8488;0,0580844
813,8130;0,0579442
814,7773;0,0578315
815,7415;0,0577462
816,7057;0,0576795
817,6700;0,0576158
818,6342;0,0575385
819,5984;0,0574374
820,5627;0,057315
821,5269;0,0571872
822,4911;0,0570762
823,4554;0,0569985
824,4196;0,0569564
825,3839;0,0569362
826,3481;0,0569151
827,3123;0,0568715
828,2766;0,0567933
829,2408;0,0566807
830,2050;0,0565438
831,1693;0,0563977
832,1335;0,056256
833,0977;0,0561247
834,0620;0,0559991
835,0262;0,0558644
835,9904;0,0557031
836,9547;0,0555046
837,9189;0,0552723
838,8831;0,0550235
839,8474;0,0547814
840,8116;0,0545638
841,7758;0,0543766
842,7401;0,0542152
843,7043;0,0540725
844,6685;0,0539454
845,6328;0,0538368
846,5970;0,0537512
847,5612;0,0536881
848,5255;0,0536393
849,4897;0,0535909
850,4539;0,0535299
851,4182;0,053449
852,3824;0,0533498
853,3466;0,0532401
854,3109;0,0531298
855,2751;0,0530255
856,2393;0,0529274
857,2036;0,0528308
858,1678;0,0527311
859,1320;0,0526311
860,0963;0,0525444
861,0605;0,0524927
862,0247;0,0524955
862,9890;0,0525588
863,9532;0,0526691
864,9174;0,0527989
865,8817;0,0529199
866,8459;0,0530174
867,8101;0,0530943
868,7744;0,0531656
869,7386;0,0532452
870,7028;0,0533374
871,6671;0,0534368
872,6313;0,0535361
873,5955;0,0536336
874,5598;0,0537346
875,5240;0,053845
876,4882;0,0539654
877,4525;0,0540902
878,4167;0,0542151
879,3809;0,0543451
880,3452;0,0544978
881,3094;0,0546965
882,2736;0,0549591
883,2379;0,0552903
884,2021;0,0556844
885,1663;0,0561345
886,1306;0,0566418
887,0948;0,0572175
888,0590;0,0578733
889,0233;0,0586096
889,9875;0,0594067
890,9517;0,0602269
891,9160;0,0610247
892,8802;0,0617586
893,8444;0,0623987
894,8087;0,0629265
895,7729;0,0633283
896,7371;0,0635901
897,7014;0,0636956
898,6656;0,063631
899,6298;0,0633927
900,5941;0,0629946
901,5583;0,0624687
902,5225;0,0618595
903,4868;0,0612143
904,4510;0,060574
905,4152;0,0599683
906,3795;0,0594164
907,3437;0,0589308
908,3079;0,0585197
909,2722;0,0581884
910,2364;0,0579379
911,2007;0,0577641
912,1649;0,0576588
913,1292;0,0576134
914,0934;0,0576207
915,0576;0,0576761
916,0219;0,0577757
916,9861;0,0579143
917,9503;0,058084
918,9146;0,0582744
919,8788;0,0584749
920,8430;0,0586767
921,8073;0,0588742
922,7715;0,0590642
923,7357;0,059244
924,7000;0,0594104
925,6642;0,0595594
926,6284;0,0596884
927,5927;0,0597996
928,5569;0,0599011
929,5211;0,0600053
930,4854;0,0601239
931,4496;0,060263
932,4138;0,0604213
933,3781;0,0605933
934,3423;0,0607747
935,3065;0,0609681
936,2708;0,0611831
937,2350;0,061432
938,1992;0,0617244
939,1635;0,0620632
940,1277;0,0624445
941,0919;0,0628623
942,0562;0,0633124
943,0204;0,0637959
943,9846;0,0643196
944,9489;0,0648934
945,9131;0,065528
946,8773;0,0662314
947,8416;0,0670066
948,8058;0,0678514
949,7700;0,0687606
950,7343;0,0697293
951,6985;0,0707557
952,6627;0,0718415
953,6270;0,0729883
954,5912;0,0741939
955,5554;0,075451
956,5197;0,0767491
957,4839;0,0780808
958,4481;0,0794463
959,4124;0,0808531
960,3766;0,0823107
961,3408;0,0838231
962,3051;0,0853843
963,2693;0,0869801
964,2335;0,0885954
965,1978;0,0902221
966,1620;0,0918626
967,1262;0,0935289
968,0905;0,0952381
969,0547;0,0970097
970,0189;0,0988653
970,9832;0,100831
971,9474;0,102937
972,9116;0,105216
973,8759;0,107696
974,8401;0,110397
975,8043;0,113323
976,7686;0,11647
977,7328;0,119825
978,6970;0,123365
979,6613;0,127048
980,6255;0,130803
981,5897;0,134529
982,5540;0,138096
983,5182;0,141375
984,4824;0,144265
985,4467;0,146726
986,4109;0,148779
987,3751;0,150495
988,3394;0,151959
989,3036;0,153243
990,2678;0,154388
991,2321;0,155407
992,1963;0,156305
993,1605;0,157099
994,1248;0,157825
995,0890;0,158531
996,0532;0,159265
997,0175;0,160057
997,9817;0,16091
998,9459;0,161803
999,9102;0,162702
1000,8744;0,163584
1001,8386;0,164442
1002,8029;0,165295
1003,7671;0,166183
1004,7313;0,167159
1005,6956;0,168274
1006,6598;0,169569
1007,6240;0,171071
1008,5883;0,17279
1009,5525;0,174711
1010,5167;0,176804
1011,4810;0,179023
1012,4452;0,18132
1013,4094;0,183652
1014,3737;0,185991
1015,3379;0,188318
1016,3021;0,190618
1017,2664;0,192869
1018,2306;0,195043
1019,1948;0,197116
1020,1591;0,199079
1021,1233;0,200942
1022,0875;0,202734
1023,0518;0,204488
1024,0160;0,206226
1024,9802;0,207951
1025,9445;0,20964
1026,9087;0,211248
1027,8729;0,212721
1028,8372;0,213992
1029,8014;0,214988
1030,7656;0,215634
1031,7299;0,215852
1032,6941;0,215577
1033,6583;0,214777
1034,6226;0,213469
1035,5868;0,211736
1036,5510;0,209718
1037,5153;0,207592
1038,4795;0,205535
1039,4437;0,203694
1040,4080;0,202169
1041,3722;0,201008
1042,3364;0,200212
1043,3007;0,199746
1044,2649;0,199542
1045,2291;0,199512
1046,1934;0,199552
1047,1576;0,199564
1048,1218;0,19947
1049,0861;0,19922
1050,0503;0,198788
1051,0145;0,198155
1051,9788;0,197308
1052,9430;0,196228
1053,9072;0,194908
1054,8715;0,193347
1055,8357;0,191552
1056,7999;0,189518
1057,7642;0,187218
1058,7284;0,184607
1059,6926;0,181647
1060,6569;0,178336
1061,6211;0,174734
1062,5853;0,170959
1063,5496;0,167162
1064,5138;0,16349
1065,4780;0,160049
1066,4423;0,156897
1067,4065;0,154041
1068,3707;0,151454
1069,3350;0,149093
1070,2992;0,146912
1071,2634;0,144862
1072,2277;0,142901
1073,1919;0,14099
1074,1561;0,139097
1075,1204;0,137204
1076,0846;0,135304
1077,0488;0,133407
1078,0131;0,131537
1078,9773;0,129728
1079,9415;0,128017
1080,9058;0,126438
1081,8700;0,125015
1082,8342;0,123761
1083,7985;0,122676
1084,7627;0,121749
1085,7269;0,120965
1086,6912;0,120304
1087,6554;0,119749
1088,6196;0,119287
1089,5839;0,11891
1090,5481;0,118618
1091,5123;0,118413
1092,4766;0,118302
1093,4408;0,118289
1094,4050;0,118381
1095,3693;0,118577
1096,3335;0,118868
1097,2977;0,11924
1098,2620;0,119671
1099,2262;0,120138
1100,1904;0,120618
1101,1547;0,121084
1102,1189;0,121502
1103,0831;0,121836
1104,0474;0,12205
1105,0116;0,122118
1105,9758;0,122036
1106,9401;0,121811
1107,9043;0,121456
1108,8685;0,120971
1109,8328;0,120331
1110,7970;0,1195
1111,7612;0,118447
1112,7255;0,117169
1113,6897;0,115709
1114,6539;0,114148
1115,6182;0,112583
1116,5824;0,111105
1117,5466;0,109766
1118,5109;0,108577
1119,4751;0,107503
1120,4393;0,106479
1121,4036;0,105425
1122,3678;0,104262
1123,3320;0,102928
1124,2963;0,101389
1125,2605;0,0996461
1126,2247;0,0977294
1127,1890;0,0956884
1128,1532;0,0935757
1129,1174;0,0914337
1130,0817;0,0892897
1131,0459;0,0871596
1132,0101;0,0850587
1132,9744;0,0830123
1133,9386;0,0810607
1134,9028;0,079255
1135,8671;0,0776469
1136,8313;0,0762763
1137,7955;0,0751627
1138,7598;0,074304
1139,7240;0,0736808
1140,6882;0,073264
1141,6525;0,0730225
1142,6167;0,0729278
1143,5809;0,0729559
1144,5452;0,0730874
1145,5094;0,0733077
1146,4736;0,0736074
1147,4379;0,0739819
1148,4021;0,0744302
1149,3663;0,0749522
1150,3306;0,0755442
1151,2948;0,0761954
1152,2590;0,0768868
1153,2233;0,0775908
1154,1875;0,0782728
1155,1517;0,0788914
1156,1160;0,079398
1157,0802;0,0797376
1158,0444;0,0798501
1159,0087;0,0796749
1159,9729;0,0791568
1160,9371;0,0782523
1161,9014;0,0769371
1162,8656;0,0752121
1163,8298;0,0731093
1164,7941;0,070693
1165,7583;0,0680549
1166,7225;0,0653027
1167,6868;0,0625446
1168,6510;0,0598742
1169,6152;0,0573611
1170,5795;0,0550493
1171,5437;0,0529607
1172,5079;0,0511019
1173,4722;0,0494687
1174,4364;0,0480495
1175,4006;0,0468273
1176,3649;0,0457828
1177,3291;0,0448977
1178,2933;0,0441555
1179,2576;0,0435405
1180,2218;0,0430356
1181,1860;0,0426208
1182,1503;0,042277
1183,1145;0,0419908
1184,0787;0,0417585
1185,0430;0,0415857
1186,0072;0,0414823
1186,9714;0,0414559
1187,9357;0,0415074
1188,8999;0,0416324
1189,8641;0,041824
1190,8284;0,0420781
1191,7926;0,0423942
1192,7568;0,0427741
1193,7211;0,0432186
1194,6853;0,0437251
1195,6495;0,0442858
1196,6138;0,0448888
1197,5780;0,0455191
1198,5422;0,0461608
1199,5065;0,0467645
1200,4707;0,0473913
1201,4349;0,0479953
1202,3992;0,0485733
1203,3634;0,0491251
1204,3276;0,0496514
1205,2919;0,0501528
1206,2561;0,0506295
1207,2203;0,0510845
1208,1846;0,0515268
1209,1488;0,0519733
1210,1130;0,0524475
1211,0773;0,0529731
1212,0415;0,0535673
1213,0057;0,0542338
1213,9700;0,0549624
1214,9342;0,0557332
1215,8984;0,0565235
1216,8627;0,057314
1217,8269;0,0580918
1218,7911;0,0588494
1219,7554;0,0595825
1220,7196;0,0602867
1221,6838;0,0609568
1222,6481;0,0615866
1223,6123;0,0621717
1224,5765;0,0627107
1225,5408;0,0632068
1226,5050;0,0636661
1227,4692;0,0640944
1228,4335;0,0644934
1229,3977;0,0648586
1230,3619;0,0651811
1231,3262;0,0654516
1232,2904;0,0656659
1233,2546;0,065828
1234,2189;0,0659485
1235,1831;0,066041
1236,1473;0,066117
1237,1116;0,0661834
1238,0758;0,0662426
1239,0400;0,0662932
1240,0043;0,0663317
1240,9685;0,0663529
1241,9327;0,0663496
1242,8970;0,0663132
1243,8612;0,0662355
1244,8254;0,0661113
1245,7897;0,0659395
1246,7539;0,0657239
1247,7181;0,0654721
1248,6824;0,0651928
1249,6466;0,0648946
1250,6108;0,0645856
1251,5751;0,0642736
1252,5393;0,0639667
1253,5035;0,063673
1254,4678;0,0633983
1255,4320;0,0631434
1256,3962;0,0629026
1257,3605;0,0626643
1258,3247;0,0624136
1259,2889;0,062136
1260,2532;0,0618213
1261,2174;0,0614648
1262,1816;0,0610676
1263,1459;0,0606338
1264,1101;0,0601692
1265,0743;0,0596785
1266,0386;0,0591637
1267,0028;0,0586235
1267,9670;0,0580537
1268,9313;0,0574504
1269,8955;0,0568129
1270,8597;0,0561458
1271,8240;0,055459
1272,7882;0,0547644
1273,7524;0,054074
1274,7167;0,0533978
1275,6809;0,0527435
1276,6451;0,0521163
1277,6094;0,0515169
1278,5736;0,0509405
1279,5378;0,0503767
1280,5021;0,0498133
1281,4663;0,0492424
1282,4305;0,0486638
1283,3948;0,0480865
1284,3590;0,0475259
1285,3232;0,0470003
1286,2875;0,0465274
1287,2517;0,046122
1288,2159;0,0457935
1289,1802;0,0455441
1290,1444;0,0453689
1291,1086;0,0452587
1292,0729;0,045204
1293,0371;0,0451999
1294,0013;0,0452471
1294,9656;0,0453506
1295,9298;0,0455158
1296,8940;0,0457459
1297,8583;0,0460413
1298,8225;0,0464
1299,7867;0,0468183
1300,7510;0,0472909
1301,7152;0,0478116
1302,6794;0,0483739
1303,6437;0,0489728
1304,6079;0,0496056
1305,5721;0,0502701
1306,5364;0,0509624
1307,5006;0,051675
1308,4648;0,0523985
1309,4291;0,0531239
1310,3933;0,053843
1311,3575;0,054545
1312,3218;0,055213
1313,2860;0,0558225
1314,2502;0,0563457
1315,2145;0,0567578
1316,1787;0,0570426
1317,1429;0,0571953
1318,1072;0,0572239
1319,0714;0,0571483
1320,0356;0,0569966
1320,9999;0,0567991
1321,9641;0,0565813
1322,9283;0,0563626
1323,8926;0,0561563
1324,8568;0,0559717
1325,8210;0,0558136
1326,7853;0,0556808
1327,7495;0,0555663
1328,7137;0,0554591
1329,6780;0,0553469
1330,6422;0,0552187
1331,6064;0,0550642
1332,5707;0,0548726
1333,5349;0,0546322
1334,4991;0,0543293
1335,4634;0,0539499
1336,4276;0,0534842
1337,3918;0,052936
1338,3561;0,0523331
1339,3203;0,0517272
1340,2845;0,0511741
1341,2488;0,050705
1342,2130;0,0503177
1343,1772;0,0499915
1344,1415;0,0497082
1345,1057;0,0494632
1346,0699;0,0492649
1347,0342;0,0491273
1347,9984;0,0490619
1348,9626;0,0490727
1349,9269;0,0491544
1350,8911;0,0492963
1351,8553;0,0494866
1352,8196;0,0497169
1353,7838;0,0499856
1354,7480;0,0502954
1355,7123;0,0506473
1356,6765;0,0510347
1357,6407;0,0514435
1358,6050;0,0518583
1359,5692;0,0522682
1360,5334;0,0526682
1361,4977;0,0530552
1362,4619;0,053425
1363,4261;0,0537741
1364,3904;0,0541013
1365,3546;0,054406
1366,3188;0,054685
1367,2831;0,0549307
1368,2473;0,0551311
1369,2115;0,0552714
1370,1758;0,0553364
1371,1400;0,0553116
1372,1042;0,0551849
1373,0685;0,0549519
1374,0327;0,0546249
1374,9969;0,0542345
1375,9612;0,053812
1376,9254;0,0533644
1377,8896;0,052871
1378,8539;0,0523036
1379,8181;0,0516545
1380,7823;0,0509488
1381,7466;0,0502305
1382,7108;0,0495306
1383,6750;0,0488471
1384,6393;0,0481546
1385,6035;0,0474372
1386,5677;0,0467253
1387,5320;0,0460972
1388,4962;0,0456255
1389,4604;0,0453209
1390,4247;0,0451348
1391,3889;0,0450034
1392,3531;0,0448829
1393,3174;0,0447607
1394,2816;0,0446509
1395,2458;0,0445791
1396,2101;0,0445654
1397,1743;0,0446154
1398,1385;0,044724
1399,1028;0,0448823
1400,0670;0,0450804
1401,0313;0,045307
1401,9955;0,0455523
1402,9597;0,0458128
1403,9240;0,0460944
1404,8882;0,0464085
1405,8524;0,0467631
1406,8167;0,047156
1407,7809;0,0475787
1408,7451;0,0480264
1409,7094;0,0485025
1410,6736;0,049013
1411,6378;0,0495544
1412,6021;0,0501069
1413,5663;0,0506437
1414,5305;0,0511463
1415,4948;0,0516141
1416,4590;0,0520614
1417,4232;0,0525023
1418,3875;0,0529294
1419,3517;0,0533095
1420,3159;0,0536028
1421,2802;0,0537783
1422,2444;0,0538146
1423,2086;0,0537046
1424,1729;0,053462
1425,1371;0,0531146
1426,1013;0,0526809
1427,0656;0,0521507
1428,0298;0,0514942
1428,9940;0,050704
1429,9583;0,0498344
1430,9225;0,0489843
1431,8867;0,0482244
1432,8510;0,0475447
1433,8152;0,0468681
1434,7794;0,0461119
1435,7437;0,0452702
1436,7079;0,0444642
1437,6721;0,0438667
1438,6364;0,0435477
1439,6006;0,0434446
1440,5648;0,0434582
1441,5291;0,043528
1442,4933;0,0436424
1443,4575;0,0438174
1444,4218;0,044069
1445,3860;0,0443968
1446,3502;0,0447814
1447,3145;0,0451929
1448,2787;0,0456021
1449,2429;0,0459886
1450,2072;0,0463408
1451,1714;0,0466506
1452,1356;0,046907
1453,0999;0,0470946
1454,0641;0,0471908
1455,0283;0,0471597
1455,9926;0,0469626
1456,9568;0,0466327
1457,9210;0,0463373
1458,8853;0,0462187
1459,8495;0,0462458
1460,8137;0,0462991
1461,7780;0,0462612
1462,7422;0,0460308
1463,7064;0,0455336
1464,6707;0,0447762
1465,6349;0,0438834
1466,5991;0,0430112
1467,5634;0,042215
1468,5276;0,0414294
1469,4918;0,0405264
1470,4561;0,0393679
1471,4203;0,0378662
1472,3845;0,036097
1473,3488;0,034356
1474,3130;0,0329556
1475,2772;0,0319676
1476,2415;0,031271
1477,2057;0,0307303
1478,1699;0,0302689
1479,1342;0,0298581
1480,0984;0,0294929
1481,0626;0,0291807
1482,0269;0,0289355
1482,9911;0,0287706
1483,9553;0,0286866
1484,9196;0,0286672
1485,8838;0,0286849
1486,8480;0,0287164
1487,8123;0,0287626
1488,7765;0,0288627
1489,7407;0,0290751
1490,7050;0,0294225
1491,6692;0,0298746
1492,6334;0,0303862
1493,5977;0,0309317
1494,5619;0,0315123
1495,5261;0,0321469
1496,4904;0,0328538
1497,4546;0,0336288
1498,4188;0,0344394
1499,3831;0,0352429
1500,3473;0,0360024
1501,3115;0,0366876
1502,2758;0,0372719
1503,2400;0,0377285
1504,2042;0,0380199
1505,1685;0,0380775
1506,1327;0,0378144
1507,0969;0,0372784
1508,0612;0,0367537
1509,0254;0,0364381
1509,9896;0,0362712
1510,9539;0,0361237
1511,9181;0,0359074
1512,8823;0,0355724
1513,8466;0,0350933
1514,8108;0,0344745
1515,7750;0,0337601
1516,7393;0,033021
1517,7035;0,0323121
1518,6677;0,031638
1519,6320;0,0309671
1520,5962;0,0302846
1521,5604;0,0296337
1522,5247;0,0290872
1523,4889;0,0286797
1524,4531;0,0283888
1525,4174;0,028176
1526,3816;0,0280269
1527,3458;0,0279512
1528,3101;0,0279547
1529,2743;0,0280191
1530,2385;0,0281077
1531,2028;0,0281851
1532,1670;0,0282402
1533,1312;0,0282993
1534,0955;0,0284088
1535,0597;0,0285906
1536,0239;0,0288234
1536,9882;0,0290611
1537,9524;0,0292501
1538,9166;0,0293259
1539,8809;0,0292262
1540,8451;0,0289915
1541,8093;0,0288132
1542,7736;0,0288176
1543,7378;0,0289655
1544,7020;0,0291771
1545,6663;0,0294043
1546,6305;0,0296248
1547,5947;0,0298235
1548,5590;0,0299864
1549,5232;0,0301062
1550,4874;0,0301931
1551,4517;0,0302762
1552,4159;0,0303881
1553,3801;0,0305403
1554,3444;0,0307103
1555,3086;0,0308433
1556,2728;0,0308529
1557,2371;0,0306366
1558,2013;0,0302026
1559,1655;0,0298419
1560,1298;0,0298434
1561,0940;0,0301523
1562,0582;0,0305855
1563,0225;0,0310266
1563,9867;0,0314266
1564,9509;0,0317677
1565,9152;0,0320457
1566,8794;0,0322699
1567,8436;0,0324725
1568,8079;0,0327056
1569,7721;0,0330123
1570,7363;0,0333933
1571,7006;0,0338142
1572,6648;0,0342404
1573,6290;0,0346611
1574,5933;0,0350915
1575,5575;0,0355592
1576,5217;0,0360798
1577,4860;0,0366449
1578,4502;0,0372386
1579,4144;0,0378543
1580,3787;0,0384949
1581,3429;0,0391651
1582,3071;0,0398637
1583,2714;0,0405821
1584,2356;0,0413112
1585,1998;0,0420483
1586,1641;0,0427956
1587,1283;0,0435481
1588,0925;0,0442856
1589,0568;0,0449738
1590,0210;0,0455733
1590,9852;0,0460491
1591,9495;0,0463741
1592,9137;0,0465313
1593,8779;0,0465208
1594,8422;0,0463672
1595,8064;0,0461166
1596,7706;0,0458193
1597,7349;0,0455124
1598,6991;0,0452131
1599,6633;0,0449249
1600,6276;0,0446476
1601,5918;0,0443823
1602,5560;0,0441334
1603,5203;0,0439046
1604,4845;0,0436959
1605,4487;0,0435018
1606,4130;0,0433146
1607,3772;0,0431326
1608,3414;0,042969
1609,3057;0,04285
1610,2699;0,042799
1611,2341;0,042816
1612,1984;0,0428744
1613,1626;0,042933
1614,1268;0,0429528
1615,0911;0,042918
1616,0553;0,0428607
1617,0195;0,0428541
1617,9838;0,0429472
1618,9480;0,0431194
1619,9122;0,043313
1620,8765;0,0434783
1621,8407;0,0435936
1622,8049;0,0436685
1623,7692;0,0437349
1624,7334;0,0438229
1625,6976;0,0439389
1626,6619;0,0440709
1627,6261;0,0442092
1628,5903;0,044357
1629,5546;0,044522
1630,5188;0,0447024
1631,4830;0,0448791
1632,4473;0,0450178
1633,4115;0,0450726
1634,3757;0,0450011
1635,3400;0,0448139
1636,3042;0,0446173
1637,2684;0,0445281
1638,2327;0,0445593
1639,1969;0,0446552
1640,1611;0,0447672
1641,1254;0,0448739
1642,0896;0,0449663
1643,0538;0,0450274
1644,0181;0,0450184
1644,9823;0,0448897
1645,9465;0,044637
1646,9108;0,0443608
1647,8750;0,0441943
1648,8392;0,0441657
1649,8035;0,0441879
1650,7677;0,0441113
1651,7319;0,0437481
1652,6962;0,0429863
1653,6604;0,0420676
1654,6246;0,0414362
1655,5889;0,0411777
1656,5531;0,0410992
1657,5173;0,0410307
1658,4816;0,0408801
1659,4458;0,0405956
1660,4100;0,0401483
1661,3743;0,0395559
1662,3385;0,0389116
1663,3027;0,0383427
1664,2670;0,0379151
1665,2312;0,0375974
1666,1954;0,0372977
1667,1597;0,0369101
1668,1239;0,0363611
1669,0881;0,0356703
1670,0524;0,0349661
1671,0166;0,034378
1671,9808;0,0339151
1672,9451;0,0334839
1673,9093;0,0329894
1674,8735;0,0324135
1675,8378;0,0318345
1676,8020;0,0313653
1677,7662;0,0310583
1678,7305;0,0308795
1679,6947;0,0307457
1680,6589;0,0305543
1681,6232;0,0301881
1682,5874;0,0295486
1683,5516;0,0286806
1684,5159;0,0278427
1685,4801;0,0272677
1686,4443;0,026946
1687,4086;0,026746
1688,3728;0,0265703
1689,3370;0,0263899
1690,3013;0,0262191
1691,2655;0,0260801
1692,2297;0,0259786
1693,1940;0,0258968
1694,1582;0,025803
1695,1224;0,0256658
1696,0867;0,0254684
1697,0509;0,0252129
1698,0151;0,024918
1698,9794;0,0246202
1699,9436;0,0243737
1700,9078;0,0242286
1701,8721;0,0241993
1702,8363;0,0242604
1703,8005;0,0243706
1704,7648;0,0244983
1705,7290;0,0246346
1706,6932;0,0247934
1707,6575;0,024996
1708,6217;0,0252531
1709,5859;0,025559
1710,5502;0,0258978
1711,5144;0,0262501
1712,4786;0,0265937
1713,4429;0,0269024
1714,4071;0,0271454
1715,3713;0,0272983
1716,3356;0,0273735
1717,2998;0,0274428
1718,2640;0,0275893
1719,2283;0,0278351
1720,1925;0,0281475
1721,1567;0,0284849
1722,1210;0,0288163
1723,0852;0,029122
1724,0494;0,0293925
1725,0137;0,0296296
1725,9779;0,029846
1726,9421;0,0300586
1727,9064;0,0302778
1728,8706;0,0304974
1729,8348;0,0306899
1730,7991;0,0308043
1731,7633;0,030777
1732,7275;0,0305747
1733,6918;0,0302561
1734,6560;0,0299521
1735,6202;0,0297419
1736,5845;0,0295986
1737,5487;0,0294445
1738,5129;0,0292115
1739,4772;0,0288702
1740,4414;0,0284397
1741,4056;0,0279727
1742,3699;0,0275167
1743,3341;0,0270853
1744,2983;0,0266639
1745,2626;0,0262281
1746,2268;0,0257487
1747,1910;0,0251863
1748,1553;0,0245009
1749,1195;0,0236965
1750,0837;0,0228615
1751,0480;0,0221263
1752,0122;0,0215628
1752,9764;0,0211461
1753,9407;0,0207979
1754,9049;0,0204443
1755,8691;0,02005
1756,8334;0,0196231
1757,7976;0,0191931
1758,7618;0,0187775
1759,7261;0,0183683
1760,6903;0,0179517
1761,6545;0,017538
1762,6188;0,0171653
1763,5830;0,0168697
1764,5472;0,0166564
1765,5115;0,0165009
1766,4757;0,0163694
1767,4399;0,0162361
1768,4042;0,0160857
1769,3684;0,015905
1770,3326;0,0156782
1771,2969;0,0154011
1772,2611;0,0151074
1773,2253;0,014863
1774,1896;0,0147168
1775,1538;0,0146663
1776,1180;0,014671
1777,0823;0,0146835
1778,0465;0,0146709
1779,0107;0,0146246
1779,9750;0,0145574
1780,9392;0,0144894
1781,9034;0,0144303
1782,8677;0,0143771
1783,8319;0,0143274
1784,7961;0,0142921
1785,7604;0,0142927
1786,7246;0,0143441
1787,6888;0,0144403
1788,6531;0,0145503
1789,6173;0,0146253
1790,5815;0,0146155
1791,5458;0,0145037
1792,5100;0,0143354
1793,4742;0,0141945
1794,4385;0,0141351
1795,4027;0,0141518
1796,3669;0,0142033
1797,3312;0,0142425
1798,2954;0,0142349
1799,2596;0,0141706
1800,2239;0,0140704
1801,1881;0,0139758
1802,1523;0,0139238
1803,1166;0,0139273
1804,0808;0,0139754
1805,0450;0,0140461
1806,0093;0,0141158
1806,9735;0,0141653
1807,9377;0,0141814
1808,9020;0,0141597
1809,8662;0,0141069
1810,8304;0,0140392
1811,7947;0,0139752
1812,7589;0,0139267
1813,7231;0,0138948
1814,6874;0,0138745
1815,6516;0,0138611
1816,6158;0,0138558
1817,5801;0,0138663
1818,5443;0,0139017
1819,5085;0,0139641
1820,4728;0,0140446
1821,4370;0,0141256
1822,4012;0,0141874
1823,3655;0,014217
1824,3297;0,0142134
1825,2939;0,0141866
1826,2582;0,0141478
1827,2224;0,0141015
1828,1866;0,0140469
1829,1509;0,0139879
1830,1151;0,013939
1831,0793;0,0139167
1832,0436;0,0139244
1833,0078;0,0139469
1833,9720;0,0139618
1834,9363;0,0139537
1835,9005;0,0139267
1836,8647;0,0139059
1837,8290;0,013923
1838,7932;0,0139922
1839,7574;0,0140988
1840,7217;0,0142047
1841,6859;0,0142642
1842,6501;0,0142434
1843,6144;0,0141432
1844,5786;0,0140079
1845,5428;0,0138959
1846,5071;0,0138356
1847,4713;0,0138174
1848,4355;0,0138173
1849,3998;0,0138191
1850,3640;0,0138204
1851,3282;0,0138279
1852,2925;0,0138481
1853,2567;0,0138801
1854,2209;0,0139159
1855,1852;0,0139454
1856,1494;0,0139627
1857,1136;0,0139684
1858,0779;0,0139678
1859,0421;0,0139683
1860,0063;0,0139771
1860,9706;0,0139999
1861,9348;0,014039
1862,8990;0,0140918
1863,8633;0,0141491
1864,8275;0,0141968
1865,7917;0,0142188
1866,7560;0,0142042
1867,7202;0,0141559
1868,6844;0,0140936
1869,6487;0,0140416
1870,6129;0,0140112
1871,5771;0,0139976
1872,5414;0,0139898
1873,5056;0,0139802
1874,4698;0,0139686
1875,4341;0,0139607
1876,3983;0,013964
1877,3625;0,0139829
1878,3268;0,0140158
1879,2910;0,0140567
1880,2552;0,0140986
1881,2195;0,0141367
1882,1837;0,0141692
1883,1479;0,0141957
1884,1122;0,0142147
1885,0764;0,014222
1886,0406;0,0142127
1887,0049;0,014185
1887,9691;0,0141449
1888,9333;0,0141055
1889,8976;0,0140803
1890,8618;0,0140731
1891,8260;0,0140753
1892,7903;0,0140736
1893,7545;0,0140616
1894,7188;0,0140464
1895,6830;0,014045
1896,6472;0,0140713
1897,6115;0,0141236
1898,5757;0,0141825
1899,5399;0,014222
1900,5042;0,0142254
1901,4684;0,0141949
1902,4326;0,01415
1903,3969;0,014116
1904,3611;0,014109
1905,3253;0,0141285
1906,2896;0,0141606
1907,2538;0,0141889
1908,2180;0,0142043
1909,1823;0,0142094
1910,1465;0,0142138
1911,1107;0,0142241
1912,0750;0,0142367
1913,0392;0,0142394
1914,0034;0,0142189
1914,9677;0,0141707
1915,9319;0,0141071
1916,8961;0,0140558
1917,8604;0,0140462
1918,8246;0,0140883
1919,7888;0,0141636
1920,7531;0,0142352
1921,7173;0,0142689
1922,6815;0,0142494
1923,6458;0,014187
1924,6100;0,0141094
1925,5742;0,014045
1926,5385;0,0140093
1927,5027;0,0140028
1928,4669;0,0140185
1929,4312;0,01405
1930,3954;0,0140942
1931,3596;0,0141485
1932,3239;0,014206
1933,2881;0,014253
1934,2523;0,014272
1935,2166;0,0142501
1936,1808;0,0141875
1937,1450;0,0140995
1938,1093;0,0140107
1939,0735;0,0139437
1940,0377;0,0139089
1941,0020;0,0139001
1941,9662;0,0138971
1942,9304;0,0138759
1943,8947;0,0138221
1944,8589;0,0137359
1945,8231;0,0136296
1946,7874;0,0135219
1947,7516;0,0134341
1948,7158;0,0133882
1949,6801;0,0134016
1950,6443;0,0134789
1951,6085;0,0136081
1952,5728;0,0137636
1953,5370;0,0139151
1954,5012;0,0140365
1955,4655;0,0141078
1956,4297;0,014114
1957,3939;0,0140456
1958,3582;0,0139076
1959,3224;0,0137296
1960,2866;0,0135663
1961,2509;0,0134773
1962,2151;0,0134981
1963,1793;0,013624
1964,1436;0,0138199
1965,1078;0,0140446
1966,0720;0,0142691
1967,0363;0,0144715
1968,0005;0,0146178
1968,9647;0,0146541
1969,9290;0,0145283
1970,8932;0,0142316
1971,8574;0,0138276
1972,8217;0,0134426
1973,7859;0,0132138
1974,7501;0,0132201
1975,7144;0,0134392
1976,6786;0,0137669
1977,6428;0,0140893
1978,6071;0,0143499
1979,5713;0,0145561
1980,5355;0,0147324
1981,4998;0,0148692
1982,4640;0,0149132
1983,4282;0,0148005
1984,3925;0,0145102
1985,3567;0,0141005
1986,3209;0,013701
1987,2852;0,0134573
1988,2494;0,0134613
1989,2136;0,0137042
1990,1779;0,0140782
1991,1421;0,0144297
1992,1063;0,0146395
1993,0706;0,0146812
1994,0348;0,0146165
1994,9990;0,014537
1995,9633;0,0145017
1996,9275;0,0145104
1997,8917;0,0145197
1998,8560;0,0144838
1999,8202;0,0143958
2000,7844;0,0143015
2001,7487;0,0142794
2002,7129;0,0143991
2003,6771;0,0146823
2004,6414;0,0150834
2005,6056;0,0154999
2006,5698;0,01581
2007,5341;0,0159247
2008,4983;0,0158254
2009,4625;0,0155662
2010,4268;0,015246
2011,3910;0,014971
2012,3552;0,0148282
2013,3195;0,0148698
2014,2837;0,0151016
2015,2479;0,01547
2016,2122;0,0158618
2017,1764;0,0161328
2018,1406;0,0161667
2019,1049;0,015935
2020,0691;0,0155142
2021,0333;0,0150517
2021,9976;0,0146984
2022,9618;0,0145448
2023,9260;0,0145911
2024,8903;0,0147604
2025,8545;0,0149474
2026,8187;0,0150713
2027,7830;0,0151055
2028,7472;0,0150752
2029,7114;0,0150323
2030,6757;0,0150277
2031,6399;0,0150944
2032,6041;0,015243
2033,5684;0,0154654
2034,5326;0,0157379
2035,4968;0,0160224
2036,4611;0,0162672
2037,4253;0,0164158
2038,3895;0,0164259
2039,3538;0,0162945
2040,3180;0,0160757
2041,2822;0,0158722
2042,2465;0,0157944
2043,2107;0,0159055
2044,1749;0,0161848
2045,1392;0,0165337
2046,1034;0,0168211
2047,0676;0,0169453
2048,0320;0,0168806
2048,9961;0,0166794
2049,9604;0,0164326
2050,9246;0,0162206
2051,8889;0,0160879
2052,8530;0,0160438
2053,8174;0,0160746
2054,7815;0,0161541
2055,7458;0,0162509
2056,7100;0,0163347
2057,6743;0,0163842
2058,6384;0,016393
2059,6028;0,0163703
2060,5669;0,0163357
2061,5313;0,0163092
2062,4954;0,0163041
2063,4597;0,0163235
2064,4238;0,0163629
2065,3882;0,0164152
2066,3523;0,0164743
2067,3167;0,0165363
2068,2808;0,0165972
2069,2451;0,0166503
2070,2092;0,0166861
2071,1736;0,016694
2072,1377;0,0166682
2073,1021;0,0166113
2074,0662;0,0165369
2075,0305;0,0164658
2075,9946;0,0164198
2076,9590;0,0164148
2077,9231;0,0164574
2078,8875;0,0165447
2079,8516;0,0166654
2080,8159;0,0168018
2081,7800;0,0169298
2082,7444;0,0170236
2083,7085;0,0170628
2084,6729;0,0170412
2085,6370;0,0169703
2086,6013;0,0168742
2087,5654;0,0167773
2088,5298;0,0166934
2089,4939;0,016624
2090,4583;0,0165675
2091,4224;0,0165298
2092,3867;0,0165265
2093,3508;0,0165714
2094,3152;0,0166599
2095,2793;0,0167612
2096,2437;0,0168315
2097,2078;0,0168399
2098,1721;0,0167897
2099,1362;0,0167173
2100,1006;0,0166694
2101,0647;0,0166775
2102,0291;0,016742
2102,9932;0,0168392
2103,9575;0,016938
2104,9216;0,0170144
2105,8860;0,0170578
2106,8501;0,0170681
2107,8145;0,0170511
2108,7786;0,0170175
2109,7429;0,0169811
2110,7070;0,0169559
2111,6714;0,0169489
2112,6355;0,0169573
2113,5999;0,0169717
2114,5640;0,0169846
2115,5283;0,0169977
2116,4924;0,0170195
2117,4568;0,0170556
2118,4209;0,0171003
2119,3853;0,0171353
2120,3494;0,017141
2121,3137;0,0171091
2122,2778;0,0170496
2123,2422;0,0169849
2124,2063;0,016936
2125,1707;0,0169106
2126,1348;0,0169026
2127,0991;0,0169003
2128,0632;0,0168984
2129,0276;0,0169048
2129,9917;0,0169372
2130,9561;0,0170137
2131,9202;0,0171419
2132,8845;0,0173122
2133,8486;0,017498
2134,8130;0,0176621
2135,7771;0,0177689
2136,7415;0,0177957
2137,7056;0,0177399
2138,6699;0,0176184
2139,6340;0,0174624
2140,5984;0,0173086
2141,5625;0,0171918
2142,5269;0,0171372
2143,4910;0,0171581
2144,4553;0,0172555
2145,4194;0,0174228
2146,3838;0,0176514
2147,3479;0,0179333
2148,3123;0,0182562
2149,2764;0,0185921
2150,2407;0,0188889
2151,2048;0,0190747
2152,1692;0,0190851
2153,1333;0,0189034
2154,0977;0,0185952
2155,0618;0,018311
2156,0261;0,0182401
2156,9902;0,0185134
2157,9546;0,0190953
2158,9187;0,0197579
2159,8831;0,020204
2160,8472;0,0202561
2161,8115;0,0199412
2162,7756;0,0194258
2163,7400;0,0188944
2164,7041;0,018464
2165,6685;0,0181649
2166,6326;0,0179739
2167,5969;0,0178645
2168,5610;0,0178343
2169,5254;0,0178965
2170,4895;0,0180498
2171,4539;0,0182569
2172,4180;0,0184498
2173,3823;0,0185583
2174,3464;0,0185436
2175,3108;0,0184142
2176,2749;0,0182175
2177,2393;0,0180163
2178,2034;0,0178663
2179,1677;0,0178029
2180,1318;0,0178356
2181,0962;0,017945
2182,0603;0,0180862
2183,0247;0,0182011
2183,9888;0,0182402
2184,9531;0,0181802
2185,9172;0,0180298
2186,8816;0,0178219
2187,8457;0,0176029
2188,8101;0,0174226
2189,7742;0,0173275
2190,7385;0,0173496
2191,7026;0,0174922
2192,6670;0,0177201
2193,6311;0,0179648
2194,5955;0,0181488
2195,5596;0,0182174
2196,5239;0,0181606
2197,4880;0,0180107
2198,4524;0,0178223
2199,4165;0,0176459
2200,3809;0,0175139
2201,3450;0,0174384
2202,3093;0,0174172
2203,2734;0,0174377
2204,2378;0,0174787
2205,2019;0,0175162
2206,1663;0,0175322
2207,1304;0,0175248
2208,0947;0,0175083
2209,0588;0,0175011
2210,0232;0,0175104
2210,9873;0,0175247
2211,9517;0,0175228
2212,9158;0,0174925
2213,8801;0,0174432
2214,8442;0,0174015
2215,8086;0,0173936
2216,7727;0,0174257
2217,7371;0,01748
2218,7012;0,0175276
2219,6655;0,0175476
2220,6296;0,017538
2221,5940;0,0175108
2222,5581;0,0174769
2223,5225;0,0174343
2224,4866;0,0173708
2225,4509;0,0172801
2226,4150;0,0171782
2227,3794;0,0171069
2228,3435;0,0171167
2229,3079;0,0172375
2230,2720;0,0174551
2231,2363;0,0177095
2232,2004;0,0179185
2233,1648;0,0180142
2234,1289;0,0179736
2235,0933;0,0178258
2236,0574;0,017634
2237,0217;0,0174661
2237,9858;0,0173676
2238,9502;0,0173511
2239,9143;0,0174007
2240,8787;0,0174856
2241,8428;0,0175748
2242,8071;0,0176451
2243,7712;0,0176854
2244,7356;0,0176953
2245,6997;0,0176808
2246,6641;0,0176498
2247,6282;0,0176071
2248,5925;0,0175539
2249,5566;0,0174909
2250,5210;0,0174232
2251,4851;0,0173632
2252,4495;0,0173277
2253,4136;0,0173309
2254,3779;0,0173757
2255,3420;0,0174501
2256,3064;0,0175296
2257,2705;0,0175866
2258,2349;0,0176008
2259,1990;0,0175664
2260,1633;0,017494
2261,1274;0,0174057
2262,0918;0,0173255
2263,0559;0,0172692
2264,0203;0,0172388
2264,9844;0,0172238
2265,9487;0,017211
2266,9128;0,0171956
2267,8772;0,0171871
2268,8413;0,0172047
2269,8057;0,017264
2270,7698;0,0173633
2271,7341;0,0174794
2272,6982;0,0175759
2273,6626;0,0176215
2274,6267;0,0176065
2275,5911;0,0175473
2276,5552;0,0174766
2277,5195;0,0174247
2278,4836;0,0174035
2279,4480;0,0174046
2280,4121;0,0174091
2281,3765;0,0174037
2282,3406;0,0173899
2283,3049;0,0173817
2284,2690;0,0173933
2285,2334;0,0174277
2286,1975;0,0174721
2287,1619;0,017505
2288,1260;0,0175092
2289,0903;0,0174835
2290,0544;0,0174439
2291,0188;0,0174161
2291,9829;0,0174212
2292,9473;0,0174642
2293,9114;0,0175302
2294,8757;0,0175917
2295,8398;0,017622
2296,8042;0,0176079
2297,7683;0,0175562
2298,7327;0,0174894
2299,6968;0,0174336
2300,6611;0,0174052
2301,6252;0,0174044
2302,5896;0,0174178
2303,5537;0,01743
2304,5181;0,0174334
2305,4822;0,0174316
2306,4465;0,0174343
2307,4106;0,0174477
2308,3750;0,0174683
2309,3391;0,0174849
2310,3035;0,017487
2311,2676;0,0174738
2312,2319;0,0174552
2313,1960;0,0174453
2314,1604;0,0174523
2315,1245;0,0174745
2316,0889;0,0175032
2317,0530;0,0175285
2318,0173;0,0175446
2318,9814;0,0175497
2319,9458;0,0175444
2320,9099;0,0175301
2321,8743;0,0175118
2322,8384;0,0174983
2323,8027;0,0174993
2324,7668;0,0175178
2325,7312;0,0175471
2326,6953;0,0175723
2327,6597;0,0175758
2328,6238;0,0175453
2329,5881;0,0174824
2330,5522;0,0174074
2331,5166;0,0173537
2332,4807;0,0173503
2333,4451;0,0174038
2334,4092;0,017495
2335,3735;0,0175897
2336,3376;0,0176568
2337,3020;0,0176819
2338,2661;0,0176693
2339,2305;0,0176287
2340,1946;0,0175567
2341,1589;0,0174305
2342,1230;0,01723
2343,0874;0,0169832
2344,0515;0,0167926
2345,0159;0,0167791
2345,9800;0,0169808
2346,9443;0,0173242
2347,9084;0,0176869
2348,8728;0,0179673
2349,8369;0,0181171
2350,8013;0,0181435
2351,7654;0,0180935
2352,7297;0,0180267
2353,6938;0,0179866
2354,6582;0,0179866
2355,6223;0,0180191
2356,5867;0,0180687
2357,5508;0,0181152
2358,5151;0,0181329
2359,4792;0,0180944
2360,4436;0,0179781
2361,4077;0,0177777
2362,3721;0,0175093
2363,3362;0,0172155
2364,3005;0,0169548
2365,2646;0,0167758
2366,2290;0,0166896
2367,1931;0,0166657
2368,1575;0,0166543
2369,1216;0,0166186
2370,0859;0,0165533
2371,0500;0,016479
2372,0144;0,0164234
2372,9785;0,0164039
2373,9429;0,0164227
2374,9070;0,0164728
2375,8713;0,0165474
2376,8354;0,0166451
2377,7998;0,016768
2378,7639;0,0169157
2379,7283;0,0170812
2380,6924;0,0172508
2381,6567;0,0174082
2382,6208;0,0175405
2383,5852;0,0176419
2384,5493;0,0177138
2385,5137;0,0177616
2386,4778;0,0177913
2387,4421;0,0178068
2388,4063;0,0178113
2389,3706;0,0178094
2390,3347;0,0178084
2391,2991;0,0178175
2392,2632;0,0178434
2393,2275;0,0178864
2394,1917;0,0179395
2395,1560;0,0179913
2396,1201;0,0180319
2397,0845;0,0180578
2398,0486;0,0180721
2399,0129;0,0180819
2399,9771;0,0180934
2400,9414;0,0181095
2401,9055;0,0181303
2402,8699;0,018155
2403,8340;0,0181832
2404,7983;0,0182145
2405,7625;0,0182468
2406,7268;0,018275
2407,6909;0,0182931
2408,6553;0,0182975
2409,6194;0,0182906
2410,5837;0,0182804
2411,5479;0,0182769
2412,5122;0,0182868
2413,4763;0,0183094
2414,4407;0,0183376
2415,4048;0,0183632
2416,3691;0,0183824
2417,3333;0,0183981
2418,2976;0,0184169
2419,2617;0,0184434
2420,2261;0,0184754
2421,1902;0,0185054
2422,1545;0,0185258
2423,1187;0,0185352
2424,0830;0,0185399
2425,0471;0,0185492
2426,0115;0,0185691
2426,9756;0,0185971
2427,9399;0,0186251
2428,9041;0,0186453
2429,8684;0,0186561
2430,8325;0,0186639
2431,7969;0,0186782
2432,7610;0,0187056
2433,7253;0,0187453
2434,6895;0,0187906
2435,6538;0,0188331
2436,6179;0,0188669
2437,5823;0,0188908
2438,5464;0,0189062
2439,5107;0,0189149
2440,4749;0,0189177
2441,4392;0,0189162
2442,4033;0,0189135
2443,3677;0,0189151
2444,3318;0,0189257
2445,2961;0,0189464
2446,2603;0,0189729
2447,2246;0,0189978
2448,1887;0,0190159
2449,1531;0,0190276
2450,1172;0,0190389
2451,0815;0,0190567
2452,0457;0,0190829
2453,0100;0,0191128
2453,9741;0,0191378
2454,9385;0,0191517
2455,9026;0,0191548
2456,8669;0,0191527
2457,8311;0,0191519
2458,7954;0,0191549
2459,7595;0,0191599
2460,7239;0,0191648
2461,6880;0,0191713
2462,6523;0,0191858
2463,6165;0,019215
2464,5808;0,0192607
2465,5449;0,0193161
2466,5093;0,0193682
2467,4734;0,019403
2468,4377;0,0194123
2469,4019;0,0193965
2470,3662;0,0193641
2471,3303;0,0193287
2472,2947;0,0193047
2473,2588;0,0193036
2474,2231;0,0193309
2475,1873;0,0193842
2476,1516;0,0194536
2477,1157;0,0195241
2478,0801;0,0195811
2479,0442;0,0196156
2480,0085;0,0196273
2480,9727;0,0196235
2481,9370;0,0196149
2482,9011;0,0196091
2483,8655;0,0196074
2484,8296;0,0196068
2485,7939;0,0196044
2486,7581;0,0196033
2487,7224;0,0196125
2488,6865;0,0196422
2489,6509;0,0196952
2490,6150;0,0197618
2491,5793;0,0198222
2492,5435;0,0198558
2493,5078;0,0198516
2494,4719;0,0198142
2495,4363;0,0197603
2496,4004;0,01971
2497,3647;0,0196779
2498,3289;0,0196701
2499,2932;0,019686
2500,2573;0,0197226
2501,2217;0,0197755
2502,1858;0,0198372
2503,1501;0,019896
2504,1143;0,0199381
2505,0786;0,019954
2506,0427;0,0199445
2507,0071;0,0199209
2507,9712;0,0198993
2508,9355;0,0198921
2509,8997;0,019902
2510,8640;0,0199227
2511,8281;0,0199451
2512,7925;0,0199631
2513,7566;0,019977
2514,7209;0,0199908
2515,6851;0,0200075
2516,6494;0,0200263
2517,6135;0,0200418
2518,5779;0,0200477
2519,5420;0,0200404
2520,5063;0,0200214
2521,4705;0,0199984
2522,4348;0,0199821
2523,3989;0,0199824
2524,3633;0,0200043
2525,3274;0,0200453
2526,2917;0,0200961
2527,2559;0,0201441
2528,2202;0,0201792
2529,1843;0,0201976
2530,1487;0,0202035
2531,1128;0,0202064
2532,0771;0,0202154
2533,0413;0,0202341
2534,0056;0,020258
2534,9697;0,0202777
2535,9341;0,0202846
2536,8982;0,0202771
2537,8625;0,0202627
2538,8267;0,0202529
2539,7910;0,0202563
2540,7551;0,0202722
2541,7195;0,0202922
2542,6836;0,020307
2543,6479;0,0203144
2544,6121;0,0203209
2545,5764;0,0203356
2546,5405;0,0203613
2547,5049;0,0203897
2548,4690;0,0204066
2549,4333;0,0204026
2550,3975;0,0203823
2551,3618;0,020363
2552,3259;0,0203643
2553,2903;0,0203946
2554,2544;0,0204458
2555,2188;0,0204969
2556,1829;0,020527
2557,1472;0,0205258
2558,1113;0,0204982
2559,0757;0,0204596
2560,0398;0,0204278
2561,0042;0,0204143
2561,9683;0,0204208
2562,9326;0,02044
2563,8967;0,0204602
2564,8611;0,0204717
2565,8252;0,0204717
2566,7896;0,0204656
2567,7537;0,0204631
2568,7180;0,0204714
2569,6821;0,0204905
2570,6465;0,0205135
2571,6106;0,0205322
2572,5750;0,0205438
2573,5391;0,0205534
2574,5034;0,0205696
2575,4675;0,0205971
2576,4319;0,0206321
2577,3960;0,0206644
2578,3604;0,0206845
2579,3245;0,02069
2580,2888;0,0206867
2581,2529;0,020683
2582,2173;0,020684
2583,1814;0,0206884
2584,1458;0,0206912
2585,1099;0,0206897
2586,0742;0,0206865
2587,0383;0,0206882
2588,0027;0,0207005
2588,9668;0,0207231
2589,9312;0,0207497
2590,8953;0,0207711
2591,8596;0,0207818
2592,8237;0,0207827
2593,7881;0,0207815
2594,7522;0,0207875
2595,7166;0,0208068
2596,6807;0,0208383
2597,6450;0,0208753
2598,6091;0,0209094
2599,5735;0,0209357
2600,5376;0,0209555
2601,5020;0,0209747
2602,4661;0,0209994
2603,4304;0,0210321
2604,3945;0,0210699
2605,3589;0,0211064
2606,3230;0,0211355
2607,2874;0,0211541
2608,2515;0,0211625
2609,2158;0,0211639
2610,1799;0,0211621
2611,1443;0,0211613
2612,1084;0,0211652
2613,0728;0,0211758
2614,0369;0,0211929
2615,0012;0,0212139
2615,9653;0,0212352
2616,9297;0,0212551
2617,8938;0,0212744
2618,8582;0,0212962
2619,8223;0,0213224
2620,7866;0,0213516
2621,7507;0,0213794
2622,7151;0,0214015
2623,6792;0,0214173
2624,6436;0,0214314
2625,6077;0,0214506
2626,5720;0,0214794
2627,5361;0,0215163
2628,5005;0,0215546
2629,4646;0,0215861
2630,4290;0,0216054
2631,3931;0,021613
2632,3574;0,0216139
2633,3215;0,0216141
2634,2859;0,0216177
2635,2500;0,0216257
2636,2144;0,0216376
2637,1785;0,0216533
2638,1428;0,0216746
2639,1069;0,0217042
2640,0713;0,0217434
2641,0354;0,0217902
2641,9998;0,0218387
2642,9639;0,0218819
2643,9282;0,0219145
2644,8923;0,021936
2645,8567;0,0219503
2646,8208;0,0219634
2647,7852;0,0219793
2648,7493;0,0219978
2649,7136;0,0220153
2650,6777;0,0220275
2651,6421;0,0220334
2652,6062;0,0220367
2653,5706;0,0220439
2654,5347;0,0220605
2655,4990;0,0220874
2656,4631;0,0221201
2657,4275;0,0221511
2658,3916;0,0221739
2659,3560;0,0221866
2660,3201;0,0221921
2661,2844;0,0221961
2662,2485;0,0222038
2663,2129;0,0222178
2664,1770;0,022237
2665,1414;0,0222589
2666,1055;0,0222808
2667,0698;0,022302
2668,0339;0,0223231
2668,9983;0,0223456
2669,9624;0,02237
2670,9268;0,0223952
2671,8909;0,0224191
2672,8552;0,022439
2673,8193;0,0224537
2674,7837;0,0224636
2675,7478;0,0224706
2676,7122;0,0224772
2677,6763;0,0224857
2678,6406;0,0224983
2679,6047;0,0225171
2680,5691;0,0225442
2681,5332;0,0225807
2682,4976;0,0226254
2683,4617;0,022674
2684,4260;0,0227203
2685,3901;0,0227576
2686,3545;0,0227829
2687,3186;0,0227975
2688,2830;0,0228073
2689,2471;0,0228196
2690,2114;0,02284
2691,1755;0,0228697
2692,1399;0,0229058
2693,1040;0,022943
2694,0684;0,0229766
2695,0325;0,0230046
2695,9968;0,0230279
2696,9609;0,0230495
2697,9253;0,0230724
2698,8894;0,0230985
2699,8538;0,0231278
2700,8179;0,0231588
2701,7822;0,0231897
2702,7463;0,0232187
2703,7107;0,0232449
2704,6748;0,0232683
2705,6392;0,0232901
2706,6033;0,0233127
2707,5676;0,0233392
2708,5317;0,023372
2709,4961;0,0234113
2710,4602;0,0234542
2711,4246;0,0234953
2712,3887;0,0235288
2713,3530;0,0235513
2714,3171;0,0235639
2715,2815;0,0235724
2716,2456;0,0235843
2717,2100;0,0236058
2718,1741;0,0236384
2719,1384;0,0236781
2720,1025;0,0237172
2721,0669;0,0237475
2722,0310;0,0237643
2722,9954;0,0237686
2723,9595;0,023767
2724,9238;0,0237686
2725,8879;0,0237811
2726,8523;0,0238073
2727,8164;0,0238444
2728,7808;0,0238858
2729,7449;0,0239249
2730,7092;0,0239582
2731,6733;0,0239861
2732,6377;0,0240105
2733,6018;0,0240326
2734,5662;0,0240518
2735,5303;0,0240664
2736,4946;0,0240767
2737,4587;0,0240861
2738,4231;0,0241005
2739,3872;0,0241249
2740,3516;0,0241605
2741,3157;0,0242035
2742,2800;0,0242467
2743,2441;0,0242824
2744,2085;0,0243059
2745,1726;0,0243165
2746,1370;0,0243178
2747,1011;0,0243157
2748,0654;0,0243172
2749,0295;0,0243278
2749,9939;0,0243495
2750,9580;0,0243801
2751,9224;0,0244142
2752,8865;0,0244455
2753,8508;0,0244709
2754,8149;0,0244916
2755,7793;0,0245124
2756,7434;0,0245383
2757,7078;0,0245706
2758,6719;0,0246061
2759,6362;0,0246394
2760,6003;0,0246664
2761,5647;0,0246877
2762,5288;0,0247086
2763,4932;0,0247361
2764,4573;0,0247745
2765,4216;0,0248227
2766,3857;0,024875
2767,3501;0,0249235
2768,3142;0,024962
2769,2786;0,0249884
2770,2427;0,0250052
2771,2070;0,0250175
2772,1711;0,0250313
2773,1355;0,0250516
2774,0996;0,0250809
2775,0640;0,0251194
2776,0281;0,0251645
2776,9924;0,0252126
2777,9565;0,02526
2778,9209;0,0253046
2779,8850;0,0253466
2780,8494;0,0253879
2781,8135;0,0254305
2782,7778;0,025475
2783,7419;0,0255201
2784,7063;0,0255637
2785,6704;0,0256043
2786,6348;0,0256428
2787,5989;0,0256822
2788,5632;0,0257262
2789,5273;0,0257773
2790,4917;0,0258361
2791,4558;0,0259009
2792,4202;0,0259687
2793,3843;0,0260358
2794,3486;0,0260992
2795,3127;0,0261568
2796,2771;0,0262088
2797,2412;0,0262577
2798,2056;0,0263081
2799,1697;0,0263654
2800,1340;0,0264335
2801,0981;0,0265131
2802,0625;0,0266011
2803,0266;0,0266918
2803,9910;0,0267787
2804,9551;0,0268569
2805,9194;0,0269257
2806,8835;0,0269885
2807,8479;0,0270522
2808,8120;0,027125
2809,7764;0,0272128
2810,7405;0,0273173
2811,7048;0,0274345
2812,6689;0,0275567
2813,6333;0,0276755
2814,5974;0,0277856
2815,5618;0,0278866
2816,5259;0,0279827
2817,4902;0,0280808
2818,4543;0,0281867
2819,4187;0,0283037
2820,3828;0,0284311
2821,3472;0,0285661
2822,3113;0,0287051
2823,2756;0,0288462
2824,2397;0,0289894
2825,2041;0,0291367
2826,1682;0,0292907
2827,1326;0,029454
2828,0967;0,0296283
2829,0610;0,0298146
2830,0251;0,0300132
2830,9895;0,0302234
2831,9536;0,0304433
2832,9180;0,030669
2833,8821;0,0308958
2834,8464;0,0311205
2835,8105;0,0313443
2836,7749;0,0315739
2837,7390;0,0318198
2838,7034;0,0320923
2839,6675;0,0323979
2840,6318;0,0327374
2841,5959;0,0331075
2842,5603;0,0335043
2843,5244;0,0339244
2844,4888;0,0343641
2845,4529;0,034815
2846,4172;0,0352611
2847,3813;0,0356781
2848,3457;0,0360384
2849,3098;0,0363174
2850,2742;0,0365009
2851,2383;0,0365883
2852,2026;0,0365917
2853,1667;0,0365319
2854,1311;0,0364338
2855,0952;0,0363209
2856,0596;0,036212
2857,0237;0,0361197
2857,9880;0,0360503
2858,9521;0,0360057
2859,9165;0,0359856
2860,8806;0,0359894
2861,8450;0,0360166
2862,8091;0,0360671
2863,7734;0,0361398
2864,7375;0,0362334
2865,7019;0,036345
2866,6660;0,0364703
2867,6304;0,0366028
2868,5945;0,0367337
2869,5588;0,0368536
2870,5229;0,0369548
2871,4873;0,0370341
2872,4514;0,0370942
2873,4158;0,037142
2874,3799;0,0371862
2875,3442;0,0372338
2876,3083;0,0372881
2877,2727;0,0373493
2878,2368;0,0374156
2879,2012;0,0374843
2880,1653;0,037553
2881,1296;0,0376199
2882,0938;0,0376845
2883,0581;0,0377485
2884,0222;0,0378156
2884,9866;0,0378904
2885,9507;0,0379761
2886,9150;0,0380723
2887,8792;0,0381751
2888,8435;0,0382781
2889,8076;0,0383754
2890,7720;0,0384639
2891,7361;0,0385443
2892,7004;0,0386201
2893,6646;0,0386968
2894,6289;0,0387798
2895,5930;0,0388728
2896,5574;0,0389761
2897,5215;0,039086
2898,4858;0,0391956
2899,4500;0,0392965
2900,4143;0,0393832
2901,3784;0,0394552
2902,3428;0,0395182
2903,3069;0,0395815
2904,2712;0,0396549
2905,2354;0,0397446
2906,1997;0,0398532
2907,1638;0,0399811
2908,1282;0,0401298
2909,0923;0,0403028
2910,0566;0,0405049
2911,0208;0,0407377
2911,9851;0,0409961
2912,9492;0,0412661
2913,9136;0,0415264
2914,8777;0,0417534
2915,8420;0,0419267
2916,8062;0,0420333
2917,7705;0,0420693
2918,7346;0,0420382
2919,6990;0,0419491
2920,6631;0,0418125
2921,6274;0,0416393
2922,5916;0,0414387
2923,5559;0,0412185
2924,5200;0,0409844
2925,4844;0,0407405
2926,4485;0,0404897
2927,4128;0,0402345
2928,3770;0,0399779
2929,3413;0,039723
2930,3054;0,0394728
2931,2698;0,0392291
2932,2339;0,038991
2933,1982;0,0387561
2934,1624;0,038521
2935,1267;0,0382835
2936,0908;0,0380431
2937,0552;0,0378013
2938,0193;0,0375599
2938,9836;0,0373201
2939,9478;0,0370813
2940,9121;0,0368422
2941,8762;0,0366006
2942,8406;0,0363553
2943,8047;0,0361069
2944,7690;0,0358581
2945,7332;0,0356138
2946,6975;0,0353801
2947,6616;0,0351617
2948,6260;0,0349607
2949,5901;0,0347749
2950,5544;0,034599
2951,5186;0,0344283
2952,4829;0,0342605
2953,4470;0,0340974
2954,4114;0,0339428
2955,3755;0,0337992
2956,3398;0,0336646
2957,3040;0,0335327
2958,2683;0,0333957
2959,2324;0,0332482
2960,1968;0,0330902
2961,1609;0,0329267
2962,1252;0,0327657
2963,0894;0,0326134
2964,0537;0,0324713
2965,0178;0,0323348
2965,9822;0,0321952
2966,9463;0,0320427
2967,9106;0,031872
2968,8748;0,0316842
2969,8391;0,0314877
2970,8032;0,0312949
2971,7676;0,0311171
2972,7317;0,0309598
2973,6960;0,0308211
2974,6602;0,0306933
2975,6245;0,0305678
2976,5886;0,030439
2977,5530;0,0303077
2978,5171;0,0301795
2979,4814;0,0300617
2980,4456;0,02996
2981,4099;0,0298755
2982,3740;0,0298052
2983,3384;0,0297432
2984,3025;0,0296842
2985,2668;0,0296249
2986,2310;0,0295651
2987,1953;0,0295072
2988,1594;0,0294549
2989,1238;0,0294118
2990,0879;0,0293801
2991,0522;0,0293606
2992,0164;0,0293514
2992,9807;0,0293495
2993,9448;0,0293513
2994,9092;0,0293553
2995,8733;0,029362
2996,8376;0,0293743
2997,8018;0,0293939
2998,7661;0,0294198
2999,7302;0,0294473
3000,6946;0,0294704
3001,6587;0,0294856
3002,6230;0,0294949
3003,5872;0,0295055
3004,5515;0,0295256
3005,5156;0,0295596
3006,4800;0,0296052
3007,4441;0,0296547
3008,4084;0,029699
3009,3726;0,0297318
3010,3369;0,0297523
3011,3010;0,0297638
3012,2654;0,0297718
3013,2295;0,0297813
3014,1938;0,0297961
3015,1580;0,0298188
3016,1223;0,0298517
3017,0864;0,0298969
3018,0508;0,0299551
3019,0149;0,0300242
3019,9792;0,0300995
3020,9434;0,0301744
3021,9077;0,0302435
3022,8718;0,0303051
3023,8362;0,0303619
3024,8003;0,0304202
3025,7646;0,0304855
3026,7288;0,0305598
3027,6931;0,0306399
3028,6572;0,0307192
3029,6216;0,0307917
3030,5857;0,0308547
3031,5500;0,0309103
3032,5142;0,0309638
3033,4785;0,0310205
3034,4426;0,0310836
3035,4070;0,0311531
3036,3711;0,031227
3037,3354;0,0313028
3038,2996;0,0313793
3039,2639;0,0314569
3040,2280;0,0315382
3041,1924;0,0316256
3042,1565;0,0317205
3043,1208;0,0318211
3044,0850;0,0319233
3045,0493;0,0320229
3046,0134;0,0321183
3046,9778;0,032212
3047,9419;0,0323086
3048,9063;0,0324117
3049,8704;0,0325199
3050,8347;0,0326273
3051,7988;0,0327268
3052,7632;0,0328149
3053,7273;0,0328946
3054,6917;0,0329739
3055,6558;0,0330621
3056,6201;0,0331643
3057,5842;0,0332791
3058,5486;0,0333996
3059,5127;0,0335178
3060,4771;0,0336274
3061,4412;0,0337263
3062,4055;0,0338161
3063,3696;0,0339003
3064,3340;0,0339828
3065,2981;0,0340672
3066,2625;0,0341562
3067,2266;0,0342515
3068,1909;0,0343539
3069,1550;0,034463
3070,1194;0,0345768
3071,0835;0,0346922
3072,0479;0,034806
3073,0120;0,034916
3073,9763;0,0350212
3074,9404;0,0351219
3075,9048;0,0352181
3076,8689;0,0353091
3077,8333;0,0353936
3078,7974;0,035472
3079,7617;0,0355485
3080,7258;0,0356307
3081,6902;0,0357272
3082,6543;0,0358421
3083,6187;0,0359724
3084,5828;0,0361074
3085,5471;0,036234
3086,5112;0,0363428
3087,4756;0,0364328
3088,4397;0,0365111
3089,4041;0,0365889
3090,3682;0,0366748
3091,3325;0,0367717
3092,2966;0,0368765
3093,2610;0,0369839
3094,2251;0,0370897
3095,1895;0,0371927
3096,1536;0,0372944
3097,1179;0,0373975
3098,0820;0,0375047
3099,0464;0,0376183
3100,0105;0,0377397
3100,9749;0,0378682
3101,9390;0,0379998
3102,9033;0,0381281
3103,8674;0,0382467
3104,8318;0,0383529
3105,7959;0,0384502
3106,7603;0,0385477
3107,7244;0,0386559
3108,6887;0,0387811
3109,6528;0,0389218
3110,6172;0,0390694
3111,5813;0,0392125
3112,5457;0,0393429
3113,5098;0,0394594
3114,4741;0,0395675
3115,4382;0,0396759
3116,4026;0,0397908
3117,3667;0,0399137
3118,3311;0,0400414
3119,2952;0,0401699
3120,2595;0,0402971
3121,2236;0,0404241
3122,1880;0,0405525
3123,1521;0,0406822
3124,1165;0,0408109
3125,0806;0,0409365
3126,0449;0,0410597
3127,0090;0,0411854
3127,9734;0,0413192
3128,9375;0,0414628
3129,9019;0,0416119
3130,8660;0,0417577
3131,8303;0,0418932
3132,7944;0,0420178
3133,7588;0,0421384
3134,7229;0,0422647
3135,6873;0,0424032
3136,6514;0,0425535
3137,6157;0,0427093
3138,5798;0,0428632
3139,5442;0,0430106
3140,5083;0,0431525
3141,4727;0,0432934
3142,4368;0,043439
3143,4011;0,0435936
3144,3652;0,0437575
3145,3296;0,0439268
3146,2937;0,0440938
3147,2581;0,0442506
3148,2222;0,0443922
3149,1865;0,0445198
3150,1506;0,0446417
3151,1150;0,0447689
3152,0791;0,0449104
3153,0435;0,0450686
3154,0076;0,0452391
3154,9719;0,045414
3155,9360;0,0455868
3156,9004;0,0457548
3157,8645;0,0459186
3158,8289;0,0460803
3159,7930;0,0462405
3160,7573;0,0463985
3161,7214;0,0465535
3162,6858;0,0467059
3163,6499;0,0468573
3164,6143;0,0470097
3165,5784;0,0471642
3166,5427;0,0473207
3167,5068;0,0474789
3168,4712;0,0476396
3169,4353;0,0478085
3170,3997;0,0479826
3171,3638;0,0481665
3172,3281;0,0483578
3173,2922;0,0485498
3174,2566;0,0487334
3175,2207;0,048901
3176,1851;0,0490505
3177,1492;0,049187
3178,1135;0,0493208
3179,0776;0,0494626
3180,0420;0,0496187
3181,0061;0,0497888
3181,9705;0,0499677
3182,9346;0,0501491
3183,8989;0,0503287
3184,8630;0,0505057
3185,8274;0,0506808
3186,7915;0,0508549
3187,7559;0,0510275
3188,7200;0,0511973
3189,6843;0,0513628
3190,6484;0,0515236
3191,6128;0,0516801
3192,5769;0,0518329
3193,5413;0,0519834
3194,5054;0,052133
3195,4697;0,0522832
3196,4338;0,0524342
3197,3982;0,0525843
3198,3623;0,0527311
3199,3267;0,0528731
3200,2908;0,0530118
3201,2551;0,053152
3202,2192;0,0532989
3203,1836;0,0534554
3204,1477;0,0536194
3205,1121;0,0537861
3206,0762;0,0539504
3207,0405;0,0541098
3208,0046;0,054265
3208,9690;0,0544178
3209,9331;0,0545696
3210,8975;0,0547209
3211,8616;0,0548725
3212,8259;0,0550268
3213,7900;0,0551861
3214,7544;0,055351
3215,7185;0,0555193
3216,6829;0,0556869
3217,6470;0,0558508
3218,6113;0,0560109
3219,5754;0,0561692
3220,5398;0,0563271
3221,5039;0,0564834
3222,4683;0,0566347
3223,4324;0,0567785
3224,3967;0,0569159
3225,3608;0,057052
3226,3252;0,0571935
3227,2893;0,0573443
3228,2537;0,0575035
3229,2178;0,0576659
3230,1821;0,0578242
3231,1462;0,0579733
3232,1106;0,0581121
3233,0747;0,0582444
3234,0391;0,0583785
3235,0032;0,0585235
3235,9675;0,0586865
3236,9316;0,0588681
3237,8960;0,0590615
3238,8601;0,0592543
3239,8245;0,0594335
3240,7886;0,0595921
3241,7529;0,059732
3242,7170;0,0598631
3243,6814;0,0599977
3244,6455;0,0601443
3245,6099;0,0603045
3246,5740;0,0604731
3247,5383;0,0606432
3248,5024;0,0608107
3249,4668;0,0609767
3250,4309;0,0611458
3251,3953;0,0613232
3252,3594;0,061511
3253,3237;0,0617072
3254,2878;0,0619056
3255,2522;0,0620978
3256,2163;0,0622765
3257,1807;0,0624376
3258,1448;0,062583
3259,1091;0,0627205
3260,0732;0,0628628
3261,0376;0,0630225
3262,0017;0,0632064
3262,9661;0,0634114
3263,9302;0,0636234
3264,8945;0,0638226
3265,8586;0,0639925
3266,8230;0,0641275
3267,7871;0,0642356
3268,7515;0,0643347
3269,7156;0,0644435
3270,6799;0,0645728
3271,6440;0,0647217
3272,6084;0,0648786
3273,5725;0,0650277
3274,5369;0,0651558
3275,5010;0,0652575
3276,4653;0,065336
3277,4294;0,0654
3278,3938;0,0654597
3279,3579;0,065523
3280,3223;0,0655931
3281,2864;0,0656688
3282,2507;0,0657459
3283,2148;0,0658201
3284,1792;0,0658886
3285,1433;0,0659508
3286,1077;0,0660075
3287,0718;0,0660597
3288,0361;0,0661081
3289,0002;0,0661525
3289,9646;0,0661915
3290,9287;0,0662231
3291,8931;0,0662443
3292,8572;0,0662523
3293,8215;0,0662469
3294,7856;0,066232
3295,7500;0,0662159
3296,7141;0,0662081
3297,6785;0,0662149
3298,6426;0,0662363
3299,6069;0,0662654
3300,5710;0,0662927
3301,5354;0,0663115
3302,4995;0,0663214
3303,4639;0,0663281
3304,4280;0,066339
3305,3923;0,0663586
3306,3564;0,0663859
3307,3208;0,0664151
3308,2849;0,0664402
3309,2493;0,0664581
3310,2134;0,0664701
3311,1777;0,0664799
3312,1418;0,0664915
3313,1062;0,0665077
3314,0703;0,0665312
3315,0347;0,0665655
3315,9988;0,0666154
3316,9631;0,0666839
3317,9272;0,06677
3318,8916;0,0668676
3319,8557;0,0669674
3320,8201;0,0670618
3321,7842;0,0671481
3322,7485;0,0672285
3323,7126;0,0673067
3324,6770;0,0673841
3325,6411;0,0674582
3326,6055;0,0675253
3327,5696;0,0675841
3328,5339;0,0676372
3329,4980;0,067689
3330,4624;0,0677408
3331,4265;0,0677884
3332,3909;0,0678227
3333,3550;0,0678351
3334,3193;0,0678235
3335,2834;0,0677939
3336,2478;0,0677576
3337,2119;0,0677242
3338,1763;0,0676956
3339,1404;0,0676648
3340,1047;0,0676198
3341,0688;0,0675505
3342,0332;0,0674536
3342,9973;0,0673345
3343,9617;0,0672034
3344,9258;0,0670706
3345,8901;0,0669425
3346,8542;0,06682
3347,8186;0,0667002
3348,7827;0,0665783
3349,7471;0,0664488
3350,7112;0,066307
3351,6755;0,0661501
3352,6396;0,0659789
3353,6040;0,0657986
3354,5681;0,0656183
3355,5325;0,0654468
3356,4966;0,0652889
3357,4609;0,0651429
3358,4250;0,0650022
3359,3894;0,0648597
3360,3535;0,0647118
3361,3179;0,06456
3362,2820;0,0644083
3363,2463;0,0642601
3364,2104;0,0641157
3365,1748;0,0639732
3366,1389;0,0638305
3367,1033;0,0636873
3368,0674;0,0635444
3369,0317;0,0634014
3369,9958;0,0632556
3370,9602;0,0631021
3371,9243;0,0629377
3372,8887;0,0627633
3373,8528;0,0625857
3374,8171;0,0624152
3375,7813;0,0622598
3376,7456;0,0621211
3377,7097;0,0619916
3378,6741;0,0618578
3379,6382;0,061707
3380,6025;0,061535
3381,5667;0,0613487
3382,5310;0,0611649
3383,4951;0,0610014
3384,4595;0,0608684
3385,4236;0,0607627
3386,3879;0,0606693
3387,3521;0,0605692
3388,3164;0,0604487
3389,2805;0,0603044
3390,2449;0,0601424
3391,2090;0,0599736
3392,1733;0,0598069
3393,1375;0,0596462
3394,1018;0,059491
3395,0659;0,0593388
3396,0303;0,0591882
3396,9944;0,0590392
3397,9587;0,0588913
3398,9229;0,0587423
3399,8872;0,0585882
3400,8513;0,0584255
3401,8157;0,0582536
3402,7798;0,0580756
3403,7441;0,0578968
3404,7083;0,0577229
3405,6726;0,0575575
3406,6367;0,0574011
3407,6011;0,0572508
3408,5652;0,0571009
3409,5295;0,0569442
3410,4937;0,0567741
3411,4580;0,0565878
3412,4221;0,0563889
3413,3865;0,0561869
3414,3506;0,0559931
3415,3149;0,0558145
3416,2791;0,0556492
3417,2434;0,055486
3418,2075;0,055309
3419,1719;0,0551058
3420,1360;0,0548738
3421,1003;0,0546233
3422,0645;0,0543726
3423,0288;0,0541401
3423,9929;0,0539357
3424,9573;0,0537574
3425,9214;0,0535931
3426,8857;0,0534266
3427,8499;0,0532453
3428,8142;0,0530459
3429,7783;0,0528355
3430,7427;0,0526261
3431,7068;0,0524272
3432,6711;0,0522407
3433,6353;0,0520597
3434,5996;0,0518732
3435,5637;0,0516715
3436,5281;0,0514498
3437,4922;0,0512102
3438,4565;0,0509613
3439,4207;0,0507164
3440,3850;0,0504895
3441,3491;0,05029
3442,3135;0,0501161
3443,2776;0,0499537
3444,2419;0,0497812
3445,2061;0,04958
3446,1704;0,0493453
3447,1345;0,0490901
3448,0989;0,0488374
3449,0630;0,0486059
3450,0273;0,0484013
3450,9915;0,0482157
3451,9558;0,0480362
3452,9199;0,0478524
3453,8843;0,0476598
3454,8484;0,0474589
3455,8127;0,0472514
3456,7769;0,0470381
3457,7412;0,0468202
3458,7053;0,0466007
3459,6697;0,0463852
3460,6338;0,0461787
3461,5981;0,0459826
3462,5623;0,0457932
3463,5266;0,0456034
3464,4907;0,0454067
3465,4551;0,0452
3466,4192;0,0449848
3467,3835;0,0447652
3468,3477;0,0445457
3469,3120;0,0443293
3470,2761;0,0441166
3471,2405;0,0439066
3472,2046;0,0436987
3473,1689;0,0434943
3474,1331;0,0432972
3475,0974;0,0431116
3476,0615;0,0429381
3477,0259;0,0427709
3477,9900;0,0425978
3478,9543;0,0424054
3479,9185;0,0421859
3480,8828;0,0419435
3481,8469;0,0416936
3482,8113;0,0414556
3483,7754;0,0412421
3484,7397;0,0410534
3485,7039;0,0408802
3486,6682;0,04071
3487,6323;0,040535
3488,5967;0,0403546
3489,5608;0,0401725
3490,5251;0,0399905
3491,4893;0,0398041
3492,4536;0,0396047
3493,4177;0,0393869
3494,3821;0,0391563
3495,3462;0,0389313
3496,3105;0,0387341
3497,2747;0,0385753
3498,2390;0,0384445
3499,2031;0,0383131
3500,1675;0,0381486
3501,1316;0,0379348
3502,0959;0,0376847
3503,0601;0,0374357
3504,0244;0,0372245
3504,9885;0,037062
3505,9529;0,0369274
3506,9170;0,0367843
3507,8813;0,0366032
3508,8455;0,0363788
3509,8098;0,0361318
3510,7739;0,0358945
3511,7383;0,0356896
3512,7024;0,0355188
3513,6667;0,0353688
3514,6309;0,0352243
3515,5952;0,0350791
3516,5593;0,0349362
3517,5237;0,0348013
3518,4878;0,034674
3519,4521;0,0345451
3520,4163;0,0344015
3521,3806;0,0342338
3522,3447;0,0340415
3523,3091;0,0338314
3524,2732;0,0336106
3525,2375;0,0333816
3526,2017;0,0331448
3527,1660;0,0329058
3528,1301;0,0326802
3529,0945;0,0324872
3530,0586;0,0323372
3531,0229;0,032222
3531,9871;0,0321167
3532,9514;0,0319914
3533,9155;0,031825
3534,8799;0,0316159
3535,8440;0,0313844
3536,8083;0,0311636
3537,7725;0,0309839
3538,7368;0,0308589
3539,7009;0,0307807
3540,6653;0,030723
3541,6294;0,0306481
3542,5938;0,0305175
3543,5579;0,0303086
3544,5222;0,0300331
3545,4863;0,0297395
3546,4507;0,0294867
3547,4148;0,0293051
3548,3792;0,0291804
3549,3433;0,0290679
3550,3076;0,0289204
3551,2717;0,0287154
3552,2361;0,0284686
3553,2002;0,0282239
3554,1646;0,0280235
3555,1287;0,0278802
3556,0930;0,0277757
3557,0571;0,0276791
3558,0215;0,0275711
3558,9856;0,027458
3559,9500;0,0273663
3560,9141;0,0273193
3561,8784;0,0273103
3562,8425;0,027292
3563,8069;0,0271857
3564,7710;0,0269154
3565,7354;0,0264687
3566,6995;0,0259459
3567,6638;0,0255084
3568,6279;0,0252512
3569,5923;0,0251512
3570,5564;0,0251247
3571,5208;0,0250931
3572,4849;0,0250109
3573,4492;0,0248709
3574,4133;0,0246946
3575,3777;0,0245133
3576,3418;0,0243475
3577,3062;0,0242016
3578,2703;0,0240757
3579,2346;0,0239795
3580,1987;0,0239315
3581,1631;0,0239424
3582,1272;0,0239948
3583,0916;0,024036
3584,0557;0,0239874
3585,0200;0,023776
3585,9841;0,0233921
3586,9485;0,022937
3587,9126;0,0225776
3588,8770;0,0224134
3589,8411;0,0224154
3590,8054;0,0224822
3591,7695;0,0225124
3592,7339;0,0224444
3593,6980;0,0222733
3594,6624;0,022046
3595,6265;0,0218239
3596,5908;0,0216346
3597,5549;0,0214627
3598,5193;0,0212814
3599,4834;0,0210922
3600,4478;0,0209333
3601,4119;0,0208498
3602,3762;0,0208517
3603,3403;0,020901
3604,3047;0,0209318
3605,2688;0,0208829
3606,2332;0,0207293
3607,1973;0,0204985
3608,1616;0,0202547
3609,1257;0,0200517
3610,0901;0,0199003
3611,0542;0,0197797
3612,0186;0,0196718
3612,9827;0,0195779
3613,9470;0,019506
3614,9111;0,0194462
3615,8755;0,0193576
3616,8396;0,0191852
3617,8040;0,0189021
3618,7681;0,0185564
3619,7324;0,0182679
3620,6965;0,01815
3621,6609;0,018234
3622,6250;0,0184702
3623,5894;0,0187687
3624,5535;0,0190222
3625,5178;0,0191071
3626,4819;0,0189027
3627,4463;0,018377
3628,4104;0,0176971
3629,3748;0,0171535
3630,3389;0,0168937
3631,3032;0,0168452
3632,2673;0,0168626
3633,2317;0,0168441
3634,1958;0,0167544
3635,1602;0,01661
3636,1243;0,01645
3637,0886;0,0163072
3638,0527;0,016195
3639,0171;0,0161163
3639,9812;0,0160808
3640,9456;0,0161111
3641,9097;0,0162293
3642,8740;0,0164361
3643,8381;0,0166952
3644,8025;0,0169256
3645,7666;0,0169976
3646,7310;0,0167553
3647,6951;0,0161307
3648,6594;0,0153272
3649,6235;0,0147375
3650,5879;0,0145422
3651,5520;0,0146171
3652,5164;0,014762
3653,4805;0,0148339
3654,4448;0,0147641
3655,4089;0,0145632
3656,3733;0,014316
3657,3374;0,0141272
3658,3018;0,014045
3659,2659;0,0140422
3660,2302;0,014065
3661,1943;0,0140851
3662,1587;0,0141187
3663,1228;0,0142058
3664,0872;0,01437
3665,0513;0,0145892
3666,0156;0,0147975
3666,9797;0,0149143
3667,9441;0,014894
3668,9082;0,0147791
3669,8726;0,0146841
3670,8367;0,0146825
3671,8010;0,0147273
3672,7651;0,0146882
3673,7295;0,0144426
3674,6936;0,0139803
3675,6580;0,0134647
3676,6221;0,0131175
3677,5864;0,013017
3678,5505;0,013085
3679,5149;0,0132161
3680,4790;0,013357
3681,4434;0,0135097
3682,4075;0,0137007
3683,3718;0,013945
3684,3359;0,0142191
3685,3003;0,0144549
3686,2644;0,0145537
3687,2288;0,0144269
3688,1929;0,0140764
3689,1572;0,0136523
3690,1213;0,0133583
3691,0857;0,0132787
3692,0498;0,0133581
3693,0142;0,0135055
3693,9783;0,0136618
3694,9426;0,0138059
3695,9067;0,0139353
3696,8711;0,0140451
3697,8352;0,0141156
3698,7996;0,0141156
3699,7637;0,0140239
3700,7280;0,0138594
3701,6921;0,0136928
3702,6565;0,0136151
3703,6206;0,0136818
3704,5850;0,0138872
3705,5491;0,014178
3706,5134;0,0144724
3707,4775;0,014668
3708,4419;0,0146537
3709,4060;0,0143591
3710,3704;0,0138448
3711,3345;0,0133231
3712,2988;0,0130057
3713,2629;0,0129493
3714,2273;0,0130826
3715,1914;0,013306
3716,1558;0,0135439
3717,1199;0,013752
3718,0842;0,0139127
3719,0483;0,0140288
3720,0127;0,0141118
3720,9768;0,0141677
3721,9412;0,0141899
3722,9053;0,0141695
3723,8696;0,0141161
3724,8337;0,0140682
3725,7981;0,014077
3726,7622;0,014175
3727,7266;0,0143595
3728,6907;0,0145978
3729,6550;0,0148408
3730,6191;0,0150276
3731,5835;0,0150852
3732,5476;0,0149396
3733,5120;0,0145632
3734,4761;0,0140474
3735,4404;0,0135997
3736,4045;0,0134005
3737,3689;0,0134848
3738,3330;0,0137743
3739,2974;0,0141556
3740,2615;0,0145128
3741,2258;0,0147301
3742,1899;0,0147127
3743,1543;0,0144617
3744,1184;0,0141429
3745,0828;0,0139863
3746,0469;0,0140702
3747,0112;0,0142748
3747,9753;0,0143969
3748,9397;0,0142616
3749,9038;0,0138368
3750,8682;0,0133216
3751,8323;0,0130058
3752,7966;0,0129946
3753,7607;0,0131826
3754,7251;0,0134103
3755,6892;0,0135557
3756,6536;0,0135573
3757,6177;0,0134287
3758,5820;0,0132565
3759,5461;0,0131468
3760,5105;0,0131514
3761,4746;0,0132505
3762,4390;0,0133904
3763,4031;0,013523
3764,3674;0,0136199
3765,3315;0,0136689
3766,2959;0,0136629
3767,2600;0,0135934
3768,2244;0,0134598
3769,1885;0,0132879
3770,1528;0,0131354
3771,1169;0,0130667
3772,0813;0,0131136
3773,0454;0,0132578
3774,0098;0,0134443
3774,9739;0,0136054
3775,9382;0,0136821
3776,9023;0,0136471
3777,8667;0,0135241
3778,8308;0,0133813
3779,7952;0,0132862
3780,7593;0,013261
3781,7236;0,0132804
3782,6877;0,013304
3783,6521;0,0133034
3784,6162;0,0132742
3785,5806;0,013231
3786,5447;0,0131969
3787,5090;0,0131926
3788,4731;0,0132306
3789,4375;0,0133126
3790,4016;0,0134283
3791,3660;0,0135574
3792,3301;0,0136776
3793,2944;0,0137773
3794,2585;0,0138646
3795,2229;0,0139617
3796,1870;0,0140808
3797,1514;0,0141993
3798,1155;0,0142591
3799,0798;0,0142008
3800,0439;0,0140196
3801,0083;0,0137959
3801,9724;0,0136409
3802,9368;0,0135937
3803,9009;0,0135946
3804,8652;0,0135489
3805,8293;0,0134088
3806,7937;0,0132214
3807,7578;0,0131058
3808,7222;0,0131563
3809,6863;0,0133715
3810,6506;0,0136745
3811,6147;0,0139695
3812,5791;0,0141802
3813,5432;0,0142758
3814,5076;0,0142895
3815,4717;0,0142998
3816,4360;0,0143559
3817,4001;0,0144207
3818,3645;0,0143984
3819,3286;0,014217
3820,2930;0,0139021
3821,2571;0,0135781
3822,2214;0,0133699
3823,1855;0,0133109
3824,1499;0,0133563
3825,1140;0,0134456
3826,0784;0,0135405
3827,0425;0,01363
3828,0068;0,0137196
3828,9709;0,0138185
3829,9353;0,013932
3830,8994;0,0140616
3831,8638;0,0142057
3832,8279;0,0143554
3833,7922;0,014487
3834,7563;0,0145594
3835,7207;0,0145264
3836,6848;0,0143653
3837,6492;0,0141066
3838,6133;0,0138277
3839,5776;0,013601
3840,5417;0,0134496
3841,5061;0,0133569
3842,4702;0,013306
3843,4346;0,013306
3844,3987;0,0133891
3845,3630;0,0135879
3846,3271;0,0139118
3847,2915;0,0143379
3848,2556;0,0148092
3849,2200;0,0152287
3850,1841;0,0154452
3851,1484;0,01527
3852,1125;0,0146177
3853,0769;0,013743
3854,0410;0,0131253
3855,0054;0,0129707
3855,9695;0,0131456
3856,9338;0,01346
3857,8979;0,0137917
3858,8623;0,01407
3859,8264;0,0142488
3860,7908;0,0143037
3861,7549;0,0142505
3862,7192;0,0141558
3863,6833;0,0141053
3864,6477;0,0141434
3865,6118;0,0142462
3866,5762;0,0143478
3867,5403;0,0143811
3868,5046;0,014307
3869,4688;0,0141319
3870,4331;0,0139079
3871,3972;0,0137085
3872,3616;0,0135927
3873,3257;0,0135841
3874,2900;0,0136722
3875,2542;0,0138217
3876,2185;0,013984
3877,1826;0,0141088
3878,1470;0,014161
3879,1111;0,0141376
3880,0754;0,0140698
3881,0396;0,0139975
3882,0039;0,0139361
3882,9680;0,0138744
3883,9324;0,0138061
3884,8965;0,0137546
3885,8608;0,0137593
3886,8250;0,0138315
3887,7893;0,0139309
3888,7534;0,013985
3889,7178;0,0139364
3890,6819;0,0137938
3891,6462;0,013649
3892,6104;0,0136181
3893,5747;0,0137502
3894,5388;0,0140051
3895,5032;0,0143009
3896,4673;0,0145602
3897,4316;0,0147301
3898,3958;0,0147871
3899,3601;0,014732
3900,3242;0,0145756
3901,2886;0,0143293
3902,2527;0,0140209
3903,2170;0,0137127
3904,1812;0,0134833
3905,1455;0,0133794
3906,1096;0,0133897
3907,0740;0,0134661
3908,0381;0,0135601
3909,0024;0,0136452
3909,9666;0,0137208
3910,9309;0,0138012
3911,8950;0,0138977
3912,8594;0,0140031
3913,8235;0,0140898
3914,7878;0,0141238
3915,7520;0,0140886
3916,7163;0,0140047
3917,6804;0,013922
3918,6448;0,0138853
3919,6089;0,0139018
3920,5732;0,0139414
3921,5374;0,0139617
3922,5017;0,013938
3923,4658;0,013881
3924,4302;0,0138322
3925,3943;0,0138338
3926,3586;0,0138967
3927,3228;0,013993
3928,2871;0,0140731
3929,2512;0,0140915
3930,2156;0,0140301
3931,1797;0,0139099
3932,1440;0,0137804
3933,1082;0,0136903
3934,0725;0,0136642
3935,0366;0,013701
3936,0010;0,0137848
3936,9651;0,0138923
3937,9294;0,0139952
3938,8936;0,0140635
3939,8579;0,0140754
3940,8220;0,0140306
3941,7864;0,0139562
3942,7505;0,0138948
3943,7148;0,0138771
3944,6790;0,0139023
3945,6433;0,0139419
3946,6074;0,0139606
3947,5718;0,0139392
3948,5359;0,0138868
3949,5002;0,0138324
3950,4644;0,0138042
3951,4287;0,0138105
3952,3928;0,01384
3953,3572;0,0138751
3954,3213;0,0139046
3955,2856;0,0139273
3956,2498;0,0139472
3957,2141;0,0139656
3958,1782;0,013978
3959,1426;0,0139772
3960,1067;0,0139608
3961,0710;0,0139355
3962,0352;0,0139137
3962,9995;0,0139061
3963,9636;0,0139155
3964,9280;0,0139358
3965,8921;0,0139565
3966,8564;0,0139688
3967,8206;0,0139694
3968,7849;0,01396
3969,7490;0,0139458
3970,7134;0,0139321
3971,6775;0,0139226
3972,6418;0,0139198
3973,6060;0,0139247
3974,5703;0,0139371
3975,5344;0,0139548
3976,4988;0,0139742
3977,4629;0,0139903
3978,4272;0,0139983
3979,3914;0,0139953
3980,3557;0,0139812
3981,3198;0,0139599
3982,2842;0,0139387
3983,2483;0,0139263
3984,2126;0,0139295
3985,1768;0,0139506
3986,1411;0,013986
3987,1052;0,0140274
3988,0696;0,0140645
3989,0337;0,0140886
3989,9980;0,0140952
3990,9622;0,0140842
3991,9265;0,0140599
3992,8906;0,0140298
3993,8550;0,0140025
3994,8191;0,0139857
3995,7834;0,0139833
3996,7476;0,0139937
3997,7119;0,0140104
3998,6760;0,0140257
3999,6404;0,0140348
4000,6045;0,0139944

##### Extended Information
[Comments]
Sample name
Comment
Username
Division
Organization;UNIVERSIDAD INDUSTRIAL DE SANTANDER

[Detailed Information]
Creation date;14/03/2025 11:24 a.m.

Data array type;Linear data array
Horizontal axis;Wavenumber [cm-1]
Vertical axis;Abs
Start;399,193 cm-1
End;4000,6 cm-1
Data interval;0,964233 cm-1
Data points;3736    

[Measurement Information]
Model name;FT/IR-4X1typeA
Serial No.;A035162111

Accessory;ATR PRO 4X
Accessory S/N;A021162126
Incident angle;45 deg

Measurement date;14/03/2025 11:23 a.m.

Light source;Standard
Detector;TGS
Accumulation;40
Resolution;4 cm-1
Zero filling;On
Apodization;Cosine
Gain;Auto (8)
Aperture;Auto (7 mm)
Scan speed;Auto (2 mm/sec)
Filter;Auto (12800 Hz)

