TITLE;
DATA TYPE;INFRARED SPECTRUM
ORIGIN;JASCO
OWNER;
DATE;25/03/14
TIME;11:42:36
SPECTROMETER/DATA SYSTEM;
LOCALE;9226
RESOLUTION;
DELTAX;0,964233
XUNITS;1/CM
YUNITS;ABSORBANCE
FIRSTX;  399,1927
LASTX; 4000,6047
NPOINTS;    3736
FIRSTY;     0,15142
MAXY;     0,22475
MINY;     0,01318
XYDATA
399,1927;0,151419
400,1569;0,151235
401,1211;0,150665
402,0854;0,149996
403,0496;0,149355
404,0138;0,148803
404,9781;0,148403
405,9423;0,148237
406,9065;0,148375
407,8708;0,14883
408,8350;0,149541
409,7992;0,150388
410,7635;0,151235
411,7277;0,151987
412,6919;0,152627
413,6562;0,153209
414,6204;0,153806
415,5846;0,154457
416,5489;0,155134
417,5131;0,155737
418,4773;0,156156
419,4416;0,156409
420,4058;0,156654
421,3700;0,157001
422,3343;0,157397
423,2985;0,157686
424,2627;0,157722
425,2270;0,157469
426,1912;0,157044
427,1554;0,156669
428,1197;0,156539
429,0839;0,156717
430,0481;0,157123
431,0124;0,157591
431,9766;0,157969
432,9408;0,158177
433,9051;0,158209
434,8693;0,158079
435,8335;0,157779
436,7978;0,157282
437,7620;0,156592
438,7262;0,155786
439,6905;0,155005
440,6547;0,154413
441,6189;0,154123
442,5832;0,154131
443,5474;0,154296
444,5116;0,1544
445,4759;0,15426
446,4401;0,15382
447,4043;0,15315
448,3686;0,152408
449,3328;0,151771
450,2970;0,151388
451,2613;0,151321
452,2255;0,151526
453,1897;0,151865
454,1540;0,15217
455,1182;0,152297
456,0824;0,152176
457,0467;0,151829
458,0109;0,151365
458,9751;0,15091
459,9394;0,150531
460,9036;0,150215
461,8678;0,149905
462,8321;0,149545
463,7963;0,149108
464,7605;0,148599
465,7248;0,148052
466,6890;0,14753
467,6532;0,14711
468,6175;0,14687
469,5817;0,146862
470,5459;0,147091
471,5102;0,147485
472,4744;0,147913
473,4386;0,14825
474,4029;0,148456
475,3671;0,148588
476,3313;0,148736
477,2956;0,148948
478,2598;0,149189
479,2240;0,14936
480,1883;0,149357
481,1525;0,149155
482,1167;0,148857
483,0810;0,148668
484,0452;0,148801
485,0094;0,149341
485,9737;0,150184
486,9379;0,151096
487,9021;0,151844
488,8664;0,152303
489,8306;0,15249
490,7948;0,152535
491,7591;0,152612
492,7233;0,152847
493,6875;0,153271
494,6518;0,153823
495,6160;0,154404
496,5802;0,154933
497,5445;0,155376
498,5087;0,155737
499,4729;0,156038
500,4372;0,156306
501,4014;0,156567
502,3656;0,156849
503,3299;0,157191
504,2941;0,157624
505,2583;0,158157
506,2226;0,158754
507,1868;0,159343
508,1510;0,159845
509,1153;0,160223
510,0795;0,160507
511,0437;0,160777
512,0080;0,161121
512,9722;0,161577
513,9365;0,162122
514,9007;0,162693
515,8649;0,163221
516,8292;0,163669
517,7934;0,164043
518,7576;0,164366
519,7219;0,164653
520,6861;0,164902
521,6503;0,16511
522,6146;0,165294
523,5788;0,165494
524,5430;0,165755
525,5073;0,166094
526,4715;0,166477
527,4357;0,166825
528,4000;0,167051
529,3642;0,167096
530,3284;0,166948
531,2927;0,166642
532,2569;0,166251
533,2211;0,165875
534,1854;0,1656
535,1496;0,165465
536,1138;0,16544
537,0781;0,165447
538,0423;0,165399
539,0065;0,165258
539,9708;0,165048
540,9350;0,164846
541,8992;0,164742
542,8635;0,164796
543,8277;0,165017
544,7919;0,165371
545,7562;0,165799
546,7204;0,166237
547,6846;0,166639
548,6489;0,166979
549,6131;0,167258
550,5773;0,167493
551,5416;0,167721
552,5058;0,167985
553,4700;0,168335
554,4343;0,168801
555,3985;0,169381
556,3627;0,17002
557,3270;0,170603
558,2912;0,170983
559,2554;0,171026
560,2197;0,170667
561,1839;0,169938
562,1481;0,168966
563,1124;0,167922
564,0766;0,166962
565,0408;0,166178
566,0051;0,165588
566,9693;0,165159
567,9335;0,164835
568,8978;0,164566
569,8620;0,164327
570,8262;0,16412
571,7905;0,163964
572,7547;0,163877
573,7189;0,163861
574,6832;0,163888
575,6474;0,163899
576,6116;0,163836
577,5759;0,163671
578,5401;0,16343
579,5043;0,163178
580,4686;0,162983
581,4328;0,162879
582,3970;0,162846
583,3613;0,162831
584,3255;0,162786
585,2897;0,162696
586,2540;0,162586
587,2182;0,162501
588,1824;0,162468
589,1467;0,162484
590,1109;0,162507
591,0751;0,162483
592,0394;0,162366
593,0036;0,162141
593,9678;0,161835
594,9321;0,161494
595,8963;0,161159
596,8605;0,160851
597,8248;0,160559
598,7890;0,160256
599,7532;0,159917
600,7175;0,159532
601,6817;0,159114
602,6459;0,158683
603,6102;0,158257
604,5744;0,157846
605,5386;0,15746
606,5029;0,157105
607,4671;0,156786
608,4313;0,156491
609,3956;0,15619
610,3598;0,155849
611,3240;0,155449
612,2883;0,15501
613,2525;0,154575
614,2167;0,154178
615,1810;0,153808
616,1452;0,153396
617,1094;0,152843
618,0737;0,152075
619,0379;0,151086
620,0021;0,149938
620,9664;0,148716
621,9306;0,147496
622,8948;0,14633
623,8591;0,145255
624,8233;0,144275
625,7875;0,14347
626,7518;0,142838
627,7160;0,142343
628,6802;0,141916
629,6445;0,141488
630,6087;0,141011
631,5729;0,140477
632,5372;0,139913
633,5014;0,139362
634,4656;0,138859
635,4299;0,138419
636,3941;0,138034
637,3583;0,137686
638,3226;0,137361
639,2868;0,137054
640,2510;0,136772
641,2153;0,136521
642,1795;0,136301
643,1437;0,136106
644,1080;0,135927
645,0722;0,135758
646,0364;0,135597
647,0007;0,135444
647,9649;0,135295
648,9291;0,135142
649,8934;0,134978
650,8576;0,134802
651,8218;0,13463
652,7861;0,134496
653,7503;0,134443
654,7145;0,134507
655,6788;0,134689
656,6430;0,134952
657,6072;0,135228
658,5715;0,135443
659,5357;0,135529
660,4999;0,135431
661,4642;0,135104
662,4284;0,134503
663,3926;0,13358
664,3569;0,132331
665,3211;0,130906
666,2853;0,129694
667,2496;0,129163
668,2138;0,129328
669,1780;0,129601
670,1423;0,129601
671,1065;0,129312
672,0707;0,128681
673,0350;0,127647
673,9992;0,126272
674,9634;0,124734
675,9277;0,12322
676,8919;0,121829
677,8561;0,120547
678,8204;0,119316
679,7846;0,118106
680,7488;0,116943
681,7131;0,115874
682,6773;0,114925
683,6415;0,114081
684,6058;0,113316
685,5700;0,112612
686,5342;0,111966
687,4985;0,111381
688,4627;0,110852
689,4269;0,110354
690,3912;0,109868
691,3554;0,109394
692,3196;0,108948
693,2839;0,108549
694,2481;0,108203
695,2123;0,107894
696,1766;0,107588
697,1408;0,107246
698,1050;0,106842
699,0693;0,106372
700,0335;0,105861
700,9977;0,105351
701,9620;0,104881
702,9262;0,104468
703,8904;0,104089
704,8547;0,103709
705,8189;0,103292
706,7831;0,102819
707,7474;0,102298
708,7116;0,101754
709,6758;0,101213
710,6401;0,100689
711,6043;0,100176
712,5685;0,0996616
713,5328;0,099141
714,4970;0,098626
715,4612;0,0975127
716,4255;0,0972016
717,3897;0,0969675
718,3539;0,09672
719,3182;0,0963321
720,2824;0,0957057
721,2466;0,0948334
722,2109;0,0938073
723,1751;0,0927647
724,1393;0,0918175
725,1036;0,0910102
726,0678;0,0903225
727,0320;0,0896983
727,9963;0,0890821
728,9605;0,0884428
729,9247;0,0877783
730,8890;0,0871058
731,8532;0,0864479
732,8174;0,0858246
733,7817;0,0852498
734,7459;0,0847306
735,7101;0,0842672
736,6744;0,0838536
737,6386;0,0834789
738,6028;0,0831293
739,5671;0,0827903
740,5313;0,0824476
741,4955;0,082089
742,4598;0,0817062
743,4240;0,0812981
744,3882;0,080871
745,3525;0,0804371
746,3167;0,0800081
747,2809;0,0795893
748,2452;0,0791765
749,2094;0,0787577
750,1736;0,0783212
751,1379;0,0778629
752,1021;0,0773904
753,0663;0,0769199
754,0306;0,0764675
754,9948;0,0760416
755,9590;0,075639
756,9233;0,0752488
757,8875;0,0748601
758,8517;0,0744696
759,8160;0,0740828
760,7802;0,0737108
761,7444;0,0733633
762,7087;0,0730426
763,6729;0,0727431
764,6371;0,0724543
765,6014;0,0721665
766,5656;0,0718746
767,5298;0,0715794
768,4941;0,0712855
769,4583;0,0709973
770,4225;0,0707176
771,3868;0,0704464
772,3510;0,0701825
773,3152;0,0699236
774,2795;0,0696673
775,2437;0,0694105
776,2079;0,0691505
777,1722;0,068886
778,1364;0,0686181
779,1006;0,0683498
780,0649;0,0680834
781,0291;0,0678187
781,9933;0,0675533
782,9576;0,0672844
783,9218;0,0670115
784,8860;0,0667366
785,8503;0,0664629
786,8145;0,0661925
787,7787;0,0659262
788,7430;0,0656665
789,7072;0,0654206
790,6714;0,065201
791,6357;0,0650199
792,5999;0,0648826
793,5641;0,0647828
794,5284;0,0647045
795,4926;0,0646291
796,4568;0,0645443
797,4211;0,0644468
798,3853;0,0643391
799,3495;0,064224
800,3138;0,064101
801,2780;0,0639689
802,2422;0,0638325
803,2065;0,0637049
804,1707;0,0636031
805,1349;0,0635376
806,0992;0,0635027
807,0634;0,0634764
808,0276;0,0634302
808,9919;0,0633446
809,9561;0,0632191
810,9203;0,0630713
811,8846;0,0629254
812,8488;0,0627988
813,8130;0,0626954
814,7773;0,0626077
815,7415;0,0625251
816,7057;0,0624408
817,6700;0,0623525
818,6342;0,0622605
819,5984;0,0621648
820,5627;0,0620667
821,5269;0,0619713
822,4911;0,0618872
823,4554;0,0618226
824,4196;0,0617782
825,3839;0,0617446
826,3481;0,0617066
827,3123;0,0616516
828,2766;0,0615769
829,2408;0,0614898
830,2050;0,061401
831,1693;0,0613149
832,1335;0,0612251
833,0977;0,0611176
834,0620;0,0609778
835,0262;0,0607984
835,9904;0,0605822
836,9547;0,0603399
837,9189;0,0600853
838,8831;0,0598305
839,8474;0,0595835
840,8116;0,0593486
841,7758;0,0591285
842,7401;0,0589274
843,7043;0,0587517
844,6685;0,0586073
845,6328;0,058494
846,5970;0,0584009
847,5612;0,0583074
848,5255;0,0581912
849,4897;0,0580409
850,4539;0,057865
851,4182;0,0576898
852,3824;0,0575472
853,3466;0,0574571
854,3109;0,057416
855,2751;0,0573979
856,2393;0,0573674
857,2036;0,0572983
858,1678;0,0571868
859,1320;0,0570538
860,0963;0,0569347
861,0605;0,0568636
862,0247;0,0568584
862,9890;0,0569141
863,9532;0,0570079
864,9174;0,0571116
865,8817;0,0572056
866,8459;0,0572869
867,8101;0,0573663
868,7744;0,057459
869,7386;0,0575745
870,7028;0,0577124
871,6671;0,0578657
872,6313;0,058027
873,5955;0,0581922
874,5598;0,058358
875,5240;0,058519
876,4882;0,0586665
877,4525;0,0587954
878,4167;0,0589126
879,3809;0,0590403
880,3452;0,0592108
881,3094;0,059453
882,2736;0,0597818
883,2379;0,0601951
884,2021;0,0606817
885,1663;0,0612331
886,1306;0,0618495
887,0948;0,0625373
888,0590;0,0632988
889,0233;0,0641235
889,9875;0,0649863
890,9517;0,0658538
891,9160;0,0666912
892,8802;0,067468
893,8444;0,0681572
894,8087;0,0687319
895,7729;0,0691645
896,7371;0,0694286
897,7014;0,0695051
898,6656;0,0693869
899,6298;0,069082
900,5941;0,0686123
901,5583;0,0680106
902,5225;0,0673164
903,4868;0,0665728
904,4510;0,0658222
905,4152;0,0651027
906,3795;0,0644457
907,3437;0,063873
908,3079;0,0633961
909,2722;0,0630168
910,2364;0,0627287
911,2007;0,0625198
912,1649;0,0623766
913,1292;0,0622884
914,0934;0,062249
915,0576;0,0622577
916,0219;0,0623147
916,9861;0,0624174
917,9503;0,0625565
918,9146;0,0627171
919,8788;0,0628827
920,8430;0,0630419
921,8073;0,0631921
922,7715;0,063338
923,7357;0,0634863
924,7000;0,0636393
925,6642;0,0637922
926,6284;0,063937
927,5927;0,0640687
928,5569;0,0641916
929,5211;0,0643187
930,4854;0,0644651
931,4496;0,0646394
932,4138;0,0648385
933,3781;0,0650501
934,3423;0,0652623
935,3065;0,0654739
936,2708;0,0656984
937,2350;0,0659596
938,1992;0,066281
939,1635;0,0666756
940,1277;0,0671415
941,0919;0,0676668
942,0562;0,0682381
943,0204;0,0688499
943,9846;0,0695074
944,9489;0,0702236
945,9131;0,0710122
946,8773;0,0718814
947,8416;0,0728299
948,8058;0,0738488
949,7700;0,0749264
950,7343;0,0760531
951,6985;0,0772251
952,6627;0,0784446
953,6270;0,0797163
954,5912;0,0810441
955,5554;0,0824271
956,5197;0,0838602
957,4839;0,0853361
958,4481;0,0868486
959,4124;0,0883938
960,3766;0,0899699
961,3408;0,0915736
962,3051;0,0931992
963,2693;0,0948392
964,2335;0,0964868
965,1978;0,09814
966,1620;0,0998025
967,1262;0,101484
968,0905;0,103199
969,0547;0,104964
970,0189;0,1068
970,9832;0,108734
971,9474;0,110793
972,9116;0,113009
973,8759;0,115408
974,8401;0,118014
975,8043;0,120839
976,7686;0,123887
977,7328;0,127148
978,6970;0,130592
979,6613;0,134166
980,6255;0,13779
981,5897;0,141361
982,5540;0,144768
983,5182;0,147912
984,4824;0,150723
985,4467;0,153179
986,4109;0,155298
987,3751;0,15713
988,3394;0,158733
989,3036;0,160163
990,2678;0,161457
991,2321;0,162639
992,1963;0,163721
993,1605;0,16471
994,1248;0,165617
995,0890;0,166458
996,0532;0,167258
997,0175;0,168046
997,9817;0,168854
998,9459;0,169701
999,9102;0,170598
1000,8744;0,171544
1001,8386;0,172531
1002,8029;0,17356
1003,7671;0,174647
1004,7313;0,175821
1005,6956;0,177124
1006,6598;0,178597
1007,6240;0,180274
1008,5883;0,182171
1009,5525;0,184288
1010,5167;0,186603
1011,4810;0,189075
1012,4452;0,191649
1013,4094;0,194261
1014,3737;0,196853
1015,3379;0,199375
1016,3021;0,201791
1017,2664;0,204081
1018,2306;0,206234
1019,1948;0,208247
1020,1591;0,210129
1021,1233;0,211894
1022,0875;0,213566
1023,0518;0,21517
1024,0160;0,216727
1024,9802;0,218244
1025,9445;0,219711
1026,9087;0,221098
1027,8729;0,222358
1028,8372;0,223429
1029,8014;0,224238
1030,7656;0,224704
1031,7299;0,224752
1032,6941;0,22432
1033,6583;0,223381
1034,6226;0,221957
1035,5868;0,220128
1036,5510;0,218026
1037,5153;0,215817
1038,4795;0,213671
1039,4437;0,211737
1040,4080;0,210116
1041,3722;0,208855
1042,3364;0,207945
1043,3007;0,207329
1044,2649;0,20692
1045,2291;0,206614
1046,1934;0,206316
1047,1576;0,20595
1048,1218;0,205464
1049,0861;0,20483
1050,0503;0,204027
1051,0145;0,203039
1051,9788;0,201851
1052,9430;0,200452
1053,9072;0,198845
1054,8715;0,197042
1055,8357;0,195051
1056,7999;0,192859
1057,7642;0,190428
1058,7284;0,187703
1059,6926;0,184648
1060,6569;0,18127
1061,6211;0,177645
1062,5853;0,173904
1063,5496;0,170201
1064,5138;0,166676
1065,4780;0,163416
1066,4423;0,160453
1067,4065;0,157772
1068,3707;0,155327
1069,3350;0,15307
1070,2992;0,150958
1071,2634;0,148955
1072,2277;0,147032
1073,1919;0,145162
1074,1561;0,143318
1075,1204;0,141477
1076,0846;0,139623
1077,0488;0,137755
1078,0131;0,13589
1078,9773;0,134062
1079,9415;0,132315
1080,9058;0,1307
1081,8700;0,129257
1082,8342;0,128006
1083,7985;0,126945
1084,7627;0,126054
1085,7269;0,125298
1086,6912;0,124647
1087,6554;0,124074
1088,6196;0,123567
1089,5839;0,123123
1090,5481;0,122749
1091,5123;0,122454
1092,4766;0,122247
1093,4408;0,122133
1094,4050;0,122113
1095,3693;0,122183
1096,3335;0,122333
1097,2977;0,122553
1098,2620;0,122829
1099,2262;0,123148
1100,1904;0,123492
1101,1547;0,123837
1102,1189;0,124154
1103,0831;0,124406
1104,0474;0,12456
1105,0116;0,12459
1105,9758;0,12449
1106,9401;0,124265
1107,9043;0,123929
1108,8685;0,123487
1109,8328;0,122922
1110,7970;0,1222
1111,7612;0,121286
1112,7255;0,120163
1113,6897;0,118858
1114,6539;0,117441
1115,6182;0,116006
1116,5824;0,114642
1117,5466;0,113406
1118,5109;0,112307
1119,4751;0,11131
1120,4393;0,110349
1121,4036;0,109347
1122,3678;0,108227
1123,3320;0,106929
1124,2963;0,105417
1125,2605;0,103685
1126,2247;0,101756
1127,1890;0,0996745
1128,1532;0,0974927
1129,1174;0,0952584
1130,0817;0,0930104
1131,0459;0,0907796
1132,0101;0,0885954
1132,9744;0,0864907
1133,9386;0,084503
1134,9028;0,0826717
1135,8671;0,0810333
1136,8313;0,0796175
1137,7955;0,0784441
1138,7598;0,0775215
1139,7240;0,0768453
1140,6882;0,0763987
1141,6525;0,0761559
1142,6167;0,0760864
1143,5809;0,0761606
1144,5452;0,0763523
1145,5094;0,076641
1146,4736;0,0770118
1147,4379;0,0774554
1148,4021;0,0779678
1149,3663;0,0785477
1150,3306;0,0791916
1151,2948;0,0798873
1152,2590;0,0806105
1153,2233;0,0813261
1154,1875;0,0819923
1155,1517;0,0825663
1156,1160;0,0830052
1157,0802;0,0832634
1158,0444;0,0832889
1159,0087;0,0830233
1159,9729;0,0824087
1160,9371;0,0813986
1161,9014;0,0799702
1162,8656;0,0781316
1163,8298;0,0759228
1164,7941;0,0734118
1165,7583;0,0706871
1166,7225;0,0678493
1167,6868;0,0650018
1168,6510;0,0622406
1169,6152;0,0596445
1170,5795;0,0572673
1171,5437;0,0551349
1172,5079;0,0532488
1173,4722;0,0515936
1174,4364;0,0501462
1175,4006;0,0488853
1176,3649;0,0477959
1177,3291;0,0468696
1178,2933;0,0461
1179,2576;0,045476
1180,2218;0,0449778
1181,1860;0,0445783
1182,1503;0,0442504
1183,1145;0,0439762
1184,0787;0,0437521
1185,0430;0,0435866
1186,0072;0,0434931
1186,9714;0,0434803
1187,9357;0,043549
1188,8999;0,0436931
1189,8641;0,0439062
1190,8284;0,0441858
1191,7926;0,0445353
1192,7568;0,0449602
1193,7211;0,0454629
1194,6853;0,0460393
1195,6495;0,0466772
1196,6138;0,0473584
1197,5780;0,0480625
1198,5422;0,0487703
1199,5065;0,0493683
1200,4707;0,0500624
1201,4349;0,0507411
1202,3992;0,0514068
1203,3634;0,0520604
1204,3276;0,0526984
1205,2919;0,0533146
1206,2561;0,0539041
1207,2203;0,0544694
1208,1846;0,0550236
1209,1488;0,0555895
1210,1130;0,0561926
1211,0773;0,0568547
1212,0415;0,057587
1213,0057;0,0583888
1213,9700;0,0592492
1214,9342;0,0601516
1215,8984;0,0610775
1216,8627;0,0620083
1217,8269;0,0629271
1218,7911;0,0638211
1219,7554;0,0646824
1220,7196;0,0655062
1221,6838;0,0662882
1222,6481;0,0670224
1223,6123;0,0677004
1224,5765;0,0683145
1225,5408;0,0688624
1226,5050;0,0693496
1227,4692;0,0697875
1228,4335;0,0701878
1229,3977;0,0705565
1230,3619;0,0708918
1231,3262;0,0711869
1232,2904;0,0714344
1233,2546;0,0716321
1234,2189;0,0717828
1235,1831;0,0718932
1236,1473;0,0719697
1237,1116;0,0720173
1238,0758;0,0720393
1239,0400;0,0720394
1240,0043;0,0720216
1240,9685;0,0719886
1241,9327;0,071939
1242,8970;0,0718651
1243,8612;0,0717536
1244,8254;0,0715904
1245,7897;0,0713668
1246,7539;0,0710845
1247,7181;0,0707557
1248,6824;0,0703992
1249,6466;0,0700329
1250,6108;0,0696695
1251,5751;0,0693152
1252,5393;0,0689725
1253,5035;0,0686436
1254,4678;0,0683302
1255,4320;0,0680316
1256,3962;0,0677405
1257,3605;0,0674437
1258,3247;0,0671254
1259,2889;0,0667732
1260,2532;0,0663821
1261,2174;0,0659543
1262,1816;0,0654953
1263,1459;0,0650094
1264,1101;0,064498
1265,0743;0,0639598
1266,0386;0,0633924
1267,0028;0,0627919
1267,9670;0,0621537
1268,9313;0,0614734
1269,8955;0,0607495
1270,8597;0,0599868
1271,8240;0,0591964
1272,7882;0,0583934
1273,7524;0,0575933
1274,7167;0,0568084
1275,6809;0,0560478
1276,6451;0,0553173
1277,6094;0,0546188
1278,5736;0,0539497
1279,5378;0,0533027
1280,5021;0,0526687
1281,4663;0,0520412
1282,4305;0,0514208
1283,3948;0,0508155
1284,3590;0,0502379
1285,3232;0,0497017
1286,2875;0,0492182
1287,2517;0,0487964
1288,2159;0,0484425
1289,1802;0,048161
1290,1444;0,0479539
1291,1086;0,0478204
1292,0729;0,0477576
1293,0371;0,0477624
1294,0013;0,0478327
1294,9656;0,0479674
1295,9298;0,0481661
1296,8940;0,0484282
1297,8583;0,0487526
1298,8225;0,0491377
1299,7867;0,0495813
1300,7510;0,0500801
1301,7152;0,050631
1302,6794;0,0512302
1303,6437;0,0518749
1304,6079;0,0525634
1305,5721;0,0532927
1306,5364;0,054057
1307,5006;0,0548467
1308,4648;0,0556507
1309,4291;0,0564581
1310,3933;0,0572583
1311,3575;0,058038
1312,3218;0,0587788
1313,2860;0,0594579
1314,2502;0,0600517
1315,2145;0,0605395
1316,1787;0,0609053
1317,1429;0,0611382
1318,1072;0,0612354
1319,0714;0,0612075
1320,0356;0,0610807
1320,9999;0,0608916
1321,9641;0,0606763
1322,9283;0,0604621
1323,8926;0,0602645
1324,8568;0,06009
1325,8210;0,0599384
1326,7853;0,0598053
1327,7495;0,0596825
1328,7137;0,0595593
1329,6780;0,0594233
1330,6422;0,059263
1331,6064;0,05907
1332,5707;0,0588389
1333,5349;0,058567
1334,4991;0,0582494
1335,4634;0,057876
1336,4276;0,057431
1337,3918;0,0568987
1338,3561;0,0562798
1339,3203;0,0556071
1340,2845;0,0549431
1341,2488;0,0543481
1342,2130;0,0538498
1343,1772;0,0534426
1344,1415;0,0531094
1345,1057;0,0528393
1346,0699;0,0526335
1347,0342;0,0524994
1347,9984;0,0524435
1348,9626;0,0524665
1349,9269;0,0525622
1350,8911;0,0527202
1351,8553;0,0529288
1352,8196;0,0531804
1353,7838;0,0534736
1354,7480;0,0538129
1355,7123;0,0542027
1356,6765;0,0546408
1357,6407;0,0551155
1358,6050;0,05561
1359,5692;0,0561068
1360,5334;0,0565869
1361,4977;0,0570283
1362,4619;0,0574156
1363,4261;0,0577556
1364,3904;0,0580722
1365,3546;0,0583824
1366,3188;0,0586833
1367,2831;0,0589573
1368,2473;0,0591835
1369,2115;0,0593439
1370,1758;0,0594252
1371,1400;0,059415
1372,1042;0,0592979
1373,0685;0,0590588
1374,0327;0,058698
1374,9969;0,0582432
1375,9612;0,057735
1376,9254;0,0571917
1377,8896;0,0565947
1378,8539;0,0559123
1379,8181;0,0551384
1380,7823;0,0543098
1381,7466;0,0534863
1382,7108;0,0527082
1383,6750;0,051969
1384,6393;0,0512272
1385,6035;0,0504467
1386,5677;0,0496429
1387,5320;0,0489004
1388,4962;0,0483207
1389,4604;0,0479422
1390,4247;0,0477221
1391,3889;0,0475884
1392,3531;0,0474902
1393,3174;0,0474125
1394,2816;0,0473611
1395,2458;0,0473411
1396,2101;0,0473482
1397,1743;0,0473773
1398,1385;0,0474348
1399,1028;0,0475394
1400,0670;0,047708
1401,0313;0,0479417
1401,9955;0,0482253
1402,9597;0,0485389
1403,9240;0,0488711
1404,8882;0,0492237
1405,8524;0,0496088
1406,8167;0,0500373
1407,7809;0,0505105
1408,7451;0,0510235
1409,7094;0,051575
1410,6736;0,0521711
1411,6378;0,052815
1412,6021;0,0534936
1413,5663;0,0541759
1414,5305;0,0548272
1415,4948;0,0554273
1416,4590;0,055974
1417,4232;0,0564695
1418,3875;0,0569084
1419,3517;0,0572915
1420,3159;0,0576266
1421,2802;0,057892
1422,2444;0,0580286
1423,2086;0,0579827
1424,1729;0,0577468
1425,1371;0,0573589
1426,1013;0,056864
1427,0656;0,0562731
1428,0298;0,055562
1428,9940;0,054717
1429,9583;0,0537846
1430,9225;0,0528613
1431,8867;0,052016
1432,8510;0,0512293
1433,8152;0,0504111
1434,7794;0,0494738
1435,7437;0,0484244
1436,7079;0,0474255
1437,6721;0,0467104
1438,6364;0,046381
1439,6006;0,0463488
1440,5648;0,046461
1441,5291;0,0466175
1442,4933;0,046796
1443,4575;0,04702
1444,4218;0,0473155
1445,3860;0,0476835
1446,3502;0,0480996
1447,3145;0,0485323
1448,2787;0,0489637
1449,2429;0,0493931
1450,2072;0,049819
1451,1714;0,0502187
1452,1356;0,0505505
1453,0999;0,0507756
1454,0641;0,050876
1455,0283;0,050842
1455,9926;0,0506322
1456,9568;0,0502257
1457,9210;0,0498113
1458,8853;0,0496614
1459,8495;0,0497828
1460,8137;0,0499739
1461,7780;0,0500291
1462,7422;0,0498032
1463,7064;0,0492184
1464,6707;0,0483108
1465,6349;0,0472641
1466,5991;0,0462901
1467,5634;0,0454527
1468,5276;0,0446556
1469,4918;0,0437405
1470,4561;0,0425577
1471,4203;0,0410044
1472,3845;0,0391107
1473,3488;0,0371396
1474,3130;0,0354572
1475,2772;0,0342294
1476,2415;0,0333749
1477,2057;0,0327419
1478,1699;0,0322228
1479,1342;0,0317659
1480,0984;0,0313542
1481,0626;0,0309918
1482,0269;0,0306987
1482,9911;0,0304996
1483,9553;0,0304083
1484,9196;0,0304186
1485,8838;0,0305098
1486,8480;0,0306526
1487,8123;0,0308079
1488,7765;0,0309423
1489,7407;0,0310811
1490,7050;0,0313089
1491,6692;0,0316764
1492,6334;0,0321606
1493,5977;0,0327198
1494,5619;0,0333424
1495,5261;0,0340472
1496,4904;0,0348442
1497,4546;0,0357038
1498,4188;0,0365821
1499,3831;0,0374515
1500,3473;0,0382777
1501,3115;0,0390008
1502,2758;0,0395639
1503,2400;0,0399469
1504,2042;0,0401774
1505,1685;0,0402807
1506,1327;0,0401552
1507,0969;0,0396234
1508,0612;0,0388604
1509,0254;0,0382619
1509,9896;0,0379029
1510,9539;0,0376293
1511,9181;0,0373012
1512,8823;0,0368497
1513,8466;0,0362548
1514,8108;0,0355261
1515,7750;0,0347011
1516,7393;0,0338384
1517,7035;0,0329891
1518,6677;0,0321655
1519,6320;0,0313464
1520,5962;0,030524
1521,5604;0,0297485
1522,5247;0,0291042
1523,4889;0,0286287
1524,4531;0,0282832
1525,4174;0,0280063
1526,3816;0,0277745
1527,3458;0,0276085
1528,3101;0,027531
1529,2743;0,0275329
1530,2385;0,0275812
1531,2028;0,0276466
1532,1670;0,0277213
1533,1312;0,0278213
1534,0955;0,0279708
1535,0597;0,0281708
1536,0239;0,0283864
1536,9882;0,028582
1537,9524;0,0287596
1538,9166;0,0289354
1539,8809;0,0290328
1540,8451;0,0288939
1541,8093;0,0285901
1542,7736;0,0283833
1543,7378;0,0283589
1544,7020;0,0284528
1545,6663;0,028605
1546,6305;0,0287895
1547,5947;0,0289877
1548,5590;0,0291725
1549,5232;0,0293206
1550,4874;0,0294336
1551,4517;0,0295432
1552,4159;0,0296866
1553,3801;0,0298695
1554,3444;0,0300537
1555,3086;0,0301788
1556,2728;0,0301788
1557,2371;0,0299599
1558,2013;0,0294549
1559,1655;0,0289345
1560,1298;0,0288968
1561,0940;0,0293998
1562,0582;0,0301484
1563,0225;0,0308877
1563,9867;0,0314996
1564,9509;0,0319585
1565,9152;0,0322862
1566,8794;0,0325273
1567,8436;0,0327392
1568,8079;0,0329848
1569,7721;0,0333146
1570,7363;0,0337363
1571,7006;0,0342094
1572,6648;0,0346829
1573,6290;0,0351398
1574,5933;0,0356065
1575,5575;0,0361196
1576,5217;0,036691
1577,4860;0,0373223
1578,4502;0,0380161
1579,4144;0,0387571
1580,3787;0,039519
1581,3429;0,0402887
1582,3071;0,0410696
1583,2714;0,0418699
1584,2356;0,0426955
1585,1998;0,0435487
1586,1641;0,0444264
1587,1283;0,0453131
1588,0925;0,0461782
1589,0568;0,0469808
1590,0210;0,0476804
1590,9852;0,0482444
1591,9495;0,0486463
1592,9137;0,0488639
1593,8779;0,048886
1594,8422;0,0487254
1595,8064;0,0484241
1596,7706;0,0480409
1597,7349;0,0476293
1598,6991;0,0472232
1599,6633;0,0468378
1600,6276;0,0464773
1601,5918;0,0461441
1602,5560;0,0458429
1603,5203;0,0455794
1604,4845;0,0453524
1605,4487;0,0451477
1606,4130;0,0449408
1607,3772;0,0447114
1608,3414;0,044465
1609,3057;0,0442422
1610,2699;0,044095
1611,2341;0,0440434
1612,1984;0,0440574
1613,1626;0,0440773
1614,1268;0,0440451
1615,0911;0,0439289
1616,0553;0,0437554
1617,0195;0,0436303
1617,9838;0,0436643
1618,9480;0,04386
1619,9122;0,044123
1620,8765;0,0443524
1621,8407;0,0444953
1622,8049;0,044555
1623,7692;0,044575
1624,7334;0,0446042
1625,6976;0,0446602
1626,6619;0,0447287
1627,6261;0,044798
1628,5903;0,0448815
1629,5546;0,0450014
1630,5188;0,0451561
1631,4830;0,0453119
1632,4473;0,0454237
1633,4115;0,0454514
1634,3757;0,0453539
1635,3400;0,0451091
1636,3042;0,0448064
1637,2684;0,0446289
1638,2327;0,0446519
1639,1969;0,0448022
1640,1611;0,0449792
1641,1254;0,045124
1642,0896;0,0452166
1643,0538;0,0452534
1644,0181;0,0452256
1644,9823;0,0451069
1645,9465;0,044878
1646,9108;0,044603
1647,8750;0,0444072
1648,8392;0,044322
1649,8035;0,0442444
1650,7677;0,044021
1651,7319;0,0434892
1652,6962;0,0425546
1653,6604;0,0414991
1654,6246;0,0409057
1655,5889;0,0409057
1656,5531;0,0411787
1657,5173;0,0414194
1658,4816;0,0414782
1659,4458;0,0413102
1660,4100;0,0409222
1661,3743;0,0403637
1662,3385;0,0397473
1663,3027;0,0392171
1664,2670;0,03885
1665,2312;0,0386096
1666,1954;0,0383924
1667,1597;0,0380872
1668,1239;0,0376141
1669,0881;0,0369719
1670,0524;0,0362704
1671,0166;0,035651
1671,9808;0,0351476
1672,9451;0,0346766
1673,9093;0,0341453
1674,8735;0,0335528
1675,8378;0,0330097
1676,8020;0,0326514
1677,7662;0,0325137
1678,7305;0,0325098
1679,6947;0,0325014
1680,6589;0,0323602
1681,6232;0,0319773
1682,5874;0,0312696
1683,5516;0,0302861
1684,5159;0,029332
1685,4801;0,0287352
1686,4443;0,028513
1687,4086;0,0284694
1688,3728;0,0284309
1689,3370;0,0283272
1690,3013;0,0281683
1691,2655;0,0279955
1692,2297;0,0278455
1693,1940;0,0277363
1694,1582;0,0276653
1695,1224;0,0276068
1696,0867;0,0275092
1697,0509;0,0273105
1698,0151;0,0269852
1698,9794;0,0265969
1699,9436;0,0262927
1700,9078;0,0262051
1701,8721;0,026353
1702,8363;0,0266457
1703,8005;0,0269624
1704,7648;0,0272195
1705,7290;0,0274001
1706,6932;0,0275504
1707,6575;0,0277438
1708,6217;0,0280298
1709,5859;0,0284107
1710,5502;0,0288565
1711,5144;0,0293305
1712,4786;0,0298017
1713,4429;0,0302423
1714,4071;0,0306169
1715,3713;0,0308697
1716,3356;0,0309528
1717,2998;0,0309221
1718,2640;0,0309557
1719,2283;0,0311822
1720,1925;0,0315775
1721,1567;0,0320408
1722,1210;0,032484
1723,0852;0,0328624
1724,0494;0,033173
1725,0137;0,033443
1725,9779;0,0337118
1726,9421;0,034007
1727,9064;0,034327
1728,8706;0,0346379
1729,8348;0,0348819
1730,7991;0,0349874
1731,7633;0,0348819
1732,7275;0,0345371
1733,6918;0,0340512
1734,6560;0,033633
1735,6202;0,0334129
1736,5845;0,0333382
1737,5487;0,0332683
1738,5129;0,0330909
1739,4772;0,0327697
1740,4414;0,0323419
1741,4056;0,0318827
1742,3699;0,0314497
1743,3341;0,0310499
1744,2983;0,0306529
1745,2626;0,0302205
1746,2268;0,0297155
1747,1910;0,0290885
1748,1553;0,0282799
1749,1195;0,0272761
1750,0837;0,0261844
1751,0480;0,025199
1752,0122;0,0244523
1752,9764;0,0239321
1753,9407;0,0235336
1754,9049;0,0231487
1755,8691;0,022719
1756,8334;0,0222442
1757,7976;0,0217537
1758,7618;0,0212664
1759,7261;0,0207736
1760,6903;0,0202615
1761,6545;0,019747
1762,6188;0,0192828
1763,5830;0,018918
1764,5472;0,018659
1765,5115;0,018471
1766,4757;0,0183089
1767,4399;0,0181437
1768,4042;0,0179658
1769,3684;0,0177697
1770,3326;0,0175371
1771,2969;0,0172458
1772,2611;0,0169126
1773,2253;0,0166125
1774,1896;0,0164233
1775,1538;0,0163582
1776,1180;0,0163692
1777,0823;0,0163933
1778,0465;0,0163876
1779,0107;0,0163392
1779,9750;0,0162576
1780,9392;0,0161595
1781,9034;0,0160556
1782,8677;0,0159505
1783,8319;0,015855
1784,7961;0,0157923
1785,7604;0,0157883
1786,7246;0,0158505
1787,6888;0,0159593
1788,6531;0,0160763
1789,6173;0,0161576
1790,5815;0,0161643
1791,5458;0,0160783
1792,5100;0,0159319
1793,4742;0,0158034
1794,4385;0,0157531
1795,4027;0,0157783
1796,3669;0,0158351
1797,3312;0,015877
1798,2954;0,0158745
1799,2596;0,0158175
1800,2239;0,0157173
1801,1881;0,0156043
1802,1523;0,0155158
1803,1166;0,0154757
1804,0808;0,0154849
1805,0450;0,0155267
1806,0093;0,0155778
1806,9735;0,015617
1807,9377;0,0156302
1808,9020;0,0156125
1809,8662;0,0155689
1810,8304;0,0155124
1811,7947;0,0154573
1812,7589;0,0154105
1813,7231;0,0153692
1814,6874;0,0153259
1815,6516;0,0152782
1816,6158;0,0152339
1817,5801;0,0152098
1818,5443;0,0152222
1819,5085;0,0152755
1820,4728;0,0153566
1821,4370;0,0154405
1822,4012;0,015501
1823,3655;0,0155223
1824,3297;0,0155065
1825,2939;0,0154707
1826,2582;0,0154336
1827,2224;0,0154002
1828,1866;0,0153613
1829,1509;0,0153075
1830,1151;0,0152474
1831,0793;0,0152083
1832,0436;0,0152109
1833,0078;0,0152471
1833,9720;0,0152856
1834,9363;0,0152961
1835,9005;0,0152703
1836,8647;0,0152287
1837,8290;0,0152083
1838,7932;0,0152358
1839,7574;0,0153089
1840,7217;0,0154016
1841,6859;0,0154792
1842,6501;0,0155104
1843,6144;0,0154783
1844,5786;0,0153959
1845,5428;0,0153025
1846,5071;0,0152299
1847,4713;0,0151772
1848,4355;0,0151263
1849,3998;0,0150673
1850,3640;0,0150104
1851,3282;0,0149782
1852,2925;0,0149889
1853,2567;0,015043
1854,2209;0,0151234
1855,1852;0,0152049
1856,1494;0,0152656
1857,1136;0,0152942
1858,0779;0,0152908
1859,0421;0,0152644
1860,0063;0,0152312
1860,9706;0,0152122
1861,9348;0,0152273
1862,8990;0,0152882
1863,8633;0,0153924
1864,8275;0,0155224
1865,7917;0,0156477
1866,7560;0,0157283
1867,7202;0,0157283
1868,6844;0,0156431
1869,6487;0,0155139
1870,6129;0,0153965
1871,5771;0,0153175
1872,5414;0,0152681
1873,5056;0,0152272
1874,4698;0,0151832
1875,4341;0,0151406
1876,3983;0,0151148
1877,3625;0,0151188
1878,3268;0,0151535
1879,2910;0,0152074
1880,2552;0,0152642
1881,2195;0,0153123
1882,1837;0,01535
1883,1479;0,0153817
1884,1122;0,0154114
1885,0764;0,0154363
1886,0406;0,0154482
1887,0049;0,0154395
1887,9691;0,0154107
1888,9333;0,0153732
1889,8976;0,0153433
1890,8618;0,0153299
1891,8260;0,0153259
1892,7903;0,0153126
1893,7545;0,0152748
1894,7188;0,0152143
1895,6830;0,0151531
1896,6472;0,015121
1897,6115;0,0151351
1898,5757;0,0151856
1899,5399;0,015241
1900,5042;0,0152665
1901,4684;0,0152442
1902,4326;0,0151846
1903,3969;0,0151212
1904,3611;0,0150913
1905,3253;0,015116
1906,2896;0,0151907
1907,2538;0,0152897
1908,2180;0,0153805
1909,1823;0,0154394
1910,1465;0,0154606
1911,1107;0,015453
1912,0750;0,0154286
1913,0392;0,015393
1914,0034;0,0153476
1914,9677;0,0152969
1915,9319;0,0152532
1916,8961;0,0152335
1917,8604;0,0152477
1918,8246;0,0152884
1919,7888;0,0153324
1920,7531;0,0153531
1921,7173;0,0153371
1922,6815;0,0152925
1923,6458;0,0152442
1924,6100;0,0152175
1925,5742;0,0152203
1926,5385;0,0152379
1927,5027;0,0152433
1928,4669;0,0152149
1929,4312;0,0151498
1930,3954;0,0150658
1931,3596;0,0149931
1932,3239;0,0149583
1933,2881;0,0149714
1934,2523;0,0150237
1935,2166;0,0150939
1936,1808;0,0151577
1937,1450;0,015197
1938,1093;0,015203
1939,0735;0,0151767
1940,0377;0,0151269
1941,0020;0,0150685
1941,9662;0,0150172
1942,9304;0,0149833
1943,8947;0,014965
1944,8589;0,01495
1945,8231;0,0149243
1946,7874;0,0148831
1947,7516;0,0148348
1948,7158;0,0147942
1949,6801;0,0147693
1950,6443;0,0147519
1951,6085;0,0147209
1952,5728;0,0146587
1953,5370;0,0145674
1954,5012;0,0144713
1955,4655;0,0144031
1956,4297;0,0143835
1957,3939;0,0144087
1958,3582;0,0144563
1959,3224;0,0145007
1960,2866;0,0145278
1961,2509;0,0145387
1962,2151;0,0145429
1963,1793;0,0145528
1964,1436;0,0145823
1965,1078;0,0146473
1966,0720;0,0147572
1967,0363;0,0148994
1968,0005;0,0150303
1968,9647;0,0150895
1969,9290;0,0150329
1970,8932;0,014862
1971,8574;0,0146302
1972,8217;0,0144216
1973,7859;0,0143118
1974,7501;0,0143311
1975,7144;0,0144525
1976,6786;0,0146155
1977,6428;0,0147697
1978,6071;0,0149038
1979,5713;0,0150385
1980,5355;0,0151949
1981,4998;0,0153681
1982,4640;0,0155256
1983,4282;0,0156267
1984,3925;0,0156476
1985,3567;0,0155983
1986,3209;0,0155186
1987,2852;0,0154562
1988,2494;0,015443
1989,2136;0,0154821
1990,1779;0,015552
1991,1421;0,0156212
1992,1063;0,0156634
1993,0706;0,0156652
1994,0348;0,0156245
1994,9990;0,0155451
1995,9633;0,0154347
1996,9275;0,0153066
1997,8917;0,0151811
1998,8560;0,0150855
1999,8202;0,015051
2000,7844;0,0151084
2001,7487;0,0152816
2002,7129;0,0155765
2003,6771;0,0159671
2004,6414;0,0163857
2005,6056;0,0167309
2006,5698;0,0169011
2007,5341;0,0168407
2008,4983;0,0165694
2009,4625;0,0161742
2010,4268;0,0157708
2011,3910;0,0154616
2012,3552;0,0153105
2013,3195;0,0153347
2014,2837;0,015505
2015,2479;0,0157528
2016,2122;0,0159884
2017,1764;0,0161345
2018,1406;0,0161624
2019,1049;0,0161023
2020,0691;0,0160196
2021,0333;0,0159705
2021,9976;0,0159692
2022,9618;0,0159857
2023,9260;0,0159733
2024,8903;0,0159087
2025,8545;0,0158162
2026,8187;0,0157613
2027,7830;0,0158172
2028,7472;0,0160235
2029,7114;0,0163609
2030,6757;0,0167528
2031,6399;0,0170948
2032,6041;0,0173001
2033,5684;0,0173378
2034,5326;0,0172423
2035,4968;0,0170865
2036,4611;0,0169361
2037,4253;0,0168179
2038,3895;0,0167198
2039,3538;0,016618
2040,3180;0,0165062
2041,2822;0,0164072
2042,2465;0,0163575
2043,2107;0,0163825
2044,1749;0,0164798
2045,1392;0,0166235
2046,1034;0,0167803
2047,0676;0,0169224
2048,0320;0,017033
2048,9961;0,0171038
2049,9604;0,017135
2050,9246;0,0171373
2051,8889;0,0171327
2052,8530;0,0171492
2053,8174;0,0172092
2054,7815;0,017318
2055,7458;0,0174581
2056,7100;0,0175964
2057,6743;0,0176982
2058,6384;0,0177426
2059,6028;0,017729
2060,5669;0,0176776
2061,5313;0,0176222
2062,4954;0,0176004
2063,4597;0,0176391
2064,4238;0,0177413
2065,3882;0,0178809
2066,3523;0,0180124
2067,3167;0,0180936
2068,2808;0,0181064
2069,2451;0,0180642
2070,2092;0,0180006
2071,1736;0,0179465
2072,1377;0,017911
2073,1021;0,0178795
2074,0662;0,017828
2075,0305;0,0177468
2075,9946;0,0176545
2076,9590;0,0175938
2077,9231;0,0176093
2078,8875;0,0177202
2079,8516;0,0179038
2080,8159;0,0180993
2081,7800;0,0182333
2082,7444;0,018254
2083,7085;0,0181569
2084,6729;0,0179879
2085,6370;0,0178189
2086,6013;0,0177102
2087,5654;0,0176797
2088,5298;0,0176981
2089,4939;0,017713
2090,4583;0,0176878
2091,4224;0,0176285
2092,3867;0,0175807
2093,3508;0,0176003
2094,3152;0,0177153
2095,2793;0,0179064
2096,2437;0,0181172
2097,2078;0,0182877
2098,1721;0,0183837
2099,1362;0,0184043
2100,1006;0,0183685
2101,0647;0,0182966
2102,0291;0,0182069
2102,9932;0,0181186
2103,9575;0,0180563
2104,9216;0,0180442
2105,8860;0,0180914
2106,8501;0,0181821
2107,8145;0,0182807
2108,7786;0,0183512
2109,7429;0,0183767
2110,7070;0,0183653
2111,6714;0,0183381
2112,6355;0,0183113
2113,5999;0,0182867
2114,5640;0,0182563
2115,5283;0,0182154
2116,4924;0,0181721
2117,4568;0,0181439
2118,4209;0,0181462
2119,3853;0,0181815
2120,3494;0,0182367
2121,3137;0,0182904
2122,2778;0,0183238
2123,2422;0,0183289
2124,2063;0,0183082
2125,1707;0,0182702
2126,1348;0,0182224
2127,0991;0,018167
2128,0632;0,0181025
2129,0276;0,01803
2129,9917;0,0179635
2130,9561;0,0179354
2131,9202;0,0179896
2132,8845;0,018159
2133,8486;0,0184341
2134,8130;0,018746
2135,7771;0,0189839
2136,7415;0,0190474
2137,7056;0,0189046
2138,6699;0,0186144
2139,6340;0,0182986
2140,5984;0,0180811
2141,5625;0,0180316
2142,5269;0,0181441
2143,4910;0,0183566
2144,4553;0,0185935
2145,4194;0,0188016
2146,3838;0,0189623
2147,3479;0,0190821
2148,3123;0,019172
2149,2764;0,0192321
2150,2407;0,0192461
2151,2048;0,0191882
2152,1692;0,0190411
2153,1333;0,0188201
2154,0977;0,0185911
2155,0618;0,0184652
2156,0261;0,0185573
2156,9902;0,0189136
2157,9546;0,0194495
2158,9187;0,0199695
2159,8831;0,0202892
2160,8472;0,0203545
2161,8115;0,0202453
2162,7756;0,0200789
2163,7400;0,0199177
2164,7041;0,0197446
2165,6685;0,0195046
2166,6326;0,0191689
2167,5969;0,0187739
2168,5610;0,0184083
2169,5254;0,0181654
2170,4895;0,0180972
2171,4539;0,0181963
2172,4180;0,0184066
2173,3823;0,0186502
2174,3464;0,0188538
2175,3108;0,0189684
2176,2749;0,0189801
2177,2393;0,0189131
2178,2034;0,0188199
2179,1677;0,0187589
2180,1318;0,0187655
2181,0962;0,0188327
2182,0603;0,0189168
2183,0247;0,0189677
2183,9888;0,0189646
2184,9531;0,0189266
2185,9172;0,018893
2186,8816;0,018888
2187,8457;0,0189011
2188,8101;0,0188967
2189,7742;0,0188442
2190,7385;0,0187444
2191,7026;0,0186322
2192,6670;0,0185545
2193,6311;0,0185429
2194,5955;0,0185987
2195,5596;0,0186983
2196,5239;0,0188092
2197,4880;0,0189028
2198,4524;0,0189588
2199,4165;0,0189653
2200,3809;0,0189198
2201,3450;0,0188341
2202,3093;0,0187337
2203,2734;0,0186482
2204,2378;0,0185951
2205,2019;0,0185697
2206,1663;0,0185498
2207,1304;0,0185128
2208,0947;0,0184521
2209,0588;0,018381
2210,0232;0,0183213
2210,9873;0,0182866
2211,9517;0,0182749
2212,9158;0,0182745
2213,8801;0,0182778
2214,8442;0,0182884
2215,8086;0,0183185
2216,7727;0,0183774
2217,7371;0,0184614
2218,7012;0,0185538
2219,6655;0,0186316
2220,6296;0,0186759
2221,5940;0,0186786
2222,5581;0,0186447
2223,5225;0,0185904
2224,4866;0,0185385
2225,4509;0,0185116
2226,4150;0,0185231
2227,3794;0,0185701
2228,3435;0,0186351
2229,3079;0,0186937
2230,2720;0,0187273
2231,2363;0,0187321
2232,2004;0,0187187
2233,1648;0,0187035
2234,1289;0,0186971
2235,0933;0,0187
2236,0574;0,0187054
2237,0217;0,0187073
2237,9858;0,018707
2238,9502;0,018712
2239,9143;0,0187295
2240,8787;0,0187584
2241,8428;0,0187884
2242,8071;0,0188056
2243,7712;0,018803
2244,7356;0,0187866
2245,6997;0,0187725
2246,6641;0,0187757
2247,6282;0,018797
2248,5925;0,0188197
2249,5566;0,0188204
2250,5210;0,0187868
2251,4851;0,0187309
2252,4495;0,0186855
2253,4136;0,0186847
2254,3779;0,0187397
2255,3420;0,0188288
2256,3064;0,0189093
2257,2705;0,0189431
2258,2349;0,0189182
2259,1990;0,0188525
2260,1633;0,0187792
2261,1274;0,0187279
2262,0918;0,0187135
2263,0559;0,0187377
2264,0203;0,0187958
2264,9844;0,0188805
2265,9487;0,0189802
2266,9128;0,019076
2267,8772;0,0191454
2268,8413;0,0191732
2269,8057;0,019161
2270,7698;0,0191261
2271,7341;0,0190896
2272,6982;0,019062
2273,6626;0,019038
2274,6267;0,0190055
2275,5911;0,0189608
2276,5552;0,018917
2277,5195;0,018898
2278,4836;0,0189221
2279,4480;0,018988
2280,4121;0,0190743
2281,3765;0,0191535
2282,3406;0,0192094
2283,3049;0,0192441
2284,2690;0,0192727
2285,2334;0,0193092
2286,1975;0,019357
2287,1619;0,0194103
2288,1260;0,0194636
2289,0903;0,0195213
2290,0544;0,0195987
2291,0188;0,0197115
2291,9829;0,0198626
2292,9473;0,0200356
2293,9114;0,0201998
2294,8757;0,0203234
2295,8398;0,0203863
2296,8042;0,020386
2297,7683;0,0203335
2298,7327;0,0202467
2299,6968;0,0201437
2300,6611;0,0200414
2301,6252;0,0199563
2302,5896;0,0199029
2303,5537;0,0198921
2304,5181;0,0199263
2305,4822;0,0199949
2306,4465;0,0200723
2307,4106;0,0201204
2308,3750;0,0200982
2309,3391;0,0199769
2310,3035;0,0197554
2311,2676;0,0194679
2312,2319;0,0191758
2313,1960;0,0189421
2314,1604;0,0188031
2315,1245;0,0187532
2316,0889;0,0187532
2317,0530;0,0187566
2318,0173;0,0187377
2318,9814;0,018706
2319,9458;0,0187014
2320,9099;0,018771
2321,8743;0,0189413
2322,8384;0,0192006
2323,8027;0,0194985
2324,7668;0,0197638
2325,7312;0,0199308
2326,6953;0,0199648
2327,6597;0,0198751
2328,6238;0,0197116
2329,5881;0,0195471
2330,5522;0,019453
2331,5166;0,0194737
2332,4807;0,0196078
2333,4451;0,0198087
2334,4092;0,02001
2335,3735;0,0201625
2336,3376;0,0202621
2337,3020;0,0203512
2338,2661;0,0204905
2339,2305;0,0207101
2340,1946;0,0209624
2341,1589;0,0211064
2342,1230;0,0209603
2343,0874;0,0204607
2344,0515;0,0198437
2345,0159;0,0195564
2345,9800;0,0198589
2346,9443;0,0205949
2347,9084;0,0213641
2348,8728;0,0218135
2349,8369;0,0218057
2350,8013;0,0214426
2351,7654;0,0209818
2352,7297;0,0206773
2353,6938;0,0206273
2354,6582;0,0207629
2355,6223;0,0209775
2356,5867;0,0212157
2357,5508;0,021437
2358,5151;0,0215706
2359,4792;0,0215461
2360,4436;0,0213535
2361,4077;0,021043
2362,3721;0,0206692
2363,3362;0,0202526
2364,3005;0,0197917
2365,2646;0,0192891
2366,2290;0,018758
2367,1931;0,0182121
2368,1575;0,0176636
2369,1216;0,017132
2370,0859;0,016649
2371,0500;0,0162521
2372,0144;0,0159711
2372,9785;0,0158227
2373,9429;0,0158136
2374,9070;0,0159448
2375,8713;0,0162116
2376,8354;0,0165977
2377,7998;0,0170707
2378,7639;0,0175825
2379,7283;0,018077
2380,6924;0,0185025
2381,6567;0,0188233
2382,6208;0,0190272
2383,5852;0,0191255
2384,5493;0,0191464
2385,5137;0,0191246
2386,4778;0,0190899
2387,4421;0,0190605
2388,4063;0,019041
2389,3706;0,0190276
2390,3347;0,0190147
2391,2991;0,0190016
2392,2632;0,0189938
2393,2275;0,0190001
2394,1917;0,0190268
2395,1560;0,0190726
2396,1201;0,0191284
2397,0845;0,0191808
2398,0486;0,0192192
2399,0129;0,0192395
2399,9771;0,0192457
2400,9414;0,0192485
2401,9055;0,0192588
2402,8699;0,0192835
2403,8340;0,0193223
2404,7983;0,0193684
2405,7625;0,0194118
2406,7268;0,0194428
2407,6909;0,0194568
2408,6553;0,0194564
2409,6194;0,0194498
2410,5837;0,019448
2411,5479;0,0194593
2412,5122;0,0194847
2413,4763;0,0195172
2414,4407;0,0195452
2415,4048;0,0195586
2416,3691;0,0195552
2417,3333;0,0195419
2418,2976;0,0195319
2419,2617;0,0195368
2420,2261;0,0195605
2421,1902;0,0195976
2422,1545;0,0196375
2423,1187;0,019671
2424,0830;0,019695
2425,0471;0,019713
2426,0115;0,0197302
2426,9756;0,0197495
2427,9399;0,0197693
2428,9041;0,0197862
2429,8684;0,0197989
2430,8325;0,019811
2431,7969;0,0198297
2432,7610;0,0198607
2433,7253;0,0199039
2434,6895;0,0199516
2435,6538;0,0199925
2436,6179;0,0200174
2437,5823;0,020024
2438,5464;0,0200182
2439,5107;0,0200095
2440,4749;0,0200063
2441,4392;0,0200116
2442,4033;0,0200242
2443,3677;0,0200412
2444,3318;0,0200615
2445,2961;0,0200866
2446,2603;0,0201186
2447,2246;0,0201573
2448,1887;0,0201996
2449,1531;0,02024
2450,1172;0,0202734
2451,0815;0,0202967
2452,0457;0,0203098
2453,0100;0,0203145
2453,9741;0,0203136
2454,9385;0,0203104
2455,9026;0,0203086
2456,8669;0,0203119
2457,8311;0,0203238
2458,7954;0,0203458
2459,7595;0,0203765
2460,7239;0,0204115
2461,6880;0,0204444
2462,6523;0,0204699
2463,6165;0,0204861
2464,5808;0,0204955
2465,5449;0,0205033
2466,5093;0,0205137
2467,4734;0,0205268
2468,4377;0,0205378
2469,4019;0,0205408
2470,3662;0,0205341
2471,3303;0,0205229
2472,2947;0,0205183
2473,2588;0,0205311
2474,2231;0,020565
2475,1873;0,0206147
2476,1516;0,0206686
2477,1157;0,0207158
2478,0801;0,0207514
2479,0442;0,020777
2480,0085;0,0207969
2480,9727;0,0208132
2481,9370;0,0208233
2482,9011;0,0208231
2483,8655;0,0208117
2484,8296;0,0207944
2485,7939;0,0207823
2486,7581;0,0207869
2487,7224;0,0208143
2488,6865;0,0208617
2489,6509;0,0209179
2490,6150;0,0209685
2491,5793;0,0210015
2492,5435;0,0210123
2493,5078;0,0210046
2494,4719;0,020988
2495,4363;0,0209721
2496,4004;0,020963
2497,3647;0,0209604
2498,3289;0,020961
2499,2932;0,0209616
2500,2573;0,0209633
2501,2217;0,0209707
2502,1858;0,020989
2503,1501;0,0210195
2504,1143;0,0210578
2505,0786;0,0210961
2506,0427;0,0211274
2507,0071;0,0211484
2507,9712;0,02116
2508,9355;0,0211651
2509,8997;0,0211659
2510,8640;0,0211643
2511,8281;0,0211626
2512,7925;0,0211646
2513,7566;0,0211745
2514,7209;0,0211933
2515,6851;0,0212174
2516,6494;0,021239
2517,6135;0,0212505
2518,5779;0,0212494
2519,5420;0,0212397
2520,5063;0,02123
2521,4705;0,0212291
2522,4348;0,0212411
2523,3989;0,021265
2524,3633;0,0212957
2525,3274;0,0213271
2526,2917;0,0213545
2527,2559;0,0213748
2528,2202;0,0213866
2529,1843;0,02139
2530,1487;0,0213871
2531,1128;0,0213818
2532,0771;0,0213791
2533,0413;0,0213833
2534,0056;0,0213959
2534,9697;0,0214158
2535,9341;0,0214397
2536,8982;0,0214639
2537,8625;0,0214853
2538,8267;0,0215014
2539,7910;0,0215101
2540,7551;0,0215099
2541,7195;0,0215019
2542,6836;0,0214908
2543,6479;0,0214843
2544,6121;0,0214898
2545,5764;0,0215096
2546,5405;0,0215382
2547,5049;0,0215647
2548,4690;0,0215789
2549,4333;0,0215784
2550,3975;0,0215704
2551,3618;0,0215673
2552,3259;0,0215784
2553,2903;0,0216036
2554,2544;0,021633
2555,2188;0,0216533
2556,1829;0,0216564
2557,1472;0,0216442
2558,1113;0,0216267
2559,0757;0,0216157
2560,0398;0,0216178
2561,0042;0,0216318
2561,9683;0,0216514
2562,9326;0,0216697
2563,8967;0,0216831
2564,8611;0,0216922
2565,8252;0,0217
2566,7896;0,0217098
2567,7537;0,0217231
2568,7180;0,0217395
2569,6821;0,0217565
2570,6465;0,0217713
2571,6106;0,0217824
2572,5750;0,0217911
2573,5391;0,021802
2574,5034;0,021821
2575,4675;0,0218518
2576,4319;0,0218925
2577,3960;0,0219349
2578,3604;0,0219669
2579,3245;0,0219783
2580,2888;0,0219656
2581,2529;0,021934
2582,2173;0,0218954
2583,1814;0,0218642
2584,1458;0,0218518
2585,1099;0,0218631
2586,0742;0,0218953
2587,0383;0,0219392
2588,0027;0,0219825
2588,9668;0,022014
2589,9312;0,0220271
2590,8953;0,0220221
2591,8596;0,0220056
2592,8237;0,0219889
2593,7881;0,0219832
2594,7522;0,0219966
2595,7166;0,0220304
2596,6807;0,022079
2597,6450;0,0221315
2598,6091;0,0221766
2599,5735;0,0222076
2600,5376;0,0222252
2601,5020;0,022237
2602,4661;0,0222529
2603,4304;0,0222789
2604,3945;0,0223146
2605,3589;0,0223534
2606,3230;0,0223875
2607,2874;0,0224124
2608,2515;0,0224292
2609,2158;0,0224422
2610,1799;0,0224558
2611,1443;0,0224712
2612,1084;0,0224867
2613,0728;0,0224995
2614,0369;0,0225087
2615,0012;0,0225168
2615,9653;0,0225289
2616,9297;0,0225501
2617,8938;0,022583
2618,8582;0,022625
2619,8223;0,0226691
2620,7866;0,0227057
2621,7507;0,0227274
2622,7151;0,0227329
2623,6792;0,022728
2624,6436;0,0227234
2625,6077;0,02273
2626,5720;0,0227532
2627,5361;0,0227917
2628,5005;0,0228383
2629,4646;0,0228844
2630,4290;0,0229231
2631,3931;0,0229518
2632,3574;0,0229709
2633,3215;0,0229831
2634,2859;0,0229914
2635,2500;0,0229985
2636,2144;0,0230065
2637,1785;0,0230174
2638,1428;0,0230333
2639,1069;0,0230563
2640,0713;0,0230875
2641,0354;0,023126
2641,9998;0,0231682
2642,9639;0,0232087
2643,9282;0,0232425
2644,8923;0,0232677
2645,8567;0,0232862
2646,8208;0,023303
2647,7852;0,0233228
2648,7493;0,023347
2649,7136;0,023373
2650,6777;0,0233964
2651,6421;0,0234144
2652,6062;0,0234281
2653,5706;0,0234413
2654,5347;0,0234578
2655,4990;0,0234783
2656,4631;0,0234996
2657,4275;0,0235173
2658,3916;0,0235294
2659,3560;0,0235382
2660,3201;0,0235491
2661,2844;0,0235663
2662,2485;0,0235895
2663,2129;0,0236133
2664,1770;0,0236308
2665,1414;0,0236386
2666,1055;0,0236401
2667,0698;0,0236441
2668,0339;0,023659
2668,9983;0,0236877
2669,9624;0,0237254
2670,9268;0,0237622
2671,8909;0,0237891
2672,8552;0,0238027
2673,8193;0,0238062
2674,7837;0,0238063
2675,7478;0,0238086
2676,7122;0,0238153
2677,6763;0,0238256
2678,6406;0,023839
2679,6047;0,0238573
2680,5691;0,0238845
2681,5332;0,0239241
2682,4976;0,0239763
2683,4617;0,024036
2684,4260;0,0240947
2685,3901;0,0241436
2686,3545;0,0241775
2687,3186;0,0241968
2688,2830;0,0242069
2689,2471;0,0242155
2690,2114;0,0242294
2691,1755;0,0242518
2692,1399;0,024282
2693,1040;0,0243164
2694,0684;0,0243513
2695,0325;0,0243845
2695,9968;0,0244159
2696,9609;0,0244471
2697,9253;0,0244791
2698,8894;0,0245114
2699,8538;0,0245421
2700,8179;0,0245688
2701,7822;0,0245904
2702,7463;0,0246086
2703,7107;0,0246274
2704,6748;0,0246515
2705,6392;0,0246841
2706,6033;0,0247252
2707,5676;0,0247712
2708,5317;0,0248163
2709,4961;0,0248552
2710,4602;0,0248856
2711,4246;0,0249086
2712,3887;0,0249284
2713,3530;0,0249496
2714,3171;0,0249753
2715,2815;0,025006
2716,2456;0,0250393
2717,2100;0,0250726
2718,1741;0,0251045
2719,1384;0,0251356
2720,1025;0,0251675
2721,0669;0,0252003
2722,0310;0,0252316
2722,9954;0,0252564
2723,9595;0,0252708
2724,9238;0,0252749
2725,8879;0,0252746
2726,8523;0,0252791
2727,8164;0,025297
2728,7808;0,0253316
2729,7449;0,0253788
2730,7092;0,0254298
2731,6733;0,0254751
2732,6377;0,0255092
2733,6018;0,0255314
2734,5662;0,0255452
2735,5303;0,025555
2736,4946;0,025564
2737,4587;0,025574
2738,4231;0,0255862
2739,3872;0,0256022
2740,3516;0,0256236
2741,3157;0,0256509
2742,2800;0,0256825
2743,2441;0,0257148
2744,2085;0,0257432
2745,1726;0,0257645
2746,1370;0,0257788
2747,1011;0,0257898
2748,0654;0,0258036
2749,0295;0,0258255
2749,9939;0,0258577
2750,9580;0,0258969
2751,9224;0,0259362
2752,8865;0,0259683
2753,8508;0,0259897
2754,8149;0,0260029
2755,7793;0,0260153
2756,7434;0,026035
2757,7078;0,0260661
2758,6719;0,026106
2759,6362;0,0261474
2760,6003;0,0261829
2761,5647;0,0262093
2762,5288;0,0262295
2763,4932;0,0262505
2764,4573;0,0262792
2765,4216;0,0263187
2766,3857;0,0263674
2767,3501;0,0264195
2768,3142;0,0264679
2769,2786;0,0265067
2770,2427;0,0265327
2771,2070;0,0265468
2772,1711;0,026554
2773,1355;0,0265625
2774,0996;0,0265813
2775,0640;0,0266164
2776,0281;0,0266682
2776,9924;0,0267309
2777,9565;0,0267947
2778,9209;0,026851
2779,8850;0,0268959
2780,8494;0,0269321
2781,8135;0,0269666
2782,7778;0,0270064
2783,7419;0,0270549
2784,7063;0,02711
2785,6704;0,0271666
2786,6348;0,0272198
2787,5989;0,027268
2788,5632;0,0273133
2789,5273;0,0273599
2790,4917;0,0274111
2791,4558;0,0274672
2792,4202;0,0275261
2793,3843;0,027585
2794,3486;0,0276425
2795,3127;0,0276994
2796,2771;0,0277581
2797,2412;0,0278212
2798,2056;0,02789
2799,1697;0,0279647
2800,1340;0,0280449
2801,0981;0,0281299
2802,0625;0,0282193
2803,0266;0,0283118
2803,9910;0,0284052
2804,9551;0,0284964
2805,9194;0,0285829
2806,8835;0,0286644
2807,8479;0,028743
2808,8120;0,0288231
2809,7764;0,028909
2810,7405;0,0290034
2811,7048;0,029106
2812,6689;0,0292145
2813,6333;0,0293262
2814,5974;0,0294396
2815,5618;0,0295556
2816,5259;0,0296765
2817,4902;0,0298045
2818,4543;0,029941
2819,4187;0,0300851
2820,3828;0,0302345
2821,3472;0,0303861
2822,3113;0,0305369
2823,2756;0,0306857
2824,2397;0,0308341
2825,2041;0,0309862
2826,1682;0,0311479
2827,1326;0,031324
2828,0967;0,031516
2829,0610;0,0317213
2830,0251;0,0319351
2830,9895;0,0321536
2831,9536;0,032376
2832,9180;0,032605
2833,8821;0,0328439
2834,8464;0,033094
2835,8105;0,0333542
2836,7749;0,033623
2837,7390;0,0339019
2838,7034;0,0341972
2839,6675;0,0345194
2840,6318;0,034879
2841,5959;0,0352823
2842,5603;0,0357293
2843,5244;0,036212
2844,4888;0,0367155
2845,4529;0,0372177
2846,4172;0,0376903
2847,3813;0,0381019
2848,3457;0,0384238
2849,3098;0,038637
2850,2742;0,038738
2851,2383;0,0387401
2852,2026;0,0386686
2853,1667;0,0385533
2854,1311;0,0384218
2855,0952;0,0382952
2856,0596;0,0381876
2857,0237;0,0381082
2857,9880;0,0380622
2858,9521;0,0380523
2859,9165;0,0380779
2860,8806;0,0381349
2861,8450;0,0382162
2862,8091;0,0383136
2863,7734;0,0384205
2864,7375;0,0385336
2865,7019;0,0386538
2866,6660;0,0387837
2867,6304;0,0389249
2868,5945;0,0390745
2869,5588;0,0392246
2870,5229;0,0393647
2871,4873;0,0394854
2872,4514;0,0395825
2873,4158;0,0396576
2874,3799;0,0397176
2875,3442;0,0397719
2876,3083;0,0398299
2877,2727;0,0398994
2878,2368;0,0399842
2879,2012;0,0400826
2880,1653;0,0401877
2881,1296;0,0402893
2882,0938;0,0403788
2883,0581;0,0404541
2884,0222;0,0405215
2884,9866;0,0405922
2885,9507;0,0406767
2886,9150;0,0407779
2887,8792;0,0408904
2888,8435;0,0410033
2889,8076;0,0411063
2890,7720;0,0411949
2891,7361;0,0412713
2892,7004;0,0413422
2893,6646;0,0414149
2894,6289;0,041494
2895,5930;0,0415805
2896,5574;0,0416722
2897,5215;0,0417651
2898,4858;0,0418555
2899,4500;0,0419406
2900,4143;0,0420197
2901,3784;0,0420944
2902,3428;0,0421677
2903,3069;0,0422437
2904,2712;0,042327
2905,2354;0,0424219
2906,1997;0,0425328
2907,1638;0,0426643
2908,1282;0,0428214
2909,0923;0,0430096
2910,0566;0,0432336
2911,0208;0,0434939
2911,9851;0,0437836
2912,9492;0,0440847
2913,9136;0,0443693
2914,8777;0,0446047
2915,8420;0,0447619
2916,8062;0,0448236
2917,7705;0,0447877
2918,7346;0,0446652
2919,6990;0,0444738
2920,6631;0,044232
2921,6274;0,0439557
2922,5916;0,0436575
2923,5559;0,0433478
2924,5200;0,0430351
2925,4844;0,0427254
2926,4485;0,0424223
2927,4128;0,042128
2928,3770;0,041845
2929,3413;0,0415773
2930,3054;0,0413289
2931,2698;0,0411018
2932,2339;0,0408938
2933,1982;0,040699
2934,1624;0,0405098
2935,1267;0,04032
2936,0908;0,0401259
2937,0552;0,0399263
2938,0193;0,0397203
2938,9836;0,0395064
2939,9478;0,0392827
2940,9121;0,0390472
2941,8762;0,0387995
2942,8406;0,0385412
2943,8047;0,0382752
2944,7690;0,0380058
2945,7332;0,0377384
2946,6975;0,0374788
2947,6616;0,0372333
2948,6260;0,0370069
2949,5901;0,0368013
2950,5544;0,0366139
2951,5186;0,0364368
2952,4829;0,03626
2953,4470;0,0360752
2954,4114;0,03588
2955,3755;0,0356787
2956,3398;0,0354806
2957,3040;0,0352948
2958,2683;0,0351256
2959,2324;0,034971
2960,1968;0,0348245
2961,1609;0,0346796
2962,1252;0,0345332
2963,0894;0,0343867
2964,0537;0,0342433
2965,0178;0,0341045
2965,9822;0,0339676
2966,9463;0,0338266
2967,9106;0,0336744
2968,8748;0,0335074
2969,8391;0,0333268
2970,8032;0,0331386
2971,7676;0,0329513
2972,7317;0,032772
2973,6960;0,032605
2974,6602;0,032451
2975,6245;0,0323093
2976,5886;0,0321791
2977,5530;0,0320605
2978,5171;0,0319536
2979,4814;0,031857
2980,4456;0,0317672
2981,4099;0,0316796
2982,3740;0,0315916
2983,3384;0,031504
2984,3025;0,0314217
2985,2668;0,0313499
2986,2310;0,0312911
2987,1953;0,0312432
2988,1594;0,0312012
2989,1238;0,0311613
2990,0879;0,0311234
2991,0522;0,0310913
2992,0164;0,0310691
2992,9807;0,0310576
2993,9448;0,0310528
2994,9092;0,0310491
2995,8733;0,0310432
2996,8376;0,0310371
2997,8018;0,0310366
2998,7661;0,0310477
2999,7302;0,0310717
3000,6946;0,0311051
3001,6587;0,031141
3002,6230;0,0311739
3003,5872;0,0312025
3004,5515;0,0312299
3005,5156;0,0312612
3006,4800;0,0313009
3007,4441;0,0313493
3008,4084;0,0314026
3009,3726;0,0314531
3010,3369;0,0314922
3011,3010;0,0315138
3012,2654;0,0315173
3013,2295;0,0315088
3014,1938;0,0314991
3015,1580;0,0314997
3016,1223;0,031519
3017,0864;0,0315596
3018,0508;0,0316185
3019,0149;0,0316888
3019,9792;0,031763
3020,9434;0,0318345
3021,9077;0,0318999
3022,8718;0,0319598
3023,8362;0,0320186
3024,8003;0,032083
3025,7646;0,0321587
3026,7288;0,032247
3027,6931;0,0323431
3028,6572;0,0324378
3029,6216;0,0325215
3030,5857;0,0325895
3031,5500;0,0326446
3032,5142;0,0326952
3033,4785;0,0327512
3034,4426;0,0328179
3035,4070;0,0328943
3036,3711;0,0329748
3037,3354;0,0330539
3038,2996;0,0331303
3039,2639;0,0332078
3040,2280;0,0332928
3041,1924;0,0333895
3042,1565;0,0334974
3043,1208;0,0336109
3044,0850;0,0337225
3045,0493;0,0338273
3046,0134;0,0339256
3046,9778;0,0340222
3047,9419;0,0341236
3048,9063;0,0342347
3049,8704;0,0343562
3050,8347;0,034485
3051,7988;0,0346154
3052,7632;0,0347411
3053,7273;0,0348571
3054,6917;0,0349612
3055,6558;0,0350553
3056,6201;0,0351461
3057,5842;0,0352424
3058,5486;0,0353512
3059,5127;0,0354744
3060,4771;0,0356065
3061,4412;0,0357378
3062,4055;0,0358588
3063,3696;0,0359655
3064,3340;0,0360615
3065,2981;0,0361558
3066,2625;0,0362575
3067,2266;0,0363714
3068,1909;0,036496
3069,1550;0,0366252
3070,1194;0,0367527
3071,0835;0,0368748
3072,0479;0,0369918
3073,0120;0,037107
3073,9763;0,037224
3074,9404;0,0373449
3075,9048;0,0374687
3076,8689;0,0375914
3077,8333;0,0377083
3078,7974;0,0378162
3079,7617;0,0379152
3080,7258;0,0380094
3081,6902;0,0381046
3082,6543;0,0382051
3083,6187;0,0383116
3084,5828;0,0384209
3085,5471;0,0385293
3086,5112;0,0386357
3087,4756;0,0387435
3088,4397;0,0388587
3089,4041;0,0389861
3090,3682;0,0391252
3091,3325;0,0392698
3092,2966;0,0394108
3093,2610;0,0395412
3094,2251;0,0396597
3095,1895;0,0397712
3096,1536;0,0398832
3097,1179;0,0400015
3098,0820;0,0401279
3099,0464;0,04026
3100,0105;0,0403938
3100,9749;0,0405254
3101,9390;0,0406523
3102,9033;0,0407732
3103,8674;0,0408879
3104,8318;0,0409981
3105,7959;0,0411082
3106,7603;0,0412252
3107,7244;0,0413568
3108,6887;0,0415075
3109,6528;0,0416757
3110,6172;0,0418531
3111,5813;0,042028
3112,5457;0,0421907
3113,5098;0,0423379
3114,4741;0,0424735
3115,4382;0,0426056
3116,4026;0,0427408
3117,3667;0,0428804
3118,3311;0,0430202
3119,2952;0,043155
3120,2595;0,0432841
3121,2236;0,0434128
3122,1880;0,043549
3123,1521;0,0436966
3124,1165;0,0438521
3125,0806;0,0440061
3126,0449;0,0441504
3127,0090;0,0442846
3127,9734;0,0444171
3128,9375;0,0445593
3129,9019;0,0447169
3130,8660;0,0448853
3131,8303;0,0450527
3132,7944;0,045208
3133,7588;0,0453484
3134,7229;0,0454814
3135,6873;0,0456186
3136,6514;0,0457675
3137,6157;0,0459279
3138,5798;0,0460924
3139,5442;0,0462533
3140,5083;0,0464073
3141,4727;0,0465574
3142,4368;0,0467107
3143,4011;0,0468733
3144,3652;0,0470477
3145,3296;0,0472317
3146,2937;0,0474202
3147,2581;0,0476066
3148,2222;0,0477856
3149,1865;0,0479538
3150,1506;0,0481114
3151,1150;0,0482617
3152,0791;0,048411
3153,0435;0,0485659
3154,0076;0,0487315
3154,9719;0,0489093
3155,9360;0,0490974
3156,9004;0,0492914
3157,8645;0,0494872
3158,8289;0,0496821
3159,7930;0,0498751
3160,7573;0,0500663
3161,7214;0,0502548
3162,6858;0,0504383
3163,6499;0,050614
3164,6143;0,0507799
3165,5784;0,0509363
3166,5427;0,051086
3167,5068;0,0512334
3168,4712;0,0513832
3169,4353;0,0515026
3170,3997;0,0516718
3171,3638;0,0518574
3172,3281;0,0520603
3173,2922;0,0522763
3174,2566;0,0524954
3175,2207;0,0527049
3176,1851;0,0528947
3177,1492;0,0530622
3178,1135;0,0532143
3179,0776;0,0533635
3180,0420;0,0535218
3181,0061;0,053695
3181,9705;0,053882
3182,9346;0,0540774
3183,8989;0,054275
3184,8630;0,0544707
3185,8274;0,0546624
3186,7915;0,0548489
3187,7559;0,0550295
3188,7200;0,0552045
3189,6843;0,0553758
3190,6484;0,0555468
3191,6128;0,0557203
3192,5769;0,0558967
3193,5413;0,0560739
3194,5054;0,0562491
3195,4697;0,0564211
3196,4338;0,0565914
3197,3982;0,0567631
3198,3623;0,0569388
3199,3267;0,0571179
3200,2908;0,0572973
3201,2551;0,0574724
3202,2192;0,0576401
3203,1836;0,0578
3204,1477;0,057954
3205,1121;0,0581059
3206,0762;0,0582593
3207,0405;0,0584166
3208,0046;0,058579
3208,9690;0,0587457
3209,9331;0,0589153
3210,8975;0,059086
3211,8616;0,0592569
3212,8259;0,0594286
3213,7900;0,0596029
3214,7544;0,0597819
3215,7185;0,0599666
3216,6829;0,0601554
3217,6470;0,0603452
3218,6113;0,060532
3219,5754;0,0607123
3220,5398;0,0608844
3221,5039;0,0610477
3222,4683;0,0612024
3223,4324;0,0613482
3224,3967;0,061486
3225,3608;0,0616189
3226,3252;0,061753
3227,2893;0,0618959
3228,2537;0,0620535
3229,2178;0,0622264
3230,1821;0,0624083
3231,1462;0,062589
3232,1106;0,0627595
3233,0747;0,0629168
3234,0391;0,063066
3235,0032;0,0632176
3235,9675;0,0633823
3236,9316;0,063565
3237,8960;0,063763
3238,8601;0,0639669
3239,8245;0,0641647
3240,7886;0,064347
3241,7529;0,0645097
3242,7170;0,0646553
3243,6814;0,0647914
3244,6455;0,0649283
3245,6099;0,0650755
3246,5740;0,065239
3247,5383;0,065419
3248,5024;0,0656103
3249,4668;0,0658051
3250,4309;0,0659965
3251,3953;0,0661819
3252,3594;0,0663642
3253,3237;0,0665498
3254,2878;0,0667433
3255,2522;0,0669434
3256,2163;0,0671421
3257,1807;0,0673288
3258,1448;0,0674977
3259,1091;0,0676525
3260,0732;0,0678055
3261,0376;0,067971
3262,0017;0,0681559
3262,9661;0,0683561
3263,9302;0,0685583
3264,8945;0,0687486
3265,8586;0,068921
3266,8230;0,0690795
3267,7871;0,0692344
3268,7515;0,0693942
3269,7156;0,0695596
3270,6799;0,0697227
3271,6440;0,0698717
3272,6084;0,0699978
3273,5725;0,0700995
3274,5369;0,0701831
3275,5010;0,0702588
3276,4653;0,0703354
3277,4294;0,0704172
3278,3938;0,070503
3279,3579;0,0705888
3280,3223;0,0706712
3281,2864;0,0707495
3282,2507;0,0708268
3283,2148;0,070907
3284,1792;0,0709926
3285,1433;0,0710814
3286,1077;0,0711669
3287,0718;0,0712412
3288,0361;0,0712991
3289,0002;0,0713405
3289,9646;0,0713708
3290,9287;0,0713976
3291,8931;0,0714261
3292,8572;0,0714565
3293,8215;0,0714841
3294,7856;0,0715031
3295,7500;0,071511
3296,7141;0,0715116
3297,6785;0,071514
3298,6426;0,0715276
3299,6069;0,0715573
3300,5710;0,0716
3301,5354;0,0716462
3302,4995;0,0716859
3303,4639;0,0717138
3304,4280;0,071732
3305,3923;0,071748
3306,3564;0,0717685
3307,3208;0,0717956
3308,2849;0,0718255
3309,2493;0,0718523
3310,2134;0,0718735
3311,1777;0,0718919
3312,1418;0,0719145
3313,1062;0,0719483
3314,0703;0,0719976
3315,0347;0,0720628
3315,9988;0,0721426
3316,9631;0,0722348
3317,9272;0,0723371
3318,8916;0,0724463
3319,8557;0,0725589
3320,8201;0,0726723
3321,7842;0,0727865
3322,7485;0,0729031
3323,7126;0,0730221
3324,6770;0,0731384
3325,6411;0,0732418
3326,6055;0,073322
3327,5696;0,0733757
3328,5339;0,0734113
3329,4980;0,0734457
3330,4624;0,0734956
3331,4265;0,0735676
3332,3909;0,0736535
3333,3550;0,0737337
3334,3193;0,0737876
3335,2834;0,073803
3336,2478;0,073781
3337,2119;0,0737329
3338,1763;0,0736717
3339,1404;0,0736042
3340,1047;0,0735294
3341,0688;0,0734418
3342,0332;0,0733384
3342,9973;0,0732226
3343,9617;0,0731029
3344,9258;0,0729882
3345,8901;0,0728822
3346,8542;0,0727812
3347,8186;0,0726773
3348,7827;0,0725628
3349,7471;0,0724345
3350,7112;0,0722946
3351,6755;0,0721478
3352,6396;0,0719981
3353,6040;0,0718471
3354,5681;0,0716947
3355,5325;0,0715407
3356,4966;0,0713863
3357,4609;0,0712339
3358,4250;0,071086
3359,3894;0,0709443
3360,3535;0,0708094
3361,3179;0,0706808
3362,2820;0,070556
3363,2463;0,0704307
3364,2104;0,0702987
3365,1748;0,0701544
3366,1389;0,0699954
3367,1033;0,0698246
3368,0674;0,0696478
3369,0317;0,0694709
3369,9958;0,0692961
3370,9602;0,069122
3371,9243;0,0689471
3372,8887;0,0687736
3373,8528;0,0686088
3374,8171;0,0684617
3375,7813;0,0683366
3376,7456;0,0682287
3377,7097;0,0681245
3378,6741;0,0680079
3379,6382;0,0678678
3380,6025;0,0677035
3381,5667;0,0675241
3382,5310;0,067344
3383,4951;0,0671765
3384,4595;0,0670297
3385,4236;0,0669046
3386,3879;0,0667955
3387,3521;0,0666921
3388,3164;0,066583
3389,2805;0,0664587
3390,2449;0,0663149
3391,2090;0,0661536
3392,1733;0,0659821
3393,1375;0,0658097
3394,1018;0,0656433
3395,0659;0,0654865
3396,0303;0,0653394
3396,9944;0,0652012
3397,9587;0,0650692
3398,9229;0,0649389
3399,8872;0,0648033
3400,8513;0,0646539
3401,8157;0,0644852
3402,7798;0,064297
3403,7441;0,0640953
3404,7083;0,0638899
3405,6726;0,0636908
3406,6367;0,063505
3407,6011;0,063335
3408,5652;0,063178
3409,5295;0,0630259
3410,4937;0,0628674
3411,4580;0,0626914
3412,4221;0,0624936
3413,3865;0,0622794
3414,3506;0,0620635
3415,3149;0,0618614
3416,2791;0,0616809
3417,2434;0,0615159
3418,2075;0,061348
3419,1719;0,0611563
3420,1360;0,0609291
3421,1003;0,0606716
3422,0645;0,060403
3423,0288;0,0601458
3423,9929;0,0599137
3424,9573;0,0597067
3425,9214;0,0595136
3426,8857;0,0593198
3427,8499;0,0591147
3428,8142;0,0588956
3429,7783;0,0586668
3430,7427;0,0584352
3431,7068;0,0582064
3432,6711;0,0579834
3433,6353;0,0577671
3434,5996;0,0575579
3435,5637;0,0573544
3436,5281;0,0571528
3437,4922;0,0569471
3438,4565;0,0567325
3439,4207;0,0565096
3440,3850;0,0562854
3441,3491;0,0560683
3442,3135;0,0558601
3443,2776;0,0556514
3444,2419;0,0554248
3445,2061;0,0551659
3446,1704;0,0548753
3447,1345;0,0545718
3448,0989;0,0542822
3449,0630;0,0540249
3450,0273;0,0538005
3450,9915;0,0535951
3451,9558;0,0533927
3452,9199;0,0531854
3453,8843;0,0529757
3454,8484;0,0527705
3455,8127;0,0525728
3456,7769;0,0523775
3457,7412;0,0521737
3458,7053;0,0519521
3459,6697;0,0517106
3460,6338;0,0514557
3461,5981;0,0511996
3462,5623;0,0509534
3463,5266;0,050722
3464,4907;0,0505021
3465,4551;0,0502841
3466,4192;0,0500586
3467,3835;0,049822
3468,3477;0,0495792
3469,3120;0,0493398
3470,2761;0,0491108
3471,2405;0,0488901
3472,2046;0,0486667
3473,1689;0,0484301
3474,1331;0,0481797
3475,0974;0,0479295
3476,0615;0,0476999
3477,0259;0,047503
3477,9900;0,0473326
3478,9543;0,0471649
3479,9185;0,0469722
3480,8828;0,0467405
3481,8469;0,0464795
3482,8113;0,0462164
3483,7754;0,0459766
3484,7397;0,0457681
3485,7039;0,0455784
3486,6682;0,0453859
3487,6323;0,0451749
3488,5967;0,0449456
3489,5608;0,0447113
3490,5251;0,0444864
3491,4893;0,0442746
3492,4536;0,044066
3493,4177;0,0438472
3494,3821;0,043615
3495,3462;0,0433842
3496,3105;0,0431819
3497,2747;0,0430268
3498,2390;0,0429117
3499,2031;0,0428005
3500,1675;0,0426445
3501,1316;0,0424105
3502,0959;0,0421058
3503,0601;0,041781
3504,0244;0,041499
3504,9885;0,0412932
3505,9529;0,0411475
3506,9170;0,0410121
3507,8813;0,0408363
3508,8455;0,0405973
3509,8098;0,0403113
3510,7739;0,0400195
3511,7383;0,0397587
3512,7024;0,039541
3513,6667;0,0393548
3514,6309;0,0391826
3515,5952;0,0390163
3516,5593;0,0388614
3517,5237;0,0387279
3518,4878;0,0386178
3519,4521;0,0385182
3520,4163;0,0384072
3521,3806;0,038264
3522,3447;0,0380807
3523,3091;0,0378632
3524,2732;0,0376244
3525,2375;0,0373735
3526,2017;0,0371124
3527,1660;0,0368423
3528,1301;0,0365727
3529,0945;0,0363229
3530,0586;0,0361115
3531,0229;0,0359433
3531,9871;0,0358035
3532,9514;0,0356646
3533,9155;0,035499
3534,8799;0,0352918
3535,8440;0,0350498
3536,8083;0,0348012
3537,7725;0,0345842
3538,7368;0,0344285
3539,7009;0,0343414
3540,6653;0,034302
3541,6294;0,0342644
3542,5938;0,0341693
3543,5579;0,0339675
3544,5222;0,0336522
3545,4863;0,0332778
3546,4507;0,0329351
3547,4148;0,0326916
3548,3792;0,0325496
3549,3433;0,0324532
3550,3076;0,0323276
3551,2717;0,0321221
3552,2361;0,0318388
3553,2002;0,0315304
3554,1646;0,0312628
3555,1287;0,0310715
3556,0930;0,030947
3557,0571;0,0308549
3558,0215;0,0307671
3558,9856;0,0306837
3559,9500;0,030631
3560,9141;0,0306364
3561,8784;0,0306961
3562,8425;0,0307589
3563,8069;0,0307303
3564,7710;0,0304994
3565,7354;0,0300059
3566,6995;0,0293293
3567,6638;0,0286835
3568,6279;0,0282564
3569,5923;0,0280779
3570,5564;0,0280531
3571,5208;0,028061
3572,4849;0,0280179
3573,4492;0,0278959
3574,4133;0,027715
3575,3777;0,0275183
3576,3418;0,0273422
3577,3062;0,0272015
3578,2703;0,027097
3579,2346;0,0270326
3580,1987;0,0270209
3581,1631;0,0270704
3582,1272;0,0271649
3583,0916;0,0272538
3584,0557;0,0272579
3585,0200;0,0270944
3585,9841;0,0267304
3586,9485;0,0262502
3587,9126;0,0258441
3588,8770;0,0256683
3589,8411;0,0257288
3590,8054;0,0259125
3591,7695;0,0260809
3592,7339;0,026134
3593,6980;0,0260413
3594,6624;0,0258449
3595,6265;0,0256235
3596,5908;0,0254293
3597,5549;0,0252558
3598,5193;0,025064
3599,4834;0,0248356
3600,4478;0,0246029
3601,4119;0,0244264
3602,3762;0,0243414
3603,3403;0,0243243
3604,3047;0,0243045
3605,2688;0,0242003
3606,2332;0,023959
3607,1973;0,0235864
3608,1616;0,0231504
3609,1257;0,0227419
3610,0901;0,022423
3611,0542;0,0222121
3612,0186;0,0221033
3612,9827;0,0220835
3613,9470;0,0221287
3614,9111;0,0221912
3615,8755;0,0222009
3616,8396;0,0220889
3617,8040;0,0218326
3618,7681;0,0215008
3619,7324;0,0212469
3620,6965;0,0212121
3621,6609;0,0214254
3622,6250;0,0218011
3623,5894;0,0222032
3624,5535;0,0224944
3625,5178;0,0225455
3626,4819;0,0222437
3627,4463;0,0215587
3628,4104;0,0206669
3629,3748;0,0199199
3630,3389;0,0195437
3631,3032;0,0194753
3632,2673;0,0195145
3633,2317;0,0195018
3634,1958;0,0193758
3635,1602;0,0191568
3636,1243;0,0189012
3637,0886;0,0186554
3638,0527;0,0184361
3639,0171;0,0182454
3639,9812;0,018098
3640,9456;0,0180286
3641,9097;0,018072
3642,8740;0,0182324
3643,8381;0,0184686
3644,8025;0,0186952
3645,7666;0,0187838
3646,7310;0,0185627
3647,6951;0,0178912
3648,6594;0,0168882
3649,6235;0,0160091
3650,5879;0,015611
3651,5520;0,0156427
3652,5164;0,0158468
3653,4805;0,0159968
3654,4448;0,015973
3655,4089;0,0157716
3656,3733;0,0154902
3657,3374;0,0152615
3658,3018;0,015158
3659,2659;0,0151571
3660,2302;0,015195
3661,1943;0,0152341
3662,1587;0,0152885
3663,1228;0,0153971
3664,0872;0,0155756
3665,0513;0,015791
3666,0156;0,0159735
3666,9797;0,0160529
3667,9441;0,0159992
3668,9082;0,0158592
3669,8726;0,0157425
3670,8367;0,0157253
3671,8010;0,0157693
3672,7651;0,0157523
3673,7295;0,0155597
3674,6936;0,0151752
3675,6580;0,0147355
3676,6221;0,0144472
3677,5864;0,0143985
3678,5505;0,0145159
3679,5149;0,0146858
3680,4790;0,0148534
3681,4434;0,0150313
3682,4075;0,0152567
3683,3718;0,0155427
3684,3359;0,0158558
3685,3003;0,0161267
3686,2644;0,016276
3687,2288;0,0162437
3688,1929;0,0160315
3689,1572;0,015747
3690,1213;0,0155585
3691,0857;0,0155586
3692,0498;0,0157137
3693,0142;0,01594
3693,9783;0,0161755
3694,9426;0,0163946
3695,9067;0,0165894
3696,8711;0,0167478
3697,8352;0,0168448
3698,7996;0,0168504
3699,7637;0,0167521
3700,7280;0,0165802
3701,6921;0,0164154
3702,6565;0,0163531
3703,6206;0,0164462
3704,5850;0,0166779
3705,5491;0,0169816
3706,5134;0,0172696
3707,4775;0,0174412
3708,4419;0,0173797
3709,4060;0,0169807
3710,3704;0,016257
3711,3345;0,0154336
3712,2988;0,0148275
3713,2629;0,0146021
3714,2273;0,0147147
3715,1914;0,0150355
3716,1558;0,0154487
3717,1199;0,0158837
3718,0842;0,016307
3719,0483;0,0167035
3720,0127;0,0170602
3720,9768;0,0173572
3721,9412;0,0175717
3722,9053;0,0176908
3723,8696;0,0177284
3724,8337;0,0177302
3725,7981;0,0177552
3726,7622;0,017842
3727,7266;0,0179889
3728,6907;0,0181626
3729,6550;0,0183204
3730,6191;0,018421
3731,5835;0,0184172
3732,5476;0,0182428
3733,5120;0,0178312
3734,4761;0,0172045
3735,4404;0,0165493
3736,4045;0,0161134
3737,3689;0,0160032
3738,3330;0,0161391
3739,2974;0,0163523
3740,2615;0,0164748
3741,2258;0,0163806
3742,1899;0,0160196
3743,1543;0,0154749
3744,1184;0,0149867
3745,0828;0,0148046
3746,0469;0,0149585
3747,0112;0,0152471
3747,9753;0,0154038
3748,9397;0,01523
3749,9038;0,0147027
3750,8682;0,0140647
3751,8323;0,0136839
3752,7966;0,0137156
3753,7607;0,014027
3754,7251;0,0143924
3755,6892;0,0146392
3756,6536;0,0146862
3757,6177;0,0145468
3758,5820;0,0143212
3759,5461;0,0141425
3760,5105;0,0140933
3761,4746;0,0141685
3762,4390;0,0143087
3763,4031;0,0144494
3764,3674;0,0145467
3765,3315;0,0145785
3766,2959;0,014536
3767,2600;0,0144173
3768,2244;0,0142329
3769,1885;0,0140191
3770,1528;0,0138416
3771,1169;0,0137703
3772,0813;0,013837
3773,0454;0,0140162
3774,0098;0,0142416
3774,9739;0,0144362
3775,9382;0,0145379
3776,9023;0,0145181
3777,8667;0,014396
3778,8308;0,014238
3779,7952;0,0141216
3780,7593;0,0140865
3781,7236;0,014118
3782,6877;0,0141707
3783,6521;0,0142004
3784,6162;0,0141847
3785,5806;0,0141289
3786,5447;0,014061
3787,5090;0,0140179
3788,4731;0,0140284
3789,4375;0,0141009
3790,4016;0,0142218
3791,3660;0,0143634
3792,3301;0,0145008
3793,2944;0,0146272
3794,2585;0,0147567
3795,2229;0,0149096
3796,1870;0,0150833
3797,1514;0,0152334
3798,1155;0,0152843
3799,0798;0,0151722
3800,0439;0,0149038
3801,0083;0,0145867
3801,9724;0,0143657
3802,9368;0,014297
3803,9009;0,0143054
3804,8652;0,0142646
3805,8293;0,0141084
3806,7937;0,0138949
3807,7578;0,0137755
3808,7222;0,0138688
3809,6863;0,0141606
3810,6506;0,0145311
3811,6147;0,0148462
3812,5791;0,0150226
3813,5432;0,0150546
3814,5076;0,0150136
3815,4717;0,0150055
3816,4360;0,0150841
3817,4001;0,0151953
3818,3645;0,0152144
3819,3286;0,0150433
3820,2930;0,0147017
3821,2571;0,0143416
3822,2214;0,0141338
3823,1855;0,014132
3824,1499;0,0142671
3825,1140;0,0144345
3826,0784;0,0145633
3827,0425;0,0146357
3828,0068;0,0146747
3828,9709;0,0147189
3829,9353;0,0147986
3830,8994;0,0149238
3831,8638;0,015084
3832,8279;0,0152521
3833,7922;0,0153904
3834,7563;0,0154581
3835,7207;0,0154235
3836,6848;0,0152798
3837,6492;0,0150597
3838,6133;0,0148263
3839,5776;0,0146331
3840,5417;0,0144895
3841,5061;0,0143731
3842,4702;0,0142739
3843,4346;0,0142217
3844,3987;0,0142755
3845,3630;0,0144828
3846,3271;0,0148417
3847,2915;0,0152942
3848,2556;0,0157436
3849,2200;0,0160719
3850,1841;0,0161399
3851,1484;0,0157955
3852,1125;0,0149776
3853,0769;0,0139513
3854,0410;0,0132589
3855,0054;0,0131784
3855,9695;0,0135443
3856,9338;0,0140711
3857,8979;0,0145647
3858,8623;0,0149357
3859,8264;0,0151577
3860,7908;0,0152375
3861,7549;0,0152061
3862,7192;0,0151201
3863,6833;0,0150485
3864,6477;0,0150372
3865,6118;0,0150808
3866,5762;0,0151335
3867,5403;0,0151405
3868,5046;0,0150645
3869,4688;0,014901
3870,4331;0,0146851
3871,3972;0,0144818
3872,3616;0,0143566
3873,3257;0,0143455
3874,2900;0,014443
3875,2542;0,0146105
3876,2185;0,0147945
3877,1826;0,0149446
3878,1470;0,0150305
3879,1111;0,0150501
3880,0754;0,0150252
3881,0396;0,0149788
3882,0039;0,0149107
3882,9680;0,0148047
3883,9324;0,014663
3884,8965;0,0145332
3885,8608;0,0144843
3886,8250;0,0145468
3887,7893;0,0146765
3888,7534;0,0147802
3889,7178;0,0147767
3890,6819;0,0146577
3891,6462;0,0145121
3892,6104;0,0144699
3893,5747;0,0145977
3894,5388;0,0148563
3895,5032;0,0151507
3896,4673;0,0153946
3897,4316;0,0155387
3898,3958;0,01557
3899,3601;0,0154971
3900,3242;0,0153315
3901,2886;0,0150802
3902,2527;0,0147612
3903,2170;0,0144278
3904,1812;0,0141616
3905,1455;0,0140259
3906,1096;0,0140259
3907,0740;0,0141179
3908,0381;0,0142472
3909,0024;0,0143779
3909,9666;0,0145003
3910,9309;0,01462
3911,8950;0,0147412
3912,8594;0,0148533
3913,8235;0,0149307
3914,7878;0,0149451
3915,7520;0,0148859
3916,7163;0,0147774
3917,6804;0,0146756
3918,6448;0,0146353
3919,6089;0,0146723
3920,5732;0,014755
3921,5374;0,0148293
3922,5017;0,0148531
3923,4658;0,0148216
3924,4302;0,0147707
3925,3943;0,0147519
3926,3586;0,0147919
3927,3228;0,0148739
3928,2871;0,0149488
3929,2512;0,0149646
3930,2156;0,0148945
3931,1797;0,0147558
3932,1440;0,0146039
3933,1082;0,0145003
3934,0725;0,0144775
3935,0366;0,0145317
3936,0010;0,0146368
3936,9651;0,0147608
3937,9294;0,0148735
3938,8936;0,0149493
3939,8579;0,0149707
3940,8220;0,0149378
3941,7864;0,014874
3942,7505;0,0148187
3943,7148;0,0148045
3944,6790;0,0148355
3945,6433;0,0148859
3946,6074;0,0149169
3947,5718;0,014901
3948,5359;0,0148384
3949,5002;0,0147563
3950,4644;0,0146894
3951,4287;0,0146568
3952,3928;0,0146547
3953,3572;0,0146666
3954,3213;0,014679
3955,2856;0,0146894
3956,2498;0,014703
3957,2141;0,0147242
3958,1782;0,0147501
3959,1426;0,0147712
3960,1067;0,014778
3961,0710;0,0147689
3962,0352;0,014751
3962,9995;0,0147359
3963,9636;0,0147314
3964,9280;0,0147378
3965,8921;0,0147489
3966,8564;0,0147574
3967,8206;0,0147587
3968,7849;0,0147527
3969,7490;0,0147422
3970,7134;0,0147303
3971,6775;0,0147188
3972,6418;0,0147085
3973,6060;0,0147005
3974,5703;0,0146963
3975,5344;0,0146972
3976,4988;0,0147025
3977,4629;0,0147093
3978,4272;0,0147134
3979,3914;0,0147116
3980,3557;0,0147032
3981,3198;0,0146911
3982,2842;0,0146808
3983,2483;0,0146785
3984,2126;0,0146884
3985,1768;0,0147104
3986,1411;0,0147401
3987,1052;0,01477
3988,0696;0,0147925
3989,0337;0,0148029
3989,9980;0,0148002
3990,9622;0,0147868
3991,9265;0,0147663
3992,8906;0,0147425
3993,8550;0,0147197
3994,8191;0,0147035
3995,7834;0,0146991
3996,7476;0,0147087
3997,7119;0,0147283
3998,6760;0,0147485
3999,6404;0,0147598
4000,6045;0,0148323

##### Extended Information
[Comments]
Sample name
Comment
Username
Division
Organization;UNIVERSIDAD INDUSTRIAL DE SANTANDER

[Detailed Information]
Creation date;14/03/2025 11:42 a.m.

Data array type;Linear data array
Horizontal axis;Wavenumber [cm-1]
Vertical axis;Abs
Start;399,193 cm-1
End;4000,6 cm-1
Data interval;0,964233 cm-1
Data points;3736    

[Measurement Information]
Model name;FT/IR-4X1typeA
Serial No.;A035162111

Accessory;ATR PRO 4X
Accessory S/N;A021162126
Incident angle;45 deg

Measurement date;14/03/2025 11:41 a.m.

Light source;Standard
Detector;TGS
Accumulation;40
Resolution;4 cm-1
Zero filling;On
Apodization;Cosine
Gain;Auto (8)
Aperture;Auto (7 mm)
Scan speed;Auto (2 mm/sec)
Filter;Auto (12800 Hz)

