TITLE;
DATA TYPE;INFRARED SPECTRUM
ORIGIN;JASCO
OWNER;
DATE;25/02/28
TIME;16:07:32
SPECTROMETER/DATA SYSTEM;
LOCALE;9226
RESOLUTION;
DELTAX;0,964233
XUNITS;1/CM
YUNITS;ABSORBANCE
FIRSTX;  399,1927
LASTX; 4000,6047
NPOINTS;    3736
FIRSTY;     0,21696
MAXY;     0,25923
MINY;    -0,00441
XYDATA
399,1927;0,216963
400,1569;0,214585
401,1211;0,21286
402,0854;0,211875
403,0496;0,211459
404,0138;0,211306
404,9781;0,211087
405,9423;0,210614
406,9065;0,20996
407,8708;0,209428
408,8350;0,209351
409,7992;0,20988
410,7635;0,210904
411,7277;0,212152
412,6919;0,213396
413,6562;0,214592
414,6204;0,215842
415,5846;0,217244
416,5489;0,218732
417,5131;0,219999
418,4773;0,220656
419,4416;0,220695
420,4058;0,220672
421,3700;0,221147
422,3343;0,2222
423,2985;0,22349
424,2627;0,224508
425,2270;0,224824
426,1912;0,224305
427,1554;0,223192
428,1197;0,221966
429,0839;0,2211
430,0481;0,220863
431,0124;0,221258
431,9766;0,222055
432,9408;0,222922
433,9051;0,223577
434,8693;0,223907
435,8335;0,224005
436,7978;0,224094
437,7620;0,224384
438,7262;0,22495
439,6905;0,225681
440,6547;0,226319
441,6189;0,226564
442,5832;0,226218
443,5474;0,225337
444,5116;0,224242
445,4759;0,223383
446,4401;0,223129
447,4043;0,223643
448,3686;0,224842
449,3328;0,22643
450,2970;0,227981
451,2613;0,22907
452,2255;0,229424
453,1897;0,229007
454,1540;0,228
455,1182;0,226688
456,0824;0,225364
457,0467;0,224249
458,0109;0,223445
458,9751;0,222926
459,9394;0,222607
460,9036;0,222428
461,8678;0,222391
462,8321;0,222532
463,7963;0,222862
464,7605;0,223324
465,7248;0,223783
466,6890;0,224075
467,6532;0,224069
468,6175;0,223708
469,5817;0,223004
470,5459;0,222016
471,5102;0,220849
472,4744;0,219643
473,4386;0,21854
474,4029;0,21762
475,3671;0,216879
476,3313;0,21626
477,2956;0,215696
478,2598;0,215153
479,2240;0,214638
480,1883;0,214185
481,1525;0,213822
482,1167;0,213558
483,0810;0,213374
484,0452;0,21324
485,0094;0,213125
485,9737;0,213009
486,9379;0,212883
487,9021;0,212751
488,8664;0,212638
489,8306;0,212591
490,7948;0,212659
491,7591;0,212848
492,7233;0,213096
493,6875;0,213281
494,6518;0,213289
495,6160;0,213088
496,5802;0,212751
497,5445;0,212426
498,5087;0,21226
499,4729;0,212339
500,4372;0,212641
501,4014;0,213053
502,3656;0,213419
503,3299;0,213613
504,2941;0,213582
505,2583;0,213353
506,2226;0,213006
507,1868;0,212655
508,1510;0,212428
509,1153;0,212423
510,0795;0,212672
511,0437;0,21312
512,0080;0,21366
512,9722;0,214194
513,9365;0,21469
514,9007;0,215189
515,8649;0,215756
516,8292;0,216401
517,7934;0,217019
518,7576;0,217428
519,7219;0,217487
520,6861;0,217194
521,6503;0,216676
522,6146;0,216105
523,5788;0,215624
524,5430;0,215305
525,5073;0,215156
526,4715;0,215145
527,4357;0,21523
528,4000;0,21536
529,3642;0,215469
530,3284;0,215471
531,2927;0,215291
532,2569;0,214906
533,2211;0,214373
534,1854;0,213793
535,1496;0,213245
536,1138;0,212721
537,0781;0,212128
538,0423;0,211361
539,0065;0,2104
539,9708;0,209355
540,9350;0,20843
541,8992;0,207827
542,8635;0,20765
543,8277;0,207855
544,7919;0,208276
545,7562;0,208699
546,7204;0,208952
547,6846;0,208968
548,6489;0,208796
549,6131;0,208558
550,5773;0,208394
551,5416;0,208395
552,5058;0,208577
553,4700;0,208871
554,4343;0,209143
555,3985;0,209252
556,3627;0,209101
557,3270;0,208678
558,2912;0,208044
559,2554;0,207293
560,2197;0,206499
561,1839;0,205692
562,1481;0,204878
563,1124;0,204069
564,0766;0,203304
565,0408;0,202635
566,0051;0,202087
566,9693;0,201635
567,9335;0,201212
568,8978;0,200758
569,8620;0,200267
570,8262;0,1998
571,7905;0,19945
572,7547;0,199275
573,7189;0,199263
574,6832;0,199323
575,6474;0,199331
576,6116;0,199185
577,5759;0,198852
578,5401;0,198371
579,5043;0,197827
580,4686;0,197301
581,4328;0,196852
582,3970;0,196498
583,3613;0,196235
584,3255;0,196044
585,2897;0,195909
586,2540;0,195818
587,2182;0,195764
588,1824;0,195739
589,1467;0,195728
590,1109;0,195712
591,0751;0,195673
592,0394;0,195598
593,0036;0,195484
593,9678;0,195332
594,9321;0,195148
595,8963;0,19493
596,8605;0,194675
597,8248;0,194377
598,7890;0,194037
599,7532;0,193664
600,7175;0,193266
601,6817;0,192846
602,6459;0,192399
603,6102;0,191913
604,5744;0,191386
605,5386;0,19082
606,5029;0,190213
607,4671;0,189547
608,4313;0,188781
609,3956;0,187885
610,3598;0,186883
611,3240;0,185884
612,2883;0,185053
613,2525;0,184534
614,2167;0,184344
615,1810;0,184322
616,1452;0,184162
617,1094;0,183549
618,0737;0,182339
619,0379;0,180645
620,0021;0,178765
620,9664;0,177013
621,9306;0,175575
622,8948;0,174471
623,8591;0,173606
624,8233;0,172799
625,7875;0,172103
626,7518;0,171514
627,7160;0,171057
628,6802;0,170723
629,6445;0,170465
630,6087;0,170204
631,5729;0,169869
632,5372;0,169432
633,5014;0,168911
634,4656;0,168364
635,4299;0,167863
636,3941;0,167462
637,3583;0,167179
638,3226;0,166992
639,2868;0,166848
640,2510;0,166687
641,2153;0,166463
642,1795;0,166168
643,1437;0,165831
644,1080;0,165503
645,0722;0,165234
646,0364;0,165045
647,0007;0,164923
647,9649;0,164825
648,9291;0,164701
649,8934;0,164519
650,8576;0,16428
651,8218;0,16403
652,7861;0,163844
653,7503;0,163799
654,7145;0,163932
655,6788;0,164214
656,6430;0,16456
657,6072;0,164886
658,5715;0,165158
659,5357;0,165382
660,4999;0,165541
661,4642;0,165519
662,4284;0,165099
663,3926;0,164049
664,3569;0,16231
665,3211;0,16024
666,2853;0,158722
667,2496;0,158722
668,2138;0,160087
669,1780;0,161371
670,1423;0,161718
671,1065;0,161255
672,0707;0,16012
673,0350;0,158362
673,9992;0,156186
674,9634;0,153934
675,9277;0,151889
676,8919;0,150131
677,8561;0,148567
678,8204;0,147078
679,7846;0,14564
680,7488;0,144306
681,7131;0,143138
682,6773;0,142136
683,6415;0,141248
684,6058;0,140422
685,5700;0,139642
686,5342;0,138925
687,4985;0,138288
688,4627;0,137732
689,4269;0,137219
690,3912;0,136709
691,3554;0,136181
692,3196;0,135624
693,2839;0,135029
694,2481;0,134385
695,2123;0,133689
696,1766;0,132958
697,1408;0,132233
698,1050;0,131566
699,0693;0,130989
700,0335;0,130501
700,9977;0,130066
701,9620;0,129629
702,9262;0,129142
703,8904;0,128568
704,8547;0,127931
705,8189;0,127277
706,7831;0,126647
707,7474;0,126054
708,7116;0,125486
709,6758;0,12491
710,6401;0,124293
711,6043;0,123618
712,5685;0,122892
713,5328;0,12215
714,4970;0,121454
715,4612;0,119558
716,4255;0,119383
717,3897;0,119402
718,3539;0,119409
719,3182;0,119122
720,2824;0,118323
721,2466;0,116997
722,2109;0,115349
723,1751;0,113691
724,1393;0,112282
725,1036;0,111225
726,0678;0,110465
727,0320;0,109855
727,9963;0,109244
728,9605;0,108549
729,9247;0,107758
730,8890;0,106912
731,8532;0,106064
732,8174;0,105255
733,7817;0,104503
734,7459;0,103814
735,7101;0,103185
736,6744;0,102619
737,6386;0,102119
738,6028;0,101694
739,5671;0,101343
740,5313;0,101047
741,4955;0,100769
742,4598;0,100463
743,4240;0,100095
744,3882;0,0996591
745,3525;0,0991713
746,3167;0,0986594
747,2809;0,0981451
748,2452;0,0976379
749,2094;0,0971385
750,1736;0,0966456
751,1379;0,0961567
752,1021;0,0956654
753,0663;0,0951595
754,0306;0,0946284
754,9948;0,0940752
755,9590;0,093523
756,9233;0,0930063
757,8875;0,0925516
758,8517;0,0921595
759,8160;0,0918037
760,7802;0,0914463
761,7444;0,091061
762,7087;0,0906454
763,6729;0,0902168
764,6371;0,0897968
765,6014;0,0893974
766,5656;0,0890182
767,5298;0,0886535
768,4941;0,0882989
769,4583;0,0879526
770,4225;0,0876103
771,3868;0,087263
772,3510;0,0869015
773,3152;0,0865245
774,2795;0,0861444
775,2437;0,0857826
776,2079;0,0854558
777,1722;0,0851637
778,1364;0,084884
779,1006;0,0845817
780,0649;0,0842241
781,0291;0,0837959
781,9933;0,0833034
782,9576;0,0827712
783,9218;0,0822313
784,8860;0,081713
785,8503;0,0812372
786,8145;0,0808138
787,7787;0,0804443
788,7430;0,080124
789,7072;0,0798446
790,6714;0,0795954
791,6357;0,0793646
792,5999;0,0791393
793,5641;0,0789061
794,5284;0,0786529
795,4926;0,0783734
796,4568;0,0780715
797,4211;0,0777641
798,3853;0,0774779
799,3495;0,0772388
800,3138;0,0770581
801,2780;0,076922
802,2422;0,0767947
803,2065;0,0766331
804,1707;0,0764085
805,1349;0,0761223
806,0992;0,0758046
807,0634;0,075498
808,0276;0,0752347
808,9919;0,0750218
809,9561;0,0748424
810,9203;0,0746703
811,8846;0,0744879
812,8488;0,0742956
813,8130;0,0741087
814,7773;0,0739459
815,7415;0,0738185
816,7057;0,0737257
817,6700;0,0736576
818,6342;0,0736
819,5984;0,0735389
820,5627;0,0734634
821,5269;0,073368
822,4911;0,0732559
823,4554;0,0731416
824,4196;0,0730475
825,3839;0,0729954
826,3481;0,0729933
827,3123;0,073028
828,2766;0,0730682
829,2408;0,0730779
830,2050;0,0730326
831,1693;0,0729282
832,1335;0,0727782
833,0977;0,0726002
834,0620;0,0724043
835,0262;0,0721889
835,9904;0,0719471
836,9547;0,0716781
837,9189;0,0713934
838,8831;0,0711138
839,8474;0,0708586
840,8116;0,070635
841,7758;0,0704353
842,7401;0,0702436
843,7043;0,070047
844,6685;0,0698452
845,6328;0,0696507
846,5970;0,0694807
847,5612;0,0693452
848,5255;0,0692392
849,4897;0,0691428
850,4539;0,0690314
851,4182;0,0688887
852,3824;0,0687173
853,3466;0,0685394
854,3109;0,0683876
855,2751;0,0682904
856,2393;0,0682597
857,2036;0,0682863
858,1678;0,0683464
859,1320;0,0684132
860,0963;0,0684692
861,0605;0,0685121
862,0247;0,0685517
862,9890;0,0686031
863,9532;0,0686778
864,9174;0,0687817
865,8817;0,0689158
866,8459;0,0690803
867,8101;0,0692754
868,7744;0,0694981
869,7386;0,0697374
870,7028;0,0699731
871,6671;0,0701803
872,6313;0,0703382
873,5955;0,0704376
874,5598;0,070484
875,5240;0,0704918
876,4882;0,0704783
877,4525;0,0704587
878,4167;0,0704474
879,3809;0,0704611
880,3452;0,0705197
881,3094;0,0706439
882,2736;0,0708497
883,2379;0,0711457
884,2021;0,071535
885,1663;0,0720199
886,1306;0,0726044
887,0948;0,0732913
888,0590;0,0740763
889,0233;0,0749426
889,9875;0,0758617
890,9517;0,0767997
891,9160;0,0777247
892,8802;0,0786096
893,8444;0,07943
894,8087;0,0801584
895,7729;0,0807611
896,7371;0,0812016
897,7014;0,0814503
898,6656;0,0814954
899,6298;0,0813511
900,5941;0,0810567
901,5583;0,0806666
902,5225;0,080235
903,4868;0,0798013
904,4510;0,0793829
905,4152;0,0789806
906,3795;0,0785919
907,3437;0,0782263
908,3079;0,0779107
909,2722;0,0776831
910,2364;0,0775753
911,2007;0,0775985
912,1649;0,0777383
913,1292;0,0779647
914,0934;0,078249
915,0576;0,0785775
916,0219;0,0789532
916,9861;0,0793857
917,9503;0,0798769
918,9146;0,0804123
919,8788;0,0809621
920,8430;0,081491
921,8073;0,0819696
922,7715;0,0823829
923,7357;0,0827322
924,7000;0,0830311
925,6642;0,0832985
926,6284;0,0835503
927,5927;0,0837916
928,5569;0,0840146
929,5211;0,0842031
930,4854;0,0843421
931,4496;0,0844287
932,4138;0,0844779
933,3781;0,0845192
934,3423;0,0845866
935,3065;0,0847084
936,2708;0,0849013
937,2350;0,0851722
938,1992;0,0855231
939,1635;0,0859553
940,1277;0,0864695
941,0919;0,087065
942,0562;0,0877378
943,0204;0,0884822
943,9846;0,089293
944,9489;0,0901665
945,9131;0,0911012
946,8773;0,0920968
947,8416;0,0931553
948,8058;0,094282
949,7700;0,0954867
950,7343;0,0967834
951,6985;0,0981876
952,6627;0,0997126
953,6270;0,101367
954,5912;0,103151
955,5554;0,105057
956,5197;0,107066
957,4839;0,109152
958,4481;0,111285
959,4124;0,113444
960,3766;0,115615
961,3408;0,117802
962,3051;0,120016
963,2693;0,122269
964,2335;0,12457
965,1978;0,126924
966,1620;0,129333
967,1262;0,131801
968,0905;0,134335
969,0547;0,136949
970,0189;0,139659
970,9832;0,142491
971,9474;0,145472
972,9116;0,148641
973,8759;0,152033
974,8401;0,15568
975,8043;0,159592
976,7686;0,163756
977,7328;0,168131
978,6970;0,17265
979,6613;0,177225
980,6255;0,181756
981,5897;0,186134
982,5540;0,190254
983,5182;0,194033
984,4824;0,197415
985,4467;0,200386
986,4109;0,202973
987,3751;0,205228
988,3394;0,207213
989,3036;0,208985
990,2678;0,210581
991,2321;0,212018
992,1963;0,213301
993,1605;0,214432
994,1248;0,215422
995,0890;0,216286
996,0532;0,21705
997,0175;0,217738
997,9817;0,218374
998,9459;0,218984
999,9102;0,219598
1000,8744;0,22026
1001,8386;0,221029
1002,8029;0,221974
1003,7671;0,223163
1004,7313;0,22465
1005,6956;0,22647
1006,6598;0,228631
1007,6240;0,231122
1008,5883;0,233911
1009,5525;0,236945
1010,5167;0,240152
1011,4810;0,243434
1012,4452;0,246671
1013,4094;0,249729
1014,3737;0,252477
1015,3379;0,254801
1016,3021;0,25663
1017,2664;0,257942
1018,2306;0,258764
1019,1948;0,259164
1020,1591;0,25923
1021,1233;0,259059
1022,0875;0,258739
1023,0518;0,258347
1024,0160;0,257943
1024,9802;0,257565
1025,9445;0,257226
1026,9087;0,256914
1027,8729;0,256594
1028,8372;0,256217
1029,8014;0,255726
1030,7656;0,255063
1031,7299;0,254176
1032,6941;0,253027
1033,6583;0,251601
1034,6226;0,249918
1035,5868;0,24804
1036,5510;0,246062
1037,5153;0,244097
1038,4795;0,242254
1039,4437;0,240607
1040,4080;0,23919
1041,3722;0,237993
1042,3364;0,23697
1043,3007;0,236059
1044,2649;0,235186
1045,2291;0,234284
1046,1934;0,233293
1047,1576;0,232166
1048,1218;0,230866
1049,0861;0,229366
1050,0503;0,227651
1051,0145;0,22572
1051,9788;0,223589
1052,9430;0,221295
1053,9072;0,218884
1054,8715;0,216392
1055,8357;0,213827
1056,7999;0,211163
1057,7642;0,208347
1058,7284;0,205324
1059,6926;0,202074
1060,6569;0,198629
1061,6211;0,195078
1062,5853;0,191544
1063,5496;0,188149
1064,5138;0,184981
1065,4780;0,182085
1066,4423;0,179462
1067,4065;0,177084
1068,3707;0,174914
1069,3350;0,172911
1070,2992;0,171033
1071,2634;0,169234
1072,2277;0,167458
1073,1919;0,16565
1074,1561;0,16376
1075,1204;0,161757
1076,0846;0,159635
1077,0488;0,157412
1078,0131;0,155128
1078,9773;0,152837
1079,9415;0,150599
1080,9058;0,14847
1081,8700;0,146497
1082,8342;0,144706
1083,7985;0,143101
1084,7627;0,14167
1085,7269;0,140395
1086,6912;0,139263
1087,6554;0,138272
1088,6196;0,137428
1089,5839;0,136739
1090,5481;0,136201
1091,5123;0,135802
1092,4766;0,135526
1093,4408;0,135355
1094,4050;0,135282
1095,3693;0,135301
1096,3335;0,135411
1097,2977;0,135601
1098,2620;0,13585
1099,2262;0,136125
1100,1904;0,136387
1101,1547;0,136597
1102,1189;0,136723
1103,0831;0,136739
1104,0474;0,136635
1105,0116;0,136413
1105,9758;0,136086
1106,9401;0,135673
1107,9043;0,135191
1108,8685;0,13464
1109,8328;0,134005
1110,7970;0,133247
1111,7612;0,132329
1112,7255;0,131228
1113,6897;0,129957
1114,6539;0,128575
1115,6182;0,127168
1116,5824;0,125826
1117,5466;0,124613
1118,5109;0,123543
1119,4751;0,122582
1120,4393;0,121657
1121,4036;0,120677
1122,3678;0,119561
1123,3320;0,11825
1124,2963;0,116713
1125,2605;0,114955
1126,2247;0,113005
1127,1890;0,110906
1128,1532;0,108708
1129,1174;0,106456
1130,0817;0,104188
1131,0459;0,101938
1132,0101;0,0997393
1132,9744;0,0976294
1133,9386;0,0956508
1134,9028;0,093845
1135,8671;0,0922464
1136,8313;0,0908774
1137,7955;0,0897475
1138,7598;0,0888549
1139,7240;0,0881884
1140,6882;0,0877282
1141,6525;0,0874483
1142,6167;0,0873193
1143,5809;0,0873142
1144,5452;0,0874131
1145,5094;0,0876048
1146,4736;0,0878833
1147,4379;0,088242
1148,4021;0,0886684
1149,3663;0,0891423
1150,3306;0,0896383
1151,2948;0,0901294
1152,2590;0,0905893
1153,2233;0,090991
1154,1875;0,0913035
1155,1517;0,0914889
1156,1160;0,0915015
1157,0802;0,0912891
1158,0444;0,0907966
1159,0087;0,0899713
1159,9729;0,0887694
1160,9371;0,0871646
1161,9014;0,0851562
1162,8656;0,0827751
1163,8298;0,0800827
1164,7941;0,0771644
1165,7583;0,0741185
1166,7225;0,0710449
1167,6868;0,0680367
1168,6510;0,065174
1169,6152;0,0625196
1170,5795;0,060115
1171,5437;0,0579774
1172,5079;0,0561002
1173,4722;0,054458
1174,4364;0,0530165
1175,4006;0,0517435
1176,3649;0,0506175
1177,3291;0,0496296
1178,2933;0,0487792
1179,2576;0,048067
1180,2218;0,0474881
1181,1860;0,0470302
1182,1503;0,0466768
1183,1145;0,0464124
1184,0787;0,0462281
1185,0430;0,0461221
1186,0072;0,0460968
1186,9714;0,0461551
1187,9357;0,0462973
1188,8999;0,0465213
1189,8641;0,046825
1190,8284;0,0472095
1191,7926;0,0476782
1192,7568;0,0482352
1193,7211;0,0488806
1194,6853;0,0496075
1195,6495;0,0504019
1196,6138;0,0512446
1197,5780;0,052115
1198,5422;0,052995
1199,5065;0,0536378
1200,4707;0,0545307
1201,4349;0,0554125
1202,3992;0,0562845
1203,3634;0,05715
1204,3276;0,0580118
1205,2919;0,0588708
1206,2561;0,0597271
1207,2203;0,0605832
1208,1846;0,0614482
1209,1488;0,062338
1210,1130;0,0632735
1211,0773;0,064274
1212,0415;0,0653513
1213,0057;0,0665059
1213,9700;0,0677273
1214,9342;0,0689981
1215,8984;0,0702982
1216,8627;0,0716061
1217,8269;0,0729005
1218,7911;0,0741652
1219,7554;0,0753888
1220,7196;0,0765653
1221,6838;0,077692
1222,6481;0,0787666
1223,6123;0,0797856
1224,5765;0,080744
1225,5408;0,0816387
1226,5050;0,0824704
1227,4692;0,083244
1228,4335;0,0839654
1229,3977;0,0846377
1230,3619;0,0852586
1231,3262;0,0858214
1232,2904;0,0863177
1233,2546;0,0867402
1234,2189;0,0870845
1235,1831;0,0873492
1236,1473;0,0875366
1237,1116;0,0876535
1238,0758;0,0877111
1239,0400;0,0877231
1240,0043;0,0876999
1240,9685;0,0876436
1241,9327;0,0875459
1242,8970;0,0873899
1243,8612;0,0871583
1244,8254;0,0868401
1245,7897;0,0864366
1246,7539;0,0859611
1247,7181;0,0854349
1248,6824;0,08488
1249,6466;0,0843129
1250,6108;0,0837414
1251,5751;0,0831649
1252,5393;0,0825793
1253,5035;0,0819826
1254,4678;0,0813783
1255,4320;0,0807729
1256,3962;0,0801708
1257,3605;0,0795672
1258,3247;0,0789471
1259,2889;0,0782886
1260,2532;0,0775719
1261,2174;0,0767866
1262,1816;0,0759356
1263,1459;0,0750321
1264,1101;0,0740935
1265,0743;0,0731362
1266,0386;0,0721702
1267,0028;0,0711975
1267,9670;0,0702119
1268,9313;0,0692025
1269,8955;0,0681596
1270,8597;0,0670813
1271,8240;0,0659767
1272,7882;0,0648645
1273,7524;0,0637676
1274,7167;0,0627074
1275,6809;0,0616988
1276,6451;0,0607484
1277,6094;0,0598541
1278,5736;0,0590063
1279,5378;0,0581914
1280,5021;0,057398
1281,4663;0,0566227
1282,4305;0,0558723
1283,3948;0,0551606
1284,3590;0,0545023
1285,3232;0,0539065
1286,2875;0,0533752
1287,2517;0,0529049
1288,2159;0,0524914
1289,1802;0,0521333
1290,1444;0,0518337
1291,1086;0,0515989
1292,0729;0,0514362
1293,0371;0,0513524
1294,0013;0,0513522
1294,9656;0,0514369
1295,9298;0,0516035
1296,8940;0,0518454
1297,8583;0,0521541
1298,8225;0,0525216
1299,7867;0,0529422
1300,7510;0,0534124
1301,7152;0,0539342
1302,6794;0,0545096
1303,6437;0,0551399
1304,6079;0,055825
1305,5721;0,05656
1306,5364;0,0573364
1307,5006;0,0581446
1308,4648;0,0589778
1309,4291;0,0598313
1310,3933;0,0606982
1311,3575;0,0615628
1312,3218;0,0623991
1313,2860;0,063175
1314,2502;0,0638612
1315,2145;0,0644347
1316,1787;0,0648754
1317,1429;0,0651614
1318,1072;0,065273
1319,0714;0,0652066
1320,0356;0,0649891
1320,9999;0,0646764
1321,9641;0,064335
1322,9283;0,0640192
1323,8926;0,063759
1324,8568;0,0635608
1325,8210;0,0634146
1326,7853;0,0633037
1327,7495;0,0632096
1328,7137;0,0631144
1329,6780;0,0629996
1330,6422;0,0628495
1331,6064;0,0626571
1332,5707;0,0624285
1333,5349;0,0621857
1334,4991;0,061955
1335,4634;0,0617497
1336,4276;0,0615515
1337,3918;0,0612976
1338,3561;0,0608969
1339,3203;0,0602887
1340,2845;0,0595048
1341,2488;0,0586618
1342,2130;0,0578871
1343,1772;0,0572585
1344,1415;0,0567993
1345,1057;0,0565004
1346,0699;0,0563402
1347,0342;0,0562951
1347,9984;0,0563475
1348,9626;0,0564898
1349,9269;0,0567226
1350,8911;0,0570473
1351,8553;0,05746
1352,8196;0,0579499
1353,7838;0,0585017
1354,7480;0,0590991
1355,7123;0,0597302
1356,6765;0,0603918
1357,6407;0,0610925
1358,6050;0,0618511
1359,5692;0,0626851
1360,5334;0,0635809
1361,4977;0,064467
1362,4619;0,0652406
1363,4261;0,0658486
1364,3904;0,0663273
1365,3546;0,0667528
1366,3188;0,0671752
1367,2831;0,0675983
1368,2473;0,0679926
1369,2115;0,0683198
1370,1758;0,0685539
1371,1400;0,0686866
1372,1042;0,0687123
1373,0685;0,0686069
1374,0327;0,0683301
1374,9969;0,0678596
1375,9612;0,0672148
1376,9254;0,0664314
1377,8896;0,0655233
1378,8539;0,0644877
1379,8181;0,0633419
1380,7823;0,0621465
1381,7466;0,0609851
1382,7108;0,0599164
1383,6750;0,058945
1384,6393;0,0580301
1385,6035;0,0571188
1386,5677;0,0561856
1387,5320;0,0552696
1388,4962;0,0544621
1389,4604;0,0538278
1390,4247;0,0533589
1391,3889;0,0530154
1392,3531;0,0527844
1393,3174;0,0526841
1394,2816;0,0527169
1395,2458;0,0528266
1396,2101;0,0529162
1397,1743;0,0529156
1398,1385;0,0528298
1399,1028;0,0527288
1400,0670;0,0526956
1401,0313;0,0527775
1401,9955;0,0529742
1402,9597;0,0532557
1403,9240;0,053588
1404,8882;0,053949
1405,8524;0,0543375
1406,8167;0,0547684
1407,7809;0,0552561
1408,7451;0,055804
1409,7094;0,0564111
1410,6736;0,0570789
1411,6378;0,057803
1412,6021;0,0585609
1413,5663;0,0593116
1414,5305;0,0600152
1415,4948;0,060658
1416,4590;0,0612511
1417,4232;0,0617871
1418,3875;0,0622181
1419,3517;0,0625294
1420,3159;0,0627838
1421,2802;0,0630162
1422,2444;0,0631582
1423,2086;0,0631028
1424,1729;0,0627973
1425,1371;0,0622728
1426,1013;0,0616067
1427,0656;0,0608659
1428,0298;0,0600792
1428,9940;0,0592537
1429,9583;0,0584059
1430,9225;0,0575641
1431,8867;0,0567302
1432,8510;0,0558547
1433,8152;0,054871
1434,7794;0,0537556
1435,7437;0,0525765
1436,7079;0,0515143
1437,6721;0,0507925
1438,6364;0,0505002
1439,6006;0,0505193
1440,5648;0,0506555
1441,5291;0,0507885
1442,4933;0,05091
1443,4575;0,0510762
1444,4218;0,0513391
1445,3860;0,0517073
1446,3502;0,0521516
1447,3145;0,0526383
1448,2787;0,053157
1449,2429;0,0537147
1450,2072;0,054293
1451,1714;0,0548158
1452,1356;0,0551761
1453,0999;0,0553133
1454,0641;0,0552835
1455,0283;0,0552496
1455,9926;0,0553037
1456,9568;0,0552899
1457,9210;0,055132
1458,8853;0,0550974
1459,8495;0,0552921
1460,8137;0,0554985
1461,7780;0,0554661
1462,7422;0,0550658
1463,7064;0,0542798
1464,6707;0,0531855
1465,6349;0,0519687
1466,5991;0,0508278
1467,5634;0,0498071
1468,5276;0,0487984
1469,4918;0,0476789
1470,4561;0,0463871
1471,4203;0,0448777
1472,3845;0,043069
1473,3488;0,0409758
1474,3130;0,0388663
1475,2772;0,0370508
1476,2415;0,0356173
1477,2057;0,034482
1478,1699;0,0335368
1479,1342;0,0327097
1480,0984;0,0319649
1481,0626;0,0312979
1482,0269;0,0307332
1482,9911;0,0303112
1483,9553;0,0300654
1484,9196;0,0300129
1485,8838;0,0301636
1486,8480;0,0305085
1487,8123;0,0309546
1488,7765;0,0312991
1489,7407;0,03141
1490,7050;0,0314064
1491,6692;0,0314866
1492,6334;0,0317156
1493,5977;0,0320736
1494,5619;0,0325796
1495,5261;0,0333116
1496,4904;0,0343138
1497,4546;0,0355054
1498,4188;0,0367405
1499,3831;0,0379156
1500,3473;0,0389342
1501,3115;0,0396649
1502,2758;0,0400136
1503,2400;0,0400392
1504,2042;0,0400393
1505,1685;0,0404805
1506,1327;0,0415031
1507,0969;0,0423455
1508,0612;0,0422899
1509,0254;0,0417201
1509,9896;0,0411322
1510,9539;0,0405887
1511,9181;0,0400213
1512,8823;0,0394195
1513,8466;0,0388154
1514,8108;0,0382117
1515,7750;0,0375514
1516,7393;0,0367627
1517,7035;0,0358287
1518,6677;0,03481
1519,6320;0,0338118
1520,5962;0,032938
1521,5604;0,0322622
1522,5247;0,0318086
1523,4889;0,0315346
1524,4531;0,0313493
1525,4174;0,0311744
1526,3816;0,0309925
1527,3458;0,0308345
1528,3101;0,0307299
1529,2743;0,0306855
1530,2385;0,0307219
1531,2028;0,0309081
1532,1670;0,0313198
1533,1312;0,0319375
1534,0955;0,0326096
1535,0597;0,0331448
1536,0239;0,0334275
1536,9882;0,0335033
1537,9524;0,0336375
1538,9166;0,0342316
1539,8809;0,0353533
1540,8451;0,0362633
1541,8093;0,0362983
1542,7736;0,0357903
1543,7378;0,0352315
1544,7020;0,0347705
1545,6663;0,0344226
1546,6305;0,0341991
1547,5947;0,0340906
1548,5590;0,034049
1549,5232;0,0340166
1550,4874;0,0339686
1551,4517;0,0339233
1552,4159;0,0339014
1553,3801;0,0338716
1554,3444;0,0337523
1555,3086;0,0334847
1556,2728;0,0330998
1557,2371;0,0326386
1558,2013;0,0319895
1559,1655;0,0312972
1560,1298;0,0312754
1561,0940;0,032137
1562,0582;0,0333926
1563,0225;0,0345471
1563,9867;0,0353743
1564,9509;0,0358665
1565,9152;0,03614
1566,8794;0,0363593
1567,8436;0,036667
1568,8079;0,0371256
1569,7721;0,0377088
1570,7363;0,0383379
1571,7006;0,0389186
1572,6648;0,0393923
1573,6290;0,0397964
1574,5933;0,0402576
1575,5575;0,0408702
1576,5217;0,0415832
1577,4860;0,0422966
1578,4502;0,0429813
1579,4144;0,0436194
1580,3787;0,0441772
1581,3429;0,0446583
1582,3071;0,0451188
1583,2714;0,0456301
1584,2356;0,0462364
1585,1998;0,0469429
1586,1641;0,0477276
1587,1283;0,048556
1588,0925;0,0493871
1589,0568;0,050176
1590,0210;0,050879
1590,9852;0,0514605
1591,9495;0,0518919
1592,9137;0,0521471
1593,8779;0,0522054
1594,8422;0,0520676
1595,8064;0,0517715
1596,7706;0,0513873
1597,7349;0,0509911
1598,6991;0,0506373
1599,6633;0,050346
1600,6276;0,0501088
1601,5918;0,0499066
1602,5560;0,0497279
1603,5203;0,0495764
1604,4845;0,0494595
1605,4487;0,0493719
1606,4130;0,0492931
1607,3772;0,0492023
1608,3414;0,0491004
1609,3057;0,0490159
1610,2699;0,0489779
1611,2341;0,0489753
1612,1984;0,0489556
1613,1626;0,0488818
1614,1268;0,0487893
1615,0911;0,0487764
1616,0553;0,0489278
1617,0195;0,0492676
1617,9838;0,0497725
1618,9480;0,0503574
1619,9122;0,0508961
1620,8765;0,0513048
1621,8407;0,0515821
1622,8049;0,0517726
1623,7692;0,051919
1624,7334;0,052052
1625,6976;0,0521945
1626,6619;0,0523597
1627,6261;0,0525515
1628,5903;0,0527594
1629,5546;0,0529405
1630,5188;0,0530205
1631,4830;0,0529389
1632,4473;0,0527226
1633,4115;0,052523
1634,3757;0,052523
1635,3400;0,0527193
1636,3042;0,0529229
1637,2684;0,0530787
1638,2327;0,0532642
1639,1969;0,0534639
1640,1611;0,0535838
1641,1254;0,0535512
1642,0896;0,0533587
1643,0538;0,0530799
1644,0181;0,0528665
1644,9823;0,0528665
1645,9465;0,0530542
1646,9108;0,0532015
1647,8750;0,0531058
1648,8392;0,0526833
1649,8035;0,051898
1650,7677;0,050806
1651,7319;0,0496021
1652,6962;0,0484923
1653,6604;0,0476604
1654,6246;0,0474161
1655,5889;0,0477639
1656,5531;0,0482615
1657,5173;0,0484969
1658,4816;0,0483187
1659,4458;0,0477859
1660,4100;0,0470493
1661,3743;0,0462506
1662,3385;0,0454925
1663,3027;0,0448541
1664,2670;0,0443614
1665,2312;0,0439572
1666,1954;0,0435502
1667,1597;0,0430779
1668,1239;0,042509
1669,0881;0,0418202
1670,0524;0,0410247
1671,0166;0,0401872
1671,9808;0,0393372
1672,9451;0,0384275
1673,9093;0,0374331
1674,8735;0,0364568
1675,8378;0,0357115
1676,8020;0,0353575
1677,7662;0,0353388
1678,7305;0,0354085
1679,6947;0,0352952
1680,6589;0,0348357
1681,6232;0,0339967
1682,5874;0,0328207
1683,5516;0,0314396
1684,5159;0,0302196
1685,4801;0,0295709
1686,4443;0,0294841
1687,4086;0,0296049
1688,3728;0,0296026
1689,3370;0,0293324
1690,3013;0,0288125
1691,2655;0,0281482
1692,2297;0,0274707
1693,1940;0,0269051
1694,1582;0,0265442
1695,1224;0,0263972
1696,0867;0,0263381
1697,0509;0,0261358
1698,0151;0,0256223
1698,9794;0,024896
1699,9436;0,0243208
1700,9078;0,024237
1701,8721;0,0246811
1702,8363;0,025411
1703,8005;0,0261239
1704,7648;0,0266282
1705,7290;0,0269009
1706,6932;0,0270589
1707,6575;0,0272675
1708,6217;0,0276296
1709,5859;0,0281408
1710,5502;0,0287323
1711,5144;0,0293358
1712,4786;0,0299191
1713,4429;0,030488
1714,4071;0,0310569
1715,3713;0,0315797
1716,3356;0,0319143
1717,2998;0,0320005
1718,2640;0,0320699
1719,2283;0,0324067
1720,1925;0,0330312
1721,1567;0,0337709
1722,1210;0,0344564
1723,0852;0,0350095
1724,0494;0,0354451
1725,0137;0,035841
1725,9779;0,0362879
1726,9421;0,0368313
1727,9064;0,0374346
1728,8706;0,0379914
1729,8348;0,0383759
1730,7991;0,0384996
1731,7633;0,0383374
1732,7275;0,0379386
1733,6918;0,03746
1734,6560;0,0371368
1735,6202;0,0370747
1736,5845;0,0371319
1737,5487;0,0370722
1738,5129;0,0367525
1739,4772;0,0361839
1740,4414;0,0354891
1741,4056;0,0348083
1742,3699;0,034207
1743,3341;0,0336527
1744,2983;0,0330657
1745,2626;0,0323796
1746,2268;0,0315501
1747,1910;0,0305162
1748,1553;0,0291759
1749,1195;0,0274662
1750,0837;0,0255205
1751,0480;0,0236672
1752,0122;0,0221791
1752,9764;0,0210868
1753,9407;0,020242
1754,9049;0,019475
1755,8691;0,0186901
1756,8334;0,0178756
1757,7976;0,0170587
1758,7618;0,0162508
1759,7261;0,0154303
1760,6903;0,0145771
1761,6545;0,013721
1762,6188;0,0129463
1763,5830;0,012331
1764,5472;0,0118856
1765,5115;0,0115549
1766,4757;0,0112689
1767,4399;0,0109845
1768,4042;0,0106902
1769,3684;0,010382
1770,3326;0,0100356
1771,2969;0,009617
1772,2611;0,00914755
1773,2253;0,0087419
1774,1896;0,00851662
1775,1538;0,00847385
1776,1180;0,00851366
1777,0823;0,00852726
1778,0465;0,00845921
1779,0107;0,00830976
1779,9750;0,00810558
1780,9392;0,00787239
1781,9034;0,00762629
1782,8677;0,00738352
1783,8319;0,00717484
1784,7961;0,00704346
1785,7604;0,00701871
1786,7246;0,00708788
1787,6888;0,00719917
1788,6531;0,00729748
1789,6173;0,00735706
1790,5815;0,00737761
1791,5458;0,00735933
1792,5100;0,00731384
1793,4742;0,00729004
1794,4385;0,00732582
1795,4027;0,00738896
1796,3669;0,00740933
1797,3312;0,00734656
1798,2954;0,00721341
1799,2596;0,00705028
1800,2239;0,00688849
1801,1881;0,00673846
1802,1523;0,00660324
1803,1166;0,00649129
1804,0808;0,00641716
1805,0450;0,00639583
1806,0093;0,00643444
1806,9735;0,00652289
1807,9377;0,00662734
1808,9020;0,00669463
1809,8662;0,00667486
1810,8304;0,00655424
1811,7947;0,00636804
1812,7589;0,00617412
1813,7231;0,00601389
1814,6874;0,00589845
1815,6516;0,00582052
1816,6158;0,00577071
1817,5801;0,00574646
1818,5443;0,0057531
1819,5085;0,00579731
1820,4728;0,00587763
1821,4370;0,00598135
1822,4012;0,00608842
1823,3655;0,00617763
1824,3297;0,00623555
1825,2939;0,00626454
1826,2582;0,00627756
1827,2224;0,00627917
1828,1866;0,00625186
1829,1509;0,00616627
1830,1151;0,00601808
1831,0793;0,00585365
1832,0436;0,00573672
1833,0078;0,00569155
1833,9720;0,00569514
1834,9363;0,0057124
1835,9005;0,00572303
1836,8647;0,00572449
1837,8290;0,00572124
1838,7932;0,00571243
1839,7574;0,00568927
1840,7217;0,00565052
1841,6859;0,0056182
1842,6501;0,00562367
1843,6144;0,0056709
1844,5786;0,00573034
1845,5428;0,00577541
1846,5071;0,00579494
1847,4713;0,00577308
1848,4355;0,00569275
1849,3998;0,00555797
1850,3640;0,00539878
1851,3282;0,00525343
1852,2925;0,00514616
1853,2567;0,00508105
1854,2209;0,00505234
1855,1852;0,00505704
1856,1494;0,0050958
1857,1136;0,0051646
1858,0779;0,00524574
1859,0421;0,00531244
1860,0063;0,00534575
1860,9706;0,0053499
1861,9348;0,00535121
1862,8990;0,00538102
1863,8633;0,00545837
1864,8275;0,00558555
1865,7917;0,00574865
1866,7560;0,00590857
1867,7202;0,00599599
1868,6844;0,00594899
1869,6487;0,00577448
1870,6129;0,00554204
1871,5771;0,00531349
1872,5414;0,00511009
1873,5056;0,00493659
1874,4698;0,00480682
1875,4341;0,00473914
1876,3983;0,00473745
1877,3625;0,00478098
1878,3268;0,00483734
1879,2910;0,00488387
1880,2552;0,00492073
1881,2195;0,00496558
1882,1837;0,0050353
1883,1479;0,00512932
1884,1122;0,00522696
1885,0764;0,00529986
1886,0406;0,00532906
1887,0049;0,00531441
1887,9691;0,00527199
1888,9333;0,00522465
1889,8976;0,00519275
1890,8618;0,00518661
1891,8260;0,00520123
1892,7903;0,00521842
1893,7545;0,00521741
1894,7188;0,00518705
1895,6830;0,00513265
1896,6472;0,00507381
1897,6115;0,00503276
1898,5757;0,00501972
1899,5399;0,00502703
1900,5042;0,00503697
1901,4684;0,0050367
1902,4326;0,00503013
1903,3969;0,00503781
1904,3611;0,00508333
1905,3253;0,00517456
1906,2896;0,00529253
1907,2538;0,00539528
1908,2180;0,00543618
1909,1823;0,00538999
1910,1465;0,00527108
1911,1107;0,00512667
1912,0750;0,00500799
1913,0392;0,00494557
1914,0034;0,00494763
1914,9677;0,00501259
1915,9319;0,00513663
1916,8961;0,00531057
1917,8604;0,00551481
1918,8246;0,00571889
1919,7888;0,00588286
1920,7531;0,00596165
1921,7173;0,00591894
1922,6815;0,00574906
1923,6458;0,00549322
1924,6100;0,00523153
1925,5742;0,00504628
1926,5385;0,00497972
1927,5027;0,00501714
1928,4669;0,00510112
1929,4312;0,00516178
1930,3954;0,00515
1931,3596;0,00506043
1932,3239;0,004929
1933,2881;0,00480798
1934,2523;0,00473538
1935,2166;0,0047181
1936,1808;0,00473711
1937,1450;0,00476818
1938,1093;0,0048015
1939,0735;0,00484645
1940,0377;0,00491848
1941,0020;0,00501723
1941,9662;0,00511569
1942,9304;0,00517635
1943,8947;0,00518281
1944,8589;0,00515222
1945,8231;0,00511669
1946,7874;0,00509715
1947,7516;0,00509299
1948,7158;0,00509046
1949,6801;0,00507963
1950,6443;0,00506562
1951,6085;0,0050636
1952,5728;0,00508063
1953,5370;0,00510017
1954,5012;0,00508489
1955,4655;0,00499802
1956,4297;0,00482823
1957,3939;0,00459958
1958,3582;0,00436109
1959,3224;0,00416569
1960,2866;0,00405378
1961,2509;0,0040487
1962,2151;0,0041591
1963,1793;0,00437764
1964,1436;0,00467174
1965,1078;0,00497502
1966,0720;0,00519558
1967,0363;0,0052508
1968,0005;0,00511217
1968,9647;0,00482364
1969,9290;0,00447637
1970,8932;0,00416535
1971,8574;0,0039629
1972,8217;0,00391671
1973,7859;0,00405362
1974,7501;0,00436753
1975,7144;0,0047967
1976,6786;0,00521383
1977,6428;0,00546399
1978,6071;0,00544462
1979,5713;0,00517158
1980,5355;0,00477644
1981,4998;0,00443821
1982,4640;0,00429778
1983,4282;0,00439942
1984,3925;0,00468107
1985,3567;0,00501461
1986,3209;0,0052762
1987,2852;0,00540783
1988,2494;0,00543564
1989,2136;0,00543858
1990,1779;0,00549069
1991,1421;0,00561227
1992,1063;0,00575974
1993,0706;0,00585915
1994,0348;0,00585638
1994,9990;0,00574748
1995,9633;0,00557599
1996,9275;0,00540852
1997,8917;0,00530552
1998,8560;0,00529973
1999,8202;0,00539035
2000,7844;0,00555371
2001,7487;0,00576147
2002,7129;0,0059933
2003,6771;0,00623656
2004,6414;0,00647639
2005,6056;0,0066853
2006,5698;0,00682433
2007,5341;0,0068575
2008,4983;0,00677264
2009,4625;0,0065947
2010,4268;0,00638176
2011,3910;0,00620639
2012,3552;0,00613117
2013,3195;0,00618788
2014,2837;0,00636676
2015,2479;0,00661984
2016,2122;0,00687994
2017,1764;0,00708936
2018,1406;0,00722189
2019,1049;0,00728326
2020,0691;0,00729136
2021,0333;0,00725469
2021,9976;0,00716624
2022,9618;0,00701586
2023,9260;0,00680934
2024,8903;0,00657708
2025,8545;0,00636319
2026,8187;0,00620144
2027,7830;0,0060966
2028,7472;0,00602651
2029,7114;0,00596433
2030,6757;0,00590517
2031,6399;0,00587754
2032,6041;0,00592988
2033,5684;0,00610136
2034,5326;0,00639543
2035,4968;0,00677347
2036,4611;0,00716847
2037,4253;0,00750974
2038,3895;0,00774066
2039,3538;0,0078272
2040,3180;0,00776103
2041,2822;0,00756101
2042,2465;0,00727181
2043,2107;0,00695575
2044,1749;0,00667849
2045,1392;0,00649264
2046,1034;0,00642415
2047,0676;0,00646566
2048,0320;0,00658159
2048,9961;0,00672562
2049,9604;0,00686066
2050,9246;0,00696827
2051,8889;0,00704419
2052,8530;0,00708796
2053,8174;0,007097
2054,7815;0,00706821
2055,7458;0,00700663
2056,7100;0,00693044
2057,6743;0,00686675
2058,6384;0,0068387
2059,6028;0,00685235
2060,5669;0,00689323
2061,5313;0,00693568
2062,4954;0,00695953
2063,4597;0,00696321
2064,4238;0,00696402
2065,3882;0,00698441
2066,3523;0,00703319
2067,3167;0,00709481
2068,2808;0,00713427
2069,2451;0,00711534
2070,2092;0,00702172
2071,1736;0,00686997
2072,1377;0,00670528
2073,1021;0,00658216
2074,0662;0,00653663
2075,0305;0,00656585
2075,9946;0,00662727
2076,9590;0,00666048
2077,9231;0,00662069
2078,8875;0,00650556
2079,8516;0,00635878
2080,8159;0,00624733
2081,7800;0,00622582
2082,7444;0,00630905
2083,7085;0,00646868
2084,6729;0,00665273
2085,6370;0,00681395
2086,6013;0,00692699
2087,5654;0,00698751
2088,5298;0,00699973
2089,4939;0,00696701
2090,4583;0,00689415
2091,4224;0,00679682
2092,3867;0,00670536
2093,3508;0,00665414
2094,3152;0,0066614
2095,2793;0,00671526
2096,2437;0,00678036
2097,2078;0,00682241
2098,1721;0,00683179
2099,1362;0,00682591
2100,1006;0,00683188
2101,0647;0,00685604
2102,0291;0,00688867
2102,9932;0,00690787
2103,9575;0,00690124
2104,9216;0,00687488
2105,8860;0,00684563
2106,8501;0,00682626
2107,8145;0,00681882
2108,7786;0,0068213
2109,7429;0,00683798
2110,7070;0,00687961
2111,6714;0,00695009
2112,6355;0,00703211
2113,5999;0,00708814
2114,5640;0,00708134
2115,5283;0,00700266
2116,4924;0,00688276
2117,4568;0,0067778
2118,4209;0,00673739
2119,3853;0,00677642
2120,3494;0,00686927
2121,3137;0,00696907
2122,2778;0,00703678
2123,2422;0,00706024
2124,2063;0,00705248
2125,1707;0,00703492
2126,1348;0,0070206
2127,0991;0,00700955
2128,0632;0,00699741
2129,0276;0,00698827
2129,9917;0,00700068
2130,9561;0,00706159
2131,9202;0,00719118
2132,8845;0,0073872
2133,8486;0,00761798
2134,8130;0,00782967
2135,7771;0,00796513
2136,7415;0,00798405
2137,7056;0,00787404
2138,6699;0,00765075
2139,6340;0,00735374
2140,5984;0,00704429
2141,5625;0,00680215
2142,5269;0,00671185
2143,4910;0,00683325
2144,4553;0,00716569
2145,4194;0,00762897
2146,3838;0,00808287
2147,3479;0,00838528
2148,3123;0,00845946
2149,2764;0,00832841
2150,2407;0,00809329
2151,2048;0,00786998
2152,1692;0,0077258
2153,1333;0,00765674
2154,0977;0,00761598
2155,0618;0,00757067
2156,0261;0,00754751
2156,9902;0,00763188
2157,9546;0,00790738
2158,9187;0,00836856
2159,8831;0,00888487
2160,8472;0,00926395
2161,8115;0,00936249
2162,7756;0,00915721
2163,7400;0,00874543
2164,7041;0,00829368
2165,6685;0,00795927
2166,6326;0,00781599
2167,5969;0,00782234
2168,5610;0,00785513
2169,5254;0,00779014
2170,4895;0,00758071
2171,4539;0,00728828
2172,4180;0,00704737
2173,3823;0,00698471
2174,3464;0,00713903
2175,3108;0,00743194
2176,2749;0,00771014
2177,2393;0,00783162
2178,2034;0,00774108
2179,1677;0,00749394
2180,1318;0,00722344
2181,0962;0,00707263
2182,0603;0,00712341
2183,0247;0,00735589
2183,9888;0,00765845
2184,9531;0,00788272
2185,9172;0,00791342
2186,8816;0,00771847
2187,8457;0,00735903
2188,8101;0,00695858
2189,7742;0,00664787
2190,7385;0,00651232
2191,7026;0,0065653
2192,6670;0,00675468
2193,6311;0,00699297
2194,5955;0,00719326
2195,5596;0,00729688
2196,5239;0,00728603
2197,4880;0,00718144
2198,4524;0,00702783
2199,4165;0,00687242
2200,3809;0,00674462
2201,3450;0,00664739
2202,3093;0,0065663
2203,2734;0,00649153
2204,2378;0,00643682
2205,2019;0,00643888
2206,1663;0,00653337
2207,1304;0,00672185
2208,0947;0,00695431
2209,0588;0,00714346
2210,0232;0,00720608
2210,9873;0,00710685
2211,9517;0,00687699
2212,9158;0,00659615
2213,8801;0,00635052
2214,8442;0,00619449
2215,8086;0,00613771
2216,7727;0,0061595
2217,7371;0,00623375
2218,7012;0,00634372
2219,6655;0,00647899
2220,6296;0,00662322
2221,5940;0,00674871
2222,5581;0,00682562
2223,5225;0,006839
2224,4866;0,00679862
2225,4509;0,00673211
2226,4150;0,00666584
2227,3794;0,00660792
2228,3435;0,00655078
2229,3079;0,00648444
2230,2720;0,00641239
2231,2363;0,00635406
2232,2004;0,00633113
2233,1648;0,00634885
2234,1289;0,00638836
2235,0933;0,00641756
2236,0574;0,00641343
2237,0217;0,00638004
2237,9858;0,00634927
2238,9502;0,00636305
2239,9143;0,00644829
2240,8787;0,00659861
2241,8428;0,00677305
2242,8071;0,00691236
2243,7712;0,00696515
2244,7356;0,00691162
2245,6997;0,00677392
2246,6641;0,00660749
2247,6282;0,00647692
2248,5925;0,00642762
2249,5566;0,00646759
2250,5210;0,00656811
2251,4851;0,00668166
2252,4495;0,00676606
2253,4136;0,00680148
2254,3779;0,00679284
2255,3420;0,00675946
2256,3064;0,00672111
2257,2705;0,00668901
2258,2349;0,00666523
2259,1990;0,00664729
2260,1633;0,00663343
2261,1274;0,0066257
2262,0918;0,00663045
2263,0559;0,0066565
2264,0203;0,00671096
2264,9844;0,00679361
2265,9487;0,00689287
2266,9128;0,00698714
2267,8772;0,007053
2268,8413;0,00707655
2269,8057;0,00706084
2270,7698;0,00702387
2271,7341;0,00698779
2272,6982;0,00696602
2273,6626;0,00695671
2274,6267;0,00694697
2275,5911;0,00692421
2276,5552;0,00688634
2277,5195;0,00684357
2278,4836;0,00681138
2279,4480;0,0068007
2280,4121;0,0068133
2281,3765;0,00684554
2282,3406;0,00689667
2283,3049;0,00697419
2284,2690;0,0070912
2285,2334;0,00725724
2286,1975;0,00746946
2287,1619;0,00771118
2288,1260;0,00795969
2289,0903;0,00819805
2290,0544;0,0084226
2291,0188;0,00864102
2291,9829;0,00886344
2292,9473;0,00909347
2293,9114;0,00932554
2294,8757;0,00954876
2295,8398;0,00975289
2296,8042;0,00993043
2297,7683;0,0100743
2298,7327;0,010175
2299,6968;0,010223
2300,6611;0,0102167
2301,6252;0,0101722
2302,5896;0,0101249
2303,5537;0,0101202
2304,5181;0,0101946
2305,4822;0,0103558
2306,4465;0,010571
2307,4106;0,0107718
2308,3750;0,0108753
2309,3391;0,0108134
2310,3035;0,0105594
2311,2676;0,0101402
2312,2319;0,00962856
2313,1960;0,00911664
2314,1604;0,00868175
2315,1245;0,00836204
2316,0889;0,00815373
2317,0530;0,00802783
2318,0173;0,00795339
2318,9814;0,00791439
2319,9458;0,00791439
2320,9099;0,0079714
2321,8743;0,00810514
2322,8384;0,0083166
2323,8027;0,00856626
2324,7668;0,00877088
2325,7312;0,00883257
2326,6953;0,00868624
2327,6597;0,00833534
2328,6238;0,00785564
2329,5881;0,0073681
2330,5522;0,00699504
2331,5166;0,00681581
2332,4807;0,00683766
2333,4451;0,00699831
2334,4092;0,00720419
2335,3735;0,00738402
2336,3376;0,00752672
2337,3020;0,00768434
2338,2661;0,00793827
2339,2305;0,00834044
2340,1946;0,00885107
2341,1589;0,00930624
2342,1230;0,00946679
2343,0874;0,00921321
2344,0515;0,00880236
2345,0159;0,00879842
2345,9800;0,00955146
2346,9443;0,0108374
2347,9084;0,0120603
2348,8728;0,0126802
2349,8369;0,0124885
2350,8013;0,0116636
2351,7654;0,010646
2352,7297;0,00988773
2353,6938;0,0096038
2354,6582;0,00972913
2355,6223;0,0100879
2356,5867;0,010526
2357,5508;0,0108955
2358,5151;0,0110399
2359,4792;0,0108736
2360,4436;0,0104527
2361,4077;0,00991494
2362,3721;0,00934635
2363,3362;0,00872988
2364,3005;0,00801367
2365,2646;0,00720039
2366,2290;0,00636177
2367,1931;0,00558377
2368,1575;0,00491511
2369,1216;0,00436356
2370,0859;0,00392391
2371,0500;0,00360153
2372,0144;0,00341628
2372,9785;0,00339433
2373,9429;0,00355838
2374,9070;0,00391914
2375,8713;0,00446642
2376,8354;0,00516148
2377,7998;0,0059356
2378,7639;0,00669895
2379,7283;0,00735856
2380,6924;0,0078398
2381,6567;0,00810323
2382,6208;0,00815114
2383,5852;0,00802197
2384,5493;0,00777563
2385,5137;0,00747548
2386,4778;0,00717363
2387,4421;0,00690389
2388,4063;0,00668304
2389,3706;0,0065167
2390,3347;0,00640483
2391,2991;0,00634394
2392,2632;0,00632641
2393,2275;0,00633986
2394,1917;0,00636917
2395,1560;0,00640083
2396,1201;0,00642714
2397,0845;0,00644741
2398,0486;0,00646728
2399,0129;0,00648958
2399,9771;0,00651243
2400,9414;0,00653158
2401,9055;0,00654318
2402,8699;0,00655036
2403,8340;0,00656341
2404,7983;0,00659485
2405,7625;0,00665069
2406,7268;0,00672304
2407,6909;0,00679188
2408,6553;0,00683407
2409,6194;0,00683437
2410,5837;0,00679506
2411,5479;0,00673494
2412,5122;0,00668058
2413,4763;0,00665418
2414,4407;0,00666499
2415,4048;0,00670721
2416,3691;0,00676498
2417,3333;0,00682065
2418,2976;0,00686241
2419,2617;0,00688869
2420,2261;0,00690765
2421,1902;0,00693168
2422,1545;0,00697171
2423,1187;0,0070301
2424,0830;0,0070981
2425,0471;0,00715868
2426,0115;0,00719442
2426,9756;0,00719649
2427,9399;0,00717006
2428,9041;0,00713266
2429,8684;0,00710635
2430,8325;0,00710772
2431,7969;0,00714107
2432,7610;0,00719792
2433,7253;0,0072625
2434,6895;0,00731969
2435,6538;0,00736119
2436,6179;0,00738721
2437,5823;0,00740378
2438,5464;0,00741813
2439,5107;0,00743524
2440,4749;0,00745724
2441,4392;0,0074852
2442,4033;0,00752086
2443,3677;0,00756607
2444,3318;0,00761986
2445,2961;0,00767528
2446,2603;0,00771954
2447,2246;0,00773879
2448,1887;0,0077258
2449,1531;0,00768591
2450,1172;0,00763698
2451,0815;0,00760233
2452,0457;0,00760006
2453,0100;0,00763474
2453,9741;0,0076961
2454,9385;0,00776519
2455,9026;0,00782418
2456,8669;0,00786409
2457,8311;0,0078865
2458,7954;0,00789911
2459,7595;0,00790904
2460,7239;0,00791803
2461,6880;0,00792263
2462,6523;0,00791833
2463,6165;0,00790465
2464,5808;0,00788754
2465,5449;0,00787765
2466,5093;0,00788533
2467,4734;0,00791517
2468,4377;0,00796277
2469,4019;0,00801569
2470,3662;0,00805841
2471,3303;0,00807957
2472,2947;0,00807829
2473,2588;0,00806592
2474,2231;0,00806131
2475,1873;0,00808133
2476,1516;0,00813145
2477,1157;0,0082023
2478,0801;0,00827469
2479,0442;0,00833022
2480,0085;0,00836056
2480,9727;0,00836965
2481,9370;0,00836817
2482,9011;0,0083656
2483,8655;0,00836594
2484,8296;0,00836965
2485,7939;0,00837827
2486,7581;0,00839624
2487,7224;0,00842753
2488,6865;0,00846995
2489,6509;0,00851326
2490,6150;0,00854396
2491,5793;0,008554
2492,5435;0,00854665
2493,5078;0,00853489
2494,4719;0,00853314
2495,4363;0,00854862
2496,4004;0,00857827
2497,3647;0,00861274
2498,3289;0,00864347
2499,2932;0,00866738
2500,2573;0,00868645
2501,2217;0,00870387
2502,1858;0,00872068
2503,1501;0,00873543
2504,1143;0,00874641
2505,0786;0,00875385
2506,0427;0,00876023
2507,0071;0,00876857
2507,9712;0,00878055
2508,9355;0,0087958
2509,8997;0,00881264
2510,8640;0,00882928
2511,8281;0,00884437
2512,7925;0,00885667
2513,7566;0,00886448
2514,7209;0,00886553
2515,6851;0,00885759
2516,6494;0,00883955
2517,6135;0,00881251
2518,5779;0,0087804
2519,5420;0,00874982
2520,5063;0,00872901
2521,4705;0,00872567
2522,4348;0,00874419
2523,3989;0,00878308
2524,3633;0,00883417
2525,3274;0,00888463
2526,2917;0,00892159
2527,2559;0,00893742
2528,2202;0,00893307
2529,1843;0,00891742
2530,1487;0,00890265
2531,1128;0,0088982
2532,0771;0,00890655
2533,0413;0,00892303
2534,0056;0,00893947
2534,9697;0,00894928
2535,9341;0,00895104
2536,8982;0,00894908
2537,8625;0,0089513
2538,8267;0,00896561
2539,7910;0,0089965
2540,7551;0,00904273
2541,7195;0,00909683
2542,6836;0,00914693
2543,6479;0,00918075
2544,6121;0,00919067
2545,5764;0,00917733
2546,5405;0,00914963
2547,5049;0,00912068
2548,4690;0,00910165
2549,4333;0,00909704
2550,3975;0,00910383
2551,3618;0,00911444
2552,3259;0,00912128
2553,2903;0,00912037
2554,2544;0,00911271
2555,2188;0,00910377
2556,1829;0,00910188
2557,1472;0,00911579
2558,1113;0,00915135
2559,0757;0,00920794
2560,0398;0,00927665
2561,0042;0,00934215
2561,9683;0,00938844
2562,9326;0,00940605
2563,8967;0,00939647
2564,8611;0,0093712
2565,8252;0,00934588
2566,7896;0,0093332
2567,7537;0,00933846
2568,7180;0,00935963
2569,6821;0,00939063
2570,6465;0,009425
2571,6106;0,00945791
2572,5750;0,0094864
2573,5391;0,00950872
2574,5034;0,00952404
2575,4675;0,00953262
2576,4319;0,00953585
2577,3960;0,00953613
2578,3604;0,00953632
2579,3245;0,0095394
2580,2888;0,00954803
2581,2529;0,00956405
2582,2173;0,00958778
2583,1814;0,00961747
2584,1458;0,00964967
2585,1099;0,00968051
2586,0742;0,00970708
2587,0383;0,0097282
2588,0027;0,00974409
2588,9668;0,00975552
2589,9312;0,00976362
2590,8953;0,00977045
2591,8596;0,00977951
2592,8237;0,0097949
2593,7881;0,00981898
2594,7522;0,00984985
2595,7166;0,00988099
2596,6807;0,00990426
2597,6450;0,00991479
2598,6091;0,00991463
2599,5735;0,00991236
2600,5376;0,00991837
2601,5020;0,00993886
2602,4661;0,00997229
2603,4304;0,0100107
2604,3945;0,0100446
2605,3589;0,0100684
2606,3230;0,0100824
2607,2874;0,0100918
2608,2515;0,0101028
2609,2158;0,0101194
2610,1799;0,0101421
2611,1443;0,0101683
2612,1084;0,0101948
2613,0728;0,010219
2614,0369;0,010241
2615,0012;0,0102637
2615,9653;0,0102916
2616,9297;0,0103287
2617,8938;0,010375
2618,8582;0,010426
2619,8223;0,0104733
2620,7866;0,0105095
2621,7507;0,0105325
2622,7151;0,0105466
2623,6792;0,0105605
2624,6436;0,010582
2625,6077;0,0106135
2626,5720;0,010651
2627,5361;0,0106882
2628,5005;0,0107205
2629,4646;0,0107487
2630,4290;0,0107777
2631,3931;0,0108131
2632,3574;0,0108568
2633,3215;0,0109055
2634,2859;0,0109524
2635,2500;0,0109906
2636,2144;0,0110171
2637,1785;0,0110344
2638,1428;0,0110488
2639,1069;0,0110679
2640,0713;0,0110962
2641,0354;0,011133
2641,9998;0,0111731
2642,9639;0,0112098
2643,9282;0,0112392
2644,8923;0,0112627
2645,8567;0,0112863
2646,8208;0,0113162
2647,7852;0,0113551
2648,7493;0,0114003
2649,7136;0,0114451
2650,6777;0,011484
2651,6421;0,0115153
2652,6062;0,0115423
2653,5706;0,0115697
2654,5347;0,0116003
2655,4990;0,0116328
2656,4631;0,0116634
2657,4275;0,0116888
2658,3916;0,011709
2659,3560;0,0117267
2660,3201;0,0117457
2661,2844;0,011768
2662,2485;0,0117929
2663,2129;0,0118183
2664,1770;0,0118432
2665,1414;0,0118688
2666,1055;0,0118976
2667,0698;0,0119318
2668,0339;0,0119707
2668,9983;0,0120111
2669,9624;0,0120485
2670,9268;0,0120804
2671,8909;0,0121071
2672,8552;0,0121318
2673,8193;0,0121583
2674,7837;0,0121886
2675,7478;0,0122218
2676,7122;0,0122557
2677,6763;0,0122878
2678,6406;0,0123182
2679,6047;0,0123482
2680,5691;0,0123801
2681,5332;0,0124145
2682,4976;0,0124504
2683,4617;0,0124862
2684,4260;0,0125213
2685,3901;0,0125574
2686,3545;0,0125973
2687,3186;0,0126428
2688,2830;0,012692
2689,2471;0,0127399
2690,2114;0,0127809
2691,1755;0,0128125
2692,1399;0,0128369
2693,1040;0,0128598
2694,0684;0,0128875
2695,0325;0,0129227
2695,9968;0,012964
2696,9609;0,0130072
2697,9253;0,013049
2698,8894;0,0130883
2699,8538;0,0131268
2700,8179;0,0131666
2701,7822;0,013209
2702,7463;0,0132536
2703,7107;0,0132993
2704,6748;0,0133446
2705,6392;0,0133884
2706,6033;0,0134292
2707,5676;0,0134653
2708,5317;0,0134949
2709,4961;0,0135181
2710,4602;0,0135372
2711,4246;0,0135567
2712,3887;0,0135819
2713,3530;0,0136167
2714,3171;0,013662
2715,2815;0,0137152
2716,2456;0,0137711
2717,2100;0,0138241
2718,1741;0,0138709
2719,1384;0,0139114
2720,1025;0,0139487
2721,0669;0,0139862
2722,0310;0,0140259
2722,9954;0,0140666
2723,9595;0,0141053
2724,9238;0,0141401
2725,8879;0,0141717
2726,8523;0,0142038
2727,8164;0,0142405
2728,7808;0,0142836
2729,7449;0,0143311
2730,7092;0,0143782
2731,6733;0,0144196
2732,6377;0,0144515
2733,6018;0,0144732
2734,5662;0,0144867
2735,5303;0,0144958
2736,4946;0,0145052
2737,4587;0,0145197
2738,4231;0,0145425
2739,3872;0,0145752
2740,3516;0,0146168
2741,3157;0,0146642
2742,2800;0,014713
2743,2441;0,0147583
2744,2085;0,014795
2745,1726;0,0148199
2746,1370;0,0148325
2747,1011;0,0148367
2748,0654;0,01484
2749,0295;0,0148512
2749,9939;0,0148764
2750,9580;0,0149157
2751,9224;0,0149641
2752,8865;0,0150143
2753,8508;0,0150605
2754,8149;0,0151011
2755,7793;0,0151376
2756,7434;0,0151727
2757,7078;0,015208
2758,6719;0,015244
2759,6362;0,0152808
2760,6003;0,015319
2761,5647;0,0153592
2762,5288;0,0154015
2763,4932;0,0154452
2764,4573;0,0154897
2765,4216;0,0155354
2766,3857;0,0155847
2767,3501;0,0156394
2768,3142;0,0156997
2769,2786;0,0157621
2770,2427;0,0158207
2771,2070;0,0158701
2772,1711;0,0159081
2773,1355;0,0159374
2774,0996;0,0159642
2775,0640;0,015996
2776,0281;0,0160384
2776,9924;0,0160934
2777,9565;0,0161596
2778,9209;0,0162334
2779,8850;0,0163115
2780,8494;0,0163912
2781,8135;0,0164705
2782,7778;0,0165473
2783,7419;0,0166186
2784,7063;0,0166815
2785,6704;0,0167348
2786,6348;0,016781
2787,5989;0,0168256
2788,5632;0,0168758
2789,5273;0,0169375
2790,4917;0,0170128
2791,4558;0,0170994
2792,4202;0,0171924
2793,3843;0,0172862
2794,3486;0,0173767
2795,3127;0,0174625
2796,2771;0,017545
2797,2412;0,0176286
2798,2056;0,0177185
2799,1697;0,0178192
2800,1340;0,0179317
2801,0981;0,0180527
2802,0625;0,0181756
2803,0266;0,0182942
2803,9910;0,0184063
2804,9551;0,0185146
2805,9194;0,0186247
2806,8835;0,018741
2807,8479;0,0188638
2808,8120;0,0189895
2809,7764;0,0191138
2810,7405;0,0192363
2811,7048;0,0193611
2812,6689;0,0194954
2813,6333;0,0196449
2814,5974;0,0198108
2815,5618;0,0199896
2816,5259;0,0201751
2817,4902;0,0203613
2818,4543;0,0205441
2819,4187;0,0207216
2820,3828;0,0208946
2821,3472;0,021066
2822,3113;0,0212419
2823,2756;0,0214304
2824,2397;0,0216397
2825,2041;0,0218751
2826,1682;0,0221374
2827,1326;0,0224225
2828,0967;0,0227246
2829,0610;0,02304
2830,0251;0,0233689
2830,9895;0,0237148
2831,9536;0,0240816
2832,9180;0,0244701
2833,8821;0,0248788
2834,8464;0,0253064
2835,8105;0,0257565
2836,7749;0,0262399
2837,7390;0,0267739
2838,7034;0,0273797
2839,6675;0,0280836
2840,6318;0,0289199
2841,5959;0,0299339
2842,5603;0,0311731
2843,5244;0,0326635
2844,4888;0,0343751
2845,4529;0,0361936
2846,4172;0,0379211
2847,3813;0,0393166
2848,3457;0,040169
2849,3098;0,0403712
2850,2742;0,0399595
2851,2383;0,0390967
2852,2026;0,0380089
2853,1667;0,0369081
2854,1311;0,0359369
2855,0952;0,0351528
2856,0596;0,0345483
2857,0237;0,0340877
2857,9880;0,0337368
2858,9521;0,0334772
2859,9165;0,0333022
2860,8806;0,0332078
2861,8450;0,0331848
2862,8091;0,0332194
2863,7734;0,0332985
2864,7375;0,0334142
2865,7019;0,0335644
2866,6660;0,0337472
2867,6304;0,0339549
2868,5945;0,0341713
2869,5588;0,0343751
2870,5229;0,034548
2871,4873;0,0346822
2872,4514;0,0347832
2873,4158;0,0348657
2874,3799;0,0349465
2875,3442;0,0350372
2876,3083;0,0351416
2877,2727;0,035258
2878,2368;0,0353828
2879,2012;0,0355135
2880,1653;0,0356492
2881,1296;0,0357905
2882,0938;0,0359381
2883,0581;0,0360939
2884,0222;0,0362604
2884,9866;0,036441
2885,9507;0,036638
2886,9150;0,0368509
2887,8792;0,0370756
2888,8435;0,0373059
2889,8076;0,037535
2890,7720;0,0377584
2891,7361;0,0379744
2892,7004;0,038183
2893,6646;0,038385
2894,6289;0,0385811
2895,5930;0,0387731
2896,5574;0,0389647
2897,5215;0,0391612
2898,4858;0,0393676
2899,4500;0,0395857
2900,4143;0,0398142
2901,3784;0,0400515
2902,3428;0,0403006
2903,3069;0,040573
2904,2712;0,040888
2905,2354;0,0412691
2906,1997;0,0417401
2907,1638;0,0423252
2908,1282;0,0430528
2909,0923;0,0439566
2910,0566;0,0450675
2911,0208;0,0463941
2911,9851;0,0478974
2912,9492;0,0494755
2913,9136;0,0509705
2914,8777;0,0522015
2915,8420;0,0530128
2916,8062;0,0533184
2917,7705;0,0531207
2918,7346;0,0524998
2919,6990;0,0515797
2920,6631;0,0504894
2921,6274;0,0493351
2922,5916;0,0481894
2923,5559;0,0470939
2924,5200;0,0460666
2925,4844;0,0451108
2926,4485;0,0442208
2927,4128;0,0433882
2928,3770;0,0426073
2929,3413;0,0418768
2930,3054;0,0411992
2931,2698;0,040575
2932,2339;0,0399994
2933,1982;0,0394615
2934,1624;0,038949
2935,1267;0,0384531
2936,0908;0,0379705
2937,0552;0,0375011
2938,0193;0,0370432
2938,9836;0,0365918
2939,9478;0,0361414
2940,9121;0,0356906
2941,8762;0,0352455
2942,8406;0,034819
2943,8047;0,0344245
2944,7690;0,0340704
2945,7332;0,0337579
2946,6975;0,0334828
2947,6616;0,0332394
2948,6260;0,0330222
2949,5901;0,0328261
2950,5544;0,032644
2951,5186;0,0324662
2952,4829;0,0322823
2953,4470;0,0320836
2954,4114;0,0318657
2955,3755;0,0316286
2956,3398;0,0313746
2957,3040;0,0311071
2958,2683;0,0308291
2959,2324;0,0305435
2960,1968;0,0302524
2961,1609;0,0299564
2962,1252;0,0296536
2963,0894;0,0293411
2964,0537;0,0290167
2965,0178;0,0286825
2965,9822;0,0283449
2966,9463;0,0280129
2967,9106;0,0276944
2968,8748;0,0273932
2969,8391;0,027108
2970,8032;0,0268354
2971,7676;0,0265721
2972,7317;0,0263172
2973,6960;0,0260712
2974,6602;0,0258346
2975,6245;0,0256059
2976,5886;0,0253816
2977,5530;0,0251582
2978,5171;0,0249342
2979,4814;0,0247123
2980,4456;0,0244992
2981,4099;0,0243034
2982,3740;0,0241323
2983,3384;0,0239892
2984,3025;0,0238715
2985,2668;0,0237725
2986,2310;0,0236834
2987,1953;0,0235977
2988,1594;0,0235131
2989,1238;0,0234319
2990,0879;0,0233588
2991,0522;0,0232977
2992,0164;0,0232499
2992,9807;0,0232131
2993,9448;0,0231838
2994,9092;0,0231586
2995,8733;0,0231365
2996,8376;0,0231188
2997,8018;0,0231082
2998,7661;0,023108
2999,7302;0,023121
3000,6946;0,0231486
3001,6587;0,0231902
3002,6230;0,0232424
3003,5872;0,0232999
3004,5515;0,0233569
3005,5156;0,0234095
3006,4800;0,0234579
3007,4441;0,0235059
3008,4084;0,0235592
3009,3726;0,0236216
3010,3369;0,0236926
3011,3010;0,0237663
3012,2654;0,0238351
3013,2295;0,0238933
3014,1938;0,0239411
3015,1580;0,0239845
3016,1223;0,0240321
3017,0864;0,0240905
3018,0508;0,0241615
3019,0149;0,0242425
3019,9792;0,0243288
3020,9434;0,0244168
3021,9077;0,0245058
3022,8718;0,024597
3023,8362;0,0246934
3024,8003;0,0247988
3025,7646;0,0249171
3026,7288;0,0250514
3027,6931;0,025201
3028,6572;0,0253593
3029,6216;0,025514
3030,5857;0,0256512
3031,5500;0,0257612
3032,5142;0,0258444
3033,4785;0,0259101
3034,4426;0,0259721
3035,4070;0,026042
3036,3711;0,0261251
3037,3354;0,0262211
3038,2996;0,0263276
3039,2639;0,0264428
3040,2280;0,0265664
3041,1924;0,0266988
3042,1565;0,0268403
3043,1208;0,0269911
3044,0850;0,0271514
3045,0493;0,0273207
3046,0134;0,0274961
3046,9778;0,0276722
3047,9419;0,0278425
3048,9063;0,0280034
3049,8704;0,0281573
3050,8347;0,028312
3051,7988;0,0284768
3052,7632;0,0286564
3053,7273;0,0288479
3054,6917;0,0290414
3055,6558;0,029225
3056,6201;0,0293918
3057,5842;0,0295439
3058,5486;0,0296912
3059,5127;0,0298468
3060,4771;0,0300198
3061,4412;0,0302104
3062,4055;0,0304096
3063,3696;0,0306032
3064,3340;0,0307777
3065,2981;0,0309275
3066,2625;0,0310567
3067,2266;0,031177
3068,1909;0,0313013
3069,1550;0,0314382
3070,1194;0,0315889
3071,0835;0,0317491
3072,0479;0,0319132
3073,0120;0,0320785
3073,9763;0,0322465
3074,9404;0,0324214
3075,9048;0,0326065
3076,8689;0,0328009
3077,8333;0,0329984
3078,7974;0,033189
3079,7617;0,0333634
3080,7258;0,0335166
3081,6902;0,0336512
3082,6543;0,0337763
3083,6187;0,0339037
3084,5828;0,0340433
3085,5471;0,0341987
3086,5112;0,0343659
3087,4756;0,0345358
3088,4397;0,0346996
3089,4041;0,0348543
3090,3682;0,0350049
3091,3325;0,035162
3092,2966;0,0353354
3093,2610;0,0355287
3094,2251;0,0357365
3095,1895;0,0359482
3096,1536;0,0361532
3097,1179;0,0363467
3098,0820;0,0365291
3099,0464;0,0367037
3100,0105;0,0368721
3100,9749;0,0370336
3101,9390;0,0371869
3102,9033;0,037334
3103,8674;0,0374808
3104,8318;0,0376351
3105,7959;0,037803
3106,7603;0,037986
3107,7244;0,0381812
3108,6887;0,0383836
3109,6528;0,0385894
3110,6172;0,0387971
3111,5813;0,0390063
3112,5457;0,0392163
3113,5098;0,0394245
3114,4741;0,0396272
3115,4382;0,0398223
3116,4026;0,0400111
3117,3667;0,0401983
3118,3311;0,0403898
3119,2952;0,0405889
3120,2595;0,0407937
3121,2236;0,0409973
3122,1880;0,0411911
3123,1521;0,0413689
3124,1165;0,0415299
3125,0806;0,0416795
3126,0449;0,0418264
3127,0090;0,0419804
3127,9734;0,042149
3128,9375;0,0423363
3129,9019;0,0425414
3130,8660;0,042759
3131,8303;0,0429806
3132,7944;0,043197
3133,7588;0,0434029
3134,7229;0,0435989
3135,6873;0,0437912
3136,6514;0,043988
3137,6157;0,0441946
3138,5798;0,0444106
3139,5442;0,0446312
3140,5083;0,0448511
3141,4727;0,0450678
3142,4368;0,0452828
3143,4011;0,0454996
3144,3652;0,0457203
3145,3296;0,0459441
3146,2937;0,0461679
3147,2581;0,0463887
3148,2222;0,0466052
3149,1865;0,0468186
3150,1506;0,0470313
3151,1150;0,0472454
3152,0791;0,0474627
3153,0435;0,0476843
3154,0076;0,0479101
3154,9719;0,0481385
3155,9360;0,0483662
3156,9004;0,0485896
3157,8645;0,0488065
3158,8289;0,0490184
3159,7930;0,0492306
3160,7573;0,0494494
3161,7214;0,0496786
3162,6858;0,0499168
3163,6499;0,0501584
3164,6143;0,0503962
3165,5784;0,0506258
3166,5427;0,0508472
3167,5068;0,0510641
3168,4712;0,0512809
3169,4353;0,051363
3170,3997;0,0515862
3171,3638;0,0518129
3172,3281;0,0520422
3173,2922;0,0522748
3174,2566;0,0525128
3175,2207;0,0527573
3176,1851;0,0530065
3177,1492;0,0532548
3178,1135;0,0534954
3179,0776;0,0537238
3180,0420;0,0539403
3181,0061;0,0541498
3181,9705;0,0543573
3182,9346;0,0545644
3183,8989;0,0547677
3184,8630;0,0549624
3185,8274;0,0551467
3186,7915;0,0553253
3187,7559;0,0555071
3188,7200;0,0556991
3189,6843;0,0559019
3190,6484;0,0561097
3191,6128;0,0563148
3192,5769;0,0565143
3193,5413;0,0567121
3194,5054;0,0569151
3195,4697;0,0571276
3196,4338;0,0573464
3197,3982;0,0575631
3198,3623;0,0577695
3199,3267;0,0579631
3200,2908;0,0581472
3201,2551;0,0583269
3202,2192;0,0585047
3203,1836;0,0586795
3204,1477;0,05885
3205,1121;0,0590188
3206,0762;0,0591931
3207,0405;0,0593809
3208,0046;0,0595859
3208,9690;0,0598028
3209,9331;0,0600203
3210,8975;0,0602262
3211,8616;0,0604137
3212,8259;0,0605842
3213,7900;0,0607445
3214,7544;0,0609028
3215,7185;0,0610648
3216,6829;0,0612328
3217,6470;0,0614068
3218,6113;0,061586
3219,5754;0,061769
3220,5398;0,0619533
3221,5039;0,0621358
3222,4683;0,0623139
3223,4324;0,0624873
3224,3967;0,0626589
3225,3608;0,0628328
3226,3252;0,0630122
3227,2893;0,0631973
3228,2537;0,0633853
3229,2178;0,0635721
3230,1821;0,0637543
3231,1462;0,0639299
3232,1106;0,0640966
3233,0747;0,0642521
3234,0391;0,0643951
3235,0032;0,0645279
3235,9675;0,0646585
3236,9316;0,0647987
3237,8960;0,0649591
3238,8601;0,0651438
3239,8245;0,0653474
3240,7886;0,0655577
3241,7529;0,065762
3242,7170;0,065953
3243,6814;0,0661302
3244,6455;0,0662976
3245,6099;0,0664593
3246,5740;0,0666178
3247,5383;0,0667738
3248,5024;0,0669297
3249,4668;0,0670906
3250,4309;0,0672629
3251,3953;0,0674501
3252,3594;0,0676492
3253,3237;0,0678517
3254,2878;0,068048
3255,2522;0,068233
3256,2163;0,0684079
3257,1807;0,0685783
3258,1448;0,0687492
3259,1091;0,0689214
3260,0732;0,0690924
3261,0376;0,0692594
3262,0017;0,0694231
3262,9661;0,0695871
3263,9302;0,0697553
3264,8945;0,0699288
3265,8586;0,0701046
3266,8230;0,070278
3267,7871;0,0704468
3268,7515;0,0706122
3269,7156;0,0707772
3270,6799;0,0709423
3271,6440;0,0711033
3272,6084;0,0712511
3273,5725;0,071377
3274,5369;0,0714763
3275,5010;0,0715514
3276,4653;0,0716087
3277,4294;0,0716544
3278,3938;0,0716913
3279,3579;0,0717193
3280,3223;0,071739
3281,2864;0,0717553
3282,2507;0,0717779
3283,2148;0,0718175
3284,1792;0,07188
3285,1433;0,0719624
3286,1077;0,0720533
3287,0718;0,0721376
3288,0361;0,0722031
3289,0002;0,0722445
3289,9646;0,0722641
3290,9287;0,0722692
3291,8931;0,0722678
3292,8572;0,072266
3293,8215;0,0722676
3294,7856;0,0722742
3295,7500;0,0722855
3296,7141;0,0722995
3297,6785;0,0723126
3298,6426;0,072321
3299,6069;0,0723223
3300,5710;0,072317
3301,5354;0,0723091
3302,4995;0,0723045
3303,4639;0,0723084
3304,4280;0,0723229
3305,3923;0,072346
3306,3564;0,0723723
3307,3208;0,0723949
3308,2849;0,0724079
3309,2493;0,072408
3310,2134;0,0723949
3311,1777;0,0723721
3312,1418;0,0723458
3313,1062;0,0723253
3314,0703;0,0723213
3315,0347;0,0723434
3315,9988;0,0723971
3316,9631;0,0724809
3317,9272;0,0725861
3318,8916;0,0727
3319,8557;0,0728107
3320,8201;0,0729118
3321,7842;0,0730033
3322,7485;0,0730901
3323,7126;0,0731773
3324,6770;0,0732669
3325,6411;0,0733561
3326,6055;0,0734384
3327,5696;0,0735072
3328,5339;0,0735592
3329,4980;0,0735968
3330,4624;0,0736265
3331,4265;0,0736574
3332,3909;0,0736954
3333,3550;0,0737395
3334,3193;0,0737793
3335,2834;0,0737973
3336,2478;0,0737762
3337,2119;0,0737075
3338,1763;0,0735964
3339,1404;0,07346
3340,1047;0,0733192
3341,0688;0,0731902
3342,0332;0,0730772
3342,9973;0,0729739
3343,9617;0,0728686
3344,9258;0,0727526
3345,8901;0,0726247
3346,8542;0,0724895
3347,8186;0,0723535
3348,7827;0,072219
3349,7471;0,0720831
3350,7112;0,0719408
3351,6755;0,0717899
3352,6396;0,0716344
3353,6040;0,0714823
3354,5681;0,0713411
3355,5325;0,0712118
3356,4966;0,071088
3357,4609;0,0709597
3358,4250;0,0708192
3359,3894;0,0706667
3360,3535;0,0705105
3361,3179;0,070362
3362,2820;0,0702285
3363,2463;0,0701083
3364,2104;0,0699899
3365,1748;0,0698573
3366,1389;0,0696977
3367,1033;0,0695076
3368,0674;0,0692945
3369,0317;0,0690728
3369,9958;0,0688564
3370,9602;0,0686529
3371,9243;0,0684615
3372,8887;0,0682764
3373,8528;0,0680921
3374,8171;0,0679076
3375,7813;0,067727
3376,7456;0,0675561
3377,7097;0,0673979
3378,6741;0,0672507
3379,6382;0,0671089
3380,6025;0,066966
3381,5667;0,0668175
3382,5310;0,066661
3383,4951;0,066496
3384,4595;0,0663232
3385,4236;0,0661457
3386,3879;0,0659701
3387,3521;0,0658048
3388,3164;0,0656573
3389,2805;0,0655291
3390,2449;0,0654144
3391,2090;0,0653019
3392,1733;0,0651796
3393,1375;0,0650401
3394,1018;0,0648819
3395,0659;0,0647071
3396,0303;0,0645186
3396,9944;0,0643193
3397,9587;0,0641137
3398,9229;0,0639084
3399,8872;0,0637096
3400,8513;0,0635189
3401,8157;0,0633309
3402,7798;0,063135
3403,7441;0,0629222
3404,7083;0,0626908
3405,6726;0,0624485
3406,6367;0,0622092
3407,6011;0,0619861
3408,5652;0,0617855
3409,5295;0,0616035
3410,4937;0,0614276
3411,4580;0,0612406
3412,4221;0,0610274
3413,3865;0,0607823
3414,3506;0,0605127
3415,3149;0,0602382
3416,2791;0,0599839
3417,2434;0,0597671
3418,2075;0,0595881
3419,1719;0,0594267
3420,1360;0,0592513
3421,1003;0,0590348
3422,0645;0,0587683
3423,0288;0,0584639
3423,9929;0,0581448
3424,9573;0,0578333
3425,9214;0,0575411
3426,8857;0,0572686
3427,8499;0,0570075
3428,8142;0,0567476
3429,7783;0,0564809
3430,7427;0,0562042
3431,7068;0,0559186
3432,6711;0,0556283
3433,6353;0,0553394
3434,5996;0,0550588
3435,5637;0,054793
3436,5281;0,0545463
3437,4922;0,0543185
3438,4565;0,054105
3439,4207;0,0538989
3440,3850;0,053694
3441,3491;0,0534888
3442,3135;0,0532854
3443,2776;0,053085
3444,2419;0,0528807
3445,2061;0,0526549
3446,1704;0,0523847
3447,1345;0,0520564
3448,0989;0,0516783
3449,0630;0,05128
3450,0273;0,0508974
3450,9915;0,0505555
3451,9558;0,0502596
3452,9199;0,0499973
3453,8843;0,0497495
3454,8484;0,0495025
3455,8127;0,0492552
3456,7769;0,0490161
3457,7412;0,0487937
3458,7053;0,0485869
3459,6697;0,0483826
3460,6338;0,0481621
3461,5981;0,0479113
3462,5623;0,0476269
3463,5266;0,0473163
3464,4907;0,0469904
3465,4551;0,0466582
3466,4192;0,0463253
3467,3835;0,0459965
3468,3477;0,0456796
3469,3120;0,0453841
3470,2761;0,0451153
3471,2405;0,0448691
3472,2046;0,0446312
3473,1689;0,0443846
3474,1331;0,0441204
3475,0974;0,0438467
3476,0615;0,0435852
3477,0259;0,0433582
3477,9900;0,0431729
3478,9543;0,0430132
3479,9185;0,0428442
3480,8828;0,0426291
3481,8469;0,0423504
3482,8113;0,0420199
3483,7754;0,0416699
3484,7397;0,0413318
3485,7039;0,0410212
3486,6682;0,0407345
3487,6323;0,0404579
3488,5967;0,0401807
3489,5608;0,0399041
3490,5251;0,0396396
3491,4893;0,0393995
3492,4536;0,0391866
3493,4177;0,0389906
3494,3821;0,0387938
3495,3462;0,0385836
3496,3105;0,0383639
3497,2747;0,0381556
3498,2390;0,0379828
3499,2031;0,0378547
3500,1675;0,0377532
3501,1316;0,037633
3502,0959;0,037442
3503,0601;0,0371546
3504,0244;0,0367942
3504,9885;0,0364185
3505,9529;0,0360804
3506,9170;0,0357995
3507,8813;0,0355572
3508,8455;0,0353107
3509,8098;0,0350201
3510,7739;0,0346741
3511,7383;0,0342962
3512,7024;0,033927
3513,6667;0,0335993
3514,6309;0,0333252
3515,5952;0,0330983
3516,5593;0,032905
3517,5237;0,0327364
3518,4878;0,032594
3519,4521;0,032484
3520,4163;0,0324068
3521,3806;0,0323482
3522,3447;0,0322809
3523,3091;0,0321762
3524,2732;0,0320164
3525,2375;0,031797
3526,2017;0,0315185
3527,1660;0,0311789
3528,1301;0,0307776
3529,0945;0,0303284
3530,0586;0,0298659
3531,0229;0,0294348
3531,9871;0,029071
3532,9514;0,0287874
3533,9155;0,0285691
3534,8799;0,0283799
3535,8440;0,0281799
3536,8083;0,0279477
3537,7725;0,0276954
3538,7368;0,0274606
3539,7009;0,0272848
3540,6653;0,0271923
3541,6294;0,0271786
3542,5938;0,0272047
3543,5579;0,027198
3544,5222;0,0270771
3545,4863;0,0268
3546,4507;0,0264007
3547,4148;0,0259668
3548,3792;0,0255767
3549,3433;0,025257
3550,3076;0,0249819
3551,2717;0,0247001
3552,2361;0,0243698
3553,2002;0,0239895
3554,1646;0,0236018
3555,1287;0,0232639
3556,0930;0,023013
3557,0571;0,0228556
3558,0215;0,0227745
3558,9856;0,0227438
3559,9500;0,0227428
3560,9141;0,0227652
3561,8784;0,022816
3562,8425;0,0228984
3563,8069;0,0229906
3564,7710;0,0230114
3565,7354;0,022811
3566,6995;0,0222738
3567,6638;0,0214798
3568,6279;0,0206733
3569,5923;0,0200423
3570,5564;0,0196126
3571,5208;0,0193173
3572,4849;0,019087
3573,4492;0,0188837
3574,4133;0,0186943
3575,3777;0,018516
3576,3418;0,0183482
3577,3062;0,0181921
3578,2703;0,0180522
3579,2346;0,0179365
3580,1987;0,0178521
3581,1631;0,0177981
3582,1272;0,0177637
3583,0916;0,0177341
3584,0557;0,017697
3585,0200;0,0176311
3585,9841;0,0174882
3586,9485;0,0172273
3587,9126;0,0169006
3588,8770;0,0166447
3589,8411;0,0165469
3590,8054;0,0165795
3591,7695;0,0166544
3592,7339;0,01669
3593,6980;0,0166387
3594,6624;0,0164956
3595,6265;0,0162958
3596,5908;0,0160844
3597,5549;0,0158739
3598,5193;0,0156355
3599,4834;0,0153327
3600,4478;0,0149639
3601,4119;0,0145747
3602,3762;0,0142234
3603,3403;0,0139339
3604,3047;0,0136827
3605,2688;0,0134148
3606,2332;0,013068
3607,1973;0,0126053
3608,1616;0,0120578
3609,1257;0,0115334
3610,0901;0,0111584
3611,0542;0,0109991
3612,0186;0,0110315
3612,9827;0,0111639
3613,9470;0,0112854
3614,9111;0,0113119
3615,8755;0,0112096
3616,8396;0,0109931
3617,8040;0,0107092
3618,7681;0,0104278
3619,7324;0,010239
3620,6965;0,0102176
3621,6609;0,0103553
3622,6250;0,0105431
3623,5894;0,0106365
3624,5535;0,0105394
3625,5178;0,0102458
3626,4819;0,00981472
3627,4463;0,00929855
3628,4104;0,00872904
3629,3748;0,00821036
3630,3389;0,00787879
3631,3032;0,00772168
3632,2673;0,00758815
3633,2317;0,0073453
3634,1958;0,00696661
3635,1602;0,00651761
3636,1243;0,00609066
3637,0886;0,00574384
3638,0527;0,00548192
3639,0171;0,00528027
3639,9812;0,00511842
3640,9456;0,00499144
3641,9097;0,00489581
3642,8740;0,00481362
3643,8381;0,00471992
3644,8025;0,00461253
3645,7666;0,00452613
3646,7310;0,004468
3647,6951;0,00428162
3648,6594;0,00371631
3649,6235;0,00286776
3650,5879;0,00217734
3651,5520;0,00184686
3652,5164;0,00172194
3653,4805;0,00158579
3654,4448;0,00134353
3655,4089;0,00103341
3656,3733;0,000759078
3657,3374;0,000603511
3658,3018;0,000568813
3659,2659;0,000584457
3660,2302;0,000575565
3661,1943;0,000522977
3662,1587;0,0004634
3663,1228;0,000439652
3664,0872;0,000452775
3665,0513;0,000469164
3666,0156;0,000468324
3666,9797;0,000479203
3667,9441;0,000548523
3668,9082;0,000667609
3669,8726;0,000771869
3670,8367;0,000823653
3671,8010;0,000840777
3672,7651;0,00086583
3673,7295;0,000935509
3674,6936;0,001026
3675,6580;0,00104495
3676,6221;0,000956878
3677,5864;0,000832861
3678,5505;0,000728557
3679,5149;0,000639294
3680,4790;0,000560463
3681,4434;0,000511713
3682,4075;0,00050158
3683,3718;0,000495628
3684,3359;0,000436778
3685,3003;0,000306882
3686,2644;0,000174053
3687,2288;0,000164099
3688,1929;0,000344095
3689,1572;0,000640102
3690,1213;0,00093425
3691,0857;0,00118753
3692,0498;0,0014048
3693,0142;0,0015786
3693,9783;0,00169848
3694,9426;0,00176514
3695,9067;0,00178395
3696,8711;0,00175773
3697,8352;0,00169314
3698,7996;0,00161225
3699,7637;0,00155191
3700,7280;0,00154563
3701,6921;0,00160531
3702,6565;0,00171925
3703,6206;0,0018582
3704,5850;0,0019809
3705,5491;0,00204915
3706,5134;0,00204912
3707,4775;0,00199247
3708,4419;0,0018744
3709,4060;0,00161148
3710,3704;0,00107621
3711,3345;0,000302278
3712,2988;-0,000422478
3713,2629;-0,000811662
3714,2273;-0,000809981
3715,1914;-0,000533301
3716,1558;-0,000116116
3717,1199;0,000364576
3718,0842;0,000885744
3719,0483;0,0014413
3720,0127;0,00201203
3720,9768;0,002561
3721,9412;0,0030459
3722,9053;0,00342911
3723,8696;0,00368055
3724,8337;0,00378437
3725,7981;0,0037484
3726,7622;0,00359977
3727,7266;0,003368
3728,6907;0,00308165
3729,6550;0,0027859
3730,6191;0,00255428
3731,5835;0,00246172
3732,5476;0,00250894
3733,5120;0,00255208
3734,4761;0,00237964
3735,4404;0,00196009
3736,4045;0,00151854
3737,3689;0,0012552
3738,3330;0,00112178
3739,2974;0,000902744
3740,2615;0,000406708
3741,2258;-0,000403272
3742,1899;-0,00136575
3743,1543;-0,00217526
3744,1184;-0,00254823
3745,0828;-0,00241485
3746,0469;-0,00196419
3747,0112;-0,0014964
3747,9753;-0,00123962
3748,9397;-0,00128381
3749,9038;-0,00160894
3750,8682;-0,0020729
3751,8323;-0,00240251
3752,7966;-0,00240251
3753,7607;-0,00213957
3754,7251;-0,0018216
3755,6892;-0,00160815
3756,6536;-0,00155299
3757,6177;-0,00163713
3758,5820;-0,00180453
3759,5461;-0,00197607
3760,5105;-0,0020799
3761,4746;-0,00209299
3762,4390;-0,00204351
3763,4031;-0,00197822
3764,3674;-0,0019363
3765,3315;-0,00194204
3766,2959;-0,00200488
3767,2600;-0,00211944
3768,2244;-0,00226759
3769,1885;-0,00242199
3770,1528;-0,00254748
3771,1169;-0,00260967
3772,0813;-0,00259533
3773,0454;-0,002527
3774,0098;-0,00244932
3774,9739;-0,00239801
3775,9382;-0,00238037
3776,9023;-0,00238334
3777,8667;-0,00239375
3778,8308;-0,00239902
3779,7952;-0,00237469
3780,7593;-0,00229593
3781,7236;-0,00216756
3782,6877;-0,00203201
3783,6521;-0,00194874
3784,6162;-0,00196314
3785,5806;-0,00207909
3786,5447;-0,0022531
3787,5090;-0,00241846
3788,4731;-0,00252469
3789,4375;-0,00256116
3790,4016;-0,00254871
3791,3660;-0,0025102
3792,3301;-0,00244452
3793,2944;-0,00232638
3794,2585;-0,00213551
3795,2229;-0,00189256
3796,1870;-0,00166519
3797,1514;-0,00153209
3798,1155;-0,00153468
3799,0798;-0,00165751
3800,0439;-0,00184845
3801,0083;-0,00205083
3801,9724;-0,00222323
3802,9368;-0,00236258
3803,9009;-0,00251423
3804,8652;-0,00272712
3805,8293;-0,00298582
3806,7937;-0,00319201
3807,7578;-0,00322449
3808,7222;-0,00304448
3809,6863;-0,00274948
3810,6506;-0,00250771
3811,6147;-0,00243429
3812,5791;-0,00251365
3813,5432;-0,00261424
3814,5076;-0,00258599
3815,4717;-0,00237413
3816,4360;-0,00205198
3817,4001;-0,00175701
3818,3645;-0,00160921
3819,3286;-0,00166444
3820,2930;-0,00188792
3821,2571;-0,00214683
3822,2214;-0,00228023
3823,1855;-0,00222871
3824,1499;-0,00207089
3825,1140;-0,00193488
3826,0784;-0,00190294
3827,0425;-0,0019786
3828,0068;-0,00210605
3828,9709;-0,00221244
3829,9353;-0,00224838
3830,8994;-0,00220871
3831,8638;-0,00212746
3832,8279;-0,00205331
3833,7922;-0,00201845
3834,7563;-0,00201841
3835,7207;-0,00201843
3836,6848;-0,00198715
3837,6492;-0,00192964
3838,6133;-0,00187939
3839,5776;-0,00186401
3840,5417;-0,00189443
3841,5061;-0,00197298
3842,4702;-0,00208349
3843,4346;-0,0021764
3844,3987;-0,00218477
3845,3630;-0,00207428
3846,3271;-0,00188785
3847,2915;-0,00174227
3848,2556;-0,00177422
3849,2200;-0,00206782
3850,1841;-0,0026009
3851,1484;-0,00324929
3852,1125;-0,00386818
3853,0769;-0,00432528
3854,0410;-0,00441011
3855,0054;-0,0039921
3855,9695;-0,00326105
3856,9338;-0,00255244
3857,8979;-0,00208743
3858,8623;-0,00190277
3859,8264;-0,00189998
3860,7908;-0,00193424
3861,7549;-0,00191027
3862,7192;-0,00183774
3863,6833;-0,00179356
3864,6477;-0,00183151
3865,6118;-0,00194225
3866,5762;-0,00207591
3867,5403;-0,00217345
3868,5046;-0,00219375
3869,4688;-0,00214169
3870,4331;-0,00207204
3871,3972;-0,00204841
3872,3616;-0,00209525
3873,3257;-0,00219371
3874,2900;-0,00231094
3875,2542;-0,00242025
3876,2185;-0,00249744
3877,1826;-0,00251242
3878,1470;-0,0024374
3879,1111;-0,00227628
3880,0754;-0,00208666
3881,0396;-0,00195899
3882,0039;-0,00196443
3882,9680;-0,00211782
3883,9324;-0,0023734
3884,8965;-0,00264318
3885,8608;-0,00283484
3886,8250;-0,00289912
3887,7893;-0,0028506
3888,7534;-0,00273968
3889,7178;-0,00260985
3890,6819;-0,00248277
3891,6462;-0,00236383
3892,6104;-0,00224501
3893,5747;-0,00212211
3894,5388;-0,0020195
3895,5032;-0,00197447
3896,4673;-0,00199457
3897,4316;-0,00204463
3898,3958;-0,00207795
3899,3601;-0,00207458
3900,3242;-0,00204956
3901,2886;-0,00203585
3902,2527;-0,00207095
3903,2170;-0,0021819
3904,1812;-0,00236007
3905,1455;-0,00255902
3906,1096;-0,00273148
3907,0740;-0,00286014
3908,0381;-0,00294979
3909,0024;-0,003004
3909,9666;-0,00301668
3910,9309;-0,00298066
3911,8950;-0,00289858
3912,8594;-0,00278467
3913,8235;-0,00265923
3914,7878;-0,00254442
3915,7520;-0,00246346
3916,7163;-0,00243296
3917,6804;-0,00244381
3918,6448;-0,00245542
3919,6089;-0,00242345
3920,5732;-0,00233637
3921,5374;-0,00222201
3922,5017;-0,00212795
3923,4658;-0,0020934
3924,4302;-0,00212336
3925,3943;-0,00218142
3926,3586;-0,00221538
3927,3228;-0,00219515
3928,2871;-0,00212963
3929,2512;-0,00205945
3930,2156;-0,00203957
3931,1797;-0,00211235
3932,1440;-0,00227662
3933,1082;-0,00248256
3934,0725;-0,00266649
3935,0366;-0,00278912
3936,0010;-0,00284288
3936,9651;-0,00283628
3937,9294;-0,00277977
3938,8936;-0,00268381
3939,8579;-0,00256527
3940,8220;-0,00245153
3941,7864;-0,00237175
3942,7505;-0,00233806
3943,7148;-0,00233493
3944,6790;-0,00233257
3945,6433;-0,00231076
3946,6074;-0,00227381
3947,5718;-0,00224941
3948,5359;-0,00227232
3949,5002;-0,00235922
3950,4644;-0,00249277
3951,4287;-0,00263221
3952,3928;-0,00274015
3953,3572;-0,00280096
3954,3213;-0,00282118
3955,2856;-0,00281848
3956,2498;-0,00280853
3957,2141;-0,00279706
3958,1782;-0,00278158
3959,1426;-0,00276043
3960,1067;-0,00274079
3961,0710;-0,00273795
3962,0352;-0,00276517
3962,9995;-0,00282211
3963,9636;-0,00289263
3964,9280;-0,00295277
3965,8921;-0,00298412
3966,8564;-0,00298182
3967,8206;-0,00295419
3968,7849;-0,00291538
3969,7490;-0,00287682
3970,7134;-0,00284379
3971,6775;-0,00281863
3972,6418;-0,00280604
3973,6060;-0,00281412
3974,5703;-0,00284883
3975,5344;-0,00290657
3976,4988;-0,00297198
3977,4629;-0,0030248
3978,4272;-0,00305151
3979,3914;-0,00305409
3980,3557;-0,0030496
3981,3198;-0,00306004
3982,2842;-0,00309796
3983,2483;-0,00315678
3984,2126;-0,003213
3985,1768;-0,00323899
3986,1411;-0,00321851
3987,1052;-0,00315558
3988,0696;-0,00307261
3989,0337;-0,00299859
3989,9980;-0,00295592
3990,9622;-0,00295154
3991,9265;-0,00297779
3992,8906;-0,00302065
3993,8550;-0,00306865
3994,8191;-0,00311698
3995,7834;-0,00316531
3996,7476;-0,00321292
3997,7119;-0,00325538
3998,6760;-0,00328525
3999,6404;-0,00329589
4000,6045;-0,00291778

##### Extended Information
[Comments]
Sample name
Comment
Username
Division
Organization;UNIVERSIDAD INDUSTRIAL DE SANTANDER

[Detailed Information]
Creation date;28/02/2025 4:07 p.m.

Data array type;Linear data array
Horizontal axis;Wavenumber [cm-1]
Vertical axis;Abs
Start;399,193 cm-1
End;4000,6 cm-1
Data interval;0,964233 cm-1
Data points;3736    

[Measurement Information]
Model name;FT/IR-4X1typeA
Serial No.;A035162111

Accessory;ATR PRO 4X
Accessory S/N;A021162126
Incident angle;45 deg

Measurement date;28/02/2025 3:38 p.m.

Light source;Standard
Detector;TGS
Accumulation;40
Resolution;4 cm-1
Zero filling;On
Apodization;Cosine
Gain;Auto (8)
Aperture;Auto (7 mm)
Scan speed;Auto (2 mm/sec)
Filter;Auto (12800 Hz)

