TITLE;
DATA TYPE;INFRARED SPECTRUM
ORIGIN;JASCO
OWNER;
DATE;25/02/28
TIME;16:15:27
SPECTROMETER/DATA SYSTEM;
LOCALE;9226
RESOLUTION;
DELTAX;0,964233
XUNITS;1/CM
YUNITS;ABSORBANCE
FIRSTX;  399,1927
LASTX; 4000,6047
NPOINTS;    3736
FIRSTY;     0,16985
MAXY;     0,21609
MINY;    -0,00502
XYDATA
399,1927;0,169847
400,1569;0,167287
401,1211;0,163859
402,0854;0,16046
403,0496;0,157571
404,0138;0,155374
404,9781;0,153882
405,9423;0,153018
406,9065;0,152647
407,8708;0,152605
408,8350;0,152712
409,7992;0,152807
410,7635;0,15279
411,7277;0,152691
412,6919;0,152697
413,6562;0,153098
414,6204;0,154185
415,5846;0,156166
416,5489;0,159033
417,5131;0,162315
418,4773;0,164931
419,4416;0,165822
420,4058;0,165035
421,3700;0,163574
422,3343;0,162318
423,2985;0,161543
424,2627;0,161094
425,2270;0,16066
426,1912;0,16001
427,1554;0,159137
428,1197;0,15826
429,0839;0,157701
430,0481;0,15773
431,0124;0,158434
431,9766;0,159652
432,9408;0,160994
433,9051;0,161969
434,8693;0,162181
435,8335;0,161517
436,7978;0,160226
437,7620;0,1588
438,7262;0,157731
439,6905;0,157293
440,6547;0,157457
441,6189;0,15792
442,5832;0,158244
443,5474;0,158071
444,5116;0,157332
445,4759;0,156265
446,4401;0,155237
447,4043;0,15453
448,3686;0,154212
449,3328;0,154146
450,2970;0,154091
451,2613;0,15385
452,2255;0,153395
453,1897;0,152879
454,1540;0,152531
455,1182;0,152513
456,0824;0,152794
457,0467;0,153124
458,0109;0,153151
458,9751;0,152672
459,9394;0,151786
460,9036;0,15079
461,8678;0,149959
462,8321;0,149423
463,7963;0,149167
464,7605;0,149081
465,7248;0,149033
466,6890;0,148928
467,6532;0,148729
468,6175;0,148435
469,5817;0,148051
470,5459;0,147587
471,5102;0,147079
472,4744;0,14661
473,4386;0,14628
474,4029;0,146144
475,3671;0,146182
476,3313;0,146324
477,2956;0,146511
478,2598;0,146727
479,2240;0,146996
480,1883;0,147355
481,1525;0,147803
482,1167;0,148283
483,0810;0,148694
484,0452;0,148951
485,0094;0,14903
485,9737;0,148989
486,9379;0,148924
487,9021;0,148922
488,8664;0,149034
489,8306;0,149274
490,7948;0,149624
491,7591;0,150031
492,7233;0,150421
493,6875;0,150721
494,6518;0,150902
495,6160;0,150999
496,5802;0,151096
497,5445;0,151273
498,5087;0,15156
499,4729;0,151911
500,4372;0,152228
501,4014;0,152427
502,3656;0,152503
503,3299;0,152542
504,2941;0,152655
505,2583;0,152905
506,2226;0,153263
507,1868;0,15364
508,1510;0,153945
509,1153;0,154147
510,0795;0,154295
511,0437;0,154492
512,0080;0,154844
512,9722;0,155417
513,9365;0,156222
514,9007;0,157206
515,8649;0,158254
516,8292;0,159205
517,7934;0,1599
518,7576;0,160262
519,7219;0,160342
520,6861;0,160292
521,6503;0,160277
522,6146;0,160395
523,5788;0,160641
524,5430;0,160914
525,5073;0,161073
526,4715;0,161018
527,4357;0,160755
528,4000;0,160387
529,3642;0,160036
530,3284;0,15978
531,2927;0,15963
532,2569;0,159551
533,2211;0,159504
534,1854;0,159472
535,1496;0,159453
536,1138;0,159437
537,0781;0,159388
538,0423;0,159254
539,0065;0,159006
539,9708;0,158671
540,9350;0,158338
541,8992;0,158126
542,8635;0,158125
543,8277;0,158358
544,7919;0,158776
545,7562;0,159277
546,7204;0,159752
547,6846;0,160123
548,6489;0,160364
549,6131;0,160508
550,5773;0,160628
551,5416;0,160813
552,5058;0,161129
553,4700;0,161585
554,4343;0,162118
555,3985;0,16261
556,3627;0,162939
557,3270;0,163028
558,2912;0,16287
559,2554;0,162504
560,2197;0,161983
561,1839;0,161353
562,1481;0,160659
563,1124;0,159965
564,0766;0,159347
565,0408;0,158864
566,0051;0,158517
566,9693;0,158241
567,9335;0,157944
568,8978;0,157573
569,8620;0,157153
570,8262;0,156778
571,7905;0,156548
572,7547;0,156509
573,7189;0,156638
574,6832;0,156861
575,6474;0,157099
576,6116;0,157299
577,5759;0,15744
578,5401;0,157518
579,5043;0,157522
580,4686;0,157431
581,4328;0,157231
582,3970;0,156927
583,3613;0,156552
584,3255;0,156159
585,2897;0,155814
586,2540;0,15559
587,2182;0,155544
588,1824;0,155704
589,1467;0,156037
590,1109;0,156446
591,0751;0,156788
592,0394;0,156935
593,0036;0,156834
593,9678;0,156537
594,9321;0,15615
595,8963;0,155768
596,8605;0,155417
597,8248;0,155054
598,7890;0,154618
599,7532;0,154088
600,7175;0,153516
601,6817;0,153
602,6459;0,152619
603,6102;0,152385
604,5744;0,152238
605,5386;0,152083
606,5029;0,151834
607,4671;0,151445
608,4313;0,150906
609,3956;0,150242
610,3598;0,149518
611,3240;0,148854
612,2883;0,148413
613,2525;0,148338
614,2167;0,148657
615,1810;0,149205
616,1452;0,149632
617,1094;0,149532
618,0737;0,14866
619,0379;0,147078
620,0021;0,145123
620,9664;0,143213
621,9306;0,141652
622,8948;0,140531
623,8591;0,139746
624,8233;0,139025
625,7875;0,13836
626,7518;0,137693
627,7160;0,137064
628,6802;0,136542
629,6445;0,136169
630,6087;0,135923
631,5729;0,135738
632,5372;0,135529
633,5014;0,135242
634,4656;0,134878
635,4299;0,134494
636,3941;0,134168
637,3583;0,133958
638,3226;0,133866
639,2868;0,133839
640,2510;0,133794
641,2153;0,133667
642,1795;0,133446
643,1437;0,133178
644,1080;0,132942
645,0722;0,1328
646,0364;0,132765
647,0007;0,132793
647,9649;0,132811
648,9291;0,132751
649,8934;0,132583
650,8576;0,132327
651,8218;0,132042
652,7861;0,131805
653,7503;0,131678
654,7145;0,131692
655,6788;0,131816
656,6430;0,131983
657,6072;0,132121
658,5715;0,132201
659,5357;0,132221
660,4999;0,132148
661,4642;0,131857
662,4284;0,131121
663,3926;0,1297
664,3569;0,127545
665,3211;0,125099
666,2853;0,123434
667,2496;0,12369
668,2138;0,12559
669,1780;0,127358
670,1423;0,128097
671,1065;0,128097
672,0707;0,127524
673,0350;0,126368
673,9992;0,12479
674,9634;0,123108
675,9277;0,121586
676,8919;0,120284
677,8561;0,119109
678,8204;0,117947
679,7846;0,116771
680,7488;0,115621
681,7131;0,114554
682,6773;0,113587
683,6415;0,112703
684,6058;0,111879
685,5700;0,111102
686,5342;0,110378
687,4985;0,109714
688,4627;0,109124
689,4269;0,108596
690,3912;0,108119
691,3554;0,107681
692,3196;0,107268
693,2839;0,106856
694,2481;0,106417
695,2123;0,10593
696,1766;0,105389
697,1408;0,104806
698,1050;0,104207
699,0693;0,103619
700,0335;0,103065
700,9977;0,102556
701,9620;0,102083
702,9262;0,10163
703,8904;0,101147
704,8547;0,100632
705,8189;0,10009
706,7831;0,0995313
707,7474;0,0989602
708,7116;0,0983732
709,6758;0,0977623
710,6401;0,0971223
711,6043;0,0964571
712,5685;0,0957859
713,5328;0,0951484
714,4970;0,0946012
715,4612;0,0925499
716,4255;0,0926585
717,3897;0,0929988
718,3539;0,0933224
719,3182;0,0932942
720,2824;0,092658
721,2466;0,0913975
722,2109;0,0897602
723,1751;0,0881171
724,1393;0,0867662
725,1036;0,0858133
726,0678;0,0851742
727,0320;0,0846678
727,9963;0,0841315
728,9605;0,083496
729,9247;0,0827865
730,8890;0,0820705
731,8532;0,0814018
732,8174;0,080797
733,7817;0,0802479
734,7459;0,079745
735,7101;0,0792915
736,6744;0,0788984
737,6386;0,0785689
738,6028;0,0782865
739,5671;0,0780157
740,5313;0,0777142
741,4955;0,0773495
742,4598;0,0769115
743,4240;0,076413
744,3882;0,0758813
745,3525;0,0753439
746,3167;0,0748188
747,2809;0,0743117
748,2452;0,0738216
749,2094;0,0733482
750,1736;0,0728951
751,1379;0,0724669
752,1021;0,0720636
753,0663;0,0716758
754,0306;0,0712865
754,9948;0,0708762
755,9590;0,070432
756,9233;0,0699533
757,8875;0,0694544
758,8517;0,06896
759,8160;0,068497
760,7802;0,0680846
761,7444;0,0677271
762,7087;0,0674137
763,6729;0,0671246
764,6371;0,0668406
765,6014;0,0665518
766,5656;0,0662596
767,5298;0,0659727
768,4941;0,0656986
769,4583;0,0654361
770,4225;0,0651734
771,3868;0,0648926
772,3510;0,0645803
773,3152;0,064238
774,2795;0,0638858
775,2437;0,0635562
776,2079;0,0632791
777,1722;0,0630648
778,1364;0,0628972
779,1006;0,0627391
780,0649;0,0625502
781,0291;0,0623049
781,9933;0,0620018
782,9576;0,0616599
783,9218;0,0613068
784,8860;0,0609661
785,8503;0,0606524
786,8145;0,0603712
787,7787;0,0601233
788,7430;0,0599065
789,7072;0,0597162
790,6714;0,0595457
791,6357;0,0593874
792,5999;0,0592356
793,5641;0,0590862
794,5284;0,0589356
795,4926;0,0587785
796,4568;0,0586085
797,4211;0,0584222
798,3853;0,0582239
799,3495;0,0580268
800,3138;0,0578488
801,2780;0,0577035
802,2422;0,057593
803,2065;0,057506
804,1707;0,0574221
805,1349;0,0573194
806,0992;0,0571824
807,0634;0,0570046
808,0276;0,0567893
808,9919;0,0565475
809,9561;0,0562955
810,9203;0,0560517
811,8846;0,0558328
812,8488;0,0556494
813,8130;0,0555026
814,7773;0,055385
815,7415;0,0552854
816,7057;0,0551944
817,6700;0,0551085
818,6342;0,0550289
819,5984;0,0549568
820,5627;0,0548894
821,5269;0,0548204
822,4911;0,0547439
823,4554;0,0546593
824,4196;0,0545715
825,3839;0,054488
826,3481;0,0544131
827,3123;0,0543472
828,2766;0,0542885
829,2408;0,0542372
830,2050;0,0541948
831,1693;0,0541593
832,1335;0,0541187
833,0977;0,0540506
834,0620;0,0539302
835,0262;0,0537436
835,9904;0,0534968
836,9547;0,0532149
837,9189;0,0529301
838,8831;0,0526668
839,8474;0,0524323
840,8116;0,052219
841,7758;0,0520133
842,7401;0,0518069
843,7043;0,0516017
844,6685;0,0514093
845,6328;0,0512454
846,5970;0,0511241
847,5612;0,0510519
848,5255;0,0510235
849,4897;0,0510201
850,4539;0,0510124
851,4182;0,0509712
852,3824;0,0508807
853,3466;0,050749
854,3109;0,050607
855,2751;0,0504939
856,2393;0,050437
857,2036;0,0504376
858,1678;0,0504715
859,1320;0,050505
860,0963;0,0505144
861,0605;0,050498
862,0247;0,0504737
862,9890;0,0504664
863,9532;0,0504933
864,9174;0,0505583
865,8817;0,0506542
866,8459;0,050771
867,8101;0,0509013
868,7744;0,0510407
869,7386;0,0511847
870,7028;0,0513251
871,6671;0,0514496
872,6313;0,0515451
873,5955;0,0516038
874,5598;0,0516269
875,5240;0,0516266
876,4882;0,0516225
877,4525;0,0516348
878,4167;0,0516771
879,3809;0,0517531
880,3452;0,0518607
881,3094;0,0519993
882,2736;0,0521779
883,2379;0,0524156
884,2021;0,052734
885,1663;0,0531472
886,1306;0,0536552
887,0948;0,0542454
888,0590;0,0549021
889,0233;0,0556141
889,9875;0,0563763
890,9517;0,0571828
891,9160;0,0580178
892,8802;0,0588497
893,8444;0,0596329
894,8087;0,0603155
895,7729;0,0608497
896,7371;0,0611991
897,7014;0,0613438
898,6656;0,0612821
899,6298;0,0610303
900,5941;0,0606198
901,5583;0,0600918
902,5225;0,0594898
903,4868;0,0588528
904,4510;0,0582115
905,4152;0,0575886
906,3795;0,0570023
907,3437;0,05647
908,3079;0,0560101
909,2722;0,0556403
910,2364;0,0553726
911,2007;0,0552088
912,1649;0,055138
913,1292;0,0551389
914,0934;0,055186
915,0576;0,0552584
916,0219;0,0553452
916,9861;0,0554466
917,9503;0,0555692
918,9146;0,0557193
919,8788;0,0558963
920,8430;0,0560908
921,8073;0,0562866
922,7715;0,056467
923,7357;0,0566217
924,7000;0,0567512
925,6642;0,0568658
926,6284;0,0569801
927,5927;0,0571042
928,5569;0,0572372
929,5211;0,0573661
930,4854;0,0574719
931,4496;0,0575401
932,4138;0,0575694
933,3781;0,0575741
934,3423;0,0575799
935,3065;0,0576142
936,2708;0,0576983
937,2350;0,0578424
938,1992;0,0580466
939,1635;0,0583049
940,1277;0,0586098
941,0919;0,058956
942,0562;0,0593412
943,0204;0,059765
943,9846;0,0602273
944,9489;0,0607279
945,9131;0,0612682
946,8773;0,0618542
947,8416;0,0624971
948,8058;0,063211
949,7700;0,0640073
950,7343;0,0648898
951,6985;0,0658539
952,6627;0,0668913
953,6270;0,0679966
954,5912;0,0691713
955,5554;0,0704216
956,5197;0,0717513
957,4839;0,0731551
958,4481;0,0746165
959,4124;0,0761134
960,3766;0,0776265
961,3408;0,0791453
962,3051;0,0806704
963,2693;0,082209
964,2335;0,0837702
965,1978;0,0853607
966,1620;0,0869841
967,1262;0,0886429
968,0905;0,0903416
969,0547;0,0920898
970,0189;0,0939044
970,9832;0,0958106
971,9474;0,0978406
972,9116;0,10003
973,8759;0,102412
974,8401;0,105014
975,8043;0,10785
976,7686;0,110923
977,7328;0,114222
978,6970;0,11772
979,6613;0,121369
980,6255;0,125095
981,5897;0,128799
982,5540;0,132367
983,5182;0,135686
984,4824;0,138671
985,4467;0,141279
986,4109;0,143516
987,3751;0,145422
988,3394;0,147053
989,3036;0,148462
990,2678;0,149687
991,2321;0,150756
992,1963;0,151693
993,1605;0,152524
994,1248;0,153279
995,0890;0,153987
996,0532;0,154673
997,0175;0,155356
997,9817;0,156047
998,9459;0,156751
999,9102;0,157469
1000,8744;0,158202
1001,8386;0,158956
1002,8029;0,159749
1003,7671;0,160608
1004,7313;0,161574
1005,6956;0,162694
1006,6598;0,164017
1007,6240;0,165585
1008,5883;0,167431
1009,5525;0,169564
1010,5167;0,171971
1011,4810;0,174606
1012,4452;0,177398
1013,4094;0,180259
1014,3737;0,183103
1015,3379;0,185856
1016,3021;0,188472
1017,2664;0,190926
1018,2306;0,193213
1019,1948;0,195339
1020,1591;0,197327
1021,1233;0,199208
1022,0875;0,201026
1023,0518;0,202825
1024,0160;0,204642
1024,9802;0,206487
1025,9445;0,208343
1026,9087;0,21016
1027,8729;0,211873
1028,8372;0,213402
1029,8014;0,214667
1030,7656;0,215587
1031,7299;0,216084
1032,6941;0,216089
1033,6583;0,215558
1034,6226;0,21449
1035,5868;0,212948
1036,5510;0,211054
1037,5153;0,208982
1038,4795;0,20692
1039,4437;0,205038
1040,4080;0,203457
1041,3722;0,202232
1042,3364;0,201355
1043,3007;0,200771
1044,2649;0,200392
1045,2291;0,200122
1046,1934;0,199869
1047,1576;0,199554
1048,1218;0,199106
1049,0861;0,198463
1050,0503;0,197572
1051,0145;0,196396
1051,9788;0,194926
1052,9430;0,193185
1053,9072;0,191222
1054,8715;0,189092
1055,8357;0,186825
1056,7999;0,184412
1057,7642;0,181801
1058,7284;0,178927
1059,6926;0,175743
1060,6569;0,172255
1061,6211;0,168526
1062,5853;0,164668
1063,5496;0,160814
1064,5138;0,157093
1065,4780;0,153602
1066,4423;0,150403
1067,4065;0,147514
1068,3707;0,14492
1069,3350;0,142577
1070,2992;0,140423
1071,2634;0,138397
1072,2277;0,136442
1073,1919;0,134516
1074,1561;0,132591
1075,1204;0,130651
1076,0846;0,128685
1077,0488;0,126696
1078,0131;0,124697
1078,9773;0,122718
1079,9415;0,120808
1080,9058;0,119021
1081,8700;0,117406
1082,8342;0,115989
1083,7985;0,114768
1084,7627;0,113718
1085,7269;0,112801
1086,6912;0,111987
1087,6554;0,111265
1088,6196;0,110638
1089,5839;0,110115
1090,5481;0,109701
1091,5123;0,109395
1092,4766;0,109194
1093,4408;0,109096
1094,4050;0,109104
1095,3693;0,109225
1096,3335;0,109454
1097,2977;0,109779
1098,2620;0,110174
1099,2262;0,110612
1100,1904;0,111063
1101,1547;0,111498
1102,1189;0,111891
1103,0831;0,112215
1104,0474;0,112446
1105,0116;0,112568
1105,9758;0,112578
1106,9401;0,112479
1107,9043;0,112275
1108,8685;0,111958
1109,8328;0,111501
1110,7970;0,110864
1111,7612;0,110008
1112,7255;0,10892
1113,6897;0,107629
1114,6539;0,10621
1115,6182;0,104764
1116,5824;0,103388
1117,5466;0,102144
1118,5109;0,101045
1119,4751;0,100057
1120,4393;0,0991154
1121,4036;0,0981478
1122,3678;0,0970851
1123,3320;0,0958711
1124,2963;0,0944671
1125,2605;0,0928567
1126,2247;0,0910503
1127,1890;0,0890839
1128,1532;0,0870111
1129,1174;0,0848893
1130,0817;0,0827662
1131,0459;0,0806743
1132,0101;0,078635
1132,9744;0,0766685
1133,9386;0,0748018
1134,9028;0,0730713
1135,8671;0,0715165
1136,8313;0,0701708
1137,7955;0,0690535
1138,7598;0,0681664
1139,7240;0,0674983
1140,6882;0,067031
1141,6525;0,0667458
1142,6167;0,0666254
1143,5809;0,0666523
1144,5452;0,066806
1145,5094;0,0670625
1146,4736;0,0673987
1147,4379;0,0677992
1148,4021;0,0682603
1149,3663;0,0687887
1150,3306;0,0693928
1151,2948;0,0700711
1152,2590;0,0708052
1153,2233;0,0715598
1154,1875;0,072289
1155,1517;0,0729446
1156,1160;0,0734804
1157,0802;0,0738507
1158,0444;0,0740057
1159,0087;0,0738883
1159,9729;0,073437
1160,9371;0,0725956
1161,9014;0,0713276
1162,8656;0,0696295
1163,8298;0,0675376
1164,7941;0,065126
1165,7583;0,0624961
1166,7225;0,0597607
1167,6868;0,0570295
1168,6510;0,0543963
1169,6152;0,0519318
1170,5795;0,0496796
1171,5437;0,0476578
1172,5079;0,0458633
1173,4722;0,0442789
1174,4364;0,0428822
1175,4006;0,0416524
1176,3649;0,0405743
1177,3291;0,0396375
1178,2933;0,038834
1179,2576;0,0381545
1180,2218;0,0375883
1181,1860;0,0371237
1182,1503;0,0367505
1183,1145;0,0364609
1184,0787;0,036249
1185,0430;0,0361098
1186,0072;0,0360387
1186,9714;0,0360319
1187,9357;0,0360879
1188,8999;0,0362078
1189,8641;0,0363952
1190,8284;0,0366545
1191,7926;0,0369897
1192,7568;0,0374036
1193,7211;0,0378965
1194,6853;0,0384648
1195,6495;0,0390991
1196,6138;0,0397827
1197,5780;0,0404938
1198,5422;0,04121
1199,5065;0,0416808
1200,4707;0,0423955
1201,4349;0,0430966
1202,3992;0,0437896
1203,3634;0,0444783
1204,3276;0,0451612
1205,2919;0,0458327
1206,2561;0,0464895
1207,2203;0,0471348
1208,1846;0,0477806
1209,1488;0,0484437
1210,1130;0,0491408
1211,0773;0,0498834
1212,0415;0,050677
1213,0057;0,0515222
1213,9700;0,0524151
1214,9342;0,0533484
1215,8984;0,0543105
1216,8627;0,0552847
1217,8269;0,0562513
1218,7911;0,0571953
1219,7554;0,0581075
1220,7196;0,0589849
1221,6838;0,059827
1222,6481;0,0606318
1223,6123;0,0613951
1224,5765;0,0621122
1225,5408;0,0627817
1226,5050;0,0634078
1227,4692;0,0639978
1228,4335;0,0645588
1229,3977;0,0650928
1230,3619;0,0655958
1231,3262;0,0660601
1232,2904;0,0664779
1233,2546;0,066844
1234,2189;0,0671568
1235,1831;0,0674185
1236,1473;0,0676338
1237,1116;0,06781
1238,0758;0,0679561
1239,0400;0,0680794
1240,0043;0,0681825
1240,9685;0,0682597
1241,9327;0,0682982
1242,8970;0,0682823
1243,8612;0,0681992
1244,8254;0,0680438
1245,7897;0,0678194
1246,7539;0,0675358
1247,7181;0,0672052
1248,6824;0,066839
1249,6466;0,0664465
1250,6108;0,066035
1251,5751;0,065611
1252,5393;0,065182
1253,5035;0,0647569
1254,4678;0,064344
1255,4320;0,0639464
1256,3962;0,0635573
1257,3605;0,0631583
1258,3247;0,0627245
1259,2889;0,0622335
1260,2532;0,0616753
1261,2174;0,0610567
1262,1816;0,060396
1263,1459;0,059714
1264,1101;0,0590258
1265,0743;0,0583376
1266,0386;0,0576479
1267,0028;0,0569496
1267,9670;0,0562316
1268,9313;0,0554809
1269,8955;0,0546867
1270,8597;0,0538459
1271,8240;0,052967
1272,7882;0,0520696
1273,7524;0,0511792
1274,7167;0,0503194
1275,6809;0,049507
1276,6451;0,0487496
1277,6094;0,0480454
1278,5736;0,0473842
1279,5378;0,0467506
1280,5021;0,0461302
1281,4663;0,0455163
1282,4305;0,0449146
1283,3948;0,0443408
1284,3590;0,0438126
1285,3232;0,0433402
1286,2875;0,0429215
1287,2517;0,0425455
1288,2159;0,0422009
1289,1802;0,0418861
1290,1444;0,041612
1291,1086;0,0413961
1292,0729;0,0412545
1293,0371;0,0411946
1294,0013;0,0412149
1294,9656;0,0413083
1295,9298;0,0414675
1296,8940;0,0416867
1297,8583;0,0419623
1298,8225;0,0422915
1299,7867;0,0426721
1300,7510;0,0431035
1301,7152;0,0435899
1302,6794;0,0441348
1303,6437;0,0447368
1304,6079;0,0453887
1305,5721;0,046078
1306,5364;0,0467927
1307,5006;0,0475291
1308,4648;0,0482925
1309,4291;0,0490889
1310,3933;0,049913
1311,3575;0,0507405
1312,3218;0,0515311
1313,2860;0,0522438
1314,2502;0,0528499
1315,2145;0,0533339
1316,1787;0,0536827
1317,1429;0,0538751
1318,1072;0,0538864
1319,0714;0,0537093
1320,0356;0,0533737
1320,9999;0,0529459
1321,9641;0,0525039
1322,9283;0,0521092
1323,8926;0,0517934
1324,8568;0,0515603
1325,8210;0,0513968
1326,7853;0,051283
1327,7495;0,0511968
1328,7137;0,0511157
1329,6780;0,0510176
1330,6422;0,0508894
1331,6064;0,0507373
1332,5707;0,0505904
1333,5349;0,0504951
1334,4991;0,0504909
1335,4634;0,0505812
1336,4276;0,0507054
1337,3918;0,0507296
1338,3561;0,0504851
1339,3203;0,049869
1340,2845;0,0489374
1341,2488;0,0478836
1342,2130;0,0469144
1343,1772;0,0461519
1344,1415;0,0456236
1345,1057;0,0452986
1346,0699;0,0451249
1347,0342;0,0450532
1347,9984;0,0450532
1348,9626;0,0451172
1349,9269;0,0452537
1350,8911;0,0454715
1351,8553;0,0457684
1352,8196;0,0461274
1353,7838;0,0465249
1354,7480;0,0469451
1355,7123;0,0473936
1356,6765;0,0478978
1357,6407;0,0484922
1358,6050;0,0491981
1359,5692;0,0500001
1360,5334;0,0508225
1361,4977;0,0515314
1362,4619;0,0520058
1363,4261;0,0522391
1364,3904;0,0523446
1365,3546;0,0524539
1366,3188;0,0526337
1367,2831;0,0528822
1368,2473;0,0531638
1369,2115;0,0534414
1370,1758;0,0536905
1371,1400;0,0538917
1372,1042;0,0540119
1373,0685;0,0539949
1374,0327;0,0537864
1374,9969;0,0533816
1375,9612;0,0528356
1376,9254;0,0522064
1377,8896;0,0514998
1378,8539;0,0506826
1379,8181;0,0497433
1380,7823;0,0487353
1381,7466;0,0477614
1382,7108;0,0469101
1383,6750;0,0461999
1384,6393;0,045571
1385,6035;0,0449192
1386,5677;0,0441624
1387,5320;0,043322
1388,4962;0,0425295
1389,4604;0,0419178
1390,4247;0,0415276
1391,3889;0,0413292
1392,3531;0,0412888
1393,3174;0,0413855
1394,2816;0,0415771
1395,2458;0,0417713
1396,2101;0,041856
1397,1743;0,0417705
1398,1385;0,0415505
1399,1028;0,0413082
1400,0670;0,0411651
1401,0313;0,0411879
1401,9955;0,0413679
1402,9597;0,0416441
1403,9240;0,0419455
1404,8882;0,0422309
1405,8524;0,0425119
1406,8167;0,0428368
1407,7809;0,0432424
1408,7451;0,0437256
1409,7094;0,0442605
1410,6736;0,0448325
1411,6378;0,0454543
1412,6021;0,046149
1413,5663;0,0469183
1414,5305;0,0477273
1415,4948;0,048516
1416,4590;0,0492071
1417,4232;0,0497008
1418,3875;0,0499271
1419,3517;0,0499654
1420,3159;0,050017
1421,2802;0,0501858
1422,2444;0,0503865
1423,2086;0,0504595
1424,1729;0,0503061
1425,1371;0,0499335
1426,1013;0,0494132
1427,0656;0,0488107
1428,0298;0,0481502
1428,9940;0,0474342
1429,9583;0,0466868
1430,9225;0,0459579
1431,8867;0,0452704
1432,8510;0,0445749
1433,8152;0,0437706
1434,7794;0,0427699
1435,7437;0,0415778
1436,7079;0,0403723
1437,6721;0,0394576
1438,6364;0,0390211
1439,6006;0,0389892
1440,5648;0,0391582
1441,5291;0,0393755
1442,4933;0,0395995
1443,4575;0,0398602
1444,4218;0,0401911
1445,3860;0,0405862
1446,3502;0,0410032
1447,3145;0,0414035
1448,2787;0,0417935
1449,2429;0,0422224
1450,2072;0,0427237
1451,1714;0,0432599
1452,1356;0,0437367
1453,0999;0,044075
1454,0641;0,0442694
1455,0283;0,0443562
1455,9926;0,0442526
1456,9568;0,0437402
1457,9210;0,0429666
1458,8853;0,0424887
1459,8495;0,0424877
1460,8137;0,0426826
1461,7780;0,0427516
1462,7422;0,0425218
1463,7064;0,0419581
1464,6707;0,0411394
1465,6349;0,04025
1466,5991;0,03947
1467,5634;0,0388211
1468,5276;0,0381808
1469,4918;0,0374169
1470,4561;0,0364596
1471,4203;0,0352653
1472,3845;0,0337804
1473,3488;0,0320592
1474,3130;0,0303727
1475,2772;0,0289935
1476,2415;0,0279761
1477,2057;0,0272264
1478,1699;0,0266395
1479,1342;0,0261481
1480,0984;0,0257164
1481,0626;0,0253348
1482,0269;0,0250236
1482,9911;0,0248276
1483,9553;0,0247944
1484,9196;0,0249564
1485,8838;0,0253226
1486,8480;0,0258497
1487,8123;0,0263761
1488,7765;0,0266391
1489,7407;0,0265286
1490,7050;0,0262678
1491,6692;0,0261499
1492,6334;0,0262696
1493,5977;0,0265827
1494,5619;0,027052
1495,5261;0,0276872
1496,4904;0,0284864
1497,4546;0,029391
1498,4188;0,0303436
1499,3831;0,0313197
1500,3473;0,0322446
1501,3115;0,0329731
1502,2758;0,0333929
1503,2400;0,0335472
1504,2042;0,0337144
1505,1685;0,0343342
1506,1327;0,0355178
1507,0969;0,0364803
1508,0612;0,0364803
1509,0254;0,0359063
1509,9896;0,0353009
1510,9539;0,0347746
1511,9181;0,0342821
1512,8823;0,0338097
1513,8466;0,033367
1514,8108;0,0329255
1515,7750;0,0323999
1516,7393;0,0317014
1517,7035;0,0308069
1518,6677;0,0297755
1519,6320;0,0287191
1520,5962;0,0277712
1521,5604;0,0270582
1522,5247;0,0266462
1523,4889;0,0264897
1524,4531;0,026453
1525,4174;0,0264041
1526,3816;0,026296
1527,3458;0,0261672
1528,3101;0,0260774
1529,2743;0,0260533
1530,2385;0,0260988
1531,2028;0,0262267
1532,1670;0,0264487
1533,1312;0,026735
1534,0955;0,0270098
1535,0597;0,0271824
1536,0239;0,0271753
1536,9882;0,0269855
1537,9524;0,0267679
1538,9166;0,026823
1539,8809;0,0273067
1540,8451;0,0278801
1541,8093;0,028149
1542,7736;0,0281968
1543,7378;0,0281808
1544,7020;0,0281256
1545,6663;0,0280582
1546,6305;0,0280393
1547,5947;0,028101
1548,5590;0,0282106
1549,5232;0,0282947
1550,4874;0,0282978
1551,4517;0,0282203
1552,4159;0,0281012
1553,3801;0,0279565
1554,3444;0,0277478
1555,3086;0,0274201
1556,2728;0,0269505
1557,2371;0,0262901
1558,2013;0,0253195
1559,1655;0,0243437
1560,1298;0,0241797
1561,0940;0,0249847
1562,0582;0,0262177
1563,0225;0,0273746
1563,9867;0,0282273
1564,9509;0,0287545
1565,9152;0,0290418
1566,8794;0,0292123
1567,8436;0,0293783
1568,8079;0,0296159
1569,7721;0,0299628
1570,7363;0,0304064
1571,7006;0,0308733
1572,6648;0,0312773
1573,6290;0,0315983
1574,5933;0,0319044
1575,5575;0,0322818
1576,5217;0,0327604
1577,4860;0,0333448
1578,4502;0,0340279
1579,4144;0,0347425
1580,3787;0,0353983
1581,3429;0,0359595
1582,3071;0,0364593
1583,2714;0,0369635
1584,2356;0,0375252
1585,1998;0,0381634
1586,1641;0,0388642
1587,1283;0,0395951
1588,0925;0,040316
1589,0568;0,0409864
1590,0210;0,0415712
1590,9852;0,0420423
1591,9495;0,0423754
1592,9137;0,0425468
1593,8779;0,0425394
1594,8422;0,0423581
1595,8064;0,042042
1596,7706;0,0416555
1597,7349;0,0412626
1598,6991;0,0409035
1599,6633;0,0405875
1600,6276;0,0403027
1601,5918;0,0400359
1602,5560;0,0397893
1603,5203;0,0395804
1604,4845;0,0394227
1605,4487;0,0393029
1606,4130;0,0391805
1607,3772;0,0390126
1608,3414;0,0387914
1609,3057;0,0385625
1610,2699;0,0383903
1611,2341;0,0382917
1612,1984;0,0382131
1613,1626;0,0380793
1614,1268;0,0378593
1615,0911;0,037595
1616,0553;0,0373945
1617,0195;0,0374057
1617,9838;0,0377187
1618,9480;0,0382566
1619,9122;0,038829
1620,8765;0,0392774
1621,8407;0,0395463
1622,8049;0,0396668
1623,7692;0,0397133
1624,7334;0,0397606
1625,6976;0,0398472
1626,6619;0,0399713
1627,6261;0,0401251
1628,5903;0,0403117
1629,5546;0,0405202
1630,5188;0,0406986
1631,4830;0,0407759
1632,4473;0,0407257
1633,4115;0,0406068
1634,3757;0,0405112
1635,3400;0,0404532
1636,3042;0,0404191
1637,2684;0,0405094
1638,2327;0,0407942
1639,1969;0,0411819
1640,1611;0,0415277
1641,1254;0,0417387
1642,0896;0,0417925
1643,0538;0,0417269
1644,0181;0,0416206
1644,9823;0,0415344
1645,9465;0,0414375
1646,9108;0,0412614
1647,8750;0,0410144
1648,8392;0,0406938
1649,8035;0,0402085
1650,7677;0,0394818
1651,7319;0,0385119
1652,6962;0,0373268
1653,6604;0,0361846
1654,6246;0,0356789
1655,5889;0,0359487
1656,5531;0,0365253
1657,5173;0,0369433
1658,4816;0,0369959
1659,4458;0,0366771
1660,4100;0,0360748
1661,3743;0,0353071
1662,3385;0,0345235
1663,3027;0,0338889
1664,2670;0,0334842
1665,2312;0,0332502
1666,1954;0,0330541
1667,1597;0,0327713
1668,1239;0,0323136
1669,0881;0,0316494
1670,0524;0,0308561
1671,0166;0,0300855
1671,9808;0,0294057
1672,9451;0,0287528
1673,9093;0,0280617
1674,8735;0,0273979
1675,8378;0,0269556
1676,8020;0,026899
1677,7662;0,02719
1678,7305;0,0275978
1679,6947;0,0278497
1680,6589;0,0277476
1681,6232;0,0271856
1682,5874;0,0261306
1683,5516;0,024726
1684,5159;0,0234641
1685,4801;0,0228513
1686,4443;0,022867
1687,4086;0,0231151
1688,3728;0,0232424
1689,3370;0,0231019
1690,3013;0,0227216
1691,2655;0,0222189
1692,2297;0,0217296
1693,1940;0,0213678
1694,1582;0,0211995
1695,1224;0,0212053
1696,0867;0,0212485
1697,0509;0,0211188
1698,0151;0,0206854
1698,9794;0,0200605
1699,9436;0,0195764
1700,9078;0,0195282
1701,8721;0,0199407
1702,8363;0,0205999
1703,8005;0,0212433
1704,7648;0,0217058
1705,7290;0,0219693
1706,6932;0,0221387
1707,6575;0,0223611
1708,6217;0,0227296
1709,5859;0,0232442
1710,5502;0,0238505
1711,5144;0,0244939
1712,4786;0,0251439
1713,4429;0,0257819
1714,4071;0,0263593
1715,3713;0,026741
1716,3356;0,026741
1717,2998;0,0263854
1718,2640;0,0260642
1719,2283;0,0261422
1720,1925;0,0266202
1721,1567;0,0272725
1722,1210;0,0278811
1723,0852;0,0283351
1724,0494;0,0286398
1725,0137;0,0288876
1725,9779;0,0291988
1726,9421;0,0296487
1727,9064;0,03022
1728,8706;0,0308083
1729,8348;0,0312665
1730,7991;0,0314505
1731,7633;0,031249
1732,7275;0,0306381
1733,6918;0,0297953
1734,6560;0,0290803
1735,6202;0,0287224
1736,5845;0,0286331
1737,5487;0,0285806
1738,5129;0,0284112
1739,4772;0,0281203
1740,4414;0,0278061
1741,4056;0,027568
1742,3699;0,0274228
1743,3341;0,0273022
1744,2983;0,0271187
1745,2626;0,0268215
1746,2268;0,0263924
1747,1910;0,025793
1748,1553;0,0249231
1749,1195;0,023684
1750,0837;0,0221464
1751,0480;0,0205965
1752,0122;0,0193249
1752,9764;0,0184228
1753,9407;0,0178007
1754,9049;0,0173151
1755,8691;0,0168583
1756,8334;0,0163822
1757,7976;0,0158778
1758,7618;0,0153385
1759,7261;0,0147437
1760,6903;0,0140815
1761,6545;0,0133895
1762,6188;0,0127609
1763,5830;0,01229
1764,5472;0,0120057
1765,5115;0,0118616
1766,4757;0,0117769
1767,4399;0,0116788
1768,4042;0,0115205
1769,3684;0,0112781
1770,3326;0,0109418
1771,2969;0,0105247
1772,2611;0,0100947
1773,2253;0,00977399
1774,1896;0,00965408
1775,1538;0,00971748
1776,1180;0,00986443
1777,0823;0,00999176
1778,0465;0,0100411
1779,0107;0,0100019
1779,9750;0,00989239
1780,9392;0,00973902
1781,9034;0,00956347
1782,8677;0,00938223
1783,8319;0,00921891
1784,7961;0,00911196
1785,7604;0,00910006
1786,7246;0,00919391
1787,6888;0,00936468
1788,6531;0,0095614
1789,6173;0,00973363
1790,5815;0,00983476
1791,5458;0,00982606
1792,5100;0,0097206
1793,4742;0,00960881
1794,4385;0,00957624
1795,4027;0,0096203
1796,3669;0,00968096
1797,3312;0,00971279
1798,2954;0,00971014
1799,2596;0,0096824
1800,2239;0,0096223
1801,1881;0,00950868
1802,1523;0,00933785
1803,1166;0,00914148
1804,0808;0,00897371
1805,0450;0,00888522
1806,0093;0,0089012
1806,9735;0,00900892
1807,9377;0,00915744
1808,9020;0,00927369
1809,8662;0,00929622
1810,8304;0,00921212
1811,7947;0,00906453
1812,7589;0,00891758
1813,7231;0,00881258
1814,6874;0,00875378
1815,6516;0,00872226
1816,6158;0,00869676
1817,5801;0,00866981
1818,5443;0,00865441
1819,5085;0,00867562
1820,4728;0,00875178
1821,4370;0,00888047
1822,4012;0,00903643
1823,3655;0,0091802
1824,3297;0,00927722
1825,2939;0,0093179
1826,2582;0,00931727
1827,2224;0,00929057
1828,1866;0,0092306
1829,1509;0,00911461
1830,1151;0,00894284
1831,0793;0,00876621
1832,0436;0,00865328
1833,0078;0,00863135
1833,9720;0,00867394
1834,9363;0,00873343
1835,9005;0,00877462
1836,8647;0,00879149
1837,8290;0,0088049
1838,7932;0,00884156
1839,7574;0,00891161
1840,7217;0,00900812
1841,6859;0,00911938
1842,6501;0,00922806
1843,6144;0,00930392
1844,5786;0,00932355
1845,5428;0,00929784
1846,5071;0,00924847
1847,4713;0,00916737
1848,4355;0,00902668
1849,3998;0,00881809
1850,3640;0,00857248
1851,3282;0,00834708
1852,2925;0,00819463
1853,2567;0,00813959
1854,2209;0,00817466
1855,1852;0,00827321
1856,1494;0,00840242
1857,1136;0,00853066
1858,0779;0,00862893
1859,0421;0,00867586
1860,0063;0,00866789
1860,9706;0,00862769
1861,9348;0,00859991
1862,8990;0,00863388
1863,8633;0,0087647
1864,8275;0,00900266
1865,7917;0,00932362
1866,7560;0,0096517
1867,7202;0,00985902
1868,6844;0,00983222
1869,6487;0,00957258
1870,6129;0,00919783
1871,5771;0,00883822
1872,5414;0,00856402
1873,5056;0,00839104
1874,4698;0,00830854
1875,4341;0,00829169
1876,3983;0,00830728
1877,3625;0,00832428
1878,3268;0,0083287
1879,2910;0,00832769
1880,2552;0,00834085
1881,2195;0,0083853
1882,1837;0,00846446
1883,1479;0,00856682
1884,1122;0,00867345
1885,0764;0,00876722
1886,0406;0,00883723
1887,0049;0,00887772
1887,9691;0,00888641
1888,9333;0,00886806
1889,8976;0,00884051
1890,8618;0,00883045
1891,8260;0,00885541
1892,7903;0,00890836
1893,7545;0,00895949
1894,7188;0,00897292
1895,6830;0,00892809
1896,6472;0,0088335
1897,6115;0,00872168
1898,5757;0,00862794
1899,5399;0,00857143
1900,5042;0,00855241
1901,4684;0,00856308
1902,4326;0,00860044
1903,3969;0,00867078
1904,3611;0,00878246
1905,3253;0,00893246
1906,2896;0,00909702
1907,2538;0,00923404
1908,2180;0,00929932
1909,1823;0,0092718
1910,1465;0,00917206
1911,1107;0,00905476
1912,0750;0,00897568
1913,0392;0,0089607
1914,0034;0,00899953
1914,9677;0,00906191
1915,9319;0,00912142
1916,8961;0,00917623
1917,8604;0,0092554
1918,8246;0,0093976
1919,7888;0,00961114
1920,7531;0,00984973
1921,7173;0,0100276
1922,6815;0,0100647
1923,6458;0,0099363
1924,6100;0,00969304
1925,5742;0,00943189
1926,5385;0,0092388
1927,5027;0,00914945
1928,4669;0,00914866
1929,4312;0,00919382
1930,3954;0,0092421
1931,3596;0,00926842
1932,3239;0,00926726
1933,2881;0,00924528
1934,2523;0,0092143
1935,2166;0,00918981
1936,1808;0,00919175
1937,1450;0,00924189
1938,1093;0,00935734
1939,0735;0,00954286
1940,0377;0,00978332
1941,0020;0,0100381
1941,9662;0,0102464
1942,9304;0,0103521
1943,8947;0,0103352
1944,8589;0,010221
1945,8231;0,0100604
1946,7874;0,00990374
1947,7516;0,00978435
1948,7158;0,00971316
1949,6801;0,00968107
1950,6443;0,00966731
1951,6085;0,00965174
1952,5728;0,00962627
1953,5370;0,00960084
1954,5012;0,00960118
1955,4655;0,00965784
1956,4297;0,00978892
1957,3939;0,00998376
1958,3582;0,0101987
1959,3224;0,0103737
1960,2866;0,010468
1961,2509;0,0104933
1962,2151;0,0105158
1963,1793;0,0106175
1964,1436;0,0108368
1965,1078;0,0111293
1966,0720;0,0113767
1967,0363;0,0114504
1968,0005;0,0112966
1968,9647;0,0109749
1969,9290;0,0106172
1970,8932;0,0103452
1971,8574;0,0102135
1972,8217;0,0102057
1973,7859;0,0102724
1974,7501;0,0103716
1975,7144;0,010485
1976,6786;0,0106016
1977,6428;0,0106958
1978,6071;0,0107327
1979,5713;0,0106994
1980,5355;0,010626
1981,4998;0,0105719
1982,4640;0,0105858
1983,4282;0,0106719
1984,3925;0,0107884
1985,3567;0,0108812
1986,3209;0,01093
1987,2852;0,0109704
1988,2494;0,0110693
1989,2136;0,011269
1990,1779;0,0115393
1991,1421;0,0117765
1992,1063;0,0118625
1993,0706;0,0117426
1994,0348;0,0114608
1994,9990;0,0111284
1995,9633;0,0108597
1996,9275;0,0107246
1997,8917;0,0107359
1998,8560;0,0108654
1999,8202;0,0110694
2000,7844;0,0113065
2001,7487;0,0115433
2002,7129;0,0117543
2003,6771;0,011928
2004,6414;0,0120771
2005,6056;0,0122367
2006,5698;0,0124395
2007,5341;0,012678
2008,4983;0,0128881
2009,4625;0,0129821
2010,4268;0,0129139
2011,3910;0,0127252
2012,3552;0,0125327
2013,3195;0,0124612
2014,2837;0,0125634
2015,2479;0,0127814
2016,2122;0,0129822
2017,1764;0,0130508
2018,1406;0,0129727
2019,1049;0,0128381
2020,0691;0,0127678
2021,0333;0,0128226
2021,9976;0,0129661
2022,9618;0,0130981
2023,9260;0,0131274
2024,8903;0,0130294
2025,8545;0,0128495
2026,8187;0,0126562
2027,7830;0,0124887
2028,7472;0,0123398
2029,7114;0,012185
2030,6757;0,012023
2031,6399;0,0118929
2032,6041;0,0118501
2033,5684;0,0119238
2034,5326;0,0120946
2035,4968;0,0123097
2036,4611;0,01252
2037,4253;0,0127054
2038,3895;0,0128674
2039,3538;0,0129993
2040,3180;0,013063
2041,2822;0,0129937
2042,2465;0,0127337
2043,2107;0,0122725
2044,1749;0,0116664
2045,1392;0,011028
2046,1034;0,0104906
2047,0676;0,010163
2048,0320;0,0100888
2048,9961;0,0102338
2049,9604;0,0105059
2050,9246;0,010797
2051,8889;0,0110188
2052,8530;0,0111233
2053,8174;0,0111095
2054,7815;0,0110181
2055,7458;0,0109144
2056,7100;0,0108595
2057,6743;0,0108828
2058,6384;0,0109695
2059,6028;0,0110724
2060,5669;0,0111396
2061,5313;0,0111433
2062,4954;0,0110936
2063,4597;0,0110295
2064,4238;0,0109939
2065,3882;0,011007
2066,3523;0,011055
2067,3167;0,0110987
2068,2808;0,011096
2069,2451;0,0110229
2070,2092;0,010884
2071,1736;0,0107096
2072,1377;0,0105417
2073,1021;0,0104193
2074,0662;0,0103636
2075,0305;0,0103719
2075,9946;0,0104185
2076,9590;0,0104635
2077,9231;0,0104681
2078,8875;0,0104102
2079,8516;0,0102954
2080,8159;0,010156
2081,7800;0,0100384
2082,7444;0,00998227
2083,7085;0,0100036
2084,6729;0,0100887
2085,6370;0,0102036
2086,6013;0,0103113
2087,5654;0,0103883
2088,5298;0,0104316
2089,4939;0,0104553
2090,4583;0,0104792
2091,4224;0,0105173
2092,3867;0,0105698
2093,3508;0,0106223
2094,3152;0,0106512
2095,2793;0,010635
2096,2437;0,0105676
2097,2078;0,0104645
2098,1721;0,0103572
2099,1362;0,0102767
2100,1006;0,0102385
2101,0647;0,0102326
2102,0291;0,0102407
2102,9932;0,0102473
2103,9575;0,0102505
2104,9216;0,0102576
2105,8860;0,0102718
2106,8501;0,0102832
2107,8145;0,0102757
2108,7786;0,010244
2109,7429;0,0102054
2110,7070;0,0101925
2111,6714;0,0102301
2112,6355;0,0103139
2113,5999;0,0104093
2114,5640;0,0104744
2115,5283;0,010488
2116,4924;0,0104639
2117,4568;0,0104398
2118,4209;0,0104497
2119,3853;0,010502
2120,3494;0,0105772
2121,3137;0,010645
2122,2778;0,0106871
2123,2422;0,0107075
2124,2063;0,0107256
2125,1707;0,0107577
2126,1348;0,010805
2127,0991;0,0108546
2128,0632;0,0108953
2129,0276;0,0109343
2129,9917;0,0110029
2130,9561;0,0111445
2131,9202;0,0113885
2132,8845;0,0117251
2133,8486;0,0120964
2134,8130;0,0124158
2135,7771;0,0126089
2136,7415;0,0126499
2137,7056;0,0125694
2138,6699;0,0124304
2139,6340;0,0122947
2140,5984;0,0122046
2141,5625;0,0121868
2142,5269;0,0122661
2143,4910;0,0124667
2144,4553;0,0127934
2145,4194;0,0132081
2146,3838;0,0136253
2147,3479;0,0139409
2148,3123;0,0140815
2149,2764;0,0140442
2150,2407;0,0139013
2151,2048;0,013771
2152,1692;0,0137719
2153,1333;0,0139828
2154,0977;0,0144183
2155,0618;0,0150154
2156,0261;0,0156336
2156,9902;0,01608
2157,9546;0,016184
2158,9187;0,0158994
2159,8831;0,0153458
2160,8472;0,0147302
2161,8115;0,0142185
2162,7756;0,0138688
2163,7400;0,0136542
2164,7041;0,0135225
2165,6685;0,0134391
2166,6326;0,0133934
2167,5969;0,0133798
2168,5610;0,0133829
2169,5254;0,013384
2170,4895;0,0133833
2171,4539;0,0134108
2172,4180;0,0135102
2173,3823;0,0137002
2174,3464;0,0139401
2175,3108;0,014131
2176,2749;0,0141599
2177,2393;0,0139619
2178,2034;0,0135613
2179,1677;0,01307
2180,1318;0,0126452
2181,0962;0,0124259
2182,0603;0,0124713
2183,0247;0,0127294
2183,9888;0,0130551
2184,9531;0,0132722
2185,9172;0,0132522
2186,8816;0,0129711
2187,8457;0,0125182
2188,8101;0,0120538
2189,7742;0,0117328
2190,7385;0,0116344
2191,7026;0,0117327
2192,6670;0,0119208
2193,6311;0,0120716
2194,5955;0,0120979
2195,5596;0,0119817
2196,5239;0,0117641
2197,4880;0,011511
2198,4524;0,0112778
2199,4165;0,0110927
2200,3809;0,0109592
2201,3450;0,0108705
2202,3093;0,0108221
2203,2734;0,0108186
2204,2378;0,0108695
2205,2019;0,01098
2206,1663;0,0111399
2207,1304;0,0113171
2208,0947;0,0114633
2209,0588;0,0115312
2210,0232;0,0114968
2210,9873;0,0113742
2211,9517;0,0112126
2212,9158;0,0110739
2213,8801;0,0110031
2214,8442;0,011007
2215,8086;0,0110551
2216,7727;0,0110993
2217,7371;0,0111018
2218,7012;0,0110537
2219,6655;0,0109766
2220,6296;0,0109075
2221,5940;0,010877
2222,5581;0,0108937
2223,5225;0,0109417
2224,4866;0,0109913
2225,4509;0,0110155
2226,4150;0,0110032
2227,3794;0,010959
2228,3435;0,0108985
2229,3079;0,0108342
2230,2720;0,0107689
2231,2363;0,0106974
2232,2004;0,0106152
2233,1648;0,010525
2234,1289;0,0104374
2235,0933;0,0103658
2236,0574;0,0103204
2237,0217;0,0103069
2237,9858;0,0103282
2238,9502;0,0103855
2239,9143;0,0104754
2240,8787;0,0105859
2241,8428;0,010694
2242,8071;0,0107705
2243,7712;0,0107917
2244,7356;0,0107501
2245,6997;0,0106615
2246,6641;0,0105612
2247,6282;0,0104926
2248,5925;0,0104917
2249,5566;0,0105721
2250,5210;0,0107173
2251,4851;0,0108846
2252,4495;0,0110202
2253,4136;0,0110813
2254,3779;0,0110543
2255,3420;0,0109587
2256,3064;0,0108347
2257,2705;0,0107208
2258,2349;0,0106371
2259,1990;0,0105832
2260,1633;0,0105485
2261,1274;0,0105256
2262,0918;0,0105158
2263,0559;0,010525
2264,0203;0,0105547
2264,9844;0,0105956
2265,9487;0,0106304
2266,9128;0,0106411
2267,8772;0,0106168
2268,8413;0,0105578
2269,8057;0,010475
2270,7698;0,010386
2271,7341;0,0103102
2272,6982;0,0102614
2273,6626;0,0102421
2274,6267;0,0102416
2275,5911;0,0102413
2276,5552;0,0102257
2277,5195;0,0101923
2278,4836;0,0101532
2279,4480;0,0101283
2280,4121;0,0101342
2281,3765;0,0101787
2282,3406;0,0102626
2283,3049;0,0103859
2284,2690;0,0105517
2285,2334;0,0107648
2286,1975;0,0110273
2287,1619;0,0113366
2288,1260;0,0116886
2289,0903;0,0120816
2290,0544;0,0125161
2291,0188;0,0129894
2291,9829;0,0134891
2292,9473;0,0139932
2293,9114;0,0144782
2294,8757;0,014929
2295,8398;0,0153427
2296,8042;0,0157219
2297,7683;0,0160626
2298,7327;0,016349
2299,6968;0,016562
2300,6611;0,0166982
2301,6252;0,0167867
2302,5896;0,0168884
2303,5537;0,0170767
2304,5181;0,0174054
2305,4822;0,0178784
2306,4465;0,0184346
2307,4106;0,0189581
2308,3750;0,0193121
2309,3391;0,019386
2310,3035;0,0191393
2311,2676;0,0186218
2312,2319;0,0179583
2313,1960;0,0173007
2314,1604;0,0167686
2315,1245;0,0164114
2316,0889;0,0162081
2317,0530;0,0160979
2318,0173;0,0160194
2318,9814;0,0159366
2319,9458;0,0158482
2320,9099;0,015784
2321,8743;0,0157911
2322,8384;0,0159059
2323,8027;0,0161156
2324,7668;0,0163394
2325,7312;0,0164543
2326,6953;0,0163507
2327,6597;0,0159826
2328,6238;0,0153867
2329,5881;0,0146685
2330,5522;0,0139671
2331,5166;0,0134046
2332,4807;0,0130389
2333,4451;0,0128484
2334,4092;0,012766
2335,3735;0,0127416
2336,3376;0,0127875
2337,3020;0,0129799
2338,2661;0,013413
2339,2305;0,014125
2340,1946;0,0150252
2341,1589;0,0158597
2342,1230;0,0162804
2343,0874;0,0161017
2344,0515;0,0156397
2345,0159;0,0156286
2345,9800;0,0165494
2346,9443;0,0181613
2347,9084;0,0197475
2348,8728;0,020643
2349,8369;0,0205748
2350,8013;0,0197299
2351,7654;0,0186074
2352,7297;0,0177227
2353,6938;0,0173174
2354,6582;0,0173174
2355,6223;0,0175377
2356,5867;0,0178348
2357,5508;0,0180812
2358,5151;0,0181397
2359,4792;0,0179442
2360,4436;0,0175676
2361,4077;0,0171452
2362,3721;0,0167281
2363,3362;0,0162384
2364,3005;0,0155663
2365,2646;0,0146895
2366,2290;0,0137006
2367,1931;0,0127404
2368,1575;0,0119171
2369,1216;0,0112738
2370,0859;0,0108001
2371,0500;0,0104621
2372,0144;0,0102329
2372,9785;0,0101152
2373,9429;0,0101462
2374,9070;0,0103785
2375,8713;0,0108435
2376,8354;0,0115168
2377,7998;0,0123068
2378,7639;0,0130739
2379,7283;0,0136705
2380,6924;0,0139835
2381,6567;0,0139626
2382,6208;0,0136265
2383,5852;0,0130492
2384,5493;0,0123351
2385,5137;0,0115916
2386,4778;0,0109069
2387,4421;0,0103371
2388,4063;0,00990498
2389,3706;0,00960701
2390,3347;0,00942413
2391,2991;0,00933101
2392,2632;0,00930161
2393,2275;0,00931169
2394,1917;0,00934028
2395,1560;0,0093717
2396,1201;0,00939786
2397,0845;0,00941883
2398,0486;0,00944271
2399,0129;0,00947485
2399,9771;0,0095141
2400,9414;0,00955292
2401,9055;0,00957934
2402,8699;0,00958622
2403,8340;0,00957609
2404,7983;0,00956082
2405,7625;0,00955451
2406,7268;0,00956346
2407,6909;0,00958288
2408,6553;0,00960061
2409,6194;0,00960502
2410,5837;0,00959504
2411,5479;0,00958111
2412,5122;0,00957869
2413,4763;0,00959811
2414,4407;0,00963813
2415,4048;0,00968668
2416,3691;0,00972835
2417,3333;0,00975324
2418,2976;0,00976122
2419,2617;0,00976032
2420,2261;0,00976059
2421,1902;0,00976772
2422,1545;0,0097829
2423,1187;0,0098041
2424,0830;0,00982913
2425,0471;0,00985683
2426,0115;0,0098859
2426,9756;0,00991351
2427,9399;0,00993556
2428,9041;0,00994901
2429,8684;0,0099544
2430,8325;0,00995612
2431,7969;0,0099597
2432,7610;0,00996786
2433,7253;0,00997862
2434,6895;0,00998713
2435,6538;0,00999026
2436,6179;0,00999028
2437,5823;0,00999444
2438,5464;0,0100103
2439,5107;0,0100402
2440,4749;0,0100787
2441,4392;0,0101156
2442,4033;0,0101421
2443,3677;0,0101564
2444,3318;0,0101633
2445,2961;0,0101704
2446,2603;0,0101826
2447,2246;0,0101996
2448,1887;0,0102174
2449,1531;0,0102319
2450,1172;0,0102423
2451,0815;0,0102498
2452,0457;0,0102558
2453,0100;0,0102601
2453,9741;0,0102613
2454,9385;0,01026
2455,9026;0,0102604
2456,8669;0,0102689
2457,8311;0,0102905
2458,7954;0,0103242
2459,7595;0,0103615
2460,7239;0,0103899
2461,6880;0,0103979
2462,6523;0,0103819
2463,6165;0,0103476
2464,5808;0,0103087
2465,5449;0,0102817
2466,5093;0,0102803
2467,4734;0,0103106
2468,4377;0,0103692
2469,4019;0,0104435
2470,3662;0,0105154
2471,3303;0,0105673
2472,2947;0,0105893
2473,2588;0,0105834
2474,2231;0,0105622
2475,1873;0,0105426
2476,1516;0,0105363
2477,1157;0,0105451
2478,0801;0,0105622
2479,0442;0,0105796
2480,0085;0,0105938
2480,9727;0,0106067
2481,9370;0,0106209
2482,9011;0,0106351
2483,8655;0,0106434
2484,8296;0,0106418
2485,7939;0,0106345
2486,7581;0,0106343
2487,7224;0,0106546
2488,6865;0,0106995
2489,6509;0,0107581
2490,6150;0,0108098
2491,5793;0,0108363
2492,5435;0,0108337
2493,5078;0,010814
2494,4719;0,0107979
2495,4363;0,0108017
2496,4004;0,0108286
2497,3647;0,0108685
2498,3289;0,010905
2499,2932;0,0109253
2500,2573;0,0109265
2501,2217;0,0109151
2502,1858;0,0109025
2503,1501;0,0108975
2504,1143;0,0109023
2505,0786;0,010912
2506,0427;0,0109198
2507,0071;0,0109219
2507,9712;0,0109214
2508,9355;0,0109255
2509,8997;0,0109406
2510,8640;0,0109664
2511,8281;0,0109947
2512,7925;0,0110141
2513,7566;0,0110159
2514,7209;0,0109993
2515,6851;0,01097
2516,6494;0,0109358
2517,6135;0,0109023
2518,5779;0,010871
2519,5420;0,0108428
2520,5063;0,010821
2521,4705;0,0108118
2522,4348;0,0108213
2523,3989;0,0108507
2524,3633;0,0108939
2525,3274;0,0109396
2526,2917;0,0109768
2527,2559;0,0109995
2528,2202;0,0110087
2529,1843;0,0110093
2530,1487;0,0110061
2531,1128;0,011001
2532,0771;0,0109936
2533,0413;0,0109831
2534,0056;0,0109711
2534,9697;0,0109608
2535,9341;0,0109554
2536,8982;0,0109559
2537,8625;0,0109614
2538,8267;0,0109706
2539,7910;0,0109837
2540,7551;0,0110015
2541,7195;0,0110229
2542,6836;0,0110426
2543,6479;0,0110528
2544,6121;0,0110477
2545,5764;0,0110283
2546,5405;0,0110033
2547,5049;0,0109845
2548,4690;0,0109792
2549,4333;0,0109852
2550,3975;0,0109916
2551,3618;0,0109858
2552,3259;0,0109608
2553,2903;0,0109202
2554,2544;0,0108761
2555,2188;0,0108436
2556,1829;0,0108334
2557,1472;0,0108475
2558,1113;0,0108785
2559,0757;0,0109132
2560,0398;0,010938
2561,0042;0,0109448
2561,9683;0,0109346
2562,9326;0,0109167
2563,8967;0,0109037
2564,8611;0,0109045
2565,8252;0,0109188
2566,7896;0,0109387
2567,7537;0,0109531
2568,7180;0,0109555
2569,6821;0,0109473
2570,6465;0,0109358
2571,6106;0,010929
2572,5750;0,0109301
2573,5391;0,0109358
2574,5034;0,0109403
2575,4675;0,0109392
2576,4319;0,0109335
2577,3960;0,0109289
2578,3604;0,0109325
2579,3245;0,0109489
2580,2888;0,0109774
2581,2529;0,0110129
2582,2173;0,0110478
2583,1814;0,0110757
2584,1458;0,0110928
2585,1099;0,0110979
2586,0742;0,0110911
2587,0383;0,0110727
2588,0027;0,0110431
2588,9668;0,0110046
2589,9312;0,0109624
2590,8953;0,0109249
2591,8596;0,0109015
2592,8237;0,0108986
2593,7881;0,0109161
2594,7522;0,0109472
2595,7166;0,0109804
2596,6807;0,0110049
2597,6450;0,0110154
2598,6091;0,0110138
2599,5735;0,0110081
2600,5376;0,011007
2601,5020;0,0110152
2602,4661;0,0110314
2603,4304;0,0110499
2604,3945;0,0110654
2605,3589;0,0110761
2606,3230;0,0110845
2607,2874;0,0110939
2608,2515;0,0111053
2609,2158;0,0111159
2610,1799;0,0111216
2611,1443;0,0111207
2612,1084;0,0111159
2613,0728;0,0111128
2614,0369;0,0111159
2615,0012;0,0111257
2615,9653;0,0111391
2616,9297;0,0111523
2617,8938;0,0111642
2618,8582;0,0111769
2619,8223;0,0111938
2620,7866;0,0112162
2621,7507;0,0112415
2622,7151;0,0112642
2623,6792;0,0112791
2624,6436;0,0112836
2625,6077;0,0112793
2626,5720;0,0112711
2627,5361;0,0112653
2628,5005;0,0112679
2629,4646;0,0112835
2630,4290;0,0113134
2631,3931;0,011355
2632,3574;0,011402
2633,3215;0,0114451
2634,2859;0,0114753
2635,2500;0,0114871
2636,2144;0,0114808
2637,1785;0,0114636
2638,1428;0,0114471
2639,1069;0,0114426
2640,0713;0,0114567
2641,0354;0,0114882
2641,9998;0,0115286
2642,9639;0,0115663
2643,9282;0,0115918
2644,8923;0,0116026
2645,8567;0,0116037
2646,8208;0,0116041
2647,7852;0,011612
2648,7493;0,0116302
2649,7136;0,0116554
2650,6777;0,0116815
2651,6421;0,0117029
2652,6062;0,0117186
2653,5706;0,0117317
2654,5347;0,0117475
2655,4990;0,0117699
2656,4631;0,0117999
2657,4275;0,0118352
2658,3916;0,0118724
2659,3560;0,0119083
2660,3201;0,0119418
2661,2844;0,0119734
2662,2485;0,0120044
2663,2129;0,0120355
2664,1770;0,0120664
2665,1414;0,0120959
2666,1055;0,0121229
2667,0698;0,0121465
2668,0339;0,0121672
2668,9983;0,0121857
2669,9624;0,0122028
2670,9268;0,0122187
2671,8909;0,0122335
2672,8552;0,012248
2673,8193;0,0122643
2674,7837;0,0122848
2675,7478;0,0123113
2676,7122;0,0123432
2677,6763;0,0123771
2678,6406;0,0124087
2679,6047;0,0124345
2680,5691;0,0124541
2681,5332;0,0124695
2682,4976;0,0124835
2683,4617;0,012498
2684,4260;0,0125127
2685,3901;0,0125271
2686,3545;0,0125413
2687,3186;0,012557
2688,2830;0,0125758
2689,2471;0,0125978
2690,2114;0,0126212
2691,1755;0,0126436
2692,1399;0,0126644
2693,1040;0,0126855
2694,0684;0,0127102
2695,0325;0,01274
2695,9968;0,012773
2696,9609;0,0128046
2697,9253;0,0128308
2698,8894;0,0128512
2699,8538;0,0128701
2700,8179;0,0128937
2701,7822;0,0129266
2702,7463;0,0129683
2703,7107;0,0130138
2704,6748;0,013056
2705,6392;0,013089
2706,6033;0,0131108
2707,5676;0,0131236
2708,5317;0,013132
2709,4961;0,0131408
2710,4602;0,0131535
2711,4246;0,0131715
2712,3887;0,0131948
2713,3530;0,0132225
2714,3171;0,0132541
2715,2815;0,0132888
2716,2456;0,0133251
2717,2100;0,0133607
2718,1741;0,0133934
2719,1384;0,0134223
2720,1025;0,0134492
2721,0669;0,013477
2722,0310;0,013508
2722,9954;0,0135417
2723,9595;0,0135737
2724,9238;0,0135993
2725,8879;0,0136157
2726,8523;0,0136251
2727,8164;0,0136331
2728,7808;0,0136456
2729,7449;0,0136652
2730,7092;0,0136901
2731,6733;0,0137159
2732,6377;0,0137385
2733,6018;0,0137556
2734,5662;0,0137674
2735,5303;0,0137752
2736,4946;0,0137807
2737,4587;0,0137858
2738,4231;0,0137935
2739,3872;0,0138079
2740,3516;0,0138324
2741,3157;0,0138682
2742,2800;0,013912
2743,2441;0,0139563
2744,2085;0,0139919
2745,1726;0,0140119
2746,1370;0,0140146
2747,1011;0,0140054
2748,0654;0,0139938
2749,0295;0,0139902
2749,9939;0,0140005
2750,9580;0,014025
2751,9224;0,0140588
2752,8865;0,0140957
2753,8508;0,0141317
2754,8149;0,0141653
2755,7793;0,0141969
2756,7434;0,0142262
2757,7078;0,0142516
2758,6719;0,0142721
2759,6362;0,0142888
2760,6003;0,0143063
2761,5647;0,0143299
2762,5288;0,0143627
2763,4932;0,0144034
2764,4573;0,0144468
2765,4216;0,0144879
2766,3857;0,0145242
2767,3501;0,0145575
2768,3142;0,0145909
2769,2786;0,0146261
2770,2427;0,0146611
2771,2070;0,0146917
2772,1711;0,0147143
2773,1355;0,0147295
2774,0996;0,0147423
2775,0640;0,01476
2776,0281;0,0147886
2776,9924;0,0148299
2777,9565;0,0148812
2778,9209;0,0149375
2779,8850;0,0149941
2780,8494;0,0150489
2781,8135;0,0151024
2782,7778;0,0151557
2783,7419;0,015209
2784,7063;0,0152607
2785,6704;0,0153076
2786,6348;0,0153474
2787,5989;0,0153802
2788,5632;0,015409
2789,5273;0,0154397
2790,4917;0,0154782
2791,4558;0,0155286
2792,4202;0,0155912
2793,3843;0,0156622
2794,3486;0,0157351
2795,3127;0,0158036
2796,2771;0,0158643
2797,2412;0,0159183
2798,2056;0,0159706
2799,1697;0,0160277
2800,1340;0,0160944
2801,0981;0,016172
2802,0625;0,0162577
2803,0266;0,0163467
2803,9910;0,0164346
2804,9551;0,0165184
2805,9194;0,0165971
2806,8835;0,0166716
2807,8479;0,0167439
2808,8120;0,0168174
2809,7764;0,0168962
2810,7405;0,016984
2811,7048;0,0170831
2812,6689;0,0171921
2813,6333;0,0173073
2814,5974;0,0174239
2815,5618;0,017539
2816,5259;0,017653
2817,4902;0,0177687
2818,4543;0,0178893
2819,4187;0,0180154
2820,3828;0,018145
2821,3472;0,018275
2822,3113;0,0184045
2823,2756;0,0185361
2824,2397;0,0186756
2825,2041;0,0188289
2826,1682;0,0189992
2827,1326;0,0191856
2828,0967;0,0193849
2829,0610;0,0195943
2830,0251;0,0198135
2830,9895;0,0200443
2831,9536;0,0202883
2832,9180;0,0205442
2833,8821;0,0208076
2834,8464;0,0210737
2835,8105;0,0213412
2836,7749;0,0216148
2837,7390;0,0219047
2838,7034;0,0222245
2839,6675;0,022587
2840,6318;0,0230033
2841,5959;0,023483
2842,5603;0,024033
2843,5244;0,0246538
2844,4888;0,0253325
2845,4529;0,0260357
2846,4172;0,0267088
2847,3813;0,0272857
2848,3457;0,0277072
2849,3098;0,0279404
2850,2742;0,0279904
2851,2383;0,0278968
2852,2026;0,0277167
2853,1667;0,0275047
2854,1311;0,0272969
2855,0952;0,0271082
2856,0596;0,0269391
2857,0237;0,0267877
2857,9880;0,026657
2858,9521;0,026555
2859,9165;0,0264898
2860,8806;0,0264638
2861,8450;0,0264728
2862,8091;0,0265088
2863,7734;0,0265662
2864,7375;0,0266435
2865,7019;0,0267418
2866,6660;0,0268599
2867,6304;0,0269914
2868,5945;0,0271246
2869,5588;0,0272472
2870,5229;0,0273505
2871,4873;0,027432
2872,4514;0,0274939
2873,4158;0,0275404
2874,3799;0,0275755
2875,3442;0,0276027
2876,3083;0,0276263
2877,2727;0,0276513
2878,2368;0,0276828
2879,2012;0,0277242
2880,1653;0,0277767
2881,1296;0,0278399
2882,0938;0,027914
2883,0581;0,0280001
2884,0222;0,0280999
2884,9866;0,0282138
2885,9507;0,0283394
2886,9150;0,0284725
2887,8792;0,0286082
2888,8435;0,0287427
2889,8076;0,0288737
2890,7720;0,0289993
2891,7361;0,0291181
2892,7004;0,0292285
2893,6646;0,0293306
2894,6289;0,0294271
2895,5930;0,0295233
2896,5574;0,029625
2897,5215;0,029736
2898,4858;0,0298558
2899,4500;0,0299795
2900,4143;0,0301004
2901,3784;0,0302144
2902,3428;0,0303235
2903,3069;0,0304361
2904,2712;0,030565
2905,2354;0,0307226
2906,1997;0,0309173
2907,1638;0,0311532
2908,1282;0,0314325
2909,0923;0,0317579
2910,0566;0,0321325
2911,0208;0,0325552
2911,9851;0,0330142
2912,9492;0,0334831
2913,9136;0,033923
2914,8777;0,0342912
2915,8420;0,0345528
2916,8062;0,0346898
2917,7705;0,0347028
2918,7346;0,0346067
2919,6990;0,0344224
2920,6631;0,034171
2921,6274;0,0338701
2922,5916;0,033535
2923,5559;0,0331795
2924,5200;0,0328158
2925,4844;0,0324532
2926,4485;0,032096
2927,4128;0,0317449
2928,3770;0,0313989
2929,3413;0,0310581
2930,3054;0,0307239
2931,2698;0,0303974
2932,2339;0,0300774
2933,1982;0,0297599
2934,1624;0,0294411
2935,1267;0,0291198
2936,0908;0,0287991
2937,0552;0,028484
2938,0193;0,028177
2938,9836;0,0278761
2939,9478;0,0275755
2940,9121;0,0272708
2941,8762;0,0269631
2942,8406;0,0266604
2943,8047;0,0263738
2944,7690;0,0261117
2945,7332;0,0258757
2946,6975;0,0256608
2947,6616;0,0254602
2948,6260;0,0252688
2949,5901;0,025086
2950,5544;0,0249135
2951,5186;0,0247519
2952,4829;0,0245977
2953,4470;0,0244442
2954,4114;0,0242837
2955,3755;0,0241114
2956,3398;0,0239276
2957,3040;0,0237373
2958,2683;0,0235474
2959,2324;0,0233637
2960,1968;0,0231879
2961,1609;0,0230176
2962,1252;0,0228468
2963,0894;0,0226689
2964,0537;0,0224799
2965,0178;0,0222793
2965,9822;0,022071
2966,9463;0,0218614
2967,9106;0,0216572
2968,8748;0,0214626
2969,8391;0,021278
2970,8032;0,0211005
2971,7676;0,0209256
2972,7317;0,0207493
2973,6960;0,0205708
2974,6602;0,0203925
2975,6245;0,0202184
2976,5886;0,020052
2977,5530;0,0198939
2978,5171;0,0197422
2979,4814;0,0195948
2980,4456;0,0194521
2981,4099;0,0193182
2982,3740;0,0191989
2983,3384;0,0190988
2984,3025;0,0190174
2985,2668;0,0189501
2986,2310;0,0188897
2987,1953;0,018831
2988,1594;0,0187729
2989,1238;0,0187181
2990,0879;0,0186705
2991,0522;0,0186324
2992,0164;0,0186032
2992,9807;0,0185802
2993,9448;0,0185601
2994,9092;0,0185414
2995,8733;0,0185244
2996,8376;0,0185117
2997,8018;0,0185068
2998,7661;0,0185125
2999,7302;0,0185302
3000,6946;0,0185581
3001,6587;0,0185919
3002,6230;0,0186266
3003,5872;0,0186595
3004,5515;0,0186918
3005,5156;0,0187286
3006,4800;0,0187756
3007,4441;0,018835
3008,4084;0,0189032
3009,3726;0,0189714
3010,3369;0,0190293
3011,3010;0,0190694
3012,2654;0,0190897
3013,2295;0,0190939
3014,1938;0,0190888
3015,1580;0,0190819
3016,1223;0,0190793
3017,0864;0,0190857
3018,0508;0,0191046
3019,0149;0,019138
3019,9792;0,0191853
3020,9434;0,0192436
3021,9077;0,0193074
3022,8718;0,019372
3023,8362;0,0194358
3024,8003;0,0195029
3025,7646;0,0195813
3026,7288;0,0196786
3027,6931;0,019796
3028,6572;0,0199239
3029,6216;0,0200442
3030,5857;0,0201372
3031,5500;0,0201924
3032,5142;0,0202148
3033,4785;0,0202235
3034,4426;0,0202422
3035,4070;0,0202871
3036,3711;0,0203603
3037,3354;0,0204505
3038,2996;0,0205414
3039,2639;0,0206208
3040,2280;0,0206866
3041,1924;0,0207464
3042,1565;0,0208134
3043,1208;0,0208991
3044,0850;0,0210082
3045,0493;0,0211368
3046,0134;0,0212735
3046,9778;0,0214048
3047,9419;0,0215216
3048,9063;0,0216236
3049,8704;0,0217199
3050,8347;0,0218241
3051,7988;0,0219461
3052,7632;0,0220854
3053,7273;0,0222301
3054,6917;0,0223632
3055,6558;0,022471
3056,6201;0,0225513
3057,5842;0,0226141
3058,5486;0,0226772
3059,5127;0,0227576
3060,4771;0,0228648
3061,4412;0,0229974
3062,4055;0,0231441
3063,3696;0,0232878
3064,3340;0,0234117
3065,2981;0,023506
3066,2625;0,0235725
3067,2266;0,0236238
3068,1909;0,0236777
3069,1550;0,0237491
3070,1194;0,0238433
3071,0835;0,0239555
3072,0479;0,0240749
3073,0120;0,024192
3073,9763;0,0243037
3074,9404;0,0244134
3075,9048;0,0245274
3076,8689;0,0246497
3077,8333;0,0247789
3078,7974;0,0249087
3079,7617;0,0250309
3080,7258;0,025139
3081,6902;0,0252312
3082,6543;0,02531
3083,6187;0,0253816
3084,5828;0,0254526
3085,5471;0,0255275
3086,5112;0,0256072
3087,4756;0,0256899
3088,4397;0,0257743
3089,4041;0,0258619
3090,3682;0,0259581
3091,3325;0,0260695
3092,2966;0,0261992
3093,2610;0,0263443
3094,2251;0,026496
3095,1895;0,0266444
3096,1536;0,0267833
3097,1179;0,0269119
3098,0820;0,0270331
3099,0464;0,027149
3100,0105;0,0272592
3100,9749;0,027361
3101,9390;0,0274529
3102,9033;0,027538
3103,8674;0,0276231
3104,8318;0,0277168
3105,7959;0,0278253
3106,7603;0,0279502
3107,7244;0,0280894
3108,6887;0,0282382
3109,6528;0,0283915
3110,6172;0,0285444
3111,5813;0,0286924
3112,5457;0,0288313
3113,5098;0,0289584
3114,4741;0,0290745
3115,4382;0,0291844
3116,4026;0,0292961
3117,3667;0,0294174
3118,3311;0,029552
3119,2952;0,0296985
3120,2595;0,0298508
3121,2236;0,0300021
3122,1880;0,0301469
3123,1521;0,0302826
3124,1165;0,030408
3125,0806;0,0305227
3126,0449;0,0306272
3127,0090;0,0307247
3127,9734;0,0308219
3128,9375;0,0309278
3129,9019;0,0310497
3130,8660;0,0311895
3131,8303;0,0313423
3132,7944;0,0314984
3133,7588;0,0316487
3134,7229;0,0317888
3135,6873;0,0319203
3136,6514;0,0320487
3137,6157;0,0321797
3138,5798;0,0323171
3139,5442;0,032462
3140,5083;0,0326139
3141,4727;0,0327718
3142,4368;0,0329343
3143,4011;0,0330991
3144,3652;0,0332632
3145,3296;0,0334233
3146,2937;0,0335763
3147,2581;0,0337216
3148,2222;0,0338614
3149,1865;0,0340009
3150,1506;0,0341463
3151,1150;0,0343022
3152,0791;0,0344694
3153,0435;0,0346442
3154,0076;0,0348202
3154,9719;0,0349912
3155,9360;0,0351536
3156,9004;0,0353078
3157,8645;0,0354571
3158,8289;0,0356059
3159,7930;0,0357573
3160,7573;0,0359122
3161,7214;0,0360698
3162,6858;0,036228
3163,6499;0,0363862
3164,6143;0,0365456
3165,5784;0,0367096
3166,5427;0,0368821
3167,5068;0,0370641
3168,4712;0,0372522
3169,4353;0,0372533
3170,3997;0,0374334
3171,3638;0,0376032
3172,3281;0,0377637
3173,2922;0,0379207
3174,2566;0,0380809
3175,2207;0,038249
3176,1851;0,0384255
3177,1492;0,0386071
3178,1135;0,0387894
3179,0776;0,0389691
3180,0420;0,0391447
3181,0061;0,0393156
3181,9705;0,0394818
3182,9346;0,0396434
3183,8989;0,0398018
3184,8630;0,0399588
3185,8274;0,0401159
3186,7915;0,0402734
3187,7559;0,0404294
3188,7200;0,0405818
3189,6843;0,0407307
3190,6484;0,0408791
3191,6128;0,0410324
3192,5769;0,041195
3193,5413;0,0413675
3194,5054;0,0415458
3195,4697;0,0417232
3196,4338;0,0418946
3197,3982;0,0420592
3198,3623;0,0422206
3199,3267;0,0423831
3200,2908;0,0425484
3201,2551;0,0427142
3202,2192;0,0428751
3203,1836;0,043027
3204,1477;0,0431692
3205,1121;0,0433054
3206,0762;0,043442
3207,0405;0,0435849
3208,0046;0,0437376
3208,9690;0,0438999
3209,9331;0,0440686
3210,8975;0,0442394
3211,8616;0,044409
3212,8259;0,0445758
3213,7900;0,0447393
3214,7544;0,0448985
3215,7185;0,0450519
3216,6829;0,0451971
3217,6470;0,0453339
3218,6113;0,0454651
3219,5754;0,0455969
3220,5398;0,045736
3221,5039;0,0458863
3222,4683;0,0460467
3223,4324;0,0462121
3224,3967;0,0463775
3225,3608;0,0465404
3226,3252;0,046702
3227,2893;0,0468648
3228,2537;0,04703
3229,2178;0,0471964
3230,1821;0,0473609
3231,1462;0,0475202
3232,1106;0,0476726
3233,0747;0,0478176
3234,0391;0,0479567
3235,0032;0,0480931
3235,9675;0,048233
3236,9316;0,0483837
3237,8960;0,0485504
3238,8601;0,0487322
3239,8245;0,0489203
3240,7886;0,0491016
3241,7529;0,0492656
3242,7170;0,0494106
3243,6814;0,0495449
3244,6455;0,0496814
3245,6099;0,0498294
3246,5740;0,0499903
3247,5383;0,0501575
3248,5024;0,0503235
3249,4668;0,050486
3250,4309;0,0506493
3251,3953;0,0508206
3252,3594;0,0510036
3253,3237;0,0511949
3254,2878;0,0513861
3255,2522;0,0515683
3256,2163;0,0517375
3257,1807;0,0518955
3258,1448;0,0520474
3259,1091;0,0521985
3260,0732;0,0523526
3261,0376;0,0525119
3262,0017;0,0526784
3262,9661;0,0528541
3263,9302;0,0530397
3264,8945;0,0532329
3265,8586;0,0534281
3266,8230;0,0536177
3267,7871;0,0537953
3268,7515;0,0539576
3269,7156;0,0541049
3270,6799;0,054239
3271,6440;0,0543614
3272,6084;0,0544721
3273,5725;0,0545708
3274,5369;0,0546589
3275,5010;0,0547407
3276,4653;0,0548216
3277,4294;0,054905
3278,3938;0,0549884
3279,3579;0,0550643
3280,3223;0,0551245
3281,2864;0,0551657
3282,2507;0,0551935
3283,2148;0,0552209
3284,1792;0,0552616
3285,1433;0,0553226
3286,1077;0,0554006
3287,0718;0,0554831
3288,0361;0,0555549
3289,0002;0,0556046
3289,9646;0,0556278
3290,9287;0,0556279
3291,8931;0,0556136
3292,8572;0,0555954
3293,8215;0,0555833
3294,7856;0,0555835
3295,7500;0,0555965
3296,7141;0,0556171
3297,6785;0,0556362
3298,6426;0,0556442
3299,6069;0,0556361
3300,5710;0,0556141
3301,5354;0,0555874
3302,4995;0,0555683
3303,4639;0,0555667
3304,4280;0,0555856
3305,3923;0,0556203
3306,3564;0,0556602
3307,3208;0,0556942
3308,2849;0,0557152
3309,2493;0,055722
3310,2134;0,0557182
3311,1777;0,0557097
3312,1418;0,0557016
3313,1062;0,055698
3314,0703;0,0557033
3315,0347;0,0557235
3315,9988;0,0557658
3316,9631;0,0558362
3317,9272;0,0559356
3318,8916;0,0560585
3319,8557;0,0561936
3320,8201;0,0563275
3321,7842;0,0564496
3322,7485;0,0565551
3323,7126;0,0566449
3324,6770;0,0567237
3325,6411;0,0567958
3326,6055;0,056863
3327,5696;0,0569247
3328,5339;0,0569806
3329,4980;0,0570329
3330,4624;0,057086
3331,4265;0,0571448
3332,3909;0,0572099
3333,3550;0,0572748
3334,3193;0,0573261
3335,2834;0,0573482
3336,2478;0,0573297
3337,2119;0,0572687
3338,1763;0,0571732
3339,1404;0,0570569
3340,1047;0,0569333
3341,0688;0,0568118
3342,0332;0,0566962
3342,9973;0,0565858
3343,9617;0,0564782
3344,9258;0,0563702
3345,8901;0,0562591
3346,8542;0,0561433
3347,8186;0,0560221
3348,7827;0,055896
3349,7471;0,0557658
3350,7112;0,0556319
3351,6755;0,0554942
3352,6396;0,0553525
3353,6040;0,0552075
3354,5681;0,0550618
3355,5325;0,0549192
3356,4966;0,0547829
3357,4609;0,0546546
3358,4250;0,0545338
3359,3894;0,0544188
3360,3535;0,0543077
3361,3179;0,0541978
3362,2820;0,0540853
3363,2463;0,0539638
3364,2104;0,0538258
3365,1748;0,0536654
3366,1389;0,0534812
3367,1033;0,0532782
3368,0674;0,0530662
3369,0317;0,0528561
3369,9958;0,0526565
3370,9602;0,0524712
3371,9243;0,0523
3372,8887;0,0521395
3373,8528;0,0519857
3374,8171;0,0518356
3375,7813;0,0516886
3376,7456;0,0515468
3377,7097;0,0514136
3378,6741;0,0512909
3379,6382;0,0511763
3380,6025;0,0510615
3381,5667;0,0509348
3382,5310;0,0507862
3383,4951;0,0506146
3384,4595;0,0504316
3385,4236;0,0502586
3386,3879;0,0501179
3387,3521;0,0500212
3388,3164;0,0499631
3389,2805;0,0499221
3390,2449;0,0498695
3391,2090;0,0497807
3392,1733;0,0496453
3393,1375;0,049469
3394,1018;0,0492686
3395,0659;0,0490624
3396,0303;0,0488645
3396,9944;0,0486827
3397,9587;0,0485199
3398,9229;0,0483746
3399,8872;0,0482405
3400,8513;0,0481059
3401,8157;0,0479566
3402,7798;0,0477807
3403,7441;0,0475747
3404,7083;0,0473456
3405,6726;0,0471089
3406,6367;0,0468825
3407,6011;0,0466799
3408,5652;0,0465058
3409,5295;0,046354
3410,4937;0,0462089
3411,4580;0,0460524
3412,4221;0,0458723
3413,3865;0,0456699
3414,3506;0,045461
3415,3149;0,0452684
3416,2791;0,0451097
3417,2434;0,044984
3418,2075;0,0448694
3419,1719;0,0447313
3420,1360;0,0445409
3421,1003;0,0442911
3422,0645;0,0439994
3423,0288;0,0436967
3423,9929;0,0434091
3424,9573;0,0431477
3425,9214;0,0429096
3426,8857;0,0426856
3427,8499;0,042468
3428,8142;0,042254
3429,7783;0,0420436
3430,7427;0,0418357
3431,7068;0,0416257
3432,6711;0,0414081
3433,6353;0,0411803
3434,5996;0,0409458
3435,5637;0,0407128
3436,5281;0,0404899
3437,4922;0,040282
3438,4565;0,0400893
3439,4207;0,0399107
3440,3850;0,0397471
3441,3491;0,0396021
3442,3135;0,0394761
3443,2776;0,0393597
3444,2419;0,0392302
3445,2061;0,0390568
3446,1704;0,0388155
3447,1345;0,0385039
3448,0989;0,0381471
3449,0630;0,0377841
3450,0273;0,0374482
3450,9915;0,0371541
3451,9558;0,0369
3452,9199;0,0366767
3453,8843;0,0364764
3454,8484;0,036296
3455,8127;0,0361348
3456,7769;0,0359905
3457,7412;0,0358552
3458,7053;0,0357161
3459,6697;0,0355595
3460,6338;0,0353751
3461,5981;0,0351602
3462,5623;0,0349196
3463,5266;0,034662
3464,4907;0,0343953
3465,4551;0,0341229
3466,4192;0,0338456
3467,3835;0,0335662
3468,3477;0,0332934
3469,3120;0,0330396
3470,2761;0,0328131
3471,2405;0,0326109
3472,2046;0,0324184
3473,1689;0,0322192
3474,1331;0,0320095
3475,0974;0,0318054
3476,0615;0,0316341
3477,0259;0,031513
3477,9900;0,0314325
3478,9543;0,0313534
3479,9185;0,0312256
3480,8828;0,0310168
3481,8469;0,0307359
3482,8113;0,0304289
3483,7754;0,030148
3484,7397;0,0299195
3485,7039;0,0297324
3486,6682;0,0295514
3487,6323;0,0293448
3488,5967;0,0291062
3489,5608;0,0288586
3490,5251;0,0286364
3491,4893;0,028461
3492,4536;0,0283263
3493,4177;0,028205
3494,3821;0,0280681
3495,3462;0,0279095
3496,3105;0,0277554
3497,2747;0,0276488
3498,2390;0,0276171
3499,2031;0,0276451
3500,1675;0,0276716
3501,1316;0,0276124
3502,0959;0,0274074
3503,0601;0,0270666
3504,0244;0,026674
3504,9885;0,0263338
3505,9529;0,0261046
3506,9170;0,025971
3507,8813;0,0258629
3508,8455;0,0256975
3509,8098;0,0254273
3510,7739;0,0250657
3511,7383;0,0246739
3512,7024;0,0243178
3513,6667;0,024034
3514,6309;0,0238237
3515,5952;0,0236693
3516,5593;0,0235565
3517,5237;0,0234866
3518,4878;0,0234741
3519,4521;0,0235303
3520,4163;0,0236457
3521,3806;0,0237814
3522,3447;0,023878
3523,3091;0,0238789
3524,2732;0,0237538
3525,2375;0,0235044
3526,2017;0,0231527
3527,1660;0,0227265
3528,1301;0,0222562
3529,0945;0,0217815
3530,0586;0,0213527
3531,0229;0,0210153
3531,9871;0,020791
3532,9514;0,0206663
3533,9155;0,020594
3534,8799;0,020509
3535,8440;0,0203587
3536,8083;0,0201346
3537,7725;0,0198834
3538,7368;0,0196831
3539,7009;0,0196019
3540,6653;0,0196672
3541,6294;0,0198533
3542,5938;0,0200815
3543,5579;0,0202332
3544,5222;0,0201925
3545,4863;0,0199155
3546,4507;0,0194696
3547,4148;0,0189904
3548,3792;0,0185907
3549,3433;0,0183045
3550,3076;0,0180921
3551,2717;0,0178801
3552,2361;0,0176122
3553,2002;0,0172887
3554,1646;0,0169664
3555,1287;0,0167148
3556,0930;0,0165713
3557,0571;0,0165296
3558,0215;0,0165587
3558,9856;0,0166313
3559,9500;0,0167456
3560,9141;0,0169257
3561,8784;0,0171965
3562,8425;0,0175502
3563,8069;0,0179111
3564,7710;0,0181061
3565,7354;0,0178961
3566,6995;0,0171586
3567,6638;0,0160892
3568,6279;0,0150855
3569,5923;0,01441
3570,5564;0,0140662
3571,5208;0,0139196
3572,4849;0,0138369
3573,4492;0,0137449
3574,4133;0,0136304
3575,3777;0,0135141
3576,3418;0,0134186
3577,3062;0,0133497
3578,2703;0,0132989
3579,2346;0,0132629
3580,1987;0,0132571
3581,1631;0,0133082
3582,1272;0,0134332
3583,0916;0,0136219
3584,0557;0,0138284
3585,0200;0,0139589
3585,9841;0,0138824
3586,9485;0,0135302
3587,9126;0,0130327
3588,8770;0,0126584
3589,8411;0,0125746
3590,8054;0,0127447
3591,7695;0,0130159
3592,7339;0,0132291
3593,6980;0,0132814
3594,6624;0,0131589
3595,6265;0,0129347
3596,5908;0,0127031
3597,5549;0,0124986
3598,5193;0,0122815
3599,4834;0,0119959
3600,4478;0,01164
3601,4119;0,0112844
3602,3762;0,0110143
3603,3403;0,010858
3604,3047;0,010765
3605,2688;0,0106331
3606,2332;0,0103532
3607,1973;0,0098675
3608,1616;0,00922795
3609,1257;0,00859192
3610,0901;0,00812943
3611,0542;0,00792554
3612,0186;0,0079566
3612,9827;0,00812847
3613,9470;0,00832888
3614,9111;0,00846481
3615,8755;0,00847653
3616,8396;0,00833735
3617,8040;0,00805813
3618,7681;0,00771196
3619,7324;0,00744933
3620,6965;0,00743006
3621,6609;0,00769572
3622,6250;0,00812913
3623,5894;0,0085387
3624,5535;0,00876389
3625,5178;0,00872113
3626,4819;0,00838167
3627,4463;0,00773692
3628,4104;0,00686955
3629,3748;0,00606194
3630,3389;0,00560367
3631,3032;0,00549145
3632,2673;0,00549145
3633,2317;0,00538499
3634,1958;0,00509741
3635,1602;0,00468839
3636,1243;0,00427337
3637,0886;0,00393901
3638,0527;0,00370487
3639,0171;0,00354476
3639,9812;0,00343272
3640,9456;0,00336776
3641,9097;0,00336114
3642,8740;0,00340784
3643,8381;0,00347668
3644,8025;0,00352571
3645,7666;0,00350609
3646,7310;0,00330359
3647,6951;0,00267541
3648,6594;0,00148241
3649,6235;0,000139571
3650,5879;-0,000696613
3651,5520;-0,000873929
3652,5164;-0,000705503
3653,4805;-0,000541238
3654,4448;-0,000555784
3655,4089;-0,000738326
3656,3733;-0,00096027
3657,3374;-0,00108025
3658,3018;-0,00104842
3659,2659;-0,000927969
3660,2302;-0,000816674
3661,1943;-0,000758029
3662,1587;-0,000721463
3663,1228;-0,000653172
3664,0872;-0,000543061
3665,0513;-0,000439001
3666,0156;-0,000406147
3666,9797;-0,000475457
3667,9441;-0,000633047
3668,9082;-0,00083713
3669,8726;-0,00102065
3670,8367;-0,00111823
3671,8010;-0,00113465
3672,7651;-0,00114533
3673,7295;-0,00122725
3674,6936;-0,00141042
3675,6580;-0,00163622
3676,6221;-0,001745
3677,5864;-0,00161635
3678,5505;-0,00130259
3679,5149;-0,000947624
3680,4790;-0,000644886
3681,4434;-0,000400531
3682,4075;-0,000186396
3683,3718;-2,2655E-06
3684,3359;0,000112197
3685,3003;0,000118741
3686,2644;2,82253E-05
3687,2288;-9,867E-05
3688,1929;-0,000200058
3689,1572;-0,000232133
3690,1213;-0,000131898
3691,0857;0,000149922
3692,0498;0,000572427
3693,0142;0,00103352
3693,9783;0,00144959
3694,9426;0,00178517
3695,9067;0,00203521
3696,8711;0,00220041
3697,8352;0,00227906
3698,7996;0,00227379
3699,7637;0,00220081
3700,7280;0,00209472
3701,6921;0,00200869
3702,6565;0,00200004
3703,6206;0,00209484
3704,5850;0,00226242
3705,5491;0,00243241
3706,5134;0,0025334
3707,4775;0,00250828
3708,4419;0,00228748
3709,4060;0,00176234
3710,3704;0,000871222
3711,3345;-0,000200537
3712,2988;-0,00103917
3713,2629;-0,00134696
3714,2273;-0,00113583
3715,1914;-0,000596259
3716,1558;8,5203E-05
3717,1199;0,000802941
3718,0842;0,00152509
3719,0483;0,00225449
3720,0127;0,00299229
3720,9768;0,00371829
3721,9412;0,00438582
3722,9053;0,00492653
3723,8696;0,00526838
3724,8337;0,00537044
3725,7981;0,00525256
3726,7622;0,00498451
3727,7266;0,00464358
3728,6907;0,00429213
3729,6550;0,00399257
3730,6191;0,00382322
3731,5835;0,00384708
3732,5476;0,00401816
3733,5120;0,00409786
3734,4761;0,00377352
3735,4404;0,00301034
3736,4045;0,00216673
3737,3689;0,00160847
3738,3330;0,00137579
3739,2974;0,00124918
3740,2615;0,000968311
3741,2258;0,000379995
3742,1899;-0,000503647
3743,1543;-0,00150104
3744,1184;-0,00231042
3745,0828;-0,00266839
3746,0469;-0,002564
3747,0112;-0,00225158
3747,9753;-0,00204748
3748,9397;-0,00216754
3749,9038;-0,00266055
3750,8682;-0,00332516
3751,8323;-0,00375054
3752,7966;-0,00367384
3753,7607;-0,00320577
3754,7251;-0,00264218
3755,6892;-0,00222485
3756,6536;-0,00206638
3757,6177;-0,00216489
3758,5820;-0,00242242
3759,5461;-0,00267768
3760,5105;-0,00279196
3761,4746;-0,00272843
3762,4390;-0,00254643
3763,4031;-0,00234161
3764,3674;-0,00219832
3765,3315;-0,0021701
3766,2959;-0,00227441
3767,2600;-0,00249398
3768,2244;-0,00278367
3769,1885;-0,00307815
3770,1528;-0,00329951
3771,1169;-0,00337939
3772,0813;-0,00329462
3773,0454;-0,00308635
3774,0098;-0,00283881
3774,9739;-0,00263692
3775,9382;-0,00253505
3776,9023;-0,00254824
3777,8667;-0,00265217
3778,8308;-0,00278052
3779,7952;-0,00284406
3780,7593;-0,0027851
3781,7236;-0,00261898
3782,6877;-0,00242122
3783,6521;-0,00228216
3784,6162;-0,0022633
3785,5806;-0,00236905
3786,5447;-0,00254623
3787,5090;-0,00271426
3788,4731;-0,00280882
3789,4375;-0,00280964
3790,4016;-0,00273778
3791,3660;-0,00263017
3792,3301;-0,00251126
3793,2944;-0,00238127
3794,2585;-0,00222903
3795,2229;-0,0020596
3796,1870;-0,00191284
3797,1514;-0,00185564
3798,1155;-0,00195196
3799,0798;-0,00222838
3800,0439;-0,00264653
3801,0083;-0,00309294
3801,9724;-0,00342509
3802,9368;-0,00358085
3803,9009;-0,00363288
3804,8652;-0,00370923
3805,8293;-0,00386636
3806,7937;-0,00402612
3807,7578;-0,00402612
3808,7222;-0,0037658
3809,6863;-0,0033154
3810,6506;-0,00286756
3811,6147;-0,00259755
3812,5791;-0,00256369
3813,5432;-0,00269347
3814,5076;-0,00283974
3815,4717;-0,00287378
3816,4360;-0,00276745
3817,4001;-0,00261244
3818,3645;-0,00255843
3819,3286;-0,00271113
3820,2930;-0,00303963
3821,2571;-0,00335611
3822,2214;-0,00344363
3823,1855;-0,00324181
3824,1499;-0,00287522
3825,1140;-0,00252748
3826,0784;-0,00232299
3827,0425;-0,0022877
3828,0068;-0,00236986
3828,9709;-0,00248799
3829,9353;-0,00257776
3830,8994;-0,0026156
3831,8638;-0,00261379
3832,8279;-0,00259914
3833,7922;-0,00259116
3834,7563;-0,00259117
3835,7207;-0,00258753
3836,6848;-0,00257268
3837,6492;-0,00255281
3838,6133;-0,00253454
3839,5776;-0,00251588
3840,5417;-0,00250432
3841,5061;-0,00252582
3842,4702;-0,00259331
3843,4346;-0,00266945
3844,3987;-0,00267203
3845,3630;-0,00252985
3846,3271;-0,0022454
3847,2915;-0,00191061
3848,2556;-0,00166608
3849,2200;-0,0016401
3850,1841;-0,00191006
3851,1484;-0,00250781
3852,1125;-0,00341967
3853,0769;-0,00443097
3854,0410;-0,00502181
3855,0054;-0,00484406
3855,9695;-0,0040978
3856,9338;-0,00321197
3857,8979;-0,00248763
3858,8623;-0,00202329
3859,8264;-0,00177925
3860,7908;-0,00166803
3861,7549;-0,00163011
3862,7192;-0,00165827
3863,6833;-0,00175565
3864,6477;-0,00189057
3865,6118;-0,002011
3866,5762;-0,00208106
3867,5403;-0,0020916
3868,5046;-0,00205907
3869,4688;-0,00202802
3870,4331;-0,00205616
3871,3972;-0,00217168
3872,3616;-0,00234458
3873,3257;-0,00250788
3874,2900;-0,00260239
3875,2542;-0,00260104
3876,2185;-0,00250351
3877,1826;-0,00232199
3878,1470;-0,00207751
3879,1111;-0,00181038
3880,0754;-0,00158481
3881,0396;-0,00147097
3882,0039;-0,00151855
3882,9680;-0,00174032
3883,9324;-0,00209823
3884,8965;-0,00249343
3885,8608;-0,00279303
3886,8250;-0,00290307
3887,7893;-0,00282704
3888,7534;-0,00265156
3889,7178;-0,0024843
3890,6819;-0,0023955
3891,6462;-0,00237785
3892,6104;-0,00234809
3893,5747;-0,00222192
3894,5388;-0,00199313
3895,5032;-0,00172231
3896,4673;-0,00147161
3897,4316;-0,00126952
3898,3958;-0,00112288
3899,3601;-0,00104059
3900,3242;-0,0010419
3901,2886;-0,00115337
3902,2527;-0,00140081
3903,2170;-0,00178106
3904,1812;-0,00223008
3905,1455;-0,00264287
3906,1096;-0,00294133
3907,0740;-0,00311343
3908,0381;-0,00319064
3909,0024;-0,00320452
3909,9666;-0,00316327
3910,9309;-0,0030557
3911,8950;-0,0028703
3912,8594;-0,0026148
3913,8235;-0,00232733
3914,7878;-0,0020753
3915,7520;-0,00193673
3916,7163;-0,00195731
3917,6804;-0,00210234
3918,6448;-0,00226014
3919,6089;-0,00231617
3920,5732;-0,00223137
3921,5374;-0,00205772
3922,5017;-0,00189828
3923,4658;-0,00184387
3924,4302;-0,0019131
3925,3943;-0,00203573
3926,3586;-0,00210404
3927,3228;-0,00205041
3928,2871;-0,00188825
3929,2512;-0,00170369
3930,2156;-0,001616
3931,1797;-0,00171515
3932,1440;-0,00200005
3933,1082;-0,00237316
3934,0725;-0,00270599
3935,0366;-0,00291083
3936,0010;-0,00296181
3936,9651;-0,00287656
3937,9294;-0,00269379
3938,8936;-0,00246251
3939,8579;-0,00223837
3940,8220;-0,00207418
3941,7864;-0,00199863
3942,7505;-0,00199626
3943,7148;-0,00201363
3944,6790;-0,00199784
3945,6433;-0,00193574
3946,6074;-0,00186542
3947,5718;-0,00185592
3948,5359;-0,00196567
3949,5002;-0,00220035
3950,4644;-0,00250249
3951,4287;-0,00278593
3952,3928;-0,00298474
3953,3572;-0,00307715
3954,3213;-0,00307812
3955,2856;-0,00301837
3956,2498;-0,00292675
3957,2141;-0,002824
3958,1782;-0,00272744
3959,1426;-0,00265833
3960,1067;-0,0026417
3961,0710;-0,00269498
3962,0352;-0,00281297
3962,9995;-0,0029631
3963,9636;-0,00309834
3964,9280;-0,00317924
3965,8921;-0,00319166
3966,8564;-0,00314881
3967,8206;-0,00307961
3968,7849;-0,0030112
3969,7490;-0,00295648
3970,7134;-0,00291409
3971,6775;-0,00287895
3972,6418;-0,0028535
3973,6060;-0,00285012
3974,5703;-0,00288258
3975,5344;-0,00295363
3976,4988;-0,00304922
3977,4629;-0,00314453
3978,4272;-0,00321748
3979,3914;-0,00326073
3980,3557;-0,00328448
3981,3198;-0,00330838
3982,2842;-0,00334707
3983,2483;-0,00339841
3984,2126;-0,00344274
3985,1768;-0,00345406
3986,1411;-0,0034162
3987,1052;-0,00333391
3988,0696;-0,0032326
3989,0337;-0,00314603
3989,9980;-0,00310059
3990,9622;-0,00310424
3991,9265;-0,00314697
3992,8906;-0,00321051
3993,8550;-0,0032792
3994,8191;-0,00334487
3995,7834;-0,00340465
3996,7476;-0,00345602
3997,7119;-0,0034943
3998,6760;-0,0035143
3999,6404;-0,00351362
4000,6045;-0,00320345

##### Extended Information
[Comments]
Sample name
Comment
Username
Division
Organization;UNIVERSIDAD INDUSTRIAL DE SANTANDER

[Detailed Information]
Creation date;28/02/2025 4:15 p.m.

Data array type;Linear data array
Horizontal axis;Wavenumber [cm-1]
Vertical axis;Abs
Start;399,193 cm-1
End;4000,6 cm-1
Data interval;0,964233 cm-1
Data points;3736    

[Measurement Information]
Model name;FT/IR-4X1typeA
Serial No.;A035162111

Accessory;ATR PRO 4X
Accessory S/N;A021162126
Incident angle;45 deg

Measurement date;28/02/2025 4:15 p.m.

Light source;Standard
Detector;TGS
Accumulation;40
Resolution;4 cm-1
Zero filling;On
Apodization;Cosine
Gain;Auto (8)
Aperture;Auto (7 mm)
Scan speed;Auto (2 mm/sec)
Filter;Auto (12800 Hz)

