TITLE;
DATA TYPE;INFRARED SPECTRUM
ORIGIN;JASCO
OWNER;
DATE;25/02/28
TIME;16:25:31
SPECTROMETER/DATA SYSTEM;
LOCALE;9226
RESOLUTION;
DELTAX;0,964233
XUNITS;1/CM
YUNITS;ABSORBANCE
FIRSTX;  399,1927
LASTX; 4000,6047
NPOINTS;    3736
FIRSTY;     0,16680
MAXY;     0,21644
MINY;    -0,00595
XYDATA
399,1927;0,166801
400,1569;0,163839
401,1211;0,16063
402,0854;0,157715
403,0496;0,155253
404,0138;0,153239
404,9781;0,151668
405,9423;0,150582
406,9065;0,150007
407,8708;0,149861
408,8350;0,149912
409,7992;0,149865
410,7635;0,149526
411,7277;0,148953
412,6919;0,148464
413,6562;0,148473
414,6204;0,149298
415,5846;0,151062
416,5489;0,153609
417,5131;0,15635
418,4773;0,158276
419,4416;0,158648
420,4058;0,157815
421,3700;0,156803
422,3343;0,156314
423,2985;0,156454
424,2627;0,156959
425,2270;0,157465
426,1912;0,157708
427,1554;0,157636
428,1197;0,157376
429,0839;0,157099
430,0481;0,156919
431,0124;0,156869
431,9766;0,156931
432,9408;0,157088
433,9051;0,157317
434,8693;0,157563
435,8335;0,157733
436,7978;0,157744
437,7620;0,157594
438,7262;0,157391
439,6905;0,157297
440,6547;0,157418
441,6189;0,157707
442,5832;0,157936
443,5474;0,15781
444,5116;0,157168
445,4759;0,156112
446,4401;0,154951
447,4043;0,154011
448,3686;0,153474
449,3328;0,153321
450,2970;0,153381
451,2613;0,15345
452,2255;0,15341
453,1897;0,153263
454,1540;0,153088
455,1182;0,152955
456,0824;0,15286
457,0467;0,152719
458,0109;0,152415
458,9751;0,151885
459,9394;0,151165
460,9036;0,150367
461,8678;0,149628
462,8321;0,149087
463,7963;0,14886
464,7605;0,148996
465,7248;0,149424
466,6890;0,149944
467,6532;0,150308
468,6175;0,150332
469,5817;0,149962
470,5459;0,149295
471,5102;0,148532
472,4744;0,147885
473,4386;0,147466
474,4029;0,147234
475,3671;0,147061
476,3313;0,146843
477,2956;0,146574
478,2598;0,146354
479,2240;0,14634
480,1883;0,146645
481,1525;0,147258
482,1167;0,148012
483,0810;0,148651
484,0452;0,148961
485,0094;0,148899
485,9737;0,148625
486,9379;0,148386
487,9021;0,148376
488,8664;0,148657
489,8306;0,149167
490,7948;0,149781
491,7591;0,150368
492,7233;0,150832
493,6875;0,151124
494,6518;0,151238
495,6160;0,151207
496,5802;0,151105
497,5445;0,151025
498,5087;0,151056
499,4729;0,151244
500,4372;0,151572
501,4014;0,151966
502,3656;0,152329
503,3299;0,152589
504,2941;0,152722
505,2583;0,152744
506,2226;0,152694
507,1868;0,15263
508,1510;0,152626
509,1153;0,152763
510,0795;0,153102
511,0437;0,153662
512,0080;0,154416
512,9722;0,155303
513,9365;0,156251
514,9007;0,157181
515,8649;0,158007
516,8292;0,15864
517,7934;0,159014
518,7576;0,159133
519,7219;0,159091
520,6861;0,159037
521,6503;0,159096
522,6146;0,159321
523,5788;0,159668
524,5430;0,160017
525,5073;0,16023
526,4715;0,160223
527,4357;0,160016
528,4000;0,159706
529,3642;0,159394
530,3284;0,15913
531,2927;0,158912
532,2569;0,158717
533,2211;0,158533
534,1854;0,158371
535,1496;0,158245
536,1138;0,158156
537,0781;0,158082
538,0423;0,158002
539,0065;0,157918
539,9708;0,157859
540,9350;0,157865
541,8992;0,157953
542,8635;0,15811
543,8277;0,158305
544,7919;0,158518
545,7562;0,158753
546,7204;0,15903
547,6846;0,15935
548,6489;0,159687
549,6131;0,159994
550,5773;0,160239
551,5416;0,160436
552,5058;0,16064
553,4700;0,160913
554,4343;0,161285
555,3985;0,161728
556,3627;0,162155
557,3270;0,162455
558,2912;0,162528
559,2554;0,162319
560,2197;0,161826
561,1839;0,161109
562,1481;0,160268
563,1124;0,159417
564,0766;0,158642
565,0408;0,157975
566,0051;0,157393
566,9693;0,156848
567,9335;0,156309
568,8978;0,155795
569,8620;0,155376
570,8262;0,155127
571,7905;0,155085
572,7547;0,155227
573,7189;0,155472
574,6832;0,155721
575,6474;0,155896
576,6116;0,155969
577,5759;0,155961
578,5401;0,155918
579,5043;0,155872
580,4686;0,155822
581,4328;0,155739
582,3970;0,155581
583,3613;0,155329
584,3255;0,155006
585,2897;0,154683
586,2540;0,154452
587,2182;0,154402
588,1824;0,154572
589,1467;0,154936
590,1109;0,155396
591,0751;0,155809
592,0394;0,156041
593,0036;0,156014
593,9678;0,155739
594,9321;0,155287
595,8963;0,154747
596,8605;0,15419
597,8248;0,153657
598,7890;0,153169
599,7532;0,152736
600,7175;0,152365
601,6817;0,152055
602,6459;0,151795
603,6102;0,151564
604,5744;0,151344
605,5386;0,151119
606,5029;0,15086
607,4671;0,150525
608,4313;0,150063
609,3956;0,149452
610,3598;0,148748
611,3240;0,148099
612,2883;0,147696
613,2525;0,147679
614,2167;0,148029
615,1810;0,148527
616,1452;0,148807
617,1094;0,148521
618,0737;0,147516
619,0379;0,145924
620,0021;0,144071
620,9664;0,142298
621,9306;0,140817
622,8948;0,139672
623,8591;0,138793
624,8233;0,137997
625,7875;0,137354
626,7518;0,136828
627,7160;0,136408
628,6802;0,13606
629,6445;0,135738
630,6087;0,135389
631,5729;0,134981
632,5372;0,134513
633,5014;0,134015
634,4656;0,133539
635,4299;0,133138
636,3941;0,13285
637,3583;0,132674
638,3226;0,132577
639,2868;0,132501
640,2510;0,132395
641,2153;0,132239
642,1795;0,132052
643,1437;0,131884
644,1080;0,131779
645,0722;0,131748
646,0364;0,131759
647,0007;0,131754
647,9649;0,131675
648,9291;0,131487
649,8934;0,131193
650,8576;0,130829
651,8218;0,130454
652,7861;0,130141
653,7503;0,129957
654,7145;0,129939
655,6788;0,130064
656,6430;0,13026
657,6072;0,130447
658,5715;0,130584
659,5357;0,130666
660,4999;0,130659
661,4642;0,13044
662,4284;0,129783
663,3926;0,128448
664,3569;0,126384
665,3211;0,124014
666,2853;0,122377
667,2496;0,122585
668,2138;0,124399
669,1780;0,12612
670,1423;0,126858
671,1065;0,126858
672,0707;0,126269
673,0350;0,125084
673,9992;0,123474
674,9634;0,121766
675,9277;0,120233
676,8919;0,118946
677,8561;0,117804
678,8204;0,116676
679,7846;0,115513
680,7488;0,114346
681,7131;0,113241
682,6773;0,112241
683,6415;0,111355
684,6058;0,110574
685,5700;0,109885
686,5342;0,109271
687,4985;0,10871
688,4627;0,108187
689,4269;0,107669
690,3912;0,107148
691,3554;0,106631
692,3196;0,106128
693,2839;0,105638
694,2481;0,105146
695,2123;0,104633
696,1766;0,104086
697,1408;0,103515
698,1050;0,102942
699,0693;0,102397
700,0335;0,101903
700,9977;0,101462
701,9620;0,101056
702,9262;0,100651
703,8904;0,100189
704,8547;0,0996657
705,8189;0,0990954
706,7831;0,0985039
707,7474;0,0979114
708,7116;0,0973225
709,6758;0,0967259
710,6401;0,0961036
711,6043;0,0954435
712,5685;0,0947536
713,5328;0,094072
714,4970;0,0934639
715,4612;0,0914112
716,4255;0,0914558
717,3897;0,091753
718,3539;0,092068
719,3182;0,0920721
720,2824;0,0915017
721,2466;0,0903138
722,2109;0,0887172
723,1751;0,0870492
724,1393;0,0855982
725,1036;0,0844933
726,0678;0,0837022
727,0320;0,0831046
727,9963;0,0825795
728,9605;0,0820575
729,9247;0,08152
730,8890;0,0809679
731,8532;0,0803965
732,8174;0,0797973
733,7817;0,0791757
734,7459;0,0785621
735,7101;0,078003
736,6744;0,0775375
737,6386;0,0771747
738,6028;0,0768872
739,5671;0,0766226
740,5313;0,076326
741,4955;0,0759621
742,4598;0,0755275
743,4240;0,0750473
744,3882;0,0745585
745,3525;0,0740878
746,3167;0,0736378
747,2809;0,0731889
748,2452;0,0727165
749,2094;0,0722111
750,1736;0,0716873
751,1379;0,0711736
752,1021;0,0706922
753,0663;0,0702439
754,0306;0,0698092
754,9948;0,069365
755,9590;0,0689024
756,9233;0,068433
757,8875;0,0679795
758,8517;0,0675589
759,8160;0,0671724
760,7802;0,0668079
761,7444;0,0664514
762,7087;0,0660973
763,6729;0,0657502
764,6371;0,0654184
765,6014;0,0651064
766,5656;0,0648111
767,5298;0,0645245
768,4941;0,0642385
769,4583;0,0639477
770,4225;0,0636495
771,3868;0,0633423
772,3510;0,0630266
773,3152;0,0627063
774,2795;0,0623896
775,2437;0,0620876
776,2079;0,0618095
777,1722;0,0615574
778,1364;0,0613246
779,1006;0,0610978
780,0649;0,0608618
781,0291;0,060605
781,9933;0,0603225
782,9576;0,060017
783,9218;0,0596966
784,8860;0,0593728
785,8503;0,0590578
786,8145;0,0587631
787,7787;0,0584979
788,7430;0,0582682
789,7072;0,0580752
790,6714;0,0579148
791,6357;0,0577777
792,5999;0,0576507
793,5641;0,0575195
794,5284;0,0573713
795,4926;0,0571987
796,4568;0,0570026
797,4211;0,0567942
798,3853;0,0565937
799,3495;0,0564247
800,3138;0,0563046
801,2780;0,0562363
802,2422;0,0562035
803,2065;0,0561757
804,1707;0,0561192
805,1349;0,0560098
806,0992;0,0558407
807,0634;0,0556213
808,0276;0,0553709
808,9919;0,05511
809,9561;0,0548567
810,9203;0,0546254
811,8846;0,0544278
812,8488;0,0542719
813,8130;0,0541587
814,7773;0,0540799
815,7415;0,0540198
816,7057;0,0539607
817,6700;0,0538889
818,6342;0,0537985
819,5984;0,0536904
820,5627;0,0535698
821,5269;0,0534442
822,4911;0,0533232
823,4554;0,0532183
824,4196;0,0531407
825,3839;0,0530956
826,3481;0,053079
827,3123;0,0530773
828,2766;0,0530737
829,2408;0,0530554
830,2050;0,0530171
831,1693;0,0529584
832,1335;0,0528775
833,0977;0,0527668
834,0620;0,0526157
835,0262;0,0524179
835,9904;0,0521783
836,9547;0,0519133
837,9189;0,0516437
838,8831;0,0513854
839,8474;0,0511442
840,8116;0,0509179
841,7758;0,0507024
842,7401;0,0504969
843,7043;0,0503046
844,6685;0,0501295
845,6328;0,0499737
846,5970;0,0498374
847,5612;0,0497205
848,5255;0,0496229
849,4897;0,0495421
850,4539;0,0494696
851,4182;0,0493927
852,3824;0,0492999
853,3466;0,0491902
854,3109;0,0490756
855,2751;0,0489771
856,2393;0,0489131
857,2036;0,0488904
858,1678;0,0489019
859,1320;0,0489336
860,0963;0,0489725
861,0605;0,0490123
862,0247;0,0490514
862,9890;0,0490903
863,9532;0,0491293
864,9174;0,0491709
865,8817;0,0492228
866,8459;0,0492965
867,8101;0,0494014
868,7744;0,0495385
869,7386;0,0496971
870,7028;0,0498582
871,6671;0,0500013
872,6313;0,0501119
873,5955;0,0501834
874,5598;0,0502174
875,5240;0,0502215
876,4882;0,0502075
877,4525;0,0501906
878,4167;0,0501881
879,3809;0,0502169
880,3452;0,0502921
881,3094;0,0504253
882,2736;0,0506244
883,2379;0,0508937
884,2021;0,0512337
885,1663;0,0516424
886,1306;0,0521177
887,0948;0,0526596
888,0590;0,0532703
889,0233;0,0539511
889,9875;0,0546967
890,9517;0,0554904
891,9160;0,0563034
892,8802;0,0570978
893,8444;0,0578324
894,8087;0,0584669
895,7729;0,0589651
896,7371;0,059297
897,7014;0,0594425
898,6656;0,059396
899,6298;0,0591698
900,5941;0,0587927
901,5583;0,0583044
902,5225;0,0577458
903,4868;0,0571519
904,4510;0,0565482
905,4152;0,0559533
906,3795;0,0553844
907,3437;0,0548622
908,3079;0,0544113
909,2722;0,0540554
910,2364;0,05381
911,2007;0,0536758
912,1649;0,0536376
913,1292;0,0536703
914,0934;0,053748
915,0576;0,0538535
916,0219;0,0539813
916,9861;0,0541344
917,9503;0,0543168
918,9146;0,0545264
919,8788;0,0547525
920,8430;0,0549786
921,8073;0,0551884
922,7715;0,0553719
923,7357;0,055528
924,7000;0,0556635
925,6642;0,0557883
926,6284;0,0559099
927,5927;0,0560295
928,5569;0,0561418
929,5211;0,0562375
930,4854;0,0563094
931,4496;0,0563564
932,4138;0,056385
933,3781;0,0564079
934,3423;0,0564395
935,3065;0,0564921
936,2708;0,0565743
937,2350;0,056691
938,1992;0,0568451
939,1635;0,0570391
940,1277;0,0572772
941,0919;0,0575645
942,0562;0,0579067
943,0204;0,0583069
943,9846;0,0587637
944,9489;0,0592705
945,9131;0,0598174
946,8773;0,060397
947,8416;0,0610086
948,8058;0,0616608
949,7700;0,062368
950,7343;0,0631444
951,6985;0,0639988
952,6627;0,0649328
953,6270;0,0659444
954,5912;0,0670323
955,5554;0,0681981
956,5197;0,0694442
957,4839;0,070769
958,4481;0,0721627
959,4124;0,0736075
960,3766;0,0750818
961,3408;0,0765665
962,3051;0,0780515
963,2693;0,0795375
964,2335;0,0810354
965,1978;0,0825623
966,1620;0,0841356
967,1262;0,0857684
968,0905;0,0874676
969,0547;0,0892355
970,0189;0,0910766
970,9832;0,0930051
971,9474;0,0950498
972,9116;0,0972519
973,8759;0,0996571
974,8401;0,102304
975,8043;0,105213
976,7686;0,108388
977,7328;0,111811
978,6970;0,115446
979,6613;0,119237
980,6255;0,123104
981,5897;0,126941
982,5540;0,13063
983,5182;0,134054
984,4824;0,137127
985,4467;0,139809
986,4109;0,142109
987,3751;0,144071
988,3394;0,145754
989,3036;0,14721
990,2678;0,14848
991,2321;0,149592
992,1963;0,150568
993,1605;0,151434
994,1248;0,152218
995,0890;0,152948
996,0532;0,153651
997,0175;0,154347
997,9817;0,155047
998,9459;0,155759
999,9102;0,156483
1000,8744;0,157217
1001,8386;0,157962
1002,8029;0,158727
1003,7671;0,159537
1004,7313;0,160435
1005,6956;0,161477
1006,6598;0,162726
1007,6240;0,164242
1008,5883;0,166065
1009,5525;0,168207
1010,5167;0,170647
1011,4810;0,173328
1012,4452;0,176169
1013,4094;0,179074
1014,3737;0,181951
1015,3379;0,184726
1016,3021;0,18735
1017,2664;0,1898
1018,2306;0,192081
1019,1948;0,194214
1020,1591;0,19623
1021,1233;0,198165
1022,0875;0,200058
1023,0518;0,201946
1024,0160;0,203858
1024,9802;0,205801
1025,9445;0,207761
1026,9087;0,209694
1027,8729;0,211537
1028,8372;0,213212
1029,8014;0,214632
1030,7656;0,215704
1031,7299;0,216335
1032,6941;0,21644
1033,6583;0,215967
1034,6226;0,214921
1035,5868;0,213378
1036,5510;0,211481
1037,5153;0,209413
1038,4795;0,207367
1039,4437;0,205509
1040,4080;0,203961
1041,3722;0,20279
1042,3364;0,202004
1043,3007;0,201557
1044,2649;0,20136
1045,2291;0,201295
1046,1934;0,201242
1047,1576;0,201099
1048,1218;0,200792
1049,0861;0,200276
1050,0503;0,199526
1051,0145;0,198527
1051,9788;0,197272
1052,9430;0,19577
1053,9072;0,19404
1054,8715;0,19211
1055,8357;0,189995
1056,7999;0,187679
1057,7642;0,185118
1058,7284;0,182252
1059,6926;0,179041
1060,6569;0,175494
1061,6211;0,171679
1062,5853;0,16772
1063,5496;0,163759
1064,5138;0,159928
1065,4780;0,156327
1066,4423;0,153012
1067,4065;0,150001
1068,3707;0,14728
1069,3350;0,144818
1070,2992;0,142563
1071,2634;0,14046
1072,2277;0,138447
1073,1919;0,136472
1074,1561;0,134489
1075,1204;0,132474
1076,0846;0,130417
1077,0488;0,128332
1078,0131;0,126249
1078,9773;0,12421
1079,9415;0,122264
1080,9058;0,120453
1081,8700;0,118813
1082,8342;0,117358
1083,7985;0,116086
1084,7627;0,114982
1085,7269;0,114024
1086,6912;0,11319
1087,6554;0,112468
1088,6196;0,111848
1089,5839;0,11133
1090,5481;0,110914
1091,5123;0,110604
1092,4766;0,110405
1093,4408;0,110324
1094,4050;0,110363
1095,3693;0,110516
1096,3335;0,110769
1097,2977;0,111105
1098,2620;0,111508
1099,2262;0,111964
1100,1904;0,112457
1101,1547;0,112962
1102,1189;0,113439
1103,0831;0,113843
1104,0474;0,114132
1105,0116;0,114281
1105,9758;0,114291
1106,9401;0,114173
1107,9043;0,11394
1108,8685;0,113587
1109,8328;0,11309
1110,7970;0,112412
1111,7612;0,11152
1112,7255;0,110409
1113,6897;0,109108
1114,6539;0,107682
1115,6182;0,106221
1116,5824;0,104811
1117,5466;0,103515
1118,5109;0,10236
1119,4751;0,101326
1120,4393;0,100356
1121,4036;0,0993726
1122,3678;0,0982951
1123,3320;0,097057
1124,2963;0,0956192
1125,2605;0,0939743
1126,2247;0,0921426
1127,1890;0,0901628
1128,1532;0,0880809
1129,1174;0,0859408
1130,0817;0,0837812
1131,0459;0,0816351
1132,0101;0,0795333
1132,9744;0,077507
1133,9386;0,0755887
1134,9028;0,0738116
1135,8671;0,0722082
1136,8313;0,0708064
1137,7955;0,0696263
1138,7598;0,0686767
1139,7240;0,0679535
1140,6882;0,0674403
1141,6525;0,0671126
1142,6167;0,0669421
1143,5809;0,0669025
1144,5452;0,0669729
1145,5094;0,0671396
1146,4736;0,0673954
1147,4379;0,0677372
1148,4021;0,0681624
1149,3663;0,0686666
1150,3306;0,0692415
1151,2948;0,069875
1152,2590;0,0705514
1153,2233;0,0712504
1154,1875;0,0719448
1155,1517;0,0725977
1156,1160;0,0731607
1157,0802;0,0735745
1158,0444;0,0737731
1159,0087;0,0736884
1159,9729;0,0732568
1160,9371;0,0724263
1161,9014;0,071166
1162,8656;0,0694751
1163,8298;0,0673895
1164,7941;0,0649819
1165,7583;0,0623526
1166,7225;0,0596154
1167,6868;0,0568805
1168,6510;0,0542411
1169,6152;0,0517657
1170,5795;0,0494963
1171,5437;0,0474518
1172,5079;0,0456339
1173,4722;0,0440333
1174,4364;0,0426344
1175,4006;0,041419
1176,3649;0,0403677
1177,3291;0,0394616
1178,2933;0,0386834
1179,2576;0,0380198
1180,2218;0,0374618
1181,1860;0,037004
1182,1503;0,036642
1183,1145;0,0363694
1184,0787;0,0361767
1185,0430;0,0360526
1186,0072;0,0359868
1186,9714;0,0359739
1187,9357;0,0360146
1188,8999;0,0361146
1189,8641;0,0362819
1190,8284;0,0365231
1191,7926;0,0368419
1192,7568;0,037239
1193,7211;0,0377124
1194,6853;0,038258
1195,6495;0,0388682
1196,6138;0,039531
1197,5780;0,0402294
1198,5422;0,0409439
1199,5065;0,0414369
1200,4707;0,0421616
1201,4349;0,0428683
1202,3992;0,043556
1203,3634;0,0442254
1204,3276;0,0448764
1205,2919;0,0455083
1206,2561;0,0461229
1207,2203;0,0467281
1208,1846;0,0473382
1209,1488;0,0479708
1210,1130;0,0486411
1211,0773;0,0493581
1212,0415;0,0501235
1213,0057;0,0509336
1213,9700;0,0517828
1214,9342;0,0526647
1215,8984;0,0535723
1216,8627;0,0544953
1217,8269;0,0554195
1218,7911;0,0563309
1219,7554;0,0572174
1220,7196;0,0580697
1221,6838;0,0588819
1222,6481;0,0596497
1223,6123;0,0603705
1224,5765;0,0610441
1225,5408;0,0616737
1226,5050;0,0622661
1227,4692;0,0628286
1228,4335;0,0633658
1229,3977;0,063876
1230,3619;0,0643511
1231,3262;0,0647795
1232,2904;0,0651507
1233,2546;0,0654593
1234,2189;0,0657077
1235,1831;0,0659045
1236,1473;0,0660634
1237,1116;0,0661986
1238,0758;0,0663211
1239,0400;0,0664352
1240,0043;0,0665362
1240,9685;0,0666113
1241,9327;0,0666438
1242,8970;0,0666184
1243,8612;0,0665259
1244,8254;0,0663649
1245,7897;0,0661414
1246,7539;0,0658651
1247,7181;0,0655474
1248,6824;0,0651991
1249,6466;0,06483
1250,6108;0,064448
1251,5751;0,0640598
1252,5393;0,0636711
1253,5035;0,0632879
1254,4678;0,0629157
1255,4320;0,0625558
1256,3962;0,0622022
1257,3605;0,06184
1258,3247;0,0614484
1259,2889;0,0610086
1260,2532;0,0605119
1261,2174;0,0599637
1262,1816;0,0593791
1263,1459;0,0587756
1264,1101;0,0581654
1265,0743;0,057552
1266,0386;0,0569313
1267,0028;0,056294
1267,9670;0,0556279
1268,9313;0,0549211
1269,8955;0,0541657
1270,8597;0,0533615
1271,8240;0,0525188
1272,7882;0,0516572
1273,7524;0,0508018
1274,7167;0,0499779
1275,6809;0,0492059
1276,6451;0,0484963
1277,6094;0,047847
1278,5736;0,0472418
1279,5378;0,0466561
1280,5021;0,0460676
1281,4663;0,0454681
1282,4305;0,0448684
1283,3948;0,0442935
1284,3590;0,043769
1285,3232;0,0433081
1286,2875;0,0429066
1287,2517;0,0425481
1288,2159;0,0422166
1289,1802;0,0419084
1290,1444;0,041635
1291,1086;0,0414168
1292,0729;0,0412729
1293,0371;0,0412129
1294,0013;0,041235
1294,9656;0,041329
1295,9298;0,0414816
1296,8940;0,0416818
1297,8583;0,0419241
1298,8225;0,0422089
1299,7867;0,0425415
1300,7510;0,0429296
1301,7152;0,043383
1302,6794;0,0439056
1303,6437;0,0444932
1304,6079;0,045135
1305,5721;0,0458164
1306,5364;0,0465251
1307,5006;0,0472566
1308,4648;0,048014
1309,4291;0,0487998
1310,3933;0,0496064
1311,3575;0,0504106
1312,3218;0,0511778
1313,2860;0,0518731
1314,2502;0,0524715
1315,2145;0,0529565
1316,1787;0,0533095
1317,1429;0,0535037
1318,1072;0,0535117
1319,0714;0,0533272
1320,0356;0,0529838
1320,9999;0,0525507
1321,9641;0,0521072
1322,9283;0,0517142
1323,8926;0,0514017
1324,8568;0,051172
1325,8210;0,05101
1326,7853;0,0508944
1327,7495;0,0508018
1328,7137;0,0507101
1329,6780;0,0505999
1330,6422;0,0504622
1331,6064;0,0503082
1332,5707;0,0501707
1333,5349;0,0500968
1334,4991;0,0501231
1335,4634;0,0502463
1336,4276;0,0503967
1337,3918;0,0504314
1338,3561;0,0501774
1339,3203;0,0495354
1340,2845;0,0485716
1341,2488;0,0474896
1342,2130;0,046501
1343,1772;0,0457271
1344,1415;0,04519
1345,1057;0,0448531
1346,0699;0,0446603
1347,0342;0,0445626
1347,9984;0,0445331
1348,9626;0,0445691
1349,9269;0,0446813
1350,8911;0,0448786
1351,8553;0,0451553
1352,8196;0,045491
1353,7838;0,0458607
1354,7480;0,0462511
1355,7123;0,0466731
1356,6765;0,0471593
1357,6407;0,0477458
1358,6050;0,0484494
1359,5692;0,0492457
1360,5334;0,0500489
1361,4977;0,0507211
1362,4619;0,0511473
1363,4261;0,0513333
1364,3904;0,0514031
1365,3546;0,0514927
1366,3188;0,0516675
1367,2831;0,051921
1368,2473;0,052211
1369,2115;0,0524937
1370,1758;0,0527393
1371,1400;0,0529267
1372,1042;0,0530254
1373,0685;0,0529877
1374,0327;0,0527703
1374,9969;0,0523759
1375,9612;0,0518578
1376,9254;0,0512656
1377,8896;0,0505976
1378,8539;0,0498186
1379,8181;0,0489194
1380,7823;0,0479572
1381,7466;0,0470373
1382,7108;0,0462477
1383,6750;0,0456033
1384,6393;0,0450388
1385,6035;0,0444447
1386,5677;0,0437371
1387,5320;0,0429401
1388,4962;0,0421906
1389,4604;0,0416262
1390,4247;0,0412902
1391,3889;0,0411513
1392,3531;0,0411672
1393,3174;0,0413032
1394,2816;0,0415049
1395,2458;0,0416778
1396,2101;0,0417208
1397,1743;0,0415922
1398,1385;0,041344
1399,1028;0,0410955
1400,0670;0,040966
1401,0313;0,0410145
1401,9955;0,0412227
1402,9597;0,0415206
1403,9240;0,0418299
1404,8882;0,0421068
1405,8524;0,0423663
1406,8167;0,0426626
1407,7809;0,0430374
1408,7451;0,0434887
1409,7094;0,0439886
1410,6736;0,0445218
1411,6378;0,0451045
1412,6021;0,0457678
1413,5663;0,0465208
1414,5305;0,0473297
1415,4948;0,0481262
1416,4590;0,0488163
1417,4232;0,049284
1418,3875;0,0494579
1419,3517;0,0494325
1420,3159;0,0494258
1421,2802;0,0495508
1422,2444;0,0497258
1423,2086;0,0497927
1424,1729;0,0496511
1425,1371;0,0493019
1426,1013;0,048807
1427,0656;0,0482215
1428,0298;0,0475625
1428,9940;0,0468334
1429,9583;0,0460693
1430,9225;0,0453368
1431,8867;0,0446712
1432,8510;0,0440255
1433,8152;0,04329
1434,7794;0,0423588
1435,7437;0,0412171
1436,7079;0,0400328
1437,6721;0,0391145
1438,6364;0,0386623
1439,6006;0,0386169
1440,5648;0,0387845
1441,5291;0,0390145
1442,4933;0,0392602
1443,4575;0,0395433
1444,4218;0,0398908
1445,3860;0,0402936
1446,3502;0,0407099
1447,3145;0,041104
1448,2787;0,0414866
1449,2429;0,0419122
1450,2072;0,0424212
1451,1714;0,0429834
1452,1356;0,043509
1453,0999;0,0439127
1454,0641;0,0441635
1455,0283;0,0442528
1455,9926;0,044063
1456,9568;0,0434112
1457,9210;0,0425339
1458,8853;0,0420177
1459,8495;0,0420178
1460,8137;0,0422345
1461,7780;0,0423381
1462,7422;0,0421438
1463,7064;0,0416015
1464,6707;0,040784
1465,6349;0,0398846
1466,5991;0,0390994
1467,5634;0,0384628
1468,5276;0,0378585
1469,4918;0,0371492
1470,4561;0,0362472
1471,4203;0,0350882
1472,3845;0,0336142
1473,3488;0,0318986
1474,3130;0,0302302
1475,2772;0,0288806
1476,2415;0,027896
1477,2057;0,0271778
1478,1699;0,0266184
1479,1342;0,0261482
1480,0984;0,0257304
1481,0626;0,025357
1482,0269;0,0250525
1482,9911;0,024867
1483,9553;0,0248526
1484,9196;0,0250433
1485,8838;0,0254454
1486,8480;0,0260089
1487,8123;0,0265675
1488,7765;0,0268607
1489,7407;0,0267815
1490,7050;0,0265487
1491,6692;0,0264519
1492,6334;0,026591
1493,5977;0,0269278
1494,5619;0,0274231
1495,5261;0,0280784
1496,4904;0,0288877
1497,4546;0,0297996
1498,4188;0,0307638
1499,3831;0,0317538
1500,3473;0,032695
1501,3115;0,0334531
1502,2758;0,0339284
1503,2400;0,0341651
1504,2042;0,0344216
1505,1685;0,0351014
1506,1327;0,0363013
1507,0969;0,0372834
1508,0612;0,0373429
1509,0254;0,0368343
1509,9896;0,0362793
1510,9539;0,0358004
1511,9181;0,0353614
1512,8823;0,0349432
1513,8466;0,0345432
1514,8108;0,0341273
1515,7750;0,0336191
1516,7393;0,0329456
1517,7035;0,0320902
1518,6677;0,0311006
1519,6320;0,030068
1520,5962;0,0291146
1521,5604;0,0283768
1522,5247;0,0279432
1523,4889;0,0277837
1524,4531;0,0277637
1525,4174;0,0277433
1526,3816;0,0276663
1527,3458;0,0275674
1528,3101;0,0275083
1529,2743;0,0275194
1530,2385;0,0276028
1531,2028;0,02776
1532,1670;0,0279895
1533,1312;0,0282598
1534,0955;0,0285107
1535,0597;0,0286722
1536,0239;0,0286791
1536,9882;0,0285207
1537,9524;0,0283194
1538,9166;0,0283297
1539,8809;0,0287036
1540,8451;0,0291916
1541,8093;0,0294702
1542,7736;0,0295713
1543,7378;0,029591
1544,7020;0,0295425
1545,6663;0,0294614
1546,6305;0,0294157
1547,5947;0,0294413
1548,5590;0,0295061
1549,5232;0,0295366
1550,4874;0,0294772
1551,4517;0,0293326
1552,4159;0,0291517
1553,3801;0,0289638
1554,3444;0,0287378
1555,3086;0,0284108
1556,2728;0,0279287
1557,2371;0,0272027
1558,2013;0,0261229
1559,1655;0,0250515
1560,1298;0,0247942
1561,0940;0,0254702
1562,0582;0,0265553
1563,0225;0,0275816
1563,9867;0,0283409
1564,9509;0,028812
1565,9152;0,0290663
1566,8794;0,0292059
1567,8436;0,0293268
1568,8079;0,0295046
1569,7721;0,0297904
1570,7363;0,0301862
1571,7006;0,030625
1572,6648;0,0310162
1573,6290;0,031324
1574,5933;0,031594
1575,5575;0,0319021
1576,5217;0,0322979
1577,4860;0,0328139
1578,4502;0,0334493
1579,4144;0,0341301
1580,3787;0,03476
1581,3429;0,0352975
1582,3071;0,0357696
1583,2714;0,0362388
1584,2356;0,0367606
1585,1998;0,0373593
1586,1641;0,0380255
1587,1283;0,0387283
1588,0925;0,039428
1589,0568;0,0400846
1590,0210;0,0406632
1590,9852;0,0411349
1591,9495;0,0414727
1592,9137;0,0416486
1593,8779;0,0416425
1594,8422;0,04146
1595,8064;0,0411454
1596,7706;0,0407704
1597,7349;0,0404046
1598,6991;0,0400884
1599,6633;0,0398256
1600,6276;0,0395952
1601,5918;0,0393757
1602,5560;0,0391657
1603,5203;0,0389862
1604,4845;0,0388574
1605,4487;0,0387735
1606,4130;0,0386973
1607,3772;0,0385849
1608,3414;0,0384242
1609,3057;0,0382555
1610,2699;0,0381394
1611,2341;0,0380931
1612,1984;0,0380653
1613,1626;0,0379793
1614,1268;0,0377959
1615,0911;0,03755
1616,0553;0,0373574
1617,0195;0,0373831
1617,9838;0,0377226
1618,9480;0,0382932
1619,9122;0,0389018
1620,8765;0,039389
1621,8407;0,0396948
1622,8049;0,0398451
1623,7692;0,0399143
1624,7334;0,0399824
1625,6976;0,0400926
1626,6619;0,0402458
1627,6261;0,0404345
1628,5903;0,0406613
1629,5546;0,040917
1630,5188;0,0411541
1631,4830;0,041305
1632,4473;0,0413351
1633,4115;0,0412779
1634,3757;0,0411953
1635,3400;0,0411028
1636,3042;0,0410273
1637,2684;0,0410959
1638,2327;0,041374
1639,1969;0,0417661
1640,1611;0,0421329
1641,1254;0,042387
1642,0896;0,0425043
1643,0538;0,0425091
1644,0181;0,042453
1644,9823;0,0423675
1645,9465;0,0422209
1646,9108;0,041986
1647,8750;0,0417172
1648,8392;0,0414287
1649,8035;0,0410213
1650,7677;0,0403843
1651,7319;0,0394545
1652,6962;0,0382184
1653,6604;0,0369705
1654,6246;0,0363506
1655,5889;0,0365027
1656,5531;0,0369739
1657,5173;0,0373202
1658,4816;0,0373368
1659,4458;0,0369985
1660,4100;0,0363662
1661,3743;0,0355467
1662,3385;0,0347049
1663,3027;0,0340315
1664,2670;0,0336202
1665,2312;0,0334076
1666,1954;0,0332443
1667,1597;0,0329801
1668,1239;0,0325026
1669,0881;0,03178
1670,0524;0,0309208
1671,0166;0,0301131
1671,9808;0,0294376
1672,9451;0,0288214
1673,9093;0,0281785
1674,8735;0,0275501
1675,8378;0,0271128
1676,8020;0,0270314
1677,7662;0,0272886
1678,7305;0,0276834
1679,6947;0,0279624
1680,6589;0,027923
1681,6232;0,0274251
1682,5874;0,0263879
1683,5516;0,0249355
1684,5159;0,0235868
1685,4801;0,0228774
1686,4443;0,0227974
1687,4086;0,0229594
1688,3728;0,0230204
1689,3370;0,0228402
1690,3013;0,0224495
1691,2655;0,0219641
1692,2297;0,0215113
1693,1940;0,0211884
1694,1582;0,0210396
1695,1224;0,0210282
1696,0867;0,0210172
1697,0509;0,0208159
1698,0151;0,0203173
1698,9794;0,0196405
1699,9436;0,0191023
1700,9078;0,0189791
1701,8721;0,0192947
1702,8363;0,01985
1703,8005;0,0203968
1704,7648;0,0207739
1705,7290;0,0209578
1706,6932;0,0210475
1707,6575;0,0211913
1708,6217;0,0214889
1709,5859;0,02195
1710,5502;0,0225281
1711,5144;0,0231715
1712,4786;0,023845
1713,4429;0,024516
1714,4071;0,0251119
1715,3713;0,0254719
1716,3356;0,0254027
1717,2998;0,024951
1718,2640;0,0245284
1719,2283;0,0245055
1720,1925;0,0248893
1721,1567;0,0254655
1722,1210;0,0260244
1723,0852;0,0264552
1724,0494;0,0267565
1725,0137;0,0270113
1725,9779;0,0273329
1726,9421;0,0277952
1727,9064;0,0283858
1728,8706;0,0290077
1729,8348;0,0295152
1730,7991;0,0297528
1731,7633;0,0295859
1732,7275;0,0289718
1733,6918;0,0280924
1734,6560;0,0273283
1735,6202;0,0269285
1736,5845;0,0268195
1737,5487;0,0267788
1738,5129;0,026651
1739,4772;0,0264175
1740,4414;0,026158
1741,4056;0,0259595
1742,3699;0,0258383
1743,3341;0,025735
1744,2983;0,0255732
1745,2626;0,0253104
1746,2268;0,0249334
1747,1910;0,0244072
1748,1553;0,0236354
1749,1195;0,0225177
1750,0837;0,0211079
1751,0480;0,0196648
1752,0122;0,0184625
1752,9764;0,0175999
1753,9407;0,0170079
1754,9049;0,0165605
1755,8691;0,0161557
1756,8334;0,0157404
1757,7976;0,0152948
1758,7618;0,0148031
1759,7261;0,0142413
1760,6903;0,0136014
1761,6545;0,0129293
1762,6188;0,0123272
1763,5830;0,0118952
1764,5472;0,0116641
1765,5115;0,0115853
1766,4757;0,0115702
1767,4399;0,0115328
1768,4042;0,0114112
1769,3684;0,0111721
1770,3326;0,0108114
1771,2969;0,0103644
1772,2611;0,00992392
1773,2253;0,00961653
1774,1896;0,00951803
1775,1538;0,00959708
1776,1180;0,00975321
1777,0823;0,00988935
1778,0465;0,00995205
1779,0107;0,0099325
1779,9750;0,00984855
1780,9392;0,00972379
1781,9034;0,00957333
1782,8677;0,0094055
1783,8319;0,00923877
1784,7961;0,00911404
1785,7604;0,00908077
1786,7246;0,00916423
1787,6888;0,0093463
1788,6531;0,00957607
1789,6173;0,00979051
1790,5815;0,00992376
1791,5458;0,00992374
1792,5100;0,00980415
1793,4742;0,00966421
1794,4385;0,0095985
1795,4027;0,00961328
1796,3669;0,00965617
1797,3312;0,00968494
1798,2954;0,00969247
1799,2596;0,00968444
1800,2239;0,00964923
1801,1881;0,00955966
1802,1523;0,00940505
1803,1166;0,00921278
1804,0808;0,00903775
1805,0450;0,00893482
1806,0093;0,00893359
1806,9735;0,00902389
1807,9377;0,00915553
1808,9020;0,00925572
1809,8662;0,00926406
1810,8304;0,00916945
1811,7947;0,00901664
1812,7589;0,00887096
1813,7231;0,00877446
1814,6874;0,00873055
1815,6516;0,00871662
1816,6158;0,00870543
1817,5801;0,00868454
1818,5443;0,00866661
1819,5085;0,00868198
1820,4728;0,00875679
1821,4370;0,00889384
1822,4012;0,00906693
1823,3655;0,00922954
1824,3297;0,00933767
1825,2939;0,00937527
1826,2582;0,00935784
1827,2224;0,00930851
1828,1866;0,00923292
1829,1509;0,00912121
1830,1151;0,00897899
1831,0793;0,00884959
1832,0436;0,00878628
1833,0078;0,00880359
1833,9720;0,00886742
1834,9363;0,00892402
1835,9005;0,00893375
1836,8647;0,00889413
1837,8290;0,00884184
1838,7932;0,00882688
1839,7574;0,00887961
1840,7217;0,00900174
1841,6859;0,00917567
1842,6501;0,00936584
1843,6144;0,00951761
1844,5786;0,00958472
1845,5428;0,00956484
1846,5071;0,00948134
1847,4713;0,00933998
1848,4355;0,00913025
1849,3998;0,00885818
1850,3640;0,00856433
1851,3282;0,00831034
1852,2925;0,0081473
1853,2567;0,00809213
1854,2209;0,00812779
1855,1852;0,00822153
1856,1494;0,00834217
1857,1136;0,00846594
1858,0779;0,00857186
1859,0421;0,00864007
1860,0063;0,00866068
1860,9706;0,00864736
1861,9348;0,00864081
1862,8990;0,00869473
1863,8633;0,00885265
1864,8275;0,00912868
1865,7917;0,00949152
1866,7560;0,00984837
1867,7202;0,0100549
1868,6844;0,00999386
1869,6487;0,00967735
1870,6129;0,00923869
1871,5771;0,0088199
1872,5414;0,00849715
1873,5056;0,00828826
1874,4698;0,00818377
1875,4341;0,00816165
1876,3983;0,00819139
1877,3625;0,00823961
1878,3268;0,00828178
1879,2910;0,00830975
1880,2552;0,00833144
1881,2195;0,00836356
1882,1837;0,00842198
1883,1479;0,00851397
1884,1122;0,00863469
1885,0764;0,00876838
1886,0406;0,00889217
1887,0049;0,00898105
1887,9691;0,00901514
1888,9333;0,00899125
1889,8976;0,00893175
1890,8618;0,00887668
1891,8260;0,00885875
1892,7903;0,00888276
1893,7545;0,00892488
1894,7188;0,00894855
1895,6830;0,00892634
1896,6472;0,00885652
1897,6115;0,00876308
1898,5757;0,00867867
1899,5399;0,0086255
1900,5042;0,00860823
1901,4684;0,00862026
1902,4326;0,00865572
1903,3969;0,00871804
1904,3611;0,00881823
1905,3253;0,00896339
1906,2896;0,00914272
1907,2538;0,00932043
1908,2180;0,00944347
1909,1823;0,00946602
1910,1465;0,00937921
1911,1107;0,00922124
1912,0750;0,00905587
1913,0392;0,0089386
1914,0034;0,0088979
1914,9677;0,00893703
1915,9319;0,00904489
1916,8961;0,0092063
1917,8604;0,00940782
1918,8246;0,00963451
1919,7888;0,00985826
1920,7531;0,010031
1921,7173;0,0100968
1922,6815;0,0100204
1923,6458;0,00981642
1924,6100;0,00955257
1925,5742;0,0093182
1926,5385;0,0091786
1927,5027;0,0091509
1928,4669;0,00921043
1929,4312;0,00931137
1930,3954;0,00940703
1931,3596;0,00946304
1932,3239;0,00946134
1933,2881;0,0093999
1934,2523;0,00929282
1935,2166;0,00917114
1936,1808;0,00907888
1937,1450;0,00906117
1938,1093;0,00914856
1939,0735;0,00934431
1940,0377;0,00961668
1941,0020;0,00989834
1941,9662;0,0101028
1942,9304;0,0101638
1943,8947;0,0100743
1944,8589;0,00989005
1945,8231;0,00969189
1946,7874;0,00954406
1947,7516;0,00947371
1948,7158;0,00947404
1949,6801;0,00952202
1950,6443;0,00959855
1951,6085;0,00969815
1952,5728;0,00982235
1953,5370;0,00996412
1954,5012;0,010099
1955,4655;0,010193
1956,4297;0,0102225
1957,3939;0,0101919
1958,3582;0,0101354
1959,3224;0,0101012
1960,2866;0,0101282
1961,2509;0,0102285
1962,2151;0,0103838
1963,1793;0,0105552
1964,1436;0,0106957
1965,1078;0,0107635
1966,0720;0,0107329
1967,0363;0,0106058
1968,0005;0,0104132
1968,9647;0,0102015
1969,9290;0,0100094
1970,8932;0,00985526
1971,8574;0,00974226
1972,8217;0,00967336
1973,7859;0,00965995
1974,7501;0,00971339
1975,7144;0,00982589
1976,6786;0,00995665
1977,6428;0,0100436
1978,6071;0,0100391
1979,5713;0,00994181
1980,5355;0,00979904
1981,4998;0,00967993
1982,4640;0,00964144
1983,4282;0,00970633
1984,3925;0,00986076
1985,3567;0,0100702
1986,3209;0,0103036
1987,2852;0,0105497
1988,2494;0,0108137
1989,2136;0,0110941
1990,1779;0,0113581
1991,1421;0,0115387
1992,1063;0,0115671
1993,0706;0,0114216
1994,0348;0,0111524
1994,9990;0,0108608
1995,9633;0,0106473
1996,9275;0,0105644
1997,8917;0,010598
1998,8560;0,0106862
1999,8202;0,0107659
2000,7844;0,0108172
2001,7487;0,0108765
2002,7129;0,0110086
2003,6771;0,0112609
2004,6414;0,0116265
2005,6056;0,012034
2006,5698;0,0123705
2007,5341;0,0125248
2008,4983;0,0124338
2009,4625;0,0121124
2010,4268;0,0116559
2011,3910;0,0112146
2012,3552;0,010944
2013,3195;0,0109444
2014,2837;0,0112128
2015,2479;0,0116377
2016,2122;0,0120514
2017,1764;0,0123237
2018,1406;0,0124318
2019,1049;0,0124538
2020,0691;0,0124877
2021,0333;0,0125648
2021,9976;0,0126201
2022,9618;0,0125384
2023,9260;0,0122395
2024,8903;0,0117458
2025,8545;0,0111841
2026,8187;0,010723
2027,7830;0,0104897
2028,7472;0,010519
2029,7114;0,010756
2030,6757;0,0111
2031,6399;0,0114553
2032,6041;0,0117619
2033,5684;0,011999
2034,5326;0,0121695
2035,4968;0,0122814
2036,4611;0,0123344
2037,4253;0,0123178
2038,3895;0,0122176
2039,3538;0,0120273
2040,3180;0,0117602
2041,2822;0,011451
2042,2465;0,0111443
2043,2107;0,010874
2044,1749;0,0106481
2045,1392;0,0104512
2046,1034;0,0102647
2047,0676;0,01009
2048,0320;0,0099547
2048,9961;0,00989541
2049,9604;0,0099284
2050,9246;0,0100338
2051,8889;0,0101634
2052,8530;0,0102637
2053,8174;0,0103
2054,7815;0,0102702
2055,7458;0,0102017
2056,7100;0,0101339
2057,6743;0,0100963
2058,6384;0,0100969
2059,6028;0,0101249
2060,5669;0,0101636
2061,5313;0,0102023
2062,4954;0,0102403
2063,4597;0,0102829
2064,4238;0,0103329
2065,3882;0,0103855
2066,3523;0,0104278
2067,3167;0,0104421
2068,2808;0,0104122
2069,2451;0,0103284
2070,2092;0,0101939
2071,1736;0,0100277
2072,1377;0,00986344
2073,1021;0,00973929
2074,0662;0,00968255
2075,0305;0,00969562
2075,9946;0,00975265
2076,9590;0,00981106
2077,9231;0,00983262
2078,8875;0,00980277
2079,8516;0,0097368
2080,8159;0,00966943
2081,7800;0,00963503
2082,7444;0,00965068
2083,7085;0,00971151
2084,6729;0,00979845
2085,6370;0,00989154
2086,6013;0,00997866
2087,5654;0,0100562
2088,5298;0,0101237
2089,4939;0,0101797
2090,4583;0,0102207
2091,4224;0,0102442
2092,3867;0,0102509
2093,3508;0,0102438
2094,3152;0,0102262
2095,2793;0,0102013
2096,2437;0,0101736
2097,2078;0,0101499
2098,1721;0,0101358
2099,1362;0,0101301
2100,1006;0,0101224
2101,0647;0,0100941
2102,0291;0,0100368
2102,9932;0,00995922
2103,9575;0,00988803
2104,9216;0,00985446
2105,8860;0,00987463
2106,8501;0,00993756
2107,8145;0,0100098
2108,7786;0,0100542
2109,7429;0,0100512
2110,7070;0,010008
2111,6714;0,00995239
2112,6355;0,00991583
2113,5999;0,00991652
2114,5640;0,00995269
2115,5283;0,010007
2116,4924;0,0100576
2117,4568;0,0100897
2118,4209;0,0101007
2119,3853;0,0100998
2120,3494;0,0101012
2121,3137;0,0101177
2122,2778;0,0101563
2123,2422;0,0102183
2124,2063;0,010302
2125,1707;0,0104044
2126,1348;0,0105203
2127,0991;0,0106395
2128,0632;0,010748
2129,0276;0,0108327
2129,9917;0,0108899
2130,9561;0,0109306
2131,9202;0,0109777
2132,8845;0,0110566
2133,8486;0,0111825
2134,8130;0,0113524
2135,7771;0,0115446
2136,7415;0,0117253
2137,7056;0,011857
2138,6699;0,0119096
2139,6340;0,0118743
2140,5984;0,0117789
2141,5625;0,0116925
2142,5269;0,0117086
2143,4910;0,0119047
2144,4553;0,0122962
2145,4194;0,0128162
2146,3838;0,0133374
2147,3479;0,01373
2148,3123;0,013921
2149,2764;0,0139211
2150,2407;0,0138063
2151,2048;0,0136746
2152,1692;0,0136053
2153,1333;0,0136422
2154,0977;0,0137956
2155,0618;0,0140507
2156,0261;0,0143688
2156,9902;0,014683
2157,9546;0,0149073
2158,9187;0,0149664
2159,8831;0,0148314
2160,8472;0,0145263
2161,8115;0,0141053
2162,7756;0,0136297
2163,7400;0,0131649
2164,7041;0,0127827
2165,6685;0,0125501
2166,6326;0,0125031
2167,5969;0,0126232
2168,5610;0,0128398
2169,5254;0,0130623
2170,4895;0,0132212
2171,4539;0,013296
2172,4180;0,0133125
2173,3823;0,013314
2174,3464;0,0133242
2175,3108;0,0133271
2176,2749;0,0132762
2177,2393;0,0131267
2178,2034;0,0128685
2179,1677;0,0125415
2180,1318;0,0122247
2181,0962;0,0120053
2182,0603;0,0119377
2183,0247;0,0120135
2183,9888;0,0121596
2184,9531;0,0122694
2185,9172;0,012252
2186,8816;0,0120747
2187,8457;0,0117784
2188,8101;0,0114576
2189,7742;0,0112157
2190,7385;0,0111167
2191,7026;0,011159
2192,6670;0,0112813
2193,6311;0,0113947
2194,5955;0,0114225
2195,5596;0,0113283
2196,5239;0,0111252
2197,4880;0,0108652
2198,4524;0,0106187
2199,4165;0,0104499
2200,3809;0,010397
2201,3450;0,0104616
2202,3093;0,0106113
2203,2734;0,0107955
2204,2378;0,0109663
2205,2019;0,0110946
2206,1663;0,0111724
2207,1304;0,0112044
2208,0947;0,011196
2209,0588;0,0111475
2210,0232;0,0110579
2210,9873;0,0109332
2211,9517;0,0107914
2212,9158;0,0106588
2213,8801;0,01056
2214,8442;0,0105077
2215,8086;0,0104981
2216,7727;0,010515
2217,7371;0,0105383
2218,7012;0,0105525
2219,6655;0,0105513
2220,6296;0,0105353
2221,5940;0,0105066
2222,5581;0,0104636
2223,5225;0,0104007
2224,4866;0,0103147
2225,4509;0,0102123
2226,4150;0,0101124
2227,3794;0,0100376
2228,3435;0,0100049
2229,3079;0,0100137
2230,2720;0,0100472
2231,2363;0,0100839
2232,2004;0,0101113
2233,1648;0,0101299
2234,1289;0,0101462
2235,0933;0,0101612
2236,0574;0,0101665
2237,0217;0,0101526
2237,9858;0,0101226
2238,9502;0,0100969
2239,9143;0,0101034
2240,8787;0,0101559
2241,8428;0,0102387
2242,8071;0,0103103
2243,7712;0,0103271
2244,7356;0,0102722
2245,6997;0,0101689
2246,6641;0,0100695
2247,6282;0,010025
2248,5925;0,0100563
2249,5566;0,0101451
2250,5210;0,0102476
2251,4851;0,0103216
2252,4495;0,0103477
2253,4136;0,010333
2254,3779;0,0102993
2255,3420;0,0102659
2256,3064;0,0102409
2257,2705;0,0102232
2258,2349;0,0102102
2259,1990;0,0102025
2260,1633;0,0102025
2261,1274;0,0102094
2262,0918;0,0102179
2263,0559;0,0102209
2264,0203;0,0102147
2264,9844;0,0102005
2265,9487;0,0101823
2266,9128;0,0101622
2267,8772;0,0101393
2268,8413;0,0101133
2269,8057;0,0100875
2270,7698;0,0100692
2271,7341;0,0100636
2272,6982;0,0100669
2273,6626;0,0100656
2274,6267;0,0100429
2275,5911;0,00999027
2276,5552;0,00991564
2277,5195;0,00984142
2278,4836;0,00979349
2279,4480;0,00978836
2280,4121;0,00982702
2281,3765;0,00989936
2282,3406;0,00999533
2283,3049;0,0101146
2284,2690;0,0102682
2285,2334;0,0104727
2286,1975;0,010741
2287,1619;0,0110768
2288,1260;0,0114758
2289,0903;0,0119292
2290,0544;0,0124272
2291,0188;0,0129578
2291,9829;0,0135041
2292,9473;0,0140448
2293,9114;0,0145588
2294,8757;0,0150328
2295,8398;0,0154642
2296,8042;0,0158565
2297,7683;0,0162105
2298,7327;0,0165184
2299,6968;0,016767
2300,6611;0,0169517
2301,6252;0,0170924
2302,5896;0,0172385
2303,5537;0,017459
2304,5181;0,0178148
2305,4822;0,018326
2306,4465;0,0189461
2307,4106;0,0195607
2308,3750;0,0200168
2309,3391;0,0201766
2310,3035;0,019975
2311,2676;0,0194538
2312,2319;0,0187508
2313,1960;0,018044
2314,1604;0,0174797
2315,1245;0,0171229
2316,0889;0,0169541
2317,0530;0,0169029
2318,0173;0,0168926
2318,9814;0,0168733
2319,9458;0,0168359
2320,9099;0,0168113
2321,8743;0,016854
2322,8384;0,017008
2323,8027;0,0172634
2324,7668;0,0175359
2325,7312;0,0176942
2326,6953;0,0176174
2327,6597;0,017247
2328,6238;0,0166086
2329,5881;0,0158038
2330,5522;0,0149791
2331,5166;0,0142769
2332,4807;0,0137821
2333,4451;0,013497
2334,4092;0,0133669
2335,3735;0,0133375
2336,3376;0,0134048
2337,3020;0,0136237
2338,2661;0,0140718
2339,2305;0,0147793
2340,1946;0,0156539
2341,1589;0,0164452
2342,1230;0,016816
2343,0874;0,0166
2344,0515;0,0161277
2345,0159;0,0161277
2345,9800;0,0170667
2346,9443;0,0187034
2347,9084;0,0203352
2348,8728;0,0213107
2349,8369;0,0213565
2350,8013;0,0206385
2351,7654;0,0196189
2352,7297;0,0187718
2353,6938;0,0183146
2354,6582;0,0181817
2355,6223;0,0182343
2356,5867;0,0184017
2357,5508;0,0186308
2358,5151;0,0188211
2359,4792;0,0188673
2360,4436;0,0187332
2361,4077;0,0184399
2362,3721;0,0179931
2363,3362;0,0173632
2364,3005;0,0165437
2365,2646;0,0156021
2366,2290;0,0146554
2367,1931;0,0138008
2368,1575;0,0130733
2369,1216;0,0124616
2370,0859;0,011947
2371,0500;0,0115293
2372,0144;0,0112295
2372,9785;0,0110811
2373,9429;0,0111187
2374,9070;0,0113658
2375,8713;0,0118178
2376,8354;0,0124285
2377,7998;0,0131075
2378,7639;0,0137343
2379,7283;0,0141855
2380,6924;0,0143657
2381,6567;0,0142312
2382,6208;0,0137986
2383,5852;0,013138
2384,5493;0,012352
2385,5137;0,0115496
2386,4778;0,0108213
2387,4421;0,0102242
2388,4063;0,00977883
2389,3706;0,00947642
2390,3347;0,00929166
2391,2991;0,00919395
2392,2632;0,00915435
2393,2275;0,00914855
2394,1917;0,00915784
2395,1560;0,00917017
2396,1201;0,00918099
2397,0845;0,0091924
2398,0486;0,00921197
2399,0129;0,00924233
2399,9771;0,00927859
2400,9414;0,00931037
2401,9055;0,00932548
2402,8699;0,00931982
2403,8340;0,00930121
2404,7983;0,00928693
2405,7625;0,00929421
2406,7268;0,00932867
2407,6909;0,00938101
2408,6553;0,00943212
2409,6194;0,00946332
2410,5837;0,00946849
2411,5479;0,00945651
2412,5122;0,00944517
2413,4763;0,0094499
2414,4407;0,00947482
2415,4048;0,00951066
2416,3691;0,00954069
2417,3333;0,00955077
2418,2976;0,00953738
2419,2617;0,00951003
2420,2261;0,00948636
2421,1902;0,00948233
2422,1545;0,0095056
2423,1187;0,00955174
2424,0830;0,00960718
2425,0471;0,00965606
2426,0115;0,0096871
2426,9756;0,00969745
2427,9399;0,00969234
2428,9041;0,00968188
2429,8684;0,00967683
2430,8325;0,00968502
2431,7969;0,00970875
2432,7610;0,00974355
2433,7253;0,00977905
2434,6895;0,00980269
2435,6538;0,00980566
2436,6179;0,00978833
2437,5823;0,00976163
2438,5464;0,00974252
2439,5107;0,00974532
2440,4749;0,00977387
2441,4392;0,00981925
2442,4033;0,00986468
2443,3677;0,00989467
2444,3318;0,00990284
2445,2961;0,00989417
2446,2603;0,00988086
2447,2246;0,00987491
2448,1887;0,00988196
2449,1531;0,00989945
2450,1172;0,00991956
2451,0815;0,00993434
2452,0457;0,00993995
2453,0100;0,00993798
2453,9741;0,00993363
2454,9385;0,00993278
2455,9026;0,00993967
2456,8669;0,00995613
2457,8311;0,00998159
2458,7954;0,0100129
2459,7595;0,0100437
2460,7239;0,010065
2461,6880;0,0100675
2462,6523;0,0100468
2463,6165;0,0100077
2464,5808;0,00996576
2465,5449;0,00994177
2466,5093;0,009953
2467,4734;0,0100042
2468,4377;0,010084
2469,4019;0,0101694
2470,3662;0,0102358
2471,3303;0,0102684
2472,2947;0,0102684
2473,2588;0,0102513
2474,2231;0,0102381
2475,1873;0,0102442
2476,1516;0,0102716
2477,1157;0,0103093
2478,0801;0,0103405
2479,0442;0,0103526
2480,0085;0,0103434
2480,9727;0,0103203
2481,9370;0,0102947
2482,9011;0,0102755
2483,8655;0,010267
2484,8296;0,0102713
2485,7939;0,0102905
2486,7581;0,0103269
2487,7224;0,0103785
2488,6865;0,010436
2489,6509;0,0104838
2490,6150;0,0105071
2491,5793;0,0104999
2492,5435;0,0104688
2493,5078;0,0104294
2494,4719;0,0103993
2495,4363;0,0103895
2496,4004;0,0104022
2497,3647;0,0104313
2498,3289;0,0104671
2499,2932;0,0104996
2500,2573;0,0105224
2501,2217;0,010534
2502,1858;0,0105381
2503,1501;0,0105415
2504,1143;0,0105503
2505,0786;0,0105656
2506,0427;0,0105836
2507,0071;0,0105985
2507,9712;0,0106065
2508,9355;0,010609
2509,8997;0,0106099
2510,8640;0,0106119
2511,8281;0,010614
2512,7925;0,0106123
2513,7566;0,0106043
2514,7209;0,0105914
2515,6851;0,0105785
2516,6494;0,0105694
2517,6135;0,0105638
2518,5779;0,0105582
2519,5420;0,0105502
2520,5063;0,0105413
2521,4705;0,0105373
2522,4348;0,0105436
2523,3989;0,0105599
2524,3633;0,010579
2525,3274;0,0105908
2526,2917;0,0105883
2527,2559;0,010572
2528,2202;0,0105487
2529,1843;0,0105282
2530,1487;0,0105179
2531,1128;0,010521
2532,0771;0,0105368
2533,0413;0,0105627
2534,0056;0,0105946
2534,9697;0,0106271
2535,9341;0,0106537
2536,8982;0,0106695
2537,8625;0,0106746
2538,8267;0,0106758
2539,7910;0,0106838
2540,7551;0,0107067
2541,7195;0,0107433
2542,6836;0,0107811
2543,6479;0,0108024
2544,6121;0,0107934
2545,5764;0,0107537
2546,5405;0,0106971
2547,5049;0,0106443
2548,4690;0,0106116
2549,4333;0,0106024
2550,3975;0,0106066
2551,3618;0,0106078
2552,3259;0,0105942
2553,2903;0,0105644
2554,2544;0,0105284
2555,2188;0,010501
2556,1829;0,0104947
2557,1472;0,0105136
2558,1113;0,0105522
2559,0757;0,0105984
2560,0398;0,0106382
2561,0042;0,0106616
2561,9683;0,0106659
2562,9326;0,0106555
2563,8967;0,0106386
2564,8611;0,0106217
2565,8252;0,0106062
2566,7896;0,0105891
2567,7537;0,0105676
2568,7180;0,0105445
2569,6821;0,0105292
2570,6465;0,0105328
2571,6106;0,0105597
2572,5750;0,0106019
2573,5391;0,0106406
2574,5034;0,0106565
2575,4675;0,0106409
2576,4319;0,0106021
2577,3960;0,010561
2578,3604;0,0105397
2579,3245;0,0105485
2580,2888;0,0105813
2581,2529;0,0106196
2582,2173;0,0106441
2583,1814;0,0106453
2584,1458;0,0106264
2585,1099;0,0105993
2586,0742;0,0105763
2587,0383;0,0105628
2588,0027;0,0105569
2588,9668;0,0105528
2589,9312;0,0105473
2590,8953;0,0105423
2591,8596;0,0105436
2592,8237;0,0105561
2593,7881;0,0105797
2594,7522;0,0106078
2595,7166;0,0106301
2596,6807;0,0106377
2597,6450;0,0106278
2598,6091;0,0106055
2599,5735;0,0105817
2600,5376;0,0105685
2601,5020;0,0105738
2602,4661;0,0105977
2603,4304;0,010633
2604,3945;0,0106687
2605,3589;0,0106959
2606,3230;0,0107113
2607,2874;0,0107177
2608,2515;0,0107209
2609,2158;0,0107256
2610,1799;0,010733
2611,1443;0,010741
2612,1084;0,0107467
2613,0728;0,0107492
2614,0369;0,0107494
2615,0012;0,0107488
2615,9653;0,0107488
2616,9297;0,0107497
2617,8938;0,0107527
2618,8582;0,0107598
2619,8223;0,0107732
2620,7866;0,010793
2621,7507;0,0108159
2622,7151;0,010836
2623,6792;0,0108483
2624,6436;0,0108519
2625,6077;0,0108506
2626,5720;0,0108509
2627,5361;0,0108577
2628,5005;0,0108721
2629,4646;0,0108912
2630,4290;0,0109114
2631,3931;0,0109305
2632,3574;0,010949
2633,3215;0,0109686
2634,2859;0,0109894
2635,2500;0,0110088
2636,2144;0,0110226
2637,1785;0,0110279
2638,1428;0,0110258
2639,1069;0,0110213
2640,0713;0,0110214
2641,0354;0,0110304
2641,9998;0,0110477
2642,9639;0,0110677
2643,9282;0,0110836
2644,8923;0,0110912
2645,8567;0,0110924
2646,8208;0,0110941
2647,7852;0,0111039
2648,7493;0,0111258
2649,7136;0,0111573
2650,6777;0,0111908
2651,6421;0,011218
2652,6062;0,0112347
2653,5706;0,011242
2654,5347;0,0112461
2655,4990;0,0112543
2656,4631;0,0112719
2657,4275;0,0113006
2658,3916;0,0113387
2659,3560;0,0113824
2660,3201;0,0114275
2661,2844;0,0114703
2662,2485;0,0115078
2663,2129;0,0115391
2664,1770;0,0115649
2665,1414;0,0115879
2666,1055;0,0116116
2667,0698;0,0116388
2668,0339;0,0116698
2668,9983;0,011702
2669,9624;0,0117313
2670,9268;0,0117537
2671,8909;0,0117682
2672,8552;0,0117777
2673,8193;0,0117873
2674,7837;0,0118022
2675,7478;0,0118247
2676,7122;0,0118534
2677,6763;0,0118842
2678,6406;0,0119131
2679,6047;0,0119383
2680,5691;0,0119601
2681,5332;0,0119796
2682,4976;0,0119967
2683,4617;0,0120098
2684,4260;0,0120178
2685,3901;0,0120219
2686,3545;0,0120264
2687,3186;0,0120365
2688,2830;0,0120553
2689,2471;0,0120814
2690,2114;0,0121104
2691,1755;0,0121372
2692,1399;0,01216
2693,1040;0,0121804
2694,0684;0,0122017
2695,0325;0,0122259
2695,9968;0,0122521
2696,9609;0,0122779
2697,9253;0,0123012
2698,8894;0,0123226
2699,8538;0,0123449
2700,8179;0,0123711
2701,7822;0,0124031
2702,7463;0,0124403
2703,7107;0,0124799
2704,6748;0,0125177
2705,6392;0,0125493
2706,6033;0,0125711
2707,5676;0,0125824
2708,5317;0,0125863
2709,4961;0,0125892
2710,4602;0,0125987
2711,4246;0,0126197
2712,3887;0,0126522
2713,3530;0,0126916
2714,3171;0,0127309
2715,2815;0,0127645
2716,2456;0,0127908
2717,2100;0,0128118
2718,1741;0,0128316
2719,1384;0,012854
2720,1025;0,0128812
2721,0669;0,0129128
2722,0310;0,012946
2722,9954;0,0129768
2723,9595;0,0130012
2724,9238;0,0130172
2725,8879;0,0130266
2726,8523;0,0130343
2727,8164;0,0130461
2728,7808;0,0130661
2729,7449;0,0130942
2730,7092;0,0131264
2731,6733;0,0131565
2732,6377;0,0131791
2733,6018;0,0131916
2734,5662;0,0131955
2735,5303;0,0131945
2736,4946;0,013194
2737,4587;0,013199
2738,4231;0,0132129
2739,3872;0,0132375
2740,3516;0,0132723
2741,3157;0,0133151
2742,2800;0,0133619
2743,2441;0,0134067
2744,2085;0,0134425
2745,1726;0,0134627
2746,1370;0,013464
2747,1011;0,0134488
2748,0654;0,0134254
2749,0295;0,013406
2749,9939;0,0134016
2750,9580;0,0134179
2751,9224;0,0134532
2752,8865;0,0135003
2753,8508;0,0135505
2754,8149;0,0135967
2755,7793;0,0136355
2756,7434;0,0136657
2757,7078;0,0136873
2758,6719;0,0137012
2759,6362;0,0137097
2760,6003;0,0137171
2761,5647;0,0137295
2762,5288;0,0137514
2763,4932;0,0137841
2764,4573;0,013824
2765,4216;0,0138654
2766,3857;0,0139035
2767,3501;0,0139375
2768,3142;0,0139705
2769,2786;0,0140069
2770,2427;0,0140484
2771,2070;0,0140925
2772,1711;0,0141333
2773,1355;0,014166
2774,0996;0,0141896
2775,0640;0,014208
2776,0281;0,0142281
2776,9924;0,0142557
2777,9565;0,0142932
2778,9209;0,0143391
2779,8850;0,01439
2780,8494;0,0144434
2781,8135;0,0144981
2782,7778;0,0145533
2783,7419;0,0146069
2784,7063;0,0146551
2785,6704;0,014694
2786,6348;0,0147224
2787,5989;0,0147433
2788,5632;0,0147632
2789,5273;0,0147899
2790,4917;0,0148287
2791,4558;0,0148807
2792,4202;0,0149428
2793,3843;0,0150094
2794,3486;0,0150754
2795,3127;0,0151376
2796,2771;0,0151961
2797,2412;0,0152536
2798,2056;0,0153146
2799,1697;0,0153827
2800,1340;0,0154595
2801,0981;0,0155434
2802,0625;0,015631
2803,0266;0,0157184
2803,9910;0,0158029
2804,9551;0,0158841
2805,9194;0,0159625
2806,8835;0,0160388
2807,8479;0,0161133
2808,8120;0,0161864
2809,7764;0,0162597
2810,7405;0,0163362
2811,7048;0,0164198
2812,6689;0,0165137
2813,6333;0,0166185
2814,5974;0,0167324
2815,5618;0,0168512
2816,5259;0,0169709
2817,4902;0,017088
2818,4543;0,0172011
2819,4187;0,0173112
2820,3828;0,0174212
2821,3472;0,0175357
2822,3113;0,017659
2823,2756;0,0177941
2824,2397;0,0179411
2825,2041;0,0180978
2826,1682;0,0182613
2827,1326;0,0184306
2828,0967;0,0186074
2829,0610;0,0187964
2830,0251;0,0190021
2830,9895;0,0192266
2831,9536;0,0194673
2832,9180;0,0197175
2833,8821;0,0199687
2834,8464;0,0202155
2835,8105;0,020459
2836,7749;0,0207081
2837,7390;0,0209775
2838,7034;0,0212833
2839,6675;0,0216393
2840,6318;0,0220547
2841,5959;0,022535
2842,5603;0,0230825
2843,5244;0,0236945
2844,4888;0,0243571
2845,4529;0,0250387
2846,4172;0,0256884
2847,3813;0,0262439
2848,3457;0,0266478
2849,3098;0,0268671
2850,2742;0,0269047
2851,2383;0,0267973
2852,2026;0,0266008
2853,1667;0,0263704
2854,1311;0,0261453
2855,0952;0,0259437
2856,0596;0,0257682
2857,0237;0,0256161
2857,9880;0,0254872
2858,9521;0,0253865
2859,9165;0,0253209
2860,8806;0,0252941
2861,8450;0,0253042
2862,8091;0,0253448
2863,7734;0,0254087
2864,7375;0,0254922
2865,7019;0,0255952
2866,6660;0,0257184
2867,6304;0,0258586
2868,5945;0,0260059
2869,5588;0,0261458
2870,5229;0,0262638
2871,4873;0,0263512
2872,4514;0,0264076
2873,4158;0,02644
2874,3799;0,0264586
2875,3442;0,0264735
2876,3083;0,0264922
2877,2727;0,0265199
2878,2368;0,0265594
2879,2012;0,0266115
2880,1653;0,0266749
2881,1296;0,0267469
2882,0938;0,0268247
2883,0581;0,0269072
2884,0222;0,0269952
2884,9866;0,0270909
2885,9507;0,0271962
2886,9150;0,0273106
2887,8792;0,0274321
2888,8435;0,0275578
2889,8076;0,0276853
2890,7720;0,0278133
2891,7361;0,0279408
2892,7004;0,028066
2893,6646;0,0281856
2894,6289;0,0282968
2895,5930;0,0283992
2896,5574;0,0284961
2897,5215;0,0285941
2898,4858;0,0286994
2899,4500;0,0288145
2900,4143;0,0289361
2901,3784;0,0290579
2902,3428;0,0291749
2903,3069;0,0292885
2904,2712;0,029408
2905,2354;0,029548
2906,1997;0,0297233
2907,1638;0,0299454
2908,1282;0,0302215
2909,0923;0,0305557
2910,0566;0,0309488
2911,0208;0,0313957
2911,9851;0,0318801
2912,9492;0,0323717
2913,9136;0,032828
2914,8777;0,0332036
2915,8420;0,0334616
2916,8062;0,0335829
2917,7705;0,0335687
2918,7346;0,0334361
2919,6990;0,0332098
2920,6631;0,0329152
2921,6274;0,0325747
2922,5916;0,0322071
2923,5559;0,0318287
2924,5200;0,0314522
2925,4844;0,0310855
2926,4485;0,0307309
2927,4128;0,0303866
2928,3770;0,0300494
2929,3413;0,0297185
2930,3054;0,0293952
2931,2698;0,0290814
2932,2339;0,0287767
2933,1982;0,0284779
2934,1624;0,0281806
2935,1267;0,0278821
2936,0908;0,027583
2937,0552;0,0272869
2938,0193;0,0269971
2938,9836;0,0267142
2939,9478;0,0264353
2940,9121;0,0261565
2941,8762;0,0258752
2942,8406;0,0255931
2943,8047;0,0253156
2944,7690;0,0250503
2945,7332;0,0248046
2946,6975;0,0245827
2947,6616;0,0243844
2948,6260;0,0242053
2949,5901;0,0240389
2950,5544;0,0238786
2951,5186;0,0237203
2952,4829;0,0235625
2953,4470;0,0234054
2954,4114;0,0232491
2955,3755;0,0230921
2956,3398;0,0229325
2957,3040;0,0227687
2958,2683;0,0226014
2959,2324;0,0224331
2960,1968;0,0222659
2961,1609;0,0220997
2962,1252;0,0219319
2963,0894;0,0217585
2964,0537;0,0215769
2965,0178;0,0213878
2965,9822;0,0211949
2966,9463;0,0210029
2967,9106;0,0208155
2968,8748;0,0206332
2969,8391;0,0204537
2970,8032;0,0202738
2971,7676;0,0200914
2972,7317;0,0199074
2973,6960;0,0197253
2974,6602;0,0195499
2975,6245;0,019384
2976,5886;0,0192267
2977,5530;0,019074
2978,5171;0,0189215
2979,4814;0,0187678
2980,4456;0,0186175
2981,4099;0,0184793
2982,3740;0,0183624
2983,3384;0,0182712
2984,3025;0,018203
2985,2668;0,018149
2986,2310;0,0180983
2987,1953;0,0180432
2988,1594;0,0179824
2989,1238;0,0179205
2990,0879;0,0178645
2991,0522;0,0178201
2992,0164;0,0177891
2992,9807;0,0177688
2993,9448;0,0177548
2994,9092;0,0177428
2995,8733;0,0177312
2996,8376;0,0177207
2997,8018;0,0177137
2998,7661;0,0177127
2999,7302;0,0177197
3000,6946;0,0177352
3001,6587;0,017759
3002,6230;0,0177901
3003,5872;0,0178275
3004,5515;0,0178702
3005,5156;0,0179178
3006,4800;0,0179697
3007,4441;0,0180251
3008,4084;0,018082
3009,3726;0,0181365
3010,3369;0,0181838
3011,3010;0,018219
3012,2654;0,0182396
3013,2295;0,0182467
3014,1938;0,0182452
3015,1580;0,0182425
3016,1223;0,0182464
3017,0864;0,0182626
3018,0508;0,0182938
3019,0149;0,0183388
3019,9792;0,0183935
3020,9434;0,0184516
3021,9077;0,0185071
3022,8718;0,018557
3023,8362;0,0186042
3024,8003;0,0186578
3025,7646;0,0187291
3026,7288;0,0188259
3027,6931;0,0189464
3028,6572;0,0190773
3029,6216;0,0191983
3030,5857;0,0192905
3031,5500;0,019346
3032,5142;0,0193713
3033,4785;0,0193838
3034,4426;0,0194022
3035,4070;0,0194379
3036,3711;0,0194914
3037,3354;0,0195551
3038,2996;0,0196195
3039,2639;0,019679
3040,2280;0,0197344
3041,1924;0,0197922
3042,1565;0,0198613
3043,1208;0,0199484
3044,0850;0,0200555
3045,0493;0,0201782
3046,0134;0,0203069
3046,9778;0,0204307
3047,9419;0,0205416
3048,9063;0,0206388
3049,8704;0,0207294
3050,8347;0,0208246
3051,7988;0,0209339
3052,7632;0,0210591
3053,7273;0,0211929
3054,6917;0,0213222
3055,6558;0,0214351
3056,6201;0,0215269
3057,5842;0,0216041
3058,5486;0,0216812
3059,5127;0,0217744
3060,4771;0,0218931
3061,4412;0,0220354
3062,4055;0,0221869
3063,3696;0,0223265
3064,3340;0,0224346
3065,2981;0,022502
3066,2625;0,0225347
3067,2266;0,0225514
3068,1909;0,0225751
3069,1550;0,0226233
3070,1194;0,0227017
3071,0835;0,0228045
3072,0479;0,02292
3073,0120;0,0230375
3073,9763;0,023152
3074,9404;0,0232649
3075,9048;0,0233802
3076,8689;0,0235001
3077,8333;0,0236221
3078,7974;0,0237397
3079,7617;0,0238446
3080,7258;0,0239317
3081,6902;0,024001
3082,6543;0,0240589
3083,6187;0,024115
3084,5828;0,0241786
3085,5471;0,024255
3086,5112;0,0243435
3087,4756;0,0244392
3088,4397;0,0245368
3089,4041;0,0246337
3090,3682;0,0247308
3091,3325;0,0248311
3092,2966;0,024936
3093,2610;0,0250443
3094,2251;0,0251534
3095,1895;0,0252615
3096,1536;0,0253694
3097,1179;0,0254791
3098,0820;0,0255915
3099,0464;0,0257038
3100,0105;0,0258107
3100,9749;0,0259072
3101,9390;0,0259925
3102,9033;0,0260703
3103,8674;0,0261475
3104,8318;0,0262304
3105,7959;0,0263227
3106,7603;0,0264257
3107,7244;0,0265396
3108,6887;0,0266644
3109,6528;0,0267994
3110,6172;0,0269424
3111,5813;0,0270882
3112,5457;0,02723
3113,5098;0,0273605
3114,4741;0,0274759
3115,4382;0,0275771
3116,4026;0,0276702
3117,3667;0,0277646
3118,3311;0,0278693
3119,2952;0,0279895
3120,2595;0,0281244
3121,2236;0,0282669
3122,1880;0,0284064
3123,1521;0,0285325
3124,1165;0,0286392
3125,0806;0,0287281
3126,0449;0,0288079
3127,0090;0,0288916
3127,9734;0,0289908
3128,9375;0,0291114
3129,9019;0,0292514
3130,8660;0,0294021
3131,8303;0,0295527
3132,7944;0,0296947
3133,7588;0,0298255
3134,7229;0,0299482
3135,6873;0,0300689
3136,6514;0,030193
3137,6157;0,030323
3138,5798;0,0304585
3139,5442;0,0305979
3140,5083;0,03074
3141,4727;0,0308854
3142,4368;0,0310352
3143,4011;0,0311905
3144,3652;0,0313502
3145,3296;0,0315113
3146,2937;0,0316691
3147,2581;0,0318191
3148,2222;0,0319589
3149,1865;0,0320903
3150,1506;0,0322184
3151,1150;0,0323506
3152,0791;0,0324924
3153,0435;0,032645
3154,0076;0,0328046
3154,9719;0,0329643
3155,9360;0,0331186
3156,9004;0,0332665
3157,8645;0,0334131
3158,8289;0,0335659
3159,7930;0,0337305
3160,7573;0,0339065
3161,7214;0,0340866
3162,6858;0,0342606
3163,6499;0,0344203
3164,6143;0,0345639
3165,5784;0,0346964
3166,5427;0,0348271
3167,5068;0,0349651
3168,4712;0,0351159
3169,4353;0,0350845
3170,3997;0,0352614
3171,3638;0,0354463
3172,3281;0,0356327
3173,2922;0,0358144
3174,2566;0,0359867
3175,2207;0,0361482
3176,1851;0,0363008
3177,1492;0,0364493
3178,1135;0,0365991
3179,0776;0,0367543
3180,0420;0,036916
3181,0061;0,0370817
3181,9705;0,0372471
3182,9346;0,0374076
3183,8989;0,0375607
3184,8630;0,0377066
3185,8274;0,0378483
3186,7915;0,0379906
3187,7559;0,0381372
3188,7200;0,0382897
3189,6843;0,0384466
3190,6484;0,0386047
3191,6128;0,0387618
3192,5769;0,0389178
3193,5413;0,0390758
3194,5054;0,039239
3195,4697;0,0394083
3196,4338;0,03958
3197,3982;0,0397474
3198,3623;0,0399039
3199,3267;0,040048
3200,2908;0,0401835
3201,2551;0,040318
3202,2192;0,040458
3203,1836;0,0406063
3204,1477;0,0407612
3205,1121;0,0409192
3206,0762;0,0410778
3207,0405;0,0412368
3208,0046;0,0413968
3208,9690;0,0415571
3209,9331;0,0417147
3210,8975;0,0418658
3211,8616;0,0420088
3212,8259;0,0421458
3213,7900;0,0422811
3214,7544;0,0424192
3215,7185;0,0425619
3216,6829;0,0427087
3217,6470;0,0428583
3218,6113;0,0430105
3219,5754;0,0431664
3220,5398;0,043327
3221,5039;0,0434916
3222,4683;0,0436586
3223,4324;0,0438257
3224,3967;0,0439922
3225,3608;0,0441575
3226,3252;0,0443208
3227,2893;0,0444794
3228,2537;0,04463
3229,2178;0,0447711
3230,1821;0,044905
3231,1462;0,0450366
3232,1106;0,0451701
3233,0747;0,0453067
3234,0391;0,0454445
3235,0032;0,0455822
3235,9675;0,0457225
3236,9316;0,0458722
3237,8960;0,0460374
3238,8601;0,0462182
3239,8245;0,0464061
3240,7886;0,0465887
3241,7529;0,0467564
3242,7170;0,0469096
3243,6814;0,0470569
3244,6455;0,0472088
3245,6099;0,0473695
3246,5740;0,0475343
3247,5383;0,0476936
3248,5024;0,0478419
3249,4668;0,0479833
3250,4309;0,0481304
3251,3953;0,0482958
3252,3594;0,0484834
3253,3237;0,0486853
3254,2878;0,0488859
3255,2522;0,0490715
3256,2163;0,0492373
3257,1807;0,0493892
3258,1448;0,049539
3259,1091;0,0496974
3260,0732;0,04987
3261,0376;0,0500559
3262,0017;0,0502494
3262,9661;0,0504432
3263,9302;0,05063
3264,8945;0,0508046
3265,8586;0,0509662
3266,8230;0,0511187
3267,7871;0,0512712
3268,7515;0,0514322
3269,7156;0,0516046
3270,6799;0,0517813
3271,6440;0,051946
3272,6084;0,0520808
3273,5725;0,0521757
3274,5369;0,052235
3275,5010;0,0522758
3276,4653;0,0523191
3277,4294;0,0523788
3278,3938;0,0524556
3279,3579;0,0525396
3280,3223;0,052618
3281,2864;0,0526838
3282,2507;0,0527398
3283,2148;0,0527956
3284,1792;0,0528602
3285,1433;0,0529361
3286,1077;0,0530165
3287,0718;0,0530888
3288,0361;0,0531405
3289,0002;0,0531644
3289,9646;0,0531611
3290,9287;0,0531392
3291,8931;0,0531114
3292,8572;0,0530903
3293,8215;0,0530848
3294,7856;0,0530964
3295,7500;0,0531195
3296,7141;0,0531442
3297,6785;0,0531602
3298,6426;0,0531617
3299,6069;0,0531492
3300,5710;0,0531295
3301,5354;0,0531112
3302,4995;0,0531011
3303,4639;0,0531012
3304,4280;0,0531088
3305,3923;0,0531193
3306,3564;0,053128
3307,3208;0,0531322
3308,2849;0,0531302
3309,2493;0,0531212
3310,2134;0,0531053
3311,1777;0,0530853
3312,1418;0,0530676
3313,1062;0,0530614
3314,0703;0,0530748
3315,0347;0,0531105
3315,9988;0,0531649
3316,9631;0,0532303
3317,9272;0,0533011
3318,8916;0,0533778
3319,8557;0,0534654
3320,8201;0,0535688
3321,7842;0,0536858
3322,7485;0,0538058
3323,7126;0,0539138
3324,6770;0,0539994
3325,6411;0,0540621
3326,6055;0,0541118
3327,5696;0,0541619
3328,5339;0,054222
3329,4980;0,0542928
3330,4624;0,0543671
3331,4265;0,0544346
3332,3909;0,0544868
3333,3550;0,0545191
3334,3193;0,0545301
3335,2834;0,0545201
3336,2478;0,05449
3337,2119;0,0544406
3338,1763;0,0543735
3339,1404;0,05429
3340,1047;0,0541918
3341,0688;0,0540806
3342,0332;0,0539588
3342,9973;0,0538297
3343,9617;0,0536967
3344,9258;0,0535635
3345,8901;0,0534327
3346,8542;0,0533068
3347,8186;0,0531882
3348,7827;0,0530786
3349,7471;0,0529776
3350,7112;0,0528805
3351,6755;0,0527778
3352,6396;0,0526583
3353,6040;0,0525138
3354,5681;0,0523444
3355,5325;0,0521596
3356,4966;0,0519758
3357,4609;0,051809
3358,4250;0,0516681
3359,3894;0,0515522
3360,3535;0,0514515
3361,3179;0,0513522
3362,2820;0,0512418
3363,2463;0,0511117
3364,2104;0,0509592
3365,1748;0,0507866
3366,1389;0,0505995
3367,1033;0,0504056
3368,0674;0,0502116
3369,0317;0,0500221
3369,9958;0,0498392
3370,9602;0,0496631
3371,9243;0,0494939
3372,8887;0,0493319
3373,8528;0,049177
3374,8171;0,0490276
3375,7813;0,0488816
3376,7456;0,0487382
3377,7097;0,0486002
3378,6741;0,0484722
3379,6382;0,0483571
3380,6025;0,04825
3381,5667;0,0481384
3382,5310;0,0480066
3383,4951;0,0478457
3384,4595;0,047661
3385,4236;0,0474717
3386,3879;0,0473015
3387,3521;0,0471651
3388,3164;0,0470615
3389,2805;0,046976
3390,2449;0,0468901
3391,2090;0,0467914
3392,1733;0,0466772
3393,1375;0,0465522
3394,1018;0,04642
3395,0659;0,0462784
3396,0303;0,0461206
3396,9944;0,0459429
3397,9587;0,0457495
3398,9229;0,0455528
3399,8872;0,0453658
3400,8513;0,0451944
3401,8157;0,0450336
3402,7798;0,0448711
3403,7441;0,0446957
3404,7083;0,0445054
3405,6726;0,0443089
3406,6367;0,0441214
3407,6011;0,0439548
3408,5652;0,0438106
3409,5295;0,0436771
3410,4937;0,0435347
3411,4580;0,0433662
3412,4221;0,0431664
3413,3865;0,0429461
3414,3506;0,0427276
3415,3149;0,0425328
3416,2791;0,0423733
3417,2434;0,0422423
3418,2075;0,0421176
3419,1719;0,0419704
3420,1360;0,0417787
3421,1003;0,041537
3422,0645;0,0412584
3423,0288;0,0409658
3423,9929;0,0406811
3424,9573;0,040418
3425,9214;0,0401797
3426,8857;0,0399621
3427,8499;0,0397572
3428,8142;0,0395573
3429,7783;0,0393562
3430,7427;0,0391501
3431,7068;0,0389358
3432,6711;0,0387109
3433,6353;0,0384755
3434,5996;0,0382339
3435,5637;0,0379954
3436,5281;0,0377712
3437,4922;0,0375691
3438,4565;0,0373907
3439,4207;0,0372319
3440,3850;0,0370881
3441,3491;0,0369567
3442,3135;0,0368352
3443,2776;0,0367155
3444,2419;0,0365778
3445,2061;0,0363936
3446,1704;0,0361391
3447,1345;0,0358133
3448,0989;0,0354448
3449,0630;0,0350799
3450,0273;0,034759
3450,9915;0,0344994
3451,9558;0,0342949
3452,9199;0,0341261
3453,8843;0,0339729
3454,8484;0,0338235
3455,8127;0,0336752
3456,7769;0,0335289
3457,7412;0,033383
3458,7053;0,0332302
3459,6697;0,0330601
3460,6338;0,032865
3461,5981;0,032644
3462,5623;0,0324044
3463,5266;0,0321563
3464,4907;0,0319072
3465,4551;0,031659
3466,4192;0,0314097
3467,3835;0,0311587
3468,3477;0,0309101
3469,3120;0,0306714
3470,2761;0,0304468
3471,2405;0,0302327
3472,2046;0,0300195
3473,1689;0,029801
3474,1331;0,0295839
3475,0974;0,0293893
3476,0615;0,02924
3477,0259;0,0291423
3477,9900;0,0290747
3478,9543;0,0289938
3479,9185;0,028855
3480,8828;0,0286387
3481,8469;0,0283642
3482,8113;0,0280784
3483,7754;0,0278255
3484,7397;0,0276201
3485,7039;0,0274443
3486,6682;0,027265
3487,6323;0,0270587
3488,5967;0,0268277
3489,5608;0,0265984
3490,5251;0,0264006
3491,4893;0,0262465
3492,4536;0,0261228
3493,4177;0,0260004
3494,3821;0,0258568
3495,3462;0,0256962
3496,3105;0,0255536
3497,2747;0,0254723
3498,2390;0,025471
3499,2031;0,0255215
3500,1675;0,0255528
3501,1316;0,0254813
3502,0959;0,0252582
3503,0601;0,0249094
3504,0244;0,0245274
3504,9885;0,0242106
3505,9529;0,0240019
3506,9170;0,0238713
3507,8813;0,0237442
3508,8455;0,0235484
3509,8098;0,0232553
3510,7739;0,0228952
3511,7383;0,0225326
3512,7024;0,0222237
3513,6667;0,02199
3514,6309;0,0218219
3515,5952;0,0216995
3516,5593;0,0216114
3517,5237;0,0215617
3518,4878;0,0215621
3519,4521;0,0216166
3520,4163;0,0217101
3521,3806;0,0218064
3522,3447;0,0218588
3523,3091;0,0218275
3524,2732;0,0216938
3525,2375;0,0214589
3526,2017;0,021134
3527,1660;0,0207338
3528,1301;0,0202816
3529,0945;0,0198182
3530,0586;0,0194002
3531,0229;0,0190781
3531,9871;0,0188751
3532,9514;0,0187746
3533,9155;0,0187241
3534,8799;0,0186535
3535,8440;0,0185064
3536,8083;0,0182756
3537,7725;0,018014
3538,7368;0,0178099
3539,7009;0,0177411
3540,6653;0,0178382
3541,6294;0,0180688
3542,5938;0,0183375
3543,5579;0,0185065
3544,5222;0,0184492
3545,4863;0,0181293
3546,4507;0,0176358
3547,4148;0,0171256
3548,3792;0,0167188
3549,3433;0,016442
3550,3076;0,0162421
3551,2717;0,0160362
3552,2361;0,015769
3553,2002;0,0154505
3554,1646;0,0151469
3555,1287;0,0149289
3556,0930;0,0148249
3557,0571;0,0148148
3558,0215;0,0148571
3558,9856;0,0149223
3559,9500;0,0150163
3560,9141;0,0151749
3561,8784;0,0154308
3562,8425;0,015775
3563,8069;0,0161236
3564,7710;0,016296
3565,7354;0,0160549
3566,6995;0,0152918
3567,6638;0,0142157
3568,6279;0,0132238
3569,5923;0,0125694
3570,5564;0,0122482
3571,5208;0,0121235
3572,4849;0,0120638
3573,4492;0,0119985
3574,4133;0,0119155
3575,3777;0,011832
3576,3418;0,0117641
3577,3062;0,0117103
3578,2703;0,0116598
3579,2346;0,0116143
3580,1987;0,0116002
3581,1631;0,0116557
3582,1272;0,0118025
3583,0916;0,0120249
3584,0557;0,0122616
3585,0200;0,0123998
3585,9841;0,0122995
3586,9485;0,0119043
3587,9126;0,0113717
3588,8770;0,010989
3589,8411;0,0109217
3590,8054;0,0111193
3591,7695;0,0114138
3592,7339;0,0116367
3593,6980;0,0116821
3594,6624;0,0115401
3595,6265;0,0112882
3596,5908;0,0110221
3597,5549;0,0107773
3598,5193;0,0105213
3599,4834;0,0102126
3600,4478;0,00986427
3601,4119;0,00954948
3602,3762;0,00934051
3603,3403;0,00924461
3604,3047;0,00919446
3605,2688;0,0090825
3606,2332;0,00880706
3607,1973;0,008325
3608,1616;0,00769763
3609,1257;0,00707695
3610,0901;0,00661808
3611,0542;0,00639661
3612,0186;0,00639464
3612,9827;0,0065358
3613,9470;0,00672547
3614,9111;0,00687663
3615,8755;0,0069209
3616,8396;0,0068142
3617,8040;0,00655165
3618,7681;0,00620162
3619,7324;0,00592277
3620,6965;0,00588842
3621,6609;0,00615066
3622,6250;0,00659773
3623,5894;0,00703865
3624,5535;0,00730714
3625,5178;0,00730588
3626,4819;0,00698838
3627,4463;0,00633816
3628,4104;0,00545291
3629,3748;0,00463837
3630,3389;0,00418873
3631,3032;0,00408944
3632,2673;0,00409706
3633,2317;0,00399064
3634,1958;0,0036997
3635,1602;0,00329292
3636,1243;0,00289535
3637,0886;0,00259729
3638,0527;0,00241159
3639,0171;0,00229724
3639,9812;0,00221353
3640,9456;0,00215392
3641,9097;0,00213698
3642,8740;0,00217253
3643,8381;0,00223982
3644,8025;0,00229087
3645,7666;0,00224842
3646,7310;0,00195793
3647,6951;0,00116771
3648,6594;-0,000187603
3649,6235;-0,00158548
3650,5879;-0,0023462
3651,5520;-0,002372
3652,5164;-0,0020333
3653,4805;-0,00171824
3654,4448;-0,00162774
3655,4089;-0,00176393
3656,3733;-0,00198909
3657,3374;-0,00213341
3658,3018;-0,00211931
3659,2659;-0,00199967
3660,2302;-0,00187808
3661,1943;-0,00180822
3662,1587;-0,00176347
3663,1228;-0,00168483
3664,0872;-0,00155418
3665,0513;-0,00141958
3666,0156;-0,00136146
3666,9797;-0,00143819
3667,9441;-0,0016577
3668,9082;-0,00196724
3669,8726;-0,00225107
3670,8367;-0,00239627
3671,8010;-0,00239858
3672,7651;-0,00235898
3673,7295;-0,00239147
3674,6936;-0,00255281
3675,6580;-0,00278573
3676,6221;-0,00291258
3677,5864;-0,00279676
3678,5505;-0,00248354
3679,5149;-0,00211449
3680,4790;-0,00178295
3681,4434;-0,00149678
3682,4075;-0,00123064
3683,3718;-0,000988499
3684,3359;-0,000817814
3685,3003;-0,000771686
3686,2644;-0,000861755
3687,2288;-0,00104766
3688,1929;-0,00126229
3689,1572;-0,00141748
3690,1213;-0,00139856
3691,0857;-0,00114175
3692,0498;-0,000706282
3693,0142;-0,000216166
3693,9783;0,000232643
3694,9426;0,000601009
3695,9067;0,000884728
3696,8711;0,00108542
3697,8352;0,00119829
3698,7996;0,00121746
3699,7637;0,00114881
3700,7280;0,00102299
3701,6921;0,0009021
3702,6565;0,000861957
3703,6206;0,000944985
3704,5850;0,00112614
3705,5491;0,00132918
3706,5134;0,00146798
3707,4775;0,00146526
3708,4419;0,00123359
3709,4060;0,000663548
3710,3704;-0,000279337
3711,3345;-0,0013738
3712,2988;-0,00219814
3713,2629;-0,00247504
3714,2273;-0,00223585
3715,1914;-0,00167626
3716,1558;-0,000979642
3717,1199;-0,000247848
3718,0842;0,000487628
3719,0483;0,00122523
3720,0127;0,00195717
3720,9768;0,00265281
3721,9412;0,00326023
3722,9053;0,0037184
3723,8696;0,0039771
3724,8337;0,00402332
3725,7981;0,00389544
3726,7622;0,00366269
3727,7266;0,00338747
3728,6907;0,00311386
3729,6550;0,00288853
3730,6191;0,00277539
3731,5835;0,00282159
3732,5476;0,0029659
3733,5120;0,00296655
3734,4761;0,00253413
3735,4404;0,00167743
3736,4045;0,000788793
3737,3689;0,000243318
3738,3330;7,73302E-05
3739,2974;6,35838E-05
3740,2615;-7,32357E-05
3741,2258;-0,000516192
3742,1899;-0,00129789
3743,1543;-0,00227654
3744,1184;-0,00315044
3745,0828;-0,00361073
3746,0469;-0,00359895
3747,0112;-0,00335542
3747,9753;-0,00321237
3748,9397;-0,00340805
3749,9038;-0,00398874
3750,8682;-0,0047136
3751,8323;-0,00513731
3752,7966;-0,00500631
3753,7607;-0,00446079
3754,7251;-0,0038184
3755,6892;-0,00333514
3756,6536;-0,00313404
3757,6177;-0,00321477
3758,5820;-0,00346767
3759,5461;-0,00371449
3760,5105;-0,00380802
3761,4746;-0,00371482
3762,4390;-0,00350285
3763,4031;-0,00327513
3764,3674;-0,00311902
3765,3315;-0,00308647
3766,2959;-0,00319168
3767,2600;-0,00341672
3768,2244;-0,00371963
3769,1885;-0,00403785
3770,1528;-0,0042901
3771,1169;-0,00439757
3772,0813;-0,00432503
3773,0454;-0,00410654
3774,0098;-0,00382799
3774,9739;-0,00358513
3775,9382;-0,00344961
3776,9023;-0,00345313
3777,8667;-0,00357748
3778,8308;-0,00374767
3779,7952;-0,00385931
3780,7593;-0,00384546
3781,7236;-0,00372099
3782,6877;-0,00356306
3783,6521;-0,00345862
3784,6162;-0,0034591
3785,5806;-0,00355765
3786,5447;-0,00369709
3787,5090;-0,00380381
3788,4731;-0,00382744
3789,4375;-0,00376143
3790,4016;-0,00363633
3791,3660;-0,00349513
3792,3301;-0,00336709
3793,2944;-0,0032552
3794,2585;-0,00314494
3795,2229;-0,00302925
3796,1870;-0,00293251
3797,1514;-0,0029147
3798,1155;-0,00304882
3799,0798;-0,00337928
3800,0439;-0,00387308
3801,0083;-0,00439285
3801,9724;-0,00475669
3802,9368;-0,0048824
3803,9009;-0,00485648
3804,8652;-0,00484153
3805,8293;-0,00492992
3806,7937;-0,00506233
3807,7578;-0,00506694
3808,7222;-0,0048141
3809,6863;-0,0043476
3810,6506;-0,003852
3811,6147;-0,00351619
3812,5791;-0,0034291
3813,5432;-0,00355125
3814,5076;-0,00374667
3815,4717;-0,00386156
3816,4360;-0,00382678
3817,4001;-0,0037143
3818,3645;-0,00368564
3819,3286;-0,00386824
3820,2930;-0,00423551
3821,2571;-0,00458081
3822,2214;-0,0046669
3823,1855;-0,00443073
3824,1499;-0,00400849
3825,1140;-0,00359978
3826,0784;-0,00334432
3827,0425;-0,00327931
3828,0068;-0,00335621
3828,9709;-0,00348681
3829,9353;-0,00359274
3830,8994;-0,0036349
3831,8638;-0,00361548
3832,8279;-0,00356204
3833,7922;-0,00350773
3834,7563;-0,00347644
3835,7207;-0,00347731
3836,6848;-0,00350691
3837,6492;-0,00355078
3838,6133;-0,00358287
3839,5776;-0,00358288
3840,5417;-0,00356532
3841,5061;-0,0035753
3842,4702;-0,00364026
3843,4346;-0,00372576
3844,3987;-0,00374183
3845,3630;-0,00360284
3846,3271;-0,00329523
3847,2915;-0,00289809
3848,2556;-0,00254807
3849,2200;-0,0023866
3850,1841;-0,00252993
3851,1484;-0,00307216
3852,1125;-0,00404682
3853,0769;-0,00520901
3854,0410;-0,005952
3855,0054;-0,0058789
3855,9695;-0,00518548
3856,9338;-0,00430257
3857,8979;-0,00353589
3858,8623;-0,00299996
3859,8264;-0,00268336
3860,7908;-0,00252963
3861,7549;-0,00249519
3862,7192;-0,00255809
3863,6833;-0,00268274
3864,6477;-0,00280414
3865,6118;-0,00286537
3866,5762;-0,00285333
3867,5403;-0,00279569
3868,5046;-0,00274435
3869,4688;-0,00276136
3870,4331;-0,00289179
3871,3972;-0,00312604
3872,3616;-0,00339269
3873,3257;-0,00359923
3874,2900;-0,00368144
3875,2542;-0,00362258
3876,2185;-0,00344249
3877,1826;-0,00317932
3878,1470;-0,00287986
3879,1111;-0,00259988
3880,0754;-0,00239989
3881,0396;-0,0023302
3882,0039;-0,00241962
3882,9680;-0,00267102
3883,9324;-0,00304576
3884,8965;-0,00344443
3885,8608;-0,00372973
3886,8250;-0,00380487
3887,7893;-0,0036798
3888,7534;-0,00345957
3889,7178;-0,00327648
3890,6819;-0,0032157
3891,6462;-0,00325848
3892,6104;-0,00328689
3893,5747;-0,00318393
3894,5388;-0,00293207
3895,5032;-0,0026021
3896,4673;-0,00227938
3897,4316;-0,00201762
3898,3958;-0,00183818
3899,3601;-0,00174673
3900,3242;-0,00174977
3901,2886;-0,00186926
3902,2527;-0,00214029
3903,2170;-0,00257
3904,1812;-0,003091
3905,1455;-0,00358093
3906,1096;-0,00394166
3907,0740;-0,0041486
3908,0381;-0,00423099
3909,0024;-0,00422582
3909,9666;-0,00414962
3910,9309;-0,00399838
3911,8950;-0,00376526
3912,8594;-0,00346204
3913,8235;-0,00313258
3914,7878;-0,00285169
3915,7520;-0,0027026
3916,7163;-0,00272913
3917,6804;-0,00288788
3918,6448;-0,00305825
3919,6089;-0,00312287
3920,5732;-0,00304658
3921,5374;-0,00288851
3922,5017;-0,00275721
3923,4658;-0,00274238
3924,4302;-0,00285339
3925,3943;-0,00300687
3926,3586;-0,00308494
3927,3228;-0,00301678
3928,2871;-0,00281968
3929,2512;-0,00258936
3930,2156;-0,00245804
3931,1797;-0,0025284
3932,1440;-0,00280811
3933,1082;-0,00320117
3934,0725;-0,0035725
3935,0366;-0,00382158
3936,0010;-0,00390797
3936,9651;-0,00383766
3937,9294;-0,00364437
3938,8936;-0,00338084
3939,8579;-0,00311424
3940,8220;-0,00291239
3941,7864;-0,00281524
3942,7505;-0,00280896
3943,7148;-0,00283247
3944,6790;-0,00282263
3945,6433;-0,00276164
3946,6074;-0,00269192
3947,5718;-0,00269219
3948,5359;-0,00282719
3949,5002;-0,00309841
3950,4644;-0,00343431
3951,4287;-0,00373356
3952,3928;-0,00392339
3953,3572;-0,00398704
3954,3213;-0,00395309
3955,2856;-0,00386713
3956,2498;-0,00376674
3957,2141;-0,00367207
3958,1782;-0,00359267
3959,1426;-0,00354033
3960,1067;-0,00353372
3961,0710;-0,00358912
3962,0352;-0,00370431
3962,9995;-0,00385107
3963,9636;-0,00398532
3964,9280;-0,00406812
3965,8921;-0,00408401
3966,8564;-0,0040449
3967,8206;-0,00397979
3968,7849;-0,00391732
3969,7490;-0,00387201
3970,7134;-0,00384245
3971,6775;-0,00382106
3972,6418;-0,00380637
3973,6060;-0,00380756
3974,5703;-0,00383749
3975,5344;-0,00390024
3976,4988;-0,00398387
3977,4629;-0,00406516
3978,4272;-0,00412324
3979,3914;-0,00415269
3980,3557;-0,00416684
3981,3198;-0,00418845
3982,2842;-0,00423296
3983,2483;-0,00429536
3984,2126;-0,00435062
3985,1768;-0,00436797
3986,1411;-0,00432988
3987,1052;-0,00424359
3988,0696;-0,00413851
3989,0337;-0,00405107
3989,9980;-0,00400745
3990,9622;-0,00401369
3991,9265;-0,00405886
3992,8906;-0,0041264
3993,8550;-0,00420403
3994,8191;-0,00428569
3995,7834;-0,00436679
3996,7476;-0,00443923
3997,7119;-0,00449164
3998,6760;-0,00451459
3999,6404;-0,00450609
4000,6045;-0,00424728

##### Extended Information
[Comments]
Sample name
Comment
Username
Division
Organization;UNIVERSIDAD INDUSTRIAL DE SANTANDER

[Detailed Information]
Creation date;28/02/2025 4:25 p.m.

Data array type;Linear data array
Horizontal axis;Wavenumber [cm-1]
Vertical axis;Abs
Start;399,193 cm-1
End;4000,6 cm-1
Data interval;0,964233 cm-1
Data points;3736    

[Measurement Information]
Model name;FT/IR-4X1typeA
Serial No.;A035162111

Accessory;ATR PRO 4X
Accessory S/N;A021162126
Incident angle;45 deg

Measurement date;28/02/2025 4:22 p.m.

Light source;Standard
Detector;TGS
Accumulation;40
Resolution;4 cm-1
Zero filling;On
Apodization;Cosine
Gain;Auto (8)
Aperture;Auto (7 mm)
Scan speed;Auto (2 mm/sec)
Filter;Auto (12800 Hz)

