TITLE;
DATA TYPE;INFRARED SPECTRUM
ORIGIN;JASCO
OWNER;
DATE;25/02/28
TIME;16:27:06
SPECTROMETER/DATA SYSTEM;
LOCALE;9226
RESOLUTION;
DELTAX;0,964233
XUNITS;1/CM
YUNITS;ABSORBANCE
FIRSTX;  399,1927
LASTX; 4000,6047
NPOINTS;    3736
FIRSTY;     0,13497
MAXY;     0,16558
MINY;    -0,00507
XYDATA
399,1927;0,134969
400,1569;0,133046
401,1211;0,131357
402,0854;0,130113
403,0496;0,129272
404,0138;0,128634
404,9781;0,12793
405,9423;0,126935
406,9065;0,125577
407,8708;0,123983
408,8350;0,122419
409,7992;0,121182
410,7635;0,120525
411,7277;0,12059
412,6919;0,121384
413,6562;0,122792
414,6204;0,124643
415,5846;0,126731
416,5489;0,128782
417,5131;0,130387
418,4773;0,131123
419,4416;0,130951
420,4058;0,13036
421,3700;0,129879
422,3343;0,129663
423,2985;0,129574
424,2627;0,129406
425,2270;0,129038
426,1912;0,128486
427,1554;0,127871
428,1197;0,127336
429,0839;0,126976
430,0481;0,126819
431,0124;0,126835
431,9766;0,126959
432,9408;0,127099
433,9051;0,127144
434,8693;0,12699
435,8335;0,126587
436,7978;0,125974
437,7620;0,125283
438,7262;0,124682
439,6905;0,124301
440,6547;0,124164
441,6189;0,124157
442,5832;0,124047
443,5474;0,123605
444,5116;0,122763
445,4759;0,121686
446,4401;0,120682
447,4043;0,12002
448,3686;0,119799
449,3328;0,119916
450,2970;0,12014
451,2613;0,120248
452,2255;0,120138
453,1897;0,119853
454,1540;0,119504
455,1182;0,119172
456,0824;0,118854
457,0467;0,118478
458,0109;0,117967
458,9751;0,117302
459,9394;0,116511
460,9036;0,115634
461,8678;0,114713
462,8321;0,113826
463,7963;0,113125
464,7605;0,112811
465,7248;0,113031
466,6890;0,113759
467,6532;0,114757
468,6175;0,115662
469,5817;0,11613
470,5459;0,115972
471,5102;0,115247
472,4744;0,114257
473,4386;0,11338
474,4029;0,11285
475,3671;0,11267
476,3313;0,112702
477,2956;0,112809
478,2598;0,112935
479,2240;0,113103
480,1883;0,113357
481,1525;0,1137
482,1167;0,114073
483,0810;0,114385
484,0452;0,114582
485,0094;0,114687
485,9737;0,114784
486,9379;0,114958
487,9021;0,115247
488,8664;0,115637
489,8306;0,116084
490,7948;0,11654
491,7591;0,116961
492,7233;0,117307
493,6875;0,117539
494,6518;0,117642
495,6160;0,117639
496,5802;0,117603
497,5445;0,117633
498,5087;0,117813
499,4729;0,118173
500,4372;0,118671
501,4014;0,119203
502,3656;0,11965
503,3299;0,119934
504,2941;0,12005
505,2583;0,120052
506,2226;0,120014
507,1868;0,120003
508,1510;0,120065
509,1153;0,120213
510,0795;0,120441
511,0437;0,120735
512,0080;0,12109
512,9722;0,121526
513,9365;0,122073
514,9007;0,122749
515,8649;0,123526
516,8292;0,124301
517,7934;0,124919
518,7576;0,125247
519,7219;0,125261
520,6861;0,125065
521,6503;0,124831
522,6146;0,124719
523,5788;0,124808
524,5430;0,125078
525,5073;0,12541
526,4715;0,12565
527,4357;0,125697
528,4000;0,125549
529,3642;0,125289
530,3284;0,125017
531,2927;0,12481
532,2569;0,124695
533,2211;0,124659
534,1854;0,124667
535,1496;0,124682
536,1138;0,124672
537,0781;0,124625
538,0423;0,124547
539,0065;0,124476
539,9708;0,124465
540,9350;0,124563
541,8992;0,124785
542,8635;0,125096
543,8277;0,125415
544,7919;0,125655
545,7562;0,125755
546,7204;0,125713
547,6846;0,125582
548,6489;0,12544
549,6131;0,125366
550,5773;0,125416
551,5416;0,125612
552,5058;0,125944
553,4700;0,126365
554,4343;0,1268
555,3985;0,127162
556,3627;0,127385
557,3270;0,127441
558,2912;0,127345
559,2554;0,12713
560,2197;0,126827
561,1839;0,126456
562,1481;0,126043
563,1124;0,125627
564,0766;0,125266
565,0408;0,125004
566,0051;0,124849
566,9693;0,124765
567,9335;0,124693
568,8978;0,124593
569,8620;0,124471
570,8262;0,124376
571,7905;0,124364
572,7547;0,124462
573,7189;0,124654
574,6832;0,124889
575,6474;0,125108
576,6116;0,12527
577,5759;0,125362
578,5401;0,125393
579,5043;0,125375
580,4686;0,12531
581,4328;0,125186
582,3970;0,124986
583,3613;0,124711
584,3255;0,124393
585,2897;0,124108
586,2540;0,123943
587,2182;0,123965
588,1824;0,124179
589,1467;0,124514
590,1109;0,124837
591,0751;0,125012
592,0394;0,124958
593,0036;0,124691
593,9678;0,124311
594,9321;0,123933
595,8963;0,12363
596,8605;0,123402
597,8248;0,123195
598,7890;0,122945
599,7532;0,122619
600,7175;0,122238
601,6817;0,121852
602,6459;0,121517
603,6102;0,121259
604,5744;0,121077
605,5386;0,120947
606,5029;0,12083
607,4671;0,120674
608,4313;0,120422
609,3956;0,120032
610,3598;0,119527
611,3240;0,119019
612,2883;0,118686
613,2525;0,118693
614,2167;0,119077
615,1810;0,119673
616,1452;0,120135
617,1094;0,120086
618,0737;0,119322
619,0379;0,11794
620,0021;0,116273
620,9664;0,114706
621,9306;0,113488
622,8948;0,112669
623,8591;0,11214
624,8233;0,111658
625,7875;0,111243
626,7518;0,110859
627,7160;0,110531
628,6802;0,110288
629,6445;0,110132
630,6087;0,110025
631,5729;0,109915
632,5372;0,109754
633,5014;0,109522
634,4656;0,109235
635,4299;0,108944
636,3941;0,108714
637,3583;0,108594
638,3226;0,108588
639,2868;0,108651
640,2510;0,108706
641,2153;0,10869
642,1795;0,108598
643,1437;0,108482
644,1080;0,10842
645,0722;0,108465
646,0364;0,108602
647,0007;0,108757
647,9649;0,108831
648,9291;0,108759
649,8934;0,108546
650,8576;0,10826
651,8218;0,107998
652,7861;0,107841
653,7503;0,107824
654,7145;0,107921
655,6788;0,108057
656,6430;0,10815
657,6072;0,108164
658,5715;0,108135
659,5357;0,108118
660,4999;0,108091
661,4642;0,107887
662,4284;0,107218
663,3926;0,105816
664,3569;0,103654
665,3211;0,101238
666,2853;0,0997294
667,2496;0,100372
668,2138;0,102902
669,1780;0,105293
670,1423;0,106346
671,1065;0,106346
672,0707;0,105661
673,0350;0,104461
673,9992;0,103004
674,9634;0,101619
675,9277;0,100512
676,8919;0,0996583
677,8561;0,0988952
678,8204;0,0980873
679,7846;0,0972131
680,7488;0,0963232
681,7131;0,0954771
682,6773;0,0946943
683,6415;0,0939728
684,6058;0,0933124
685,5700;0,092724
686,5342;0,0922128
687,4985;0,0917625
688,4627;0,0913529
689,4269;0,0909468
690,3912;0,0905335
691,3554;0,0901256
692,3196;0,0897356
693,2839;0,0893563
694,2481;0,0889612
695,2123;0,0885229
696,1766;0,0880351
697,1408;0,0875208
698,1050;0,0870211
699,0693;0,0865728
700,0335;0,0861877
700,9977;0,0858474
701,9620;0,0855151
702,9262;0,0851556
703,8904;0,0847262
704,8547;0,0842435
705,8189;0,0837359
706,7831;0,0832304
707,7474;0,0827378
708,7116;0,0822531
709,6758;0,0817641
710,6401;0,0812602
711,6043;0,0807371
712,5685;0,0802018
713,5328;0,0796799
714,4970;0,0792184
715,4612;0,0773176
716,4255;0,0774487
717,3897;0,0778116
718,3539;0,078185
719,3182;0,0782515
720,2824;0,0777521
721,2466;0,0766457
722,2109;0,0751455
723,1751;0,0735968
724,1393;0,072295
725,1036;0,0713676
726,0678;0,0707677
727,0320;0,0703502
727,9963;0,0699704
728,9605;0,0695481
729,9247;0,069074
730,8890;0,0685735
731,8532;0,0680714
732,8174;0,0675797
733,7817;0,0671075
734,7459;0,0666709
735,7101;0,0662912
736,6744;0,0659806
737,6386;0,0657313
738,6028;0,0655142
739,5671;0,0652903
740,5313;0,0650251
741,4955;0,0647016
742,4598;0,0643245
743,4240;0,0639164
744,3882;0,0635068
745,3525;0,0631176
746,3167;0,0627531
747,2809;0,0623997
748,2452;0,0620368
749,2094;0,061652
750,1736;0,0612505
751,1379;0,0608512
752,1021;0,0604723
753,0663;0,0601177
754,0306;0,059773
754,9948;0,0594158
755,9590;0,0590307
756,9233;0,0586216
757,8875;0,0582107
758,8517;0,0578282
759,8160;0,0574973
760,7802;0,0572239
761,7444;0,0569951
762,7087;0,0567868
763,6729;0,0565743
764,6371;0,056343
765,6014;0,056092
766,5656;0,0558309
767,5298;0,0555723
768,4941;0,0553234
769,4583;0,0550827
770,4225;0,0548423
771,3868;0,0545937
772,3510;0,0543339
773,3152;0,0540669
774,2795;0,053802
775,2437;0,0535505
776,2079;0,0533219
777,1722;0,0531211
778,1364;0,0529467
779,1006;0,0527892
780,0649;0,0526328
781,0291;0,052459
781,9933;0,052254
782,9576;0,0520145
783,9218;0,0517495
784,8860;0,0514762
785,8503;0,0512129
786,8145;0,0509716
787,7787;0,0507555
788,7430;0,0505611
789,7072;0,0503817
790,6714;0,0502112
791,6357;0,0500452
792,5999;0,0498806
793,5641;0,0497158
794,5284;0,0495509
795,4926;0,0493876
796,4568;0,0492294
797,4211;0,0490805
798,3853;0,0489459
799,3495;0,0488302
800,3138;0,0487359
801,2780;0,0486605
802,2422;0,0485945
803,2065;0,048522
804,1707;0,0484267
805,1349;0,0482994
806,0992;0,0481435
807,0634;0,0479732
808,0276;0,047806
808,9919;0,0476532
809,9561;0,0475148
810,9203;0,0473822
811,8846;0,0472462
812,8488;0,0471046
813,8130;0,0469646
814,7773;0,046839
815,7415;0,0467397
816,7057;0,0466714
817,6700;0,0466289
818,6342;0,0465986
819,5984;0,0465637
820,5627;0,046511
821,5269;0,0464374
822,4911;0,0463521
823,4554;0,0462738
824,4196;0,0462219
825,3839;0,0462062
826,3481;0,0462208
827,3123;0,0462467
828,2766;0,0462604
829,2408;0,0462452
830,2050;0,0461981
831,1693;0,0461279
832,1335;0,0460479
833,0977;0,0459667
834,0620;0,045883
835,0262;0,0457871
835,9904;0,045667
836,9547;0,0455148
837,9189;0,0453316
838,8831;0,0451261
839,8474;0,0449109
840,8116;0,0446965
841,7758;0,0444886
842,7401;0,044288
843,7043;0,0440953
844,6685;0,0439144
845,6328;0,0437541
846,5970;0,043625
847,5612;0,0435328
848,5255;0,0434721
849,4897;0,0434252
850,4539;0,043368
851,4182;0,0432808
852,3824;0,0431593
853,3466;0,0430187
854,3109;0,0428885
855,2751;0,042798
856,2393;0,0427624
857,2036;0,0427752
858,1678;0,0428129
859,1320;0,0428479
860,0963;0,0428625
861,0605;0,0428556
862,0247;0,0428402
862,9890;0,0428331
863,9532;0,0428464
864,9174;0,0428828
865,8817;0,0429376
866,8459;0,0430029
867,8101;0,0430709
868,7744;0,0431362
869,7386;0,0431955
870,7028;0,0432484
871,6671;0,0432969
872,6313;0,0433437
873,5955;0,0433897
874,5598;0,0434324
875,5240;0,0434678
876,4882;0,0434934
877,4525;0,0435112
878,4167;0,0435273
879,3809;0,0435483
880,3452;0,0435788
881,3094;0,0436229
882,2736;0,0436888
883,2379;0,0437928
884,2021;0,043958
885,1663;0,0442063
886,1306;0,0445492
887,0948;0,0449829
888,0590;0,04549
889,0233;0,0460473
889,9875;0,0466331
890,9517;0,0472296
891,9160;0,0478207
892,8802;0,0483881
893,8444;0,0489092
894,8087;0,0493588
895,7729;0,0497127
896,7371;0,0499516
897,7014;0,0500636
898,6656;0,0500459
899,6298;0,0499055
900,5941;0,0496591
901,5583;0,0493307
902,5225;0,0489484
903,4868;0,0485388
904,4510;0,0481242
905,4152;0,0477206
906,3795;0,0473398
907,3437;0,0469923
908,3079;0,0466897
909,2722;0,0464458
910,2364;0,0462742
911,2007;0,0461836
912,1649;0,0461736
913,1292;0,0462333
914,0934;0,046344
915,0576;0,0464863
916,0219;0,046647
916,9861;0,0468216
917,9503;0,0470112
918,9146;0,0472152
919,8788;0,0474259
920,8430;0,047628
921,8073;0,047804
922,7715;0,047943
923,7357;0,0480454
924,7000;0,0481215
925,6642;0,0481852
926,6284;0,0482451
927,5927;0,0483007
928,5569;0,0483436
929,5211;0,0483626
930,4854;0,0483503
931,4496;0,0483066
932,4138;0,0482384
933,3781;0,0481581
934,3423;0,0480805
935,3065;0,0480201
936,2708;0,047989
937,2350;0,0479951
938,1992;0,048041
939,1635;0,0481254
940,1277;0,0482462
941,0919;0,0484037
942,0562;0,048602
943,0204;0,0488455
943,9846;0,0491338
944,9489;0,0494584
945,9131;0,0498057
946,8773;0,0501648
947,8416;0,0505363
948,8058;0,0509357
949,7700;0,0513867
950,7343;0,0519102
951,6985;0,052513
952,6627;0,0531866
953,6270;0,0539132
954,5912;0,054677
955,5554;0,0554711
956,5197;0,0562979
957,4839;0,0571632
958,4481;0,0580701
959,4124;0,059017
960,3766;0,0599998
961,3408;0,0610151
962,3051;0,0620617
963,2693;0,0631393
964,2335;0,0642478
965,1978;0,065388
966,1620;0,0665645
967,1262;0,0677875
968,0905;0,0690715
969,0547;0,0704306
970,0189;0,071874
970,9832;0,0734063
971,9474;0,0750332
972,9116;0,0767694
973,8759;0,0786418
974,8401;0,0806851
975,8043;0,0829299
976,7686;0,0853884
977,7328;0,0880465
978,6970;0,0908642
979,6613;0,0937831
980,6255;0,0967349
981,5897;0,0996481
982,5540;0,102451
983,5182;0,105074
984,4824;0,107461
985,4467;0,109575
986,4109;0,111403
987,3751;0,112964
988,3394;0,114292
989,3036;0,115429
990,2678;0,116413
991,2321;0,117275
992,1963;0,118038
993,1605;0,118721
994,1248;0,119339
995,0890;0,119903
996,0532;0,120419
997,0175;0,120892
997,9817;0,121327
998,9459;0,121734
999,9102;0,122125
1000,8744;0,122513
1001,8386;0,122913
1002,8029;0,123343
1003,7671;0,123828
1004,7313;0,124404
1005,6956;0,125114
1006,6598;0,126006
1007,6240;0,12712
1008,5883;0,128479
1009,5525;0,130084
1010,5167;0,131911
1011,4810;0,133913
1012,4452;0,136021
1013,4094;0,138162
1014,3737;0,140265
1015,3379;0,142273
1016,3021;0,144156
1017,2664;0,145904
1018,2306;0,147529
1019,1948;0,149048
1020,1591;0,150484
1021,1233;0,151863
1022,0875;0,153212
1023,0518;0,154562
1024,0160;0,155937
1024,9802;0,157347
1025,9445;0,158777
1026,9087;0,160195
1027,8729;0,161551
1028,8372;0,162797
1029,8014;0,163881
1030,7656;0,16475
1031,7299;0,16534
1032,6941;0,165578
1033,6583;0,165401
1034,6226;0,16478
1035,5868;0,163749
1036,5510;0,16241
1037,5153;0,160915
1038,4795;0,159431
1039,4437;0,1581
1040,4080;0,157012
1041,3722;0,156199
1042,3364;0,155642
1043,3007;0,155288
1044,2649;0,155068
1045,2291;0,154912
1046,1934;0,154751
1047,1576;0,154528
1048,1218;0,154195
1049,0861;0,153716
1050,0503;0,153069
1051,0145;0,15224
1051,9788;0,151227
1052,9430;0,15004
1053,9072;0,148696
1054,8715;0,147213
1055,8357;0,145602
1056,7999;0,143847
1057,7642;0,141911
1058,7284;0,139748
1059,6926;0,137326
1060,6569;0,134656
1061,6211;0,131796
1062,5853;0,128845
1063,5496;0,125915
1064,5138;0,123098
1065,4780;0,120458
1066,4423;0,118023
1067,4065;0,1158
1068,3707;0,113779
1069,3350;0,111937
1070,2992;0,110242
1071,2634;0,108652
1072,2277;0,107128
1073,1919;0,105635
1074,1561;0,10415
1075,1204;0,102661
1076,0846;0,101161
1077,0488;0,0996508
1078,0131;0,0981378
1078,9773;0,0966415
1079,9415;0,0951943
1080,9058;0,0938354
1081,8700;0,092599
1082,8342;0,0915034
1083,7985;0,0905462
1084,7627;0,0897097
1085,7269;0,0889722
1086,6912;0,0883195
1087,6554;0,0877494
1088,6196;0,0872694
1089,5839;0,0868892
1090,5481;0,0866139
1091,5123;0,0864419
1092,4766;0,0863682
1093,4408;0,0863885
1094,4050;0,0865004
1095,3693;0,0867017
1096,3335;0,086986
1097,2977;0,0873402
1098,2620;0,0877454
1099,2262;0,0881795
1100,1904;0,0886207
1101,1547;0,0890481
1102,1189;0,0894409
1103,0831;0,0897786
1104,0474;0,0900436
1105,0116;0,0902242
1105,9758;0,0903167
1106,9401;0,0903224
1107,9043;0,0902409
1108,8685;0,090062
1109,8328;0,0897631
1110,7970;0,0893147
1111,7612;0,0886942
1112,7255;0,087901
1113,6897;0,0869664
1114,6539;0,0859518
1115,6182;0,0849331
1116,5824;0,0839797
1117,5466;0,0831338
1118,5109;0,0824003
1119,4751;0,0817486
1120,4393;0,081124
1121,4036;0,0804631
1122,3678;0,0797071
1123,3320;0,078812
1124,2963;0,0777533
1125,2605;0,0765284
1126,2247;0,075155
1127,1890;0,0736659
1128,1532;0,0720997
1129,1174;0,0704913
1130,0817;0,0688661
1131,0459;0,0672413
1132,0101;0,0656323
1132,9744;0,0640613
1133,9386;0,0625608
1134,9028;0,0611697
1135,8671;0,0599243
1136,8313;0,0588489
1137,7955;0,0579518
1138,7598;0,0572272
1139,7240;0,0566616
1140,6882;0,0562402
1141,6525;0,0559494
1142,6167;0,0557766
1143,5809;0,0557087
1144,5452;0,0557314
1145,5094;0,0558305
1146,4736;0,0559939
1147,4379;0,0562137
1148,4021;0,0564865
1149,3663;0,0568122
1150,3306;0,0571924
1151,2948;0,0576262
1152,2590;0,0581067
1153,2233;0,0586176
1154,1875;0,0591321
1155,1517;0,059614
1156,1160;0,0600213
1157,0802;0,0603096
1158,0444;0,0604331
1159,0087;0,0603445
1159,9729;0,0599963
1160,9371;0,0593457
1161,9014;0,0583639
1162,8656;0,0570475
1163,8298;0,0554245
1164,7941;0,0535535
1165,7583;0,0515134
1166,7225;0,0493912
1167,6868;0,0472696
1168,6510;0,0452196
1169,6152;0,0432967
1170,5795;0,0415387
1171,5437;0,0399652
1172,5079;0,0385782
1173,4722;0,037366
1174,4364;0,0363091
1175,4006;0,0353874
1176,3649;0,0345843
1177,3291;0,0338887
1178,2933;0,0332932
1179,2576;0,0327919
1180,2218;0,0323785
1181,1860;0,0320461
1182,1503;0,031787
1183,1145;0,0315929
1184,0787;0,0314553
1185,0430;0,0313663
1186,0072;0,0313202
1186,9714;0,0313149
1187,9357;0,0313522
1188,8999;0,0314369
1189,8641;0,031575
1190,8284;0,0317712
1191,7926;0,0320282
1192,7568;0,0323454
1193,7211;0,0327194
1194,6853;0,0331442
1195,6495;0,0336117
1196,6138;0,034113
1197,5780;0,0346386
1198,5422;0,0351796
1199,5065;0,0355158
1200,4707;0,0360869
1201,4349;0,0366496
1202,3992;0,0371965
1203,3634;0,0377237
1204,3276;0,038232
1205,2919;0,0387266
1206,2561;0,0392164
1207,2203;0,0397112
1208,1846;0,0402198
1209,1488;0,040748
1210,1130;0,0412994
1211,0773;0,0418765
1212,0415;0,0424823
1213,0057;0,0431213
1213,9700;0,0437976
1214,9342;0,0445115
1215,8984;0,0452568
1216,8627;0,0460187
1217,8269;0,0467767
1218,7911;0,0475127
1219,7554;0,0482152
1220,7196;0,0488811
1221,6838;0,0495128
1222,6481;0,050114
1223,6123;0,0506864
1224,5765;0,0512293
1225,5408;0,0517423
1226,5050;0,0522277
1227,4692;0,0526891
1228,4335;0,0531281
1229,3977;0,0535408
1230,3619;0,0539176
1231,3262;0,0542475
1232,2904;0,054524
1233,2546;0,0547497
1234,2189;0,0549348
1235,1831;0,0550931
1236,1473;0,0552361
1237,1116;0,05537
1238,0758;0,0554946
1239,0400;0,0556053
1240,0043;0,0556939
1240,9685;0,0557502
1241,9327;0,0557637
1242,8970;0,0557272
1243,8612;0,0556391
1244,8254;0,0555045
1245,7897;0,0553316
1246,7539;0,0551273
1247,7181;0,054894
1248,6824;0,0546305
1249,6466;0,0543348
1250,6108;0,0540097
1251,5751;0,053664
1252,5393;0,053312
1253,5035;0,0529694
1254,4678;0,0526484
1255,4320;0,0523536
1256,3962;0,0520794
1257,3605;0,0518108
1258,3247;0,0515271
1259,2889;0,0512088
1260,2532;0,0508438
1261,2174;0,0504321
1262,1816;0,0499845
1263,1459;0,0495172
1264,1101;0,0490456
1265,0743;0,0485794
1266,0386;0,0481197
1267,0028;0,0476586
1267,9670;0,0471807
1268,9313;0,046668
1269,8955;0,0461063
1270,8597;0,0454925
1271,8240;0,0448373
1272,7882;0,044163
1273,7524;0,0434965
1274,7167;0,0428616
1275,6809;0,0422734
1276,6451;0,041736
1277,6094;0,0412425
1278,5736;0,0407771
1279,5378;0,0403212
1280,5021;0,0398607
1281,4663;0,0393938
1282,4305;0,0389331
1283,3948;0,0384996
1284,3590;0,0381121
1285,3232;0,0377768
1286,2875;0,0374853
1287,2517;0,0372199
1288,2159;0,0369661
1289,1802;0,0367218
1290,1444;0,0364998
1291,1086;0,0363203
1292,0729;0,0362016
1293,0371;0,0361527
1294,0013;0,036173
1294,9656;0,0362552
1295,9298;0,0363909
1296,8940;0,0365729
1297,8583;0,0367971
1298,8225;0,0370612
1299,7867;0,0373656
1300,7510;0,0377129
1301,7152;0,0381105
1302,6794;0,0385638
1303,6437;0,0390725
1304,6079;0,0396287
1305,5721;0,0402189
1306,5364;0,0408303
1307,5006;0,0414589
1308,4648;0,0421112
1309,4291;0,0427955
1310,3933;0,0435089
1311,3575;0,0442289
1312,3218;0,0449166
1313,2860;0,0455321
1314,2502;0,0460501
1315,2145;0,0464619
1316,1787;0,0467634
1317,1429;0,0469414
1318,1072;0,0469733
1319,0714;0,0468456
1320,0356;0,0465755
1320,9999;0,046216
1321,9641;0,0458369
1322,9283;0,0454979
1323,8926;0,0452312
1324,8568;0,0450411
1325,8210;0,044913
1326,7853;0,0448265
1327,7495;0,0447617
1328,7137;0,0447016
1329,6780;0,04463
1330,6422;0,0445358
1331,6064;0,0444228
1332,5707;0,044317
1333,5349;0,0442656
1334,4991;0,0443156
1335,4634;0,0444817
1336,4276;0,044712
1337,3918;0,0448709
1338,3561;0,044773
1339,3203;0,0442881
1340,2845;0,043449
1341,2488;0,0424424
1342,2130;0,0414861
1343,1772;0,0407198
1344,1415;0,0401848
1345,1057;0,0398564
1346,0699;0,0396827
1347,0342;0,0396113
1347,9984;0,0396062
1348,9626;0,0396532
1349,9269;0,0397548
1350,8911;0,0399179
1351,8553;0,0401427
1352,8196;0,040417
1353,7838;0,0407203
1354,7480;0,0410356
1355,7123;0,0413652
1356,6765;0,0417378
1357,6407;0,0421975
1358,6050;0,0427803
1359,5692;0,0434831
1360,5334;0,0442316
1361,4977;0,0448788
1362,4619;0,0452817
1363,4261;0,0454183
1364,3904;0,0454058
1365,3546;0,0453949
1366,3188;0,0454717
1367,2831;0,0456411
1368,2473;0,0458607
1369,2115;0,0460813
1370,1758;0,0462741
1371,1400;0,0464293
1372,1042;0,0465346
1373,0685;0,0465539
1374,0327;0,0464363
1374,9969;0,0461585
1375,9612;0,0457483
1376,9254;0,0452505
1377,8896;0,0446785
1378,8539;0,0440158
1379,8181;0,0432587
1380,7823;0,0424532
1381,7466;0,041687
1382,7108;0,0410407
1383,6750;0,0405404
1384,6393;0,0401424
1385,6035;0,0397503
1386,5677;0,0392648
1387,5320;0,0386653
1388,4962;0,0380456
1389,4604;0,0375349
1390,4247;0,0372022
1391,3889;0,0370534
1392,3531;0,0370753
1393,3174;0,0372473
1394,2816;0,0375129
1395,2458;0,0377646
1396,2101;0,0378853
1397,1743;0,0378199
1398,1385;0,0376112
1399,1028;0,0373724
1400,0670;0,0372223
1401,0313;0,0372282
1401,9955;0,0373872
1402,9597;0,0376441
1403,9240;0,0379271
1404,8882;0,0381856
1405,8524;0,0384187
1406,8167;0,0386691
1407,7809;0,0389797
1408,7451;0,0393579
1409,7094;0,0397805
1410,6736;0,0402236
1411,6378;0,0406861
1412,6021;0,0411889
1413,5663;0,0417513
1414,5305;0,0423698
1415,4948;0,0430145
1416,4590;0,0436223
1417,4232;0,0440836
1418,3875;0,0442925
1419,3517;0,0442842
1420,3159;0,0442435
1421,2802;0,0443005
1422,2444;0,0444119
1423,2086;0,0444446
1424,1729;0,0442991
1425,1371;0,0439649
1426,1013;0,0434974
1427,0656;0,0429597
1428,0298;0,0423828
1428,9940;0,0417704
1429,9583;0,0411325
1430,9225;0,0404997
1431,8867;0,0398918
1432,8510;0,0392827
1433,8152;0,0386094
1434,7794;0,0378123
1435,7437;0,0368868
1436,7079;0,0359469
1437,6721;0,0352127
1438,6364;0,034838
1439,6006;0,0347824
1440,5648;0,0348962
1441,5291;0,0350611
1442,4933;0,035243
1443,4575;0,0354651
1444,4218;0,0357555
1445,3860;0,0361114
1446,3502;0,0364976
1447,3145;0,036875
1448,2787;0,0372337
1449,2429;0,0375989
1450,2072;0,0379919
1451,1714;0,0383866
1452,1356;0,0387179
1453,0999;0,0389395
1454,0641;0,039075
1455,0283;0,0391911
1455,9926;0,0392377
1456,9568;0,0389745
1457,9210;0,038403
1458,8853;0,0379414
1459,8495;0,0377953
1460,8137;0,0377953
1461,7780;0,0377133
1462,7422;0,0374285
1463,7064;0,0369202
1464,6707;0,0362395
1465,6349;0,0355055
1466,5991;0,034841
1467,5634;0,0342638
1468,5276;0,0336925
1469,4918;0,0330445
1470,4561;0,0322872
1471,4203;0,031396
1472,3845;0,030302
1473,3488;0,0289902
1474,3130;0,0276393
1475,2772;0,0264833
1476,2415;0,0256028
1477,2057;0,0249486
1478,1699;0,0244466
1479,1342;0,024042
1480,0984;0,0236982
1481,0626;0,0233966
1482,0269;0,0231453
1482,9911;0,0229805
1483,9553;0,0229516
1484,9196;0,0231029
1485,8838;0,0234592
1486,8480;0,0239902
1487,8123;0,0245406
1488,7765;0,0248391
1489,7407;0,0247461
1490,7050;0,0244538
1491,6692;0,0242543
1492,6334;0,0242699
1493,5977;0,0244842
1494,5619;0,0248718
1495,5261;0,0254391
1496,4904;0,0261733
1497,4546;0,0269989
1498,4188;0,0278321
1499,3831;0,0286299
1500,3473;0,0293299
1501,3115;0,0298266
1502,2758;0,03005
1503,2400;0,0300723
1504,2042;0,0301857
1505,1685;0,0308445
1506,1327;0,0321954
1507,0969;0,0334482
1508,0612;0,0337109
1509,0254;0,0332403
1509,9896;0,0326197
1510,9539;0,0320569
1511,9181;0,0315644
1512,8823;0,031141
1513,8466;0,0307837
1514,8108;0,0304455
1515,7750;0,0300294
1516,7393;0,029446
1517,7035;0,0286788
1518,6677;0,0277939
1519,6320;0,0269052
1520,5962;0,0261383
1521,5604;0,025601
1522,5247;0,0253404
1523,4889;0,0253051
1524,4531;0,0253653
1525,4174;0,025393
1526,3816;0,0253335
1527,3458;0,0252169
1528,3101;0,0251057
1529,2743;0,0250426
1530,2385;0,0250447
1531,2028;0,0251205
1532,1670;0,0252587
1533,1312;0,0254061
1534,0955;0,0254875
1535,0597;0,0254419
1536,0239;0,0252303
1536,9882;0,0248703
1537,9524;0,0245129
1538,9166;0,0244566
1539,8809;0,0249188
1540,8451;0,0256621
1541,8093;0,02624
1542,7736;0,0265595
1543,7378;0,0267063
1544,7020;0,0267302
1545,6663;0,0266908
1546,6305;0,0266664
1547,5947;0,0267019
1548,5590;0,0267762
1549,5232;0,0268223
1550,4874;0,0267776
1551,4517;0,0266256
1552,4159;0,0263936
1553,3801;0,0261074
1554,3444;0,0257592
1555,3086;0,0253336
1556,2728;0,024851
1557,2371;0,0243204
1558,2013;0,0236539
1559,1655;0,022998
1560,1298;0,0229095
1561,0940;0,0235263
1562,0582;0,02446
1563,0225;0,0253313
1563,9867;0,0259671
1564,9509;0,0263539
1565,9152;0,0265613
1566,8794;0,0266845
1567,8436;0,0268022
1568,8079;0,0269586
1569,7721;0,0271723
1570,7363;0,027439
1571,7006;0,027719
1572,6648;0,0279653
1573,6290;0,0281839
1574,5933;0,0284482
1575,5575;0,0288274
1576,5217;0,0293117
1577,4860;0,0298588
1578,4502;0,0304482
1579,4144;0,031045
1580,3787;0,0316012
1581,3429;0,0321019
1582,3071;0,0325743
1583,2714;0,033061
1584,2356;0,0335927
1585,1998;0,0341789
1586,1641;0,0348106
1587,1283;0,0354651
1588,0925;0,0361097
1589,0568;0,0367079
1590,0210;0,0372281
1590,9852;0,0376484
1591,9495;0,0379524
1592,9137;0,0381213
1593,8779;0,0381358
1594,8422;0,0379921
1595,8064;0,0377183
1596,7706;0,037372
1597,7349;0,0370178
1598,6991;0,0367009
1599,6633;0,0364357
1600,6276;0,0362101
1601,5918;0,0360033
1602,5560;0,0358051
1603,5203;0,0356239
1604,4845;0,0354743
1605,4487;0,0353576
1606,4130;0,035253
1607,3772;0,035129
1608,3414;0,0349675
1609,3057;0,0347826
1610,2699;0,0346074
1611,2341;0,0344538
1612,1984;0,034295
1613,1626;0,0340972
1614,1268;0,0338656
1615,0911;0,0336567
1616,0553;0,0335531
1617,0195;0,0336343
1617,9838;0,0339315
1618,9480;0,0343774
1619,9122;0,0348407
1620,8765;0,0352178
1621,8407;0,0354725
1622,8049;0,0356173
1623,7692;0,0356875
1624,7334;0,0357301
1625,6976;0,0357871
1626,6619;0,0358781
1627,6261;0,0360035
1628,5903;0,0361517
1629,5546;0,0362914
1630,5188;0,0363701
1631,4830;0,0363414
1632,4473;0,0362138
1633,4115;0,0360795
1634,3757;0,0360591
1635,3400;0,0361701
1636,3042;0,0363249
1637,2684;0,0365059
1638,2327;0,0367435
1639,1969;0,0369957
1640,1611;0,0371828
1641,1254;0,0372557
1642,0896;0,037216
1643,0538;0,0371138
1644,0181;0,0370295
1644,9823;0,0370105
1645,9465;0,0369874
1646,9108;0,0368317
1647,8750;0,0365198
1648,8392;0,036092
1649,8035;0,0355476
1650,7677;0,0348996
1651,7319;0,0342152
1652,6962;0,0335161
1653,6604;0,0328404
1654,6246;0,0324806
1655,5889;0,0325733
1656,5531;0,0328555
1657,5173;0,0330246
1658,4816;0,0329425
1659,4458;0,0326104
1660,4100;0,0320906
1661,3743;0,0314563
1662,3385;0,0308003
1663,3027;0,0302419
1664,2670;0,0298554
1665,2312;0,0296129
1666,1954;0,0294233
1667,1597;0,0291921
1668,1239;0,0288404
1669,0881;0,0283211
1670,0524;0,027674
1671,0166;0,0270191
1671,9808;0,0264317
1672,9451;0,0258859
1673,9093;0,0253439
1674,8735;0,0248552
1675,8378;0,0245563
1676,8020;0,0245563
1677,7662;0,0248152
1678,7305;0,0251542
1679,6947;0,0253663
1680,6589;0,0253009
1681,6232;0,024872
1682,5874;0,0240402
1683,5516;0,0229038
1684,5159;0,0218544
1685,4801;0,0213118
1686,4443;0,0212682
1687,4086;0,0213997
1688,3728;0,0214136
1689,3370;0,0211902
1690,3013;0,0207624
1691,2655;0,0202438
1692,2297;0,0197615
1693,1940;0,0194164
1694,1582;0,0192582
1695,1224;0,0192568
1696,0867;0,0192856
1697,0509;0,0191658
1698,0151;0,0187945
1698,9794;0,0182677
1699,9436;0,0178521
1700,9078;0,0177796
1701,8721;0,0180698
1702,8363;0,0185562
1703,8005;0,019033
1704,7648;0,0193672
1705,7290;0,0195385
1706,6932;0,0196256
1707,6575;0,0197466
1708,6217;0,0199809
1709,5859;0,020334
1710,5502;0,0207648
1711,5144;0,0212312
1712,4786;0,0217127
1713,4429;0,0222027
1714,4071;0,0226708
1715,3713;0,0230049
1716,3356;0,0230253
1717,2998;0,0227082
1718,2640;0,0223537
1719,2283;0,0222878
1720,1925;0,0225523
1721,1567;0,0229874
1722,1210;0,0234187
1723,0852;0,0237465
1724,0494;0,0239624
1725,0137;0,0241329
1725,9779;0,0243561
1726,9421;0,0247005
1727,9064;0,0251609
1728,8706;0,0256607
1729,8348;0,0260874
1730,7991;0,0263285
1731,7633;0,0262881
1732,7275;0,025918
1733,6918;0,0253108
1734,6560;0,0247239
1735,6202;0,0243615
1736,5845;0,024203
1737,5487;0,0241076
1738,5129;0,0239793
1739,4772;0,0238222
1740,4414;0,0236994
1741,4056;0,0236549
1742,3699;0,0236646
1743,3341;0,0236545
1744,2983;0,0235592
1745,2626;0,0233586
1746,2268;0,0230638
1747,1910;0,0226635
1748,1553;0,0220766
1749,1195;0,0211925
1750,0837;0,0200187
1751,0480;0,0187587
1752,0122;0,017665
1752,9764;0,0168566
1753,9407;0,0163024
1754,9049;0,0159061
1755,8691;0,0155759
1756,8334;0,0152503
1757,7976;0,0148939
1758,7618;0,0144813
1759,7261;0,0139899
1760,6903;0,0134158
1761,6545;0,0128025
1762,6188;0,0122429
1763,5830;0,0118309
1764,5472;0,0116017
1765,5115;0,011519
1766,4757;0,0115062
1767,4399;0,0114826
1768,4042;0,0113865
1769,3684;0,0111833
1770,3326;0,0108711
1771,2969;0,0104866
1772,2611;0,0101133
1773,2253;0,00985769
1774,1896;0,0097798
1775,1538;0,00985076
1776,1180;0,00998549
1777,0823;0,0101029
1778,0465;0,0101581
1779,0107;0,0101423
1779,9750;0,0100688
1780,9392;0,00995871
1781,9034;0,00982846
1782,8677;0,00968743
1783,8319;0,00954796
1784,7961;0,009437
1785,7604;0,00939076
1786,7246;0,00943269
1787,6888;0,00955764
1788,6531;0,00973714
1789,6173;0,00993115
1790,5815;0,0100874
1791,5458;0,0101466
1792,5100;0,0100913
1793,4742;0,00998596
1794,4385;0,00991497
1795,4027;0,0099015
1796,3669;0,00991861
1797,3312;0,00994302
1798,2954;0,00997391
1799,2596;0,0100092
1800,2239;0,0100187
1801,1881;0,00995506
1802,1523;0,00979792
1803,1166;0,00957873
1804,0808;0,00936511
1805,0450;0,0092259
1806,0093;0,00920156
1806,9735;0,0092881
1807,9377;0,00943576
1808,9020;0,00956539
1809,8662;0,00960428
1810,8304;0,00952804
1811,7947;0,00937507
1812,7589;0,00921548
1813,7231;0,00910353
1814,6874;0,00905386
1815,6516;0,00904682
1816,6158;0,00904767
1817,5801;0,00903055
1818,5443;0,00899831
1819,5085;0,00898285
1820,4728;0,0090222
1821,4370;0,00913288
1822,4012;0,00929571
1823,3655;0,00946131
1824,3297;0,00957675
1825,2939;0,00961953
1826,2582;0,00960705
1827,2224;0,00957017
1828,1866;0,00951898
1829,1509;0,00943671
1830,1151;0,00931205
1831,0793;0,00917454
1832,0436;0,00907946
1833,0078;0,00905818
1833,9720;0,00909666
1834,9363;0,00915314
1835,9005;0,00918602
1836,8647;0,00917739
1837,8290;0,00914393
1838,7932;0,00912388
1839,7574;0,00915036
1840,7217;0,00923829
1841,6859;0,00938576
1842,6501;0,00956854
1843,6144;0,00973345
1844,5786;0,00982432
1845,5428;0,00982541
1846,5071;0,00975575
1847,4713;0,00962842
1848,4355;0,00944337
1849,3998;0,00921127
1850,3640;0,00896794
1851,3282;0,00876336
1852,2925;0,00863597
1853,2567;0,0085947
1854,2209;0,00862124
1855,1852;0,00868682
1856,1494;0,00876709
1857,1136;0,00884635
1858,0779;0,00891193
1859,0421;0,00895103
1860,0063;0,00895703
1860,9706;0,00894129
1861,9348;0,00893755
1862,8990;0,00899167
1863,8633;0,00914287
1864,8275;0,00940665
1865,7917;0,0097585
1866,7560;0,0101153
1867,7202;0,0103403
1868,6844;0,0103145
1869,6487;0,0100379
1870,6129;0,00963
1871,5771;0,00922775
1872,5414;0,0089107
1873,5056;0,00870324
1874,4698;0,00860096
1875,4341;0,00858402
1876,3983;0,00862198
1877,3625;0,00868099
1878,3268;0,00873567
1879,2910;0,00877532
1880,2552;0,00880185
1881,2195;0,0088233
1882,1837;0,00884907
1883,1479;0,0088886
1884,1122;0,00895083
1885,0764;0,00904096
1886,0406;0,00915466
1887,0049;0,00927324
1887,9691;0,00936624
1888,9333;0,00940685
1889,8976;0,00939357
1890,8618;0,00935557
1891,8260;0,00933071
1892,7903;0,00933683
1893,7545;0,00936166
1894,7188;0,0093752
1895,6830;0,00935346
1896,6472;0,00929737
1897,6115;0,00923171
1898,5757;0,00918442
1899,5399;0,00916546
1900,5042;0,00916298
1901,4684;0,0091578
1902,4326;0,00914399
1903,3969;0,00913996
1904,3611;0,00918002
1905,3253;0,00929092
1906,2896;0,00946886
1907,2538;0,00967107
1908,2180;0,00982906
1909,1823;0,00988207
1910,1465;0,00981413
1911,1107;0,00966553
1912,0750;0,00950669
1913,0392;0,00939797
1914,0034;0,00936768
1914,9677;0,00941507
1915,9319;0,00952608
1916,8961;0,00968898
1917,8604;0,00990111
1918,8246;0,0101588
1919,7888;0,0104354
1920,7531;0,0106703
1921,7173;0,0107858
1922,6815;0,0107276
1923,6458;0,0105056
1924,6100;0,010202
1925,5742;0,0099287
1926,5385;0,00976567
1927,5027;0,00972636
1928,4669;0,00976802
1929,4312;0,0098267
1930,3954;0,00985351
1931,3596;0,00983477
1932,3239;0,00978773
1933,2881;0,00974139
1934,2523;0,00971863
1935,2166;0,00972965
1936,1808;0,00977513
1937,1450;0,00985235
1938,1093;0,00995915
1939,0735;0,0100941
1940,0377;0,0102522
1941,0020;0,0104181
1941,9662;0,0105618
1942,9304;0,0106478
1943,8947;0,0106525
1944,8589;0,0105777
1945,8231;0,0104489
1946,7874;0,0103056
1947,7516;0,0101902
1948,7158;0,0101384
1949,6801;0,0101682
1950,6443;0,0102746
1951,6085;0,0104312
1952,5728;0,0106008
1953,5370;0,0107497
1954,5012;0,0108596
1955,4655;0,010932
1956,4297;0,0109824
1957,3939;0,0110282
1958,3582;0,0110798
1959,3224;0,0111421
1960,2866;0,0112259
1961,2509;0,0113569
1962,2151;0,0115662
1963,1793;0,0118624
1964,1436;0,0122017
1965,1078;0,0124824
1966,0720;0,0125812
1967,0363;0,0124237
1968,0005;0,0120442
1968,9647;0,0115797
1969,9290;0,0111947
1970,8932;0,0109965
1971,8574;0,0109991
1972,8217;0,0111465
1973,7859;0,0113648
1974,7501;0,0116035
1975,7144;0,0118416
1976,6786;0,0120603
1977,6428;0,0122179
1978,6071;0,0122626
1979,5713;0,012174
1980,5355;0,0119913
1981,4998;0,0117976
1982,4640;0,0116753
1983,4282;0,0116648
1984,3925;0,011752
1985,3567;0,0118913
1986,3209;0,0120476
1987,2852;0,0122226
1988,2494;0,0124468
1989,2136;0,0127386
1990,1779;0,0130645
1991,1421;0,0133343
1992,1063;0,0134453
1993,0706;0,0133486
1994,0348;0,0130831
1994,9990;0,0127525
1995,9633;0,0124691
1996,9275;0,0123049
1997,8917;0,0122725
1998,8560;0,0123381
1999,8202;0,012455
2000,7844;0,0125972
2001,7487;0,0127712
2002,7129;0,0130001
2003,6771;0,0132912
2004,6414;0,0136106
2005,6056;0,013882
2006,5698;0,0140175
2007,5341;0,0139669
2008,4983;0,0137529
2009,4625;0,0134685
2010,4268;0,0132375
2011,3910;0,0131646
2012,3552;0,0132978
2013,3195;0,0136143
2014,2837;0,0140257
2015,2479;0,014402
2016,2122;0,0146167
2017,1764;0,0146006
2018,1406;0,0143811
2019,1049;0,0140744
2020,0691;0,0138286
2021,0333;0,0137505
2021,9976;0,0138534
2022,9618;0,0140539
2023,9260;0,0142187
2024,8903;0,0142357
2025,8545;0,0140707
2026,8187;0,0137738
2027,7830;0,013442
2028,7472;0,0131659
2029,7114;0,0129987
2030,6757;0,0129536
2031,6399;0,0130176
2032,6041;0,0131598
2033,5684;0,0133355
2034,5326;0,0134944
2035,4968;0,0136031
2036,4611;0,0136644
2037,4253;0,0137155
2038,3895;0,0137972
2039,3538;0,0139132
2040,3180;0,0140123
2041,2822;0,0140092
2042,2465;0,0138354
2043,2107;0,013485
2044,1749;0,0130213
2045,1392;0,012545
2046,1034;0,0121494
2047,0676;0,0118879
2048,0320;0,0117679
2048,9961;0,0117629
2049,9604;0,011832
2050,9246;0,0119309
2051,8889;0,0120186
2052,8530;0,0120631
2053,8174;0,0120512
2054,7815;0,011994
2055,7458;0,0119221
2056,7100;0,0118674
2057,6743;0,0118439
2058,6384;0,0118417
2059,6028;0,0118378
2060,5669;0,0118145
2061,5313;0,011769
2062,4954;0,0117115
2063,4597;0,0116545
2064,4238;0,0116063
2065,3882;0,0115731
2066,3523;0,0115624
2067,3167;0,0115802
2068,2808;0,0116208
2069,2451;0,0116585
2070,2092;0,011654
2071,1736;0,0115747
2072,1377;0,011419
2073,1021;0,011224
2074,0662;0,0110478
2075,0305;0,0109357
2075,9946;0,0108941
2076,9590;0,0108886
2077,9231;0,010869
2078,8875;0,0108037
2079,8516;0,0106995
2080,8159;0,0105968
2081,7800;0,0105443
2082,7444;0,0105707
2083,7085;0,0106694
2084,6729;0,0108033
2085,6370;0,0109244
2086,6013;0,0109941
2087,5654;0,0109982
2088,5298;0,0109489
2089,4939;0,0108786
2090,4583;0,010827
2091,4224;0,0108265
2092,3867;0,0108893
2093,3508;0,0109991
2094,3152;0,0111142
2095,2793;0,0111833
2096,2437;0,0111708
2097,2078;0,0110769
2098,1721;0,0109389
2099,1362;0,0108104
2100,1006;0,0107329
2101,0647;0,0107134
2102,0291;0,0107315
2102,9932;0,010755
2103,9575;0,0107613
2104,9216;0,0107473
2105,8860;0,0107228
2106,8501;0,0106974
2107,8145;0,0106734
2108,7786;0,01065
2109,7429;0,0106301
2110,7070;0,0106231
2111,6714;0,0106371
2112,6355;0,0106688
2113,5999;0,0107023
2114,5640;0,0107187
2115,5283;0,0107121
2116,4924;0,0106969
2117,4568;0,0107012
2118,4209;0,0107488
2119,3853;0,0108423
2120,3494;0,0109583
2121,3137;0,0110594
2122,2778;0,0111135
2123,2422;0,0111114
2124,2063;0,0110701
2125,1707;0,0110237
2126,1348;0,0110072
2127,0991;0,0110437
2128,0632;0,0111405
2129,0276;0,0112954
2129,9917;0,011505
2130,9561;0,0117674
2131,9202;0,012075
2132,8845;0,0124033
2133,8486;0,0127052
2134,8130;0,0129219
2135,7771;0,0130078
2136,7415;0,0129543
2137,7056;0,0127951
2138,6699;0,0125901
2139,6340;0,0124035
2140,5984;0,0122916
2141,5625;0,0123027
2142,5269;0,0124758
2143,4910;0,012828
2144,4553;0,013331
2145,4194;0,0138971
2146,3838;0,0143981
2147,3479;0,0147182
2148,3123;0,0148125
2149,2764;0,0147342
2150,2407;0,0146096
2151,2048;0,0145752
2152,1692;0,0147157
2153,1333;0,0150351
2154,0977;0,0154683
2155,0618;0,0159159
2156,0261;0,0162811
2156,9902;0,0164999
2157,9546;0,0165608
2158,9187;0,0165048
2159,8831;0,0163917
2160,8472;0,0162517
2161,8115;0,0160655
2162,7756;0,0157918
2163,7400;0,0154174
2164,7041;0,01499
2165,6685;0,014606
2166,6326;0,0143567
2167,5969;0,0142686
2168,5610;0,0142853
2169,5254;0,0143051
2170,4895;0,0142483
2171,4539;0,0141069
2172,4180;0,0139422
2173,3823;0,0138346
2174,3464;0,0138199
2175,3108;0,0138594
2176,2749;0,0138657
2177,2393;0,0137657
2178,2034;0,0135534
2179,1677;0,0132974
2180,1318;0,0131032
2181,0962;0,0130543
2182,0603;0,0131649
2183,0247;0,0133699
2183,9888;0,0135552
2184,9531;0,0136115
2185,9172;0,0134812
2186,8816;0,0131806
2187,8457;0,0127903
2188,8101;0,0124197
2189,7742;0,012162
2190,7385;0,0120576
2191,7026;0,0120852
2192,6670;0,0121819
2193,6311;0,0122774
2194,5955;0,0123237
2195,5596;0,0123038
2196,5239;0,0122224
2197,4880;0,0120924
2198,4524;0,0119292
2199,4165;0,011754
2200,3809;0,0115973
2201,3450;0,0114945
2202,3093;0,0114709
2203,2734;0,0115286
2204,2378;0,0116447
2205,2019;0,0117813
2206,1663;0,011901
2207,1304;0,0119768
2208,0947;0,0119934
2209,0588;0,0119438
2210,0232;0,0118303
2210,9873;0,0116682
2211,9517;0,0114892
2212,9158;0,0113344
2213,8801;0,011238
2214,8442;0,0112108
2215,8086;0,0112339
2216,7727;0,0112707
2217,7371;0,0112896
2218,7012;0,011282
2219,6655;0,0112645
2220,6296;0,0112626
2221,5940;0,0112892
2222,5581;0,0113323
2223,5225;0,011361
2224,4866;0,0113452
2225,4509;0,0112748
2226,4150;0,0111646
2227,3794;0,0110415
2228,3435;0,0109293
2229,3079;0,0108353
2230,2720;0,0107525
2231,2363;0,0106723
2232,2004;0,0105956
2233,1648;0,0105335
2234,1289;0,0104984
2235,0933;0,0104936
2236,0574;0,0105102
2237,0217;0,0105346
2237,9858;0,0105587
2238,9502;0,0105845
2239,9143;0,0106195
2240,8787;0,0106655
2241,8428;0,0107111
2242,8071;0,0107338
2243,7712;0,0107128
2244,7356;0,010643
2245,6997;0,0105443
2246,6641;0,0104559
2247,6282;0,0104214
2248,5925;0,0104686
2249,5566;0,010596
2250,5210;0,0107721
2251,4851;0,0109472
2252,4495;0,011072
2253,4136;0,0111138
2254,3779;0,0110652
2255,3420;0,0109427
2256,3064;0,0107785
2257,2705;0,0106103
2258,2349;0,010472
2259,1990;0,0103859
2260,1633;0,0103588
2261,1274;0,0103808
2262,0918;0,0104307
2263,0559;0,0104862
2264,0203;0,0105335
2264,9844;0,0105707
2265,9487;0,0106024
2266,9128;0,0106285
2267,8772;0,0106376
2268,8413;0,0106113
2269,8057;0,0105371
2270,7698;0,0104204
2271,7341;0,0102866
2272,6982;0,010169
2273,6626;0,0100912
2274,6267;0,0100555
2275,5911;0,0100457
2276,5552;0,0100425
2277,5195;0,0100383
2278,4836;0,0100411
2279,4480;0,0100658
2280,4121;0,0101204
2281,3765;0,0102005
2282,3406;0,0102959
2283,3049;0,0104041
2284,2690;0,0105382
2285,2334;0,0107225
2286,1975;0,0109783
2287,1619;0,0113113
2288,1260;0,0117095
2289,0903;0,0121516
2290,0544;0,0126196
2291,0188;0,0131043
2291,9829;0,013602
2292,9473;0,0141074
2293,9114;0,0146091
2294,8757;0,0150919
2295,8398;0,0155424
2296,8042;0,0159505
2297,7683;0,0163076
2298,7327;0,0166041
2299,6968;0,0168332
2300,6611;0,0170012
2301,6252;0,0171393
2302,5896;0,017303
2303,5537;0,0175588
2304,5181;0,0179569
2305,4822;0,0185025
2306,4465;0,0191381
2307,4106;0,0197482
2308,3750;0,02019
2309,3391;0,0203407
2310,3035;0,0201452
2311,2676;0,0196434
2312,2319;0,0189603
2313,1960;0,0182592
2314,1604;0,0176784
2315,1245;0,0172867
2316,0889;0,017077
2317,0530;0,0169948
2318,0173;0,0169765
2318,9814;0,0169765
2319,9458;0,0169765
2320,9099;0,0169833
2321,8743;0,0170204
2322,8384;0,0171095
2323,8027;0,0172409
2324,7668;0,0173563
2325,7312;0,0173658
2326,6953;0,0171901
2327,6597;0,0167969
2328,6238;0,0162123
2329,5881;0,0155075
2330,5522;0,0147786
2331,5166;0,014119
2332,4807;0,013589
2333,4451;0,0131981
2334,4092;0,0129226
2335,3735;0,0127476
2336,3376;0,0127033
2337,3020;0,012866
2338,2661;0,0133218
2339,2305;0,0141033
2340,1946;0,0151241
2341,1589;0,0161396
2342,1230;0,0167971
2343,0874;0,0168674
2344,0515;0,0165824
2345,0159;0,0166014
2345,9800;0,0174004
2346,9443;0,0188061
2347,9084;0,0201901
2348,8728;0,0209532
2349,8369;0,0208471
2350,8013;0,0200426
2351,7654;0,0189942
2352,7297;0,0181667
2353,6938;0,0177756
2354,6582;0,0177604
2355,6223;0,017974
2356,5867;0,018303
2357,5508;0,0186201
2358,5151;0,0187572
2359,4792;0,0186016
2360,4436;0,0181919
2361,4077;0,017668
2362,3721;0,0171287
2363,3362;0,0165662
2364,3005;0,0159284
2365,2646;0,0152082
2366,2290;0,0144641
2367,1931;0,0137707
2368,1575;0,01317
2369,1216;0,0126646
2370,0859;0,0122406
2371,0500;0,011889
2372,0144;0,0116169
2372,9785;0,0114501
2373,9429;0,0114296
2374,9070;0,0115975
2375,8713;0,0119719
2376,8354;0,0125234
2377,7998;0,0131663
2378,7639;0,0137733
2379,7283;0,0142093
2380,6924;0,014369
2381,6567;0,0142041
2382,6208;0,0137325
2383,5852;0,0130273
2384,5493;0,0121938
2385,5137;0,0113414
2386,4778;0,0105595
2387,4421;0,0099033
2388,4063;0,0093933
2389,3706;0,00902406
2390,3347;0,00877749
2391,2991;0,00863317
2392,2632;0,00857196
2393,2275;0,00857431
2394,1917;0,00861752
2395,1560;0,00867664
2396,1201;0,00872957
2397,0845;0,0087633
2398,0486;0,00877892
2399,0129;0,00878332
2399,9771;0,00878375
2400,9414;0,0087838
2401,9055;0,00878158
2402,8699;0,00877653
2403,8340;0,0087736
2404,7983;0,00878283
2405,7625;0,00881269
2406,7268;0,00886113
2407,6909;0,00891442
2408,6553;0,00895369
2409,6194;0,00896498
2410,5837;0,00894933
2411,5479;0,00892196
2412,5122;0,0089035
2413,4763;0,00890815
2414,4407;0,00893667
2415,4048;0,00897691
2416,3691;0,00901116
2417,3333;0,00902527
2418,2976;0,0090148
2419,2617;0,0089866
2420,2261;0,00895574
2421,1902;0,00893878
2422,1545;0,00894861
2423,1187;0,00898844
2424,0830;0,00905019
2425,0471;0,00911751
2426,0115;0,00917302
2426,9756;0,00920645
2427,9399;0,00921906
2428,9041;0,00922186
2429,8684;0,00922851
2430,8325;0,00924756
2431,7969;0,00927833
2432,7610;0,00931267
2433,7253;0,00934046
2434,6895;0,00935516
2435,6538;0,00935633
2436,6179;0,00934853
2437,5823;0,00933823
2438,5464;0,00933099
2439,5107;0,00933003
2440,4749;0,00933627
2441,4392;0,00934884
2442,4033;0,00936538
2443,3677;0,00938222
2444,3318;0,00939481
2445,2961;0,00939911
2446,2603;0,00939396
2447,2246;0,00938322
2448,1887;0,00937582
2449,1531;0,00938265
2450,1172;0,00941067
2451,0815;0,00945751
2452,0457;0,0095101
2453,0100;0,00954947
2453,9741;0,00955998
2454,9385;0,00953799
2455,9026;0,00949489
2456,8669;0,00945214
2457,8311;0,00943106
2458,7954;0,00944268
2459,7595;0,00948315
2460,7239;0,00953635
2461,6880;0,0095821
2462,6523;0,00960537
2463,6165;0,00960237
2464,5808;0,00958142
2465,5449;0,00955871
2466,5093;0,0095512
2467,4734;0,00956921
2468,4377;0,00961197
2469,4019;0,0096677
2470,3662;0,00971885
2471,3303;0,00975023
2472,2947;0,00975624
2473,2588;0,00974336
2474,2231;0,0097263
2475,1873;0,00971997
2476,1516;0,00973192
2477,1157;0,00975966
2478,0801;0,00979383
2479,0442;0,00982434
2480,0085;0,00984508
2480,9727;0,00985452
2481,9370;0,0098535
2482,9011;0,00984347
2483,8655;0,00982764
2484,8296;0,00981356
2485,7939;0,0098134
2486,7581;0,00983914
2487,7224;0,00989454
2488,6865;0,0099694
2489,6509;0,0100415
2490,6150;0,0100863
2491,5793;0,0100899
2492,5435;0,0100558
2493,5078;0,0100026
2494,4719;0,0099546
2495,4363;0,00992944
2496,4004;0,00993197
2497,3647;0,00995479
2498,3289;0,00998462
2499,2932;0,01001
2500,2573;0,0100265
2501,2217;0,0100379
2502,1858;0,0100528
2503,1501;0,0100783
2504,1143;0,0101146
2505,0786;0,0101531
2506,0427;0,0101801
2507,0071;0,0101855
2507,9712;0,0101689
2508,9355;0,0101411
2509,8997;0,0101169
2510,8640;0,0101058
2511,8281;0,0101069
2512,7925;0,0101113
2513,7566;0,0101103
2514,7209;0,0101022
2515,6851;0,0100919
2516,6494;0,0100853
2517,6135;0,0100831
2518,5779;0,0100805
2519,5420;0,010073
2520,5063;0,0100631
2521,4705;0,0100603
2522,4348;0,0100743
2523,3989;0,010106
2524,3633;0,0101439
2525,3274;0,0101701
2526,2917;0,010171
2527,2559;0,0101462
2528,2202;0,0101086
2529,1843;0,010077
2530,1487;0,0100658
2531,1128;0,0100792
2532,0771;0,0101118
2533,0413;0,0101538
2534,0056;0,010196
2534,9697;0,0102317
2535,9341;0,0102558
2536,8982;0,0102651
2537,8625;0,0102598
2538,8267;0,0102459
2539,7910;0,0102351
2540,7551;0,0102401
2541,7195;0,0102664
2542,6836;0,0103072
2543,6479;0,0103448
2544,6121;0,0103594
2545,5764;0,0103406
2546,5405;0,010294
2547,5049;0,0102383
2548,4690;0,0101945
2549,4333;0,0101738
2550,3975;0,0101734
2551,3618;0,0101801
2552,3259;0,0101803
2553,2903;0,0101686
2554,2544;0,0101495
2555,2188;0,0101333
2556,1829;0,0101296
2557,1472;0,0101434
2558,1113;0,0101735
2559,0757;0,0102141
2560,0398;0,0102561
2561,0042;0,0102891
2561,9683;0,0103047
2562,9326;0,0102999
2563,8967;0,0102797
2564,8611;0,0102553
2565,8252;0,0102384
2566,7896;0,0102345
2567,7537;0,0102407
2568,7180;0,0102482
2569,6821;0,01025
2570,6465;0,0102463
2571,6106;0,0102437
2572,5750;0,0102498
2573,5391;0,0102656
2574,5034;0,0102835
2575,4675;0,0102913
2576,4319;0,0102808
2577,3960;0,0102542
2578,3604;0,0102239
2579,3245;0,0102059
2580,2888;0,0102101
2581,2529;0,0102349
2582,2173;0,010268
2583,1814;0,0102946
2584,1458;0,0103047
2585,1099;0,0102972
2586,0742;0,0102779
2587,0383;0,010254
2588,0027;0,0102297
2588,9668;0,010206
2589,9312;0,0101838
2590,8953;0,0101664
2591,8596;0,0101603
2592,8237;0,0101705
2593,7881;0,0101966
2594,7522;0,010231
2595,7166;0,0102617
2596,6807;0,0102785
2597,6450;0,0102787
2598,6091;0,0102684
2599,5735;0,0102594
2600,5376;0,0102625
2601,5020;0,0102818
2602,4661;0,0103124
2603,4304;0,0103441
2604,3945;0,0103673
2605,3589;0,0103782
2606,3230;0,0103804
2607,2874;0,0103812
2608,2515;0,0103867
2609,2158;0,0103978
2610,1799;0,0104113
2611,1443;0,0104226
2612,1084;0,0104293
2613,0728;0,0104322
2614,0369;0,0104329
2615,0012;0,0104323
2615,9653;0,0104291
2616,9297;0,010422
2617,8938;0,010412
2618,8582;0,0104031
2619,8223;0,0104007
2620,7866;0,0104084
2621,7507;0,0104255
2622,7151;0,0104477
2623,6792;0,0104691
2624,6436;0,0104848
2625,6077;0,0104933
2626,5720;0,0104961
2627,5361;0,010497
2628,5005;0,0105002
2629,4646;0,0105089
2630,4290;0,0105243
2631,3931;0,0105455
2632,3574;0,0105694
2633,3215;0,0105924
2634,2859;0,010611
2635,2500;0,0106235
2636,2144;0,01063
2637,1785;0,0106325
2638,1428;0,0106344
2639,1069;0,0106396
2640,0713;0,0106503
2641,0354;0,0106663
2641,9998;0,0106845
2642,9639;0,0107008
2643,9282;0,010712
2644,8923;0,0107188
2645,8567;0,0107252
2646,8208;0,0107368
2647,7852;0,0107567
2648,7493;0,0107832
2649,7136;0,0108104
2650,6777;0,0108312
2651,6421;0,0108412
2652,6062;0,0108415
2653,5706;0,0108375
2654,5347;0,010836
2655,4990;0,0108423
2656,4631;0,0108577
2657,4275;0,0108806
2658,3916;0,0109079
2659,3560;0,0109371
2660,3201;0,010967
2661,2844;0,0109982
2662,2485;0,0110312
2663,2129;0,0110667
2664,1770;0,011104
2665,1414;0,0111409
2666,1055;0,0111751
2667,0698;0,0112038
2668,0339;0,0112257
2668,9983;0,011241
2669,9624;0,0112513
2670,9268;0,0112588
2671,8909;0,0112656
2672,8552;0,0112737
2673,8193;0,011285
2674,7837;0,0113011
2675,7478;0,0113234
2676,7122;0,0113518
2677,6763;0,0113842
2678,6406;0,0114168
2679,6047;0,0114457
2680,5691;0,0114675
2681,5332;0,0114815
2682,4976;0,0114889
2683,4617;0,0114928
2684,4260;0,0114966
2685,3901;0,0115034
2686,3545;0,0115149
2687,3186;0,0115305
2688,2830;0,0115475
2689,2471;0,0115622
2690,2114;0,0115726
2691,1755;0,0115798
2692,1399;0,011588
2693,1040;0,0116026
2694,0684;0,0116264
2695,0325;0,0116579
2695,9968;0,0116921
2696,9609;0,0117236
2697,9253;0,01175
2698,8894;0,0117727
2699,8538;0,0117955
2700,8179;0,0118215
2701,7822;0,0118513
2702,7463;0,0118836
2703,7107;0,0119162
2704,6748;0,0119473
2705,6392;0,0119755
2706,6033;0,0119992
2707,5676;0,0120165
2708,5317;0,0120263
2709,4961;0,0120295
2710,4602;0,0120295
2711,4246;0,0120309
2712,3887;0,0120373
2713,3530;0,0120508
2714,3171;0,0120713
2715,2815;0,0120982
2716,2456;0,01213
2717,2100;0,012165
2718,1741;0,0122004
2719,1384;0,0122334
2720,1025;0,0122622
2721,0669;0,0122867
2722,0310;0,0123085
2722,9954;0,0123295
2723,9595;0,0123504
2724,9238;0,0123705
2725,8879;0,0123888
2726,8523;0,0124052
2727,8164;0,0124209
2728,7808;0,0124379
2729,7449;0,0124567
2730,7092;0,012476
2731,6733;0,0124931
2732,6377;0,0125062
2733,6018;0,0125157
2734,5662;0,0125241
2735,5303;0,0125347
2736,4946;0,0125494
2737,4587;0,0125674
2738,4231;0,0125862
2739,3872;0,0126036
2740,3516;0,0126192
2741,3157;0,0126347
2742,2800;0,0126519
2743,2441;0,0126706
2744,2085;0,0126873
2745,1726;0,0126971
2746,1370;0,0126968
2747,1011;0,0126887
2748,0654;0,0126798
2749,0295;0,0126791
2749,9939;0,0126923
2750,9580;0,0127185
2751,9224;0,0127515
2752,8865;0,0127834
2753,8508;0,0128097
2754,8149;0,0128314
2755,7793;0,0128527
2756,7434;0,0128775
2757,7078;0,0129063
2758,6719;0,0129357
2759,6362;0,0129613
2760,6003;0,01298
2761,5647;0,0129927
2762,5288;0,0130025
2763,4932;0,0130133
2764,4573;0,0130281
2765,4216;0,0130479
2766,3857;0,0130729
2767,3501;0,0131028
2768,3142;0,0131367
2769,2786;0,0131726
2770,2427;0,0132071
2771,2070;0,0132369
2772,1711;0,0132603
2773,1355;0,0132788
2774,0996;0,0132966
2775,0640;0,0133183
2776,0281;0,013346
2776,9924;0,0133786
2777,9565;0,0134129
2778,9209;0,0134469
2779,8850;0,0134815
2780,8494;0,0135198
2781,8135;0,0135645
2782,7778;0,0136147
2783,7419;0,0136657
2784,7063;0,0137114
2785,6704;0,0137479
2786,6348;0,0137759
2787,5989;0,0137996
2788,5632;0,0138242
2789,5273;0,0138529
2790,4917;0,0138867
2791,4558;0,0139247
2792,4202;0,0139661
2793,3843;0,0140099
2794,3486;0,0140551
2795,3127;0,0141004
2796,2771;0,0141455
2797,2412;0,0141917
2798,2056;0,0142424
2799,1697;0,0143015
2800,1340;0,0143703
2801,0981;0,0144466
2802,0625;0,0145252
2803,0266;0,0146005
2803,9910;0,0146692
2804,9551;0,0147315
2805,9194;0,0147901
2806,8835;0,0148484
2807,8479;0,014909
2808,8120;0,0149728
2809,7764;0,0150404
2810,7405;0,0151119
2811,7048;0,0151876
2812,6689;0,0152674
2813,6333;0,0153506
2814,5974;0,0154364
2815,5618;0,0155241
2816,5259;0,0156139
2817,4902;0,0157071
2818,4543;0,0158048
2819,4187;0,0159071
2820,3828;0,016013
2821,3472;0,0161207
2822,3113;0,0162289
2823,2756;0,0163389
2824,2397;0,0164538
2825,2041;0,0165777
2826,1682;0,0167135
2827,1326;0,0168617
2828,0967;0,0170211
2829,0610;0,0171903
2830,0251;0,0173691
2830,9895;0,0175588
2831,9536;0,0177603
2832,9180;0,0179722
2833,8821;0,0181901
2834,8464;0,0184084
2835,8105;0,018624
2836,7749;0,0188396
2837,7390;0,0190643
2838,7034;0,019312
2839,6675;0,0195968
2840,6318;0,0199296
2841,5959;0,0203162
2842,5603;0,0207574
2843,5244;0,0212488
2844,4888;0,0217787
2845,4529;0,0223254
2846,4172;0,0228542
2847,3813;0,0233209
2848,3457;0,023681
2849,3098;0,0239031
2850,2742;0,0239807
2851,2383;0,0239346
2852,2026;0,0238047
2853,1667;0,0236349
2854,1311;0,0234593
2855,0952;0,0232958
2856,0596;0,0231494
2857,0237;0,0230209
2857,9880;0,0229133
2858,9521;0,0228325
2859,9165;0,0227836
2860,8806;0,0227656
2861,8450;0,0227723
2862,8091;0,0227961
2863,7734;0,022834
2864,7375;0,0228884
2865,7019;0,0229643
2866,6660;0,0230619
2867,6304;0,0231734
2868,5945;0,0232846
2869,5588;0,0233816
2870,5229;0,0234577
2871,4873;0,0235154
2872,4514;0,0235626
2873,4158;0,0236066
2874,3799;0,0236486
2875,3442;0,0236852
2876,3083;0,0237124
2877,2727;0,0237309
2878,2368;0,0237474
2879,2012;0,0237718
2880,1653;0,0238123
2881,1296;0,0238718
2882,0938;0,0239472
2883,0581;0,0240324
2884,0222;0,0241214
2884,9866;0,0242109
2885,9507;0,0243004
2886,9150;0,0243913
2887,8792;0,0244857
2888,8435;0,0245852
2889,8076;0,02469
2890,7720;0,0247988
2891,7361;0,0249083
2892,7004;0,0250143
2893,6646;0,0251125
2894,6289;0,0252003
2895,5930;0,0252777
2896,5574;0,025348
2897,5215;0,0254165
2898,4858;0,025489
2899,4500;0,0255692
2900,4143;0,0256582
2901,3784;0,0257546
2902,3428;0,0258561
2903,3069;0,0259621
2904,2712;0,0260752
2905,2354;0,0262021
2906,1997;0,026352
2907,1638;0,0265347
2908,1282;0,0267584
2909,0923;0,0270281
2910,0566;0,0273437
2911,0208;0,0276989
2911,9851;0,0280791
2912,9492;0,0284604
2913,9136;0,0288117
2914,8777;0,0291004
2915,8420;0,0293004
2916,8062;0,0293992
2917,7705;0,0294007
2918,7346;0,0293208
2919,6990;0,029179
2920,6631;0,0289911
2921,6274;0,0287656
2922,5916;0,0285069
2923,5559;0,0282206
2924,5200;0,0279165
2925,4844;0,027607
2926,4485;0,0273024
2927,4128;0,0270067
2928,3770;0,0267183
2929,3413;0,0264339
2930,3054;0,0261533
2931,2698;0,0258798
2932,2339;0,0256183
2933,1982;0,0253697
2934,1624;0,0251296
2935,1267;0,0248892
2936,0908;0,0246405
2937,0552;0,0243799
2938,0193;0,0241098
2938,9836;0,0238366
2939,9478;0,0235674
2940,9121;0,0233071
2941,8762;0,0230577
2942,8406;0,0228192
2943,8047;0,0225911
2944,7690;0,0223733
2945,7332;0,0221667
2946,6975;0,0219721
2947,6616;0,0217898
2948,6260;0,0216187
2949,5901;0,0214569
2950,5544;0,0213019
2951,5186;0,0211512
2952,4829;0,0210026
2953,4470;0,0208542
2954,4114;0,0207044
2955,3755;0,0205522
2956,3398;0,020398
2957,3040;0,0202438
2958,2683;0,0200923
2959,2324;0,0199454
2960,1968;0,0198033
2961,1609;0,0196638
2962,1252;0,0195237
2963,0894;0,0193798
2964,0537;0,0192298
2965,0178;0,0190725
2965,9822;0,0189078
2966,9463;0,0187375
2967,9106;0,0185652
2968,8748;0,0183962
2969,8391;0,0182351
2970,8032;0,0180834
2971,7676;0,0179377
2972,7317;0,0177918
2973,6960;0,0176403
2974,6602;0,0174828
2975,6245;0,0173235
2976,5886;0,0171689
2977,5530;0,017023
2978,5171;0,0168851
2979,4814;0,0167526
2980,4456;0,0166245
2981,4099;0,0165043
2982,3740;0,0163989
2983,3384;0,0163132
2984,3025;0,0162461
2985,2668;0,01619
2986,2310;0,0161357
2987,1953;0,0160784
2988,1594;0,0160209
2989,1238;0,0159715
2990,0879;0,0159379
2991,0522;0,0159213
2992,0164;0,0159157
2992,9807;0,0159111
2993,9448;0,0158995
2994,9092;0,0158792
2995,8733;0,015855
2996,8376;0,0158346
2997,8018;0,0158243
2998,7661;0,0158268
2999,7302;0,0158404
3000,6946;0,0158613
3001,6587;0,0158855
3002,6230;0,0159102
3003,5872;0,0159339
3004,5515;0,0159575
3005,5156;0,0159834
3006,4800;0,0160154
3007,4441;0,0160572
3008,4084;0,0161101
3009,3726;0,0161713
3010,3369;0,0162329
3011,3010;0,0162848
3012,2654;0,0163183
3013,2295;0,0163305
3014,1938;0,016326
3015,1580;0,0163149
3016,1223;0,0163077
3017,0864;0,0163117
3018,0508;0,0163291
3019,0149;0,0163587
3019,9792;0,016398
3020,9434;0,0164452
3021,9077;0,0164984
3022,8718;0,0165557
3023,8362;0,0166149
3024,8003;0,0166761
3025,7646;0,0167427
3026,7288;0,0168203
3027,6931;0,0169129
3028,6572;0,0170175
3029,6216;0,0171231
3030,5857;0,0172147
3031,5500;0,0172802
3032,5142;0,0173178
3033,4785;0,0173365
3034,4426;0,0173515
3035,4070;0,0173758
3036,3711;0,0174149
3037,3354;0,0174663
3038,2996;0,0175232
3039,2639;0,0175797
3040,2280;0,0176343
3041,1924;0,0176908
3042,1565;0,0177562
3043,1208;0,0178369
3044,0850;0,0179352
3045,0493;0,0180469
3046,0134;0,0181623
3046,9778;0,01827
3047,9419;0,0183627
3048,9063;0,0184415
3049,8704;0,0185164
3050,8347;0,0186015
3051,7988;0,0187068
3052,7632;0,0188325
3053,7273;0,0189673
3054,6917;0,0190935
3055,6558;0,0191949
3056,6201;0,0192647
3057,5842;0,0193092
3058,5486;0,0193457
3059,5127;0,0193948
3060,4771;0,0194719
3061,4412;0,0195809
3062,4055;0,0197119
3063,3696;0,0198453
3064,3340;0,0199602
3065,2981;0,0200432
3066,2625;0,0200948
3067,2266;0,0201281
3068,1909;0,0201613
3069,1550;0,0202093
3070,1194;0,020278
3071,0835;0,0203634
3072,0479;0,0204574
3073,0120;0,0205527
3073,9763;0,0206472
3074,9404;0,0207438
3075,9048;0,0208475
3076,8689;0,0209611
3077,8333;0,0210826
3078,7974;0,0212049
3079,7617;0,0213184
3080,7258;0,0214141
3081,6902;0,0214883
3082,6543;0,0215436
3083,6187;0,0215885
3084,5828;0,0216341
3085,5471;0,0216899
3086,5112;0,0217604
3087,4756;0,0218445
3088,4397;0,021937
3089,4041;0,0220325
3090,3682;0,022127
3091,3325;0,0222196
3092,2966;0,0223111
3093,2610;0,0224028
3094,2251;0,0224969
3095,1895;0,0225959
3096,1536;0,0227025
3097,1179;0,0228182
3098,0820;0,0229404
3099,0464;0,0230622
3100,0105;0,0231734
3100,9749;0,0232661
3101,9390;0,0233381
3102,9033;0,0233955
3103,8674;0,0234499
3104,8318;0,0235131
3105,7959;0,0235922
3106,7603;0,0236881
3107,7244;0,0237966
3108,6887;0,0239123
3109,6528;0,0240319
3110,6172;0,0241548
3111,5813;0,024282
3112,5457;0,024413
3113,5098;0,0245445
3114,4741;0,024671
3115,4382;0,0247879
3116,4026;0,0248942
3117,3667;0,0249939
3118,3311;0,0250933
3119,2952;0,0251979
3120,2595;0,0253092
3121,2236;0,025424
3122,1880;0,025537
3123,1521;0,0256436
3124,1165;0,0257418
3125,0806;0,0258325
3126,0449;0,0259187
3127,0090;0,0260048
3127,9734;0,0260959
3128,9375;0,0261968
3129,9019;0,0263102
3130,8660;0,026435
3131,8303;0,026565
3132,7944;0,0266915
3133,7588;0,026808
3134,7229;0,0269141
3135,6873;0,0270163
3136,6514;0,027124
3137,6157;0,0272439
3138,5798;0,0273761
3139,5442;0,0275146
3140,5083;0,027651
3141,4727;0,0277805
3142,4368;0,0279038
3143,4011;0,0280261
3144,3652;0,0281526
3145,3296;0,0282847
3146,2937;0,0284193
3147,2581;0,0285514
3148,2222;0,0286776
3149,1865;0,0287991
3150,1506;0,0289207
3151,1150;0,029049
3152,0791;0,0291886
3153,0435;0,0293401
3154,0076;0,0295002
3154,9719;0,0296633
3155,9360;0,0298232
3156,9004;0,0299748
3157,8645;0,0301156
3158,8289;0,0302463
3159,7930;0,0303707
3160,7573;0,030494
3161,7214;0,0306207
3162,6858;0,030753
3163,6499;0,0308901
3164,6143;0,0310307
3165,5784;0,0311741
3166,5427;0,0313215
3167,5068;0,0314739
3168,4712;0,0316299
3169,4353;0,0315803
3170,3997;0,0317322
3171,3638;0,0318786
3172,3281;0,0320204
3173,2922;0,0321614
3174,2566;0,0323048
3175,2207;0,0324507
3176,1851;0,0325959
3177,1492;0,0327373
3178,1135;0,0328749
3179,0776;0,0330142
3180,0420;0,0331617
3181,0061;0,0333205
3181,9705;0,0334862
3182,9346;0,0336488
3183,8989;0,0337976
3184,8630;0,0339276
3185,8274;0,0340421
3186,7915;0,0341506
3187,7559;0,0342629
3188,7200;0,0343839
3189,6843;0,0345132
3190,6484;0,034647
3191,6128;0,0347831
3192,5769;0,0349219
3193,5413;0,035066
3194,5054;0,0352169
3195,4697;0,0353731
3196,4338;0,03553
3197,3982;0,0356827
3198,3623;0,035829
3199,3267;0,0359703
3200,2908;0,036109
3201,2551;0,0362466
3202,2192;0,0363819
3203,1836;0,0365122
3204,1477;0,0366366
3205,1121;0,0367576
3206,0762;0,0368808
3207,0405;0,0370117
3208,0046;0,0371528
3208,9690;0,037301
3209,9331;0,0374496
3210,8975;0,037593
3211,8616;0,0377297
3212,8259;0,0378632
3213,7900;0,0379991
3214,7544;0,0381401
3215,7185;0,0382842
3216,6829;0,0384249
3217,6470;0,0385554
3218,6113;0,0386732
3219,5754;0,0387814
3220,5398;0,0388878
3221,5039;0,039001
3222,4683;0,0391271
3223,4324;0,0392676
3224,3967;0,0394198
3225,3608;0,0395779
3226,3252;0,039735
3227,2893;0,039885
3228,2537;0,0400249
3229,2178;0,0401557
3230,1821;0,040282
3231,1462;0,0404092
3232,1106;0,0405397
3233,0747;0,0406718
3234,0391;0,040801
3235,0032;0,0409243
3235,9675;0,0410439
3236,9316;0,0411669
3237,8960;0,0413011
3238,8601;0,0414495
3239,8245;0,0416075
3240,7886;0,0417653
3241,7529;0,0419147
3242,7170;0,0420545
3243,6814;0,0421905
3244,6455;0,0423308
3245,6099;0,0424783
3246,5740;0,0426281
3247,5383;0,04277
3248,5024;0,0428971
3249,4668;0,0430119
3250,4309;0,0431269
3251,3953;0,0432573
3252,3594;0,0434119
3253,3237;0,0435871
3254,2878;0,0437698
3255,2522;0,0439451
3256,2163;0,0441053
3257,1807;0,0442527
3258,1448;0,044396
3259,1091;0,044543
3260,0732;0,0446967
3261,0376;0,0448543
3262,0017;0,0450111
3262,9661;0,0451641
3263,9302;0,045313
3264,8945;0,0454598
3265,8586;0,0456067
3266,8230;0,0457553
3267,7871;0,0459076
3268,7515;0,046065
3269,7156;0,0462264
3270,6799;0,0463864
3271,6440;0,0465347
3272,6084;0,0466596
3273,5725;0,0467536
3274,5369;0,046818
3275,5010;0,0468626
3276,4653;0,046901
3277,4294;0,0469438
3278,3938;0,0469946
3279,3579;0,047051
3280,3223;0,0471091
3281,2864;0,0471675
3282,2507;0,0472278
3283,2148;0,047292
3284,1792;0,0473585
3285,1433;0,0474209
3286,1077;0,0474712
3287,0718;0,0475032
3288,0361;0,0475175
3289,0002;0,04752
3289,9646;0,0475188
3290,9287;0,0475203
3291,8931;0,0475265
3292,8572;0,0475359
3293,8215;0,0475462
3294,7856;0,0475559
3295,7500;0,0475643
3296,7141;0,0475706
3297,6785;0,0475728
3298,6426;0,0475682
3299,6069;0,0475549
3300,5710;0,0475344
3301,5354;0,047512
3302,4995;0,0474952
3303,4639;0,0474909
3304,4280;0,0475012
3305,3923;0,047523
3306,3564;0,0475492
3307,3208;0,0475723
3308,2849;0,0475881
3309,2493;0,0475955
3310,2134;0,047595
3311,1777;0,0475867
3312,1418;0,0475697
3313,1062;0,047545
3314,0703;0,0475183
3315,0347;0,0475
3315,9988;0,0475019
3316,9631;0,0475318
3317,9272;0,0475898
3318,8916;0,0476696
3319,8557;0,0477619
3320,8201;0,047859
3321,7842;0,0479557
3322,7485;0,0480484
3323,7126;0,0481326
3324,6770;0,0482033
3325,6411;0,0482567
3326,6055;0,048293
3327,5696;0,0483168
3328,5339;0,0483366
3329,4980;0,0483615
3330,4624;0,0483987
3331,4265;0,0484523
3332,3909;0,048521
3333,3550;0,048597
3334,3193;0,0486659
3335,2834;0,0487102
3336,2478;0,048716
3337,2119;0,0486784
3338,1763;0,0486037
3339,1404;0,0485046
3340,1047;0,0483935
3341,0688;0,0482777
3342,0332;0,0481598
3342,9973;0,0480408
3343,9617;0,0479234
3344,9258;0,0478118
3345,8901;0,0477077
3346,8542;0,0476084
3347,8186;0,0475071
3348,7827;0,0473976
3349,7471;0,0472788
3350,7112;0,0471555
3351,6755;0,0470346
3352,6396;0,04692
3353,6040;0,0468096
3354,5681;0,0466973
3355,5325;0,0465779
3356,4966;0,0464507
3357,4609;0,0463199
3358,4250;0,0461909
3359,3894;0,0460671
3360,3535;0,0459483
3361,3179;0,045832
3362,2820;0,0457158
3363,2463;0,0455984
3364,2104;0,0454785
3365,1748;0,0453534
3366,1389;0,0452187
3367,1033;0,04507
3368,0674;0,0449058
3369,0317;0,0447291
3369,9958;0,0445465
3370,9602;0,0443662
3371,9243;0,0441942
3372,8887;0,0440332
3373,8528;0,043882
3374,8171;0,0437374
3375,7813;0,043597
3376,7456;0,0434615
3377,7097;0,0433344
3378,6741;0,0432202
3379,6382;0,0431195
3380,6025;0,043026
3381,5667;0,0429261
3382,5310;0,0428045
3383,4951;0,0426519
3384,4595;0,0424727
3385,4236;0,0422865
3386,3879;0,0421196
3387,3521;0,0419929
3388,3164;0,041911
3389,2805;0,0418604
3390,2449;0,0418171
3391,2090;0,0417575
3392,1733;0,0416685
3393,1375;0,0415502
3394,1018;0,0414104
3395,0659;0,041258
3396,0303;0,0410983
3396,9944;0,0409353
3397,9587;0,040774
3398,9229;0,0406195
3399,8872;0,040474
3400,8513;0,0403327
3401,8157;0,0401854
3402,7798;0,0400224
3403,7441;0,0398407
3404,7083;0,0396468
3405,6726;0,0394534
3406,6367;0,0392738
3407,6011;0,0391163
3408,5652;0,0389821
3409,5295;0,0388637
3410,4937;0,0387469
3411,4580;0,0386132
3412,4221;0,0384478
3413,3865;0,0382487
3414,3506;0,038031
3415,3149;0,0378232
3416,2791;0,0376541
3417,2434;0,0375351
3418,2075;0,0374504
3419,1719;0,0373612
3420,1360;0,0372252
3421,1003;0,0370191
3422,0645;0,0367515
3423,0288;0,0364553
3423,9929;0,036169
3424,9573;0,0359184
3425,9214;0,0357108
3426,8857;0,0355377
3427,8499;0,0353831
3428,8142;0,0352304
3429,7783;0,0350664
3430,7427;0,0348831
3431,7068;0,0346769
3432,6711;0,0344499
3433,6353;0,0342095
3434,5996;0,033968
3435,5637;0,0337387
3436,5281;0,0335316
3437,4922;0,0333495
3438,4565;0,0331896
3439,4207;0,0330464
3440,3850;0,0329171
3441,3491;0,0328023
3442,3135;0,0327024
3443,2776;0,0326102
3444,2419;0,0325071
3445,2061;0,0323655
3446,1704;0,0321619
3447,1345;0,0318921
3448,0989;0,0315781
3449,0630;0,0312576
3450,0273;0,0309641
3450,9915;0,0307132
3451,9558;0,0305022
3452,9199;0,0303194
3453,8843;0,0301542
3454,8484;0,0300029
3455,8127;0,029867
3456,7769;0,0297472
3457,7412;0,0296368
3458,7053;0,0295213
3459,6697;0,0293832
3460,6338;0,029211
3461,5981;0,0290053
3462,5623;0,0287791
3463,5266;0,0285498
3464,4907;0,0283292
3465,4551;0,0281186
3466,4192;0,0279111
3467,3835;0,0277
3468,3477;0,0274866
3469,3120;0,0272796
3470,2761;0,0270875
3471,2405;0,0269089
3472,2046;0,0267311
3473,1689;0,0265388
3474,1331;0,0263297
3475,0974;0,0261225
3476,0615;0,0259485
3477,0259;0,0258305
3477,9900;0,0257633
3478,9543;0,0257111
3479,9185;0,025624
3480,8828;0,0254684
3481,8469;0,0252495
3482,8113;0,0250085
3483,7754;0,0247929
3484,7397;0,0246234
3485,7039;0,024484
3486,6682;0,0243363
3487,6323;0,0241487
3488,5967;0,0239199
3489,5608;0,0236809
3490,5251;0,0234732
3491,4893;0,0233208
3492,4536;0,0232152
3493,4177;0,0231221
3494,3821;0,023005
3495,3462;0,0228529
3496,3105;0,0226926
3497,2747;0,0225744
3498,2390;0,0225362
3499,2031;0,0225736
3500,1675;0,0226308
3501,1316;0,0226215
3502,0959;0,0224744
3503,0601;0,0221847
3504,0244;0,0218264
3504,9885;0,0215047
3505,9529;0,0212878
3506,9170;0,0211728
3507,8813;0,0210971
3508,8455;0,0209778
3509,8098;0,0207603
3510,7739;0,02045
3511,7383;0,0201035
3512,7024;0,0197863
3513,6667;0,019536
3514,6309;0,0193527
3515,5952;0,0192158
3516,5593;0,0191081
3517,5237;0,0190319
3518,4878;0,0190064
3519,4521;0,0190499
3520,4163;0,0191582
3521,3806;0,0192959
3522,3447;0,0194048
3523,3091;0,0194295
3524,2732;0,019341
3525,2375;0,0191407
3526,2017;0,018846
3527,1660;0,0184754
3528,1301;0,0180493
3529,0945;0,017603
3530,0586;0,0171917
3531,0229;0,0168739
3531,9871;0,0166853
3532,9514;0,0166196
3533,9155;0,016625
3534,8799;0,0166198
3535,8440;0,0165284
3536,8083;0,016324
3537,7725;0,0160497
3538,7368;0,0157973
3539,7009;0,0156601
3540,6653;0,0156915
3541,6294;0,0158838
3542,5938;0,0161617
3543,5579;0,0163914
3544,5222;0,0164284
3545,4863;0,0161997
3546,4507;0,0157616
3547,4148;0,0152631
3548,3792;0,014844
3549,3433;0,0145621
3550,3076;0,0143874
3551,2717;0,0142386
3552,2361;0,01404
3553,2002;0,0137729
3554,1646;0,013487
3555,1287;0,0132574
3556,0930;0,013131
3557,0571;0,0131033
3558,0215;0,0131336
3558,9856;0,0131782
3559,9500;0,0132256
3560,9141;0,013309
3561,8784;0,0134831
3562,8425;0,0137811
3563,8069;0,014167
3564,7710;0,014489
3565,7354;0,014489
3566,6995;0,0139763
3567,6638;0,0130654
3568,6279;0,0121194
3569,5923;0,011426
3570,5564;0,0110372
3571,5208;0,0108568
3572,4849;0,0107684
3573,4492;0,0106968
3574,4133;0,0106155
3575,3777;0,01053
3576,3418;0,0104545
3577,3062;0,0103929
3578,2703;0,0103381
3579,2346;0,0102875
3580,1987;0,0102573
3581,1631;0,0102804
3582,1272;0,0103868
3583,0916;0,010584
3584,0557;0,0108407
3585,0200;0,0110643
3585,9841;0,0111008
3586,9485;0,0108371
3587,9126;0,010365
3588,8770;0,00995274
3589,8411;0,00980357
3590,8054;0,00992319
3591,7695;0,0101852
3592,7339;0,0104336
3593,6980;0,0105461
3594,6624;0,0104786
3595,6265;0,010281
3596,5908;0,0100463
3597,5549;0,00982634
3598,5193;0,009601
3599,4834;0,00932239
3600,4478;0,00898287
3601,4119;0,0086408
3602,3762;0,00837581
3603,3403;0,00822126
3604,3047;0,00813779
3605,2688;0,00803149
3606,2332;0,0077918
3607,1973;0,0073487
3608,1616;0,00673769
3609,1257;0,00610665
3610,0901;0,00562954
3611,0542;0,0054048
3612,0186;0,00542326
3612,9827;0,00560057
3613,9470;0,00582907
3614,9111;0,00601761
3615,8755;0,00610651
3616,8396;0,00606366
3617,8040;0,00588216
3618,7681;0,00560318
3619,7324;0,00534498
3620,6965;0,00525915
3621,6609;0,00541256
3622,6250;0,00573202
3623,5894;0,00606905
3624,5535;0,00629506
3625,5178;0,00634286
3626,4819;0,00617673
3627,4463;0,0057447
3628,4104;0,00505327
3629,3748;0,00432621
3630,3389;0,0038642
3631,3032;0,00372191
3632,2673;0,00371461
3633,2317;0,00364032
3634,1958;0,00341468
3635,1602;0,00307661
3636,1243;0,00272419
3637,0886;0,00243659
3638,0527;0,00223144
3639,0171;0,00207726
3639,9812;0,00193661
3640,9456;0,00179799
3641,9097;0,00167444
3642,8740;0,00157946
3643,8381;0,00151084
3644,8025;0,00145508
3645,7666;0,00138413
3646,7310;0,00119631
3647,6951;0,000651938
3648,6594;-0,000407934
3649,6235;-0,00161628
3650,5879;-0,00235044
3651,5520;-0,00244529
3652,5164;-0,0021805
3653,4805;-0,0018865
3654,4448;-0,00174611
3655,4089;-0,00178125
3656,3733;-0,00190197
3657,3374;-0,00198458
3658,3018;-0,00196526
3659,2659;-0,00187977
3660,2302;-0,00181027
3661,1943;-0,00180472
3662,1587;-0,00184592
3663,1228;-0,00188354
3664,0872;-0,0018912
3665,0513;-0,00188865
3666,0156;-0,0019185
3666,9797;-0,00200902
3667,9441;-0,00216668
3668,9082;-0,00238053
3669,8726;-0,00259838
3670,8367;-0,00273562
3671,8010;-0,00275557
3672,7651;-0,00269782
3673,7295;-0,00263094
3674,6936;-0,00261736
3675,6580;-0,00266654
3676,6221;-0,00267789
3677,5864;-0,00253332
3678,5505;-0,00224397
3679,5149;-0,00191632
3680,4790;-0,00163373
3681,4434;-0,00141396
3682,4075;-0,00124394
3683,3718;-0,0011263
3684,3359;-0,00108755
3685,3003;-0,00114455
3686,2644;-0,00126757
3687,2288;-0,00138646
3688,1929;-0,00144341
3689,1572;-0,00141535
3690,1213;-0,00126811
3691,0857;-0,000966339
3692,0498;-0,000541487
3693,0142;-7,89044E-05
3693,9783;0,00034622
3694,9426;0,000696715
3695,9067;0,000962525
3696,8711;0,00114309
3697,8352;0,00124055
3698,7996;0,00126145
3699,7637;0,00121802
3700,7280;0,00112901
3701,6921;0,00102579
3702,6565;0,000952956
3703,6206;0,000944204
3704,5850;0,000993363
3705,5491;0,00105888
3706,5134;0,00109321
3707,4775;0,00105665
3708,4419;0,000892799
3709,4060;0,000498379
3710,3704;-0,000207846
3711,3345;-0,0010986
3712,2988;-0,0018266
3713,2629;-0,00211842
3714,2273;-0,0019627
3715,1914;-0,00151016
3716,1558;-0,000915544
3717,1199;-0,00026768
3718,0842;0,000405801
3719,0483;0,00110482
3720,0127;0,0018261
3720,9768;0,0025474
3721,9412;0,00322265
3722,9053;0,00378291
3723,8696;0,00414875
3724,8337;0,00426342
3725,7981;0,00412897
3726,7622;0,00380673
3727,7266;0,00338109
3728,6907;0,00293369
3729,6550;0,00255133
3730,6191;0,00233756
3731,5835;0,00238025
3732,5476;0,00265253
3733,5120;0,00290998
3734,4761;0,00278351
3735,4404;0,00214393
3736,4045;0,00128831
3737,3689;0,000603905
3738,3330;0,000207332
3739,2974;-4,22933E-05
3740,2615;-0,000353307
3741,2258;-0,000863663
3742,1899;-0,00159049
3743,1543;-0,00242977
3744,1184;-0,00317717
3745,0828;-0,00361478
3746,0469;-0,00368382
3747,0112;-0,00354343
3747,9753;-0,00343231
3748,9397;-0,00353298
3749,9038;-0,0039123
3750,8682;-0,00443891
3751,8323;-0,00478299
3752,7966;-0,00470398
3753,7607;-0,00426933
3754,7251;-0,00371881
3755,6892;-0,00326427
3756,6536;-0,00302332
3757,6177;-0,00302617
3758,5820;-0,00321517
3759,5461;-0,00345267
3760,5105;-0,00359377
3761,4746;-0,00357563
3762,4390;-0,00343164
3763,4031;-0,0032437
3764,3674;-0,00309512
3765,3315;-0,00304506
3766,2959;-0,00311638
3767,2600;-0,00329371
3768,2244;-0,00353351
3769,1885;-0,00377834
3770,1528;-0,00396686
3771,1169;-0,00404757
3772,0813;-0,00400094
3773,0454;-0,00385306
3774,0098;-0,00366189
3774,9739;-0,00348784
3775,9382;-0,00337323
3776,9023;-0,00333939
3777,8667;-0,00338606
3778,8308;-0,00347799
3779,7952;-0,00354509
3780,7593;-0,00352417
3781,7236;-0,00340632
3782,6877;-0,00324082
3783,6521;-0,00310338
3784,6162;-0,00305705
3785,5806;-0,00312089
3786,5447;-0,0032608
3787,5090;-0,00341025
3788,4731;-0,00350885
3789,4375;-0,00353135
3790,4016;-0,00349045
3791,3660;-0,00341791
3792,3301;-0,00334032
3793,2944;-0,00326638
3794,2585;-0,00319256
3795,2229;-0,00312102
3796,1870;-0,00307432
3797,1514;-0,0030949
3798,1155;-0,00322874
3799,0798;-0,00350063
3800,0439;-0,00388587
3801,0083;-0,00428899
3801,9724;-0,00457409
3802,9368;-0,00466641
3803,9009;-0,00461696
3804,8652;-0,00454647
3805,8293;-0,00453875
3806,7937;-0,00457575
3807,7578;-0,00455229
3808,7222;-0,00437515
3809,6863;-0,00406472
3810,6506;-0,00374593
3811,6147;-0,00355045
3812,5791;-0,00353501
3813,5432;-0,00366292
3814,5076;-0,00383596
3815,4717;-0,00394943
3816,4360;-0,00395013
3817,4001;-0,00387151
3818,3645;-0,00381175
3819,3286;-0,00386266
3820,2930;-0,00402857
3821,2571;-0,00418988
3822,2214;-0,00418462
3823,1855;-0,00395791
3824,1499;-0,00360287
3825,1140;-0,0032711
3826,0784;-0,00307623
3827,0425;-0,00305418
3828,0068;-0,0031709
3828,9709;-0,00335596
3829,9353;-0,00354199
3830,8994;-0,00368945
3831,8638;-0,00378782
3832,8279;-0,00384075
3833,7922;-0,00384939
3834,7563;-0,00380517
3835,7207;-0,00369772
3836,6848;-0,00353402
3837,6492;-0,00334864
3838,6133;-0,00318379
3839,5776;-0,00306392
3840,5417;-0,00300156
3841,5061;-0,0030125
3842,4702;-0,00310124
3843,4346;-0,00323326
3844,3987;-0,00333497
3845,3630;-0,0033349
3846,3271;-0,00321551
3847,2915;-0,00302994
3848,2556;-0,00287161
3849,2200;-0,00282537
3850,1841;-0,00293974
3851,1484;-0,0032481
3852,1125;-0,00380082
3853,0769;-0,00453293
3854,0410;-0,00507253
3855,0054;-0,00506714
3855,9695;-0,00458593
3856,9338;-0,0039329
3857,8979;-0,00334697
3858,8623;-0,00291912
3859,8264;-0,00263672
3860,7908;-0,00245723
3861,7549;-0,00236714
3862,7192;-0,00238753
3863,6833;-0,0025196
3864,6477;-0,00270449
3865,6118;-0,00285651
3866,5762;-0,0029172
3867,5403;-0,00287375
3868,5046;-0,00275773
3869,4688;-0,00264144
3870,4331;-0,00261164
3871,3972;-0,00271391
3872,3616;-0,00291594
3873,3257;-0,00313161
3874,2900;-0,00327611
3875,2542;-0,00330126
3876,2185;-0,00319801
3877,1826;-0,00298595
3878,1470;-0,0027073
3879,1111;-0,00242636
3880,0754;-0,00221738
3881,0396;-0,00213702
3882,0039;-0,00220774
3882,9680;-0,00242402
3883,9324;-0,00275321
3884,8965;-0,00311919
3885,8608;-0,00340614
3886,8250;-0,00351238
3887,7893;-0,00341359
3888,7534;-0,00317413
3889,7178;-0,0029109
3890,6819;-0,00274104
3891,6462;-0,0027163
3892,6104;-0,00277769
3893,5747;-0,00280653
3894,5388;-0,00272982
3895,5032;-0,0025527
3896,4673;-0,00231623
3897,4316;-0,00206015
3898,3958;-0,00181878
3899,3601;-0,00162525
3900,3242;-0,00150918
3901,2886;-0,00150077
3902,2527;-0,0016396
3903,2170;-0,00195167
3904,1812;-0,00240081
3905,1455;-0,00288477
3906,1096;-0,00329834
3907,0740;-0,00359058
3908,0381;-0,00376357
3909,0024;-0,00383807
3909,9666;-0,00382621
3910,9309;-0,00372522
3911,8950;-0,00352765
3912,8594;-0,0032394
3913,8235;-0,00289709
3914,7878;-0,00257608
3915,7520;-0,00237575
3916,7163;-0,00236923
3917,6804;-0,00253835
3918,6448;-0,00276304
3919,6089;-0,00289854
3920,5732;-0,00287207
3921,5374;-0,00271765
3922,5017;-0,00254471
3923,4658;-0,00246945
3924,4302;-0,00253729
3925,3943;-0,00268616
3926,3586;-0,00279109
3927,3228;-0,00275388
3928,2871;-0,0025646
3929,2512;-0,0023085
3930,2156;-0,00212948
3931,1797;-0,00215648
3932,1440;-0,00242076
3933,1082;-0,00283256
3934,0725;-0,00324579
3935,0366;-0,00354311
3936,0010;-0,00367093
3936,9651;-0,00362746
3937,9294;-0,00344144
3938,8936;-0,00316244
3939,8579;-0,0028592
3940,8220;-0,0026099
3941,7864;-0,0024729
3942,7505;-0,00245175
3943,7148;-0,00249008
3944,6790;-0,00251305
3945,6433;-0,00248251
3946,6074;-0,00242455
3947,5718;-0,00241419
3948,5359;-0,00252578
3949,5002;-0,00277614
3950,4644;-0,00310435
3951,4287;-0,0034098
3952,3928;-0,00361369
3953,3572;-0,00369294
3954,3213;-0,00367289
3955,2856;-0,0035977
3956,2498;-0,0035027
3957,2141;-0,00340433
3958,1782;-0,00331004
3959,1426;-0,00323487
3960,1067;-0,00320701
3961,0710;-0,00325432
3962,0352;-0,00338141
3962,9995;-0,00355748
3963,9636;-0,00372777
3964,9280;-0,00384064
3965,8921;-0,00387208
3966,8564;-0,00383223
3967,8206;-0,00375365
3968,7849;-0,0036704
3969,7490;-0,00360141
3970,7134;-0,0035482
3971,6775;-0,00350591
3972,6418;-0,00347695
3973,6060;-0,00347517
3974,5703;-0,00351692
3975,5344;-0,00360636
3976,4988;-0,00372737
3977,4629;-0,00384927
3978,4272;-0,00394282
3979,3914;-0,0039956
3980,3557;-0,00401728
3981,3198;-0,00403133
3982,2842;-0,00405798
3983,2483;-0,00409924
3984,2126;-0,00413641
3985,1768;-0,00414196
3986,1411;-0,00409788
3987,1052;-0,00400856
3988,0696;-0,00390057
3989,0337;-0,00380922
3989,9980;-0,00376146
3990,9622;-0,00376493
3991,9265;-0,00380975
3992,8906;-0,00387933
3993,8550;-0,00396055
3994,8191;-0,00404629
3995,7834;-0,0041309
3996,7476;-0,00420535
3997,7119;-0,00425783
3998,6760;-0,00427971
3999,6404;-0,00427126
4000,6045;-0,00403331

##### Extended Information
[Comments]
Sample name
Comment
Username
Division
Organization;UNIVERSIDAD INDUSTRIAL DE SANTANDER

[Detailed Information]
Creation date;28/02/2025 4:27 p.m.

Data array type;Linear data array
Horizontal axis;Wavenumber [cm-1]
Vertical axis;Abs
Start;399,193 cm-1
End;4000,6 cm-1
Data interval;0,964233 cm-1
Data points;3736    

[Measurement Information]
Model name;FT/IR-4X1typeA
Serial No.;A035162111

Accessory;ATR PRO 4X
Accessory S/N;A021162126
Incident angle;45 deg

Measurement date;28/02/2025 4:26 p.m.

Light source;Standard
Detector;TGS
Accumulation;40
Resolution;4 cm-1
Zero filling;On
Apodization;Cosine
Gain;Auto (8)
Aperture;Auto (7 mm)
Scan speed;Auto (2 mm/sec)
Filter;Auto (12800 Hz)

