TITLE;
DATA TYPE;INFRARED SPECTRUM
ORIGIN;JASCO
OWNER;
DATE;25/02/28
TIME;16:08:18
SPECTROMETER/DATA SYSTEM;
LOCALE;9226
RESOLUTION;
DELTAX;0,964233
XUNITS;1/CM
YUNITS;ABSORBANCE
FIRSTX;  399,1927
LASTX; 4000,6047
NPOINTS;    3736
FIRSTY;     0,15972
MAXY;     0,18022
MINY;    -0,00680
XYDATA
399,1927;0,159718
400,1569;0,15478
401,1211;0,148973
402,0854;0,144012
403,0496;0,140685
404,0138;0,139094
404,9781;0,138897
405,9423;0,139495
406,9065;0,140262
407,8708;0,140778
408,8350;0,140906
409,7992;0,140683
410,7635;0,140189
411,7277;0,139521
412,6919;0,138875
413,6562;0,13858
414,6204;0,139049
415,5846;0,140661
416,5489;0,143574
417,5131;0,147355
418,4773;0,150688
419,4416;0,152029
420,4058;0,151117
421,3700;0,149075
422,3343;0,147079
423,2985;0,145649
424,2627;0,144779
425,2270;0,14425
426,1912;0,143843
427,1554;0,143447
428,1197;0,143061
429,0839;0,142732
430,0481;0,142507
431,0124;0,142431
431,9766;0,142546
432,9408;0,142872
433,9051;0,143354
434,8693;0,143845
435,8335;0,144159
436,7978;0,144182
437,7620;0,143963
438,7262;0,143684
439,6905;0,143538
440,6547;0,143604
441,6189;0,143788
442,5832;0,143886
443,5474;0,143731
444,5116;0,143337
445,4759;0,142895
446,4401;0,142625
447,4043;0,14261
448,3686;0,142747
449,3328;0,142802
450,2970;0,142563
451,2613;0,14198
452,2255;0,141225
453,1897;0,140606
454,1540;0,140409
455,1182;0,140752
456,0824;0,141513
457,0467;0,142334
458,0109;0,142774
458,9751;0,142567
459,9394;0,141774
460,9036;0,140679
461,8678;0,139589
462,8321;0,138716
463,7963;0,138181
464,7605;0,138021
465,7248;0,138196
466,6890;0,138587
467,6532;0,139027
468,6175;0,139358
469,5817;0,139466
470,5459;0,139306
471,5102;0,138906
472,4744;0,138358
473,4386;0,137778
474,4029;0,137256
475,3671;0,136834
476,3313;0,136538
477,2956;0,136404
478,2598;0,136484
479,2240;0,136818
480,1883;0,137382
481,1525;0,138051
482,1167;0,138609
483,0810;0,138814
484,0452;0,138516
485,0094;0,137763
485,9737;0,136801
486,9379;0,135952
487,9021;0,135474
488,8664;0,135468
489,8306;0,135877
490,7948;0,136535
491,7591;0,137233
492,7233;0,137796
493,6875;0,138138
494,6518;0,138265
495,6160;0,138244
496,5802;0,138162
497,5445;0,138097
498,5087;0,138098
499,4729;0,138178
500,4372;0,138311
501,4014;0,138447
502,3656;0,13854
503,3299;0,138581
504,2941;0,138598
505,2583;0,138641
506,2226;0,138734
507,1868;0,138865
508,1510;0,138986
509,1153;0,139058
510,0795;0,139083
511,0437;0,139121
512,0080;0,139269
512,9722;0,139607
513,9365;0,140163
514,9007;0,140883
515,8649;0,141636
516,8292;0,14226
517,7934;0,142626
518,7576;0,14272
519,7219;0,142647
520,6861;0,142567
521,6503;0,1426
522,6146;0,142776
523,5788;0,143029
524,5430;0,14323
525,5073;0,14325
526,4715;0,143035
527,4357;0,14264
528,4000;0,142183
529,3642;0,141772
530,3284;0,141454
531,2927;0,141221
532,2569;0,141039
533,2211;0,140883
534,1854;0,140743
535,1496;0,140617
536,1138;0,140483
537,0781;0,14031
538,0423;0,140077
539,0065;0,139805
539,9708;0,139559
540,9350;0,139422
541,8992;0,139451
542,8635;0,13964
543,8277;0,139931
544,7919;0,140242
545,7562;0,140505
546,7204;0,140687
547,6846;0,140788
548,6489;0,140825
549,6131;0,140823
550,5773;0,140819
551,5416;0,140864
552,5058;0,141011
553,4700;0,141289
554,4343;0,141682
555,3985;0,142115
556,3627;0,142483
557,3270;0,142678
558,2912;0,142617
559,2554;0,142258
560,2197;0,141603
561,1839;0,140705
562,1481;0,139667
563,1124;0,13863
564,0766;0,137731
565,0408;0,137058
566,0051;0,136607
566,9693;0,136292
567,9335;0,135992
568,8978;0,135624
569,8620;0,135193
570,8262;0,134787
571,7905;0,134515
572,7547;0,134447
573,7189;0,134576
574,6832;0,134823
575,6474;0,135079
576,6116;0,135249
577,5759;0,135289
578,5401;0,1352
579,5043;0,135011
580,4686;0,134747
581,4328;0,134429
582,3970;0,134076
583,3613;0,133721
584,3255;0,13341
585,2897;0,133197
586,2540;0,133128
587,2182;0,133223
588,1824;0,133465
589,1467;0,133801
590,1109;0,134145
591,0751;0,134399
592,0394;0,13449
593,0036;0,134399
593,9678;0,134165
594,9321;0,133857
595,8963;0,133532
596,8605;0,133204
597,8248;0,132856
598,7890;0,132467
599,7532;0,132043
600,7175;0,131625
601,6817;0,131264
602,6459;0,130987
603,6102;0,130781
604,5744;0,130606
605,5386;0,130413
606,5029;0,130162
607,4671;0,129819
608,4313;0,129354
609,3956;0,128757
610,3598;0,128075
611,3240;0,127438
612,2883;0,127034
613,2525;0,127018
614,2167;0,127403
615,1810;0,127994
616,1452;0,128417
617,1094;0,128287
618,0737;0,127417
619,0379;0,12593
620,0021;0,124183
620,9664;0,12256
621,9306;0,121295
622,8948;0,120414
623,8591;0,11979
624,8233;0,119175
625,7875;0,118607
626,7518;0,118071
627,7160;0,117614
628,6802;0,117268
629,6445;0,117025
630,6087;0,116831
631,5729;0,116628
632,5372;0,116376
633,5014;0,116076
634,4656;0,115765
635,4299;0,115495
636,3941;0,115307
637,3583;0,115217
638,3226;0,115209
639,2868;0,115241
640,2510;0,115263
641,2153;0,115242
642,1795;0,115172
643,1437;0,115079
644,1080;0,115003
645,0722;0,114971
646,0364;0,114977
647,0007;0,114986
647,9649;0,114955
648,9291;0,114858
649,8934;0,114703
650,8576;0,114524
651,8218;0,114366
652,7861;0,114264
653,7503;0,114232
654,7145;0,114253
655,6788;0,114289
656,6430;0,114296
657,6072;0,114255
658,5715;0,114186
659,5357;0,114113
660,4999;0,114006
661,4642;0,113722
662,4284;0,113024
663,3926;0,111675
664,3569;0,109645
665,3211;0,107389
666,2853;0,105978
667,2496;0,106524
668,2138;0,1087
669,1780;0,110656
670,1423;0,111463
671,1065;0,111463
672,0707;0,110904
673,0350;0,109827
673,9992;0,1084
674,9634;0,106921
675,9277;0,105616
676,8919;0,104525
677,8561;0,103553
678,8204;0,102601
679,7846;0,101653
680,7488;0,100739
681,7131;0,0998883
682,6773;0,0990902
683,6415;0,0983137
684,6058;0,0975402
685,5700;0,0967794
686,5342;0,0960558
687,4985;0,0953894
688,4627;0,0947999
689,4269;0,0942759
690,3912;0,0938073
691,3554;0,0933823
692,3196;0,0929761
693,2839;0,092549
694,2481;0,0920622
695,2123;0,0915013
696,1766;0,0908897
697,1408;0,0902785
698,1050;0,0897181
699,0693;0,0892308
700,0335;0,088802
700,9977;0,0883938
701,9620;0,0879725
702,9262;0,0875273
703,8904;0,0870453
704,8547;0,0865588
705,8189;0,0860869
706,7831;0,085627
707,7474;0,085159
708,7116;0,0846624
709,6758;0,0841293
710,6401;0,0835656
711,6043;0,0829816
712,5685;0,0823888
713,5328;0,0818089
714,4970;0,0812848
715,4612;0,0792919
716,4255;0,0793706
717,3897;0,079699
718,3539;0,0800577
719,3182;0,0801233
720,2824;0,0796294
721,2466;0,0785327
722,2109;0,0770504
723,1751;0,0755326
724,1393;0,0742719
725,1036;0,0733819
726,0678;0,0727958
727,0320;0,0723529
727,9963;0,0719065
728,9605;0,0713905
729,9247;0,0708173
730,8890;0,0702303
731,8532;0,0696592
732,8174;0,06911
733,7817;0,068582
734,7459;0,0680882
735,7101;0,0676562
736,6744;0,0673104
737,6386;0,0670525
738,6028;0,0668547
739,5671;0,0666695
740,5313;0,0664496
741,4955;0,0661644
742,4598;0,0658082
743,4240;0,0653963
744,3882;0,0649556
745,3525;0,0645119
746,3167;0,0640808
747,2809;0,0636646
748,2452;0,0632562
749,2094;0,0628488
750,1736;0,0624426
751,1379;0,0620472
752,1021;0,0616743
753,0663;0,061328
754,0306;0,0609991
754,9948;0,0606682
755,9590;0,0603164
756,9233;0,059938
757,8875;0,059545
758,8517;0,0591615
759,8160;0,0588107
760,7802;0,0585025
761,7444;0,0582297
762,7087;0,0579731
763,6729;0,0577131
764,6371;0,0574396
765,6014;0,0571557
766,5656;0,0568745
767,5298;0,0566115
768,4941;0,0563762
769,4583;0,0561668
770,4225;0,0559698
771,3868;0,0557646
772,3510;0,0555334
773,3152;0,0552697
774,2795;0,0549821
775,2437;0,0546897
776,2079;0,0544111
777,1722;0,0541545
778,1364;0,0539145
779,1006;0,0536793
780,0649;0,0534394
781,0291;0,053194
781,9933;0,0529481
782,9576;0,0527057
783,9218;0,0524652
784,8860;0,0522222
785,8503;0,0519767
786,8145;0,0517377
787,7787;0,0515204
788,7430;0,0513368
789,7072;0,0511874
790,6714;0,0510609
791,6357;0,0509412
792,5999;0,0508159
793,5641;0,0506798
794,5284;0,0505309
795,4926;0,0503654
796,4568;0,050178
797,4211;0,0499688
798,3853;0,0497514
799,3495;0,049553
800,3138;0,0494038
801,2780;0,0493197
802,2422;0,0492906
803,2065;0,0492817
804,1707;0,0492491
805,1349;0,0491595
806,0992;0,0490043
807,0634;0,0487994
808,0276;0,0485734
808,9919;0,048352
809,9561;0,0481491
810,9203;0,0479656
811,8846;0,0477963
812,8488;0,0476372
813,8130;0,0474895
814,7773;0,0473586
815,7415;0,0472506
816,7057;0,047169
817,6700;0,0471124
818,6342;0,0470743
819,5984;0,0470425
820,5627;0,0470024
821,5269;0,0469405
822,4911;0,0468509
823,4554;0,0467396
824,4196;0,0466225
825,3839;0,0465178
826,3481;0,0464373
827,3123;0,0463798
828,2766;0,046335
829,2408;0,0462916
830,2050;0,046246
831,1693;0,0462029
832,1335;0,0461678
833,0977;0,0461369
834,0620;0,0460923
835,0262;0,0460084
835,9904;0,0458649
836,9547;0,0456589
837,9189;0,0454079
838,8831;0,0451413
839,8474;0,0448878
840,8116;0,0446646
841,7758;0,0444753
842,7401;0,0443154
843,7043;0,0441799
844,6685;0,044069
845,6328;0,0439876
846,5970;0,0439408
847,5612;0,0439278
848,5255;0,0439368
849,4897;0,0439462
850,4539;0,0439307
851,4182;0,0438723
852,3824;0,043771
853,3466;0,0436482
854,3109;0,043539
855,2751;0,0434761
856,2393;0,0434733
857,2036;0,0435187
858,1678;0,0435825
859,1320;0,043634
860,0963;0,0436585
861,0605;0,043663
862,0247;0,0436696
862,9890;0,0437017
863,9532;0,0437731
864,9174;0,0438839
865,8817;0,0440244
866,8459;0,0441815
867,8101;0,0443425
868,7744;0,0444961
869,7386;0,0446322
870,7028;0,0447423
871,6671;0,0448212
872,6313;0,0448687
873,5955;0,0448904
874,5598;0,0448961
875,5240;0,0448985
876,4882;0,0449089
877,4525;0,0449351
878,4167;0,0449784
879,3809;0,0450356
880,3452;0,045103
881,3094;0,0451829
882,2736;0,0452874
883,2379;0,0454365
884,2021;0,0456518
885,1663;0,0459485
886,1306;0,0463316
887,0948;0,0467975
888,0590;0,0473382
889,0233;0,0479445
889,9875;0,0486045
890,9517;0,0493006
891,9160;0,0500068
892,8802;0,0506911
893,8444;0,0513197
894,8087;0,0518624
895,7729;0,0522939
896,7371;0,0525938
897,7014;0,0527464
898,6656;0,052744
899,6298;0,0525921
900,5941;0,0523119
901,5583;0,0519381
902,5225;0,0515096
903,4868;0,0510601
904,4510;0,0506111
905,4152;0,0501739
906,3795;0,0497568
907,3437;0,0493725
908,3079;0,0490416
909,2722;0,0487873
910,2364;0,0486261
911,2007;0,0485591
912,1649;0,0485701
913,1292;0,0486314
914,0934;0,0487159
915,0576;0,0488073
916,0219;0,0489055
916,9861;0,0490228
917,9503;0,0491743
918,9146;0,049367
919,8788;0,0495941
920,8430;0,0498357
921,8073;0,0500666
922,7715;0,050268
923,7357;0,0504348
924,7000;0,0505777
925,6642;0,0507163
926,6284;0,0508683
927,5927;0,0510392
928,5569;0,0512185
929,5211;0,0513849
930,4854;0,0515163
931,4496;0,0516012
932,4138;0,0516449
933,3781;0,0516672
934,3423;0,0516956
935,3065;0,0517554
936,2708;0,0518626
937,2350;0,0520215
938,1992;0,0522268
939,1635;0,0524693
940,1277;0,0527427
941,0919;0,0530471
942,0562;0,0533899
943,0204;0,0537803
943,9846;0,0542233
944,9489;0,054715
945,9131;0,0552452
946,8773;0,0558041
947,8416;0,0563914
948,8058;0,0570198
949,7700;0,0577097
950,7343;0,0584795
951,6985;0,0593362
952,6627;0,0602738
953,6270;0,0612794
954,5912;0,0623431
955,5554;0,0634626
956,5197;0,0646413
957,4839;0,0658807
958,4481;0,0671744
959,4124;0,0685077
960,3766;0,0698643
961,3408;0,0712327
962,3051;0,0726098
963,2693;0,0739979
964,2335;0,0753996
965,1978;0,0768153
966,1620;0,0782452
967,1262;0,0796947
968,0905;0,0811774
969,0547;0,0827138
970,0189;0,084327
970,9832;0,0860385
971,9474;0,0878681
972,9116;0,0898361
973,8759;0,0919655
974,8401;0,0942789
975,8043;0,0967925
976,7686;0,0995073
977,7328;0,102404
978,6970;0,105442
979,6613;0,108564
980,6255;0,111699
981,5897;0,114764
982,5540;0,117678
983,5182;0,120363
984,4824;0,122765
985,4467;0,124857
986,4109;0,126647
987,3751;0,12817
988,3394;0,129471
989,3036;0,130591
990,2678;0,131562
991,2321;0,132405
992,1963;0,133142
993,1605;0,133798
994,1248;0,134401
995,0890;0,134977
996,0532;0,135544
997,0175;0,136109
997,9817;0,13667
998,9459;0,137224
999,9102;0,137771
1000,8744;0,138316
1001,8386;0,138872
1002,8029;0,139456
1003,7671;0,140097
1004,7313;0,140832
1005,6956;0,141705
1006,6598;0,14276
1007,6240;0,144028
1008,5883;0,145523
1009,5525;0,147232
1010,5167;0,149123
1011,4810;0,151151
1012,4452;0,153266
1013,4094;0,155413
1014,3737;0,157537
1015,3379;0,159586
1016,3021;0,161517
1017,2664;0,163297
1018,2306;0,164918
1019,1948;0,166389
1020,1591;0,167735
1021,1233;0,168993
1022,0875;0,170202
1023,0518;0,171397
1024,0160;0,172603
1024,9802;0,173829
1025,9445;0,175064
1026,9087;0,176277
1027,8729;0,177425
1028,8372;0,178453
1029,8014;0,179303
1030,7656;0,179914
1031,7299;0,180219
1032,6941;0,180158
1033,6583;0,179689
1034,6226;0,178807
1035,5868;0,177559
1036,5510;0,176045
1037,5153;0,174405
1038,4795;0,172792
1039,4437;0,171341
1040,4080;0,170148
1041,3722;0,169251
1042,3364;0,168638
1043,3007;0,168254
1044,2649;0,168024
1045,2291;0,167869
1046,1934;0,167717
1047,1576;0,167511
1048,1218;0,1672
1049,0861;0,166739
1050,0503;0,166092
1051,0145;0,165234
1051,9788;0,16416
1052,9430;0,16289
1053,9072;0,161457
1054,8715;0,15989
1055,8357;0,158196
1056,7999;0,15635
1057,7642;0,154304
1058,7284;0,152007
1059,6926;0,149434
1060,6569;0,146601
1061,6211;0,143575
1062,5853;0,140455
1063,5496;0,137352
1064,5138;0,134363
1065,4780;0,131558
1066,4423;0,128976
1067,4065;0,126627
1068,3707;0,124502
1069,3350;0,12258
1070,2992;0,120828
1071,2634;0,119206
1072,2277;0,117666
1073,1919;0,116158
1074,1561;0,11464
1075,1204;0,113082
1076,0846;0,111472
1077,0488;0,109815
1078,0131;0,108132
1078,9773;0,106457
1079,9415;0,104827
1080,9058;0,103286
1081,8700;0,10187
1082,8342;0,100607
1083,7985;0,0995059
1084,7627;0,0985587
1085,7269;0,0977431
1086,6912;0,0970314
1087,6554;0,0964004
1088,6196;0,0958387
1089,5839;0,0953474
1090,5481;0,0949365
1091,5123;0,0946188
1092,4766;0,0944044
1093,4408;0,0942976
1094,4050;0,0942961
1095,3693;0,0943921
1096,3335;0,094574
1097,2977;0,0948275
1098,2620;0,0951365
1099,2262;0,0954837
1100,1904;0,0958491
1101,1547;0,0962083
1102,1189;0,0965319
1103,0831;0,0967868
1104,0474;0,096942
1105,0116;0,0969764
1105,9758;0,0968848
1106,9401;0,0966777
1107,9043;0,0963729
1108,8685;0,0959806
1109,8328;0,0954915
1110,7970;0,0948754
1111,7612;0,0940945
1112,7255;0,0931261
1113,6897;0,0919841
1114,6539;0,0907251
1115,6182;0,0894359
1116,5824;0,088206
1117,5466;0,0870993
1118,5109;0,0861358
1119,4751;0,08529
1120,4393;0,084502
1121,4036;0,0836968
1122,3678;0,0828029
1123,3320;0,0817666
1124,2963;0,0805603
1125,2605;0,0791839
1126,2247;0,0776613
1127,1890;0,0760305
1128,1532;0,0743337
1129,1174;0,0726083
1130,0817;0,0708835
1131,0459;0,0691814
1132,0101;0,0675218
1132,9744;0,0659261
1133,9386;0,0644194
1134,9028;0,0630293
1135,8671;0,0617824
1136,8313;0,0607013
1137,7955;0,0598005
1138,7598;0,0590854
1139,7240;0,0585511
1140,6882;0,0581841
1141,6525;0,0579637
1142,6167;0,0578661
1143,5809;0,0578679
1144,5452;0,0579502
1145,5094;0,0581008
1146,4736;0,0583149
1147,4379;0,0585928
1148,4021;0,0589364
1149,3663;0,0593447
1150,3306;0,0598116
1151,2948;0,0603248
1152,2590;0,0608668
1153,2233;0,0614161
1154,1875;0,0619464
1155,1517;0,062425
1156,1160;0,0628122
1157,0802;0,0630603
1158,0444;0,0631161
1159,0087;0,0629251
1159,9729;0,0624378
1160,9371;0,0616166
1161,9014;0,0604437
1162,8656;0,0589266
1163,8298;0,0571006
1164,7941;0,0550268
1165,7583;0,0527841
1166,7225;0,0504611
1167,6868;0,0481453
1168,6510;0,0459148
1169,6152;0,043831
1170,5795;0,0419333
1171,5437;0,0402378
1172,5079;0,0387406
1173,4722;0,0374244
1174,4364;0,0362673
1175,4006;0,0352503
1176,3649;0,0343601
1177,3291;0,0335878
1178,2933;0,0329262
1179,2576;0,0323672
1180,2218;0,0319022
1181,1860;0,031523
1182,1503;0,0312229
1183,1145;0,0309966
1184,0787;0,0308387
1185,0430;0,0307426
1186,0072;0,0307008
1186,9714;0,0307067
1187,9357;0,0307578
1188,8999;0,0308572
1189,8641;0,0310137
1190,8284;0,0312391
1191,7926;0,031544
1192,7568;0,0319329
1193,7211;0,0324016
1194,6853;0,0329374
1195,6495;0,0335215
1196,6138;0,0341333
1197,5780;0,0347542
1198,5422;0,0353708
1199,5065;0,0357385
1200,4707;0,0363593
1201,4349;0,0369722
1202,3992;0,0375806
1203,3634;0,038186
1204,3276;0,0387872
1205,2919;0,0393812
1206,2561;0,0399665
1207,2203;0,0405469
1208,1846;0,0411324
1209,1488;0,0417365
1210,1130;0,042371
1211,0773;0,0430428
1212,0415;0,043753
1213,0057;0,0444993
1213,9700;0,0452783
1214,9342;0,0460865
1215,8984;0,0469186
1216,8627;0,0477644
1217,8269;0,0486099
1218,7911;0,0494421
1219,7554;0,050251
1220,7196;0,0510293
1221,6838;0,0517703
1222,6481;0,0524668
1223,6123;0,0531122
1224,5765;0,0537052
1225,5408;0,0542528
1226,5050;0,0547691
1227,4692;0,0552689
1228,4335;0,0557597
1229,3977;0,0562377
1230,3619;0,0566893
1231,3262;0,0570977
1232,2904;0,0574498
1233,2546;0,0577407
1234,2189;0,0579738
1235,1831;0,0581586
1236,1473;0,0583068
1237,1116;0,0584297
1238,0758;0,0585354
1239,0400;0,0586273
1240,0043;0,0587029
1240,9685;0,0587548
1241,9327;0,0587731
1242,8970;0,0587476
1243,8612;0,0586703
1244,8254;0,0585354
1245,7897;0,0583412
1246,7539;0,0580904
1247,7181;0,0577917
1248,6824;0,0574578
1249,6466;0,0571029
1250,6108;0,0567382
1251,5751;0,05637
1252,5393;0,0560008
1253,5035;0,0556327
1254,4678;0,0552687
1255,4320;0,0549104
1256,3962;0,0545536
1257,3605;0,0541853
1258,3247;0,0537863
1259,2889;0,0533392
1260,2532;0,0528358
1261,2174;0,0522802
1262,1816;0,0516857
1263,1459;0,0510682
1264,1101;0,0504402
1265,0743;0,0498098
1266,0386;0,0491793
1267,0028;0,0485454
1267,9670;0,0478979
1268,9313;0,0472219
1269,8955;0,0465036
1270,8597;0,0457381
1271,8240;0,044934
1272,7882;0,0441127
1273,7524;0,0433008
1274,7167;0,0425222
1275,6809;0,0417927
1276,6451;0,041118
1277,6094;0,040494
1278,5736;0,0399081
1279,5378;0,0393434
1280,5021;0,0387857
1281,4663;0,0382306
1282,4305;0,0376874
1283,3948;0,0371747
1284,3590;0,0367101
1285,3232;0,0363004
1286,2875;0,0359377
1287,2517;0,0356047
1288,2159;0,035287
1289,1802;0,0349834
1290,1444;0,0347079
1291,1086;0,0344825
1292,0729;0,0343261
1293,0371;0,034246
1294,0013;0,0342365
1294,9656;0,0342845
1295,9298;0,0343766
1296,8940;0,0345063
1297,8583;0,0346757
1298,8225;0,0348929
1299,7867;0,0351669
1300,7510;0,035503
1301,7152;0,0359027
1302,6794;0,0363597
1303,6437;0,0368613
1304,6079;0,037394
1305,5721;0,0379457
1306,5364;0,0385114
1307,5006;0,0390951
1308,4648;0,0397072
1309,4291;0,0403548
1310,3933;0,0410324
1311,3575;0,0417162
1312,3218;0,0423702
1313,2860;0,0429594
1314,2502;0,0434606
1315,2145;0,0438621
1316,1787;0,0441521
1317,1429;0,0443081
1318,1072;0,0443029
1319,0714;0,0441244
1320,0356;0,0437975
1320,9999;0,0433846
1321,9641;0,0429624
1322,9283;0,0425932
1323,8926;0,0423083
1324,8568;0,0421087
1325,8210;0,0419754
1326,7853;0,0418827
1327,7495;0,0418067
1328,7137;0,0417296
1329,6780;0,0416395
1330,6422;0,041534
1331,6064;0,0414257
1332,5707;0,0413431
1333,5349;0,0413272
1334,4991;0,0414109
1335,4634;0,0415932
1336,4276;0,041813
1337,3918;0,0419369
1338,3561;0,041795
1339,3203;0,0412797
1340,2845;0,0404417
1341,2488;0,0394708
1342,2130;0,0385731
1343,1772;0,0378716
1344,1415;0,0373935
1345,1057;0,037107
1346,0699;0,0369592
1347,0342;0,0369013
1347,9984;0,0369052
1348,9626;0,0369668
1349,9269;0,0370971
1350,8911;0,0373056
1351,8553;0,0375883
1352,8196;0,0379251
1353,7838;0,0382896
1354,7480;0,0386656
1355,7123;0,0390613
1356,6765;0,0395089
1357,6407;0,0400481
1358,6050;0,0407031
1359,5692;0,0414583
1360,5334;0,0422346
1361,4977;0,0428927
1362,4619;0,0433079
1363,4261;0,043476
1364,3904;0,0435176
1365,3546;0,0435716
1366,3188;0,0437087
1367,2831;0,0439271
1368,2473;0,0441889
1369,2115;0,044454
1370,1758;0,0446955
1371,1400;0,044894
1372,1042;0,0450187
1373,0685;0,0450166
1374,0327;0,0448334
1374,9969;0,0444613
1375,9612;0,0439528
1376,9254;0,0433668
1377,8896;0,0427136
1378,8539;0,0419657
1379,8181;0,0411126
1380,7823;0,0402026
1381,7466;0,0393285
1382,7108;0,0385707
1383,6750;0,0379471
1384,6393;0,0374058
1385,6035;0,0368529
1386,5677;0,0362098
1387,5320;0,0354885
1388,4962;0,034805
1389,4604;0,0342812
1390,4247;0,0339562
1391,3889;0,0338054
1392,3531;0,0338
1393,3174;0,0339219
1394,2816;0,0341268
1395,2458;0,0343182
1396,2101;0,0343829
1397,1743;0,0342647
1398,1385;0,0340071
1399,1028;0,0337283
1400,0670;0,0335522
1401,0313;0,0335448
1401,9955;0,0336954
1402,9597;0,033941
1403,9240;0,0342083
1404,8882;0,0344539
1405,8524;0,0346876
1406,8167;0,0349564
1407,7809;0,0352963
1408,7451;0,0357037
1409,7094;0,036152
1410,6736;0,0366286
1411,6378;0,0371503
1412,6021;0,0377452
1413,5663;0,0384172
1414,5305;0,0391299
1415,4948;0,0398207
1416,4590;0,0404121
1417,4232;0,0408093
1418,3875;0,0409518
1419,3517;0,0409293
1420,3159;0,0409476
1421,2802;0,0411077
1422,2444;0,0413179
1423,2086;0,0414143
1424,1729;0,0412973
1425,1371;0,0409744
1426,1013;0,0405184
1427,0656;0,0399984
1428,0298;0,0394436
1428,9940;0,0388581
1429,9583;0,0382585
1430,9225;0,0376794
1431,8867;0,0371298
1432,8510;0,0365574
1433,8152;0,0358714
1434,7794;0,034999
1435,7437;0,03395
1436,7079;0,0328859
1437,6721;0,0320843
1438,6364;0,0317191
1439,6006;0,0317191
1440,5648;0,0318877
1441,5291;0,0320787
1442,4933;0,0322564
1443,4575;0,0324581
1444,4218;0,0327247
1445,3860;0,0330557
1446,3502;0,0334124
1447,3145;0,0337579
1448,2787;0,0341006
1449,2429;0,0344912
1450,2072;0,034963
1451,1714;0,0354741
1452,1356;0,0359243
1453,0999;0,0362313
1454,0641;0,0363941
1455,0283;0,0364615
1455,9926;0,0363585
1456,9568;0,0358533
1457,9210;0,0350766
1458,8853;0,0345934
1459,8495;0,0345951
1460,8137;0,0347985
1461,7780;0,0348816
1462,7422;0,0346841
1463,7064;0,0341913
1464,6707;0,0334919
1465,6349;0,0327563
1466,5991;0,0321387
1467,5634;0,0316447
1468,5276;0,0311548
1469,4918;0,0305562
1470,4561;0,0298068
1471,4203;0,0288804
1472,3845;0,0276996
1473,3488;0,0262529
1474,3130;0,024763
1475,2772;0,0235115
1476,2415;0,0225854
1477,2057;0,0219115
1478,1699;0,0213912
1479,1342;0,0209579
1480,0984;0,0205764
1481,0626;0,0202392
1482,0269;0,0199688
1482,9911;0,0198113
1483,9553;0,0198153
1484,9196;0,0200154
1485,8838;0,0204237
1486,8480;0,0209964
1487,8123;0,0215581
1488,7765;0,0218168
1489,7407;0,0216436
1490,7050;0,0212785
1491,6692;0,0210468
1492,6334;0,0210603
1493,5977;0,0212749
1494,5619;0,0216486
1495,5261;0,0221858
1496,4904;0,0228771
1497,4546;0,0236584
1498,4188;0,0244789
1499,3831;0,0253302
1500,3473;0,0261455
1501,3115;0,0267751
1502,2758;0,0271
1503,2400;0,0271666
1504,2042;0,0272738
1505,1685;0,0278949
1506,1327;0,0291525
1507,0969;0,030205
1508,0612;0,0302497
1509,0254;0,0296934
1509,9896;0,029111
1510,9539;0,0286171
1511,9181;0,0281625
1512,8823;0,0277364
1513,8466;0,0273584
1514,8108;0,0270087
1515,7750;0,026602
1516,7393;0,0260403
1517,7035;0,0252908
1518,6677;0,02441
1519,6320;0,0235096
1520,5962;0,0227125
1521,5604;0,0221203
1522,5247;0,0217763
1523,4889;0,0216313
1524,4531;0,0215644
1525,4174;0,0214654
1526,3816;0,0213054
1527,3458;0,0211335
1528,3101;0,0210107
1529,2743;0,0209622
1530,2385;0,0209935
1531,2028;0,0211248
1532,1670;0,0213731
1533,1312;0,0217009
1534,0955;0,0220118
1535,0597;0,0221977
1536,0239;0,0221821
1536,9882;0,0219837
1537,9524;0,0218018
1538,9166;0,0219879
1539,8809;0,0226858
1540,8451;0,0234083
1541,8093;0,0236269
1542,7736;0,0234847
1543,7378;0,0232583
1544,7020;0,0230298
1545,6663;0,0228386
1546,6305;0,0227415
1547,5947;0,0227608
1548,5590;0,0228523
1549,5232;0,0229347
1550,4874;0,0229487
1551,4517;0,0228924
1552,4159;0,0227996
1553,3801;0,022678
1554,3444;0,0224812
1555,3086;0,0221572
1556,2728;0,0217002
1557,2371;0,0210766
1558,2013;0,0201357
1559,1655;0,0191249
1560,1298;0,0188865
1561,0940;0,0196307
1562,0582;0,0208162
1563,0225;0,0219186
1563,9867;0,0227013
1564,9509;0,0231487
1565,9152;0,0233589
1566,8794;0,0234636
1567,8436;0,0235728
1568,8079;0,023752
1569,7721;0,0240337
1570,7363;0,0244119
1571,7006;0,0248202
1572,6648;0,0251702
1573,6290;0,0254315
1574,5933;0,0256571
1575,5575;0,0259144
1576,5217;0,026229
1577,4860;0,0266334
1578,4502;0,027156
1579,4144;0,0277373
1580,3787;0,028272
1581,3429;0,0287088
1582,3071;0,0290744
1583,2714;0,0294349
1584,2356;0,029847
1585,1998;0,0303334
1586,1641;0,0308835
1587,1283;0,031469
1588,0925;0,032055
1589,0568;0,0326073
1590,0210;0,0330957
1590,9852;0,0334963
1591,9495;0,0337882
1592,9137;0,0339497
1593,8779;0,0339617
1594,8422;0,0338233
1595,8064;0,033566
1596,7706;0,0332502
1597,7349;0,0329399
1598,6991;0,0326764
1599,6633;0,0324664
1600,6276;0,0322892
1601,5918;0,03212
1602,5560;0,0319524
1603,5203;0,0318042
1604,4845;0,0316962
1605,4487;0,0316256
1606,4130;0,0315584
1607,3772;0,0314528
1608,3414;0,0312966
1609,3057;0,0311275
1610,2699;0,0310029
1611,2341;0,0309352
1612,1984;0,0308706
1613,1626;0,0307389
1614,1268;0,0305209
1615,0911;0,0302722
1616,0553;0,0301036
1617,0195;0,0301514
1617,9838;0,0304925
1618,9480;0,031042
1619,9122;0,0316037
1620,8765;0,0320175
1621,8407;0,0322334
1622,8049;0,0322939
1623,7692;0,0322858
1624,7334;0,0322933
1625,6976;0,0323583
1626,6619;0,0324797
1627,6261;0,0326487
1628,5903;0,0328648
1629,5546;0,0331076
1630,5188;0,0333111
1631,4830;0,0333936
1632,4473;0,0333304
1633,4115;0,0331971
1634,3757;0,0331059
1635,3400;0,0330687
1636,3042;0,0330456
1637,2684;0,0331282
1638,2327;0,0334021
1639,1969;0,0337865
1640,1611;0,0341361
1641,1254;0,0343542
1642,0896;0,034417
1643,0538;0,0343701
1644,0181;0,0343135
1644,9823;0,0343336
1645,9465;0,0343974
1646,9108;0,0343854
1647,8750;0,0342455
1648,8392;0,0339521
1649,8035;0,0334269
1650,7677;0,032631
1651,7319;0,0316248
1652,6962;0,030491
1653,6604;0,0294741
1654,6246;0,0291135
1655,5889;0,0295197
1656,5531;0,0302092
1657,5173;0,0307069
1658,4816;0,0308112
1659,4458;0,0305373
1660,4100;0,0299992
1661,3743;0,0293283
1662,3385;0,0286614
1663,3027;0,0281365
1664,2670;0,0278177
1665,2312;0,0276475
1666,1954;0,0275095
1667,1597;0,0273035
1668,1239;0,0269595
1669,0881;0,0264375
1670,0524;0,0257763
1671,0166;0,0250937
1671,9808;0,0244555
1672,9451;0,0238182
1673,9093;0,0231418
1674,8735;0,0225116
1675,8378;0,0221303
1676,8020;0,0221555
1677,7662;0,0225321
1678,7305;0,0230117
1679,6947;0,023313
1680,6589;0,0232479
1681,6232;0,0227383
1682,5874;0,0217783
1683,5516;0,0205004
1684,5159;0,0193496
1685,4801;0,018812
1686,4443;0,0188812
1687,4086;0,0191712
1688,3728;0,0193281
1689,3370;0,0192022
1690,3013;0,0188213
1691,2655;0,0183073
1692,2297;0,0178058
1693,1940;0,0174461
1694,1582;0,0173104
1695,1224;0,0173849
1696,0867;0,0175178
1697,0509;0,0174655
1698,0151;0,01707
1698,9794;0,0164506
1699,9436;0,0159783
1700,9078;0,0159807
1701,8721;0,0164798
1702,8363;0,0172306
1703,8005;0,0179354
1704,7648;0,0184078
1705,7290;0,018629
1706,6932;0,0187235
1707,6575;0,018869
1708,6217;0,019182
1709,5859;0,0196707
1710,5502;0,0202751
1711,5144;0,0209317
1712,4786;0,021602
1713,4429;0,0222625
1714,4071;0,02286
1715,3713;0,0232484
1716,3356;0,0232201
1717,2998;0,0227912
1718,2640;0,0223775
1719,2283;0,0223775
1720,1925;0,0227973
1721,1567;0,0233967
1722,1210;0,0239457
1723,0852;0,0243331
1724,0494;0,0245733
1725,0137;0,02477
1725,9779;0,0250515
1726,9421;0,0254934
1727,9064;0,0260719
1728,8706;0,0266723
1729,8348;0,0271379
1730,7991;0,02732
1731,7633;0,0271083
1732,7275;0,0264833
1733,6918;0,0256317
1734,6560;0,0249285
1735,6202;0,0246114
1736,5845;0,0245815
1737,5487;0,0245876
1738,5129;0,0244629
1739,4772;0,0242011
1740,4414;0,0239068
1741,4056;0,0236908
1742,3699;0,0235822
1743,3341;0,0235194
1744,2983;0,0234121
1745,2626;0,0231989
1746,2268;0,0228482
1747,1910;0,0223094
1748,1553;0,0214775
1749,1195;0,0202606
1750,0837;0,0187473
1751,0480;0,0172416
1752,0122;0,0160367
1752,9764;0,0152114
1753,9407;0,0146612
1754,9049;0,0142334
1755,8691;0,0138198
1756,8334;0,0133765
1757,7976;0,0128997
1758,7618;0,0123874
1759,7261;0,0118225
1760,6903;0,0111951
1761,6545;0,0105416
1762,6188;0,00995133
1763,5830;0,00951318
1764,5472;0,00925216
1765,5115;0,00912093
1766,4757;0,00904113
1767,4399;0,00894548
1768,4042;0,00879414
1769,3684;0,00856901
1770,3326;0,00826208
1771,2969;0,00788086
1772,2611;0,00748229
1773,2253;0,00718009
1774,1896;0,00706405
1775,1538;0,00711792
1776,1180;0,0072438
1777,0823;0,00734376
1778,0465;0,00736899
1779,0107;0,00731751
1779,9750;0,00720801
1780,9392;0,00705804
1781,9034;0,0068787
1782,8677;0,00668387
1783,8319;0,00650431
1784,7961;0,00638855
1785,7604;0,00637923
1786,7246;0,00648174
1787,6888;0,00665838
1788,6531;0,00685515
1789,6173;0,0070296
1790,5815;0,00714895
1791,5458;0,00717925
1792,5100;0,00711989
1793,4742;0,00704037
1794,4385;0,00701461
1795,4027;0,00703937
1796,3669;0,00706021
1797,3312;0,00704196
1798,2954;0,00699245
1799,2596;0,00693314
1800,2239;0,00686224
1801,1881;0,00675609
1802,1523;0,0066038
1803,1166;0,00642918
1804,0808;0,00628006
1805,0450;0,00620361
1806,0093;0,00622505
1806,9735;0,00633473
1807,9377;0,00648567
1808,9020;0,00660606
1809,8662;0,00663077
1810,8304;0,00654007
1811,7947;0,00637255
1812,7589;0,00619381
1813,7231;0,00605197
1814,6874;0,0059603
1815,6516;0,00590828
1816,6158;0,00587954
1817,5801;0,00586568
1818,5443;0,00587301
1819,5085;0,00591772
1820,4728;0,00601152
1821,4370;0,00614986
1822,4012;0,00630935
1823,3655;0,00645386
1824,3297;0,00655109
1825,2939;0,00659225
1826,2582;0,00659297
1827,2224;0,00657044
1828,1866;0,00652086
1829,1509;0,00642406
1830,1151;0,00627942
1831,0793;0,00613283
1832,0436;0,00604497
1833,0078;0,0060348
1833,9720;0,00607068
1834,9363;0,0061064
1835,9005;0,00611463
1836,8647;0,0060992
1837,8290;0,00608607
1838,7932;0,006099
1839,7574;0,00614074
1840,7217;0,00620087
1841,6859;0,00627434
1842,6501;0,00635908
1843,6144;0,00643799
1844,5786;0,00648673
1845,5428;0,00650071
1846,5071;0,00648243
1847,4713;0,00641146
1848,4355;0,00625887
1849,3998;0,00602584
1850,3640;0,00575809
1851,3282;0,00552491
1852,2925;0,00538125
1853,2567;0,00534286
1854,2209;0,00538871
1855,1852;0,00548202
1856,1494;0,00558945
1857,1136;0,0056888
1858,0779;0,00576521
1859,0421;0,00580894
1860,0063;0,00582058
1860,9706;0,00581879
1861,9348;0,00583882
1862,8990;0,00591897
1863,8633;0,00608415
1864,8275;0,00633635
1865,7917;0,00664576
1866,7560;0,00693516
1867,7202;0,00708364
1868,6844;0,00699623
1869,6487;0,00669726
1870,6129;0,00631589
1871,5771;0,00597421
1872,5414;0,00572389
1873,5056;0,0055658
1874,4698;0,00548561
1875,4341;0,00546512
1876,3983;0,00548119
1877,3625;0,00550818
1878,3268;0,00552895
1879,2910;0,0055411
1880,2552;0,0055544
1881,2195;0,00558121
1882,1837;0,00562776
1883,1479;0,0056917
1884,1122;0,00576613
1885,0764;0,00584456
1886,0406;0,00592198
1887,0049;0,00599159
1887,9691;0,00604217
1888,9333;0,00606408
1889,8976;0,00606217
1890,8618;0,00605827
1891,8260;0,00607345
1892,7903;0,00610749
1893,7545;0,00613633
1894,7188;0,00612826
1895,6830;0,0060671
1896,6472;0,0059665
1897,6115;0,00586228
1898,5757;0,00578722
1899,5399;0,00575046
1900,5042;0,00573815
1901,4684;0,00573141
1902,4326;0,00572653
1903,3969;0,00574217
1904,3611;0,0058075
1905,3253;0,00593946
1906,2896;0,0061248
1907,2538;0,00631795
1908,2180;0,00645719
1909,1823;0,00649503
1910,1465;0,00642721
1911,1107;0,00629616
1912,0750;0,00616315
1913,0392;0,00607422
1914,0034;0,00604732
1914,9677;0,00608102
1915,9319;0,0061687
1916,8961;0,00630752
1917,8604;0,00649854
1918,8246;0,00673461
1919,7888;0,00698063
1920,7531;0,00716682
1921,7173;0,00721123
1922,6815;0,00706499
1923,6458;0,00675373
1924,6100;0,0063799
1925,5742;0,00607184
1926,5385;0,00591494
1927,5027;0,00591746
1928,4669;0,0060248
1929,4312;0,00615818
1930,3954;0,00625345
1931,3596;0,00628404
1932,3239;0,00625945
1933,2881;0,00620867
1934,2523;0,00616399
1935,2166;0,00615378
1936,1808;0,0062005
1937,1450;0,00631745
1938,1093;0,00650325
1939,0735;0,00673718
1940,0377;0,00697769
1941,0020;0,00716656
1941,9662;0,0072459
1942,9304;0,007188
1943,8947;0,00701582
1944,8589;0,0067909
1945,8231;0,0065803
1946,7874;0,00643298
1947,7516;0,00637465
1948,7158;0,00640979
1949,6801;0,00652237
1950,6443;0,00667692
1951,6085;0,00682545
1952,5728;0,00692161
1953,5370;0,00693816
1954,5012;0,00687934
1955,4655;0,00677946
1956,4297;0,00668534
1957,3939;0,00663148
1958,3582;0,00662421
1959,3224;0,00664747
1960,2866;0,00668751
1961,2509;0,00675698
1962,2151;0,00689433
1963,1793;0,00713311
1964,1436;0,00746126
1965,1078;0,00780043
1966,0720;0,0080267
1967,0363;0,00803169
1968,0005;0,00778891
1968,9647;0,00737199
1969,9290;0,00690857
1970,8932;0,0065124
1971,8574;0,00624498
1972,8217;0,00611978
1973,7859;0,00612763
1974,7501;0,00625389
1975,7144;0,0064766
1976,6786;0,00674896
1977,6428;0,00699399
1978,6071;0,00713001
1979,5713;0,00711368
1980,5355;0,00696631
1981,4998;0,00676407
1982,4640;0,00660312
1983,4282;0,00656041
1984,3925;0,00666701
1985,3567;0,00690291
1986,3209;0,0072145
1987,2852;0,00754353
1988,2494;0,00784891
1989,2136;0,00810902
1990,1779;0,00830821
1991,1421;0,00842429
1992,1063;0,00843314
1993,0706;0,00832925
1994,0348;0,00814272
1994,9990;0,00793565
1995,9633;0,00777804
1996,9275;0,0077167
1997,8917;0,00775197
1998,8560;0,00783656
1999,8202;0,00790331
2000,7844;0,00790929
2001,7487;0,00786734
2002,7129;0,00784227
2003,6771;0,00791309
2004,6414;0,00812285
2005,6056;0,00844386
2006,5698;0,00878191
2007,5341;0,0090202
2008,4983;0,00907781
2009,4625;0,00894514
2010,4268;0,0086786
2011,3910;0,00836826
2012,3552;0,00810306
2013,3195;0,0079482
2014,2837;0,00793511
2015,2479;0,00805943
2016,2122;0,00828649
2017,1764;0,00856533
2018,1406;0,00884632
2019,1049;0,00909171
2020,0691;0,0092729
2021,0333;0,00936169
2021,9976;0,00932897
2022,9618;0,00915749
2023,9260;0,00886091
2024,8903;0,00849194
2025,8545;0,00812704
2026,8187;0,0078334
2027,7830;0,00764026
2028,7472;0,00753496
2029,7114;0,00748558
2030,6757;0,00747202
2031,6399;0,0075019
2032,6041;0,00760032
2033,5684;0,0077851
2034,5326;0,00804864
2035,4968;0,00836058
2036,4611;0,00868327
2037,4253;0,00898502
2038,3895;0,00923666
2039,3538;0,00939979
2040,3180;0,00942293
2041,2822;0,00925694
2042,2465;0,00888459
2043,2107;0,00834416
2044,1749;0,00772983
2045,1392;0,00716647
2046,1034;0,00676917
2047,0676;0,00660207
2048,0320;0,00665427
2048,9961;0,00684915
2049,9604;0,00708391
2050,9246;0,00727326
2051,8889;0,00737266
2052,8530;0,00737837
2053,8174;0,00731564
2054,7815;0,00722344
2055,7458;0,00714163
2056,7100;0,00709966
2057,6743;0,00710977
2058,6384;0,00716619
2059,6028;0,00724992
2060,5669;0,00733672
2061,5313;0,00740571
2062,4954;0,00744554
2063,4597;0,00745604
2064,4238;0,00744469
2065,3882;0,00741945
2066,3523;0,00738183
2067,3167;0,0073249
2068,2808;0,00723839
2069,2451;0,00711856
2070,2092;0,00697701
2071,1736;0,00684202
2072,1377;0,00674849
2073,1021;0,00672163
2074,0662;0,00676122
2075,0305;0,00683731
2075,9946;0,00690095
2076,9590;0,00690604
2077,9231;0,00683155
2078,8875;0,00669282
2079,8516;0,006536
2080,8159;0,00641803
2081,7800;0,00638191
2082,7444;0,00643924
2083,7085;0,00656868
2084,6729;0,00672968
2085,6370;0,00688404
2086,6013;0,00701145
2087,5654;0,00711147
2088,5298;0,00719231
2089,4939;0,00725633
2090,4583;0,00729364
2091,4224;0,00728852
2092,3867;0,00723296
2093,3508;0,00713644
2094,3152;0,00702392
2095,2793;0,00692327
2096,2437;0,00685159
2097,2078;0,0068103
2098,1721;0,00679117
2099,1362;0,00678555
2100,1006;0,00679018
2101,0647;0,00679858
2102,0291;0,00680852
2102,9932;0,00681541
2103,9575;0,00681822
2104,9216;0,0068213
2105,8860;0,0068301
2106,8501;0,00684381
2107,8145;0,00685203
2108,7786;0,00684015
2109,7429;0,00680028
2110,7070;0,00673913
2111,6714;0,00667618
2112,6355;0,00663329
2113,5999;0,00662358
2114,5640;0,00664702
2115,5283;0,00669428
2116,4924;0,00675405
2117,4568;0,00681779
2118,4209;0,00687974
2119,3853;0,00693434
2120,3494;0,00697481
2121,3137;0,00699484
2122,2778;0,0069918
2123,2422;0,0069689
2124,2063;0,00693461
2125,1707;0,00689991
2126,1348;0,00687562
2127,0991;0,00687175
2128,0632;0,00689913
2129,0276;0,00697181
2129,9917;0,0071069
2130,9561;0,00731907
2131,9202;0,00760954
2132,8845;0,00795441
2133,8486;0,00830143
2134,8130;0,00858285
2135,7771;0,00874201
2136,7415;0,00875867
2137,7056;0,00865624
2138,6699;0,00848836
2139,6340;0,008318
2140,5984;0,00820448
2141,5625;0,00820097
2142,5269;0,00835143
2143,4910;0,00867521
2144,4553;0,00914232
2145,4194;0,00965989
2146,3838;0,0100932
2147,3479;0,0103226
2148,3123;0,0103071
2149,2764;0,0101111
2150,2407;0,00987279
2151,2048;0,00973259
2152,1692;0,00976592
2153,1333;0,00995999
2154,0977;0,0102397
2155,0618;0,0105163
2156,0261;0,0107254
2156,9902;0,0108397
2157,9546;0,0108625
2158,9187;0,0108179
2159,8831;0,0107409
2160,8472;0,0106637
2161,8115;0,0105998
2162,7756;0,0105361
2163,7400;0,0104416
2164,7041;0,0102885
2165,6685;0,0100709
2166,6326;0,00980985
2167,5969;0,00953971
2168,5610;0,00929111
2169,5254;0,00908516
2170,4895;0,00894134
2171,4539;0,00888584
2172,4180;0,00894502
2173,3823;0,00912199
2174,3464;0,00937294
2175,3108;0,00960719
2176,2749;0,00972109
2177,2393;0,00964879
2178,2034;0,00939818
2179,1677;0,00905049
2180,1318;0,00872508
2181,0962;0,00852715
2182,0603;0,00850219
2183,0247;0,00861815
2183,9888;0,00878402
2184,9531;0,00889346
2185,9172;0,00887025
2186,8816;0,00869565
2187,8457;0,00840969
2188,8101;0,00808966
2189,7742;0,00781671
2190,7385;0,00764533
2191,7026;0,00758841
2192,6670;0,00762107
2193,6311;0,00769712
2194,5955;0,0077679
2195,5596;0,00779637
2196,5239;0,00776503
2197,4880;0,00767863
2198,4524;0,00756161
2199,4165;0,00744935
2200,3809;0,00737381
2201,3450;0,00734976
2202,3093;0,00736963
2203,2734;0,00741137
2204,2378;0,0074542
2205,2019;0,00749091
2206,1663;0,00752771
2207,1304;0,00757226
2208,0947;0,00762074
2209,0588;0,00765532
2210,0232;0,00765564
2210,9873;0,00761636
2211,9517;0,00755717
2212,9158;0,00751623
2213,8801;0,0075289
2214,8442;0,00760384
2215,8086;0,00771121
2216,7727;0,00779144
2217,7371;0,00778236
2218,7012;0,00765165
2219,6655;0,00741801
2220,6296;0,00714829
2221,5940;0,0069298
2222,5581;0,00682993
2223,5225;0,00686383
2224,4866;0,00698745
2225,4509;0,0071206
2226,4150;0,0071871
2227,3794;0,00714935
2228,3435;0,00702394
2229,3079;0,0068646
2230,2720;0,0067305
2231,2363;0,00665758
2232,2004;0,00664696
2233,1648;0,00667291
2234,1289;0,00670222
2235,0933;0,00671375
2236,0574;0,00670925
2237,0217;0,00671202
2237,9858;0,00675455
2238,9502;0,00685972
2239,9143;0,00702388
2240,8787;0,00721063
2241,8428;0,00736182
2242,8071;0,00742308
2243,7712;0,00737203
2244,7356;0,00723264
2245,6997;0,00706593
2246,6641;0,00694113
2247,6282;0,00690366
2248,5925;0,00695777
2249,5566;0,00707209
2250,5210;0,00720134
2251,4851;0,00730887
2252,4495;0,00737779
2253,4136;0,00740861
2254,3779;0,00741019
2255,3420;0,00739277
2256,3064;0,00736596
2257,2705;0,00733872
2258,2349;0,00731747
2259,1990;0,00730235
2260,1633;0,00728594
2261,1274;0,00725785
2262,0918;0,0072136
2263,0559;0,00716157
2264,0203;0,00712154
2264,9844;0,0071145
2265,9487;0,00714974
2266,9128;0,00721813
2267,8772;0,0072962
2268,8413;0,00735804
2269,8057;0,00738747
2270,7698;0,00738318
2271,7341;0,00735493
2272,6982;0,00731463
2273,6626;0,00726842
2274,6267;0,00721461
2275,5911;0,00714803
2276,5552;0,00706724
2277,5195;0,00697964
2278,4836;0,00690111
2279,4480;0,0068512
2280,4121;0,00684723
2281,3765;0,0069008
2282,3406;0,00701765
2283,3049;0,00719891
2284,2690;0,00744131
2285,2334;0,0077363
2286,1975;0,0080703
2287,1619;0,00842798
2288,1260;0,0087978
2289,0903;0,00917573
2290,0544;0,00956406
2291,0188;0,00996574
2291,9829;0,0103792
2292,9473;0,0107979
2293,9114;0,0112145
2294,8757;0,0116244
2295,8398;0,0120243
2296,8042;0,0124045
2297,7683;0,0127435
2298,7327;0,0130122
2299,6968;0,0131881
2300,6611;0,0132747
2301,6252;0,013312
2302,5896;0,0133682
2303,5537;0,013517
2304,5181;0,0138073
2305,4822;0,0142379
2306,4465;0,0147472
2307,4106;0,0152236
2308,3750;0,0155366
2309,3391;0,0155802
2310,3035;0,015314
2311,2676;0,0147843
2312,2319;0,0141126
2313,1960;0,0134505
2314,1604;0,0129209
2315,1245;0,0125779
2316,0889;0,0124033
2317,0530;0,0123363
2318,0173;0,0123117
2318,9814;0,0122891
2319,9458;0,0122636
2320,9099;0,0122636
2321,8743;0,0123363
2322,8384;0,0125154
2323,8027;0,0127802
2324,7668;0,0130397
2325,7312;0,0131642
2326,6953;0,013049
2327,6597;0,0126678
2328,6238;0,012087
2329,5881;0,011439
2330,5522;0,0108702
2331,5166;0,0104838
2332,4807;0,0103021
2333,4451;0,010269
2334,4092;0,010299
2335,3735;0,0103407
2336,3376;0,0104162
2337,3020;0,0106127
2338,2661;0,0110301
2339,2305;0,0117062
2340,1946;0,0125459
2341,1589;0,0132908
2342,1230;0,0135925
2343,0874;0,0132776
2344,0515;0,0126945
2345,0159;0,0126153
2345,9800;0,0135364
2346,9443;0,0152003
2347,9084;0,016859
2348,8728;0,0178248
2349,8369;0,0178196
2350,8013;0,0170386
2351,7654;0,0159869
2352,7297;0,0151623
2353,6938;0,0147617
2354,6582;0,0146713
2355,6223;0,0147212
2356,5867;0,0148468
2357,5508;0,0150197
2358,5151;0,0151624
2359,4792;0,0151904
2360,4436;0,0150861
2361,4077;0,0148708
2362,3721;0,0145175
2363,3362;0,0139418
2364,3005;0,013093
2365,2646;0,0120344
2366,2290;0,0109178
2367,1931;0,00988613
2368,1575;0,00900357
2369,1216;0,00826223
2370,0859;0,00763324
2371,0500;0,00710951
2372,0144;0,00671744
2372,9785;0,00650517
2373,9429;0,00652189
2374,9070;0,00679622
2375,8713;0,00731748
2376,8354;0,00802601
2377,7998;0,00881792
2378,7639;0,00956452
2379,7283;0,0101404
2380,6924;0,010451
2381,6567;0,0104524
2382,6208;0,0101576
2383,5852;0,00962985
2384,5493;0,00896465
2385,5137;0,00826553
2386,4778;0,00762043
2387,4421;0,00708585
2388,4063;0,00668295
2389,3706;0,00640477
2390,3347;0,0062293
2391,2991;0,00613163
2392,2632;0,00609035
2393,2275;0,00608839
2394,1917;0,00611112
2395,1560;0,00614549
2396,1201;0,00618136
2397,0845;0,00621354
2398,0486;0,00624456
2399,0129;0,00627636
2399,9771;0,00630789
2400,9414;0,00633481
2401,9055;0,00634962
2402,8699;0,00634911
2403,8340;0,00633796
2404,7983;0,00632831
2405,7625;0,00633351
2406,7268;0,00635908
2407,6909;0,00639969
2408,6553;0,00644196
2409,6194;0,00647086
2410,5837;0,0064794
2411,5479;0,00647122
2412,5122;0,00645761
2413,4763;0,00645034
2414,4407;0,00645515
2415,4048;0,00646849
2416,3691;0,00647965
2417,3333;0,00647703
2418,2976;0,00645563
2419,2617;0,00642242
2420,2261;0,00639542
2421,1902;0,00639515
2422,1545;0,00643481
2423,1187;0,00651055
2424,0830;0,00660092
2425,0471;0,00667586
2426,0115;0,00671132
2426,9756;0,00670084
2427,9399;0,00665774
2428,9041;0,00660682
2429,8684;0,00657159
2430,8325;0,00656465
2431,7969;0,00658567
2432,7610;0,00662583
2433,7253;0,006674
2434,6895;0,00672056
2435,6538;0,00675829
2436,6179;0,00678213
2437,5823;0,00678984
2438,5464;0,0067834
2439,5107;0,00676929
2440,4749;0,00675662
2441,4392;0,00675365
2442,4033;0,0067647
2443,3677;0,00678887
2444,3318;0,00682106
2445,2961;0,006854
2446,2603;0,00688066
2447,2246;0,00689649
2448,1887;0,00690106
2449,1531;0,00689859
2450,1172;0,0068962
2451,0815;0,00690035
2452,0457;0,006913
2453,0100;0,00693018
2453,9741;0,00694441
2454,9385;0,00694972
2455,9026;0,00694605
2456,8669;0,00693971
2457,8311;0,00693946
2458,7954;0,00695049
2459,7595;0,00697056
2460,7239;0,00699091
2461,6880;0,00700147
2462,6523;0,00699708
2463,6165;0,00698081
2464,5808;0,00696246
2465,5449;0,00695359
2466,5093;0,00696213
2467,4734;0,0069895
2468,4377;0,00703096
2469,4019;0,00707809
2470,3662;0,00712151
2471,3303;0,00715302
2472,2947;0,0071672
2473,2588;0,00716289
2474,2231;0,0071441
2475,1873;0,0071195
2476,1516;0,00709976
2477,1157;0,0070935
2478,0801;0,00710364
2479,0442;0,0071261
2480,0085;0,00715139
2480,9727;0,0071683
2481,9370;0,00716832
2482,9011;0,00714931
2483,8655;0,00711752
2484,8296;0,00708689
2485,7939;0,00707495
2486,7581;0,00709573
2487,7224;0,00715221
2488,6865;0,00723252
2489,6509;0,0073131
2490,6150;0,00736857
2491,5793;0,00738363
2492,5435;0,00736038
2493,5078;0,00731653
2494,4719;0,0072757
2495,4363;0,00725553
2496,4004;0,00726056
2497,3647;0,00728338
2498,3289;0,00731213
2499,2932;0,00733858
2500,2573;0,00736174
2501,2217;0,0073853
2502,1858;0,00741171
2503,1501;0,00743759
2504,1143;0,00745412
2505,0786;0,0074522
2506,0427;0,00742928
2507,0071;0,00739319
2507,9712;0,00736016
2508,9355;0,0073476
2509,8997;0,00736545
2510,8640;0,0074108
2511,8281;0,00746897
2512,7925;0,00752063
2513,7566;0,00755079
2514,7209;0,00755488
2515,6851;0,00753866
2516,6494;0,00751263
2517,6135;0,00748496
2518,5779;0,00745754
2519,5420;0,00742742
2520,5063;0,00739193
2521,4705;0,00735325
2522,4348;0,00731881
2523,3989;0,00729692
2524,3633;0,00729102
2525,3274;0,00729706
2526,2917;0,00730641
2527,2559;0,00731231
2528,2202;0,00731525
2529,1843;0,00732297
2530,1487;0,007345
2531,1128;0,00738538
2532,0771;0,00743898
2533,0413;0,00749376
2534,0056;0,00753709
2534,9697;0,00756166
2535,9341;0,0075673
2536,8982;0,00755879
2537,8625;0,00754232
2538,8267;0,00752353
2539,7910;0,00750732
2540,7551;0,00749786
2541,7195;0,00749711
2542,6836;0,00750275
2543,6479;0,0075079
2544,6121;0,00750426
2545,5764;0,0074873
2546,5405;0,00745984
2547,5049;0,00743114
2548,4690;0,00741154
2549,4333;0,00740647
2550,3975;0,00741369
2551,3618;0,00742521
2552,3259;0,00743201
2553,2903;0,00742833
2554,2544;0,00741343
2555,2188;0,00739091
2556,1829;0,00736707
2557,1472;0,00734892
2558,1113;0,00734214
2559,0757;0,00734881
2560,0398;0,00736601
2561,0042;0,00738659
2561,9683;0,00740254
2562,9326;0,00740917
2563,8967;0,00740747
2564,8611;0,00740283
2565,8252;0,00740094
2566,7896;0,00740373
2567,7537;0,00740832
2568,7180;0,0074095
2569,6821;0,0074039
2570,6465;0,00739275
2571,6106;0,00738146
2572,5750;0,00737638
2573,5391;0,00738087
2574,5034;0,00739349
2575,4675;0,00740912
2576,4319;0,00742241
2577,3960;0,0074311
2578,3604;0,00743681
2579,3245;0,00744271
2580,2888;0,00744984
2581,2529;0,00745498
2582,2173;0,00745229
2583,1814;0,00743776
2584,1458;0,00741324
2585,1099;0,00738638
2586,0742;0,007366
2587,0383;0,00735616
2588,0027;0,00735338
2588,9668;0,00734972
2589,9312;0,00733945
2590,8953;0,00732438
2591,8596;0,00731341
2592,8237;0,00731658
2593,7881;0,0073379
2594,7522;0,00737207
2595,7166;0,0074075
2596,6807;0,00743296
2597,6450;0,00744345
2598,6091;0,00744151
2599,5735;0,0074342
2600,5376;0,0074283
2601,5020;0,00742735
2602,4661;0,00743136
2603,4304;0,00743872
2604,3945;0,00744782
2605,3589;0,00745769
2606,3230;0,00746738
2607,2874;0,00747564
2608,2515;0,00748134
2609,2158;0,00748444
2610,1799;0,00748667
2611,1443;0,00749072
2612,1084;0,00749848
2613,0728;0,00750935
2614,0369;0,00752016
2615,0012;0,00752702
2615,9653;0,00752811
2616,9297;0,00752533
2617,8938;0,00752369
2618,8582;0,00752855
2619,8223;0,00754264
2620,7866;0,00756465
2621,7507;0,00759022
2622,7151;0,00761425
2623,6792;0,00763296
2624,6436;0,00764475
2625,6077;0,00764983
2626,5720;0,00764958
2627,5361;0,00764615
2628,5005;0,00764234
2629,4646;0,00764115
2630,4290;0,00764521
2631,3931;0,00765598
2632,3574;0,00767339
2633,3215;0,00769582
2634,2859;0,0077202
2635,2500;0,00774255
2636,2144;0,00775897
2637,1785;0,0077674
2638,1428;0,00776918
2639,1069;0,00776927
2640,0713;0,00777401
2641,0354;0,00778737
2641,9998;0,00780798
2642,9639;0,00782924
2643,9282;0,00784311
2644,8923;0,00784519
2645,8567;0,0078378
2646,8208;0,00782881
2647,7852;0,00782701
2648,7493;0,00783699
2649,7136;0,00785705
2650,6777;0,00788093
2651,6421;0,00790205
2652,6062;0,00791737
2653,5706;0,00792847
2654,5347;0,00793993
2655,4990;0,00795629
2656,4631;0,00797976
2657,4275;0,00800962
2658,3916;0,00804319
2659,3560;0,00807743
2660,3201;0,00811
2661,2844;0,00813961
2662,2485;0,00816573
2663,2129;0,00818844
2664,1770;0,00820838
2665,1414;0,00822689
2666,1055;0,00824561
2667,0698;0,0082657
2668,0339;0,00828694
2668,9983;0,00830767
2669,9624;0,00832592
2670,9268;0,00834112
2671,8909;0,00835513
2672,8552;0,0083715
2673,8193;0,00839308
2674,7837;0,00841949
2675,7478;0,00844644
2676,7122;0,00846774
2677,6763;0,00847889
2678,6406;0,00848017
2679,6047;0,0084769
2680,5691;0,00847676
2681,5332;0,00848566
2682,4976;0,00850478
2683,4617;0,00853043
2684,4260;0,00855672
2685,3901;0,00857911
2686,3545;0,00859672
2687,3186;0,00861212
2688,2830;0,00862902
2689,2471;0,00864949
2690,2114;0,0086726
2691,1755;0,00869527
2692,1399;0,0087146
2693,1040;0,00873002
2694,0684;0,00874387
2695,0325;0,00875988
2695,9968;0,00878065
2696,9609;0,00880577
2697,9253;0,00883184
2698,8894;0,00885462
2699,8538;0,00887199
2700,8179;0,00888584
2701,7822;0,00890162
2702,7463;0,00892544
2703,7107;0,00896029
2704,6748;0,00900359
2705,6392;0,00904776
2706,6033;0,00908369
2707,5676;0,0091053
2708,5317;0,00911249
2709,4961;0,00911077
2710,4602;0,00910802
2711,4246;0,00911063
2712,3887;0,00912126
2713,3530;0,00913924
2714,3171;0,00916256
2715,2815;0,00918959
2716,2456;0,00921955
2717,2100;0,00925184
2718,1741;0,00928556
2719,1384;0,00931967
2720,1025;0,00935341
2721,0669;0,00938602
2722,0310;0,00941594
2722,9954;0,00944029
2723,9595;0,00945584
2724,9238;0,00946139
2725,8879;0,00945992
2726,8523;0,00945831
2727,8164;0,00946428
2728,7808;0,0094821
2729,7449;0,00951001
2730,7092;0,00954112
2731,6733;0,00956736
2732,6377;0,00958386
2733,6018;0,00959121
2734,5662;0,00959453
2735,5303;0,00960016
2736,4946;0,00961235
2737,4587;0,00963152
2738,4231;0,00965483
2739,3872;0,00967841
2740,3516;0,00969984
2741,3157;0,0097194
2742,2800;0,00973958
2743,2441;0,00976289
2744,2085;0,00978949
2745,1726;0,0098162
2746,1370;0,00983776
2747,1011;0,00984991
2748,0654;0,00985227
2749,0295;0,00984922
2749,9939;0,00984799
2750,9580;0,00985519
2751,9224;0,00987384
2752,8865;0,00990255
2753,8508;0,00993689
2754,8149;0,00997153
2755,7793;0,010002
2756,7434;0,0100254
2757,7078;0,0100405
2758,6719;0,0100483
2759,6362;0,0100516
2760,6003;0,0100554
2761,5647;0,0100646
2762,5288;0,0100824
2763,4932;0,0101085
2764,4573;0,0101396
2765,4216;0,0101715
2766,3857;0,0102019
2767,3501;0,0102319
2768,3142;0,0102646
2769,2786;0,010302
2770,2427;0,0103426
2771,2070;0,0103807
2772,1711;0,0104093
2773,1355;0,010425
2774,0996;0,010431
2775,0640;0,0104362
2776,0281;0,0104509
2776,9924;0,0104814
2777,9565;0,0105273
2778,9209;0,0105818
2779,8850;0,010637
2780,8494;0,0106882
2781,8135;0,0107353
2782,7778;0,0107812
2783,7419;0,0108276
2784,7063;0,0108731
2785,6704;0,0109136
2786,6348;0,0109452
2787,5989;0,010968
2788,5632;0,0109869
2789,5273;0,0110101
2790,4917;0,0110451
2791,4558;0,0110953
2792,4202;0,0111586
2793,3843;0,0112283
2794,3486;0,0112966
2795,3127;0,011358
2796,2771;0,0114116
2797,2412;0,0114606
2798,2056;0,0115098
2799,1697;0,0115623
2800,1340;0,0116184
2801,0981;0,011676
2802,0625;0,0117331
2803,0266;0,0117902
2803,9910;0,0118501
2804,9551;0,0119166
2805,9194;0,0119916
2806,8835;0,0120734
2807,8479;0,0121579
2808,8120;0,0122409
2809,7764;0,0123206
2810,7405;0,0123987
2811,7048;0,0124787
2812,6689;0,0125638
2813,6333;0,0126549
2814,5974;0,0127502
2815,5618;0,0128466
2816,5259;0,0129419
2817,4902;0,013036
2818,4543;0,013131
2819,4187;0,0132301
2820,3828;0,013336
2821,3472;0,0134498
2822,3113;0,0135721
2823,2756;0,0137028
2824,2397;0,0138423
2825,2041;0,0139907
2826,1682;0,0141473
2827,1326;0,0143102
2828,0967;0,014478
2829,0610;0,0146507
2830,0251;0,014831
2830,9895;0,0150233
2831,9536;0,0152303
2832,9180;0,0154514
2833,8821;0,0156818
2834,8464;0,0159154
2835,8105;0,0161499
2836,7749;0,0163894
2837,7390;0,0166451
2838,7034;0,0169323
2839,6675;0,0172659
2840,6318;0,017657
2841,5959;0,0181121
2842,5603;0,0186323
2843,5244;0,0192126
2844,4888;0,0198376
2845,4529;0,0204769
2846,4172;0,0210843
2847,3813;0,0216038
2848,3457;0,0219835
2849,3098;0,0221919
2850,2742;0,0222286
2851,2383;0,0221244
2852,2026;0,0219286
2853,1667;0,0216922
2854,1311;0,021453
2855,0952;0,0212312
2856,0596;0,0210341
2857,0237;0,0208642
2857,9880;0,0207259
2858,9521;0,020625
2859,9165;0,0205645
2860,8806;0,0205408
2861,8450;0,0205446
2862,8091;0,0205659
2863,7734;0,0206
2864,7375;0,0206499
2865,7019;0,0207218
2866,6660;0,0208191
2867,6304;0,0209367
2868,5945;0,0210612
2869,5588;0,0211768
2870,5229;0,0212725
2871,4873;0,0213455
2872,4514;0,0214007
2873,4158;0,0214453
2874,3799;0,0214843
2875,3442;0,0215192
2876,3083;0,0215496
2877,2727;0,0215772
2878,2368;0,0216063
2879,2012;0,0216424
2880,1653;0,0216896
2881,1296;0,0217486
2882,0938;0,0218174
2883,0581;0,0218941
2884,0222;0,0219789
2884,9866;0,0220735
2885,9507;0,0221795
2886,9150;0,0222959
2887,8792;0,0224189
2888,8435;0,0225437
2889,8076;0,0226666
2890,7720;0,0227862
2891,7361;0,0229022
2892,7004;0,023014
2893,6646;0,02312
2894,6289;0,0232187
2895,5930;0,0233109
2896,5574;0,023401
2897,5215;0,0234953
2898,4858;0,0235987
2899,4500;0,023711
2900,4143;0,0238273
2901,3784;0,0239412
2902,3428;0,0240499
2903,3069;0,0241585
2904,2712;0,0242788
2905,2354;0,0244258
2906,1997;0,0246118
2907,1638;0,0248438
2908,1282;0,0251241
2909,0923;0,0254525
2910,0566;0,0258282
2911,0208;0,0262471
2911,9851;0,0266975
2912,9492;0,0271554
2913,9136;0,0275845
2914,8777;0,0279431
2915,8420;0,028194
2916,8062;0,0283151
2917,7705;0,0283043
2918,7346;0,0281767
2919,6990;0,027958
2920,6631;0,027676
2921,6274;0,0273548
2922,5916;0,0270135
2923,5559;0,0266663
2924,5200;0,026323
2925,4844;0,0259887
2926,4485;0,0256635
2927,4128;0,0253436
2928,3770;0,0250249
2929,3413;0,0247062
2930,3054;0,0243914
2931,2698;0,0240869
2932,2339;0,023798
2933,1982;0,0235258
2934,1624;0,0232671
2935,1267;0,0230166
2936,0908;0,0227698
2937,0552;0,0225239
2938,0193;0,0222763
2938,9836;0,0220235
2939,9478;0,0217615
2940,9121;0,0214887
2941,8762;0,0212098
2942,8406;0,0209356
2943,8047;0,0206799
2944,7690;0,0204525
2945,7332;0,020255
2946,6975;0,0200805
2947,6616;0,0199189
2948,6260;0,0197631
2949,5901;0,0196121
2950,5544;0,0194684
2951,5186;0,0193334
2952,4829;0,0192027
2953,4470;0,0190672
2954,4114;0,0189184
2955,3755;0,0187536
2956,3398;0,0185789
2957,3040;0,018405
2958,2683;0,0182413
2959,2324;0,0180906
2960,1968;0,0179485
2961,1609;0,0178069
2962,1252;0,017659
2963,0894;0,0175022
2964,0537;0,0173374
2965,0178;0,0171669
2965,9822;0,0169919
2966,9463;0,0168127
2967,9106;0,0166296
2968,8748;0,0164447
2969,8391;0,016262
2970,8032;0,016086
2971,7676;0,0159201
2972,7317;0,0157649
2973,6960;0,0156182
2974,6602;0,0154764
2975,6245;0,0153359
2976,5886;0,0151945
2977,5530;0,0150517
2978,5171;0,0149092
2979,4814;0,0147703
2980,4456;0,0146398
2981,4099;0,0145232
2982,3740;0,0144252
2983,3384;0,0143478
2984,3025;0,0142881
2985,2668;0,0142387
2986,2310;0,0141896
2987,1953;0,0141334
2988,1594;0,0140686
2989,1238;0,014001
2990,0879;0,0139404
2991,0522;0,013895
2992,0164;0,0138672
2992,9807;0,0138523
2993,9448;0,0138427
2994,9092;0,0138328
2995,8733;0,013822
2996,8376;0,0138138
2997,8018;0,0138122
2998,7661;0,0138176
2999,7302;0,0138266
3000,6946;0,0138344
3001,6587;0,0138384
3002,6230;0,0138405
3003,5872;0,0138467
3004,5515;0,0138639
3005,5156;0,0138968
3006,4800;0,0139461
3007,4441;0,014009
3008,4084;0,0140798
3009,3726;0,014151
3010,3369;0,0142143
3011,3010;0,0142616
3012,2654;0,0142876
3013,2295;0,0142921
3014,1938;0,0142812
3015,1580;0,0142655
3016,1223;0,0142564
3017,0864;0,0142622
3018,0508;0,014286
3019,0149;0,0143261
3019,9792;0,0143776
3020,9434;0,014435
3021,9077;0,0144931
3022,8718;0,0145486
3023,8362;0,0146014
3024,8003;0,0146558
3025,7646;0,01472
3026,7288;0,0148019
3027,6931;0,0149039
3028,6572;0,0150185
3029,6216;0,0151293
3030,5857;0,0152179
3031,5500;0,0152738
3032,5142;0,0153003
3033,4785;0,0153123
3034,4426;0,0153272
3035,4070;0,0153553
3036,3711;0,0153958
3037,3354;0,0154407
3038,2996;0,0154824
3039,2639;0,0155202
3040,2280;0,0155612
3041,1924;0,0156165
3042,1565;0,0156951
3043,1208;0,0157997
3044,0850;0,0159248
3045,0493;0,016059
3046,0134;0,0161879
3046,9778;0,0162991
3047,9419;0,0163861
3048,9063;0,0164518
3049,8704;0,0165082
3050,8347;0,0165715
3051,7988;0,0166549
3052,7632;0,0167617
3053,7273;0,016884
3054,6917;0,0170066
3055,6558;0,0171144
3056,6201;0,0172009
3057,5842;0,017271
3058,5486;0,0173386
3059,5127;0,0174191
3060,4771;0,0175218
3061,4412;0,017645
3062,4055;0,0177763
3063,3696;0,0178974
3064,3340;0,0179912
3065,2981;0,0180492
3066,2625;0,0180752
3067,2266;0,0180834
3068,1909;0,0180932
3069,1550;0,0181216
3070,1194;0,0181789
3071,0835;0,0182669
3072,0479;0,0183802
3073,0120;0,0185099
3073,9763;0,0186465
3074,9404;0,018782
3075,9048;0,018911
3076,8689;0,0190307
3077,8333;0,0191403
3078,7974;0,0192395
3079,7617;0,0193274
3080,7258;0,0194025
3081,6902;0,0194633
3082,6543;0,019511
3083,6187;0,0195506
3084,5828;0,0195905
3085,5471;0,0196397
3086,5112;0,0197048
3087,4756;0,0197871
3088,4397;0,019884
3089,4041;0,0199909
3090,3682;0,0201037
3091,3325;0,0202193
3092,2966;0,020335
3093,2610;0,0204474
3094,2251;0,0205533
3095,1895;0,020652
3096,1536;0,0207466
3097,1179;0,0208425
3098,0820;0,0209439
3099,0464;0,021049
3100,0105;0,0211504
3100,9749;0,0212382
3101,9390;0,0213072
3102,9033;0,021361
3103,8674;0,0214113
3104,8318;0,0214729
3105,7959;0,0215565
3106,7603;0,0216655
3107,7244;0,0217957
3108,6887;0,0219384
3109,6528;0,0220839
3110,6172;0,0222244
3111,5813;0,0223547
3112,5457;0,0224726
3113,5098;0,0225789
3114,4741;0,022677
3115,4382;0,0227717
3116,4026;0,0228665
3117,3667;0,0229623
3118,3311;0,0230581
3119,2952;0,0231532
3120,2595;0,0232495
3121,2236;0,0233511
3122,1880;0,0234607
3123,1521;0,0235759
3124,1165;0,0236882
3125,0806;0,0237871
3126,0449;0,0238669
3127,0090;0,0239316
3127,9734;0,0239946
3128,9375;0,0240716
3129,9019;0,0241724
3130,8660;0,0242959
3131,8303;0,0244311
3132,7944;0,0245646
3133,7588;0,0246875
3134,7229;0,0247998
3135,6873;0,0249073
3136,6514;0,0250167
3137,6157;0,0251307
3138,5798;0,0252467
3139,5442;0,0253604
3140,5083;0,0254695
3141,4727;0,0255765
3142,4368;0,0256882
3143,4011;0,0258119
3144,3652;0,0259511
3145,3296;0,0261023
3146,2937;0,0262563
3147,2581;0,0264014
3148,2222;0,0265293
3149,1865;0,0266385
3150,1506;0,0267354
3151,1150;0,0268309
3152,0791;0,0269352
3153,0435;0,0270544
3154,0076;0,0271883
3154,9719;0,0273323
3155,9360;0,0274799
3156,9004;0,0276247
3157,8645;0,0277621
3158,8289;0,0278898
3159,7930;0,0280082
3160,7573;0,0281217
3161,7214;0,028237
3162,6858;0,0283618
3163,6499;0,0285009
3164,6143;0,0286536
3165,5784;0,0288131
3166,5427;0,0289699
3167,5068;0,0291154
3168,4712;0,0292472
3169,4353;0,0291763
3170,3997;0,0292995
3171,3638;0,0294333
3172,3281;0,0295808
3173,2922;0,029738
3174,2566;0,0298957
3175,2207;0,0300453
3176,1851;0,0301823
3177,1492;0,0303094
3178,1135;0,0304343
3179,0776;0,0305654
3180,0420;0,0307067
3181,0061;0,0308553
3181,9705;0,0310023
3182,9346;0,0311378
3183,8989;0,0312553
3184,8630;0,0313562
3185,8274;0,0314491
3186,7915;0,0315459
3187,7559;0,0316561
3188,7200;0,0317826
3189,6843;0,0319217
3190,6484;0,0320662
3191,6128;0,0322106
3192,5769;0,0323534
3193,5413;0,0324966
3194,5054;0,0326422
3195,4697;0,0327889
3196,4338;0,0329319
3197,3982;0,033066
3198,3623;0,0331893
3199,3267;0,0333053
3200,2908;0,033421
3201,2551;0,0335422
3202,2192;0,0336702
3203,1836;0,0338014
3204,1477;0,0339307
3205,1121;0,0340551
3206,0762;0,034176
3207,0405;0,034297
3208,0046;0,0344217
3208,9690;0,0345496
3209,9331;0,0346769
3210,8975;0,0347995
3211,8616;0,0349162
3212,8259;0,03503
3213,7900;0,0351461
3214,7544;0,0352685
3215,7185;0,0353969
3216,6829;0,0355267
3217,6470;0,0356516
3218,6113;0,0357671
3219,5754;0,0358728
3220,5398;0,0359724
3221,5039;0,0360721
3222,4683;0,0361788
3223,4324;0,0362977
3224,3967;0,0364309
3225,3608;0,0365764
3226,3252;0,0367285
3227,2893;0,0368782
3228,2537;0,037017
3229,2178;0,0371403
3230,1821;0,037249
3231,1462;0,037349
3232,1106;0,0374464
3233,0747;0,0375454
3234,0391;0,0376466
3235,0032;0,0377498
3235,9675;0,0378575
3236,9316;0,0379747
3237,8960;0,0381069
3238,8601;0,0382551
3239,8245;0,0384136
3240,7886;0,0385721
3241,7529;0,0387212
3242,7170;0,0388578
3243,6814;0,0389853
3244,6455;0,0391102
3245,6099;0,0392366
3246,5740;0,0393641
3247,5383;0,0394889
3248,5024;0,0396084
3249,4668;0,0397242
3250,4309;0,0398421
3251,3953;0,0399675
3252,3594;0,0401022
3253,3237;0,0402426
3254,2878;0,0403825
3255,2522;0,0405167
3256,2163;0,0406439
3257,1807;0,0407656
3258,1448;0,0408847
3259,1091;0,0410034
3260,0732;0,0411235
3261,0376;0,0412474
3262,0017;0,0413782
3262,9661;0,0415186
3263,9302;0,0416688
3264,8945;0,0418251
3265,8586;0,0419804
3266,8230;0,0421271
3267,7871;0,0422607
3268,7515;0,0423815
3269,7156;0,0424931
3270,6799;0,0425995
3271,6440;0,0427013
3272,6084;0,0427955
3273,5725;0,0428774
3274,5369;0,0429444
3275,5010;0,042998
3276,4653;0,043043
3277,4294;0,0430838
3278,3938;0,0431217
3279,3579;0,0431542
3280,3223;0,0431788
3281,2864;0,0431971
3282,2507;0,0432161
3283,2148;0,043246
3284,1792;0,0432948
3285,1433;0,0433627
3286,1077;0,0434416
3287,0718;0,0435178
3288,0361;0,0435783
3289,0002;0,0436153
3289,9646;0,0436281
3290,9287;0,0436218
3291,8931;0,0436045
3292,8572;0,0435846
3293,8215;0,0435704
3294,7856;0,0435686
3295,7500;0,0435822
3296,7141;0,043609
3297,6785;0,0436404
3298,6426;0,0436638
3299,6069;0,0436679
3300,5710;0,043649
3301,5354;0,043614
3302,4995;0,0435778
3303,4639;0,0435563
3304,4280;0,0435585
3305,3923;0,0435827
3306,3564;0,0436181
3307,3208;0,0436518
3308,2849;0,0436739
3309,2493;0,0436806
3310,2134;0,0436736
3311,1777;0,0436573
3312,1418;0,0436379
3313,1062;0,0436235
3314,0703;0,0436233
3315,0347;0,0436452
3315,9988;0,043692
3316,9631;0,0437597
3317,9272;0,0438398
3318,8916;0,0439237
3319,8557;0,0440072
3320,8201;0,0440905
3321,7842;0,0441758
3322,7485;0,0442633
3323,7126;0,0443498
3324,6770;0,0444299
3325,6411;0,0444996
3326,6055;0,0445577
3327,5696;0,0446055
3328,5339;0,0446465
3329,4980;0,0446852
3330,4624;0,0447265
3331,4265;0,0447747
3332,3909;0,0448308
3333,3550;0,0448893
3334,3193;0,0449371
3335,2834;0,0449582
3336,2478;0,04494
3337,2119;0,0448804
3338,1763;0,0447881
3339,1404;0,0446784
3340,1047;0,0445654
3341,0688;0,0444577
3342,0332;0,0443581
3342,9973;0,0442658
3343,9617;0,0441787
3344,9258;0,0440944
3345,8901;0,0440094
3346,8542;0,0439194
3347,8186;0,0438207
3348,7827;0,0437124
3349,7471;0,043597
3350,7112;0,0434793
3351,6755;0,0433635
3352,6396;0,0432507
3353,6040;0,0431397
3354,5681;0,043028
3355,5325;0,0429144
3356,4966;0,0427998
3357,4609;0,042687
3358,4250;0,0425794
3359,3894;0,0424809
3360,3535;0,0423945
3361,3179;0,0423201
3362,2820;0,0422517
3363,2463;0,0421768
3364,2104;0,0420791
3365,1748;0,041946
3366,1389;0,0417761
3367,1033;0,0415813
3368,0674;0,0413824
3369,0317;0,0411979
3369,9958;0,0410357
3370,9602;0,0408915
3371,9243;0,0407544
3372,8887;0,0406161
3373,8528;0,0404756
3374,8171;0,0403375
3375,7813;0,0402074
3376,7456;0,0400875
3377,7097;0,039977
3378,6741;0,0398753
3379,6382;0,0397835
3380,6025;0,039702
3381,5667;0,0396265
3382,5310;0,0395462
3383,4951;0,0394484
3384,4595;0,0393271
3385,4236;0,0391889
3386,3879;0,0390504
3387,3521;0,0389288
3388,3164;0,0388307
3389,2805;0,0387499
3390,2449;0,0386728
3391,2090;0,0385876
3392,1733;0,0384914
3393,1375;0,0383891
3394,1018;0,0382861
3395,0659;0,0381822
3396,0303;0,0380708
3396,9944;0,0379453
3397,9587;0,0378059
3398,9229;0,0376598
3399,8872;0,037516
3400,8513;0,0373777
3401,8157;0,0372396
3402,7798;0,0370918
3403,7441;0,0369277
3404,7083;0,0367499
3405,6726;0,0365702
3406,6367;0,036404
3407,6011;0,0362625
3408,5652;0,0361459
3409,5295;0,0360428
3410,4937;0,0359338
3411,4580;0,0358005
3412,4221;0,0356352
3413,3865;0,0354469
3414,3506;0,0352594
3415,3149;0,0351008
3416,2791;0,0349897
3417,2434;0,0349224
3418,2075;0,0348714
3419,1719;0,0347947
3420,1360;0,0346561
3421,1003;0,0344434
3422,0645;0,034174
3423,0288;0,0338839
3423,9929;0,033609
3424,9573;0,033371
3425,9214;0,0331742
3426,8857;0,0330095
3427,8499;0,0328622
3428,8142;0,0327177
3429,7783;0,032565
3430,7427;0,0323972
3431,7068;0,0322121
3432,6711;0,0320117
3433,6353;0,0318026
3434,5996;0,0315939
3435,5637;0,0313949
3436,5281;0,0312123
3437,4922;0,0310485
3438,4565;0,0309034
3439,4207;0,0307762
3440,3850;0,0306681
3441,3491;0,0305799
3442,3135;0,0305078
3443,2776;0,0304391
3444,2419;0,0303503
3445,2061;0,0302133
3446,1704;0,0300075
3447,1345;0,0297336
3448,0989;0,029417
3449,0630;0,0290956
3450,0273;0,0288008
3450,9915;0,0285465
3451,9558;0,02833
3452,9199;0,0281427
3453,8843;0,0279779
3454,8484;0,0278355
3455,8127;0,0277182
3456,7769;0,0276254
3457,7412;0,0275481
3458,7053;0,0274693
3459,6697;0,0273696
3460,6338;0,0272346
3461,5981;0,0270604
3462,5623;0,0268533
3463,5266;0,0266243
3464,4907;0,0263827
3465,4551;0,0261335
3466,4192;0,0258805
3467,3835;0,0256308
3468,3477;0,0253974
3469,3120;0,0251943
3470,2761;0,0250281
3471,2405;0,0248913
3472,2046;0,0247649
3473,1689;0,0246287
3474,1331;0,0244757
3475,0974;0,0243187
3476,0615;0,024182
3477,0259;0,024084
3477,9900;0,0240206
3478,9543;0,0239634
3479,9185;0,0238727
3480,8828;0,02372
3481,8469;0,0235078
3482,8113;0,0232682
3483,7754;0,023041
3484,7397;0,0228485
3485,7039;0,0226848
3486,6682;0,0225256
3487,6323;0,0223481
3488,5967;0,0221484
3489,5608;0,0219454
3490,5251;0,0217671
3491,4893;0,0216303
3492,4536;0,0215294
3493,4177;0,0214404
3494,3821;0,021338
3495,3462;0,0212163
3496,3105;0,0210985
3497,2747;0,0210236
3498,2390;0,0210178
3499,2031;0,0210704
3500,1675;0,0211289
3501,1316;0,0211178
3502,0959;0,0209785
3503,0601;0,0207115
3504,0244;0,0203846
3504,9885;0,0200886
3505,9529;0,0198786
3506,9170;0,0197479
3507,8813;0,0196416
3508,8455;0,0194922
3509,8098;0,0192594
3510,7739;0,0189542
3511,7383;0,0186285
3512,7024;0,0183395
3513,6667;0,0181187
3514,6309;0,0179664
3515,5952;0,0178647
3516,5593;0,0177967
3517,5237;0,017759
3518,4878;0,0177616
3519,4521;0,0178158
3520,4163;0,0179187
3521,3806;0,0180441
3522,3447;0,0181475
3523,3091;0,0181824
3524,2732;0,0181201
3525,2375;0,0179546
3526,2017;0,0176947
3527,1660;0,0173548
3528,1301;0,0169543
3529,0945;0,0165263
3530,0586;0,0161187
3531,0229;0,0157787
3531,9871;0,0155349
3532,9514;0,0153861
3533,9155;0,0153009
3534,8799;0,0152298
3535,8440;0,0151277
3536,8083;0,0149808
3537,7725;0,0148189
3538,7368;0,0146996
3539,7009;0,0146766
3540,6653;0,0147736
3541,6294;0,0149721
3542,5938;0,0152072
3543,5579;0,0153747
3544,5222;0,0153671
3545,4863;0,0151374
3546,4507;0,0147416
3547,4148;0,0143028
3548,3792;0,0139281
3549,3433;0,0136544
3550,3076;0,0134526
3551,2717;0,0132618
3552,2361;0,0130325
3553,2002;0,0127619
3554,1646;0,0124943
3555,1287;0,0122863
3556,0930;0,0121687
3557,0571;0,0121392
3558,0215;0,0121771
3558,9856;0,0122651
3559,9500;0,0124025
3560,9141;0,0126043
3561,8784;0,0128837
3562,8425;0,0132294
3563,8069;0,0135797
3564,7710;0,0137908
3565,7354;0,0136502
3566,6995;0,013031
3567,6638;0,0120866
3568,6279;0,0111673
3569,5923;0,0105155
3570,5564;0,0101452
3571,5208;0,00994986
3572,4849;0,00982814
3573,4492;0,00973122
3574,4133;0,00965212
3575,3777;0,0095977
3576,3418;0,00956785
3577,3062;0,00955173
3578,2703;0,00953932
3579,2346;0,0095359
3580,1987;0,00956431
3581,1631;0,00964989
3582,1272;0,00980107
3583,0916;0,0100015
3584,0557;0,0102104
3585,0200;0,010354
3585,9841;0,0103257
3586,9485;0,0100657
3587,9126;0,00968517
3588,8770;0,00941964
3589,8411;0,00941394
3590,8054;0,00962853
3591,7695;0,00992343
3592,7339;0,0101595
3593,6980;0,0102482
3594,6624;0,0101758
3595,6265;0,0100012
3596,5908;0,00980365
3597,5549;0,009615
3598,5193;0,00940578
3599,4834;0,00913326
3600,4478;0,0088002
3601,4119;0,00846757
3602,3762;0,00820534
3603,3403;0,00803286
3604,3047;0,00790522
3605,2688;0,00773888
3606,2332;0,00744666
3607,1973;0,00698208
3608,1616;0,00638971
3609,1257;0,00580843
3610,0901;0,00539513
3611,0542;0,0052342
3612,0186;0,00530715
3612,9827;0,00551991
3613,9470;0,00575211
3614,9111;0,00590204
3615,8755;0,00591246
3616,8396;0,00577584
3617,8040;0,00553112
3618,7681;0,00526757
3619,7324;0,00512116
3620,6965;0,00521207
3621,6609;0,00554328
3622,6250;0,00597854
3623,5894;0,00632879
3624,5535;0,00645534
3625,5178;0,00631617
3626,4819;0,00593943
3627,4463;0,00536183
3628,4104;0,00465189
3629,3748;0,00401291
3630,3389;0,00366105
3631,3032;0,0035739
3632,2673;0,00353583
3633,2317;0,00335762
3634,1958;0,002994
3635,1602;0,00252761
3636,1243;0,00208471
3637,0886;0,00174935
3638,0527;0,00153024
3639,0171;0,00138959
3639,9812;0,00129351
3640,9456;0,00123651
3641,9097;0,00122684
3642,8740;0,00125789
3643,8381;0,00130184
3644,8025;0,00133184
3645,7666;0,00133185
3646,7310;0,00123125
3647,6951;0,00080241
3648,6594;-0,000159775
3649,6235;-0,00134871
3650,5879;-0,0021469
3651,5520;-0,00236962
3652,5164;-0,00229059
3653,4805;-0,00223171
3654,4448;-0,00234273
3655,4089;-0,00259058
3656,3733;-0,00283765
3657,3374;-0,00295352
3658,3018;-0,00291029
3659,2659;-0,0027875
3660,2302;-0,00268538
3661,1943;-0,00263945
3662,1587;-0,00261058
3663,1228;-0,00254406
3664,0872;-0,00243634
3665,0513;-0,00233947
3666,0156;-0,00230963
3666,9797;-0,00235383
3667,9441;-0,00243514
3668,9082;-0,00251942
3669,8726;-0,00258755
3670,8367;-0,00262424
3671,8010;-0,00264369
3672,7651;-0,00268906
3673,7295;-0,00278823
3674,6936;-0,00293856
3675,6580;-0,00309448
3676,6221;-0,00314297
3677,5864;-0,00299506
3678,5505;-0,0027002
3679,5149;-0,00238262
3680,4790;-0,00211714
3681,4434;-0,00190147
3682,4075;-0,0017122
3683,3718;-0,00156184
3684,3359;-0,00149788
3685,3003;-0,00154817
3686,2644;-0,00166802
3687,2288;-0,00175244
3688,1929;-0,00172259
3689,1572;-0,00158174
3690,1213;-0,00135017
3691,0857;-0,00102307
3692,0498;-0,00062713
3693,0142;-0,00022789
3693,9783;0,0001205
3694,9426;0,000396695
3695,9067;0,000596311
3696,8711;0,000713997
3697,8352;0,00074423
3698,7996;0,000694773
3699,7637;0,000595469
3700,7280;0,000493915
3701,6921;0,000443464
3702,6565;0,000485172
3703,6206;0,000622223
3704,5850;0,000807989
3705,5491;0,000969924
3706,5134;0,0010485
3707,4775;0,00100941
3708,4419;0,000808556
3709,4060;0,000347052
3710,3704;-0,000461578
3711,3345;-0,00148005
3712,2988;-0,00232257
3713,2629;-0,002683
3714,2273;-0,00255177
3715,1914;-0,00210192
3716,1558;-0,00150557
3717,1199;-0,000852943
3718,0842;-0,000161832
3719,0483;0,00057572
3720,0127;0,00135136
3720,9768;0,00212486
3721,9412;0,00283215
3722,9053;0,00340145
3723,8696;0,0037702
3724,8337;0,00390765
3725,7981;0,00383203
3726,7622;0,00359838
3727,7266;0,00326574
3728,6907;0,00288583
3729,6550;0,00252345
3730,6191;0,00227209
3731,5835;0,00221933
3732,5476;0,00234693
3733,5120;0,00243742
3734,4761;0,00218144
3735,4404;0,00152577
3736,4045;0,000796786
3737,3689;0,000325024
3738,3330;0,000119393
3739,2974;-5,96099E-05
3740,2615;-0,000471612
3741,2258;-0,00123935
3742,1899;-0,0022869
3743,1543;-0,00335532
3744,1184;-0,00410696
3745,0828;-0,00432535
3746,0469;-0,0040874
3747,0112;-0,00370163
3747,9753;-0,00348155
3748,9397;-0,00360346
3749,9038;-0,00407717
3750,8682;-0,00469923
3751,8323;-0,00509008
3752,7966;-0,00501238
3753,7607;-0,00457993
3754,7251;-0,00407657
3755,6892;-0,00372235
3756,6536;-0,00360456
3757,6177;-0,00370594
3758,5820;-0,00393662
3759,5461;-0,00416305
3760,5105;-0,00427252
3761,4746;-0,00423648
3762,4390;-0,00410543
3763,4031;-0,00395725
3764,3674;-0,00385753
3765,3315;-0,00384641
3766,2959;-0,00393722
3767,2600;-0,00411799
3768,2244;-0,00435541
3769,1885;-0,00459905
3770,1528;-0,00478565
3771,1169;-0,00485743
3772,0813;-0,00479491
3773,0454;-0,00463574
3774,0098;-0,00445411
3774,9739;-0,00431892
3775,9382;-0,00426463
3776,9023;-0,00429005
3777,8667;-0,00436988
3778,8308;-0,00445656
3779,7952;-0,00448711
3780,7593;-0,00441875
3781,7236;-0,00426416
3782,6877;-0,0040862
3783,6521;-0,00396303
3784,6162;-0,00395062
3785,5806;-0,00405496
3786,5447;-0,004228
3787,5090;-0,00439376
3788,4731;-0,00449086
3789,4375;-0,00450085
3790,4016;-0,00444484
3791,3660;-0,00435578
3792,3301;-0,00424866
3793,2944;-0,00411172
3794,2585;-0,00392735
3795,2229;-0,00370739
3796,1870;-0,00351055
3797,1514;-0,00342227
3798,1155;-0,0035106
3799,0798;-0,00378828
3800,0439;-0,00419715
3801,0083;-0,00461756
3801,9724;-0,00492214
3802,9368;-0,00507139
3803,9009;-0,00514923
3804,8652;-0,00527666
3805,8293;-0,00548938
3806,7937;-0,00568734
3807,7578;-0,00570025
3808,7222;-0,0054392
3809,6863;-0,00499539
3810,6506;-0,00457532
3811,6147;-0,00434968
3812,5791;-0,00435202
3813,5432;-0,00447589
3814,5076;-0,00455509
3815,4717;-0,00447764
3816,4360;-0,00425779
3817,4001;-0,00402009
3818,3645;-0,00391862
3819,3286;-0,00404628
3820,2930;-0,0043633
3821,2571;-0,0046852
3822,2214;-0,00480087
3823,1855;-0,0046488
3824,1499;-0,00434707
3825,1140;-0,00407071
3826,0784;-0,00393417
3827,0425;-0,0039531
3828,0068;-0,00406742
3828,9709;-0,00419122
3829,9353;-0,0042606
3830,8994;-0,00425803
3831,8638;-0,00420762
3832,8279;-0,00415109
3833,7922;-0,00411942
3834,7563;-0,00411483
3835,7207;-0,00411464
3836,6848;-0,00409681
3837,6492;-0,00406373
3838,6133;-0,00403481
3839,5776;-0,00402612
3840,5417;-0,00405171
3841,5061;-0,00412747
3842,4702;-0,0042461
3843,4346;-0,0043508
3844,3987;-0,00435142
3845,3630;-0,00418593
3846,3271;-0,00388002
3847,2915;-0,0035524
3848,2556;-0,00336221
3849,2200;-0,00343793
3850,1841;-0,00383051
3851,1484;-0,00451744
3852,1125;-0,00542767
3853,0769;-0,00634097
3854,0410;-0,00679604
3855,0054;-0,00650415
3855,9695;-0,00569375
3856,9338;-0,0048033
3857,8979;-0,0041299
3858,8623;-0,00375327
3859,8264;-0,00360149
3860,7908;-0,00354943
3861,7549;-0,0035111
3862,7192;-0,00348266
3863,6833;-0,00350206
3864,6477;-0,00357968
3865,6118;-0,0036857
3866,5762;-0,00378053
3867,5403;-0,00383523
3868,5046;-0,0038433
3869,4688;-0,00383335
3870,4331;-0,00385933
3871,3972;-0,00395599
3872,3616;-0,00410422
3873,3257;-0,00424814
3874,2900;-0,00433814
3875,2542;-0,00435292
3876,2185;-0,00429087
3877,1826;-0,00415451
3878,1470;-0,0039499
3879,1111;-0,00370511
3880,0754;-0,00348339
3881,0396;-0,00336533
3882,0039;-0,00341216
3882,9680;-0,00363932
3883,9324;-0,00400288
3884,8965;-0,00439869
3885,8608;-0,00469691
3886,8250;-0,00481272
3887,7893;-0,00475469
3888,7534;-0,00460189
3889,7178;-0,00444248
3890,6819;-0,00432813
3891,6462;-0,00425257
3892,6104;-0,00415814
3893,5747;-0,00399288
3894,5388;-0,00376891
3895,5032;-0,00354515
3896,4673;-0,00336699
3897,4316;-0,00323965
3898,3958;-0,00315045
3899,3601;-0,00309968
3900,3242;-0,00310703
3901,2886;-0,0032004
3902,2527;-0,00340624
3903,2170;-0,00372848
3904,1812;-0,00411999
3905,1455;-0,0044942
3906,1096;-0,0047816
3907,0740;-0,00496566
3908,0381;-0,00506489
3909,0024;-0,00509686
3909,9666;-0,00506214
3910,9309;-0,00495289
3911,8950;-0,00476997
3912,8594;-0,00453417
3913,8235;-0,00428701
3914,7878;-0,00408443
3915,7520;-0,00398212
3916,7163;-0,00400536
3917,6804;-0,00411539
3918,6448;-0,0042166
3919,6089;-0,00421931
3920,5732;-0,00410256
3921,5374;-0,00392142
3922,5017;-0,00376906
3923,4658;-0,00372235
3924,4302;-0,00379241
3925,3943;-0,00391292
3926,3586;-0,00398698
3927,3228;-0,00395515
3928,2871;-0,00382894
3929,2512;-0,00368179
3930,2156;-0,0036159
3931,1797;-0,00371033
3932,1440;-0,00396705
3933,1082;-0,00430358
3934,0725;-0,00460896
3935,0366;-0,00480657
3936,0010;-0,00487218
3936,9651;-0,004817
3937,9294;-0,00466836
3938,8936;-0,00446304
3939,8579;-0,004248
3940,8220;-0,00407522
3941,7864;-0,00398156
3942,7505;-0,00396436
3943,7148;-0,00397911
3944,6790;-0,00397211
3945,6433;-0,00392034
3946,6074;-0,00384921
3947,5718;-0,00381999
3948,5359;-0,0038937
3949,5002;-0,00408804
3950,4644;-0,00435941
3951,4287;-0,0046294
3952,3928;-0,00483163
3953,3572;-0,0049394
3954,3213;-0,00496305
3955,2856;-0,00493116
3956,2498;-0,00487154
3957,2141;-0,00480183
3958,1782;-0,00473249
3959,1426;-0,00467581
3960,1067;-0,0046505
3961,0710;-0,00467501
3962,0352;-0,00475365
3962,9995;-0,00486795
3963,9636;-0,00498295
3964,9280;-0,00506409
3965,8921;-0,00509423
3966,8564;-0,00507881
3967,8206;-0,00503863
3968,7849;-0,00499552
3969,7490;-0,00496046
3970,7134;-0,00493186
3971,6775;-0,00490427
3972,6418;-0,0048794
3973,6060;-0,00486981
3974,5703;-0,00489149
3975,5344;-0,00495103
3976,4988;-0,00503776
3977,4629;-0,00512776
3978,4272;-0,00519737
3979,3914;-0,00523693
3980,3557;-0,00525568
3981,3198;-0,00527457
3982,2842;-0,00531056
3983,2483;-0,00536296
3984,2126;-0,00541153
3985,1768;-0,0054282
3986,1411;-0,0053947
3987,1052;-0,0053147
3988,0696;-0,00521355
3989,0337;-0,00512555
3989,9980;-0,00507793
3990,9622;-0,00507996
3991,9265;-0,00512329
3992,8906;-0,0051908
3993,8550;-0,00526617
3994,8191;-0,00533826
3995,7834;-0,0054002
3996,7476;-0,00544715
3997,7119;-0,00547599
3998,6760;-0,00548677
3999,6404;-0,00548308
4000,6045;-0,00513284

##### Extended Information
[Comments]
Sample name
Comment
Username
Division
Organization;UNIVERSIDAD INDUSTRIAL DE SANTANDER

[Detailed Information]
Creation date;28/02/2025 4:08 p.m.

Data array type;Linear data array
Horizontal axis;Wavenumber [cm-1]
Vertical axis;Abs
Start;399,193 cm-1
End;4000,6 cm-1
Data interval;0,964233 cm-1
Data points;3736    

[Measurement Information]
Model name;FT/IR-4X1typeA
Serial No.;A035162111

Accessory;ATR PRO 4X
Accessory S/N;A021162126
Incident angle;45 deg

Measurement date;28/02/2025 4:07 p.m.

Light source;Standard
Detector;TGS
Accumulation;40
Resolution;4 cm-1
Zero filling;On
Apodization;Cosine
Gain;Auto (8)
Aperture;Auto (7 mm)
Scan speed;Auto (2 mm/sec)
Filter;Auto (12800 Hz)

