TITLE;
DATA TYPE;INFRARED SPECTRUM
ORIGIN;JASCO
OWNER;
DATE;25/02/28
TIME;15:28:49
SPECTROMETER/DATA SYSTEM;
LOCALE;9226
RESOLUTION;
DELTAX;0,964233
XUNITS;1/CM
YUNITS;ABSORBANCE
FIRSTX;  399,1927
LASTX; 4000,6047
NPOINTS;    3736
FIRSTY;     0,17145
MAXY;     0,19429
MINY;    -0,00341
XYDATA
399,1927;0,171448
400,1569;0,168268
401,1211;0,166448
402,0854;0,166015
403,0496;0,166497
404,0138;0,167245
404,9781;0,167658
405,9423;0,167379
406,9065;0,166417
407,8708;0,165083
408,8350;0,163758
409,7992;0,162717
410,7635;0,162093
411,7277;0,161966
412,6919;0,162415
413,6562;0,163519
414,6204;0,165288
415,5846;0,167601
416,5489;0,170088
417,5131;0,172046
418,4773;0,172648
419,4416;0,171719
420,4058;0,170125
421,3700;0,168916
422,3343;0,168514
423,2985;0,168786
424,2627;0,169394
425,2270;0,17002
426,1912;0,170476
427,1554;0,170728
428,1197;0,170848
429,0839;0,17093
430,0481;0,171047
431,0124;0,171237
431,9766;0,171502
432,9408;0,171798
433,9051;0,172037
434,8693;0,172117
435,8335;0,171998
436,7978;0,171755
437,7620;0,171555
438,7262;0,171565
439,6905;0,171845
440,6547;0,172303
441,6189;0,172732
442,5832;0,172919
443,5474;0,172776
444,5116;0,172408
445,4759;0,172034
446,4401;0,171847
447,4043;0,171922
448,3686;0,172208
449,3328;0,172574
450,2970;0,172871
451,2613;0,172984
452,2255;0,172864
453,1897;0,17254
454,1540;0,172106
455,1182;0,171697
456,0824;0,171452
457,0467;0,171465
458,0109;0,171713
458,9751;0,17204
459,9394;0,172245
460,9036;0,172209
461,8678;0,171952
462,8321;0,171603
463,7963;0,171341
464,7605;0,171319
465,7248;0,171575
466,6890;0,171994
467,6532;0,172339
468,6175;0,172366
469,5817;0,17194
470,5459;0,171114
471,5102;0,170141
472,4744;0,169366
473,4386;0,169012
474,4029;0,169037
475,3671;0,169184
476,3313;0,169181
477,2956;0,168898
478,2598;0,1684
479,2240;0,167881
480,1883;0,167544
481,1525;0,167477
482,1167;0,16761
483,0810;0,167771
484,0452;0,16779
485,0094;0,167595
485,9737;0,167231
486,9379;0,166799
487,9021;0,166385
488,8664;0,16603
489,8306;0,165753
490,7948;0,165568
491,7591;0,165489
492,7233;0,165518
493,6875;0,165628
494,6518;0,165766
495,6160;0,165873
496,5802;0,165904
497,5445;0,165835
498,5087;0,165675
499,4729;0,165468
500,4372;0,165295
501,4014;0,165245
502,3656;0,165364
503,3299;0,165619
504,2941;0,165903
505,2583;0,166098
506,2226;0,166138
507,1868;0,166043
508,1510;0,165901
509,1153;0,165815
510,0795;0,16585
511,0437;0,166019
512,0080;0,166298
512,9722;0,166663
513,9365;0,167092
514,9007;0,167566
515,8649;0,168044
516,8292;0,168461
517,7934;0,168744
518,7576;0,168848
519,7219;0,168779
520,6861;0,16859
521,6503;0,168351
522,6146;0,168128
523,5788;0,167973
524,5430;0,167911
525,5073;0,167925
526,4715;0,167954
527,4357;0,167917
528,4000;0,167761
529,3642;0,167488
530,3284;0,167144
531,2927;0,166789
532,2569;0,166457
533,2211;0,166138
534,1854;0,165786
535,1496;0,165354
536,1138;0,164826
537,0781;0,164231
538,0423;0,163635
539,0065;0,16311
539,9708;0,162714
540,9350;0,162481
541,8992;0,162415
542,8635;0,162496
543,8277;0,162675
544,7919;0,162875
545,7562;0,163013
546,7204;0,163028
547,6846;0,16291
548,6489;0,162718
549,6131;0,162555
550,5773;0,162521
551,5416;0,162663
552,5058;0,162948
553,4700;0,163269
554,4343;0,163486
555,3985;0,163479
556,3627;0,163191
557,3270;0,162647
558,2912;0,161929
559,2554;0,16114
560,2197;0,16036
561,1839;0,159628
562,1481;0,158949
563,1124;0,158314
564,0766;0,15772
565,0408;0,157175
566,0051;0,156686
566,9693;0,156247
567,9335;0,155843
568,8978;0,155457
569,8620;0,155099
570,8262;0,154803
571,7905;0,154608
572,7547;0,154529
573,7189;0,15453
574,6832;0,154526
575,6474;0,154419
576,6116;0,154149
577,5759;0,153727
578,5401;0,153233
579,5043;0,152769
580,4686;0,152411
581,4328;0,15217
582,3970;0,151999
583,3613;0,151823
584,3255;0,151589
585,2897;0,151295
586,2540;0,150998
587,2182;0,150778
588,1824;0,150703
589,1467;0,150788
590,1109;0,15099
591,0751;0,151217
592,0394;0,15137
593,0036;0,151383
593,9678;0,151244
594,9321;0,15099
595,8963;0,150666
596,8605;0,150309
597,8248;0,14993
598,7890;0,149533
599,7532;0,149128
600,7175;0,148736
601,6817;0,148388
602,6459;0,148106
603,6102;0,14789
604,5744;0,147709
605,5386;0,147513
606,5029;0,147237
607,4671;0,146828
608,4313;0,146262
609,3956;0,145567
610,3598;0,144829
611,3240;0,144169
612,2883;0,1437
613,2525;0,143472
614,2167;0,143427
615,1810;0,143403
616,1452;0,143184
617,1094;0,142598
618,0737;0,141604
619,0379;0,140325
620,0021;0,138971
620,9664;0,137737
621,9306;0,136726
622,8948;0,135939
623,8591;0,13531
624,8233;0,134711
625,7875;0,134185
626,7518;0,13372
627,7160;0,133323
628,6802;0,132983
629,6445;0,132666
630,6087;0,132329
631,5729;0,13194
632,5372;0,131501
633,5014;0,131047
634,4656;0,130633
635,4299;0,130306
636,3941;0,130081
637,3583;0,12994
638,3226;0,129836
639,2868;0,129723
640,2510;0,129567
641,2153;0,129358
642,1795;0,129112
643,1437;0,128857
644,1080;0,128625
645,0722;0,12844
646,0364;0,128314
647,0007;0,128244
647,9649;0,128212
648,9291;0,128188
649,8934;0,12814
650,8576;0,128046
651,8218;0,127906
652,7861;0,12775
653,7503;0,127624
654,7145;0,127574
655,6788;0,127612
656,6430;0,127713
657,6072;0,127826
658,5715;0,127904
659,5357;0,127912
660,4999;0,127809
661,4642;0,12753
662,4284;0,12697
663,3926;0,126021
664,3569;0,124669
665,3211;0,123168
666,2853;0,122112
667,2496;0,122112
668,2138;0,12298
669,1780;0,123731
670,1423;0,123899
671,1065;0,123644
672,0707;0,123028
673,0350;0,122024
673,9992;0,12073
674,9634;0,119353
675,9277;0,118075
676,8919;0,116949
677,8561;0,11591
678,8204;0,114873
679,7846;0,113823
680,7488;0,112813
681,7131;0,111921
682,6773;0,111185
683,6415;0,110582
684,6058;0,11005
685,5700;0,109527
686,5342;0,108979
687,4985;0,108407
688,4627;0,107847
689,4269;0,107331
690,3912;0,106877
691,3554;0,10648
692,3196;0,106106
693,2839;0,105708
694,2481;0,105244
695,2123;0,104705
696,1766;0,104118
697,1408;0,103538
698,1050;0,103019
699,0693;0,102595
700,0335;0,102257
700,9977;0,101969
701,9620;0,101682
702,9262;0,10136
703,8904;0,100973
704,8547;0,100541
705,8189;0,100095
706,7831;0,0996588
707,7474;0,0992379
708,7116;0,0988191
709,6758;0,0983799
710,6401;0,0979008
711,6043;0,0973759
712,5685;0,0968199
713,5328;0,0962691
714,4970;0,0957729
715,4612;0,0943988
716,4255;0,0943061
717,3897;0,0943396
718,3539;0,0943327
719,3182;0,0940768
720,2824;0,0934266
721,2466;0,0923918
722,2109;0,0911405
723,1751;0,0899072
724,1393;0,0888767
725,1036;0,0881173
726,0678;0,0875831
727,0320;0,0871626
727,9963;0,0867397
728,9605;0,0862386
729,9247;0,0856384
730,8890;0,0849634
731,8532;0,0842624
732,8174;0,083589
733,7817;0,0829858
734,7459;0,0824744
735,7101;0,082053
736,6744;0,0817032
737,6386;0,0814018
738,6028;0,0811305
739,5671;0,0808763
740,5313;0,0806273
741,4955;0,0803678
742,4598;0,0800807
743,4240;0,0797546
744,3882;0,0793902
745,3525;0,0789986
746,3167;0,0785946
747,2809;0,0781887
748,2452;0,0777859
749,2094;0,0773895
750,1736;0,0770065
751,1379;0,0766472
752,1021;0,0763185
753,0663;0,0760159
754,0306;0,0757204
754,9948;0,0754052
755,9590;0,0750497
756,9233;0,0746523
757,8875;0,0742345
758,8517;0,0738315
759,8160;0,0734746
760,7802;0,0731744
761,7444;0,0729154
762,7087;0,072664
763,6729;0,0723875
764,6371;0,0720705
765,6014;0,0717207
766,5656;0,0713615
767,5298;0,0710166
768,4941;0,0706973
769,4583;0,0703985
770,4225;0,0701045
771,3868;0,0697986
772,3510;0,0694714
773,3152;0,0691236
774,2795;0,068765
775,2437;0,0684094
776,2079;0,0680688
777,1722;0,0677478
778,1364;0,0674421
779,1006;0,0671405
780,0649;0,066832
781,0291;0,0665115
781,9933;0,0661815
782,9576;0,065848
783,9218;0,0655148
784,8860;0,0651809
785,8503;0,064845
786,8145;0,0645112
787,7787;0,0641928
788,7430;0,0639075
789,7072;0,0636685
790,6714;0,0634763
791,6357;0,0633187
792,5999;0,0631773
793,5641;0,0630354
794,5284;0,0628821
795,4926;0,0627111
796,4568;0,0625177
797,4211;0,0622992
798,3853;0,0620596
799,3495;0,0618125
800,3138;0,0615805
801,2780;0,0613858
802,2422;0,0612389
803,2065;0,0611309
804,1707;0,0610341
805,1349;0,0609135
806,0992;0,0607422
807,0634;0,0605143
808,0276;0,0602485
808,9919;0,0599806
809,9561;0,0597482
810,9203;0,0595745
811,8846;0,0594597
812,8488;0,0593842
813,8130;0,0593206
814,7773;0,0592485
815,7415;0,0591633
816,7057;0,0590743
817,6700;0,0589953
818,6342;0,058933
819,5984;0,0588828
820,5627;0,0588317
821,5269;0,0587685
822,4911;0,0586921
823,4554;0,0586127
824,4196;0,0585467
825,3839;0,0585074
826,3481;0,0584982
827,3123;0,0585114
828,2766;0,0585333
829,2408;0,0585502
830,2050;0,058552
831,1693;0,0585326
832,1335;0,0584873
833,0977;0,058411
834,0620;0,0583
835,0262;0,0581546
835,9904;0,0579817
836,9547;0,0577949
837,9189;0,0576101
838,8831;0,0574408
839,8474;0,0572928
840,8116;0,0571634
841,7758;0,0570433
842,7401;0,0569223
843,7043;0,0567952
844,6685;0,0566651
845,6328;0,0565431
846,5970;0,056443
847,5612;0,0563741
848,5255;0,0563358
849,4897;0,0563177
850,4539;0,0563046
851,4182;0,056285
852,3824;0,0562569
853,3466;0,0562291
854,3109;0,0562158
855,2751;0,0562283
856,2393;0,0562688
857,2036;0,0563291
858,1678;0,0563959
859,1320;0,0564577
860,0963;0,056511
861,0605;0,0565604
862,0247;0,0566138
862,9890;0,0566767
863,9532;0,0567496
864,9174;0,0568301
865,8817;0,0569177
866,8459;0,0570158
867,8101;0,057129
868,7744;0,0572571
869,7386;0,0573898
870,7028;0,0575077
871,6671;0,05759
872,6313;0,0576234
873,5955;0,0576078
874,5598;0,0575547
875,5240;0,0574802
876,4882;0,0573982
877,4525;0,0573174
878,4167;0,057243
879,3809;0,0571814
880,3452;0,0571429
881,3094;0,0571435
882,2736;0,0572024
883,2379;0,0573394
884,2021;0,0575705
885,1663;0,0579049
886,1306;0,0583433
887,0948;0,0588787
888,0590;0,0594993
889,0233;0,0601904
889,9875;0,060935
890,9517;0,0617118
891,9160;0,0624921
892,8802;0,063241
893,8444;0,0639208
894,8087;0,0644989
895,7729;0,0649534
896,7371;0,0652746
897,7014;0,0654626
898,6656;0,0655233
899,6298;0,0654664
900,5941;0,0653054
901,5583;0,0650601
902,5225;0,0647555
903,4868;0,0644192
904,4510;0,0640768
905,4152;0,0637494
906,3795;0,0634548
907,3437;0,06321
908,3079;0,0630343
909,2722;0,0629462
910,2364;0,062959
911,2007;0,0630734
912,1649;0,0632762
913,1292;0,0635438
914,0934;0,0638508
915,0576;0,0641795
916,0219;0,0645254
916,9861;0,0648945
917,9503;0,065296
918,9146;0,0657322
919,8788;0,0661917
920,8430;0,0666503
921,8073;0,0670784
922,7715;0,0674524
923,7357;0,0677643
924,7000;0,0680235
925,6642;0,0682497
926,6284;0,0684613
927,5927;0,0686651
928,5569;0,0688527
929,5211;0,0690074
930,4854;0,069115
931,4496;0,069174
932,4138;0,0691983
933,3781;0,0692124
934,3423;0,0692427
935,3065;0,0693098
936,2708;0,0694252
937,2350;0,0695918
938,1992;0,0698072
939,1635;0,0700667
940,1277;0,070366
941,0919;0,0707038
942,0562;0,071083
943,0204;0,0715102
943,9846;0,071993
944,9489;0,0725367
945,9131;0,0731432
946,8773;0,073813
947,8416;0,0745488
948,8058;0,0753584
949,7700;0,0762531
950,7343;0,077243
951,6985;0,0783318
952,6627;0,0795161
953,6270;0,0807892
954,5912;0,0821467
955,5554;0,083589
956,5197;0,0851179
957,4839;0,0867302
958,4481;0,0884114
959,4124;0,090136
960,3766;0,0918751
961,3408;0,0936071
962,3051;0,0953257
963,2693;0,0970414
964,2335;0,0987756
965,1978;0,100552
966,1620;0,102388
967,1262;0,104291
968,0905;0,106261
969,0547;0,108298
970,0189;0,110402
970,9832;0,112584
971,9474;0,114863
972,9116;0,117266
973,8759;0,119822
974,8401;0,122552
975,8043;0,125461
976,7686;0,128539
977,7328;0,131752
978,6970;0,135055
979,6613;0,138385
980,6255;0,141673
981,5897;0,144842
982,5540;0,147814
983,5182;0,150521
984,4824;0,152919
985,4467;0,154996
986,4109;0,156774
987,3751;0,158296
988,3394;0,159611
989,3036;0,160761
990,2678;0,161772
991,2321;0,162661
992,1963;0,163441
993,1605;0,164125
994,1248;0,164729
995,0890;0,165266
996,0532;0,165741
997,0175;0,166156
997,9817;0,166513
998,9459;0,166818
999,9102;0,167089
1000,8744;0,167351
1001,8386;0,167639
1002,8029;0,167995
1003,7671;0,168467
1004,7313;0,169103
1005,6956;0,169945
1006,6598;0,17102
1007,6240;0,172339
1008,5883;0,173895
1009,5525;0,175661
1010,5167;0,177598
1011,4810;0,179647
1012,4452;0,181736
1013,4094;0,183782
1014,3737;0,185704
1015,3379;0,187432
1016,3021;0,188928
1017,2664;0,19018
1018,2306;0,191198
1019,1948;0,192004
1020,1591;0,192622
1021,1233;0,193076
1022,0875;0,193395
1023,0518;0,193617
1024,0160;0,193785
1024,9802;0,193929
1025,9445;0,194066
1026,9087;0,194188
1027,8729;0,194273
1028,8372;0,194292
1029,8014;0,194216
1030,7656;0,194016
1031,7299;0,193662
1032,6941;0,193121
1033,6583;0,192367
1034,6226;0,1914
1035,5868;0,190249
1036,5510;0,188984
1037,5153;0,187694
1038,4795;0,186474
1039,4437;0,185401
1040,4080;0,184516
1041,3722;0,183823
1042,3364;0,18329
1043,3007;0,182858
1044,2649;0,182459
1045,2291;0,182024
1046,1934;0,181492
1047,1576;0,180822
1048,1218;0,179986
1049,0861;0,178972
1050,0503;0,177777
1051,0145;0,176413
1051,9788;0,174899
1052,9430;0,173264
1053,9072;0,171539
1054,8715;0,169742
1055,8357;0,167875
1056,7999;0,165918
1057,7642;0,163841
1058,7284;0,161615
1059,6926;0,159231
1060,6569;0,156707
1061,6211;0,15409
1062,5853;0,151452
1063,5496;0,148874
1064,5138;0,146436
1065,4780;0,144203
1066,4423;0,142216
1067,4065;0,140486
1068,3707;0,13899
1069,3350;0,137682
1070,2992;0,136501
1071,2634;0,135381
1072,2277;0,134265
1073,1919;0,133108
1074,1561;0,131878
1075,1204;0,130552
1076,0846;0,129118
1077,0488;0,127574
1078,0131;0,125932
1078,9773;0,124224
1079,9415;0,122499
1080,9058;0,120814
1081,8700;0,119221
1082,8342;0,117756
1083,7985;0,116428
1084,7627;0,115229
1085,7269;0,114144
1086,6912;0,113161
1087,6554;0,112278
1088,6196;0,111501
1089,5839;0,110839
1090,5481;0,110296
1091,5123;0,109875
1092,4766;0,109571
1093,4408;0,10938
1094,4050;0,109294
1095,3693;0,109302
1096,3335;0,109385
1097,2977;0,109522
1098,2620;0,10969
1099,2262;0,109865
1100,1904;0,110028
1101,1547;0,110158
1102,1189;0,110233
1103,0831;0,110233
1104,0474;0,110141
1105,0116;0,109952
1105,9758;0,10967
1106,9401;0,109304
1107,9043;0,108864
1108,8685;0,108352
1109,8328;0,107756
1110,7970;0,107054
1111,7612;0,106226
1112,7255;0,105265
1113,6897;0,104189
1114,6539;0,103046
1115,6182;0,101901
1116,5824;0,100823
1117,5466;0,0998586
1118,5109;0,0990197
1119,4751;0,0982809
1120,4393;0,0975871
1121,4036;0,0968698
1122,3678;0,0960627
1123,3320;0,0951142
1124,2963;0,0939933
1125,2605;0,0926927
1126,2247;0,0912276
1127,1890;0,0896328
1128,1532;0,0879553
1129,1174;0,0862442
1130,0817;0,0845411
1131,0459;0,0828753
1132,0101;0,0812653
1132,9744;0,0797275
1133,9386;0,0782841
1134,9028;0,0769658
1135,8671;0,075806
1136,8313;0,0748307
1137,7955;0,074049
1138,7598;0,0734513
1139,7240;0,0730151
1140,6882;0,0727147
1141,6525;0,0725293
1142,6167;0,0724446
1143,5809;0,0724494
1144,5452;0,0725318
1145,5094;0,0726767
1146,4736;0,0728689
1147,4379;0,0730967
1148,4021;0,0733544
1149,3663;0,0736399
1150,3306;0,0739497
1151,2948;0,0742731
1152,2590;0,0745899
1153,2233;0,0748715
1154,1875;0,0750837
1155,1517;0,0751904
1156,1160;0,0751547
1157,0802;0,0749398
1158,0444;0,0745097
1159,0087;0,0738294
1159,9729;0,0728678
1160,9371;0,0716011
1161,9014;0,0700194
1162,8656;0,0681336
1163,8298;0,0659812
1164,7941;0,063626
1165,7583;0,0611517
1166,7225;0,0586492
1167,6868;0,0562024
1168,6510;0,0538783
1169,6152;0,0517224
1170,5795;0,0497603
1171,5437;0,0480022
1172,5079;0,0464459
1173,4722;0,0450801
1174,4364;0,0438864
1175,4006;0,0428432
1176,3649;0,0419306
1177,3291;0,0411343
1178,2933;0,0404461
1179,2576;0,0398616
1180,2218;0,0393764
1181,1860;0,0389836
1182,1503;0,0386747
1183,1145;0,0384415
1184,0787;0,0382781
1185,0430;0,0381808
1186,0072;0,0381473
1186,9714;0,0381759
1187,9357;0,0382663
1188,8999;0,0384201
1189,8641;0,0386415
1190,8284;0,0389348
1191,7926;0,0393021
1192,7568;0,0397415
1193,7211;0,040247
1194,6853;0,04081
1195,6495;0,0414206
1196,6138;0,042068
1197,5780;0,0427404
1198,5422;0,0434257
1199,5065;0,0439689
1200,4707;0,0446683
1201,4349;0,0453614
1202,3992;0,0460482
1203,3634;0,0467301
1204,3276;0,0474068
1205,2919;0,048076
1206,2561;0,0487356
1207,2203;0,0493869
1208,1846;0,0500378
1209,1488;0,0507022
1210,1130;0,0513977
1211,0773;0,0521401
1212,0415;0,0529389
1213,0057;0,0537942
1213,9700;0,0546975
1214,9342;0,0556348
1215,8984;0,0565903
1216,8627;0,0575485
1217,8269;0,0584951
1218,7911;0,0594186
1219,7554;0,0603098
1220,7196;0,0611624
1221,6838;0,0619734
1222,6481;0,062743
1223,6123;0,0634744
1224,5765;0,0641722
1225,5408;0,0648411
1226,5050;0,065484
1227,4692;0,0661008
1228,4335;0,066687
1229,3977;0,0672345
1230,3619;0,0677333
1231,3262;0,0681745
1232,2904;0,0685539
1233,2546;0,0688729
1234,2189;0,0691374
1235,1831;0,0693552
1236,1473;0,0695328
1237,1116;0,0696748
1238,0758;0,0697836
1239,0400;0,0698606
1240,0043;0,0699058
1240,9685;0,069916
1241,9327;0,0698842
1242,8970;0,0698007
1243,8612;0,0696569
1244,8254;0,0694489
1245,7897;0,0691804
1246,7539;0,0688619
1247,7181;0,0685073
1248,6824;0,0681289
1249,6466;0,0677339
1250,6108;0,0673233
1251,5751;0,0668949
1252,5393;0,0664474
1253,5035;0,0659846
1254,4678;0,0655153
1255,4320;0,065049
1256,3962;0,0645887
1257,3605;0,0641271
1258,3247;0,0636469
1259,2889;0,0631281
1260,2532;0,0625568
1261,2174;0,0619316
1262,1816;0,0612635
1263,1459;0,0605694
1264,1101;0,0598638
1265,0743;0,0591538
1266,0386;0,0584374
1267,0028;0,0577063
1267,9670;0,0569493
1268,9313;0,0561574
1269,8955;0,0553276
1270,8597;0,0544651
1271,8240;0,0535831
1272,7882;0,0526993
1273,7524;0,0518317
1274,7167;0,050995
1275,6809;0,0501986
1276,6451;0,0494463
1277,6094;0,0487357
1278,5736;0,0480589
1279,5378;0,0474045
1280,5021;0,0467629
1281,4663;0,0461308
1282,4305;0,0455143
1283,3948;0,0449265
1284,3590;0,0443819
1285,3232;0,0438904
1286,2875;0,0434551
1287,2517;0,0430735
1288,2159;0,0427416
1289,1802;0,0424576
1290,1444;0,0422232
1291,1086;0,0420424
1292,0729;0,0419195
1293,0371;0,0418577
1294,0013;0,0418581
1294,9656;0,0419192
1295,9298;0,0420372
1296,8940;0,0422072
1297,8583;0,0424253
1298,8225;0,0426905
1299,7867;0,043005
1300,7510;0,0433711
1301,7152;0,043791
1302,6794;0,0442612
1303,6437;0,0447728
1304,6079;0,0453145
1305,5721;0,0458753
1306,5364;0,0464478
1307,5006;0,0470309
1308,4648;0,0476287
1309,4291;0,0482466
1310,3933;0,0488838
1311,3575;0,0495286
1312,3218;0,0501576
1313,2860;0,0507417
1314,2502;0,0512553
1315,2145;0,0516806
1316,1787;0,0520052
1317,1429;0,0522166
1318,1072;0,0523023
1319,0714;0,0522588
1320,0356;0,0521026
1320,9999;0,0518724
1321,9641;0,0516183
1322,9283;0,0513854
1323,8926;0,0512016
1324,8568;0,0510746
1325,8210;0,0509947
1326,7853;0,0509438
1327,7495;0,0509022
1328,7137;0,0508544
1329,6780;0,0507893
1330,6422;0,050699
1331,6064;0,0505806
1332,5707;0,0504366
1333,5349;0,0502774
1334,4991;0,0501155
1335,4634;0,0499559
1336,4276;0,049784
1337,3918;0,0495601
1338,3561;0,0492308
1339,3203;0,0487675
1340,2845;0,0482016
1341,2488;0,0476138
1342,2130;0,0470843
1343,1772;0,0466576
1344,1415;0,0463434
1345,1057;0,0461342
1346,0699;0,046018
1347,0342;0,0459825
1347,9984;0,0460178
1348,9626;0,0461168
1349,9269;0,0462752
1350,8911;0,0464906
1351,8553;0,0467608
1352,8196;0,0470838
1353,7838;0,0474572
1354,7480;0,0478776
1355,7123;0,0483404
1356,6765;0,0488409
1357,6407;0,0493777
1358,6050;0,0499539
1359,5692;0,0505714
1360,5334;0,0512139
1361,4977;0,0518318
1362,4619;0,0523614
1363,4261;0,0527758
1364,3904;0,0531051
1365,3546;0,0534008
1366,3188;0,0536949
1367,2831;0,0539892
1368,2473;0,0542654
1369,2115;0,0544995
1370,1758;0,054673
1371,1400;0,0547741
1372,1042;0,0547897
1373,0685;0,054697
1374,0327;0,0544708
1374,9969;0,0541074
1375,9612;0,0536327
1376,9254;0,0530748
1377,8896;0,0524374
1378,8539;0,0517078
1379,8181;0,0508896
1380,7823;0,0500215
1381,7466;0,0491634
1382,7108;0,0483593
1383,6750;0,0476122
1384,6393;0,0468919
1385,6035;0,0461627
1386,5677;0,0454188
1387,5320;0,0447078
1388,4962;0,044108
1389,4604;0,0436637
1390,4247;0,0433571
1391,3889;0,0431441
1392,3531;0,0430006
1393,3174;0,0429287
1394,2816;0,0429287
1395,2458;0,0429723
1396,2101;0,0430103
1397,1743;0,0430088
1398,1385;0,042974
1399,1028;0,0429458
1400,0670;0,0429678
1401,0313;0,0430615
1401,9955;0,0432211
1402,9597;0,0434276
1403,9240;0,0436642
1404,8882;0,0439251
1405,8524;0,0442154
1406,8167;0,0445441
1407,7809;0,0449135
1408,7451;0,0453187
1409,7094;0,0457569
1410,6736;0,0462333
1411,6378;0,0467536
1412,6021;0,0473083
1413,5663;0,0478681
1414,5305;0,0483966
1415,4948;0,0488706
1416,4590;0,0492865
1417,4232;0,0496395
1418,3875;0,0499149
1419,3517;0,0501238
1420,3159;0,0503114
1421,2802;0,0504849
1422,2444;0,0505815
1423,2086;0,0505247
1424,1729;0,0502863
1425,1371;0,0498985
1426,1013;0,0494177
1427,0656;0,0488817
1428,0298;0,0482955
1428,9940;0,0476554
1429,9583;0,0469802
1430,9225;0,0463099
1431,8867;0,0456619
1432,8510;0,0450011
1433,8152;0,0442641
1434,7794;0,0434131
1435,7437;0,0424894
1436,7079;0,0416406
1437,6721;0,0410545
1438,6364;0,0408044
1439,6006;0,0407955
1440,5648;0,0408751
1441,5291;0,0409497
1442,4933;0,0410124
1443,4575;0,0411071
1444,4218;0,0412759
1445,3860;0,041527
1446,3502;0,0418383
1447,3145;0,0421836
1448,2787;0,0425577
1449,2429;0,0429711
1450,2072;0,0434171
1451,1714;0,0438442
1452,1356;0,0441734
1453,0999;0,044348
1454,0641;0,044378
1455,0283;0,0443312
1455,9926;0,0442361
1456,9568;0,0440235
1457,9210;0,043755
1458,8853;0,0436762
1459,8495;0,0438295
1460,8137;0,0440152
1461,7780;0,044024
1462,7422;0,043739
1463,7064;0,0431308
1464,6707;0,0422614
1465,6349;0,0412959
1466,5991;0,0404081
1467,5634;0,0396404
1468,5276;0,0389063
1469,4918;0,0380978
1470,4561;0,0371448
1471,4203;0,0359925
1472,3845;0,0345822
1473,3488;0,0329545
1474,3130;0,0313325
1475,2772;0,0299462
1476,2415;0,0288537
1477,2057;0,0279924
1478,1699;0,0272857
1479,1342;0,0266825
1480,0984;0,0261551
1481,0626;0,0256952
1482,0269;0,0253142
1482,9911;0,0250358
1483,9553;0,0248811
1484,9196;0,0248611
1485,8838;0,0249819
1486,8480;0,0252369
1487,8123;0,0255635
1488,7765;0,025825
1489,7407;0,0259286
1490,7050;0,0259475
1491,6692;0,0260122
1492,6334;0,0261709
1493,5977;0,0264177
1494,5619;0,0267731
1495,5261;0,0272974
1496,4904;0,0280283
1497,4546;0,0289142
1498,4188;0,0298489
1499,3831;0,0307484
1500,3473;0,0315397
1501,3115;0,0321342
1502,2758;0,0324709
1503,2400;0,032588
1504,2042;0,0326767
1505,1685;0,0330318
1506,1327;0,0337248
1507,0969;0,0342451
1508,0612;0,0341429
1509,0254;0,0336963
1509,9896;0,0332367
1510,9539;0,0328001
1511,9181;0,0323362
1512,8823;0,0318341
1513,8466;0,0313138
1514,8108;0,0307814
1515,7750;0,0302095
1516,7393;0,0295621
1517,7035;0,0288323
1518,6677;0,0280522
1519,6320;0,0272755
1520,5962;0,0265596
1521,5604;0,025957
1522,5247;0,0254994
1523,4889;0,0251708
1524,4531;0,0249117
1525,4174;0,0246667
1526,3816;0,0244256
1527,3458;0,0242165
1528,3101;0,0240656
1529,2743;0,0239767
1530,2385;0,0239552
1531,2028;0,0240366
1532,1670;0,024266
1533,1312;0,0246351
1534,0955;0,0250547
1535,0597;0,0254035
1536,0239;0,0255995
1536,9882;0,0256599
1537,9524;0,0257448
1538,9166;0,0261059
1539,8809;0,0267899
1540,8451;0,0273457
1541,8093;0,027374
1542,7736;0,0270834
1543,7378;0,0267693
1544,7020;0,0265159
1545,6663;0,0263343
1546,6305;0,0262378
1547,5947;0,0262266
1548,5590;0,026274
1549,5232;0,026345
1550,4874;0,0264244
1551,4517;0,0265219
1552,4159;0,0266437
1553,3801;0,0267587
1554,3444;0,0268023
1555,3086;0,0267258
1556,2728;0,0265396
1557,2371;0,026263
1558,2013;0,0258351
1559,1655;0,0253933
1560,1298;0,0254324
1561,0940;0,026077
1562,0582;0,0269838
1563,0225;0,0278163
1563,9867;0,0284219
1564,9509;0,0287945
1565,9152;0,0290117
1566,8794;0,0291877
1567,8436;0,0294301
1568,8079;0,0297967
1569,7721;0,0302774
1570,7363;0,030808
1571,7006;0,0313044
1572,6648;0,0317094
1573,6290;0,0320378
1574,5933;0,0323733
1575,5575;0,0327918
1576,5217;0,033287
1577,4860;0,0338142
1578,4502;0,0343526
1579,4144;0,0348761
1580,3787;0,0353518
1581,3429;0,0357785
1582,3071;0,0361935
1583,2714;0,0366435
1584,2356;0,0371551
1585,1998;0,0377273
1586,1641;0,0383415
1587,1283;0,0389734
1588,0925;0,0395978
1589,0568;0,0401882
1590,0210;0,0407184
1590,9852;0,0411637
1591,9495;0,0414995
1592,9137;0,041701
1593,8779;0,0417495
1594,8422;0,0416477
1595,8064;0,0414291
1596,7706;0,0411497
1597,7349;0,0408648
1598,6991;0,0406088
1599,6633;0,04039
1600,6276;0,0401996
1601,5918;0,0400277
1602,5560;0,0398746
1603,5203;0,0397503
1604,4845;0,0396605
1605,4487;0,0395941
1606,4130;0,0395257
1607,3772;0,0394347
1608,3414;0,0393276
1609,3057;0,0392408
1610,2699;0,0392107
1611,2341;0,0392327
1612,1984;0,0392582
1613,1626;0,0392398
1614,1268;0,039179
1615,0911;0,039133
1616,0553;0,0391781
1617,0195;0,0393727
1617,9838;0,0397262
1618,9480;0,0401677
1619,9122;0,0405805
1620,8765;0,0408808
1621,8407;0,0410542
1622,8049;0,0411343
1623,7692;0,0411685
1624,7334;0,041198
1625,6976;0,0412482
1626,6619;0,041329
1627,6261;0,0414465
1628,5903;0,0416018
1629,5546;0,041771
1630,5188;0,0418974
1631,4830;0,0419216
1632,4473;0,0418353
1633,4115;0,0417096
1634,3757;0,0416404
1635,3400;0,0416323
1636,3042;0,0416181
1637,2684;0,0416233
1638,2327;0,0417071
1639,1969;0,0418347
1640,1611;0,0419231
1641,1254;0,0419157
1642,0896;0,0418028
1643,0538;0,0416256
1644,0181;0,0414711
1644,9823;0,0414261
1645,9465;0,0414837
1646,9108;0,0415323
1647,8750;0,0414706
1648,8392;0,0412324
1649,8035;0,0407501
1650,7677;0,0400037
1651,7319;0,0390623
1652,6962;0,038051
1653,6604;0,0372189
1654,6246;0,0369297
1655,5889;0,0371816
1656,5531;0,0375912
1657,5173;0,0378223
1658,4816;0,0377468
1659,4458;0,0373942
1660,4100;0,0368648
1661,3743;0,0362646
1662,3385;0,0356869
1663,3027;0,0352094
1664,2670;0,0348567
1665,2312;0,0345788
1666,1954;0,034294
1667,1597;0,0339397
1668,1239;0,0334828
1669,0881;0,032916
1670,0524;0,0322791
1671,0166;0,0316458
1671,9808;0,0310408
1672,9451;0,0304168
1673,9093;0,0297399
1674,8735;0,0290717
1675,8378;0,0285586
1676,8020;0,0283144
1677,7662;0,0283018
1678,7305;0,0283472
1679,6947;0,0282562
1680,6589;0,0279054
1681,6232;0,0272594
1682,5874;0,0263434
1683,5516;0,0252695
1684,5159;0,0243283
1685,4801;0,0238148
1686,4443;0,0237018
1687,4086;0,0237229
1688,3728;0,0236423
1689,3370;0,0233653
1690,3013;0,0229159
1691,2655;0,0223777
1692,2297;0,0218477
1693,1940;0,0214138
1694,1582;0,0211383
1695,1224;0,0210255
1696,0867;0,0209867
1697,0509;0,0208599
1698,0151;0,0205241
1698,9794;0,0200396
1699,9436;0,0196508
1700,9078;0,0195892
1701,8721;0,0198818
1702,8363;0,0203664
1703,8005;0,0208425
1704,7648;0,0211897
1705,7290;0,0214044
1706,6932;0,0215744
1707,6575;0,0218097
1708,6217;0,0221705
1709,5859;0,0226439
1710,5502;0,0231776
1711,5144;0,0237227
1712,4786;0,0242549
1713,4429;0,0247741
1714,4071;0,0252855
1715,3713;0,0257564
1716,3356;0,0260934
1717,2998;0,0262591
1718,2640;0,0264085
1719,2283;0,026729
1720,1925;0,0272315
1721,1567;0,0277997
1722,1210;0,0283211
1723,0852;0,0287457
1724,0494;0,0290868
1725,0137;0,0293995
1725,9779;0,0297473
1726,9421;0,0301617
1727,9064;0,0306174
1728,8706;0,0310384
1729,8348;0,0313318
1730,7991;0,0314249
1731,7633;0,0312864
1732,7275;0,030945
1733,6918;0,0305255
1734,6560;0,0302211
1735,6202;0,030121
1736,5845;0,0301183
1737,5487;0,0300308
1738,5129;0,0297447
1739,4772;0,0292645
1740,4414;0,0286865
1741,4056;0,0281282
1742,3699;0,0276515
1743,3341;0,0272356
1744,2983;0,026815
1745,2626;0,0263288
1746,2268;0,0257319
1747,1910;0,024971
1748,1553;0,0239729
1749,1195;0,0227042
1750,0837;0,0212773
1751,0480;0,0199351
1752,0122;0,018865
1752,9764;0,0180737
1753,9407;0,0174429
1754,9049;0,0168469
1755,8691;0,0162226
1756,8334;0,0155736
1757,7976;0,0149316
1758,7618;0,0143096
1759,7261;0,0136876
1760,6903;0,0130417
1761,6545;0,0123864
1762,6188;0,011781
1763,5830;0,0112846
1764,5472;0,0109077
1765,5115;0,0106119
1766,4757;0,010348
1767,4399;0,0100876
1768,4042;0,00982692
1769,3684;0,0095675
1770,3326;0,00929341
1771,2969;0,00897648
1772,2611;0,00862456
1773,2253;0,00831321
1774,1896;0,00812424
1775,1538;0,00806176
1776,1180;0,00805793
1777,0823;0,00803819
1778,0465;0,00796595
1779,0107;0,00784479
1779,9750;0,00769649
1780,9392;0,00753917
1781,9034;0,00738007
1782,8677;0,00722401
1783,8319;0,00708634
1784,7961;0,00699384
1785,7604;0,0069673
1786,7246;0,00700137
1787,6888;0,00706496
1788,6531;0,00712441
1789,6173;0,00716487
1790,5815;0,00718593
1791,5458;0,00718311
1792,5100;0,00715728
1793,4742;0,00713864
1794,4385;0,00715645
1795,4027;0,00719423
1796,3669;0,00720707
1797,3312;0,00716637
1798,2954;0,00707636
1799,2596;0,00695871
1800,2239;0,00683138
1801,1881;0,00670422
1802,1523;0,00658713
1803,1166;0,00649309
1804,0808;0,00643392
1805,0450;0,006416
1806,0093;0,00643786
1806,9735;0,0064881
1807,9377;0,00654449
1808,9020;0,00657763
1809,8662;0,00656219
1810,8304;0,00649195
1811,7947;0,00638441
1812,7589;0,00626681
1813,7231;0,00615845
1814,6874;0,00606727
1815,6516;0,00599759
1816,6158;0,00595546
1817,5801;0,00594679
1818,5443;0,00597297
1819,5085;0,00602889
1820,4728;0,00610443
1821,4370;0,00618831
1822,4012;0,0062701
1823,3655;0,00633884
1824,3297;0,0063835
1825,2939;0,0063981
1826,2582;0,00638447
1827,2224;0,00634698
1828,1866;0,00628614
1829,1509;0,00620081
1830,1151;0,00610169
1831,0793;0,00601826
1832,0436;0,00597772
1833,0078;0,00597787
1833,9720;0,00599113
1834,9363;0,00599074
1835,9005;0,00596792
1836,8647;0,00593124
1837,8290;0,0058948
1838,7932;0,00586508
1839,7574;0,00583771
1840,7217;0,005811
1841,6859;0,00580008
1842,6501;0,00582794
1843,6144;0,00589688
1844,5786;0,00597996
1845,5428;0,00604688
1846,5071;0,00607897
1847,4713;0,00606066
1848,4355;0,00598257
1849,3998;0,00585583
1850,3640;0,0057137
1851,3282;0,00559567
1852,2925;0,00552688
1853,2567;0,00550935
1854,2209;0,00552847
1855,1852;0,00556567
1856,1494;0,00560633
1857,1136;0,00564126
1858,0779;0,00566426
1859,0421;0,00567262
1860,0063;0,00567079
1860,9706;0,00567183
1861,9348;0,00569232
1862,8990;0,00574361
1863,8633;0,00582742
1864,8275;0,00593852
1865,7917;0,00606598
1866,7560;0,0061837
1867,7202;0,00624311
1868,6844;0,00619976
1869,6487;0,00606064
1870,6129;0,00588252
1871,5771;0,00571872
1872,5414;0,0055897
1873,5056;0,00549608
1874,4698;0,0054365
1875,4341;0,00540869
1876,3983;0,00540431
1877,3625;0,00540922
1878,3268;0,0054133
1879,2910;0,00541763
1880,2552;0,0054334
1881,2195;0,00547214
1882,1837;0,00553476
1883,1479;0,00560766
1884,1122;0,00566941
1885,0764;0,00570296
1886,0406;0,00570434
1887,0049;0,00568272
1887,9691;0,00565311
1888,9333;0,00562875
1889,8976;0,00561866
1890,8618;0,00562785
1891,8260;0,00565489
1892,7903;0,00568926
1893,7545;0,00571333
1894,7188;0,00570926
1895,6830;0,00566819
1896,6472;0,0055973
1897,6115;0,00551791
1898,5757;0,00545386
1899,5399;0,00541969
1900,5042;0,00541749
1901,4684;0,00544209
1902,4326;0,0054885
1903,3969;0,0055555
1904,3611;0,00564234
1905,3253;0,00574152
1906,2896;0,00583398
1907,2538;0,00589218
1908,2180;0,0058918
1909,1823;0,00582731
1910,1465;0,00572031
1911,1107;0,00560988
1912,0750;0,00552983
1913,0392;0,00549272
1914,0034;0,00549262
1914,9677;0,00551893
1915,9319;0,00556716
1916,8961;0,00564083
1917,8604;0,00574605
1918,8246;0,00588109
1919,7888;0,00602547
1920,7531;0,00613902
1921,7173;0,00617676
1922,6815;0,00611328
1923,6458;0,00596244
1924,6100;0,00577635
1925,5742;0,0056188
1926,5385;0,00553169
1927,5027;0,00552026
1928,4669;0,00556199
1929,4312;0,00562468
1930,3954;0,00568164
1931,3596;0,00571906
1932,3239;0,00573356
1933,2881;0,00572705
1934,2523;0,0057045
1935,2166;0,00567557
1936,1808;0,00565498
1937,1450;0,00565777
1938,1093;0,00569116
1939,0735;0,00574882
1940,0377;0,00581021
1941,0020;0,00584563
1941,9662;0,00582876
1942,9304;0,00575413
1943,8947;0,00564495
1944,8589;0,00553949
1945,8231;0,00546802
1946,7874;0,00544063
1947,7516;0,0054503
1948,7158;0,00548272
1949,6801;0,00552567
1950,6443;0,00557428
1951,6085;0,00562992
1952,5728;0,00569307
1953,5370;0,00575479
1954,5012;0,00579322
1955,4655;0,00577937
1956,4297;0,00569015
1957,3939;0,0055224
1958,3582;0,0053006
1959,3224;0,00507445
1960,2866;0,00490603
1961,2509;0,00485059
1962,2151;0,00493907
1963,1793;0,00516916
1964,1436;0,00550469
1965,1078;0,00587893
1966,0720;0,00620266
1967,0363;0,00638397
1968,0005;0,00635918
1968,9647;0,00611866
1969,9290;0,00571058
1970,8932;0,0052254
1971,8574;0,004775
1972,8217;0,00447244
1973,7859;0,00440694
1974,7501;0,00461012
1975,7144;0,00502854
1976,6786;0,00552431
1977,6428;0,00592368
1978,6071;0,0060969
1979,5713;0,00601833
1980,5355;0,00576661
1981,4998;0,00547258
1982,4640;0,00525443
1983,4282;0,00517221
1984,3925;0,00521556
1985,3567;0,00532526
1986,3209;0,00543662
1987,2852;0,00552015
1988,2494;0,00559466
1989,2136;0,00570552
1990,1779;0,00588247
1991,1421;0,00610595
1992,1063;0,00630856
1993,0706;0,00641477
1994,0348;0,00638932
1994,9990;0,00625833
1995,9633;0,00609326
1996,9275;0,00597405
1997,8917;0,00595226
1998,8560;0,00603011
1999,8202;0,00616459
2000,7844;0,00629413
2001,7487;0,00637134
2002,7129;0,00638295
2003,6771;0,00634965
2004,6414;0,00631137
2005,6056;0,00630722
2006,5698;0,00635934
2007,5341;0,00646489
2008,4983;0,00659904
2009,4625;0,00672695
2010,4268;0,00681895
2011,3910;0,00686297
2012,3552;0,00686889
2013,3195;0,00686283
2014,2837;0,00687254
2015,2479;0,00691016
2016,2122;0,00696221
2017,1764;0,00699558
2018,1406;0,00697659
2019,1049;0,00688925
2020,0691;0,00673957
2021,0333;0,00654669
2021,9976;0,00633187
2022,9618;0,00611483
2023,9260;0,00591663
2024,8903;0,00576021
2025,8545;0,00566104
2026,8187;0,00561163
2027,7830;0,00557537
2028,7472;0,00550366
2029,7114;0,00537344
2030,6757;0,00522108
2031,6399;0,0051421
2032,6041;0,00524429
2033,5684;0,00557779
2034,5326;0,00608973
2035,4968;0,00664193
2036,4611;0,00708244
2037,4253;0,00732358
2038,3895;0,00737363
2039,3538;0,00731095
2040,3180;0,00722414
2041,2822;0,00715689
2042,2465;0,00708932
2043,2107;0,00696331
2044,1749;0,00673218
2045,1392;0,00640209
2046,1034;0,00604218
2047,0676;0,00575794
2048,0320;0,00563985
2048,9961;0,00571685
2049,9604;0,00594434
2050,9246;0,00623042
2051,8889;0,00647747
2052,8530;0,00661601
2053,8174;0,00662296
2054,7815;0,00652269
2055,7458;0,00637336
2056,7100;0,00623996
2057,6743;0,00616719
2058,6384;0,00616572
2059,6028;0,00621741
2060,5669;0,00629276
2061,5313;0,00636819
2062,4954;0,00643404
2063,4597;0,00649187
2064,4238;0,00654648
2065,3882;0,00659949
2066,3523;0,00664762
2067,3167;0,00668438
2068,2808;0,00670209
2069,2451;0,0066935
2070,2092;0,00665422
2071,1736;0,00658694
2072,1377;0,00650405
2073,1021;0,00642621
2074,0662;0,00637335
2075,0305;0,00635314
2075,9946;0,00635445
2076,9590;0,00635248
2077,9231;0,00632385
2078,8875;0,00626291
2079,8516;0,00618809
2080,8159;0,00613323
2081,7800;0,00612856
2082,7444;0,00618292
2083,7085;0,00627786
2084,6729;0,00637648
2085,6370;0,00644158
2086,6013;0,0064519
2087,5654;0,00640929
2088,5298;0,00633484
2089,4939;0,00625845
2090,4583;0,00620755
2091,4224;0,00619914
2092,3867;0,00623592
2093,3508;0,00630614
2094,3152;0,00638729
2095,2793;0,00645407
2096,2437;0,00648921
2097,2078;0,00649142
2098,1721;0,0064751
2099,1362;0,00646104
2100,1006;0,00646553
2101,0647;0,00648779
2102,0291;0,00652091
2102,9932;0,00655331
2103,9575;0,00657772
2104,9216;0,00659258
2105,8860;0,00659784
2106,8501;0,00659029
2107,8145;0,00656359
2108,7786;0,00651349
2109,7429;0,00644382
2110,7070;0,00636786
2111,6714;0,00630364
2112,6355;0,00626654
2113,5999;0,00626439
2114,5640;0,0062978
2115,5283;0,00636351
2116,4924;0,00645649
2117,4568;0,0065679
2118,4209;0,0066807
2119,3853;0,00676792
2120,3494;0,00679841
2121,3137;0,00674995
2122,2778;0,00662347
2123,2422;0,00644933
2124,2063;0,00627944
2125,1707;0,00616724
2126,1348;0,00614545
2127,0991;0,00621404
2128,0632;0,00634529
2129,0276;0,00650226
2129,9917;0,00665853
2130,9561;0,00680639
2131,9202;0,00694963
2132,8845;0,00708807
2133,8486;0,00720735
2134,8130;0,00728355
2135,7771;0,00729976
2136,7415;0,00725974
2137,7056;0,00718598
2138,6699;0,00710409
2139,6340;0,00702859
2140,5984;0,00696325
2141,5625;0,00691458
2142,5269;0,00690456
2143,4910;0,00696722
2144,4553;0,00712681
2145,4194;0,00737149
2146,3838;0,00764315
2147,3479;0,00785438
2148,3123;0,00792531
2149,2764;0,00782025
2150,2407;0,00756575
2151,2048;0,00724376
2152,1692;0,00696543
2153,1333;0,00683679
2154,0977;0,00692726
2155,0618;0,00724738
2156,0261;0,00773893
2156,9902;0,00828333
2157,9546;0,00873749
2158,9187;0,00899175
2159,8831;0,00901302
2160,8472;0,00883708
2161,8115;0,00852832
2162,7756;0,00815574
2163,7400;0,00779698
2164,7041;0,00754174
2165,6685;0,00746677
2166,6326;0,00758916
2167,5969;0,00783615
2168,5610;0,00806678
2169,5254;0,00814245
2170,4895;0,00800507
2171,4539;0,00771395
2172,4180;0,00741643
2173,3823;0,00726533
2174,3464;0,00732953
2175,3108;0,00755311
2176,2749;0,00779001
2177,2393;0,00789064
2178,2034;0,00778378
2179,1677;0,00750827
2180,1318;0,00718594
2181,0962;0,00695697
2182,0603;0,00691095
2183,0247;0,00704568
2183,9888;0,00727262
2184,9531;0,00746337
2185,9172;0,00751024
2186,8816;0,00737182
2187,8457;0,00708634
2188,8101;0,00675139
2189,7742;0,00648114
2190,7385;0,00636053
2191,7026;0,00641576
2192,6670;0,0066105
2193,6311;0,00686484
2194,5955;0,00708618
2195,5596;0,00720035
2196,5239;0,00717353
2197,4880;0,00701953
2198,4524;0,00679066
2199,4165;0,00655603
2200,3809;0,00637584
2201,3450;0,00628288
2202,3093;0,00627853
2203,2734;0,00634229
2204,2378;0,0064464
2205,2019;0,00656597
2206,1663;0,00668071
2207,1304;0,00677218
2208,0947;0,00682262
2209,0588;0,00681859
2210,0232;0,00675683
2210,9873;0,00664736
2211,9517;0,00651107
2212,9158;0,00637281
2213,8801;0,00625374
2214,8442;0,00616587
2215,8086;0,00611071
2216,7727;0,00608202
2217,7371;0,00607192
2218,7012;0,00607747
2219,6655;0,00610361
2220,6296;0,0061592
2221,5940;0,00624728
2222,5581;0,00635588
2223,5225;0,00645731
2224,4866;0,00651881
2225,4509;0,0065194
2226,4150;0,00646214
2227,3794;0,006373
2228,3435;0,00628987
2229,3079;0,00624361
2230,2720;0,00624527
2231,2363;0,00628395
2232,2004;0,00633417
2233,1648;0,00636798
2234,1289;0,00636629
2235,0933;0,00632611
2236,0574;0,00626163
2237,0217;0,00619893
2237,9858;0,00616541
2238,9502;0,00617818
2239,9143;0,00623653
2240,8787;0,00632246
2241,8428;0,00640915
2242,8071;0,00647278
2243,7712;0,00650176
2244,7356;0,00649891
2245,6997;0,0064766
2246,6641;0,00644856
2247,6282;0,00642336
2248,5925;0,00640335
2249,5566;0,00638913
2250,5210;0,00638571
2251,4851;0,00640475
2252,4495;0,00645963
2253,4136;0,006555
2254,3779;0,00667792
2255,3420;0,00679842
2256,3064;0,00688147
2257,2705;0,00690361
2258,2349;0,00686348
2259,1990;0,00677953
2260,1633;0,00667788
2261,1274;0,00657978
2262,0918;0,0064966
2263,0559;0,00643348
2264,0203;0,00639528
2264,9844;0,00638792
2265,9487;0,00641368
2266,9128;0,00646557
2267,8772;0,00652764
2268,8413;0,00658244
2269,8057;0,00662014
2270,7698;0,00664182
2271,7341;0,00665422
2272,6982;0,00666041
2273,6626;0,00665411
2274,6267;0,00662287
2275,5911;0,00655801
2276,5552;0,00646418
2277,5195;0,00636126
2278,4836;0,00627682
2279,4480;0,00623389
2280,4121;0,00624168
2281,3765;0,00629459
2282,3406;0,00637913
2283,3049;0,00648325
2284,2690;0,00660207
2285,2334;0,00673718
2286,1975;0,00689142
2287,1619;0,00706382
2288,1260;0,00724823
2289,0903;0,00743601
2290,0544;0,00761995
2291,0188;0,00779608
2291,9829;0,00796282
2292,9473;0,00811881
2293,9114;0,00826181
2294,8757;0,00838927
2295,8398;0,00849911
2296,8042;0,00858919
2297,7683;0,00865555
2298,7327;0,00869183
2299,6968;0,00869199
2300,6611;0,00865645
2301,6252;0,00859816
2302,5896;0,00854311
2303,5537;0,008524
2304,5181;0,00856652
2305,4822;0,00867419
2306,4465;0,00881895
2307,4106;0,00894424
2308,3750;0,00898259
2309,3391;0,00888202
2310,3035;0,00862986
2311,2676;0,00826198
2312,2319;0,00785066
2313,1960;0,00747542
2314,1604;0,00719145
2315,1245;0,0070131
2316,0889;0,00691995
2317,0530;0,00687816
2318,0173;0,00686195
2318,9814;0,00686379
2319,9458;0,00689151
2320,9099;0,00695891
2321,8743;0,00707627
2322,8384;0,00723989
2323,8027;0,00742037
2324,7668;0,00756055
2325,7312;0,0075951
2326,6953;0,00748468
2327,6597;0,00724225
2328,6238;0,00693387
2329,5881;0,00665302
2330,5522;0,00648202
2331,5166;0,00645914
2332,4807;0,00656628
2333,4451;0,00674395
2334,4092;0,00692672
2335,3735;0,00707912
2336,3376;0,00721117
2337,3020;0,00736669
2338,2661;0,00759264
2339,2305;0,00790345
2340,1946;0,00825187
2341,1589;0,00851838
2342,1230;0,00854884
2343,0874;0,00828715
2344,0515;0,0079465
2345,0159;0,00794651
2345,9800;0,00853124
2346,9443;0,00951273
2347,9084;0,0104294
2348,8728;0,0108697
2349,8369;0,0106817
2350,8013;0,0100146
2351,7654;0,00922269
2352,7297;0,00866711
2353,6938;0,00851637
2354,6582;0,00870449
2355,6223;0,00906481
2356,5867;0,00944873
2357,5508;0,00973118
2358,5151;0,00980404
2359,4792;0,00962708
2360,4436;0,00926523
2361,4077;0,00883063
2362,3721;0,00838108
2363,3362;0,00788972
2364,3005;0,00730687
2365,2646;0,00663376
2366,2290;0,00593399
2367,1931;0,00528744
2368,1575;0,00474367
2369,1216;0,00431178
2370,0859;0,00397815
2371,0500;0,00372784
2372,0144;0,00355734
2372,9785;0,0034793
2373,9429;0,00352065
2374,9070;0,00371226
2375,8713;0,00407107
2376,8354;0,00458224
2377,7998;0,00519234
2378,7639;0,00581914
2379,7283;0,00637439
2380,6924;0,00678895
2381,6567;0,00702925
2382,6208;0,00709979
2383,5852;0,0070335
2384,5493;0,0068765
2385,5137;0,00667406
2386,4778;0,00646247
2387,4421;0,00626696
2388,4063;0,0061035
2389,3706;0,0059808
2390,3347;0,00590085
2391,2991;0,00585903
2392,2632;0,00584568
2393,2275;0,00584988
2394,1917;0,00586362
2395,1560;0,00588372
2396,1201;0,00591009
2397,0845;0,00594202
2398,0486;0,00597707
2399,0129;0,00600808
2399,9771;0,00602788
2400,9414;0,0060347
2401,9055;0,00603327
2402,8699;0,006035
2403,8340;0,0060527
2404,7983;0,00609438
2405,7625;0,0061581
2406,7268;0,00623025
2407,6909;0,00629104
2408,6553;0,00632319
2409,6194;0,00631969
2410,5837;0,00628838
2411,5479;0,00624793
2412,5122;0,00621879
2413,4763;0,00621339
2414,4407;0,00623142
2415,4048;0,00626176
2416,3691;0,00628966
2417,3333;0,00630454
2418,2976;0,00630435
2419,2617;0,00629551
2420,2261;0,00628912
2421,1902;0,00629537
2422,1545;0,00632033
2423,1187;0,0063631
2424,0830;0,00641592
2425,0471;0,00646684
2426,0115;0,00650441
2426,9756;0,00652265
2427,9399;0,00652371
2428,9041;0,00651652
2429,8684;0,00651217
2430,8325;0,00651848
2431,7969;0,00653688
2432,7610;0,00656284
2433,7253;0,00658916
2434,6895;0,00660983
2435,6538;0,0066226
2436,6179;0,00662958
2437,5823;0,006636
2438,5464;0,00664798
2439,5107;0,00666979
2440,4749;0,00670168
2441,4392;0,00673931
2442,4033;0,00677531
2443,3677;0,0068028
2444,3318;0,00681889
2445,2961;0,00682635
2446,2603;0,00683194
2447,2246;0,0068424
2448,1887;0,00686029
2449,1531;0,00688239
2450,1172;0,00690174
2451,0815;0,00691221
2452,0457;0,00691271
2453,0100;0,00690836
2453,9741;0,00690783
2454,9385;0,00691838
2455,9026;0,00694171
2456,8669;0,00697311
2457,8311;0,00700409
2458,7954;0,00702655
2459,7595;0,00703595
2460,7239;0,007032
2461,6880;0,00701751
2462,6523;0,00699705
2463,6165;0,00697651
2464,5808;0,00696298
2465,5449;0,00696383
2466,5093;0,00698404
2467,4734;0,007023
2468,4377;0,00707296
2469,4019;0,00712093
2470,3662;0,0071538
2471,3303;0,00716426
2472,2947;0,00715444
2473,2588;0,00713517
2474,2231;0,00712114
2475,1873;0,00712417
2476,1516;0,00714811
2477,1157;0,00718756
2478,0801;0,00723117
2479,0442;0,00726743
2480,0085;0,00728978
2480,9727;0,00729826
2481,9370;0,00729749
2482,9011;0,00729296
2483,8655;0,00728877
2484,8296;0,00728799
2485,7939;0,0072945
2486,7581;0,00731328
2487,7224;0,00734775
2488,6865;0,0073956
2489,6509;0,00744677
2490,6150;0,00748645
2491,5793;0,00750218
2492,5435;0,00749095
2493,5078;0,00746163
2494,4719;0,00743083
2495,4363;0,00741492
2496,4004;0,0074227
2497,3647;0,00745264
2498,3289;0,00749514
2499,2932;0,00753757
2500,2573;0,00756946
2501,2217;0,00758572
2502,1858;0,00758761
2503,1501;0,00758163
2504,1143;0,00757662
2505,0786;0,00758006
2506,0427;0,00759489
2507,0071;0,00761847
2507,9712;0,00764441
2508,9355;0,00766616
2509,8997;0,00768017
2510,8640;0,00768694
2511,8281;0,00768963
2512,7925;0,00769171
2513,7566;0,0076955
2514,7209;0,00770201
2515,6851;0,0077114
2516,6494;0,00772295
2517,6135;0,00773458
2518,5779;0,00774273
2519,5420;0,0077438
2520,5063;0,00773667
2521,4705;0,00772468
2522,4348;0,00771495
2523,3989;0,0077149
2524,3633;0,00772757
2525,3274;0,0077491
2526,2917;0,00777014
2527,2559;0,00778105
2528,2202;0,00777771
2529,1843;0,00776435
2530,1487;0,00775154
2531,1128;0,00775035
2532,0771;0,007766
2533,0413;0,00779496
2534,0056;0,00782702
2534,9697;0,00785121
2535,9341;0,00786205
2536,8982;0,00786244
2537,8625;0,00786173
2538,8267;0,00787018
2539,7910;0,00789317
2540,7551;0,00792861
2541,7195;0,00796857
2542,6836;0,00800393
2543,6479;0,00802879
2544,6121;0,00804227
2545,5764;0,00804691
2546,5405;0,00804562
2547,5049;0,00803956
2548,4690;0,00802827
2549,4333;0,00801143
2550,3975;0,00799031
2551,3618;0,00796753
2552,3259;0,00794539
2553,2903;0,00792465
2554,2544;0,007905
2555,2188;0,0078871
2556,1829;0,00787414
2557,1472;0,0078711
2558,1113;0,00788182
2559,0757;0,00790627
2560,0398;0,00794017
2561,0042;0,00797766
2561,9683;0,00801468
2562,9326;0,00805003
2563,8967;0,00808323
2564,8611;0,00811122
2565,8252;0,00812753
2566,7896;0,0081256
2567,7537;0,00810439
2568,7180;0,0080717
2569,6821;0,00804187
2570,6465;0,00802856
2571,6106;0,0080372
2572,5750;0,00806218
2573,5391;0,00809064
2574,5034;0,00811019
2575,4675;0,00811571
2576,4319;0,00811136
2577,3960;0,00810754
2578,3604;0,00811517
2579,3245;0,00814066
2580,2888;0,00818342
2581,2529;0,00823628
2582,2173;0,00828814
2583,1814;0,00832784
2584,1458;0,00834808
2585,1099;0,00834792
2586,0742;0,0083325
2587,0383;0,00831012
2588,0027;0,00828828
2588,9668;0,00827121
2589,9312;0,00826037
2590,8953;0,00825699
2591,8596;0,00826399
2592,8237;0,00828495
2593,7881;0,00832025
2594,7522;0,00836369
2595,7166;0,00840286
2596,6807;0,00842466
2597,6450;0,00842311
2598,6091;0,00840424
2599,5735;0,00838429
2600,5376;0,00838116
2601,5020;0,00840435
2602,4661;0,00844933
2603,4304;0,00850023
2604,3945;0,0085391
2605,3589;0,00855591
2606,3230;0,0085533
2607,2874;0,0085436
2608,2515;0,00854085
2609,2158;0,00855308
2610,1799;0,00857947
2611,1443;0,00861292
2612,1084;0,00864546
2613,0728;0,00867254
2614,0369;0,00869421
2615,0012;0,00871351
2615,9653;0,00873388
2616,9297;0,00875726
2617,8938;0,00878339
2618,8582;0,00881014
2619,8223;0,00883446
2620,7866;0,00885382
2621,7507;0,00886757
2622,7151;0,00887765
2623,6792;0,00888788
2624,6436;0,00890214
2625,6077;0,00892246
2626,5720;0,00894842
2627,5361;0,00897806
2628,5005;0,00900946
2629,4646;0,0090416
2630,4290;0,00907402
2631,3931;0,00910573
2632,3574;0,0091349
2633,3215;0,00915971
2634,2859;0,00917986
2635,2500;0,00919716
2636,2144;0,00921483
2637,1785;0,00923572
2638,1428;0,00926089
2639,1069;0,00928944
2640,0713;0,00931936
2641,0354;0,00934862
2641,9998;0,00937575
2642,9639;0,00939987
2643,9282;0,00942074
2644,8923;0,00943908
2645,8567;0,00945674
2646,8208;0,00947616
2647,7852;0,0094992
2648,7493;0,00952598
2649,7136;0,00955466
2650,6777;0,00958259
2651,6421;0,009608
2652,6062;0,00963091
2653,5706;0,00965267
2654,5347;0,00967449
2655,4990;0,00969619
2656,4631;0,00971629
2657,4275;0,00973322
2658,3916;0,00974674
2659,3560;0,0097583
2660,3201;0,00977019
2661,2844;0,00978413
2662,2485;0,00980048
2663,2129;0,00981857
2664,1770;0,00983777
2665,1414;0,0098583
2666,1055;0,00988121
2667,0698;0,00990734
2668,0339;0,00993637
2668,9983;0,00996652
2669,9624;0,00999527
2670,9268;0,0100207
2671,8909;0,0100424
2672,8552;0,0100619
2673,8193;0,0100813
2674,7837;0,0101023
2675,7478;0,0101246
2676,7122;0,0101464
2677,6763;0,0101649
2678,6406;0,0101792
2679,6047;0,0101909
2680,5691;0,0102044
2681,5332;0,0102248
2682,4976;0,0102547
2683,4617;0,0102929
2684,4260;0,0103349
2685,3901;0,0103755
2686,3545;0,0104115
2687,3186;0,0104423
2688,2830;0,0104692
2689,2471;0,0104933
2690,2114;0,0105146
2691,1755;0,0105334
2692,1399;0,0105511
2693,1040;0,0105712
2694,0684;0,0105972
2695,0325;0,0106308
2695,9968;0,0106696
2696,9609;0,0107089
2697,9253;0,0107437
2698,8894;0,0107721
2699,8538;0,0107955
2700,8179;0,0108179
2701,7822;0,0108434
2702,7463;0,0108744
2703,7107;0,0109114
2704,6748;0,0109531
2705,6392;0,0109965
2706,6033;0,0110378
2707,5676;0,011073
2708,5317;0,0110993
2709,4961;0,0111168
2710,4602;0,0111288
2711,4246;0,0111412
2712,3887;0,0111599
2713,3530;0,011189
2714,3171;0,0112288
2715,2815;0,0112763
2716,2456;0,0113265
2717,2100;0,0113744
2718,1741;0,0114174
2719,1384;0,0114557
2720,1025;0,0114915
2721,0669;0,0115272
2722,0310;0,0115632
2722,9954;0,0115972
2723,9595;0,0116256
2724,9238;0,0116463
2725,8879;0,0116609
2726,8523;0,0116746
2727,8164;0,0116938
2728,7808;0,0117226
2729,7449;0,0117602
2730,7092;0,0118014
2731,6733;0,0118391
2732,6377;0,0118677
2733,6018;0,0118849
2734,5662;0,0118921
2735,5303;0,0118927
2736,4946;0,0118915
2737,4587;0,011893
2738,4231;0,0119014
2739,3872;0,0119199
2740,3516;0,0119498
2741,3157;0,0119901
2742,2800;0,012037
2743,2441;0,0120842
2744,2085;0,0121249
2745,1726;0,0121531
2746,1370;0,0121664
2747,1011;0,0121675
2748,0654;0,0121635
2749,0295;0,0121639
2749,9939;0,012176
2750,9580;0,0122027
2751,9224;0,0122412
2752,8865;0,0122858
2753,8508;0,0123308
2754,8149;0,0123732
2755,7793;0,0124121
2756,7434;0,0124476
2757,7078;0,012479
2758,6719;0,0125053
2759,6362;0,0125265
2760,6003;0,0125451
2761,5647;0,0125653
2762,5288;0,0125911
2763,4932;0,0126241
2764,4573;0,0126627
2765,4216;0,0127042
2766,3857;0,0127463
2767,3501;0,012789
2768,3142;0,0128337
2769,2786;0,0128813
2770,2427;0,0129303
2771,2070;0,0129773
2772,1711;0,0130187
2773,1355;0,0130528
2774,0996;0,0130812
2775,0640;0,013108
2776,0281;0,0131376
2776,9924;0,0131726
2777,9565;0,0132131
2778,9209;0,0132576
2779,8850;0,0133049
2780,8494;0,0133555
2781,8135;0,0134113
2782,7778;0,0134733
2783,7419;0,0135404
2784,7063;0,0136078
2785,6704;0,0136696
2786,6348;0,0137215
2787,5989;0,0137637
2788,5632;0,0138013
2789,5273;0,0138422
2790,4917;0,0138928
2791,4558;0,0139551
2792,4202;0,014026
2793,3843;0,0140994
2794,3486;0,0141692
2795,3127;0,0142329
2796,2771;0,0142917
2797,2412;0,0143503
2798,2056;0,0144143
2799,1697;0,014488
2800,1340;0,0145729
2801,0981;0,0146667
2802,0625;0,0147645
2803,0266;0,0148606
2803,9910;0,0149511
2804,9551;0,0150356
2805,9194;0,0151177
2806,8835;0,0152027
2807,8479;0,0152956
2808,8120;0,0153986
2809,7764;0,0155104
2810,7405;0,0156278
2811,7048;0,0157469
2812,6689;0,0158644
2813,6333;0,0159791
2814,5974;0,0160914
2815,5618;0,0162038
2816,5259;0,0163205
2817,4902;0,0164457
2818,4543;0,0165825
2819,4187;0,0167305
2820,3828;0,0168866
2821,3472;0,0170463
2822,3113;0,0172065
2823,2756;0,017368
2824,2397;0,0175351
2825,2041;0,0177132
2826,1682;0,0179059
2827,1326;0,0181136
2828,0967;0,0183337
2829,0610;0,0185636
2830,0251;0,0188029
2830,9895;0,0190542
2831,9536;0,0193221
2832,9180;0,0196102
2833,8821;0,0199202
2834,8464;0,0202522
2835,8105;0,0206072
2836,7749;0,0209896
2837,7390;0,0214081
2838,7034;0,0218759
2839,6675;0,0224121
2840,6318;0,0230454
2841,5959;0,0238149
2842,5603;0,0247636
2843,5244;0,0259186
2844,4888;0,0272614
2845,4529;0,0287037
2846,4172;0,0300853
2847,3813;0,0312066
2848,3457;0,0318895
2849,3098;0,0320409
2850,2742;0,0316881
2851,2383;0,0309663
2852,2026;0,0300653
2853,1667;0,0291638
2854,1311;0,0283812
2855,0952;0,0277644
2856,0596;0,0273052
2857,0237;0,0269713
2857,9880;0,0267316
2858,9521;0,0265671
2859,9165;0,0264677
2860,8806;0,0264255
2861,8450;0,0264298
2862,8091;0,0264682
2863,7734;0,0265316
2864,7375;0,0266167
2865,7019;0,0267257
2866,6660;0,0268611
2867,6304;0,0270205
2868,5945;0,0271937
2869,5588;0,0273653
2870,5229;0,0275198
2871,4873;0,0276481
2872,4514;0,0277503
2873,4158;0,0278343
2874,3799;0,0279114
2875,3442;0,0279914
2876,3083;0,0280796
2877,2727;0,0281772
2878,2368;0,0282825
2879,2012;0,0283931
2880,1653;0,028507
2881,1296;0,0286236
2882,0938;0,0287438
2883,0581;0,0288701
2884,0222;0,0290054
2884,9866;0,0291521
2885,9507;0,0293103
2886,9150;0,0294774
2887,8792;0,0296489
2888,8435;0,0298206
2889,8076;0,0299898
2890,7720;0,0301569
2891,7361;0,0303238
2892,7004;0,0304917
2893,6646;0,0306596
2894,6289;0,0308231
2895,5930;0,0309772
2896,5574;0,0311189
2897,5215;0,0312502
2898,4858;0,0313776
2899,4500;0,0315097
2900,4143;0,0316542
2901,3784;0,0318161
2902,3428;0,0319998
2903,3069;0,0322121
2904,2712;0,0324633
2905,2354;0,0327675
2906,1997;0,0331405
2907,1638;0,0336
2908,1282;0,0341677
2909,0923;0,0348696
2910,0566;0,0357308
2911,0208;0,0367606
2911,9851;0,0379332
2912,9492;0,0391738
2913,9136;0,040361
2914,8777;0,0413501
2915,8420;0,0420115
2916,8062;0,0422666
2917,7705;0,0421089
2918,7346;0,0415983
2919,6990;0,0408367
2920,6631;0,039935
2921,6274;0,0389875
2922,5916;0,0380588
2923,5559;0,0371845
2924,5200;0,0363785
2925,4844;0,0356415
2926,4485;0,0349675
2927,4128;0,0343478
2928,3770;0,0337748
2929,3413;0,0332423
2930,3054;0,0327463
2931,2698;0,0322829
2932,2339;0,031847
2933,1982;0,0314327
2934,1624;0,0310344
2935,1267;0,0306496
2936,0908;0,0302781
2937,0552;0,0299208
2938,0193;0,0295763
2938,9836;0,0292399
2939,9478;0,0289056
2940,9121;0,0285692
2941,8762;0,0282321
2942,8406;0,0279009
2943,8047;0,0275844
2944,7690;0,0272906
2945,7332;0,0270236
2946,6975;0,0267844
2947,6616;0,0265719
2948,6260;0,0263849
2949,5901;0,0262206
2950,5544;0,026074
2951,5186;0,0259373
2952,4829;0,0258007
2953,4470;0,0256555
2954,4114;0,0254957
2955,3755;0,0253197
2956,3398;0,0251287
2957,3040;0,024925
2958,2683;0,0247111
2959,2324;0,0244887
2960,1968;0,0242599
2961,1609;0,0240267
2962,1252;0,0237917
2963,0894;0,0235565
2964,0537;0,0233215
2965,0178;0,0230862
2965,9822;0,0228495
2966,9463;0,0226117
2967,9106;0,0223748
2968,8748;0,0221426
2969,8391;0,0219186
2970,8032;0,0217044
2971,7676;0,0214986
2972,7317;0,0212974
2973,6960;0,0210974
2974,6602;0,0208984
2975,6245;0,0207047
2976,5886;0,0205225
2977,5530;0,0203571
2978,5171;0,0202097
2979,4814;0,0200764
2980,4456;0,0199515
2981,4099;0,019831
2982,3740;0,0197149
2983,3384;0,0196071
2984,3025;0,0195121
2985,2668;0,0194324
2986,2310;0,0193664
2987,1953;0,0193097
2988,1594;0,0192578
2989,1238;0,0192079
2990,0879;0,0191603
2991,0522;0,0191172
2992,0164;0,0190813
2992,9807;0,0190544
2993,9448;0,0190372
2994,9092;0,0190289
2995,8733;0,0190281
2996,8376;0,0190326
2997,8018;0,0190406
2998,7661;0,0190504
2999,7302;0,0190618
3000,6946;0,0190762
3001,6587;0,0190959
3002,6230;0,0191238
3003,5872;0,0191613
3004,5515;0,019208
3005,5156;0,0192614
3006,4800;0,0193185
3007,4441;0,0193769
3008,4084;0,0194359
3009,3726;0,019495
3010,3369;0,0195533
3011,3010;0,0196083
3012,2654;0,0196569
3013,2295;0,0196975
3014,1938;0,0197316
3015,1580;0,0197639
3016,1223;0,0198002
3017,0864;0,0198441
3018,0508;0,0198959
3019,0149;0,0199523
3019,9792;0,0200098
3020,9434;0,0200669
3021,9077;0,0201252
3022,8718;0,0201889
3023,8362;0,0202624
3024,8003;0,0203488
3025,7646;0,0204497
3026,7288;0,0205646
3027,6931;0,0206903
3028,6572;0,0208202
3029,6216;0,0209443
3030,5857;0,0210522
3031,5500;0,0211378
3032,5142;0,0212027
3033,4785;0,021257
3034,4426;0,0213144
3035,4070;0,0213852
3036,3711;0,0214708
3037,3354;0,0215644
3038,2996;0,0216549
3039,2639;0,0217343
3040,2280;0,0218027
3041,1924;0,0218693
3042,1565;0,0219481
3043,1208;0,0220515
3044,0850;0,0221839
3045,0493;0,0223401
3046,0134;0,0225067
3046,9778;0,0226684
3047,9419;0,0228133
3048,9063;0,0229376
3049,8704;0,0230461
3050,8347;0,0231496
3051,7988;0,0232595
3052,7632;0,0233833
3053,7273;0,0235219
3054,6917;0,0236699
3055,6558;0,0238184
3056,6201;0,0239588
3057,5842;0,0240879
3058,5486;0,0242089
3059,5127;0,0243307
3060,4771;0,0244622
3061,4412;0,0246074
3062,4055;0,0247617
3063,3696;0,024913
3064,3340;0,0250472
3065,2981;0,0251561
3066,2625;0,0252423
3067,2266;0,0253187
3068,1909;0,0254022
3069,1550;0,0255051
3070,1194;0,0256304
3071,0835;0,0257718
3072,0479;0,0259186
3073,0120;0,0260616
3073,9763;0,0261978
3074,9404;0,0263297
3075,9048;0,0264632
3076,8689;0,0266029
3077,8333;0,0267496
3078,7974;0,0268995
3079,7617;0,0270461
3080,7258;0,0271828
3081,6902;0,0273056
3082,6543;0,0274142
3083,6187;0,0275126
3084,5828;0,0276063
3085,5471;0,0277007
3086,5112;0,0277988
3087,4756;0,0279017
3088,4397;0,0280097
3089,4041;0,028125
3090,3682;0,0282517
3091,3325;0,0283938
3092,2966;0,0285519
3093,2610;0,0287207
3094,2251;0,0288901
3095,1895;0,0290499
3096,1536;0,0291944
3097,1179;0,0293245
3098,0820;0,0294463
3099,0464;0,0295665
3100,0105;0,029689
3100,9749;0,0298145
3101,9390;0,0299414
3102,9033;0,0300684
3103,8674;0,0301955
3104,8318;0,0303242
3105,7959;0,0304561
3106,7603;0,0305931
3107,7244;0,030737
3108,6887;0,0308893
3109,6528;0,0310501
3110,6172;0,0312178
3111,5813;0,0313887
3112,5457;0,0315581
3113,5098;0,0317218
3114,4741;0,0318774
3115,4382;0,032025
3116,4026;0,0321667
3117,3667;0,032306
3118,3311;0,0324461
3119,2952;0,0325887
3120,2595;0,0327335
3121,2236;0,0328787
3122,1880;0,0330219
3123,1521;0,0331615
3124,1165;0,0332979
3125,0806;0,0334323
3126,0449;0,0335666
3127,0090;0,0337026
3127,9734;0,0338429
3128,9375;0,0339901
3129,9019;0,0341467
3130,8660;0,0343129
3131,8303;0,0344849
3132,7944;0,0346559
3133,7588;0,0348183
3134,7229;0,0349684
3135,6873;0,0351084
3136,6514;0,0352456
3137,6157;0,0353884
3138,5798;0,0355426
3139,5442;0,0357091
3140,5083;0,0358837
3141,4727;0,0360609
3142,4368;0,0362361
3143,4011;0,0364071
3144,3652;0,0365745
3145,3296;0,0367396
3146,2937;0,0369034
3147,2581;0,0370657
3148,2222;0,0372257
3149,1865;0,0373823
3150,1506;0,037536
3151,1150;0,0376883
3152,0791;0,0378423
3153,0435;0,0380008
3154,0076;0,0381658
3154,9719;0,0383372
3155,9360;0,0385134
3156,9004;0,0386915
3157,8645;0,0388692
3158,8289;0,0390449
3159,7930;0,0392181
3160,7573;0,0393883
3161,7214;0,039555
3162,6858;0,0397175
3163,6499;0,0398763
3164,6143;0,0400332
3165,5784;0,0401916
3166,5427;0,0403547
3167,5068;0,0405239
3168,4712;0,0406975
3169,4353;0,0407894
3170,3997;0,0409627
3171,3638;0,0411351
3172,3281;0,0413091
3173,2922;0,0414874
3174,2566;0,0416699
3175,2207;0,041852
3176,1851;0,0420262
3177,1492;0,0421864
3178,1135;0,0423324
3179,0776;0,0424713
3180,0420;0,0426144
3181,0061;0,0427706
3181,9705;0,0429417
3182,9346;0,0431208
3183,8989;0,0432961
3184,8630;0,0434575
3185,8274;0,0436019
3186,7915;0,043734
3187,7559;0,0438635
3188,7200;0,0439989
3189,6843;0,0441445
3190,6484;0,0442993
3191,6128;0,0444601
3192,5769;0,0446232
3193,5413;0,044786
3194,5054;0,0449459
3195,4697;0,0450997
3196,4338;0,045244
3197,3982;0,0453784
3198,3623;0,0455065
3199,3267;0,0456356
3200,2908;0,0457719
3201,2551;0,0459164
3202,2192;0,0460635
3203,1836;0,0462044
3204,1477;0,0463335
3205,1121;0,0464528
3206,0762;0,046571
3207,0405;0,046698
3208,0046;0,0468381
3208,9690;0,0469865
3209,9331;0,0471325
3210,8975;0,0472665
3211,8616;0,0473861
3212,8259;0,0474976
3213,7900;0,0476116
3214,7544;0,0477364
3215,7185;0,0478739
3216,6829;0,048019
3217,6470;0,0481636
3218,6113;0,0483016
3219,5754;0,048431
3220,5398;0,0485537
3221,5039;0,0486733
3222,4683;0,0487928
3223,4324;0,0489131
3224,3967;0,0490341
3225,3608;0,0491548
3226,3252;0,0492744
3227,2893;0,0493925
3228,2537;0,0495092
3229,2178;0,0496262
3230,1821;0,0497463
3231,1462;0,0498726
3232,1106;0,0500061
3233,0747;0,0501441
3234,0391;0,0502795
3235,0032;0,0504045
3235,9675;0,0505146
3236,9316;0,0506129
3237,8960;0,0507094
3238,8601;0,0508164
3239,8245;0,0509417
3240,7886;0,0510852
3241,7529;0,0512386
3242,7170;0,0513912
3243,6814;0,0515345
3244,6455;0,0516649
3245,6099;0,0517828
3246,5740;0,0518906
3247,5383;0,0519904
3248,5024;0,052085
3249,4668;0,0521793
3250,4309;0,0522797
3251,3953;0,0523921
3252,3594;0,0525185
3253,3237;0,0526565
3254,2878;0,0528005
3255,2522;0,0529445
3256,2163;0,0530844
3257,1807;0,0532177
3258,1448;0,0533419
3259,1091;0,0534557
3260,0732;0,0535604
3261,0376;0,0536619
3262,0017;0,0537692
3262,9661;0,0538898
3263,9302;0,0540256
3264,8945;0,0541708
3265,8586;0,0543162
3266,8230;0,0544542
3267,7871;0,0545831
3268,7515;0,0547056
3269,7156;0,0548239
3270,6799;0,054936
3271,6440;0,0550351
3272,6084;0,0551142
3273,5725;0,0551714
3274,5369;0,0552114
3275,5010;0,0552431
3276,4653;0,055274
3277,4294;0,0553066
3278,3938;0,0553387
3279,3579;0,0553674
3280,3223;0,0553927
3281,2864;0,0554189
3282,2507;0,0554524
3283,2148;0,0554985
3284,1792;0,0555587
3285,1433;0,0556297
3286,1077;0,0557051
3287,0718;0,0557771
3288,0361;0,055839
3289,0002;0,0558859
3289,9646;0,0559149
3290,9287;0,0559258
3291,8931;0,0559207
3292,8572;0,0559042
3293,8215;0,0558826
3294,7856;0,0558629
3295,7500;0,0558512
3296,7141;0,0558507
3297,6785;0,055861
3298,6426;0,0558781
3299,6069;0,0558961
3300,5710;0,0559105
3301,5354;0,0559206
3302,4995;0,0559295
3303,4639;0,0559423
3304,4280;0,0559619
3305,3923;0,0559868
3306,3564;0,0560113
3307,3208;0,056028
3308,2849;0,0560323
3309,2493;0,056024
3310,2134;0,0560066
3311,1777;0,0559852
3312,1418;0,0559647
3313,1062;0,0559496
3314,0703;0,0559459
3315,0347;0,0559601
3315,9988;0,0559973
3316,9631;0,0560582
3317,9272;0,0561374
3318,8916;0,0562252
3319,8557;0,0563115
3320,8201;0,0563909
3321,7842;0,0564634
3322,7485;0,0565333
3323,7126;0,0566049
3324,6770;0,0566799
3325,6411;0,0567552
3326,6055;0,0568243
3327,5696;0,0568798
3328,5339;0,0569175
3329,4980;0,0569385
3330,4624;0,0569502
3331,4265;0,0569636
3332,3909;0,056988
3333,3550;0,0570259
3334,3193;0,0570702
3335,2834;0,057107
3336,2478;0,0571218
3337,2119;0,0571062
3338,1763;0,0570602
3339,1404;0,0569902
3340,1047;0,0569039
3341,0688;0,0568078
3342,0332;0,0567061
3342,9973;0,056603
3343,9617;0,0565032
3344,9258;0,0564099
3345,8901;0,0563229
3346,8542;0,0562378
3347,8186;0,0561484
3348,7827;0,0560497
3349,7471;0,0559412
3350,7112;0,0558268
3351,6755;0,0557123
3352,6396;0,0556025
3353,6040;0,055499
3354,5681;0,0554002
3355,5325;0,055303
3356,4966;0,0552046
3357,4609;0,0551047
3358,4250;0,0550058
3359,3894;0,054913
3360,3535;0,0548306
3361,3179;0,054759
3362,2820;0,0546916
3363,2463;0,0546157
3364,2104;0,0545172
3365,1748;0,0543873
3366,1389;0,0542265
3367,1033;0,0540455
3368,0674;0,0538606
3369,0317;0,0536862
3369,9958;0,0535303
3370,9602;0,0533931
3371,9243;0,0532687
3372,8887;0,0531491
3373,8528;0,0530273
3374,8171;0,0528994
3375,7813;0,0527655
3376,7456;0,0526293
3377,7097;0,0524965
3378,6741;0,0523717
3379,6382;0,0522555
3380,6025;0,0521437
3381,5667;0,0520295
3382,5310;0,0519081
3383,4951;0,0517808
3384,4595;0,0516552
3385,4236;0,0515411
3386,3879;0,0514437
3387,3521;0,0513597
3388,3164;0,0512781
3389,2805;0,051187
3390,2449;0,0510796
3391,2090;0,0509576
3392,1733;0,0508288
3393,1375;0,0507011
3394,1018;0,0505767
3395,0659;0,0504505
3396,0303;0,0503147
3396,9944;0,0501651
3397,9587;0,0500044
3398,9229;0,0498413
3399,8872;0,0496845
3400,8513;0,0495373
3401,8157;0,0493952
3402,7798;0,0492488
3403,7441;0,0490895
3404,7083;0,0489151
3405,6726;0,048731
3406,6367;0,048548
3407,6011;0,0483771
3408,5652;0,048224
3409,5295;0,0480862
3410,4937;0,0479535
3411,4580;0,0478113
3412,4221;0,0476471
3413,3865;0,047456
3414,3506;0,0472443
3415,3149;0,0470275
3416,2791;0,0468244
3417,2434;0,0466484
3418,2075;0,0465003
3419,1719;0,0463672
3420,1360;0,046228
3421,1003;0,0460646
3422,0645;0,0458706
3423,0288;0,0456528
3423,9929;0,0454254
3424,9573;0,0452012
3425,9214;0,044987
3426,8857;0,0447835
3427,8499;0,0445887
3428,8142;0,0444004
3429,7783;0,0442167
3430,7427;0,0440341
3431,7068;0,0438467
3432,6711;0,0436478
3433,6353;0,0434348
3434,5996;0,0432118
3435,5637;0,0429899
3436,5281;0,0427809
3437,4922;0,0425918
3438,4565;0,0424202
3439,4207;0,0422573
3440,3850;0,0420932
3441,3491;0,041923
3442,3135;0,0417483
3443,2776;0,0415734
3444,2419;0,0413989
3445,2061;0,0412175
3446,1704;0,0410166
3447,1345;0,0407863
3448,0989;0,0405273
3449,0630;0,0402521
3450,0273;0,0399786
3450,9915;0,0397213
3451,9558;0,0394872
3452,9199;0,0392751
3453,8843;0,0390794
3454,8484;0,0388938
3455,8127;0,0387142
3456,7769;0,0385392
3457,7412;0,0383679
3458,7053;0,0381973
3459,6697;0,0380218
3460,6338;0,0378357
3461,5981;0,0376358
3462,5623;0,0374237
3463,5266;0,0372044
3464,4907;0,0369826
3465,4551;0,0367595
3466,4192;0,0365327
3467,3835;0,0362986
3468,3477;0,0360566
3469,3120;0,0358102
3470,2761;0,0355665
3471,2405;0,0353315
3472,2046;0,0351071
3473,1689;0,0348917
3474,1331;0,0346834
3475,0974;0,0344842
3476,0615;0,0343004
3477,0259;0,034139
3477,9900;0,0340005
3478,9543;0,033875
3479,9185;0,0337429
3480,8828;0,0335825
3481,8469;0,0333819
3482,8113;0,0331456
3483,7754;0,0328906
3484,7397;0,0326363
3485,7039;0,0323949
3486,6682;0,0321692
3487,6323;0,0319553
3488,5967;0,031749
3489,5608;0,0315494
3490,5251;0,0313585
3491,4893;0,0311772
3492,4536;0,0310024
3493,4177;0,0308272
3494,3821;0,0306457
3495,3462;0,0304592
3496,3105;0,0302788
3497,2747;0,0301206
3498,2390;0,0299948
3499,2031;0,0298964
3500,1675;0,029803
3501,1316;0,0296814
3502,0959;0,0295042
3503,0601;0,0292683
3504,0244;0,0290007
3504,9885;0,0287408
3505,9529;0,0285147
3506,9170;0,0283226
3507,8813;0,0281432
3508,8455;0,0279481
3509,8098;0,027718
3510,7739;0,027454
3511,7383;0,0271753
3512,7024;0,0269057
3513,6667;0,0266614
3514,6309;0,0264477
3515,5952;0,0262631
3516,5593;0,0261043
3517,5237;0,02597
3518,4878;0,0258609
3519,4521;0,0257768
3520,4163;0,0257124
3521,3806;0,0256554
3522,3447;0,0255884
3523,3091;0,025495
3524,2732;0,0253651
3525,2375;0,0251953
3526,2017;0,0249841
3527,1660;0,024729
3528,1301;0,0244303
3529,0945;0,0240984
3530,0586;0,0237565
3531,0229;0,0234328
3531,9871;0,0231495
3532,9514;0,0229147
3533,9155;0,0227211
3534,8799;0,0225503
3535,8440;0,0223819
3536,8083;0,0222055
3537,7725;0,0220273
3538,7368;0,0218653
3539,7009;0,0217377
3540,6653;0,0216526
3541,6294;0,0216039
3542,5938;0,021569
3543,5579;0,0215101
3544,5222;0,0213855
3545,4863;0,0211748
3546,4507;0,0208964
3547,4148;0,0205957
3548,3792;0,0203118
3549,3433;0,0200566
3550,3076;0,019817
3551,2717;0,0195701
3552,2361;0,0193005
3553,2002;0,0190137
3554,1646;0,0187358
3555,1287;0,0184972
3556,0930;0,0183172
3557,0571;0,0182005
3558,0215;0,0181417
3558,9856;0,0181289
3559,9500;0,0181476
3560,9141;0,0181836
3561,8784;0,0182259
3562,8425;0,0182648
3563,8069;0,0182838
3564,7710;0,0182384
3565,7354;0,0180483
3566,6995;0,0176529
3567,6638;0,0171036
3568,6279;0,0165456
3569,5923;0,0160896
3570,5564;0,0157518
3571,5208;0,0154975
3572,4849;0,0152933
3573,4492;0,0151235
3574,4133;0,0149807
3575,3777;0,0148565
3576,3418;0,0147416
3577,3062;0,0146317
3578,2703;0,01453
3579,2346;0,0144443
3580,1987;0,0143789
3581,1631;0,0143292
3582,1272;0,0142841
3583,0916;0,014235
3584,0557;0,0141826
3585,0200;0,014126
3585,9841;0,0140428
3586,9485;0,0138996
3587,9126;0,0137083
3588,8770;0,0135384
3589,8411;0,0134453
3590,8054;0,013423
3591,7695;0,0134296
3592,7339;0,013422
3593,6980;0,0133703
3594,6624;0,0132641
3595,6265;0,013117
3596,5908;0,0129543
3597,5549;0,0127879
3598,5193;0,0126054
3599,4834;0,0123855
3600,4478;0,0121241
3601,4119;0,0118455
3602,3762;0,0115843
3603,3403;0,0113572
3604,3047;0,0111519
3605,2688;0,0109341
3606,2332;0,0106605
3607,1973;0,0103019
3608,1616;0,00987601
3609,1257;0,00945873
3610,0901;0,00914487
3611,0542;0,00899043
3612,0186;0,00898481
3612,9827;0,00906247
3613,9470;0,00913777
3614,9111;0,0091434
3615,8755;0,00905416
3616,8396;0,00888875
3617,8040;0,00869503
3618,7681;0,00853157
3619,7324;0,0084525
3620,6965;0,00848519
3621,6609;0,00860178
3622,6250;0,00872074
3623,5894;0,00875007
3624,5535;0,00863754
3625,5178;0,00839425
3626,4819;0,00807573
3627,4463;0,00772654
3628,4104;0,00735826
3629,3748;0,00701094
3630,3389;0,00675095
3631,3032;0,00656793
3632,2673;0,00637437
3633,2317;0,00609855
3634,1958;0,00573909
3635,1602;0,00535253
3636,1243;0,00500614
3637,0886;0,00473511
3638,0527;0,0045329
3639,0171;0,00437331
3639,9812;0,004238
3640,9456;0,00412481
3641,9097;0,0040358
3642,8740;0,00396326
3643,8381;0,00389382
3644,8025;0,00383
3645,7666;0,0038012
3646,7310;0,00381692
3647,6951;0,00376074
3648,6594;0,00342304
3649,6235;0,00282239
3650,5879;0,00225423
3651,5520;0,00189086
3652,5164;0,00166439
3653,4805;0,00145098
3654,4448;0,00119822
3655,4089;0,000934238
3656,3733;0,000720907
3657,3374;0,000599451
3658,3018;0,000560365
3659,2659;0,000556195
3660,2302;0,000544479
3661,1943;0,000519577
3662,1587;0,000505627
3663,1228;0,000521767
3664,0872;0,0005555
3665,0513;0,000575568
3666,0156;0,000568605
3666,9797;0,000562959
3667,9441;0,00060269
3668,9082;0,000689208
3669,8726;0,000771514
3670,8367;0,000804395
3671,8010;0,000781636
3672,7651;0,000725202
3673,7295;0,000668477
3674,6936;0,000623882
3675,6580;0,000570814
3676,6221;0,000509962
3677,5864;0,00047637
3678,5505;0,000476369
3679,5149;0,000482635
3680,4790;0,000480966
3681,4434;0,000482692
3682,4075;0,000496839
3683,3718;0,000506166
3684,3359;0,000479269
3685,3003;0,000411194
3686,2644;0,000354433
3687,2288;0,00039674
3688,1929;0,000576874
3689,1572;0,000827158
3690,1213;0,00105078
3691,0857;0,0012195
3692,0498;0,00134761
3693,0142;0,00144169
3693,9783;0,00150081
3694,9426;0,00152686
3695,9067;0,0015234
3696,8711;0,00149371
3697,8352;0,0014462
3698,7996;0,00140086
3699,7637;0,00138541
3700,7280;0,00141969
3701,6921;0,00150324
3702,6565;0,001619
3703,6206;0,00174317
3704,5850;0,00184942
3705,5491;0,00191478
3706,5134;0,00192954
3707,4775;0,00189584
3708,4419;0,00179957
3709,4060;0,00157287
3710,3704;0,00112826
3711,3345;0,000505788
3712,2988;-7,32873E-05
3713,2629;-0,000397901
3714,2273;-0,000427546
3715,1914;-0,000244395
3716,1558;5,63347E-05
3717,1199;0,000419392
3718,0842;0,000825669
3719,0483;0,00126527
3720,0127;0,00171678
3720,9768;0,00214638
3721,9412;0,0025195
3722,9053;0,00280993
3723,8696;0,00300135
3724,8337;0,00308878
3725,7981;0,00308081
3726,7622;0,00299382
3727,7266;0,00284132
3728,6907;0,00263533
3729,6550;0,00240214
3730,6191;0,00219346
3731,5835;0,0020703
3732,5476;0,00205075
3733,5120;0,00205428
3734,4761;0,00193899
3735,4404;0,00166376
3736,4045;0,0013582
3737,3689;0,00115209
3738,3330;0,00102108
3739,2974;0,000828947
3740,2615;0,000451361
3741,2258;-0,000134948
3742,1899;-0,000819182
3743,1543;-0,00139074
3744,1184;-0,0016522
3745,0828;-0,00155394
3746,0469;-0,00122823
3747,0112;-0,000886718
3747,9753;-0,00069268
3748,9397;-0,000715527
3749,9038;-0,000949073
3750,8682;-0,00129818
3751,8323;-0,00156843
3752,7966;-0,00161515
3753,7607;-0,00147827
3754,7251;-0,00130019
3755,6892;-0,0011918
3756,6536;-0,00118996
3757,6177;-0,00127908
3758,5820;-0,00141653
3759,5461;-0,00154455
3760,5105;-0,00161251
3761,4746;-0,00160507
3762,4390;-0,00154359
3763,4031;-0,00146512
3764,3674;-0,00140616
3765,3315;-0,00139666
3766,2959;-0,00145455
3767,2600;-0,00157755
3768,2244;-0,00174009
3769,1885;-0,00190058
3770,1528;-0,00201567
3771,1169;-0,00205772
3772,0813;-0,00202864
3773,0454;-0,0019593
3774,0098;-0,00189027
3774,9739;-0,00184773
3775,9382;-0,00183295
3776,9023;-0,00183295
3777,8667;-0,00183874
3778,8308;-0,00184623
3779,7952;-0,00184258
3780,7593;-0,00180838
3781,7236;-0,00173861
3782,6877;-0,00165377
3783,6521;-0,00159162
3784,6162;-0,00158821
3785,5806;-0,0016563
3786,5447;-0,00177471
3787,5090;-0,00189925
3788,4731;-0,00198941
3789,4375;-0,00202896
3790,4016;-0,00202494
3791,3660;-0,00198959
3792,3301;-0,00192219
3793,2944;-0,00180805
3794,2585;-0,00163839
3795,2229;-0,00143493
3796,1870;-0,00125233
3797,1514;-0,00114996
3798,1155;-0,0011559
3799,0798;-0,00125336
3800,0439;-0,00139804
3801,0083;-0,00154644
3801,9724;-0,00167351
3802,9368;-0,00178484
3803,9009;-0,00191572
3804,8652;-0,00209631
3805,8293;-0,00230632
3806,7937;-0,00246758
3807,7578;-0,00249249
3808,7222;-0,00235958
3809,6863;-0,00214517
3810,6506;-0,00197047
3811,6147;-0,00191311
3812,5791;-0,00195506
3813,5432;-0,00199725
3814,5076;-0,00193415
3815,4717;-0,00173861
3816,4360;-0,00148091
3817,4001;-0,00127166
3818,3645;-0,00119612
3819,3286;-0,00128156
3820,2930;-0,00148416
3821,2571;-0,00169434
3822,2214;-0,00179631
3823,1855;-0,00175806
3824,1499;-0,00164662
3825,1140;-0,00155869
3826,0784;-0,00155237
3827,0425;-0,00162541
3828,0068;-0,0017311
3828,9709;-0,00181106
3829,9353;-0,00182654
3830,8994;-0,00177431
3831,8638;-0,00168269
3832,8279;-0,00159255
3833,7922;-0,00153374
3834,7563;-0,00150964
3835,7207;-0,00150118
3836,6848;-0,00148999
3837,6492;-0,00147996
3838,6133;-0,00149
3839,5776;-0,00153074
3840,5417;-0,00160027
3841,5061;-0,00169246
3842,4702;-0,00179042
3843,4346;-0,00185632
3844,3987;-0,00184349
3845,3630;-0,00173228
3846,3271;-0,00156038
3847,2915;-0,00141872
3848,2556;-0,00141221
3849,2200;-0,00160876
3850,1841;-0,00200084
3851,1484;-0,00250318
3852,1125;-0,00299798
3853,0769;-0,00335656
3854,0410;-0,00340994
3855,0054;-0,00308526
3855,9695;-0,00254557
3856,9338;-0,00204048
3857,8979;-0,00172438
3858,8623;-0,00161455
3859,8264;-0,00163076
3860,7908;-0,00166157
3861,7549;-0,00163636
3862,7192;-0,00156751
3863,6833;-0,00152137
3864,6477;-0,0015458
3865,6118;-0,00163539
3866,5762;-0,00174895
3867,5403;-0,00183682
3868,5046;-0,00186359
3869,4688;-0,00182926
3870,4331;-0,00177225
3871,3972;-0,00174057
3872,3616;-0,00175716
3873,3257;-0,00181496
3874,2900;-0,00189519
3875,2542;-0,00197992
3876,2185;-0,00204916
3877,1826;-0,00207591
3878,1470;-0,00203422
3879,1111;-0,00192354
3880,0754;-0,00178739
3881,0396;-0,00169789
3882,0039;-0,00171276
3882,9680;-0,00184242
3883,9324;-0,00204608
3884,8965;-0,00225096
3885,8608;-0,00238774
3886,8250;-0,00242784
3887,7893;-0,00239334
3888,7534;-0,00232873
3889,7178;-0,00226441
3890,6819;-0,00220458
3891,6462;-0,00213636
3892,6104;-0,00204363
3893,5747;-0,00192677
3894,5388;-0,00181527
3895,5032;-0,00174736
3896,4673;-0,00173587
3897,4316;-0,00175971
3898,3958;-0,00178763
3899,3601;-0,00180548
3900,3242;-0,0018207
3901,2886;-0,00184841
3902,2527;-0,00190273
3903,2170;-0,00199131
3904,1812;-0,00210514
3905,1455;-0,00221975
3906,1096;-0,00231538
3907,0740;-0,00239001
3908,0381;-0,00244932
3909,0024;-0,00249102
3909,9666;-0,00250256
3910,9309;-0,00247231
3911,8950;-0,00240118
3912,8594;-0,00230475
3913,8235;-0,00220623
3914,7878;-0,00212857
3915,7520;-0,00208985
3916,7163;-0,00209686
3917,6804;-0,00213477
3918,6448;-0,00216796
3919,6089;-0,00216237
3920,5732;-0,00210987
3921,5374;-0,00203043
3922,5017;-0,00195774
3923,4658;-0,00192081
3924,4302;-0,00192712
3925,3943;-0,00195646
3926,3586;-0,00197591
3927,3228;-0,00196451
3928,2871;-0,00192581
3929,2512;-0,00188495
3930,2156;-0,00187834
3931,1797;-0,00193529
3932,1440;-0,00205512
3933,1082;-0,00220187
3934,0725;-0,0023285
3935,0366;-0,00240556
3936,0010;-0,00242844
3936,9651;-0,00240732
3937,9294;-0,00235612
3938,8936;-0,00228822
3939,8579;-0,00221753
3940,8220;-0,00215904
3941,7864;-0,00212393
3942,7505;-0,00211156
3943,7148;-0,00210776
3944,6790;-0,00209585
3945,6433;-0,00206941
3946,6074;-0,00203696
3947,5718;-0,00201766
3948,5359;-0,002031
3949,5002;-0,00208425
3950,4644;-0,00216644
3951,4287;-0,00225604
3952,3928;-0,00233477
3953,3572;-0,00239453
3954,3213;-0,00243529
3955,2856;-0,00245988
3956,2498;-0,00247057
3957,2141;-0,00246837
3958,1782;-0,00245483
3959,1426;-0,00243443
3960,1067;-0,00241555
3961,0710;-0,00240822
3962,0352;-0,00241924
3962,9995;-0,00244771
3963,9636;-0,00248469
3964,9280;-0,00251694
3965,8921;-0,00253334
3966,8564;-0,00252944
3967,8206;-0,00250908
3968,7849;-0,0024819
3969,7490;-0,0024583
3970,7134;-0,00244473
3971,6775;-0,00244243
3972,6418;-0,00244976
3973,6060;-0,00246547
3974,5703;-0,00248971
3975,5344;-0,00252205
3976,4988;-0,00255847
3977,4629;-0,00259107
3978,4272;-0,0026115
3979,3914;-0,00261662
3980,3557;-0,00261219
3981,3198;-0,00261106
3982,2842;-0,00262541
3983,2483;-0,00265764
3984,2126;-0,00269654
3985,1768;-0,00272246
3986,1411;-0,00271845
3987,1052;-0,00268044
3988,0696;-0,00262037
3989,0337;-0,00255976
3989,9980;-0,00251902
3990,9622;-0,00250821
3991,9265;-0,00252512
3992,8906;-0,00256035
3993,8550;-0,00260412
3994,8191;-0,00264966
3995,7834;-0,00269209
3996,7476;-0,00272599
3997,7119;-0,00274507
3998,6760;-0,00274505
3999,6404;-0,0027271
4000,6045;-0,00243339

##### Extended Information
[Comments]
Sample name
Comment
Username
Division
Organization;UNIVERSIDAD INDUSTRIAL DE SANTANDER

[Detailed Information]
Creation date;28/02/2025 3:28 p.m.

Data array type;Linear data array
Horizontal axis;Wavenumber [cm-1]
Vertical axis;Abs
Start;399,193 cm-1
End;4000,6 cm-1
Data interval;0,964233 cm-1
Data points;3736    

[Measurement Information]
Model name;FT/IR-4X1typeA
Serial No.;A035162111

Accessory;ATR PRO 4X
Accessory S/N;A021162126
Incident angle;45 deg

Measurement date;28/02/2025 3:28 p.m.

Light source;Standard
Detector;TGS
Accumulation;40
Resolution;4 cm-1
Zero filling;On
Apodization;Cosine
Gain;Auto (8)
Aperture;Auto (7 mm)
Scan speed;Auto (2 mm/sec)
Filter;Auto (12800 Hz)

