TITLE;
DATA TYPE;INFRARED SPECTRUM
ORIGIN;JASCO
OWNER;
DATE;25/02/28
TIME;16:17:28
SPECTROMETER/DATA SYSTEM;
LOCALE;9226
RESOLUTION;
DELTAX;0,964233
XUNITS;1/CM
YUNITS;ABSORBANCE
FIRSTX;  399,1927
LASTX; 4000,6047
NPOINTS;    3736
FIRSTY;     0,19279
MAXY;     0,25078
MINY;    -0,00596
XYDATA
399,1927;0,192793
400,1569;0,188617
401,1211;0,184957
402,0854;0,182134
403,0496;0,18016
404,0138;0,178895
404,9781;0,178125
405,9423;0,177619
406,9065;0,1772
407,8708;0,176802
408,8350;0,176464
409,7992;0,176274
410,7635;0,176317
411,7277;0,176667
412,6919;0,177391
413,6562;0,17857
414,6204;0,180299
415,5846;0,182639
416,5489;0,185494
417,5131;0,188386
418,4773;0,190398
419,4416;0,190799
420,4058;0,189883
421,3700;0,188647
422,3343;0,187826
423,2985;0,187579
424,2627;0,187669
425,2270;0,187709
426,1912;0,187374
427,1554;0,186571
428,1197;0,185478
429,0839;0,184452
430,0481;0,183877
431,0124;0,184011
431,9766;0,184885
432,9408;0,186267
433,9051;0,187724
434,8693;0,18878
435,8335;0,189112
436,7978;0,188707
437,7620;0,187856
438,7262;0,186991
439,6905;0,186459
440,6547;0,186366
441,6189;0,186527
442,5832;0,186548
443,5474;0,186053
444,5116;0,184945
445,4759;0,183484
446,4401;0,182121
447,4043;0,181234
448,3686;0,180952
449,3328;0,181141
450,2970;0,181513
451,2613;0,181792
452,2255;0,181859
453,1897;0,18177
454,1540;0,181661
455,1182;0,181622
456,0824;0,181628
457,0467;0,181551
458,0109;0,181268
458,9751;0,180756
459,9394;0,180096
460,9036;0,179383
461,8678;0,178664
462,8321;0,177963
463,7963;0,177336
464,7605;0,176894
465,7248;0,176756
466,6890;0,176952
467,6532;0,177373
468,6175;0,177803
469,5817;0,178014
470,5459;0,177876
471,5102;0,177415
472,4744;0,176804
473,4386;0,176249
474,4029;0,17586
475,3671;0,175621
476,3313;0,175468
477,2956;0,175367
478,2598;0,175348
479,2240;0,17547
480,1883;0,175759
481,1525;0,17617
482,1167;0,176591
483,0810;0,176903
484,0452;0,177036
485,0094;0,177007
485,9737;0,176899
486,9379;0,176799
487,9021;0,176764
488,8664;0,17682
489,8306;0,176983
490,7948;0,177275
491,7591;0,177707
492,7233;0,178259
493,6875;0,178867
494,6518;0,179445
495,6160;0,179922
496,5802;0,180267
497,5445;0,180486
498,5087;0,180603
499,4729;0,180649
500,4372;0,180655
501,4014;0,180664
502,3656;0,180718
503,3299;0,180839
504,2941;0,181011
505,2583;0,181191
506,2226;0,181338
507,1868;0,181451
508,1510;0,181575
509,1153;0,181779
510,0795;0,182108
511,0437;0,18257
512,0080;0,18314
512,9722;0,183796
513,9365;0,18454
514,9007;0,185374
515,8649;0,186267
516,8292;0,187114
517,7934;0,187762
518,7576;0,188098
519,7219;0,188136
520,6861;0,188013
521,6503;0,187903
522,6146;0,18792
523,5788;0,188065
524,5430;0,188241
525,5073;0,188319
526,4715;0,188226
527,4357;0,187995
528,4000;0,187733
529,3642;0,187538
530,3284;0,187432
531,2927;0,187362
532,2569;0,18724
533,2211;0,187003
534,1854;0,186645
535,1496;0,186215
536,1138;0,185789
537,0781;0,185429
538,0423;0,185171
539,0065;0,185032
539,9708;0,185017
540,9350;0,185129
541,8992;0,185354
542,8635;0,18566
543,8277;0,186
544,7919;0,186331
545,7562;0,186625
546,7204;0,186874
547,6846;0,187087
548,6489;0,187272
549,6131;0,187437
550,5773;0,1876
551,5416;0,187793
552,5058;0,188058
553,4700;0,188421
554,4343;0,188864
555,3985;0,189318
556,3627;0,189675
557,3270;0,189826
558,2912;0,189696
559,2554;0,189257
560,2197;0,188532
561,1839;0,187591
562,1481;0,186542
563,1124;0,185514
564,0766;0,184629
565,0408;0,183949
566,0051;0,183447
566,9693;0,183017
567,9335;0,182529
568,8978;0,181919
569,8620;0,181234
570,8262;0,180622
571,7905;0,18024
572,7547;0,180174
573,7189;0,18039
574,6832;0,180753
575,6474;0,181093
576,6116;0,181285
577,5759;0,181294
578,5401;0,181169
579,5043;0,180985
580,4686;0,180788
581,4328;0,180578
582,3970;0,180325
583,3613;0,18001
584,3255;0,179656
585,2897;0,179338
586,2540;0,179154
587,2182;0,179181
588,1824;0,179436
589,1467;0,179851
590,1109;0,180289
591,0751;0,180582
592,0394;0,180607
593,0036;0,180347
593,9678;0,179889
594,9321;0,179375
595,8963;0,178912
596,8605;0,178523
597,8248;0,178147
598,7890;0,177695
599,7532;0,177119
600,7175;0,176452
601,6817;0,175789
602,6459;0,175234
603,6102;0,174832
604,5744;0,174557
605,5386;0,174326
606,5029;0,17404
607,4671;0,17362
608,4313;0,173027
609,3956;0,172279
610,3598;0,171459
611,3240;0,170714
612,2883;0,170218
613,2525;0,170099
614,2167;0,170343
615,1810;0,170742
616,1452;0,170936
617,1094;0,170556
618,0737;0,16943
619,0379;0,167683
620,0021;0,165666
620,9664;0,163753
621,9306;0,162177
622,8948;0,160969
623,8591;0,160019
624,8233;0,159096
625,7875;0,158269
626,7518;0,157534
627,7160;0,156927
628,6802;0,156456
629,6445;0,156083
630,6087;0,15573
631,5729;0,155334
632,5372;0,154871
633,5014;0,154369
634,4656;0,153886
635,4299;0,153478
636,3941;0,153171
637,3583;0,152955
638,3226;0,15279
639,2868;0,152631
640,2510;0,152442
641,2153;0,152214
642,1795;0,151962
643,1437;0,151717
644,1080;0,151505
645,0722;0,151336
646,0364;0,151197
647,0007;0,151063
647,9649;0,150909
648,9291;0,150724
649,8934;0,150508
650,8576;0,150273
651,8218;0,15004
652,7861;0,149843
653,7503;0,149722
654,7145;0,149706
655,6788;0,149781
656,6430;0,149902
657,6072;0,150014
658,5715;0,150096
659,5357;0,150145
660,4999;0,150115
661,4642;0,149856
662,4284;0,149112
663,3926;0,147615
664,3569;0,145304
665,3211;0,142622
666,2853;0,140677
667,2496;0,140677
668,2138;0,142426
669,1780;0,144152
670,1423;0,14488
671,1065;0,144809
672,0707;0,144061
673,0350;0,142626
673,9992;0,140708
674,9634;0,13869
675,9277;0,136901
676,8919;0,135429
677,8561;0,134155
678,8204;0,132919
679,7846;0,131655
680,7488;0,130393
681,7131;0,129199
682,6773;0,128105
683,6415;0,127101
684,6058;0,126161
685,5700;0,125275
686,5342;0,124447
687,4985;0,123679
688,4627;0,12298
689,4269;0,122326
690,3912;0,121705
691,3554;0,121124
692,3196;0,120592
693,2839;0,120108
694,2481;0,119647
695,2123;0,119177
696,1766;0,11867
697,1408;0,118121
698,1050;0,117544
699,0693;0,116968
700,0335;0,116418
700,9977;0,115901
701,9620;0,115411
702,9262;0,114928
703,8904;0,114404
704,8547;0,113833
705,8189;0,113215
706,7831;0,112556
707,7474;0,111868
708,7116;0,111167
709,6758;0,110474
710,6401;0,109799
711,6043;0,109137
712,5685;0,108473
713,5328;0,107808
714,4970;0,107173
715,4612;0,104935
716,4255;0,104893
717,3897;0,105102
718,3539;0,105334
719,3182;0,105248
720,2824;0,104562
721,2466;0,103231
722,2109;0,101487
723,1751;0,0997029
724,1393;0,0981913
725,1036;0,0970746
726,0678;0,096285
727,0320;0,095655
727,9963;0,09503
728,9605;0,0943387
729,9247;0,0935924
730,8890;0,0928362
731,8532;0,0921025
732,8174;0,0913982
733,7817;0,0907219
734,7459;0,0900845
735,7101;0,0895129
736,6744;0,089033
737,6386;0,0886496
738,6028;0,0883367
739,5671;0,0880452
740,5313;0,0877225
741,4955;0,0873322
742,4598;0,0868649
743,4240;0,0863356
744,3882;0,0857725
745,3525;0,0852018
746,3167;0,0846384
747,2809;0,0840851
748,2452;0,0835389
749,2094;0,0829986
750,1736;0,0824679
751,1379;0,0819511
752,1021;0,0814458
753,0663;0,0809406
754,0306;0,080419
754,9948;0,0798704
755,9590;0,0792992
756,9233;0,0787265
757,8875;0,0781825
758,8517;0,0776926
759,8160;0,0772652
760,7802;0,0768878
761,7444;0,0765331
762,7087;0,0761725
763,6729;0,0757908
764,6371;0,0753933
765,6014;0,0750026
766,5656;0,0746447
767,5298;0,0743335
768,4941;0,07406
769,4583;0,0737951
770,4225;0,0735037
771,3868;0,0731632
772,3510;0,0727761
773,3152;0,0723697
774,2795;0,0719828
775,2437;0,0716475
776,2079;0,0713732
777,1722;0,0711434
778,1364;0,0709236
779,1006;0,0706775
780,0649;0,0703832
781,0291;0,0700403
781,9933;0,0696667
782,9576;0,069287
783,9218;0,0689204
784,8860;0,0685739
785,8503;0,0682451
786,8145;0,0679301
787,7787;0,0676309
788,7430;0,067356
789,7072;0,0671141
790,6714;0,0669072
791,6357;0,0667279
792,5999;0,0665628
793,5641;0,0663997
794,5284;0,0662318
795,4926;0,0660571
796,4568;0,065874
797,4211;0,0656802
798,3853;0,0654761
799,3495;0,0652692
800,3138;0,0650756
801,2780;0,0649126
802,2422;0,0647875
803,2065;0,0646893
804,1707;0,0645909
805,1349;0,0644622
806,0992;0,0642858
807,0634;0,0640649
808,0276;0,0638197
808,9919;0,0635744
809,9561;0,0633443
810,9203;0,0631316
811,8846;0,06293
812,8488;0,0627346
813,8130;0,0625467
814,7773;0,0623727
815,7415;0,0622178
816,7057;0,0620802
817,6700;0,0619517
818,6342;0,0618222
819,5984;0,0616863
820,5627;0,0615454
821,5269;0,0614062
822,4911;0,0612758
823,4554;0,0611582
824,4196;0,0610532
825,3839;0,0609585
826,3481;0,0608708
827,3123;0,0607884
828,2766;0,06071
829,2408;0,0606347
830,2050;0,0605599
831,1693;0,0604798
832,1335;0,0603845
833,0977;0,0602613
834,0620;0,0600991
835,0262;0,0598932
835,9904;0,0596494
836,9547;0,0593824
837,9189;0,0591101
838,8831;0,0588452
839,8474;0,0585904
840,8116;0,0583395
841,7758;0,0580846
842,7401;0,0578244
843,7043;0,0575684
844,6685;0,0573352
845,6328;0,057144
846,5970;0,0570063
847,5612;0,0569196
848,5255;0,0568681
849,4897;0,0568274
850,4539;0,0567738
851,4182;0,0566923
852,3824;0,0565826
853,3466;0,0564591
854,3109;0,0563456
855,2751;0,0562653
856,2393;0,0562309
857,2036;0,0562397
858,1678;0,0562756
859,1320;0,0563184
860,0963;0,0563538
861,0605;0,056379
862,0247;0,0564024
862,9890;0,0564369
863,9532;0,0564932
864,9174;0,056577
865,8817;0,0566888
866,8459;0,0568268
867,8101;0,0569877
868,7744;0,0571663
869,7386;0,0573548
870,7028;0,0575431
871,6671;0,0577206
872,6313;0,0578787
873,5955;0,0580119
874,5598;0,0581174
875,5240;0,0581952
876,4882;0,0582479
877,4525;0,0582826
878,4167;0,0583117
879,3809;0,0583524
880,3452;0,0584249
881,3094;0,0585502
882,2736;0,0587474
883,2379;0,0590313
884,2021;0,0594116
885,1663;0,0598913
886,1306;0,0604683
887,0948;0,0611382
888,0590;0,0618964
889,0233;0,062738
889,9875;0,0636543
890,9517;0,064627
891,9160;0,0656247
892,8802;0,0666033
893,8444;0,0675117
894,8087;0,068298
895,7729;0,0689156
896,7371;0,0693265
897,7014;0,0695046
898,6656;0,06944
899,6298;0,0691437
900,5941;0,0686494
901,5583;0,0680082
902,5225;0,0672779
903,4868;0,0665098
904,4510;0,0657415
905,4152;0,0649978
906,3795;0,0642979
907,3437;0,0636637
908,3079;0,0631207
909,2722;0,0626922
910,2364;0,0623894
911,2007;0,0622054
912,1649;0,0621171
913,1292;0,0620954
914,0934;0,0621179
915,0576;0,0621762
916,0219;0,0622751
916,9861;0,0624238
917,9503;0,0626256
918,9146;0,0628712
919,8788;0,0631398
920,8430;0,0634056
921,8073;0,0636476
922,7715;0,0638557
923,7357;0,064033
924,7000;0,064193
925,6642;0,064353
926,6284;0,0645266
927,5927;0,064718
928,5569;0,064919
929,5211;0,0651128
930,4854;0,0652812
931,4496;0,0654139
932,4138;0,0655138
933,3781;0,0655966
934,3423;0,0656845
935,3065;0,0657983
936,2708;0,065952
937,2350;0,0661534
938,1992;0,0664068
939,1635;0,0667172
940,1277;0,0670913
941,0919;0,0675351
942,0562;0,0680511
943,0204;0,068637
943,9846;0,0692854
944,9489;0,0699861
945,9131;0,0707292
946,8773;0,0715089
947,8416;0,0723284
948,8058;0,0732018
949,7700;0,0741531
950,7343;0,0752097
951,6985;0,0763924
952,6627;0,0777076
953,6270;0,079145
954,5912;0,0806835
955,5554;0,0822999
956,5197;0,0839769
957,4839;0,0857047
958,4481;0,0874778
959,4124;0,0892897
960,3766;0,0911316
961,3408;0,0929945
962,3051;0,0948738
963,2693;0,0967718
964,2335;0,0986966
965,1978;0,100657
966,1620;0,10266
967,1262;0,104708
968,0905;0,106806
969,0547;0,108964
970,0189;0,111204
970,9832;0,113557
971,9474;0,116062
972,9116;0,118764
973,8759;0,121702
974,8401;0,124911
975,8043;0,128411
976,7686;0,132201
977,7328;0,136259
978,6970;0,140533
979,6613;0,144944
980,6255;0,149387
981,5897;0,153743
982,5540;0,157885
983,5182;0,161702
984,4824;0,165111
985,4467;0,168076
986,4109;0,170604
987,3751;0,17274
988,3394;0,17455
989,3036;0,1761
990,2678;0,177449
991,2321;0,17864
992,1963;0,179705
993,1605;0,180672
994,1248;0,181564
995,0890;0,182401
996,0532;0,183203
997,0175;0,183987
997,9817;0,184765
998,9459;0,185549
999,9102;0,186346
1000,8744;0,187163
1001,8386;0,188009
1002,8029;0,188901
1003,7671;0,189874
1004,7313;0,190973
1005,6956;0,192258
1006,6598;0,193786
1007,6240;0,19561
1008,5883;0,197757
1009,5525;0,200232
1010,5167;0,203005
1011,4810;0,206017
1012,4452;0,209187
1013,4094;0,212422
1014,3737;0,215628
1015,3379;0,218726
1016,3021;0,221659
1017,2664;0,2244
1018,2306;0,226945
1019,1948;0,229309
1020,1591;0,231513
1021,1233;0,233584
1022,0875;0,235551
1023,0518;0,237452
1024,0160;0,239328
1024,9802;0,241208
1025,9445;0,243101
1026,9087;0,244975
1027,8729;0,246756
1028,8372;0,24834
1029,8014;0,249611
1030,7656;0,250455
1031,7299;0,250779
1032,6941;0,250516
1033,6583;0,249644
1034,6226;0,248193
1035,5868;0,24626
1036,5510;0,244002
1037,5153;0,241618
1038,4795;0,239312
1039,4437;0,237259
1040,4080;0,235577
1041,3722;0,234312
1042,3364;0,233443
1043,3007;0,232891
1044,2649;0,232546
1045,2291;0,232285
1046,1934;0,231995
1047,1576;0,231587
1048,1218;0,230994
1049,0861;0,230174
1050,0503;0,229094
1051,0145;0,227733
1051,9788;0,226084
1052,9430;0,224158
1053,9072;0,221987
1054,8715;0,219609
1055,8357;0,217045
1056,7999;0,214288
1057,7642;0,211291
1058,7284;0,207994
1059,6926;0,204352
1060,6569;0,200375
1061,6211;0,196134
1062,5853;0,191761
1063,5496;0,187412
1064,5138;0,183235
1065,4780;0,179336
1066,4423;0,175773
1067,4065;0,172554
1068,3707;0,169652
1069,3350;0,167015
1070,2992;0,164577
1071,2634;0,162267
1072,2277;0,160018
1073,1919;0,157775
1074,1561;0,155503
1075,1204;0,153189
1076,0846;0,150839
1077,0488;0,148472
1078,0131;0,146123
1078,9773;0,143833
1079,9415;0,141649
1080,9058;0,139621
1081,8700;0,137791
1082,8342;0,13618
1083,7985;0,134781
1084,7627;0,133568
1085,7269;0,132502
1086,6912;0,131548
1087,6554;0,130691
1088,6196;0,12993
1089,5839;0,129281
1090,5481;0,128761
1091,5123;0,128382
1092,4766;0,128144
1093,4408;0,128036
1094,4050;0,128041
1095,3693;0,128138
1096,3335;0,128315
1097,2977;0,128565
1098,2620;0,128888
1099,2262;0,129278
1100,1904;0,129716
1101,1547;0,130162
1102,1189;0,130563
1103,0831;0,130867
1104,0474;0,131031
1105,0116;0,131038
1105,9758;0,130892
1106,9401;0,130611
1107,9043;0,130209
1108,8685;0,129686
1109,8328;0,129018
1110,7970;0,128166
1111,7612;0,127087
1112,7255;0,125764
1113,6897;0,124225
1114,6539;0,122547
1115,6182;0,120836
1116,5824;0,119201
1117,5466;0,117715
1118,5109;0,116398
1119,4751;0,115215
1120,4393;0,114092
1121,4036;0,112936
1122,3678;0,111662
1123,3320;0,1102
1124,2963;0,108514
1125,2605;0,1066
1126,2247;0,104488
1127,1890;0,102229
1128,1532;0,0998791
1129,1174;0,0974867
1130,0817;0,0950862
1131,0459;0,0927023
1132,0101;0,0903598
1132,9744;0,0880928
1133,9386;0,0859457
1134,9028;0,0839682
1135,8671;0,0822052
1136,8313;0,0806893
1137,7955;0,0794377
1138,7598;0,0784526
1139,7240;0,0777248
1140,6882;0,0772353
1141,6525;0,0769581
1142,6167;0,076862
1143,5809;0,0769138
1144,5452;0,0770837
1145,5094;0,0773503
1146,4736;0,0777028
1147,4379;0,0781412
1148,4021;0,0786713
1149,3663;0,0792973
1150,3306;0,0800151
1151,2948;0,0808081
1152,2590;0,0816475
1153,2233;0,082495
1154,1875;0,0833068
1155,1517;0,0840344
1156,1160;0,0846244
1157,0802;0,0850167
1158,0444;0,0851441
1159,0087;0,0849355
1159,9729;0,0843237
1160,9371;0,0832548
1161,9014;0,0817002
1162,8656;0,079666
1163,8298;0,0771975
1164,7941;0,0743768
1165,7583;0,0713143
1166,7225;0,0681341
1167,6868;0,0649599
1168,6510;0,0619004
1169,6152;0,0590399
1170,5795;0,0564321
1171,5437;0,0541002
1172,5079;0,0520409
1173,4722;0,0502324
1174,4364;0,0486445
1175,4006;0,0472475
1176,3649;0,0460183
1177,3291;0,0449415
1178,2933;0,0440069
1179,2576;0,043206
1180,2218;0,0425304
1181,1860;0,0419711
1182,1503;0,0415196
1183,1145;0,0411683
1184,0787;0,0409095
1185,0430;0,0407349
1186,0072;0,0406357
1186,9714;0,040605
1187,9357;0,0406414
1188,8999;0,0407504
1189,8641;0,0409428
1190,8284;0,0412304
1191,7926;0,041621
1192,7568;0,0421149
1193,7211;0,0427048
1194,6853;0,0433775
1195,6495;0,0441164
1196,6138;0,0449029
1197,5780;0,0457179
1198,5422;0,0465431
1199,5065;0,0471356
1200,4707;0,0479694
1201,4349;0,0487863
1202,3992;0,0495846
1203,3634;0,0503635
1204,3276;0,051122
1205,2919;0,0518599
1206,2561;0,0525803
1207,2203;0,0532922
1208,1846;0,0540116
1209,1488;0,0547578
1210,1130;0,0555495
1211,0773;0,0564001
1212,0415;0,0573148
1213,0057;0,0582903
1213,9700;0,0593168
1214,9342;0,0603803
1215,8984;0,0614652
1216,8627;0,0625554
1217,8269;0,0636361
1218,7911;0,0646976
1219,7554;0,0657343
1220,7196;0,0667428
1221,6838;0,0677183
1222,6481;0,0686534
1223,6123;0,0695388
1224,5765;0,0703671
1225,5408;0,0711374
1226,5050;0,0718557
1227,4692;0,0725326
1228,4335;0,0731773
1229,3977;0,0737919
1230,3619;0,0743702
1231,3262;0,0749004
1232,2904;0,0753705
1233,2546;0,0757729
1234,2189;0,076107
1235,1831;0,0763792
1236,1473;0,0766006
1237,1116;0,0767853
1238,0758;0,076946
1239,0400;0,0770907
1240,0043;0,0772187
1240,9685;0,0773194
1241,9327;0,077375
1242,8970;0,077366
1243,8612;0,0772778
1244,8254;0,0771051
1245,7897;0,0768518
1246,7539;0,0765288
1247,7181;0,0761506
1248,6824;0,0757328
1249,6466;0,0752898
1250,6108;0,0748344
1251,5751;0,0743762
1252,5393;0,073922
1253,5035;0,0734757
1254,4678;0,0730379
1255,4320;0,0726049
1256,3962;0,072166
1257,3605;0,0717043
1258,3247;0,0712003
1259,2889;0,0706381
1260,2532;0,070012
1261,2174;0,0693285
1262,1816;0,0686014
1263,1459;0,0678456
1264,1101;0,0670717
1265,0743;0,0662847
1266,0386;0,0654849
1267,0028;0,0646678
1267,9670;0,0638245
1268,9313;0,062942
1269,8955;0,062008
1270,8597;0,0610188
1271,8240;0,0599844
1272,7882;0,0589297
1273,7524;0,0578872
1274,7167;0,0568876
1275,6809;0,0559514
1276,6451;0,0550842
1277,6094;0,0542776
1278,5736;0,0535137
1279,5378;0,0527718
1280,5021;0,0520376
1281,4663;0,0513096
1282,4305;0,0505996
1283,3948;0,0499274
1284,3590;0,0493105
1285,3232;0,0487568
1286,2875;0,0482619
1287,2517;0,0478147
1288,2159;0,0474065
1289,1802;0,0470382
1290,1444;0,0467226
1291,1086;0,046478
1292,0729;0,04632
1293,0371;0,0462552
1294,0013;0,04628
1294,9656;0,0463831
1295,9298;0,0465519
1296,8940;0,0467778
1297,8583;0,0470591
1298,8225;0,0474
1299,7867;0,0478079
1300,7510;0,0482877
1301,7152;0,048843
1302,6794;0,0494697
1303,6437;0,0501569
1304,6079;0,0508911
1305,5721;0,0516586
1306,5364;0,0524507
1307,5006;0,0532673
1308,4648;0,0541146
1309,4291;0,0549969
1310,3933;0,0559062
1311,3575;0,0568157
1312,3218;0,057684
1313,2860;0,0584674
1314,2502;0,0591327
1315,2145;0,0596589
1316,1787;0,0600286
1317,1429;0,0602204
1318,1072;0,0602141
1319,0714;0,0600094
1320,0356;0,0596421
1320,9999;0,0591804
1321,9641;0,0587005
1322,9283;0,0582616
1323,8926;0,0578947
1324,8568;0,0576064
1325,8210;0,0573892
1326,7853;0,0572288
1327,7495;0,0571067
1328,7137;0,0570003
1329,6780;0,0568843
1330,6422;0,0567404
1331,6064;0,05657
1332,5707;0,0564002
1333,5349;0,056278
1334,4991;0,0562449
1335,4634;0,0563043
1336,4276;0,0563924
1337,3918;0,0563689
1338,3561;0,05606
1339,3203;0,0553638
1340,2845;0,054346
1341,2488;0,0532116
1342,2130;0,0521749
1343,1772;0,051359
1344,1415;0,0507883
1345,1057;0,0504287
1346,0699;0,0502278
1347,0342;0,0501396
1347,9984;0,0501384
1348,9626;0,0502197
1349,9269;0,0503908
1350,8911;0,0506556
1351,8553;0,051005
1352,8196;0,0514164
1353,7838;0,0518642
1354,7480;0,0523346
1355,7123;0,0528381
1356,6765;0,0534071
1357,6407;0,0540795
1358,6050;0,0548766
1359,5692;0,0557801
1360,5334;0,0567079
1361,4977;0,057517
1362,4619;0,0580787
1363,4261;0,0583845
1364,3904;0,0585538
1365,3546;0,0587264
1366,3188;0,058974
1367,2831;0,0592927
1368,2473;0,0596381
1369,2115;0,0599621
1370,1758;0,0602315
1371,1400;0,0604239
1372,1042;0,0605096
1373,0685;0,0604415
1374,0327;0,0601771
1374,9969;0,0597215
1375,9612;0,0591315
1376,9254;0,0584569
1377,8896;0,05769
1378,8539;0,0567866
1379,8181;0,0557331
1380,7823;0,0545919
1381,7466;0,0534824
1382,7108;0,0525068
1383,6750;0,0516867
1384,6393;0,0509543
1385,6035;0,0501925
1386,5677;0,0493137
1387,5320;0,0483485
1388,4962;0,047448
1389,4604;0,0467591
1390,4247;0,0463234
1391,3889;0,046103
1392,3531;0,0460513
1393,3174;0,0461351
1394,2816;0,0463034
1395,2458;0,0464621
1396,2101;0,0465046
1397,1743;0,0463798
1398,1385;0,0461331
1399,1028;0,045883
1400,0670;0,0457528
1401,0313;0,045808
1401,9955;0,0460361
1402,9597;0,0463714
1403,9240;0,0467379
1404,8882;0,0470901
1405,8524;0,0474364
1406,8167;0,0478238
1407,7809;0,0482891
1408,7451;0,0488304
1409,7094;0,0494226
1410,6736;0,0500524
1411,6378;0,0507342
1412,6021;0,0514941
1413,5663;0,0523362
1414,5305;0,0532273
1415,4948;0,0541065
1416,4590;0,0548917
1417,4232;0,0554737
1418,3875;0,055772
1419,3517;0,0558599
1420,3159;0,0559405
1421,2802;0,0561227
1422,2444;0,0563232
1423,2086;0,0563819
1424,1729;0,0561998
1425,1371;0,0557859
1426,1013;0,0552135
1427,0656;0,0545469
1428,0298;0,0538051
1428,9940;0,0529881
1429,9583;0,0521262
1430,9225;0,0512846
1431,8867;0,0505002
1432,8510;0,0497268
1433,8152;0,0488549
1434,7794;0,0477815
1435,7437;0,0465012
1436,7079;0,045196
1437,6721;0,0441873
1438,6364;0,043676
1439,6006;0,0435907
1440,5648;0,0437243
1441,5291;0,0439223
1442,4933;0,0441443
1443,4575;0,0444221
1444,4218;0,0447886
1445,3860;0,0452325
1446,3502;0,0457026
1447,3145;0,0461519
1448,2787;0,0465829
1449,2429;0,047047
1450,2072;0,0475834
1451,1714;0,0481588
1452,1356;0,0486792
1453,0999;0,0490604
1454,0641;0,0492848
1455,0283;0,0493691
1455,9926;0,0492134
1456,9568;0,0486122
1457,9210;0,0477623
1458,8853;0,0472516
1459,8495;0,0472514
1460,8137;0,0474589
1461,7780;0,0475334
1462,7422;0,0472844
1463,7064;0,0466626
1464,6707;0,0457457
1465,6349;0,0447377
1466,5991;0,043845
1467,5634;0,0431007
1468,5276;0,0423752
1469,4918;0,0415166
1470,4561;0,0404282
1471,4203;0,0390428
1472,3845;0,0373087
1473,3488;0,0353246
1474,3130;0,0334164
1475,2772;0,0318751
1476,2415;0,0307385
1477,2057;0,0298903
1478,1699;0,0292115
1479,1342;0,028629
1480,0984;0,0281073
1481,0626;0,027641
1482,0269;0,0272558
1482,9911;0,0270008
1483,9553;0,0269249
1484,9196;0,0270581
1485,8838;0,0274045
1486,8480;0,0279162
1487,8123;0,028431
1488,7765;0,028692
1489,7407;0,0285969
1490,7050;0,02837
1491,6692;0,0282995
1492,6334;0,028476
1493,5977;0,0288545
1494,5619;0,0293996
1495,5261;0,0301243
1496,4904;0,0310297
1497,4546;0,0320553
1498,4188;0,0331327
1499,3831;0,0342239
1500,3473;0,0352471
1501,3115;0,0360589
1502,2758;0,0365516
1503,2400;0,0367732
1504,2042;0,0370054
1505,1685;0,0376888
1506,1327;0,0389311
1507,0969;0,039934
1508,0612;0,0399421
1509,0254;0,0393481
1509,9896;0,0387097
1510,9539;0,0381467
1511,9181;0,037613
1512,8823;0,0370863
1513,8466;0,036566
1514,8108;0,0360184
1515,7750;0,0353647
1516,7393;0,0345321
1517,7035;0,0335111
1518,6677;0,0323611
1519,6320;0,0311829
1520,5962;0,0301026
1521,5604;0,029256
1522,5247;0,0287321
1523,4889;0,0285016
1524,4531;0,0284285
1525,4174;0,0283689
1526,3816;0,0282617
1527,3458;0,0281378
1528,3101;0,0280562
1529,2743;0,0280474
1530,2385;0,0281199
1531,2028;0,0282888
1532,1670;0,0285649
1533,1312;0,0289118
1534,0955;0,0292448
1535,0597;0,0294674
1536,0239;0,0295039
1536,9882;0,0293561
1537,9524;0,0291825
1538,9166;0,0292829
1539,8809;0,0298047
1540,8451;0,0303935
1541,8093;0,0306478
1542,7736;0,0306617
1543,7378;0,0306087
1544,7020;0,0305236
1545,6663;0,0304365
1546,6305;0,0304063
1547,5947;0,0304605
1548,5590;0,0305614
1549,5232;0,0306336
1550,4874;0,0306244
1551,4517;0,0305403
1552,4159;0,0304253
1553,3801;0,0302944
1554,3444;0,0301005
1555,3086;0,0297752
1556,2728;0,0292791
1557,2371;0,0285559
1558,2013;0,0275151
1559,1655;0,0265194
1560,1298;0,0263912
1561,0940;0,0272475
1562,0582;0,0285251
1563,0225;0,0297189
1563,9867;0,0306054
1564,9509;0,0311662
1565,9152;0,0314875
1566,8794;0,0316925
1567,8436;0,0318956
1568,8079;0,0321784
1569,7721;0,0325821
1570,7363;0,0330922
1571,7006;0,0336297
1572,6648;0,034103
1573,6290;0,0344886
1574,5933;0,0348526
1575,5575;0,0352813
1576,5217;0,0358086
1577,4860;0,036445
1578,4502;0,0371859
1579,4144;0,0379636
1580,3787;0,0386854
1581,3429;0,0393119
1582,3071;0,0398731
1583,2714;0,0404334
1584,2356;0,041049
1585,1998;0,0417439
1586,1641;0,0425081
1587,1283;0,0433078
1588,0925;0,0440977
1589,0568;0,0448317
1590,0210;0,0454716
1590,9852;0,0459897
1591,9495;0,046363
1592,9137;0,0465669
1593,8779;0,0465804
1594,8422;0,0464052
1595,8064;0,046081
1596,7706;0,0456788
1597,7349;0,0452717
1598,6991;0,0449066
1599,6633;0,0445935
1600,6276;0,0443151
1601,5918;0,04405
1602,5560;0,0437949
1603,5203;0,0435682
1604,4845;0,0433898
1605,4487;0,0432542
1606,4130;0,043125
1607,3772;0,042959
1608,3414;0,0427458
1609,3057;0,0425289
1610,2699;0,0423732
1611,2341;0,0422962
1612,1984;0,0422427
1613,1626;0,0421331
1614,1268;0,0419298
1615,0911;0,0416719
1616,0553;0,041474
1617,0195;0,0414979
1617,9838;0,0418417
1618,9480;0,0424238
1619,9122;0,043043
1620,8765;0,043532
1621,8407;0,0438306
1622,8049;0,0439704
1623,7692;0,0440316
1624,7334;0,0440968
1625,6976;0,044209
1626,6619;0,0443675
1627,6261;0,0445634
1628,5903;0,0447981
1629,5546;0,0450583
1630,5188;0,0452891
1631,4830;0,0454159
1632,4473;0,0454079
1633,4115;0,0453175
1634,3757;0,0452292
1635,3400;0,0451561
1636,3042;0,0450968
1637,2684;0,0451678
1638,2327;0,0454461
1639,1969;0,0458389
1640,1611;0,0461997
1641,1254;0,0464338
1642,0896;0,0465146
1643,0538;0,046471
1644,0181;0,0463678
1644,9823;0,0462521
1645,9465;0,0460952
1646,9108;0,0458578
1647,8750;0,0455797
1648,8392;0,0452622
1649,8035;0,0447952
1650,7677;0,0440736
1651,7319;0,0430637
1652,6962;0,0417789
1653,6604;0,0405173
1654,6246;0,039932
1655,5889;0,0401663
1656,5531;0,040725
1657,5173;0,0411227
1658,4816;0,041142
1659,4458;0,0407703
1660,4100;0,0400921
1661,3743;0,0392315
1662,3385;0,0383547
1663,3027;0,0376447
1664,2670;0,0371864
1665,2312;0,0369095
1666,1954;0,036662
1667,1597;0,0362999
1668,1239;0,0357248
1669,0881;0,0349182
1670,0524;0,0339931
1671,0166;0,0331318
1671,9808;0,0324016
1672,9451;0,0317158
1673,9093;0,0309854
1674,8735;0,0302643
1675,8378;0,0297512
1676,8020;0,0296247
1677,7662;0,0298582
1678,7305;0,0302229
1679,6947;0,0304399
1680,6589;0,0302992
1681,6232;0,029678
1682,5874;0,0285262
1683,5516;0,0269902
1684,5159;0,0255961
1685,4801;0,024883
1686,4443;0,0248319
1687,4086;0,0250314
1688,3728;0,0251171
1689,3370;0,0249389
1690,3013;0,0245267
1691,2655;0,0240004
1692,2297;0,0234953
1693,1940;0,0231211
1694,1582;0,0229375
1695,1224;0,0229192
1696,0867;0,0229275
1697,0509;0,0227543
1698,0151;0,0222736
1698,9794;0,0216028
1699,9436;0,0210809
1700,9078;0,0210094
1701,8721;0,0214174
1702,8363;0,0220909
1703,8005;0,0227637
1704,7648;0,023265
1705,7290;0,023571
1706,6932;0,0237828
1707,6575;0,0240486
1708,6217;0,024465
1709,5859;0,0250364
1710,5502;0,0257092
1711,5144;0,0264262
1712,4786;0,0271506
1713,4429;0,027857
1714,4071;0,028493
1715,3713;0,0289268
1716,3356;0,0289824
1717,2998;0,0286936
1718,2640;0,0284452
1719,2283;0,0285916
1720,1925;0,0291301
1721,1567;0,029838
1722,1210;0,0305016
1723,0852;0,0310121
1724,0494;0,0313735
1725,0137;0,0316756
1725,9779;0,0320378
1726,9421;0,0325373
1727,9064;0,0331608
1728,8706;0,0338053
1729,8348;0,0343188
1730,7991;0,0345426
1731,7633;0,0343439
1732,7275;0,0336843
1733,6918;0,0327567
1734,6560;0,0319625
1735,6202;0,0315597
1736,5845;0,0314542
1737,5487;0,0313891
1738,5129;0,0311841
1739,4772;0,0308185
1740,4414;0,0303917
1741,4056;0,0300223
1742,3699;0,0297504
1743,3341;0,0295191
1744,2983;0,0292366
1745,2626;0,0288402
1746,2268;0,0283011
1747,1910;0,0275761
1748,1553;0,0265686
1749,1195;0,0251929
1750,0837;0,0235354
1751,0480;0,0218905
1752,0122;0,0205439
1752,9764;0,0195763
1753,9407;0,018889
1754,9049;0,018335
1755,8691;0,0178083
1756,8334;0,0172643
1757,7976;0,0166944
1758,7618;0,0160873
1759,7261;0,0154154
1760,6903;0,0146647
1761,6545;0,0138809
1762,6188;0,013172
1763,5830;0,0126432
1764,5472;0,0123232
1765,5115;0,0121568
1766,4757;0,0120515
1767,4399;0,0119262
1768,4042;0,0117307
1769,3684;0,0114433
1770,3326;0,0110603
1771,2969;0,0106013
1772,2611;0,0101377
1773,2253;0,00979025
1774,1896;0,00964607
1775,1538;0,00968451
1776,1180;0,00980601
1777,0823;0,0099111
1778,0465;0,00994735
1779,0107;0,00990933
1779,9750;0,00981516
1780,9392;0,00968338
1781,9034;0,00952294
1782,8677;0,00934066
1783,8319;0,00915935
1784,7961;0,00902538
1785,7604;0,00898858
1786,7246;0,00906717
1787,6888;0,00923345
1788,6531;0,00943308
1789,6173;0,00961157
1790,5815;0,0097203
1791,5458;0,0097203
1792,5100;0,00962324
1793,4742;0,00951511
1794,4385;0,00947661
1795,4027;0,00950368
1796,3669;0,00953908
1797,3312;0,00954318
1798,2954;0,00951724
1799,2596;0,00947614
1800,2239;0,00941428
1801,1881;0,00930755
1802,1523;0,00914717
1803,1166;0,00896035
1804,0808;0,00879823
1805,0450;0,00870938
1806,0093;0,00871797
1806,9735;0,00881246
1807,9377;0,00894619
1808,9020;0,00905224
1809,8662;0,0090736
1810,8304;0,00899641
1811,7947;0,00885782
1812,7589;0,00871562
1813,7231;0,00860883
1814,6874;0,00854387
1815,6516;0,00850581
1816,6158;0,00847617
1817,5801;0,00844763
1818,5443;0,00843146
1819,5085;0,00845101
1820,4728;0,00852401
1821,4370;0,00864796
1822,4012;0,00879718
1823,3655;0,0089313
1824,3297;0,00901504
1825,2939;0,00903915
1826,2582;0,00902012
1827,2224;0,00897584
1828,1866;0,00890398
1829,1509;0,0087891
1830,1151;0,00863819
1831,0793;0,00850227
1832,0436;0,00844065
1833,0078;0,00846581
1833,9720;0,00853695
1834,9363;0,0085971
1835,9005;0,00861026
1836,8647;0,00858001
1837,8290;0,00854358
1838,7932;0,00854207
1839,7574;0,00859187
1840,7217;0,0086853
1841,6859;0,00880769
1842,6501;0,00893882
1843,6144;0,00904304
1844,5786;0,00908505
1845,5428;0,00906004
1846,5071;0,00897989
1847,4713;0,00883961
1848,4355;0,00862676
1849,3998;0,00835555
1850,3640;0,00807809
1851,3282;0,00786122
1852,2925;0,00774914
1853,2567;0,00774321
1854,2209;0,00781195
1855,1852;0,00791781
1856,1494;0,00803636
1857,1136;0,00815691
1858,0779;0,0082694
1859,0421;0,00835665
1860,0063;0,00840244
1860,9706;0,0084092
1861,9348;0,00840682
1862,8990;0,00844197
1863,8633;0,00855611
1864,8275;0,00876739
1865,7917;0,00905657
1866,7560;0,00935112
1867,7202;0,0095293
1868,6844;0,00948682
1869,6487;0,00922938
1870,6129;0,00886801
1871,5771;0,00851941
1872,5414;0,00824346
1873,5056;0,00805512
1874,4698;0,00795219
1875,4341;0,00792183
1876,3983;0,00793747
1877,3625;0,00796371
1878,3268;0,00797465
1879,2910;0,00796826
1880,2552;0,00796636
1881,2195;0,00799925
1882,1837;0,00808581
1883,1479;0,00822137
1884,1122;0,0083805
1885,0764;0,00853004
1886,0406;0,00864153
1887,0049;0,00869641
1887,9691;0,00868714
1888,9333;0,00862197
1889,8976;0,00853099
1890,8618;0,00845948
1891,8260;0,00844442
1892,7903;0,0084929
1893,7545;0,00857887
1894,7188;0,00865721
1895,6830;0,00868705
1896,6472;0,00865405
1897,6115;0,00857672
1898,5757;0,00849094
1899,5399;0,0084272
1900,5042;0,00839866
1901,4684;0,00840442
1902,4326;0,00844036
1903,3969;0,00850723
1904,3611;0,00860909
1905,3253;0,00874296
1906,2896;0,00888829
1907,2538;0,00900571
1908,2180;0,00905034
1909,1823;0,00899748
1910,1465;0,00886484
1911,1107;0,00870896
1912,0750;0,00859371
1913,0392;0,00855761
1914,0034;0,00860467
1914,9677;0,00871656
1915,9319;0,00886984
1916,8961;0,00904832
1917,8604;0,00924651
1918,8246;0,00945918
1919,7888;0,00966163
1920,7531;0,00980166
1921,7173;0,00981914
1922,6815;0,00968497
1923,6458;0,00943285
1924,6100;0,00915367
1925,5742;0,00894655
1926,5385;0,00886236
1927,5027;0,00888368
1928,4669;0,00894775
1929,4312;0,00898739
1930,3954;0,00896579
1931,3596;0,00888927
1932,3239;0,00879301
1933,2881;0,00871508
1934,2523;0,00867791
1935,2166;0,00868624
1936,1808;0,00873633
1937,1450;0,00882575
1938,1093;0,00895677
1939,0735;0,00913208
1940,0377;0,00934491
1941,0020;0,00956823
1941,9662;0,00975451
1942,9304;0,00985585
1943,8947;0,00985307
1944,8589;0,00976598
1945,8231;0,00963671
1946,7874;0,00950657
1947,7516;0,00940411
1948,7158;0,00934578
1949,6801;0,00934182
1950,6443;0,00940043
1951,6085;0,00952483
1952,5728;0,00970466
1953,5370;0,00991003
1954,5012;0,010097
1955,4655;0,0102248
1956,4297;0,0102735
1957,3939;0,0102493
1958,3582;0,0101742
1959,3224;0,0100731
1960,2866;0,00997054
1961,2509;0,00989888
1962,2151;0,00990225
1963,1793;0,0100202
1964,1436;0,0102543
1965,1078;0,0105414
1966,0720;0,0107638
1967,0363;0,0108108
1968,0005;0,0106582
1968,9647;0,0103981
1969,9290;0,0101817
1970,8932;0,0101206
1971,8574;0,0102226
1972,8217;0,0103993
1973,7859;0,0105303
1974,7501;0,0105377
1975,7144;0,0104222
1976,6786;0,0102378
1977,6428;0,0100354
1978,6071;0,00983584
1979,5713;0,00965002
1980,5355;0,00951133
1981,4998;0,00947343
1982,4640;0,00957233
1983,4282;0,00978674
1984,3925;0,0100341
1985,3567;0,0102145
1986,3209;0,0102761
1987,2852;0,0102544
1988,2494;0,0102527
1989,2136;0,0103737
1990,1779;0,0106475
1991,1421;0,0110019
1992,1063;0,0112998
1993,0706;0,0114222
1994,0348;0,011334
1994,9990;0,011091
1995,9633;0,0107978
1996,9275;0,0105577
1997,8917;0,0104374
1998,8560;0,0104537
1999,8202;0,0105806
2000,7844;0,0107694
2001,7487;0,0109741
2002,7129;0,0111691
2003,6771;0,0113543
2004,6414;0,0115453
2005,6056;0,0117536
2006,5698;0,0119668
2007,5341;0,0121432
2008,4983;0,0122315
2009,4625;0,0122059
2010,4268;0,0120939
2011,3910;0,0119734
2012,3552;0,0119375
2013,3195;0,0120435
2014,2837;0,0122735
2015,2479;0,0125328
2016,2122;0,0126982
2017,1764;0,0126934
2018,1406;0,0125424
2019,1049;0,0123542
2020,0691;0,0122499
2021,0333;0,0122843
2021,9976;0,0124153
2022,9618;0,0125357
2023,9260;0,0125409
2024,8903;0,0123891
2025,8545;0,0121164
2026,8187;0,0118011
2027,7830;0,0115114
2028,7472;0,0112754
2029,7114;0,0110905
2030,6757;0,0109539
2031,6399;0,0108851
2032,6041;0,0109207
2033,5684;0,0110874
2034,5326;0,0113774
2035,4968;0,0117442
2036,4611;0,0121169
2037,4253;0,012422
2038,3895;0,0125964
2039,3538;0,0125947
2040,3180;0,0123968
2041,2822;0,0120189
2042,2465;0,0115166
2043,2107;0,0109738
2044,1749;0,0104787
2045,1392;0,0101011
2046,1034;0,00987918
2047,0676;0,00981781
2048,0320;0,009894
2048,9961;0,0100675
2049,9604;0,0102914
2050,9246;0,0105198
2051,8889;0,0107111
2052,8530;0,0108309
2053,8174;0,0108574
2054,7815;0,0107886
2055,7458;0,0106467
2056,7100;0,010474
2057,6743;0,0103195
2058,6384;0,0102225
2059,6028;0,0102004
2060,5669;0,0102454
2061,5313;0,0103302
2062,4954;0,0104196
2063,4597;0,010486
2064,4238;0,0105195
2065,3882;0,0105295
2066,3523;0,0105347
2067,3167;0,0105469
2068,2808;0,0105602
2069,2451;0,0105536
2070,2092;0,010505
2071,1736;0,0104094
2072,1377;0,0102855
2073,1021;0,0101685
2074,0662;0,0100887
2075,0305;0,0100536
2075,9946;0,0100437
2076,9590;0,0100257
2077,9231;0,00997281
2078,8875;0,00988001
2079,8516;0,00976468
2080,8159;0,0096569
2081,7800;0,00958706
2082,7444;0,00957793
2083,7085;0,00964202
2084,6729;0,00977976
2085,6370;0,00997688
2086,6013;0,0102021
2087,5654;0,0104111
2088,5298;0,0105596
2089,4939;0,0106205
2090,4583;0,0105954
2091,4224;0,0105117
2092,3867;0,0104069
2093,3508;0,0103092
2094,3152;0,0102278
2095,2793;0,0101572
2096,2437;0,010091
2097,2078;0,0100324
2098,1721;0,0099935
2099,1362;0,00998421
2100,1006;0,0100044
2101,0647;0,0100391
2102,0291;0,0100774
2102,9932;0,0101155
2103,9575;0,0101593
2104,9216;0,0102143
2105,8860;0,0102744
2106,8501;0,0103203
2107,8145;0,0103298
2108,7786;0,0102928
2109,7429;0,0102206
2110,7070;0,0101409
2111,6714;0,0100832
2112,6355;0,0100648
2113,5999;0,0100845
2114,5640;0,0101279
2115,5283;0,0101776
2116,4924;0,0102226
2117,4568;0,0102622
2118,4209;0,0103048
2119,3853;0,0103619
2120,3494;0,0104392
2121,3137;0,010531
2122,2778;0,0106191
2123,2422;0,0106818
2124,2063;0,0107079
2125,1707;0,0107076
2126,1348;0,0107117
2127,0991;0,0107579
2128,0632;0,0108704
2129,0276;0,0110478
2129,9917;0,0112652
2130,9561;0,0114903
2131,9202;0,0116993
2132,8845;0,0118851
2133,8486;0,012051
2134,8130;0,012198
2135,7771;0,0123151
2136,7415;0,0123805
2137,7056;0,0123714
2138,6699;0,0122793
2139,6340;0,0121236
2140,5984;0,0119576
2141,5625;0,0118622
2142,5269;0,0119198
2143,4910;0,0121738
2144,4553;0,0125947
2145,4194;0,0130775
2146,3838;0,0134839
2147,3479;0,0137118
2148,3123;0,013752
2149,2764;0,0136935
2150,2407;0,0136749
2151,2048;0,0138105
2152,1692;0,0141377
2153,1333;0,0146103
2154,0977;0,01513
2155,0618;0,0155909
2156,0261;0,015911
2156,9902;0,0160458
2157,9546;0,0159913
2158,9187;0,0157778
2159,8831;0,0154514
2160,8472;0,015052
2161,8115;0,0146071
2162,7756;0,0141462
2163,7400;0,0137186
2164,7041;0,0133907
2165,6685;0,0132172
2166,6326;0,0132023
2167,5969;0,0132821
2168,5610;0,0133492
2169,5254;0,0133093
2170,4895;0,0131338
2171,4539;0,01288
2172,4180;0,0126636
2173,3823;0,0125976
2174,3464;0,0127279
2175,3108;0,0130004
2176,2749;0,0132823
2177,2393;0,0134278
2178,2034;0,0133519
2179,1677;0,0130753
2180,1318;0,0127175
2181,0962;0,0124389
2182,0603;0,0123557
2183,0247;0,0124743
2183,9888;0,0126868
2184,9531;0,0128355
2185,9172;0,0128032
2186,8816;0,0125747
2187,8457;0,0122355
2188,8101;0,0119185
2189,7742;0,0117325
2190,7385;0,0117159
2191,7026;0,0118328
2192,6670;0,0120028
2193,6311;0,0121393
2194,5955;0,0121765
2195,5596;0,0120812
2196,5239;0,011855
2197,4880;0,0115329
2198,4524;0,0111768
2199,4165;0,0108583
2200,3809;0,010636
2201,3450;0,0105361
2202,3093;0,0105497
2203,2734;0,0106448
2204,2378;0,0107845
2205,2019;0,0109373
2206,1663;0,0110763
2207,1304;0,0111747
2208,0947;0,0112097
2209,0588;0,0111736
2210,0232;0,011084
2210,9873;0,0109795
2211,9517;0,0109001
2212,9158;0,0108656
2213,8801;0,0108661
2214,8442;0,0108737
2215,8086;0,0108652
2216,7727;0,010838
2217,7371;0,0108087
2218,7012;0,0107966
2219,6655;0,0108063
2220,6296;0,0108221
2221,5940;0,0108168
2222,5581;0,0107682
2223,5225;0,0106714
2224,4866;0,0105433
2225,4509;0,0104155
2226,4150;0,0103214
2227,3794;0,01028
2228,3435;0,0102896
2229,3079;0,0103264
2230,2720;0,0103562
2231,2363;0,0103529
2232,2004;0,0103126
2233,1648;0,0102546
2234,1289;0,0102095
2235,0933;0,0102009
2236,0574;0,0102352
2237,0217;0,0103015
2237,9858;0,0103814
2238,9502;0,010457
2239,9143;0,0105136
2240,8787;0,0105387
2241,8428;0,0105219
2242,8071;0,0104616
2243,7712;0,0103716
2244,7356;0,010282
2245,6997;0,0102303
2246,6641;0,0102444
2247,6282;0,0103286
2248,5925;0,0104606
2249,5566;0,0106004
2250,5210;0,0107071
2251,4851;0,0107543
2252,4495;0,0107381
2253,4136;0,010676
2254,3779;0,0105977
2255,3420;0,0105322
2256,3064;0,0104959
2257,2705;0,0104874
2258,2349;0,0104904
2259,1990;0,0104842
2260,1633;0,0104556
2261,1274;0,0104067
2262,0918;0,0103541
2263,0559;0,0103197
2264,0203;0,0103182
2264,9844;0,0103478
2265,9487;0,0103903
2266,9128;0,0104192
2267,8772;0,0104138
2268,8413;0,0103701
2269,8057;0,0103036
2270,7698;0,0102414
2271,7341;0,010208
2272,6982;0,0102109
2273,6626;0,0102364
2274,6267;0,010256
2275,5911;0,0102433
2276,5552;0,0101886
2277,5195;0,0101049
2278,4836;0,0100204
2279,4480;0,00996417
2280,4121;0,00995396
2281,3765;0,0099945
2282,3406;0,0100843
2283,3049;0,0102237
2284,2690;0,0104173
2285,2334;0,010669
2286,1975;0,0109757
2287,1619;0,0113255
2288,1260;0,0117041
2289,0903;0,0121031
2290,0544;0,0125233
2291,0188;0,0129705
2291,9829;0,0134469
2292,9473;0,013946
2293,9114;0,0144542
2294,8757;0,014956
2295,8398;0,015437
2296,8042;0,01588
2297,7683;0,0162608
2298,7327;0,0165506
2299,6968;0,0167305
2300,6611;0,0168114
2301,6252;0,0168461
2302,5896;0,0169189
2303,5537;0,0171179
2304,5181;0,0174962
2305,4822;0,0180428
2306,4465;0,0186734
2307,4106;0,0192503
2308,3750;0,0196239
2309,3391;0,0196844
2310,3035;0,0194029
2311,2676;0,0188458
2312,2319;0,0181534
2313,1960;0,0174865
2314,1604;0,0169651
2315,1245;0,0166308
2316,0889;0,0164494
2317,0530;0,0163472
2318,0173;0,0162568
2318,9814;0,016148
2319,9458;0,0160373
2320,9099;0,0159755
2321,8743;0,0160213
2322,8384;0,0162048
2323,8027;0,016494
2324,7668;0,016789
2325,7312;0,0169579
2326,6953;0,0168941
2327,6597;0,0165596
2328,6238;0,0159953
2329,5881;0,0153018
2330,5522;0,0146059
2331,5166;0,0140201
2332,4807;0,0136024
2333,4451;0,0133412
2334,4092;0,0131835
2335,3735;0,0130917
2336,3376;0,0130884
2337,3020;0,0132589
2338,2661;0,0137045
2339,2305;0,0144627
2340,1946;0,0154278
2341,1589;0,0163162
2342,1230;0,0167456
2343,0874;0,0165156
2344,0515;0,0159685
2345,0159;0,015892
2345,9800;0,0168049
2346,9443;0,0184658
2347,9084;0,0201322
2348,8728;0,0211111
2349,8369;0,0211111
2350,8013;0,0203112
2351,7654;0,0192088
2352,7297;0,0183173
2353,6938;0,017877
2354,6582;0,017822
2355,6223;0,0179944
2356,5867;0,0182892
2357,5508;0,0186048
2358,5151;0,0187914
2359,4792;0,0187243
2360,4436;0,0184001
2361,4077;0,0179107
2362,3721;0,01733
2363,3362;0,0166603
2364,3005;0,0158803
2365,2646;0,015009
2366,2290;0,0141075
2367,1931;0,0132373
2368,1575;0,0124331
2369,1216;0,0117131
2370,0859;0,0110974
2371,0500;0,010611
2372,0144;0,0102778
2372,9785;0,0101191
2373,9429;0,0101598
2374,9070;0,0104251
2375,8713;0,0109225
2376,8354;0,011616
2377,7998;0,0124141
2378,7639;0,0131815
2379,7283;0,013774
2380,6924;0,0140796
2381,6567;0,0140476
2382,6208;0,0136972
2383,5852;0,0131034
2384,5493;0,0123721
2385,5137;0,0116112
2386,4778;0,0109087
2387,4421;0,0103209
2388,4063;0,00987086
2389,3706;0,00955545
2390,3347;0,00935483
2391,2991;0,00924219
2392,2632;0,00919103
2393,2275;0,00917946
2394,1917;0,00919149
2395,1560;0,00921634
2396,1201;0,00924715
2397,0845;0,00927998
2398,0486;0,00931581
2399,0129;0,00935404
2399,9771;0,00939221
2400,9414;0,0094262
2401,9055;0,00944911
2402,8699;0,0094572
2403,8340;0,00945361
2404,7983;0,00944935
2405,7625;0,00945826
2406,7268;0,00948726
2407,6909;0,00953134
2408,6553;0,0095751
2409,6194;0,00960075
2410,5837;0,00960095
2411,5479;0,00958365
2412,5122;0,00956783
2413,4763;0,00957154
2414,4407;0,00960071
2415,4048;0,00964483
2416,3691;0,00968307
2417,3333;0,00969665
2418,2976;0,00967996
2419,2617;0,00964441
2420,2261;0,00961239
2421,1902;0,00960447
2422,1545;0,00963018
2423,1187;0,00968338
2424,0830;0,00974696
2425,0471;0,00980232
2426,0115;0,00983809
2426,9756;0,00985361
2427,9399;0,00985645
2428,9041;0,00985687
2429,8684;0,00986321
2430,8325;0,00988009
2431,7969;0,00990866
2432,7610;0,00994691
2433,7253;0,00998934
2434,6895;0,0100272
2435,6538;0,0100514
2436,6179;0,0100568
2437,5823;0,0100469
2438,5464;0,0100336
2439,5107;0,0100317
2440,4749;0,0100514
2441,4392;0,0100921
2442,4033;0,0101428
2443,3677;0,0101882
2444,3318;0,0102162
2445,2961;0,0102241
2446,2603;0,0102184
2447,2246;0,0102106
2448,1887;0,0102109
2449,1531;0,010224
2450,1172;0,0102477
2451,0815;0,0102751
2452,0457;0,010298
2453,0100;0,0103104
2453,9741;0,0103102
2454,9385;0,0103002
2455,9026;0,0102866
2456,8669;0,0102773
2457,8311;0,0102792
2458,7954;0,0102947
2459,7595;0,0103208
2460,7239;0,010348
2461,6880;0,0103643
2462,6523;0,0103595
2463,6165;0,0103316
2464,5808;0,0102893
2465,5449;0,0102509
2466,5093;0,010237
2467,4734;0,0102614
2468,4377;0,0103248
2469,4019;0,0104129
2470,3662;0,0105028
2471,3303;0,0105726
2472,2947;0,0106102
2473,2588;0,0106168
2474,2231;0,010604
2475,1873;0,0105866
2476,1516;0,0105764
2477,1157;0,0105794
2478,0801;0,0105961
2479,0442;0,0106238
2480,0085;0,0106572
2480,9727;0,0106886
2481,9370;0,0107094
2482,9011;0,0107131
2483,8655;0,0107011
2484,8296;0,0106846
2485,7939;0,0106804
2486,7581;0,0107015
2487,7224;0,0107488
2488,6865;0,0108079
2489,6509;0,0108559
2490,6150;0,0108739
2491,5793;0,0108566
2492,5435;0,0108151
2493,5078;0,0107704
2494,4719;0,0107433
2495,4363;0,0107458
2496,4004;0,0107773
2497,3647;0,0108272
2498,3289;0,0108792
2499,2932;0,0109184
2500,2573;0,0109365
2501,2217;0,0109353
2502,1858;0,0109249
2503,1501;0,0109174
2504,1143;0,0109193
2505,0786;0,0109281
2506,0427;0,0109352
2507,0071;0,0109351
2507,9712;0,0109317
2508,9355;0,0109372
2509,8997;0,0109629
2510,8640;0,0110075
2511,8281;0,0110546
2512,7925;0,0110816
2513,7566;0,0110748
2514,7209;0,0110391
2515,6851;0,0109952
2516,6494;0,0109647
2517,6135;0,010956
2518,5779;0,0109602
2519,5420;0,0109612
2520,5063;0,0109499
2521,4705;0,0109325
2522,4348;0,0109247
2523,3989;0,0109387
2524,3633;0,0109721
2525,3274;0,0110088
2526,2917;0,0110307
2527,2559;0,0110302
2528,2202;0,0110152
2529,1843;0,0110023
2530,1487;0,0110052
2531,1128;0,0110262
2532,0771;0,0110559
2533,0413;0,011081
2534,0056;0,0110917
2534,9697;0,0110864
2535,9341;0,0110703
2536,8982;0,011052
2537,8625;0,01104
2538,8267;0,0110402
2539,7910;0,0110548
2540,7551;0,011081
2541,7195;0,0111117
2542,6836;0,0111378
2543,6479;0,0111533
2544,6121;0,0111577
2545,5764;0,0111564
2546,5405;0,0111561
2547,5049;0,0111596
2548,4690;0,0111627
2549,4333;0,0111565
2550,3975;0,0111328
2551,3618;0,01109
2552,3259;0,0110352
2553,2903;0,0109811
2554,2544;0,0109409
2555,2188;0,0109225
2556,1829;0,0109272
2557,1472;0,0109506
2558,1113;0,0109857
2559,0757;0,0110256
2560,0398;0,0110643
2561,0042;0,0110966
2561,9683;0,0111189
2562,9326;0,0111299
2563,8967;0,0111313
2564,8611;0,0111278
2565,8252;0,0111242
2566,7896;0,0111227
2567,7537;0,0111217
2568,7180;0,0111172
2569,6821;0,0111055
2570,6465;0,0110867
2571,6106;0,0110646
2572,5750;0,0110448
2573,5391;0,0110316
2574,5034;0,0110261
2575,4675;0,0110277
2576,4319;0,0110364
2577,3960;0,0110534
2578,3604;0,0110803
2579,3245;0,0111154
2580,2888;0,011152
2581,2529;0,0111797
2582,2173;0,0111902
2583,1814;0,011182
2584,1458;0,0111622
2585,1099;0,0111427
2586,0742;0,0111331
2587,0383;0,0111351
2588,0027;0,011142
2588,9668;0,0111445
2589,9312;0,0111372
2590,8953;0,0111237
2591,8596;0,0111136
2592,8237;0,0111168
2593,7881;0,0111358
2594,7522;0,0111637
2595,7166;0,0111877
2596,6807;0,0111966
2597,6450;0,011188
2598,6091;0,0111698
2599,5735;0,0111563
2600,5376;0,0111602
2601,5020;0,0111857
2602,4661;0,0112265
2603,4304;0,0112696
2604,3945;0,0113033
2605,3589;0,0113232
2606,3230;0,0113334
2607,2874;0,0113424
2608,2515;0,0113565
2609,2158;0,0113756
2610,1799;0,0113936
2611,1443;0,0114034
2612,1084;0,0114016
2613,0728;0,0113909
2614,0369;0,0113779
2615,0012;0,01137
2615,9653;0,0113723
2616,9297;0,0113869
2617,8938;0,011413
2618,8582;0,0114474
2619,8223;0,011484
2620,7866;0,0115155
2621,7507;0,0115351
2622,7151;0,0115407
2623,6792;0,0115357
2624,6436;0,0115279
2625,6077;0,0115252
2626,5720;0,0115315
2627,5361;0,0115453
2628,5005;0,0115625
2629,4646;0,0115793
2630,4290;0,0115954
2631,3931;0,0116132
2632,3574;0,0116354
2633,3215;0,0116623
2634,2859;0,0116908
2635,2500;0,0117152
2636,2144;0,0117306
2637,1785;0,0117351
2638,1428;0,0117315
2639,1069;0,0117271
2640,0713;0,0117301
2641,0354;0,0117461
2641,9998;0,0117753
2642,9639;0,011812
2643,9282;0,0118475
2644,8923;0,0118751
2645,8567;0,0118933
2646,8208;0,0119059
2647,7852;0,0119192
2648,7493;0,0119378
2649,7136;0,0119622
2650,6777;0,011989
2651,6421;0,0120142
2652,6062;0,0120353
2653,5706;0,0120535
2654,5347;0,0120722
2655,4990;0,0120958
2656,4631;0,0121268
2657,4275;0,012165
2658,3916;0,0122074
2659,3560;0,012249
2660,3201;0,0122855
2661,2844;0,0123147
2662,2485;0,0123386
2663,2129;0,0123621
2664,1770;0,0123914
2665,1414;0,0124298
2666,1055;0,0124757
2667,0698;0,0125228
2668,0339;0,0125629
2668,9983;0,0125904
2669,9624;0,0126053
2670,9268;0,0126133
2671,8909;0,0126224
2672,8552;0,0126397
2673,8193;0,0126675
2674,7837;0,0127033
2675,7478;0,0127418
2676,7122;0,0127777
2677,6763;0,0128079
2678,6406;0,0128322
2679,6047;0,0128523
2680,5691;0,01287
2681,5332;0,0128866
2682,4976;0,0129027
2683,4617;0,0129188
2684,4260;0,0129363
2685,3901;0,012957
2686,3545;0,0129825
2687,3186;0,0130126
2688,2830;0,0130453
2689,2471;0,0130773
2690,2114;0,0131056
2691,1755;0,0131297
2692,1399;0,0131511
2693,1040;0,0131725
2694,0684;0,0131961
2695,0325;0,0132222
2695,9968;0,0132501
2696,9609;0,0132787
2697,9253;0,0133082
2698,8894;0,0133389
2699,8538;0,0133709
2700,8179;0,0134035
2701,7822;0,013436
2702,7463;0,0134685
2703,7107;0,0135024
2704,6748;0,0135395
2705,6392;0,0135792
2706,6033;0,0136182
2707,5676;0,013651
2708,5317;0,0136734
2709,4961;0,0136856
2710,4602;0,0136925
2711,4246;0,0137022
2712,3887;0,0137215
2713,3530;0,0137536
2714,3171;0,0137968
2715,2815;0,0138457
2716,2456;0,0138943
2717,2100;0,0139375
2718,1741;0,0139737
2719,1384;0,0140038
2720,1025;0,0140312
2721,0669;0,0140591
2722,0310;0,0140887
2722,9954;0,0141182
2723,9595;0,0141441
2724,9238;0,0141636
2725,8879;0,0141776
2726,8523;0,0141911
2727,8164;0,014211
2728,7808;0,0142425
2729,7449;0,0142858
2730,7092;0,0143351
2731,6733;0,0143814
2732,6377;0,0144161
2733,6018;0,0144348
2734,5662;0,0144381
2735,5303;0,0144316
2736,4946;0,0144236
2737,4587;0,0144223
2738,4231;0,0144335
2739,3872;0,0144595
2740,3516;0,0144989
2741,3157;0,0145472
2742,2800;0,0145979
2743,2441;0,0146442
2744,2085;0,0146797
2745,1726;0,0147
2746,1370;0,0147043
2747,1011;0,014696
2748,0654;0,0146831
2749,0295;0,0146755
2749,9939;0,0146815
2750,9580;0,0147045
2751,9224;0,014742
2752,8865;0,0147869
2753,8508;0,014832
2754,8149;0,0148727
2755,7793;0,0149079
2756,7434;0,0149385
2757,7078;0,0149657
2758,6719;0,0149895
2759,6362;0,0150103
2760,6003;0,0150304
2761,5647;0,0150536
2762,5288;0,0150839
2763,4932;0,0151226
2764,4573;0,0151673
2765,4216;0,0152134
2766,3857;0,0152568
2767,3501;0,0152976
2768,3142;0,0153389
2769,2786;0,0153848
2770,2427;0,0154358
2771,2070;0,0154876
2772,1711;0,015533
2773,1355;0,0155666
2774,0996;0,0155886
2775,0640;0,0156053
2776,0281;0,0156253
2776,9924;0,0156553
2777,9565;0,0156965
2778,9209;0,0157458
2779,8850;0,0157992
2780,8494;0,0158545
2781,8135;0,0159117
2782,7778;0,0159714
2783,7419;0,0160328
2784,7063;0,0160928
2785,6704;0,0161483
2786,6348;0,0161981
2787,5989;0,0162448
2788,5632;0,0162926
2789,5273;0,0163461
2790,4917;0,0164074
2791,4558;0,016476
2792,4202;0,0165494
2793,3843;0,016624
2794,3486;0,0166964
2795,3127;0,0167644
2796,2771;0,0168281
2797,2412;0,0168904
2798,2056;0,0169565
2799,1697;0,017032
2800,1340;0,0171205
2801,0981;0,0172212
2802,0625;0,0173294
2803,0266;0,0174385
2803,9910;0,0175425
2804,9551;0,0176382
2805,9194;0,0177256
2806,8835;0,0178061
2807,8479;0,0178822
2808,8120;0,0179568
2809,7764;0,0180336
2810,7405;0,0181176
2811,7048;0,018214
2812,6689;0,0183273
2813,6333;0,0184585
2814,5974;0,0186042
2815,5618;0,0187575
2816,5259;0,0189101
2817,4902;0,0190553
2818,4543;0,0191915
2819,4187;0,019322
2820,3828;0,0194543
2821,3472;0,0195964
2822,3113;0,0197538
2823,2756;0,0199278
2824,2397;0,0201158
2825,2041;0,0203132
2826,1682;0,020516
2827,1326;0,0207226
2828,0967;0,0209347
2829,0610;0,021157
2830,0251;0,0213958
2830,9895;0,0216558
2831,9536;0,0219382
2832,9180;0,0222386
2833,8821;0,0225486
2834,8464;0,0228594
2835,8105;0,023167
2836,7749;0,0234762
2837,7390;0,0238009
2838,7034;0,0241605
2839,6675;0,0245753
2840,6318;0,0250615
2841,5959;0,0256298
2842,5603;0,0262837
2843,5244;0,0270171
2844,4888;0,0278093
2845,4529;0,0286203
2846,4172;0,0293907
2847,3813;0,0300515
2848,3457;0,0305409
2849,3098;0,0308233
2850,2742;0,0309007
2851,2383;0,0308098
2852,2026;0,0306077
2853,1667;0,0303532
2854,1311;0,0300922
2855,0952;0,0298524
2856,0596;0,0296464
2857,0237;0,0294789
2857,9880;0,029352
2858,9521;0,0292662
2859,9165;0,0292202
2860,8806;0,0292099
2861,8450;0,0292295
2862,8091;0,0292742
2863,7734;0,0293426
2864,7375;0,0294364
2865,7019;0,0295574
2866,6660;0,0297038
2867,6304;0,0298675
2868,5945;0,0300343
2869,5588;0,0301887
2870,5229;0,0303184
2871,4873;0,0304189
2872,4514;0,0304932
2873,4158;0,0305489
2874,3799;0,0305944
2875,3442;0,0306359
2876,3083;0,0306774
2877,2727;0,0307214
2878,2368;0,0307707
2879,2012;0,030828
2880,1653;0,0308952
2881,1296;0,0309723
2882,0938;0,0310588
2883,0581;0,0311544
2884,0222;0,0312597
2884,9866;0,0313759
2885,9507;0,0315033
2886,9150;0,0316408
2887,8792;0,0317857
2888,8435;0,0319356
2889,8076;0,0320886
2890,7720;0,0322426
2891,7361;0,0323943
2892,7004;0,0325387
2893,6646;0,0326707
2894,6289;0,0327876
2895,5930;0,032892
2896,5574;0,0329915
2897,5215;0,0330957
2898,4858;0,0332117
2899,4500;0,0333405
2900,4143;0,0334771
2901,3784;0,0336145
2902,3428;0,0337493
2903,3069;0,0338855
2904,2712;0,0340347
2905,2354;0,0342119
2906,1997;0,0344309
2907,1638;0,0347004
2908,1282;0,0350253
2909,0923;0,0354087
2910,0566;0,0358532
2911,0208;0,0363569
2911,9851;0,036906
2912,9492;0,0374691
2913,9136;0,0379977
2914,8777;0,0384367
2915,8420;0,0387401
2916,8062;0,0388845
2917,7705;0,0388726
2918,7346;0,0387273
2919,6990;0,0384792
2920,6631;0,0381568
2921,6274;0,0377831
2922,5916;0,0373771
2923,5559;0,036956
2924,5200;0,0365352
2925,4844;0,0361238
2926,4485;0,0357231
2927,4128;0,0353277
2928,3770;0,0349317
2929,3413;0,0345338
2930,3054;0,0341391
2931,2698;0,0337549
2932,2339;0,0333852
2933,1982;0,0330277
2934,1624;0,0326761
2935,1267;0,0323247
2936,0908;0,0319724
2937,0552;0,0316229
2938,0193;0,0312806
2938,9836;0,0309473
2939,9478;0,0306202
2940,9121;0,0302943
2941,8762;0,0299664
2942,8406;0,0296375
2943,8047;0,0293129
2944,7690;0,0290006
2945,7332;0,0287078
2946,6975;0,0284388
2947,6616;0,0281943
2948,6260;0,0279721
2949,5901;0,0277686
2950,5544;0,0275791
2951,5186;0,0273994
2952,4829;0,0272247
2953,4470;0,0270505
2954,4114;0,0268719
2955,3755;0,0266849
2956,3398;0,0264878
2957,3040;0,0262817
2958,2683;0,0260712
2959,2324;0,0258614
2960,1968;0,0256557
2961,1609;0,0254532
2962,1252;0,0252494
2963,0894;0,0250381
2964,0537;0,0248157
2965,0178;0,0245834
2965,9822;0,0243464
2966,9463;0,0241111
2967,9106;0,023882
2968,8748;0,0236595
2969,8391;0,0234407
2970,8032;0,0232226
2971,7676;0,0230044
2972,7317;0,0227883
2973,6960;0,0225785
2974,6602;0,022378
2975,6245;0,0221873
2976,5886;0,0220035
2977,5530;0,0218225
2978,5171;0,0216416
2979,4814;0,0214617
2980,4456;0,0212878
2981,4099;0,021127
2982,3740;0,020986
2983,3384;0,0208682
2984,3025;0,0207724
2985,2668;0,020694
2986,2310;0,0206269
2987,1953;0,0205665
2988,1594;0,0205107
2989,1238;0,0204598
2990,0879;0,0204146
2991,0522;0,020375
2992,0164;0,0203392
2992,9807;0,0203049
2993,9448;0,0202709
2994,9092;0,0202381
2995,8733;0,0202102
2996,8376;0,0201919
2997,8018;0,0201875
2998,7661;0,020199
2999,7302;0,0202254
3000,6946;0,0202628
3001,6587;0,0203058
3002,6230;0,0203491
3003,5872;0,02039
3004,5515;0,0204288
3005,5156;0,0204685
3006,4800;0,0205126
3007,4441;0,0205631
3008,4084;0,0206185
3009,3726;0,0206745
3010,3369;0,0207253
3011,3010;0,0207661
3012,2654;0,0207947
3013,2295;0,0208123
3014,1938;0,0208229
3015,1580;0,0208317
3016,1223;0,0208444
3017,0864;0,0208661
3018,0508;0,0209009
3019,0149;0,0209507
3019,9792;0,0210153
3020,9434;0,0210916
3021,9077;0,0211746
3022,8718;0,0212586
3023,8362;0,0213401
3024,8003;0,0214194
3025,7646;0,0215018
3026,7288;0,0215948
3027,6931;0,021703
3028,6572;0,021824
3029,6216;0,0219466
3030,5857;0,0220553
3031,5500;0,0221379
3032,5142;0,0221922
3033,4785;0,022228
3034,4426;0,0222618
3035,4070;0,0223081
3036,3711;0,0223733
3037,3354;0,0224548
3038,2996;0,0225447
3039,2639;0,0226355
3040,2280;0,0227241
3041,1924;0,0228125
3042,1565;0,0229059
3043,1208;0,0230102
3044,0850;0,0231292
3045,0493;0,0232628
3046,0134;0,0234064
3046,9778;0,023552
3047,9419;0,0236915
3048,9063;0,0238203
3049,8704;0,0239398
3050,8347;0,0240568
3051,7988;0,0241789
3052,7632;0,02431
3053,7273;0,0244473
3054,6917;0,0245829
3055,6558;0,0247082
3056,6201;0,0248196
3057,5842;0,0249215
3058,5486;0,0250251
3059,5127;0,0251432
3060,4771;0,0252837
3061,4412;0,0254444
3062,4055;0,0256124
3063,3696;0,0257682
3064,3340;0,025894
3065,2981;0,0259825
3066,2625;0,0260404
3067,2266;0,0260857
3068,1909;0,0261387
3069,1550;0,026214
3070,1194;0,0263161
3071,0835;0,0264417
3072,0479;0,0265839
3073,0120;0,0267369
3073,9763;0,0268965
3074,9404;0,0270596
3075,9048;0,0272217
3076,8689;0,0273773
3077,8333;0,0275204
3078,7974;0,0276474
3079,7617;0,0277579
3080,7258;0,0278552
3081,6902;0,0279449
3082,6543;0,0280337
3083,6187;0,0281271
3084,5828;0,028228
3085,5471;0,0283364
3086,5112;0,02845
3087,4756;0,0285666
3088,4397;0,0286863
3089,4041;0,0288119
3090,3682;0,0289467
3091,3325;0,0290916
3092,2966;0,0292433
3093,2610;0,0293961
3094,2251;0,029545
3095,1895;0,0296894
3096,1536;0,0298321
3097,1179;0,0299764
3098,0820;0,0301216
3099,0464;0,0302618
3100,0105;0,0303893
3100,9749;0,0305
3101,9390;0,0305971
3102,9033;0,0306897
3103,8674;0,0307879
3104,8318;0,0308987
3105,7959;0,0310237
3106,7603;0,0311621
3107,7244;0,0313132
3108,6887;0,0314779
3109,6528;0,0316564
3110,6172;0,0318462
3111,5813;0,0320401
3112,5457;0,0322292
3113,5098;0,0324057
3114,4741;0,0325664
3115,4382;0,0327129
3116,4026;0,0328502
3117,3667;0,0329841
3118,3311;0,0331196
3119,2952;0,03326
3120,2595;0,033407
3121,2236;0,0335599
3122,1880;0,0337157
3123,1521;0,033869
3124,1165;0,0340152
3125,0806;0,0341522
3126,0449;0,0342826
3127,0090;0,0344127
3127,9734;0,0345493
3128,9375;0,0346969
3129,9019;0,0348551
3130,8660;0,0350195
3131,8303;0,035184
3132,7944;0,0353444
3133,7588;0,0355006
3134,7229;0,0356553
3135,6873;0,0358125
3136,6514;0,035974
3137,6157;0,0361395
3138,5798;0,0363074
3139,5442;0,0364769
3140,5083;0,0366499
3141,4727;0,0368296
3142,4368;0,0370183
3143,4011;0,0372151
3144,3652;0,0374153
3145,3296;0,0376127
3146,2937;0,0378023
3147,2581;0,0379824
3148,2222;0,0381546
3149,1865;0,0383219
3150,1506;0,0384873
3151,1150;0,0386536
3152,0791;0,0388236
3153,0435;0,0390007
3154,0076;0,0391883
3154,9719;0,0393869
3155,9360;0,0395935
3156,9004;0,0398016
3157,8645;0,0400039
3158,8289;0,0401958
3159,7930;0,0403779
3160,7573;0,0405549
3161,7214;0,0407334
3162,6858;0,0409178
3163,6499;0,0411087
3164,6143;0,041303
3165,5784;0,0414967
3166,5427;0,0416871
3167,5068;0,0418746
3168,4712;0,042062
3169,4353;0,0420696
3170,3997;0,0422686
3171,3638;0,042476
3172,3281;0,0426884
3173,2922;0,0429006
3174,2566;0,0431082
3175,2207;0,0433086
3176,1851;0,0435018
3177,1492;0,0436893
3178,1135;0,0438739
3179,0776;0,0440583
3180,0420;0,0442445
3181,0061;0,0444328
3181,9705;0,0446222
3182,9346;0,0448111
3183,8989;0,0449986
3184,8630;0,0451859
3185,8274;0,0453759
3186,7915;0,0455714
3187,7559;0,045772
3188,7200;0,0459735
3189,6843;0,0461693
3190,6484;0,0463545
3191,6128;0,0465288
3192,5769;0,0466966
3193,5413;0,0468646
3194,5054;0,0470371
3195,4697;0,0472146
3196,4338;0,0473947
3197,3982;0,0475758
3198,3623;0,0477591
3199,3267;0,0479482
3200,2908;0,0481454
3201,2551;0,0483488
3202,2192;0,0485521
3203,1836;0,048748
3204,1477;0,0489326
3205,1121;0,0491079
3206,0762;0,0492811
3207,0405;0,0494596
3208,0046;0,0496461
3208,9690;0,0498365
3209,9331;0,0500222
3210,8975;0,0501959
3211,8616;0,0503577
3212,8259;0,0505165
3213,7900;0,0506856
3214,7544;0,0508747
3215,7185;0,0510829
3216,6829;0,0512981
3217,6470;0,0515032
3218,6113;0,0516854
3219,5754;0,0518436
3220,5398;0,0519883
3221,5039;0,0521357
3222,4683;0,0522987
3223,4324;0,0524812
3224,3967;0,0526786
3225,3608;0,0528809
3226,3252;0,0530785
3227,2893;0,0532651
3228,2537;0,0534395
3229,2178;0,0536056
3230,1821;0,0537706
3231,1462;0,0539422
3232,1106;0,0541237
3233,0747;0,054312
3234,0391;0,0544979
3235,0032;0,0546715
3235,9675;0,0548287
3236,9316;0,0549756
3237,8960;0,055126
3238,8601;0,055294
3239,8245;0,0554853
3240,7886;0,0556944
3241,7529;0,0559078
3242,7170;0,056113
3243,6814;0,0563046
3244,6455;0,0564863
3245,6099;0,0566669
3246,5740;0,0568535
3247,5383;0,0570472
3248,5024;0,0572433
3249,4668;0,0574357
3250,4309;0,0576213
3251,3953;0,0578007
3252,3594;0,0579769
3253,3237;0,0581526
3254,2878;0,0583295
3255,2522;0,0585087
3256,2163;0,0586918
3257,1807;0,0588814
3258,1448;0,0590791
3259,1091;0,0592836
3260,0732;0,05949
3261,0376;0,0596918
3262,0017;0,059884
3262,9661;0,0600657
3263,9302;0,0602408
3264,8945;0,0604159
3265,8586;0,0605973
3266,8230;0,0607887
3267,7871;0,0609902
3268,7515;0,0611972
3269,7156;0,061401
3270,6799;0,0615894
3271,6440;0,06175
3272,6084;0,0618756
3273,5725;0,0619683
3274,5369;0,0620404
3275,5010;0,0621091
3276,4653;0,0621879
3277,4294;0,0622791
3278,3938;0,0623735
3279,3579;0,0624562
3280,3223;0,0625175
3281,2864;0,0625591
3282,2507;0,062595
3283,2148;0,0626438
3284,1792;0,0627181
3285,1433;0,0628174
3286,1077;0,0629277
3287,0718;0,063028
3288,0361;0,0631002
3289,0002;0,0631357
3289,9646;0,0631389
3290,9287;0,0631238
3291,8931;0,0631078
3292,8572;0,0631043
3293,8215;0,0631185
3294,7856;0,063146
3295,7500;0,0631758
3296,7141;0,0631965
3297,6785;0,063202
3298,6426;0,0631946
3299,6069;0,0631839
3300,5710;0,0631812
3301,5354;0,0631934
3302,4995;0,0632196
3303,4639;0,0632522
3304,4280;0,0632821
3305,3923;0,0633043
3306,3564;0,0633196
3307,3208;0,0633318
3308,2849;0,0633423
3309,2493;0,063347
3310,2134;0,0633393
3311,1777;0,063316
3312,1418;0,0632837
3313,1062;0,0632584
3314,0703;0,0632592
3315,0347;0,0632992
3315,9988;0,0633793
3316,9631;0,0634882
3317,9272;0,0636095
3318,8916;0,0637298
3319,8557;0,0638435
3320,8201;0,0639523
3321,7842;0,0640612
3322,7485;0,0641727
3323,7126;0,0642856
3324,6770;0,0643942
3325,6411;0,0644919
3326,6055;0,0645738
3327,5696;0,0646388
3328,5339;0,0646919
3329,4980;0,0647424
3330,4624;0,0648007
3331,4265;0,0648732
3332,3909;0,0649577
3333,3550;0,0650426
3334,3193;0,0651091
3335,2834;0,0651389
3336,2478;0,0651213
3337,2119;0,0650567
3338,1763;0,0649558
3339,1404;0,0648335
3340,1047;0,0647029
3341,0688;0,0645723
3342,0332;0,0644451
3342,9973;0,0643217
3343,9617;0,0642014
3344,9258;0,0640833
3345,8901;0,0639666
3346,8542;0,0638498
3347,8186;0,0637307
3348,7827;0,0636064
3349,7471;0,0634743
3350,7112;0,0633325
3351,6755;0,0631811
3352,6396;0,0630216
3353,6040;0,0628575
3354,5681;0,0626931
3355,5325;0,0625329
3356,4966;0,0623797
3357,4609;0,0622347
3358,4250;0,0620967
3359,3894;0,0619632
3360,3535;0,0618318
3361,3179;0,0617008
3362,2820;0,0615689
3363,2463;0,0614339
3364,2104;0,0612918
3365,1748;0,061137
3366,1389;0,0609643
3367,1033;0,0607711
3368,0674;0,0605603
3369,0317;0,0603391
3369,9958;0,0601173
3370,9602;0,0599037
3371,9243;0,0597036
3372,8887;0,0595182
3373,8528;0,0593446
3374,8171;0,0591775
3375,7813;0,0590124
3376,7456;0,0588476
3377,7097;0,0586856
3378,6741;0,0585312
3379,6382;0,0583873
3380,6025;0,0582503
3381,5667;0,0581092
3382,5310;0,0579507
3383,4951;0,0577678
3384,4595;0,0575674
3385,4236;0,0573705
3386,3879;0,0572019
3387,3521;0,0570763
3388,3164;0,0569896
3389,2805;0,0569205
3390,2449;0,0568417
3391,2090;0,0567341
3392,1733;0,0565941
3393,1375;0,0564322
3394,1018;0,056262
3395,0659;0,0560905
3396,0303;0,055916
3396,9944;0,0557334
3397,9587;0,0555419
3398,9229;0,0553465
3399,8872;0,0551538
3400,8513;0,0549654
3401,8157;0,0547754
3402,7798;0,0545741
3403,7441;0,0543556
3404,7083;0,0541235
3405,6726;0,0538906
3406,6367;0,053673
3407,6011;0,0534816
3408,5652;0,0533161
3409,5295;0,0531637
3410,4937;0,0530038
3411,4580;0,0528162
3412,4221;0,0525919
3413,3865;0,0523382
3414,3506;0,0520773
3415,3149;0,051836
3416,2791;0,0516333
3417,2434;0,0514688
3418,2075;0,0513218
3419,1719;0,0511598
3420,1360;0,0509546
3421,1003;0,0506965
3422,0645;0,0503974
3423,0288;0,0500817
3423,9929;0,0497725
3424,9573;0,0494832
3425,9214;0,0492163
3426,8857;0,0489683
3427,8499;0,0487333
3428,8142;0,0485051
3429,7783;0,0482771
3430,7427;0,0480422
3431,7068;0,0477948
3432,6711;0,0475338
3433,6353;0,0472641
3434,5996;0,0469962
3435,5637;0,0467409
3436,5281;0,0465045
3437,4922;0,0462868
3438,4565;0,0460823
3439,4207;0,0458866
3440,3850;0,0456994
3441,3491;0,0455244
3442,3135;0,0453624
3443,2776;0,0452033
3444,2419;0,045024
3445,2061;0,0447949
3446,1704;0,0444956
3447,1345;0,0441304
3448,0989;0,0437316
3449,0630;0,0433434
3450,0273;0,0429992
3450,9915;0,0427086
3451,9558;0,0424597
3452,9199;0,0422324
3453,8843;0,0420112
3454,8484;0,0417924
3455,8127;0,0415828
3456,7769;0,0413911
3457,7412;0,0412185
3458,7053;0,041055
3459,6697;0,0408819
3460,6338;0,0406807
3461,5981;0,0404421
3462,5623;0,0401692
3463,5266;0,0398745
3464,4907;0,0395718
3465,4551;0,0392695
3466,4192;0,0389706
3467,3835;0,0386761
3468,3477;0,0383895
3469,3120;0,0381171
3470,2761;0,0378629
3471,2405;0,0376242
3472,2046;0,037392
3473,1689;0,0371583
3474,1331;0,0369252
3475,0974;0,0367076
3476,0615;0,0365242
3477,0259;0,0363827
3477,9900;0,0362685
3478,9543;0,0361468
3479,9185;0,0359784
3480,8828;0,0357406
3481,8469;0,0354434
3482,8113;0,0351233
3483,7754;0,0348195
3484,7397;0,0345505
3485,7039;0,0343077
3486,6682;0,0340678
3487,6323;0,0338137
3488,5967;0,0335487
3489,5608;0,0332956
3490,5251;0,0330795
3491,4893;0,0329077
3492,4536;0,0327623
3493,4177;0,0326099
3494,3821;0,0324244
3495,3462;0,03221
3496,3105;0,0320062
3497,2747;0,0318655
3498,2390;0,0318161
3499,2031;0,0318355
3500,1675;0,0318515
3501,1316;0,031772
3502,0959;0,0315363
3503,0601;0,031161
3504,0244;0,0307378
3504,9885;0,0303732
3505,9529;0,0301202
3506,9170;0,0299551
3507,8813;0,0298018
3508,8455;0,0295802
3509,8098;0,029253
3510,7739;0,0288468
3511,7383;0,0284308
3512,7024;0,0280702
3513,6667;0,0277938
3514,6309;0,027593
3515,5952;0,0274425
3516,5593;0,0273224
3517,5237;0,0272307
3518,4878;0,0271783
3519,4521;0,0271746
3520,4163;0,0272126
3521,3806;0,0272637
3522,3447;0,0272849
3523,3091;0,0272363
3524,2732;0,0270941
3525,2375;0,0268527
3526,2017;0,0265163
3527,1660;0,0260951
3528,1301;0,0256118
3529,0945;0,0251098
3530,0586;0,024649
3531,0229;0,0242813
3531,9871;0,0240282
3532,9514;0,0238711
3533,9155;0,0237589
3534,8799;0,0236277
3535,8440;0,0234315
3536,8083;0,0231706
3537,7725;0,022897
3538,7368;0,0226892
3539,7009;0,022612
3540,6653;0,0226872
3541,6294;0,0228821
3542,5938;0,023109
3543,5579;0,0232392
3544,5222;0,0231508
3545,4863;0,0228027
3546,4507;0,0222751
3547,4148;0,0217195
3548,3792;0,0212595
3549,3433;0,0209311
3550,3076;0,0206909
3551,2717;0,0204601
3552,2361;0,020178
3553,2002;0,0198433
3554,1646;0,019512
3555,1287;0,0192522
3556,0930;0,0190974
3557,0571;0,0190363
3558,0215;0,0190334
3558,9856;0,0190615
3559,9500;0,0191238
3560,9141;0,0192527
3561,8784;0,0194808
3562,8425;0,0198032
3563,8069;0,0201421
3564,7710;0,020318
3565,7354;0,0200845
3566,6995;0,0193135
3567,6638;0,0181998
3568,6279;0,0171434
3569,5923;0,0164097
3570,5564;0,016005
3571,5208;0,0157994
3572,4849;0,0156666
3573,4492;0,0155414
3574,4133;0,015414
3575,3777;0,0153004
3576,3418;0,0152119
3577,3062;0,0151426
3578,2703;0,0150796
3579,2346;0,0150247
3580,1987;0,0150031
3581,1631;0,0150496
3582,1272;0,0151807
3583,0916;0,0153764
3584,0557;0,0155744
3585,0200;0,0156647
3585,9841;0,0155123
3586,9485;0,0150682
3587,9126;0,0144995
3588,8770;0,0141019
3589,8411;0,0140419
3590,8054;0,014261
3591,7695;0,0145788
3592,7339;0,0148121
3593,6980;0,0148434
3594,6624;0,0146602
3595,6265;0,0143508
3596,5908;0,0140283
3597,5549;0,0137397
3598,5193;0,0134507
3599,4834;0,0131082
3600,4478;0,0127136
3601,4119;0,0123384
3602,3762;0,0120627
3603,3403;0,0119044
3604,3047;0,0118011
3605,2688;0,0116428
3606,2332;0,0113188
3607,1973;0,0107768
3608,1616;0,0100788
3609,1257;0,00939169
3610,0901;0,00889134
3611,0542;0,00866607
3612,0186;0,00869335
3612,9827;0,00887576
3613,9470;0,00909143
3614,9111;0,0092335
3615,8755;0,00923061
3616,8396;0,00905323
3617,8040;0,00872138
3618,7681;0,008326
3619,7324;0,00803332
3620,6965;0,00800673
3621,6609;0,00828019
3622,6250;0,00872664
3623,5894;0,00914759
3624,5535;0,00937748
3625,5178;0,0093259
3626,4819;0,00895387
3627,4463;0,00824532
3628,4104;0,00729273
3629,3748;0,00640778
3630,3389;0,0059037
3631,3032;0,00577637
3632,2673;0,0057762
3633,2317;0,00566889
3634,1958;0,00537125
3635,1602;0,00494227
3636,1243;0,00450202
3637,0886;0,00414263
3638,0527;0,00388602
3639,0171;0,00370416
3639,9812;0,00356698
3640,9456;0,00347004
3641,9097;0,00342388
3642,8740;0,00342566
3643,8381;0,0034475
3644,8025;0,00344957
3645,7666;0,00338177
3646,7310;0,00312446
3647,6951;0,00243027
3648,6594;0,00116951
3649,6235;-0,000216489
3650,5879;-0,00105327
3651,5520;-0,00119492
3652,5164;-0,000973869
3653,4805;-0,000760559
3654,4448;-0,000747092
3655,4089;-0,000932634
3656,3733;-0,00118513
3657,3374;-0,0013471
3658,3018;-0,0013521
3659,2659;-0,00125794
3660,2302;-0,00116762
3661,1943;-0,0011317
3662,1587;-0,00112095
3663,1228;-0,00107605
3664,0872;-0,00097979
3665,0513;-0,000877866
3666,0156;-0,00084097
3666,9797;-0,000911225
3667,9441;-0,00108574
3668,9082;-0,00132492
3669,8726;-0,00155032
3670,8367;-0,00168038
3671,8010;-0,00171223
3672,7651;-0,00172368
3673,7295;-0,00179677
3674,6936;-0,00196453
3675,6580;-0,00217038
3676,6221;-0,00225855
3677,5864;-0,00211392
3678,5505;-0,00179196
3679,5149;-0,00143542
3680,4790;-0,00113279
3681,4434;-0,000883653
3682,4075;-0,000655082
3683,3718;-0,000446706
3684,3359;-0,000303181
3685,3003;-0,000271337
3686,2644;-0,000350469
3687,2288;-0,000489071
3688,1929;-0,000627665
3689,1572;-0,000710588
3690,1213;-0,000652145
3691,0857;-0,000386855
3692,0498;4,4818E-05
3693,0142;0,000531704
3693,9783;0,000979408
3694,9426;0,0013429
3695,9067;0,0016092
3696,8711;0,00177317
3697,8352;0,00183021
3698,7996;0,00178435
3699,7637;0,00165922
3700,7280;0,0015034
3701,6921;0,0013869
3702,6565;0,00137826
3703,6206;0,00150259
3704,5850;0,0017179
3705,5491;0,00193882
3706,5134;0,00207977
3707,4775;0,00207132
3708,4419;0,00183382
3709,4060;0,00125489
3710,3704;0,000284046
3711,3345;-0,000866099
3712,2988;-0,00175577
3713,2629;-0,00208017
3714,2273;-0,00185986
3715,1914;-0,0012973
3716,1558;-0,0005878
3717,1199;0,000157989
3718,0842;0,000905518
3719,0483;0,00165586
3720,0127;0,00240845
3720,9768;0,0031412
3721,9412;0,00380601
3722,9053;0,00433507
3723,8696;0,00466027
3724,8337;0,00474766
3725,7981;0,00462367
3726,7622;0,00436015
3727,7266;0,00403075
3728,6907;0,00369109
3729,6550;0,00339711
3730,6191;0,00322262
3731,5835;0,00322793
3732,5476;0,00336531
3733,5120;0,0033965
3734,4761;0,00301624
3735,4404;0,00220702
3736,4045;0,00134521
3737,3689;0,000801908
3738,3330;0,000608641
3739,2974;0,000530332
3740,2615;0,000290198
3741,2258;-0,000279838
3742,1899;-0,00117759
3743,1543;-0,00221863
3744,1184;-0,003079
3745,0828;-0,00346686
3746,0469;-0,00336373
3747,0112;-0,00304354
3747,9753;-0,0028524
3748,9397;-0,00302744
3749,9038;-0,00361143
3750,8682;-0,00436007
3751,8323;-0,00481308
3752,7966;-0,00469843
3753,7607;-0,00415563
3754,7251;-0,00351478
3755,6892;-0,00303989
3756,6536;-0,00285129
3757,6177;-0,00294109
3758,5820;-0,00319593
3759,5461;-0,00344069
3760,5105;-0,00353511
3761,4746;-0,00345278
3762,4390;-0,0032659
3763,4031;-0,00307667
3764,3674;-0,00296581
3765,3315;-0,00297429
3766,2959;-0,00310409
3767,2600;-0,0033276
3768,2244;-0,00359974
3769,1885;-0,00386412
3770,1528;-0,00405394
3771,1169;-0,00410758
3772,0813;-0,00400289
3773,0454;-0,0037794
3774,0098;-0,00352049
3774,9739;-0,0033121
3775,9382;-0,00321053
3776,9023;-0,00323199
3777,8667;-0,00335089
3778,8308;-0,00349682
3779,7952;-0,00357608
3780,7593;-0,00352934
3781,7236;-0,00337362
3782,6877;-0,00318675
3783,6521;-0,0030589
3784,6162;-0,00304773
3785,5806;-0,00315173
3786,5447;-0,00331333
3787,5090;-0,0034522
3788,4731;-0,00350953
3789,4375;-0,00347405
3790,4016;-0,00337642
3791,3660;-0,00326102
3792,3301;-0,00315517
3793,2944;-0,00305555
3794,2585;-0,00294118
3795,2229;-0,00280481
3796,1870;-0,00267905
3797,1514;-0,00263478
3798,1155;-0,00275002
3799,0798;-0,00306558
3800,0439;-0,00354293
3801,0083;-0,00404615
3801,9724;-0,00440147
3802,9368;-0,00453386
3803,9009;-0,00453135
3804,8652;-0,00455147
3805,8293;-0,00467506
3806,7937;-0,00482984
3807,7578;-0,00483812
3808,7222;-0,00457634
3809,6863;-0,00410324
3810,6506;-0,0036171
3811,6147;-0,00330836
3812,5791;-0,00325106
3813,5432;-0,00338285
3814,5076;-0,00355643
3815,4717;-0,00363176
3816,4360;-0,00356635
3817,4001;-0,00344576
3818,3645;-0,00342241
3819,3286;-0,003604
3820,2930;-0,00395265
3821,2571;-0,00426845
3822,2214;-0,00433019
3823,1855;-0,00408703
3824,1499;-0,00367959
3825,1140;-0,00330455
3826,0784;-0,00309244
3827,0425;-0,00306847
3828,0068;-0,00317461
3828,9709;-0,00331959
3829,9353;-0,00342825
3830,8994;-0,00346795
3831,8638;-0,00344714
3832,8279;-0,00339684
3833,7922;-0,00334904
3834,7563;-0,00332157
3835,7207;-0,00331581
3836,6848;-0,00332603
3837,6492;-0,0033467
3838,6133;-0,00336659
3839,5776;-0,0033726
3840,5417;-0,00337258
3841,5061;-0,00339698
3842,4702;-0,00345898
3843,4346;-0,00351649
3844,3987;-0,00348337
3845,3630;-0,00329101
3846,3271;-0,00295152
3847,2915;-0,00256914
3848,2556;-0,00229489
3849,2200;-0,00226421
3850,1841;-0,00255956
3851,1484;-0,00321628
3852,1125;-0,00421585
3853,0769;-0,00531634
3854,0410;-0,00595653
3855,0054;-0,00577164
3855,9695;-0,00497831
3856,9338;-0,0040305
3857,8979;-0,00324819
3858,8623;-0,00274172
3859,8264;-0,00247788
3860,7908;-0,00237002
3861,7549;-0,00235208
3862,7192;-0,00240317
3863,6833;-0,0025121
3864,6477;-0,00264164
3865,6118;-0,00274571
3866,5762;-0,00280011
3867,5403;-0,00280575
3868,5046;-0,00278353
3869,4688;-0,00277564
3870,4331;-0,00283135
3871,3972;-0,00296781
3872,3616;-0,00314624
3873,3257;-0,0032967
3874,2900;-0,00336344
3875,2542;-0,00332743
3876,2185;-0,00319832
3877,1826;-0,00299749
3878,1470;-0,00275145
3879,1111;-0,00249985
3880,0754;-0,0023002
3881,0396;-0,00221409
3882,0039;-0,00228617
3882,9680;-0,00252835
3883,9324;-0,00290084
3884,8965;-0,00329848
3885,8608;-0,00358103
3886,8250;-0,00365415
3887,7893;-0,0035314
3888,7534;-0,00331561
3889,7178;-0,00312842
3890,6819;-0,00304365
3891,6462;-0,00304339
3892,6104;-0,00302615
3893,5747;-0,00289647
3894,5388;-0,00265142
3895,5032;-0,00236372
3896,4673;-0,00210721
3897,4316;-0,00191535
3898,3958;-0,00179067
3899,3601;-0,00173016
3900,3242;-0,00174083
3901,2886;-0,00184562
3902,2527;-0,00207804
3903,2170;-0,00244744
3904,1812;-0,00289773
3905,1455;-0,00332296
3906,1096;-0,00363816
3907,0740;-0,0038236
3908,0381;-0,00390485
3909,0024;-0,00390965
3909,9666;-0,00384512
3910,9309;-0,0037028
3911,8950;-0,00347804
3912,8594;-0,00318798
3913,8235;-0,00287951
3914,7878;-0,00262488
3915,7520;-0,00250086
3916,7163;-0,00254581
3917,6804;-0,00271534
3918,6448;-0,00289166
3919,6089;-0,00296094
3920,5732;-0,00288905
3921,5374;-0,00273133
3922,5017;-0,00258837
3923,4658;-0,00254281
3924,4302;-0,00260489
3925,3943;-0,00270307
3926,3586;-0,0027383
3927,3228;-0,00265721
3928,2871;-0,00248545
3929,2512;-0,00231324
3930,2156;-0,00225336
3931,1797;-0,0023812
3932,1440;-0,00268134
3933,1082;-0,00305089
3934,0725;-0,00336695
3935,0366;-0,00355221
3936,0010;-0,00358887
3936,9651;-0,00349697
3937,9294;-0,003313
3938,8936;-0,00308241
3939,8579;-0,00285854
3940,8220;-0,00269386
3941,7864;-0,00261703
3942,7505;-0,00261097
3943,7148;-0,00261955
3944,6790;-0,00258904
3945,6433;-0,00250991
3946,6074;-0,00242781
3947,5718;-0,00241891
3948,5359;-0,00254214
3949,5002;-0,00279358
3950,4644;-0,00309978
3951,4287;-0,00336232
3952,3928;-0,00351543
3953,3572;-0,00355135
3954,3213;-0,00350713
3955,2856;-0,00343344
3956,2498;-0,00336693
3957,2141;-0,00331937
3958,1782;-0,00328627
3959,1426;-0,00326451
3960,1067;-0,00326319
3961,0710;-0,00329868
3962,0352;-0,0033786
3962,9995;-0,00348952
3963,9636;-0,0036003
3964,9280;-0,0036781
3965,8921;-0,00370581
3966,8564;-0,00368815
3967,8206;-0,00364505
3968,7849;-0,00359767
3969,7490;-0,00355694
3970,7134;-0,00352206
3971,6775;-0,003489
3972,6418;-0,00346062
3973,6060;-0,00344936
3974,5703;-0,00346958
3975,5344;-0,00352591
3976,4988;-0,00360717
3977,4629;-0,00369155
3978,4272;-0,00375908
3979,3914;-0,00380281
3980,3557;-0,00383115
3981,3198;-0,00385998
3982,2842;-0,00389959
3983,2483;-0,00394521
3984,2126;-0,00397838
3985,1768;-0,00397829
3986,1411;-0,00393556
3987,1052;-0,00385928
3988,0696;-0,00377368
3989,0337;-0,00370581
3989,9980;-0,00367358
3990,9622;-0,00367996
3991,9265;-0,00371656
3992,8906;-0,00377195
3993,8550;-0,00383763
3994,8191;-0,00390806
3995,7834;-0,00397704
3996,7476;-0,00403556
3997,7119;-0,00407397
3998,6760;-0,00408657
3999,6404;-0,00407453
4000,6045;-0,00374511

##### Extended Information
[Comments]
Sample name
Comment
Username
Division
Organization;UNIVERSIDAD INDUSTRIAL DE SANTANDER

[Detailed Information]
Creation date;28/02/2025 4:17 p.m.

Data array type;Linear data array
Horizontal axis;Wavenumber [cm-1]
Vertical axis;Abs
Start;399,193 cm-1
End;4000,6 cm-1
Data interval;0,964233 cm-1
Data points;3736    

[Measurement Information]
Model name;FT/IR-4X1typeA
Serial No.;A035162111

Accessory;ATR PRO 4X
Accessory S/N;A021162126
Incident angle;45 deg

Measurement date;28/02/2025 4:17 p.m.

Light source;Standard
Detector;TGS
Accumulation;40
Resolution;4 cm-1
Zero filling;On
Apodization;Cosine
Gain;Auto (8)
Aperture;Auto (7 mm)
Scan speed;Auto (2 mm/sec)
Filter;Auto (12800 Hz)

