TITLE;
DATA TYPE;INFRARED SPECTRUM
ORIGIN;JASCO
OWNER;
DATE;25/02/28
TIME;16:19:08
SPECTROMETER/DATA SYSTEM;
LOCALE;9226
RESOLUTION;
DELTAX;0,964233
XUNITS;1/CM
YUNITS;ABSORBANCE
FIRSTX;  399,1927
LASTX; 4000,6047
NPOINTS;    3736
FIRSTY;     0,17183
MAXY;     0,20726
MINY;    -0,00537
XYDATA
399,1927;0,171834
400,1569;0,168298
401,1211;0,165167
402,0854;0,162685
403,0496;0,160886
404,0138;0,15966
404,9781;0,158784
405,9423;0,157969
406,9065;0,156974
407,8708;0,155712
408,8350;0,154288
409,7992;0,152944
410,7635;0,151986
411,7277;0,151694
412,6919;0,152264
413,6562;0,153777
414,6204;0,156222
415,5846;0,159481
416,5489;0,163192
417,5131;0,166512
418,4773;0,168204
419,4416;0,167628
420,4058;0,165623
421,3700;0,163654
422,3343;0,162534
423,2985;0,162269
424,2627;0,162454
425,2270;0,162624
426,1912;0,162486
427,1554;0,162031
428,1197;0,161477
429,0839;0,161107
430,0481;0,161123
431,0124;0,161564
431,9766;0,1623
432,9408;0,163071
433,9051;0,163586
434,8693;0,163631
435,8335;0,163181
436,7978;0,162439
437,7620;0,161742
438,7262;0,161392
439,6905;0,161502
440,6547;0,161938
441,6189;0,162364
442,5832;0,162395
443,5474;0,161817
444,5116;0,160716
445,4759;0,159424
446,4401;0,158294
447,4043;0,157528
448,3686;0,157131
449,3328;0,156978
450,2970;0,156915
451,2613;0,156849
452,2255;0,156777
453,1897;0,156762
454,1540;0,156869
455,1182;0,157118
456,0824;0,157455
457,0467;0,157745
458,0109;0,157814
458,9751;0,157525
459,9394;0,156848
460,9036;0,155853
461,8678;0,154667
462,8321;0,153445
463,7963;0,152367
464,7605;0,151609
465,7248;0,151286
466,6890;0,151385
467,6532;0,151767
468,6175;0,152221
469,5817;0,152555
470,5459;0,15265
471,5102;0,152493
472,4744;0,152166
473,4386;0,151786
474,4029;0,151424
475,3671;0,151082
476,3313;0,150745
477,2956;0,150452
478,2598;0,150321
479,2240;0,150499
480,1883;0,151062
481,1525;0,151918
482,1167;0,152799
483,0810;0,153375
484,0452;0,153438
485,0094;0,153049
485,9737;0,152512
486,9379;0,152174
487,9021;0,152232
488,8664;0,152663
489,8306;0,153297
490,7948;0,153932
491,7591;0,154436
492,7233;0,154777
493,6875;0,154977
494,6518;0,155054
495,6160;0,155013
496,5802;0,154882
497,5445;0,154743
498,5087;0,154715
499,4729;0,154897
500,4372;0,15529
501,4014;0,155779
502,3656;0,156178
503,3299;0,156348
504,2941;0,156273
505,2583;0,156053
506,2226;0,155834
507,1868;0,15573
508,1510;0,155788
509,1153;0,156
510,0795;0,156323
511,0437;0,156719
512,0080;0,157169
512,9722;0,157674
513,9365;0,158249
514,9007;0,158908
515,8649;0,159635
516,8292;0,160363
517,7934;0,160978
518,7576;0,16137
519,7219;0,161509
520,6861;0,161471
521,6503;0,161389
522,6146;0,161381
523,5788;0,161485
524,5430;0,161643
525,5073;0,161742
526,4715;0,161697
527,4357;0,161515
528,4000;0,161287
529,3642;0,16111
530,3284;0,161014
531,2927;0,160958
532,2569;0,16087
533,2211;0,160706
534,1854;0,160479
535,1496;0,160237
536,1138;0,160014
537,0781;0,159804
538,0423;0,159586
539,0065;0,159362
539,9708;0,15919
540,9350;0,159148
541,8992;0,159282
542,8635;0,159563
543,8277;0,159895
544,7919;0,160172
545,7562;0,16034
546,7204;0,160426
547,6846;0,160504
548,6489;0,160639
549,6131;0,160845
550,5773;0,161097
551,5416;0,161362
552,5058;0,161636
553,4700;0,161934
554,4343;0,162271
555,3985;0,162628
556,3627;0,162942
557,3270;0,163126
558,2912;0,163096
559,2554;0,162799
560,2197;0,162233
561,1839;0,161453
562,1481;0,160563
563,1124;0,159693
564,0766;0,158953
565,0408;0,158391
566,0051;0,157967
566,9693;0,15758
567,9335;0,15713
568,8978;0,15659
569,8620;0,156035
570,8262;0,155601
571,7905;0,155406
572,7547;0,155483
573,7189;0,155756
574,6832;0,156082
575,6474;0,156316
576,6116;0,156381
577,5759;0,156297
578,5401;0,156147
579,5043;0,156016
580,4686;0,155937
581,4328;0,155872
582,3970;0,155745
583,3613;0,155492
584,3255;0,155116
585,2897;0,154701
586,2540;0,154379
587,2182;0,154273
588,1824;0,154432
589,1467;0,154802
590,1109;0,155242
591,0751;0,155581
592,0394;0,155696
593,0036;0,155565
593,9678;0,155264
594,9321;0,1549
595,8963;0,154549
596,8605;0,154222
597,8248;0,153883
598,7890;0,153493
599,7532;0,153051
600,7175;0,152594
601,6817;0,152177
602,6459;0,151835
603,6102;0,151568
604,5744;0,151345
605,5386;0,151124
606,5029;0,15086
607,4671;0,150503
608,4313;0,150012
609,3956;0,149374
610,3598;0,148642
611,3240;0,147956
612,2883;0,147507
613,2525;0,147445
614,2167;0,147774
615,1810;0,148287
616,1452;0,148609
617,1094;0,148351
618,0737;0,147322
619,0379;0,145644
620,0021;0,143678
620,9664;0,141826
621,9306;0,140349
622,8948;0,139302
623,8591;0,138575
624,8233;0,137917
625,7875;0,137344
626,7518;0,136808
627,7160;0,136333
628,6802;0,135944
629,6445;0,135642
630,6087;0,135384
631,5729;0,13511
632,5372;0,134775
633,5014;0,134365
634,4656;0,133913
635,4299;0,13348
636,3941;0,13313
637,3583;0,132899
638,3226;0,132781
639,2868;0,132732
640,2510;0,132696
641,2153;0,132636
642,1795;0,132546
643,1437;0,132449
644,1080;0,132371
645,0722;0,132316
646,0364;0,132265
647,0007;0,132186
647,9649;0,13206
648,9291;0,131886
649,8934;0,131681
650,8576;0,131465
651,8218;0,13126
652,7861;0,131097
653,7503;0,131016
654,7145;0,131043
655,6788;0,131167
656,6430;0,131333
657,6072;0,131477
658,5715;0,131566
659,5357;0,131591
660,4999;0,131509
661,4642;0,13118
662,4284;0,130365
663,3926;0,128825
664,3569;0,126525
665,3211;0,123937
666,2853;0,122191
667,2496;0,122505
668,2138;0,124641
669,1780;0,126696
670,1423;0,127596
671,1065;0,127596
672,0707;0,126948
673,0350;0,125731
673,9992;0,12416
674,9634;0,122563
675,9277;0,121166
676,8919;0,119972
677,8561;0,118838
678,8204;0,117644
679,7846;0,116386
680,7488;0,115141
681,7131;0,114003
682,6773;0,113012
683,6415;0,112161
684,6058;0,111423
685,5700;0,110768
686,5342;0,110168
687,4985;0,10959
688,4627;0,109022
689,4269;0,108446
690,3912;0,107874
691,3554;0,107329
692,3196;0,106821
693,2839;0,106333
694,2481;0,105829
695,2123;0,10528
696,1766;0,104688
697,1408;0,104085
698,1050;0,103517
699,0693;0,103013
700,0335;0,102575
700,9977;0,102174
701,9620;0,101765
702,9262;0,101313
703,8904;0,100778
704,8547;0,100182
705,8189;0,0995621
706,7831;0,098951
707,7474;0,0983635
708,7116;0,0977933
709,6758;0,0972216
710,6401;0,0966277
711,6043;0,0959993
712,5685;0,0953427
713,5328;0,0946924
714,4970;0,0941098
715,4612;0,0920356
716,4255;0,0921062
717,3897;0,0924344
718,3539;0,0927828
719,3182;0,0928145
720,2824;0,0922557
721,2466;0,0910599
722,2109;0,0894427
723,1751;0,0877553
724,1393;0,0862986
725,1036;0,0852058
726,0678;0,0844368
727,0320;0,0838542
727,9963;0,0833176
728,9605;0,0827455
729,9247;0,0821212
730,8890;0,0814641
731,8532;0,0808004
732,8174;0,0801544
733,7817;0,079553
734,7459;0,0790263
735,7101;0,0785958
736,6744;0,0782588
737,6386;0,0779836
738,6028;0,0777201
739,5671;0,0774209
740,5313;0,0770595
741,4955;0,0766356
742,4598;0,0761695
743,4240;0,0756878
744,3882;0,0752115
745,3525;0,0747479
746,3167;0,0742913
747,2809;0,0738302
748,2452;0,0733564
749,2094;0,0728723
750,1736;0,07239
751,1379;0,0719227
752,1021;0,0714749
753,0663;0,0710376
754,0306;0,0705941
754,9948;0,0701312
755,9590;0,0696499
756,9233;0,0691661
757,8875;0,0687031
758,8517;0,0682793
759,8160;0,0679002
760,7802;0,0675579
761,7444;0,067238
762,7087;0,0669271
763,6729;0,0666185
764,6371;0,0663116
765,6014;0,0660091
766,5656;0,065714
767,5298;0,0654273
768,4941;0,0651476
769,4583;0,0648707
770,4225;0,0645901
771,3868;0,0642981
772,3510;0,0639903
773,3152;0,0636704
774,2795;0,0633522
775,2437;0,0630546
776,2079;0,0627913
777,1722;0,0625614
778,1364;0,0623471
779,1006;0,0621225
780,0649;0,0618684
781,0291;0,0615829
781,9933;0,0612808
782,9576;0,0609813
783,9218;0,0606948
784,8860;0,0604171
785,8503;0,0601353
786,8145;0,0598414
787,7787;0,0595407
788,7430;0,0592519
789,7072;0,0589963
790,6714;0,0587871
791,6357;0,0586232
792,5999;0,0584901
793,5641;0,058367
794,5284;0,058234
795,4926;0,0580773
796,4568;0,0578934
797,4211;0,0576899
798,3853;0,057483
799,3495;0,0572911
800,3138;0,0571266
801,2780;0,0569898
802,2422;0,0568703
803,2065;0,0567536
804,1707;0,0566288
805,1349;0,0564916
806,0992;0,0563409
807,0634;0,0561734
808,0276;0,0559822
808,9919;0,0557622
809,9561;0,0555181
810,9203;0,0552688
811,8846;0,0550414
812,8488;0,0548592
813,8130;0,0547298
814,7773;0,0546422
815,7415;0,0545737
816,7057;0,0545031
817,6700;0,0544204
818,6342;0,0543277
819,5984;0,0542333
820,5627;0,0541427
821,5269;0,0540545
822,4911;0,0539623
823,4554;0,0538605
824,4196;0,0537495
825,3839;0,0536366
826,3481;0,0535323
827,3123;0,0534454
828,2766;0,0533784
829,2408;0,0533262
830,2050;0,0532772
831,1693;0,0532168
832,1335;0,0531314
833,0977;0,0530119
834,0620;0,0528555
835,0262;0,0526655
835,9904;0,0524492
836,9547;0,0522148
837,9189;0,0519698
838,8831;0,0517202
839,8474;0,0514727
840,8116;0,0512358
841,7758;0,0510192
842,7401;0,0508307
843,7043;0,0506724
844,6685;0,0505392
845,6328;0,0504215
846,5970;0,0503103
847,5612;0,0502023
848,5255;0,0500998
849,4897;0,0500059
850,4539;0,0499187
851,4182;0,0498303
852,3824;0,0497313
853,3466;0,0496197
854,3109;0,049505
855,2751;0,0494052
856,2393;0,0493364
857,2036;0,0493026
858,1678;0,0492932
859,1320;0,0492901
860,0963;0,0492792
861,0605;0,0492591
862,0247;0,0492405
862,9890;0,0492397
863,9532;0,0492694
864,9174;0,0493334
865,8817;0,0494259
866,8459;0,0495345
867,8101;0,049645
868,7744;0,049745
869,7386;0,0498286
870,7028;0,0498971
871,6671;0,0499573
872,6313;0,050016
873,5955;0,0500747
874,5598;0,0501279
875,5240;0,0501677
876,4882;0,0501913
877,4525;0,0502054
878,4167;0,0502248
879,3809;0,0502653
880,3452;0,0503386
881,3094;0,0504507
882,2736;0,0506074
883,2379;0,0508188
884,2021;0,0510998
885,1663;0,0514648
886,1306;0,0519213
887,0948;0,0524665
888,0590;0,0530891
889,0233;0,0537742
889,9875;0,0545054
890,9517;0,0552652
891,9160;0,0560319
892,8802;0,0567773
893,8444;0,0574674
894,8087;0,0580647
895,7729;0,0585324
896,7371;0,0588392
897,7014;0,0589652
898,6656;0,0589072
899,6298;0,058681
900,5941;0,0583184
901,5583;0,0578586
902,5225;0,0573384
903,4868;0,0567855
904,4510;0,0562185
905,4152;0,0556528
906,3795;0,0551073
907,3437;0,0546068
908,3079;0,0541781
909,2722;0,0538421
910,2364;0,0536066
911,2007;0,0534648
912,1649;0,0533995
913,1292;0,0533912
914,0934;0,0534253
915,0576;0,0534954
916,0219;0,0536014
916,9861;0,0537444
917,9503;0,0539212
918,9146;0,0541216
919,8788;0,0543293
920,8430;0,0545262
921,8073;0,0546991
922,7715;0,0548446
923,7357;0,0549705
924,7000;0,0550919
925,6642;0,0552233
926,6284;0,0553708
927,5927;0,0555273
928,5569;0,0556755
929,5211;0,0557962
930,4854;0,055877
931,4496;0,0559177
932,4138;0,0559297
933,3781;0,0559304
934,3423;0,0559371
935,3065;0,0559639
936,2708;0,0560225
937,2350;0,056123
938,1992;0,0562744
939,1635;0,0564826
940,1277;0,0567491
941,0919;0,057071
942,0562;0,0574429
943,0204;0,0578594
943,9846;0,0583151
944,9489;0,0588046
945,9131;0,0593218
946,8773;0,0598631
947,8416;0,0604319
948,8058;0,0610416
949,7700;0,061714
950,7343;0,0624709
951,6985;0,0633254
952,6627;0,0642767
953,6270;0,065313
954,5912;0,0664194
955,5554;0,0675859
956,5197;0,0688096
957,4839;0,0700898
958,4481;0,0714214
959,4124;0,0727927
960,3766;0,0741896
961,3408;0,0756038
962,3051;0,0770372
963,2693;0,0784996
964,2335;0,0799993
965,1978;0,0815355
966,1620;0,0830974
967,1262;0,0846731
968,0905;0,0862614
969,0547;0,0878798
970,0189;0,0895622
970,9832;0,0913491
971,9474;0,093277
972,9116;0,0953734
973,8759;0,0976592
974,8401;0,100154
975,8043;0,102878
976,7686;0,105848
977,7328;0,109063
978,6970;0,112498
979,6613;0,116091
980,6255;0,119748
981,5897;0,123352
982,5540;0,126784
983,5182;0,129941
984,4824;0,132754
985,4467;0,135199
986,4109;0,137295
987,3751;0,139087
988,3394;0,140632
989,3036;0,141979
990,2678;0,143162
991,2321;0,144203
992,1963;0,145122
993,1605;0,145946
994,1248;0,146708
995,0890;0,147441
996,0532;0,148169
997,0175;0,148898
997,9817;0,149623
998,9459;0,150333
999,9102;0,151021
1000,8744;0,151691
1001,8386;0,152364
1002,8029;0,153069
1003,7671;0,153846
1004,7313;0,154735
1005,6956;0,155781
1006,6598;0,157028
1007,6240;0,158514
1008,5883;0,160267
1009,5525;0,162293
1010,5167;0,164578
1011,4810;0,167078
1012,4452;0,169728
1013,4094;0,172442
1014,3737;0,175132
1015,3379;0,17772
1016,3021;0,180157
1017,2664;0,182422
1018,2306;0,184526
1019,1948;0,186494
1020,1591;0,188356
1021,1233;0,190141
1022,0875;0,191878
1023,0518;0,193601
1024,0160;0,195343
1024,9802;0,197127
1025,9445;0,198951
1026,9087;0,200776
1027,8729;0,202536
1028,8372;0,204144
1029,8014;0,205508
1030,7656;0,206538
1031,7299;0,207148
1032,6941;0,207262
1033,6583;0,206829
1034,6226;0,205849
1035,5868;0,204388
1036,5510;0,20258
1037,5153;0,20061
1038,4795;0,198671
1039,4437;0,196929
1040,4080;0,195498
1041,3722;0,194427
1042,3364;0,193703
1043,3007;0,193271
1044,2649;0,193041
1045,2291;0,192914
1046,1934;0,19279
1047,1576;0,192587
1048,1218;0,192242
1049,0861;0,191708
1050,0503;0,190953
1051,0145;0,189959
1051,9788;0,18872
1052,9430;0,187253
1053,9072;0,185587
1054,8715;0,183757
1055,8357;0,181777
1056,7999;0,179625
1057,7642;0,177243
1058,7284;0,174559
1059,6926;0,171523
1060,6569;0,168144
1061,6211;0,164503
1062,5853;0,16073
1063,5496;0,156976
1064,5138;0,153369
1065,4780;0,149994
1066,4423;0,146891
1067,4065;0,144066
1068,3707;0,141505
1069,3350;0,139184
1070,2992;0,137064
1071,2634;0,135097
1072,2277;0,133224
1073,1919;0,131383
1074,1561;0,129529
1075,1204;0,127634
1076,0846;0,125697
1077,0488;0,123739
1078,0131;0,121792
1078,9773;0,119896
1079,9415;0,118092
1080,9058;0,116418
1081,8700;0,114904
1082,8342;0,113563
1083,7985;0,11239
1084,7627;0,111363
1085,7269;0,110453
1086,6912;0,109637
1087,6554;0,108908
1088,6196;0,108272
1089,5839;0,107747
1090,5481;0,107348
1091,5123;0,107082
1092,4766;0,106943
1093,4408;0,106919
1094,4050;0,106991
1095,3693;0,107143
1096,3335;0,107364
1097,2977;0,107649
1098,2620;0,107995
1099,2262;0,1084
1100,1904;0,10885
1101,1547;0,109319
1102,1189;0,109769
1103,0831;0,110156
1104,0474;0,110444
1105,0116;0,110609
1105,9758;0,110647
1106,9401;0,110566
1107,9043;0,110373
1108,8685;0,110066
1109,8328;0,109624
1110,7970;0,10901
1111,7612;0,108186
1112,7255;0,107138
1113,6897;0,10589
1114,6539;0,104513
1115,6182;0,103106
1116,5824;0,101769
1117,5466;0,100569
1118,5109;0,0995218
1119,4751;0,0985911
1120,4393;0,0977056
1121,4036;0,0967812
1122,3678;0,0957416
1123,3320;0,0945313
1124,2963;0,0931213
1125,2605;0,0915094
1126,2247;0,0897164
1127,1890;0,0877796
1128,1532;0,0857435
1129,1174;0,083652
1130,0817;0,0815422
1131,0459;0,0794448
1132,0101;0,0773878
1132,9744;0,0754012
1133,9386;0,0735199
1134,9028;0,0717818
1135,8671;0,0702235
1136,8313;0,0688732
1137,7955;0,0677461
1138,7598;0,0668434
1139,7240;0,0661546
1140,6882;0,0656641
1141,6525;0,0653548
1142,6167;0,0652109
1143,5809;0,0652158
1144,5452;0,0653499
1145,5094;0,0655906
1146,4736;0,0659156
1147,4379;0,0663075
1148,4021;0,0667572
1149,3663;0,0672625
1150,3306;0,0678234
1151,2948;0,0684357
1152,2590;0,0690876
1153,2233;0,0697596
1154,1875;0,070425
1155,1517;0,0710499
1156,1160;0,0715903
1157,0802;0,07199
1158,0444;0,0721807
1159,0087;0,0720877
1159,9729;0,0716409
1160,9371;0,0707878
1161,9014;0,0695058
1162,8656;0,0678091
1163,8298;0,0657479
1164,7941;0,0634016
1165,7583;0,0608667
1166,7225;0,0582448
1167,6868;0,0556321
1168,6510;0,0531121
1169,6152;0,0507507
1170,5795;0,0485927
1171,5437;0,04666
1172,5079;0,0449533
1173,4722;0,0434574
1174,4364;0,0421487
1175,4006;0,041004
1176,3649;0,0400054
1177,3291;0,0391411
1178,2933;0,0384017
1179,2576;0,037777
1180,2218;0,0372545
1181,1860;0,036821
1182,1503;0,036466
1183,1145;0,0361842
1184,0787;0,0359745
1185,0430;0,0358369
1186,0072;0,035769
1186,9714;0,0357652
1187,9357;0,035819
1188,8999;0,0359267
1189,8641;0,0360905
1190,8284;0,036318
1191,7926;0,0366194
1192,7568;0,0370017
1193,7211;0,037465
1194,6853;0,0380008
1195,6495;0,038594
1196,6138;0,0392257
1197,5780;0,0398777
1198,5422;0,0405351
1199,5065;0,0409546
1200,4707;0,0416271
1201,4349;0,0422927
1202,3992;0,0429519
1203,3634;0,0436041
1204,3276;0,0442461
1205,2919;0,0448727
1206,2561;0,0454796
1207,2203;0,0460685
1208,1846;0,0466501
1209,1488;0,047243
1210,1130;0,0478691
1211,0773;0,0485467
1212,0415;0,0492851
1213,0057;0,0500837
1213,9700;0,0509335
1214,9342;0,0518216
1215,8984;0,0527341
1216,8627;0,0536556
1217,8269;0,0545694
1218,7911;0,0554613
1219,7554;0,056321
1220,7196;0,0571433
1221,6838;0,0579276
1222,6481;0,0586745
1223,6123;0,059383
1224,5765;0,0600497
1225,5408;0,060671
1226,5050;0,0612473
1227,4692;0,0617841
1228,4335;0,0622902
1229,3977;0,0627723
1230,3619;0,0632305
1231,3262;0,0636573
1232,2904;0,0640417
1233,2546;0,0643751
1234,2189;0,0646553
1235,1831;0,0648873
1236,1473;0,0650802
1237,1116;0,0652429
1238,0758;0,0653809
1239,0400;0,0654958
1240,0043;0,0655861
1240,9685;0,0656474
1241,9327;0,0656733
1242,8970;0,0656554
1243,8612;0,0655847
1244,8254;0,0654538
1245,7897;0,0652592
1246,7539;0,0650031
1247,7181;0,0646935
1248,6824;0,0643419
1249,6466;0,0639603
1250,6108;0,0635591
1251,5751;0,0631467
1252,5393;0,0627314
1253,5035;0,062323
1254,4678;0,0619307
1255,4320;0,0615584
1256,3962;0,0612002
1257,3605;0,0608384
1258,3247;0,0604486
1259,2889;0,0600082
1260,2532;0,0595066
1261,2174;0,058948
1262,1816;0,0583485
1263,1459;0,0577276
1264,1101;0,057101
1265,0743;0,0564767
1266,0386;0,0558548
1267,0028;0,0552276
1267,9670;0,0545818
1268,9313;0,0539016
1269,8955;0,0531756
1270,8597;0,0524022
1271,8240;0,0515937
1272,7882;0,050773
1273,7524;0,0499667
1274,7167;0,0491971
1275,6809;0,0484774
1276,6451;0,0478103
1277,6094;0,0471884
1278,5736;0,0465967
1279,5378;0,046017
1280,5021;0,0454352
1281,4663;0,0448491
1282,4305;0,0442711
1283,3948;0,0437235
1284,3590;0,0432286
1285,3232;0,0427975
1286,2875;0,0424253
1287,2517;0,0420952
1288,2159;0,0417894
1289,1802;0,0415003
1290,1444;0,041236
1291,1086;0,0410158
1292,0729;0,0408611
1293,0371;0,0407864
1294,0013;0,0407954
1294,9656;0,0408818
1295,9298;0,0410343
1296,8940;0,0412405
1297,8583;0,0414917
1298,8225;0,0417843
1299,7867;0,0421199
1300,7510;0,0425042
1301,7152;0,042947
1302,6794;0,0434547
1303,6437;0,0440261
1304,6079;0,0446524
1305,5721;0,0453189
1306,5364;0,0460116
1307,5006;0,046724
1308,4648;0,0474588
1309,4291;0,0482202
1310,3933;0,0490027
1311,3575;0,0497835
1312,3218;0,0505261
1313,2860;0,0511933
1314,2502;0,051759
1315,2145;0,0522098
1316,1787;0,0525335
1317,1429;0,0527094
1318,1072;0,0527128
1319,0714;0,0525348
1320,0356;0,0522025
1320,9999;0,0517788
1321,9641;0,0513397
1322,9283;0,0509467
1323,8926;0,0506318
1324,8568;0,0503993
1325,8210;0,0502359
1326,7853;0,0501211
1327,7495;0,0500336
1328,7137;0,0499527
1329,6780;0,0498585
1330,6422;0,0497374
1331,6064;0,0495929
1332,5707;0,0494508
1333,5349;0,0493575
1334,4991;0,0493584
1335,4634;0,0494667
1336,4276;0,0496311
1337,3918;0,0497192
1338,3561;0,0495511
1339,3203;0,049003
1340,2845;0,0481131
1341,2488;0,0470709
1342,2130;0,0460919
1343,1772;0,0453108
1344,1415;0,0447632
1345,1057;0,0444203
1346,0699;0,0442294
1347,0342;0,0441416
1347,9984;0,0441287
1348,9626;0,0441855
1349,9269;0,0443198
1350,8911;0,0445359
1351,8553;0,0448246
1352,8196;0,0451625
1353,7838;0,0455227
1354,7480;0,0458898
1355,7123;0,0462739
1356,6765;0,0467104
1357,6407;0,0472445
1358,6050;0,0479077
1359,5692;0,0486914
1360,5334;0,0495184
1361,4977;0,050242
1362,4619;0,0507213
1363,4261;0,0509362
1364,3904;0,0510035
1365,3546;0,0510697
1366,3188;0,0512156
1367,2831;0,0514435
1368,2473;0,051711
1369,2115;0,0519702
1370,1758;0,052191
1371,1400;0,0523596
1372,1042;0,0524577
1373,0685;0,0524448
1374,0327;0,0522717
1374,9969;0,051924
1375,9612;0,051441
1376,9254;0,0508715
1377,8896;0,0502233
1378,8539;0,0494706
1379,8181;0,0486043
1380,7823;0,0476723
1381,7466;0,0467685
1382,7108;0,0459783
1383,6750;0,0453277
1384,6393;0,0447721
1385,6035;0,0442196
1386,5677;0,0435841
1387,5320;0,0428634
1388,4962;0,0421613
1389,4604;0,0415996
1390,4247;0,0412271
1391,3889;0,0410315
1392,3531;0,0409928
1393,3174;0,0410965
1394,2816;0,0413002
1395,2458;0,041509
1396,2101;0,0416103
1397,1743;0,0415456
1398,1385;0,0413508
1399,1028;0,0411332
1400,0670;0,0410077
1401,0313;0,0410383
1401,9955;0,0412188
1402,9597;0,0414929
1403,9240;0,0417911
1404,8882;0,0420674
1405,8524;0,0423255
1406,8167;0,0426099
1407,7809;0,0429633
1408,7451;0,0433931
1409,7094;0,0438806
1410,6736;0,0444093
1411,6378;0,044981
1412,6021;0,045608
1413,5663;0,0462906
1414,5305;0,047005
1415,4948;0,0477097
1416,4590;0,0483456
1417,4232;0,0488204
1418,3875;0,0490505
1419,3517;0,0490865
1420,3159;0,0491109
1421,2802;0,0492338
1422,2444;0,0493887
1423,2086;0,0494303
1424,1729;0,0492629
1425,1371;0,0488889
1426,1013;0,0483744
1427,0656;0,0477841
1428,0298;0,047144
1428,9940;0,0464552
1429,9583;0,0457328
1430,9225;0,0450164
1431,8867;0,0443271
1432,8510;0,0436282
1433,8152;0,0428425
1434,7794;0,0419053
1435,7437;0,040826
1436,7079;0,0397531
1437,6721;0,0389416
1438,6364;0,0385521
1439,6006;0,0385204
1440,5648;0,0386675
1441,5291;0,0388612
1442,4933;0,0390699
1443,4575;0,039325
1444,4218;0,0396575
1445,3860;0,040058
1446,3502;0,040482
1447,3145;0,0408887
1448,2787;0,0412795
1449,2429;0,0416966
1450,2072;0,0421677
1451,1714;0,0426543
1452,1356;0,0430676
1453,0999;0,0433408
1454,0641;0,0434909
1455,0283;0,0435895
1455,9926;0,0435888
1456,9568;0,0432494
1457,9210;0,0426147
1458,8853;0,0421645
1459,8495;0,0421011
1460,8137;0,0422012
1461,7780;0,0421893
1462,7422;0,041922
1463,7064;0,0413759
1464,6707;0,0406148
1465,6349;0,0397839
1466,5991;0,0390295
1467,5634;0,0383687
1468,5276;0,0376983
1469,4918;0,0369125
1470,4561;0,0359686
1471,4203;0,034846
1472,3845;0,0334945
1473,3488;0,0319348
1474,3130;0,0303864
1475,2772;0,0290961
1476,2415;0,0281256
1477,2057;0,0273986
1478,1699;0,0268244
1479,1342;0,0263434
1480,0984;0,0259229
1481,0626;0,0255521
1482,0269;0,0252476
1482,9911;0,0250503
1483,9553;0,0250079
1484,9196;0,0251585
1485,8838;0,0255227
1486,8480;0,0260715
1487,8123;0,0266521
1488,7765;0,0269902
1489,7407;0,0269411
1490,7050;0,0266977
1491,6692;0,0265521
1492,6334;0,0266175
1493,5977;0,0268711
1494,5619;0,027294
1495,5261;0,0279115
1496,4904;0,0287299
1497,4546;0,0296779
1498,4188;0,0306625
1499,3831;0,0316255
1500,3473;0,0324838
1501,3115;0,033105
1502,2758;0,0333968
1503,2400;0,0334254
1504,2042;0,0335022
1505,1685;0,0341203
1506,1327;0,0354517
1507,0969;0,0366865
1508,0612;0,0369317
1509,0254;0,0364795
1509,9896;0,0359063
1510,9539;0,0353822
1511,9181;0,0348965
1512,8823;0,0344485
1513,8466;0,0340497
1514,8108;0,0336681
1515,7750;0,0332119
1516,7393;0,0325865
1517,7035;0,0317685
1518,6677;0,0308238
1519,6320;0,0298739
1520,5962;0,0290543
1521,5604;0,0284769
1522,5247;0,028185
1523,4889;0,0281192
1524,4531;0,0281469
1525,4174;0,0281469
1526,3816;0,028079
1527,3458;0,0279823
1528,3101;0,0279142
1529,2743;0,0279027
1530,2385;0,0279575
1531,2028;0,0280978
1532,1670;0,0283356
1533,1312;0,0286309
1534,0955;0,0288918
1535,0597;0,0290194
1536,0239;0,0289427
1536,9882;0,0286755
1537,9524;0,0283981
1538,9166;0,0284508
1539,8809;0,0290337
1540,8451;0,0297935
1541,8093;0,0302327
1542,7736;0,0303629
1543,7378;0,0303592
1544,7020;0,0302869
1545,6663;0,0301959
1546,6305;0,030153
1547,5947;0,0301882
1548,5590;0,0302638
1549,5232;0,0303016
1550,4874;0,0302411
1551,4517;0,0300792
1552,4159;0,0298556
1553,3801;0,0295934
1554,3444;0,0292664
1555,3086;0,0288396
1556,2728;0,0283227
1557,2371;0,0277143
1558,2013;0,0269089
1559,1655;0,0261073
1560,1298;0,0260012
1561,0940;0,0267514
1562,0582;0,0278798
1563,0225;0,0289253
1563,9867;0,0296788
1564,9509;0,0301265
1565,9152;0,030358
1566,8794;0,0304976
1567,8436;0,0306527
1568,8079;0,0308838
1569,7721;0,0312077
1570,7363;0,0316022
1571,7006;0,0320032
1572,6648;0,0323448
1573,6290;0,032628
1574,5933;0,0329346
1575,5575;0,0333439
1576,5217;0,0338525
1577,4860;0,0344287
1578,4502;0,0350627
1579,4144;0,0357125
1580,3787;0,0363141
1581,3429;0,0368443
1582,3071;0,0373335
1583,2714;0,0378334
1584,2356;0,0383806
1585,1998;0,0389848
1586,1641;0,0396338
1587,1283;0,0403032
1588,0925;0,0409611
1589,0568;0,0415723
1590,0210;0,0421043
1590,9852;0,0425303
1591,9495;0,0428275
1592,9137;0,0429721
1593,8779;0,0429451
1594,8422;0,0427491
1595,8064;0,0424219
1596,7706;0,0420299
1597,7349;0,041641
1598,6991;0,0412978
1599,6633;0,0410074
1600,6276;0,0407508
1601,5918;0,0405047
1602,5560;0,040263
1603,5203;0,0400424
1604,4845;0,0398646
1605,4487;0,0397319
1606,4130;0,0396199
1607,3772;0,0394933
1608,3414;0,0393354
1609,3057;0,039166
1610,2699;0,0390218
1611,2341;0,038908
1612,1984;0,0387822
1613,1626;0,0385967
1614,1268;0,0383544
1615,0911;0,0381244
1616,0553;0,0380112
1617,0195;0,0381174
1617,9838;0,038484
1618,9480;0,0390268
1619,9122;0,0395831
1620,8765;0,0400266
1621,8407;0,0403192
1622,8049;0,0404869
1623,7692;0,0405827
1624,7334;0,0406637
1625,6976;0,0407707
1626,6619;0,0409167
1627,6261;0,0410988
1628,5903;0,0413067
1629,5546;0,0415085
1630,5188;0,0416426
1631,4830;0,0416482
1632,4473;0,0415274
1633,4115;0,0413808
1634,3757;0,0413456
1635,3400;0,0414462
1636,3042;0,0416009
1637,2684;0,0418145
1638,2327;0,0421268
1639,1969;0,0424731
1640,1611;0,042741
1641,1254;0,042858
1642,0896;0,0428161
1643,0538;0,0426693
1644,0181;0,042519
1644,9823;0,0424469
1645,9465;0,0424155
1646,9108;0,042302
1647,8750;0,0420554
1648,8392;0,0416656
1649,8035;0,0410813
1650,7677;0,0402853
1651,7319;0,0393446
1652,6962;0,0383257
1653,6604;0,0373947
1654,6246;0,0369823
1655,5889;0,0371977
1656,5531;0,0376439
1657,5173;0,0379174
1658,4816;0,0378447
1659,4458;0,0374361
1660,4100;0,0367856
1661,3743;0,0360037
1662,3385;0,0352152
1663,3027;0,0345565
1664,2670;0,0340967
1665,2312;0,0337862
1666,1954;0,0335119
1667,1597;0,0331708
1668,1239;0,0326921
1669,0881;0,0320476
1670,0524;0,0312957
1671,0166;0,0305612
1671,9808;0,0299011
1672,9451;0,0292603
1673,9093;0,0285856
1674,8735;0,0279411
1675,8378;0,0275039
1676,8020;0,0274193
1677,7662;0,0276466
1678,7305;0,0279701
1679,6947;0,0281401
1680,6589;0,0279823
1681,6232;0,0274129
1682,5874;0,026411
1683,5516;0,0250992
1684,5159;0,0239086
1685,4801;0,0233006
1686,4443;0,0232632
1687,4086;0,0234296
1688,3728;0,0234674
1689,3370;0,0232381
1690,3013;0,0227716
1691,2655;0,0221859
1692,2297;0,0216167
1693,1940;0,0211777
1694,1582;0,0209352
1695,1224;0,0208727
1696,0867;0,0208621
1697,0509;0,0207045
1698,0151;0,0202751
1698,9794;0,0196751
1699,9436;0,0192118
1700,9078;0,0191595
1701,8721;0,0195416
1702,8363;0,0201571
1703,8005;0,020757
1704,7648;0,0211822
1705,7290;0,0214094
1706,6932;0,0215328
1707,6575;0,021691
1708,6217;0,0219763
1709,5859;0,0223941
1710,5502;0,0228964
1711,5144;0,023434
1712,4786;0,0239819
1713,4429;0,0245293
1714,4071;0,0250399
1715,3713;0,0253915
1716,3356;0,0253969
1717,2998;0,0250534
1718,2640;0,0247133
1719,2283;0,0247299
1720,1925;0,0251195
1721,1567;0,0256764
1722,1210;0,026195
1723,0852;0,0265683
1724,0494;0,0267999
1725,0137;0,0269777
1725,9779;0,0272186
1726,9421;0,0275975
1727,9064;0,0281005
1728,8706;0,0286303
1729,8348;0,0290496
1730,7991;0,0292269
1731,7633;0,0290614
1732,7275;0,0285255
1733,6918;0,0277671
1734,6560;0,0271074
1735,6202;0,0267648
1736,5845;0,0266723
1737,5487;0,0266278
1738,5129;0,0264973
1739,4772;0,0262787
1740,4414;0,0260548
1741,4056;0,0259001
1742,3699;0,0258141
1743,3341;0,0257279
1744,2983;0,0255654
1745,2626;0,0252892
1746,2268;0,0248926
1747,1910;0,0243475
1748,1553;0,0235623
1749,1195;0,0224385
1750,0837;0,0210301
1751,0480;0,0195975
1752,0122;0,0184161
1752,9764;0,0175808
1753,9407;0,017016
1754,9049;0,0165896
1755,8691;0,016196
1756,8334;0,0157801
1757,7976;0,0153221
1758,7618;0,0148105
1759,7261;0,014229
1760,6903;0,0135752
1761,6545;0,012896
1762,6188;0,0122886
1763,5830;0,0118468
1764,5472;0,0115979
1765,5115;0,0114941
1766,4757;0,0114516
1767,4399;0,0113918
1768,4042;0,0112619
1769,3684;0,0110354
1770,3326;0,0107086
1771,2969;0,0103054
1772,2611;0,00989931
1773,2253;0,00960446
1774,1896;0,00949911
1775,1538;0,00956112
1776,1180;0,00969717
1777,0823;0,00981547
1778,0465;0,0098673
1779,0107;0,0098456
1779,9750;0,00976441
1780,9392;0,00964071
1781,9034;0,00948649
1782,8677;0,00931262
1783,8319;0,00914161
1784,7961;0,00901393
1785,7604;0,00897285
1786,7246;0,00903592
1787,6888;0,00918267
1788,6531;0,00937051
1789,6173;0,00955532
1790,5815;0,00969128
1791,5458;0,00973004
1792,5100;0,00966499
1793,4742;0,00956914
1794,4385;0,00952595
1795,4027;0,00954443
1796,3669;0,00957949
1797,3312;0,00959706
1798,2954;0,00959695
1799,2596;0,00958695
1800,2239;0,00955161
1801,1881;0,00945874
1802,1523;0,0092972
1803,1166;0,0090984
1804,0808;0,00892184
1805,0450;0,00882524
1806,0093;0,00883964
1806,9735;0,00895541
1807,9377;0,00912102
1808,9020;0,00925859
1809,8662;0,00929833
1810,8304;0,00921898
1811,7947;0,00906029
1812,7589;0,00889042
1813,7231;0,0087596
1814,6874;0,00868073
1815,6516;0,00863873
1816,6158;0,00860957
1817,5801;0,00857827
1818,5443;0,00855113
1819,5085;0,00855301
1820,4728;0,00860967
1821,4370;0,00872927
1822,4012;0,00889367
1823,3655;0,00906191
1824,3297;0,00918885
1825,2939;0,00925158
1826,2582;0,00925796
1827,2224;0,00922646
1828,1866;0,00915982
1829,1509;0,00904358
1830,1151;0,00887792
1831,0793;0,00870619
1832,0436;0,00859019
1833,0078;0,00855756
1833,9720;0,00858778
1834,9363;0,00863874
1835,9005;0,00867526
1836,8647;0,0086852
1837,8290;0,00868233
1838,7932;0,00869291
1839,7574;0,00873657
1840,7217;0,0088225
1841,6859;0,00895427
1842,6501;0,00911915
1843,6144;0,0092711
1844,5786;0,0093524
1845,5428;0,00934349
1846,5071;0,00926183
1847,4713;0,00911919
1848,4355;0,00891457
1849,3998;0,00866068
1850,3640;0,00839858
1851,3282;0,008184
1852,2925;0,0080589
1853,2567;0,0080329
1854,2209;0,00808616
1855,1852;0,00818615
1856,1494;0,00830169
1857,1136;0,00840766
1858,0779;0,00848242
1859,0421;0,00850983
1860,0063;0,00848918
1860,9706;0,00844541
1861,9348;0,00842615
1862,8990;0,00848348
1863,8633;0,00865249
1864,8275;0,00893823
1865,7917;0,00930561
1866,7560;0,0096645
1867,7202;0,009876
1868,6844;0,00982673
1869,6487;0,00952918
1870,6129;0,00911421
1871,5771;0,00871903
1872,5414;0,00841543
1873,5056;0,00822014
1874,4698;0,00812561
1875,4341;0,00811133
1876,3983;0,00814529
1877,3625;0,00819096
1878,3268;0,00822312
1879,2910;0,00823739
1880,2552;0,00824758
1881,2195;0,00827302
1882,1837;0,00832538
1883,1479;0,00840262
1884,1122;0,00849212
1885,0764;0,00857836
1886,0406;0,00864852
1887,0049;0,00869332
1887,9691;0,00870667
1888,9333;0,00869032
1889,8976;0,00866129
1890,8618;0,00864922
1891,8260;0,00867821
1892,7903;0,00874897
1893,7545;0,00883659
1894,7188;0,00890367
1895,6830;0,00892088
1896,6472;0,00888402
1897,6115;0,0088147
1898,5757;0,00874248
1899,5399;0,00868427
1900,5042;0,00863792
1901,4684;0,00859227
1902,4326;0,00854439
1903,3969;0,00851079
1904,3611;0,00852276
1905,3253;0,00860738
1906,2896;0,0087658
1907,2538;0,00896184
1908,2180;0,00912981
1909,1823;0,00920443
1910,1465;0,00915965
1911,1107;0,00902664
1912,0750;0,00887315
1913,0392;0,00876445
1914,0034;0,00873837
1914,9677;0,00880323
1915,9319;0,00894668
1916,8961;0,00914581
1917,8604;0,00937631
1918,8246;0,00961464
1919,7888;0,00982948
1920,7531;0,00997457
1921,7173;0,01
1922,6815;0,00988162
1923,6458;0,00964798
1924,6100;0,00937833
1925,5742;0,0091624
1926,5385;0,00905175
1927,5027;0,00904127
1928,4669;0,00908733
1929,4312;0,00914
1930,3954;0,00916764
1931,3596;0,00916301
1932,3239;0,00913112
1933,2881;0,0090755
1934,2523;0,00899729
1935,2166;0,00890724
1936,1808;0,00883603
1937,1450;0,008829
1938,1093;0,00892622
1939,0735;0,00914066
1940,0377;0,00944526
1941,0020;0,00977379
1941,9662;0,0100415
1942,9304;0,0101848
1943,8947;0,0101935
1944,8589;0,0101077
1945,8231;0,00998423
1946,7874;0,00986862
1947,7516;0,00978873
1948,7158;0,00975888
1949,6801;0,00978256
1950,6443;0,00985062
1951,6085;0,00994036
1952,5728;0,0100212
1953,5370;0,0100664
1954,5012;0,0100641
1955,4655;0,010019
1956,4297;0,00994251
1957,3939;0,00984147
1958,3582;0,00971646
1959,3224;0,00957576
1960,2866;0,00945314
1961,2509;0,00940897
1962,2151;0,0095033
1963,1793;0,00975435
1964,1436;0,0101106
1965,1078;0,0104584
1966,0720;0,010669
1967,0363;0,0106681
1968,0005;0,0104834
1968,9647;0,0102275
1969,9290;0,0100255
1970,8932;0,009946
1971,8574;0,0099826
1972,8217;0,0100854
1973,7859;0,0102096
1974,7501;0,0103427
1975,7144;0,0104936
1976,6786;0,0106525
1977,6428;0,0107667
1978,6071;0,0107652
1979,5713;0,0106153
1980,5355;0,0103572
1981,4998;0,0100867
1982,4640;0,00990073
1983,4282;0,0098476
1984,3925;0,0099099
1985,3567;0,0100305
1986,3209;0,0101622
1987,2852;0,0103052
1988,2494;0,0105019
1989,2136;0,0107907
1990,1779;0,0111525
1991,1421;0,0114929
1992,1063;0,0116845
1993,0706;0,0116458
1994,0348;0,0113953
1994,9990;0,0110407
1995,9633;0,0107198
1996,9275;0,0105374
1997,8917;0,0105299
1998,8560;0,0106656
1999,8202;0,0108773
2000,7844;0,0111059
2001,7487;0,0113284
2002,7129;0,0115545
2003,6771;0,0117992
2004,6414;0,012053
2005,6056;0,0122694
2006,5698;0,0123811
2007,5341;0,0123348
2008,4983;0,0121247
2009,4625;0,0118027
2010,4268;0,0114637
2011,3910;0,0112144
2012,3552;0,0111401
2013,3195;0,0112751
2014,2837;0,0115827
2015,2479;0,0119575
2016,2122;0,0122614
2017,1764;0,0123902
2018,1406;0,0123323
2019,1049;0,0121766
2020,0691;0,0120559
2021,0333;0,0120658
2021,9976;0,0122085
2022,9618;0,0123952
2023,9260;0,0124991
2024,8903;0,0124286
2025,8545;0,0121736
2026,8187;0,0118023
2027,7830;0,011418
2028,7472;0,0111114
2029,7114;0,010937
2030,6757;0,0109128
2031,6399;0,0110299
2032,6041;0,0112569
2033,5684;0,0115418
2034,5326;0,0118255
2035,4968;0,0120642
2036,4611;0,0122464
2037,4253;0,0123871
2038,3895;0,0125006
2039,3538;0,0125723
2040,3180;0,0125548
2041,2822;0,0123948
2042,2465;0,0120738
2043,2107;0,0116322
2044,1749;0,0111565
2045,1392;0,0107405
2046,1034;0,0104454
2047,0676;0,0102821
2048,0320;0,0102229
2048,9961;0,0102294
2049,9604;0,0102768
2050,9246;0,0103559
2051,8889;0,0104612
2052,8530;0,0105775
2053,8174;0,0106795
2054,7815;0,010742
2055,7458;0,0107539
2056,7100;0,0107248
2057,6743;0,0106779
2058,6384;0,0106347
2059,6028;0,0106048
2060,5669;0,0105853
2061,5313;0,0105709
2062,4954;0,0105635
2063,4597;0,0105729
2064,4238;0,0106082
2065,3882;0,0106652
2066,3523;0,0107224
2067,3167;0,0107482
2068,2808;0,0107164
2069,2451;0,0106201
2070,2092;0,0104755
2071,1736;0,0103159
2072,1377;0,0101775
2073,1021;0,010085
2074,0662;0,0100419
2075,0305;0,010029
2075,9946;0,0100131
2076,9590;0,00996335
2077,9231;0,00986735
2078,8875;0,0097398
2079,8516;0,00961716
2080,8159;0,00954006
2081,7800;0,00953321
2082,7444;0,00959476
2083,7085;0,00970165
2084,6729;0,00982578
2085,6370;0,00994932
2086,6013;0,010068
2087,5654;0,0101826
2088,5298;0,0102879
2089,4939;0,0103701
2090,4583;0,0104154
2091,4224;0,010421
2092,3867;0,0103985
2093,3508;0,0103652
2094,3152;0,0103313
2095,2793;0,0102947
2096,2437;0,0102484
2097,2078;0,0101926
2098,1721;0,0101381
2099,1362;0,010096
2100,1006;0,010065
2101,0647;0,0100246
2102,0291;0,00995827
2102,9932;0,00986906
2103,9575;0,00978806
2104,9216;0,00975739
2105,8860;0,00979951
2106,8501;0,00989679
2107,8145;0,00999947
2108,7786;0,0100581
2109,7429;0,0100565
2110,7070;0,0100209
2111,6714;0,00999833
2112,6355;0,0100221
2113,5999;0,0100904
2114,5640;0,0101721
2115,5283;0,0102325
2116,4924;0,0102584
2117,4568;0,0102645
2118,4209;0,0102796
2119,3853;0,0103239
2120,3494;0,0103949
2121,3137;0,0104699
2122,2778;0,0105227
2123,2422;0,0105416
2124,2063;0,0105375
2125,1707;0,0105368
2126,1348;0,0105653
2127,0991;0,010633
2128,0632;0,0107308
2129,0276;0,0108403
2129,9917;0,0109514
2130,9561;0,0110752
2131,9202;0,0112415
2132,8845;0,011479
2133,8486;0,0117893
2134,8130;0,0121298
2135,7771;0,0124222
2136,7415;0,0125854
2137,7056;0,0125742
2138,6699;0,0124023
2139,6340;0,0121401
2140,5984;0,0118921
2141,5625;0,011763
2142,5269;0,0118235
2143,4910;0,0120839
2144,4553;0,012486
2145,4194;0,0129233
2146,3838;0,0132857
2147,3479;0,0135097
2148,3123;0,0136061
2149,2764;0,0136467
2150,2407;0,0137186
2151,2048;0,0138748
2152,1692;0,0141119
2153,1333;0,0143838
2154,0977;0,0146341
2155,0618;0,014822
2156,0261;0,014926
2156,9902;0,014933
2157,9546;0,0148332
2158,9187;0,0146302
2159,8831;0,0143519
2160,8472;0,0140423
2161,8115;0,0137388
2162,7756;0,0134597
2163,7400;0,0132144
2164,7041;0,0130181
2165,6685;0,0128959
2166,6326;0,0128671
2167,5969;0,0129238
2168,5610;0,0130252
2169,5254;0,0131162
2170,4895;0,0131612
2171,4539;0,0131682
2172,4180;0,0131854
2173,3823;0,0132671
2174,3464;0,0134291
2175,3108;0,013622
2176,2749;0,0137462
2177,2393;0,0137049
2178,2034;0,0134618
2179,1677;0,0130706
2180,1318;0,0126584
2181,0962;0,0123664
2182,0603;0,0122769
2183,0247;0,0123689
2183,9888;0,0125313
2184,9531;0,0126288
2185,9172;0,0125769
2186,8816;0,012379
2187,8457;0,0121102
2188,8101;0,0118656
2189,7742;0,0117068
2190,7385;0,0116397
2191,7026;0,0116281
2192,6670;0,0116262
2193,6311;0,0116036
2194,5955;0,0115482
2195,5596;0,0114541
2196,5239;0,0113128
2197,4880;0,0111184
2198,4524;0,0108837
2199,4165;0,0106504
2200,3809;0,0104793
2201,3450;0,0104248
2202,3093;0,0105062
2203,2734;0,0106968
2204,2378;0,0109354
2205,2019;0,0111526
2206,1663;0,011296
2207,1304;0,0113415
2208,0947;0,0112906
2209,0588;0,01116
2210,0232;0,0109746
2210,9873;0,0107655
2211,9517;0,0105703
2212,9158;0,0104291
2213,8801;0,0103735
2214,8442;0,0104123
2215,8086;0,0105237
2216,7727;0,0106608
2217,7371;0,0107697
2218,7012;0,0108131
2219,6655;0,0107844
2220,6296;0,0107066
2221,5940;0,0106147
2222,5581;0,010534
2223,5225;0,0104676
2224,4866;0,0103998
2225,4509;0,0103139
2226,4150;0,0102085
2227,3794;0,0101027
2228,3435;0,0100295
2229,3079;0,0100152
2230,2720;0,010064
2231,2363;0,0101543
2232,2004;0,0102486
2233,1648;0,0103109
2234,1289;0,0103218
2235,0933;0,0102842
2236,0574;0,01022
2237,0217;0,0101592
2237,9858;0,010127
2238,9502;0,010135
2239,9143;0,0101781
2240,8787;0,0102378
2241,8428;0,0102914
2242,8071;0,0103201
2243,7712;0,0103157
2244,7356;0,0102823
2245,6997;0,0102349
2246,6641;0,0101947
2247,6282;0,0101828
2248,5925;0,0102128
2249,5566;0,0102843
2250,5210;0,0103799
2251,4851;0,0104699
2252,4495;0,0105246
2253,4136;0,0105279
2254,3779;0,0104849
2255,3420;0,0104179
2256,3064;0,0103529
2257,2705;0,0103044
2258,2349;0,0102693
2259,1990;0,010234
2260,1633;0,0101871
2261,1274;0,0101313
2262,0918;0,0100849
2263,0559;0,0100725
2264,0203;0,0101108
2264,9844;0,0101968
2265,9487;0,0103047
2266,9128;0,0103944
2267,8772;0,0104278
2268,8413;0,0103853
2269,8057;0,0102757
2270,7698;0,0101344
2271,7341;0,0100082
2272,6982;0,00993417
2273,6626;0,00992216
2274,6267;0,00995088
2275,5911;0,0099809
2276,5552;0,00997753
2277,5195;0,00993065
2278,4836;0,00985996
2279,4480;0,00980322
2280,4121;0,00979593
2281,3765;0,009855
2282,3406;0,00997551
2283,3049;0,0101398
2284,2690;0,0103313
2285,2334;0,0105442
2286,1975;0,0107856
2287,1619;0,0110703
2288,1260;0,0114128
2289,0903;0,0118204
2290,0544;0,0122887
2291,0188;0,0128011
2291,9829;0,0133325
2292,9473;0,0138566
2293,9114;0,0143535
2294,8757;0,0148138
2295,8398;0,015235
2296,8042;0,0156135
2297,7683;0,0159368
2298,7327;0,0161852
2299,6968;0,0163442
2300,6611;0,0164224
2301,6252;0,0164625
2302,5896;0,0165361
2303,5537;0,0167215
2304,5181;0,0170713
2305,4822;0,0175837
2306,4465;0,0181889
2307,4106;0,0187602
2308,3750;0,0191497
2309,3391;0,0192376
2310,3035;0,018977
2311,2676;0,0184159
2312,2319;0,0176825
2313,1960;0,0169367
2314,1604;0,0163097
2315,1245;0,0158626
2316,0889;0,0155841
2317,0530;0,0154195
2318,0173;0,01531
2318,9814;0,0152206
2319,9458;0,0151495
2320,9099;0,0151225
2321,8743;0,0151774
2322,8384;0,0153358
2323,8027;0,0155695
2324,7668;0,0157882
2325,7312;0,0158684
2326,6953;0,0157093
2327,6597;0,0152778
2328,6238;0,0146222
2329,5881;0,013854
2330,5522;0,0131125
2331,5166;0,0125178
2332,4807;0,0121264
2333,4451;0,0119146
2334,4092;0,0118104
2335,3735;0,011755
2336,3376;0,0117523
2337,3020;0,0118767
2338,2661;0,0122312
2339,2305;0,0128736
2340,1946;0,0137382
2341,1589;0,014595
2342,1230;0,0151102
2343,0874;0,0150913
2344,0515;0,0148221
2345,0159;0,0149916
2345,9800;0,0160448
2346,9443;0,0177215
2347,9084;0,0192993
2348,8728;0,0201186
2349,8369;0,0199245
2350,8013;0,0189352
2351,7654;0,0176915
2352,7297;0,0167452
2353,6938;0,0163463
2354,6582;0,0163885
2355,6223;0,016636
2356,5867;0,0169151
2357,5508;0,0171074
2358,5151;0,0171113
2359,4792;0,0168932
2360,4436;0,016531
2361,4077;0,0161364
2362,3721;0,0157302
2363,3362;0,0152233
2364,3005;0,0145232
2365,2646;0,0136397
2366,2290;0,0126882
2367,1931;0,0118069
2368,1575;0,0110822
2369,1216;0,0105348
2370,0859;0,0101465
2371,0500;0,00989152
2372,0144;0,0097541
2372,9785;0,00973717
2373,9429;0,00986293
2374,9070;0,010162
2375,8713;0,0106505
2376,8354;0,0113058
2377,7998;0,0120539
2378,7639;0,0127794
2379,7283;0,0133536
2380,6924;0,0136692
2381,6567;0,0136691
2382,6208;0,0133583
2383,5852;0,0127986
2384,5493;0,0120877
2385,5137;0,0113332
2386,4778;0,0106271
2387,4421;0,0100308
2388,4063;0,00957079
2389,3706;0,00924542
2390,3347;0,00903639
2391,2991;0,00891897
2392,2632;0,00886831
2393,2275;0,00886199
2394,1917;0,00888098
2395,1560;0,00891091
2396,1201;0,00894313
2397,0845;0,00897451
2398,0486;0,00900742
2399,0129;0,00904057
2399,9771;0,00906833
2400,9414;0,00908373
2401,9055;0,00908114
2402,8699;0,00906348
2403,8340;0,00904232
2404,7983;0,00903304
2405,7625;0,00904582
2406,7268;0,00907795
2407,6909;0,00911555
2408,6553;0,009142
2409,6194;0,00914729
2410,5837;0,0091357
2411,5479;0,00912242
2412,5122;0,00912412
2413,4763;0,00914862
2414,4407;0,00919081
2415,4048;0,00923614
2416,3691;0,00926927
2417,3333;0,00928225
2418,2976;0,00927743
2419,2617;0,00926505
2420,2261;0,00925716
2421,1902;0,00926127
2422,1545;0,00927941
2423,1187;0,00930817
2424,0830;0,00934135
2425,0471;0,00937246
2426,0115;0,00939651
2426,9756;0,00941101
2427,9399;0,00941644
2428,9041;0,00941617
2429,8684;0,00941544
2430,8325;0,00941936
2431,7969;0,00943051
2432,7610;0,00944734
2433,7253;0,00946457
2434,6895;0,00947614
2435,6538;0,00947915
2436,6179;0,0094768
2437,5823;0,00947775
2438,5464;0,00949193
2439,5107;0,00952468
2440,4749;0,00957302
2441,4392;0,00962636
2442,4033;0,00967172
2443,3677;0,00970015
2444,3318;0,00971065
2445,2961;0,00970936
2446,2603;0,00970503
2447,2246;0,00970413
2448,1887;0,00970845
2449,1531;0,00971616
2450,1172;0,00972476
2451,0815;0,00973321
2452,0457;0,00974202
2453,0100;0,00975167
2453,9741;0,00976125
2454,9385;0,00976886
2455,9026;0,00977347
2456,8669;0,00977675
2457,8311;0,00978298
2458,7954;0,00979664
2459,7595;0,00981905
2460,7239;0,00984632
2461,6880;0,00987037
2462,6523;0,00988287
2463,6165;0,00988002
2464,5808;0,00986549
2465,5449;0,00984955
2466,5093;0,00984481
2467,4734;0,00986031
2468,4377;0,00989727
2469,4019;0,00994835
2470,3662;0,0100009
2471,3303;0,0100425
2472,2947;0,010066
2473,2588;0,0100717
2474,2231;0,0100661
2475,1873;0,0100584
2476,1516;0,0100569
2477,1157;0,0100666
2478,0801;0,0100888
2479,0442;0,0101214
2480,0085;0,0101586
2480,9727;0,0101921
2481,9370;0,0102132
2482,9011;0,0102164
2483,8655;0,0102039
2484,8296;0,0101863
2485,7939;0,0101778
2486,7581;0,0101889
2487,7224;0,0102197
2488,6865;0,0102589
2489,6509;0,0102912
2490,6150;0,0103062
2491,5793;0,0103046
2492,5435;0,0102968
2493,5078;0,0102947
2494,4719;0,0103041
2495,4363;0,010322
2496,4004;0,0103402
2497,3647;0,0103514
2498,3289;0,0103532
2499,2932;0,0103481
2500,2573;0,0103397
2501,2217;0,0103311
2502,1858;0,0103244
2503,1501;0,0103225
2504,1143;0,0103289
2505,0786;0,0103456
2506,0427;0,0103707
2507,0071;0,0103986
2507,9712;0,0104224
2508,9355;0,0104378
2509,8997;0,0104447
2510,8640;0,0104456
2511,8281;0,0104435
2512,7925;0,01044
2513,7566;0,0104363
2514,7209;0,0104342
2515,6851;0,0104361
2516,6494;0,0104418
2517,6135;0,0104471
2518,5779;0,0104449
2519,5420;0,0104303
2520,5063;0,0104054
2521,4705;0,0103796
2522,4348;0,0103648
2523,3989;0,0103674
2524,3633;0,0103849
2525,3274;0,0104074
2526,2917;0,0104252
2527,2559;0,0104343
2528,2202;0,0104383
2529,1843;0,0104446
2530,1487;0,010459
2531,1128;0,0104829
2532,0771;0,0105134
2533,0413;0,0105455
2534,0056;0,0105734
2534,9697;0,0105909
2535,9341;0,0105931
2536,8982;0,0105786
2537,8625;0,0105528
2538,8267;0,0105279
2539,7910;0,0105184
2540,7551;0,0105335
2541,7195;0,0105703
2542,6836;0,0106143
2543,6479;0,0106462
2544,6121;0,0106518
2545,5764;0,0106294
2546,5405;0,0105898
2547,5049;0,0105491
2548,4690;0,0105197
2549,4333;0,0105039
2550,3975;0,0104949
2551,3618;0,0104819
2552,3259;0,0104582
2553,2903;0,0104254
2554,2544;0,0103937
2555,2188;0,010377
2556,1829;0,0103861
2557,1472;0,010423
2558,1113;0,0104788
2559,0757;0,0105363
2560,0398;0,0105779
2561,0042;0,0105926
2561,9683;0,010581
2562,9326;0,0105536
2563,8967;0,010524
2564,8611;0,0105007
2565,8252;0,0104841
2566,7896;0,0104689
2567,7537;0,0104514
2568,7180;0,0104338
2569,6821;0,0104244
2570,6465;0,0104307
2571,6106;0,0104532
2572,5750;0,0104841
2573,5391;0,0105115
2574,5034;0,0105263
2575,4675;0,0105274
2576,4319;0,0105206
2577,3960;0,0105133
2578,3604;0,0105106
2579,3245;0,0105136
2580,2888;0,010522
2581,2529;0,0105367
2582,2173;0,0105597
2583,1814;0,0105918
2584,1458;0,0106289
2585,1099;0,0106617
2586,0742;0,0106785
2587,0383;0,0106709
2588,0027;0,0106382
2588,9668;0,0105895
2589,9312;0,0105401
2590,8953;0,0105056
2591,8596;0,0104957
2592,8237;0,01051
2593,7881;0,0105386
2594,7522;0,010567
2595,7166;0,010582
2596,6807;0,0105773
2597,6450;0,0105555
2598,6091;0,0105263
2599,5735;0,0105023
2600,5376;0,0104941
2601,5020;0,0105069
2602,4661;0,0105389
2603,4304;0,010582
2604,3945;0,0106248
2605,3589;0,0106565
2606,3230;0,0106707
2607,2874;0,0106684
2608,2515;0,0106572
2609,2158;0,0106473
2610,1799;0,0106472
2611,1443;0,0106595
2612,1084;0,0106803
2613,0728;0,0107023
2614,0369;0,0107193
2615,0012;0,0107288
2615,9653;0,010733
2616,9297;0,0107358
2617,8938;0,0107408
2618,8582;0,0107499
2619,8223;0,010763
2620,7866;0,0107792
2621,7507;0,0107969
2622,7151;0,0108133
2623,6792;0,0108246
2624,6436;0,0108278
2625,6077;0,0108232
2626,5720;0,0108155
2627,5361;0,0108125
2628,5005;0,0108201
2629,4646;0,0108393
2630,4290;0,0108646
2631,3931;0,0108883
2632,3574;0,0109047
2633,3215;0,0109134
2634,2859;0,0109181
2635,2500;0,010923
2636,2144;0,01093
2637,1785;0,0109385
2638,1428;0,0109482
2639,1069;0,0109604
2640,0713;0,0109782
2641,0354;0,0110027
2641,9998;0,0110307
2642,9639;0,0110551
2643,9282;0,0110693
2644,8923;0,0110715
2645,8567;0,0110666
2646,8208;0,0110637
2647,7852;0,0110707
2648,7493;0,0110902
2649,7136;0,0111178
2650,6777;0,0111461
2651,6421;0,0111683
2652,6062;0,0111825
2653,5706;0,0111919
2654,5347;0,0112025
2655,4990;0,0112195
2656,4631;0,0112444
2657,4275;0,0112748
2658,3916;0,0113063
2659,3560;0,0113356
2660,3201;0,0113629
2661,2844;0,0113919
2662,2485;0,0114272
2663,2129;0,0114708
2664,1770;0,0115197
2665,1414;0,0115668
2666,1055;0,0116041
2667,0698;0,0116271
2668,0339;0,0116367
2668,9983;0,0116386
2669,9624;0,0116395
2670,9268;0,011645
2671,8909;0,011657
2672,8552;0,0116758
2673,8193;0,0117008
2674,7837;0,0117307
2675,7478;0,0117636
2676,7122;0,0117953
2677,6763;0,0118208
2678,6406;0,0118365
2679,6047;0,0118432
2680,5691;0,0118459
2681,5332;0,0118522
2682,4976;0,0118674
2683,4617;0,011892
2684,4260;0,0119217
2685,3901;0,0119502
2686,3545;0,0119729
2687,3186;0,0119888
2688,2830;0,0119996
2689,2471;0,0120086
2690,2114;0,0120183
2691,1755;0,0120308
2692,1399;0,0120476
2693,1040;0,0120698
2694,0684;0,0120972
2695,0325;0,0121281
2695,9968;0,0121594
2696,9609;0,0121882
2697,9253;0,0122137
2698,8894;0,0122373
2699,8538;0,0122616
2700,8179;0,0122886
2701,7822;0,0123183
2702,7463;0,0123496
2703,7107;0,0123803
2704,6748;0,0124089
2705,6392;0,0124344
2706,6033;0,0124557
2707,5676;0,0124724
2708,5317;0,0124848
2709,4961;0,0124945
2710,4602;0,0125045
2711,4246;0,012518
2712,3887;0,012537
2713,3530;0,0125617
2714,3171;0,012591
2715,2815;0,0126232
2716,2456;0,0126567
2717,2100;0,0126909
2718,1741;0,012726
2719,1384;0,0127623
2720,1025;0,0127998
2721,0669;0,0128371
2722,0310;0,0128716
2722,9954;0,0128994
2723,9595;0,0129176
2724,9238;0,0129261
2725,8879;0,012929
2726,8523;0,0129331
2727,8164;0,0129449
2728,7808;0,0129674
2729,7449;0,0129985
2730,7092;0,0130321
2731,6733;0,0130612
2732,6377;0,0130812
2733,6018;0,013091
2734,5662;0,0130935
2735,5303;0,0130928
2736,4946;0,0130937
2737,4587;0,0131
2738,4231;0,0131138
2739,3872;0,0131361
2740,3516;0,0131657
2741,3157;0,0132005
2742,2800;0,0132367
2743,2441;0,0132705
2744,2085;0,013298
2745,1726;0,0133164
2746,1370;0,0133249
2747,1011;0,0133254
2748,0654;0,0133225
2749,0295;0,0133226
2749,9939;0,0133309
2750,9580;0,0133502
2751,9224;0,0133796
2752,8865;0,0134159
2753,8508;0,0134551
2754,8149;0,0134939
2755,7793;0,0135293
2756,7434;0,0135588
2757,7078;0,0135806
2758,6719;0,0135943
2759,6362;0,0136029
2760,6003;0,0136119
2761,5647;0,0136276
2762,5288;0,0136533
2763,4932;0,0136879
2764,4573;0,0137268
2765,4216;0,013765
2766,3857;0,0138002
2767,3501;0,0138334
2768,3142;0,0138667
2769,2786;0,0139005
2770,2427;0,0139324
2771,2070;0,0139591
2772,1711;0,0139799
2773,1355;0,0139986
2774,0996;0,014022
2775,0640;0,0140564
2776,0281;0,0141028
2776,9924;0,0141561
2777,9565;0,0142075
2778,9209;0,0142497
2779,8850;0,0142808
2780,8494;0,0143058
2781,8135;0,0143325
2782,7778;0,0143674
2783,7419;0,0144119
2784,7063;0,0144619
2785,6704;0,0145115
2786,6348;0,0145569
2787,5989;0,0145988
2788,5632;0,0146413
2789,5273;0,0146888
2790,4917;0,0147428
2791,4558;0,0148012
2792,4202;0,0148596
2793,3843;0,0149143
2794,3486;0,0149646
2795,3127;0,0150123
2796,2771;0,0150613
2797,2412;0,0151151
2798,2056;0,0151762
2799,1697;0,0152458
2800,1340;0,0153233
2801,0981;0,0154066
2802,0625;0,0154927
2803,0266;0,0155776
2803,9910;0,015658
2804,9551;0,0157318
2805,9194;0,0157992
2806,8835;0,0158622
2807,8479;0,0159244
2808,8120;0,01599
2809,7764;0,0160633
2810,7405;0,0161474
2811,7048;0,0162433
2812,6689;0,0163492
2813,6333;0,0164614
2814,5974;0,0165756
2815,5618;0,016689
2816,5259;0,0168014
2817,4902;0,0169147
2818,4543;0,017031
2819,4187;0,017151
2820,3828;0,0172742
2821,3472;0,0173998
2822,3113;0,0175278
2823,2756;0,01766
2824,2397;0,0177988
2825,2041;0,0179457
2826,1682;0,0181013
2827,1326;0,018265
2828,0967;0,0184372
2829,0610;0,0186197
2830,0251;0,018816
2830,9895;0,0190291
2831,9536;0,0192602
2832,9180;0,0195071
2833,8821;0,0197652
2834,8464;0,0200297
2835,8105;0,0202987
2836,7749;0,0205748
2837,7390;0,0208659
2838,7034;0,0211834
2839,6675;0,0215409
2840,6318;0,0219524
2841,5959;0,0224305
2842,5603;0,0229842
2843,5244;0,0236134
2844,4888;0,0243026
2845,4529;0,0250162
2846,4172;0,0256995
2847,3813;0,0262882
2848,3457;0,0267252
2849,3098;0,0269768
2850,2742;0,0270431
2851,2383;0,0269555
2852,2026;0,0267642
2853,1667;0,0265217
2854,1311;0,0262692
2855,0952;0,026031
2856,0596;0,0258175
2857,0237;0,0256316
2857,9880;0,0254751
2858,9521;0,0253514
2859,9165;0,0252633
2860,8806;0,0252107
2861,8450;0,0251891
2862,8091;0,0251916
2863,7734;0,0252132
2864,7375;0,0252533
2865,7019;0,025316
2866,6660;0,0254051
2867,6304;0,0255189
2868,5945;0,0256471
2869,5588;0,0257727
2870,5229;0,0258783
2871,4873;0,0259534
2872,4514;0,0259974
2873,4158;0,0260184
2874,3799;0,0260283
2875,3442;0,0260372
2876,3083;0,0260512
2877,2727;0,026073
2878,2368;0,0261042
2879,2012;0,0261465
2880,1653;0,0262013
2881,1296;0,0262688
2882,0938;0,0263477
2883,0581;0,026436
2884,0222;0,0265334
2884,9866;0,0266408
2885,9507;0,0267599
2886,9150;0,0268897
2887,8792;0,0270257
2888,8435;0,0271608
2889,8076;0,0272888
2890,7720;0,027408
2891,7361;0,0275217
2892,7004;0,0276358
2893,6646;0,0277543
2894,6289;0,0278764
2895,5930;0,0279983
2896,5574;0,028116
2897,5215;0,0282297
2898,4858;0,0283433
2899,4500;0,0284614
2900,4143;0,028586
2901,3784;0,0287153
2902,3428;0,0288466
2903,3069;0,0289812
2904,2712;0,0291267
2905,2354;0,0292949
2906,1997;0,029498
2907,1638;0,0297446
2908,1282;0,0300395
2909,0923;0,0303857
2910,0566;0,030786
2911,0208;0,0312392
2911,9851;0,0317345
2912,9492;0,0322453
2913,9136;0,0327299
2914,8777;0,0331403
2915,8420;0,0334351
2916,8062;0,0335915
2917,7705;0,0336103
2918,7346;0,0335107
2919,6990;0,0333211
2920,6631;0,0330687
2921,6274;0,0327748
2922,5916;0,0324536
2923,5559;0,0321149
2924,5200;0,0317655
2925,4844;0,0314094
2926,4485;0,0310486
2927,4128;0,0306839
2928,3770;0,0303171
2929,3413;0,0299524
2930,3054;0,0295949
2931,2698;0,0292475
2932,2339;0,0289083
2933,1982;0,0285713
2934,1624;0,0282306
2935,1267;0,027885
2936,0908;0,0275399
2937,0552;0,0272041
2938,0193;0,0268844
2938,9836;0,0265807
2939,9478;0,0262864
2940,9121;0,0259934
2941,8762;0,0256974
2942,8406;0,0254014
2943,8047;0,0251145
2944,7690;0,0248467
2945,7332;0,0246045
2946,6975;0,0243888
2947,6616;0,0241958
2948,6260;0,0240204
2949,5901;0,0238585
2950,5544;0,0237073
2951,5186;0,023564
2952,4829;0,0234247
2953,4470;0,0232839
2954,4114;0,0231363
2955,3755;0,0229784
2956,3398;0,0228108
2957,3040;0,0226377
2958,2683;0,0224652
2959,2324;0,022298
2960,1968;0,0221371
2961,1609;0,0219785
2962,1252;0,0218153
2963,0894;0,0216405
2964,0537;0,0214508
2965,0178;0,0212474
2965,9822;0,0210361
2966,9463;0,0208245
2967,9106;0,020619
2968,8748;0,0204231
2969,8391;0,0202373
2970,8032;0,0200599
2971,7676;0,0198885
2972,7317;0,0197208
2973,6960;0,0195551
2974,6602;0,0193895
2975,6245;0,0192224
2976,5886;0,0190527
2977,5530;0,0188818
2978,5171;0,0187131
2979,4814;0,0185528
2980,4456;0,0184072
2981,4099;0,0182813
2982,3740;0,0181765
2983,3384;0,0180907
2984,3025;0,0180183
2985,2668;0,0179529
2986,2310;0,0178892
2987,1953;0,0178251
2988,1594;0,0177625
2989,1238;0,0177065
2990,0879;0,0176632
2991,0522;0,0176361
2992,0164;0,0176237
2992,9807;0,0176199
2993,9448;0,0176157
2994,9092;0,0176036
2995,8733;0,0175811
2996,8376;0,0175523
2997,8018;0,0175262
2998,7661;0,0175138
2999,7302;0,0175231
3000,6946;0,017556
3001,6587;0,017607
3002,6230;0,0176651
3003,5872;0,0177181
3004,5515;0,0177581
3005,5156;0,0177855
3006,4800;0,0178082
3007,4441;0,017837
3008,4084;0,0178791
3009,3726;0,0179338
3010,3369;0,0179928
3011,3010;0,0180449
3012,2654;0,0180824
3013,2295;0,0181042
3014,1938;0,0181153
3015,1580;0,0181222
3016,1223;0,01813
3017,0864;0,0181415
3018,0508;0,0181585
3019,0149;0,018184
3019,9792;0,0182211
3020,9434;0,0182707
3021,9077;0,0183296
3022,8718;0,0183919
3023,8362;0,0184534
3024,8003;0,0185158
3025,7646;0,018587
3026,7288;0,0186759
3027,6931;0,0187854
3028,6572;0,0189071
3029,6216;0,0190232
3030,5857;0,0191149
3031,5500;0,0191721
3032,5142;0,0191995
3033,4785;0,0192135
3034,4426;0,0192333
3035,4070;0,0192712
3036,3711;0,0193278
3037,3354;0,0193948
3038,2996;0,0194613
3039,2639;0,0195208
3040,2280;0,0195747
3041,1924;0,0196318
3042,1565;0,0197041
3043,1208;0,0198011
3044,0850;0,0199245
3045,0493;0,0200663
3046,0134;0,0202105
3046,9778;0,0203393
3047,9419;0,0204413
3048,9063;0,0205167
3049,8704;0,0205783
3050,8347;0,0206447
3051,7988;0,0207317
3052,7632;0,0208452
3053,7273;0,020979
3054,6917;0,0211193
3055,6558;0,0212512
3056,6201;0,0213652
3057,5842;0,0214605
3058,5486;0,0215444
3059,5127;0,0216288
3060,4771;0,0217248
3061,4412;0,0218377
3062,4055;0,0219638
3063,3696;0,0220905
3064,3340;0,0222011
3065,2981;0,0222827
3066,2625;0,0223334
3067,2266;0,0223647
3068,1909;0,0223963
3069,1550;0,0224472
3070,1194;0,0225273
3071,0835;0,0226339
3072,0479;0,0227555
3073,0120;0,0228783
3073,9763;0,0229935
3074,9404;0,0230995
3075,9048;0,0232012
3076,8689;0,0233048
3077,8333;0,0234134
3078,7974;0,0235252
3079,7617;0,0236345
3080,7258;0,0237341
3081,6902;0,0238194
3082,6543;0,02389
3083,6187;0,0239504
3084,5828;0,0240075
3085,5471;0,0240683
3086,5112;0,0241371
3087,4756;0,0242154
3088,4397;0,0243022
3089,4041;0,0243967
3090,3682;0,0244988
3091,3325;0,0246092
3092,2966;0,024727
3093,2610;0,0248491
3094,2251;0,0249708
3095,1895;0,0250883
3096,1536;0,0252014
3097,1179;0,0253128
3098,0820;0,0254252
3099,0464;0,0255376
3100,0105;0,0256453
3100,9749;0,0257417
3101,9390;0,0258238
3102,9033;0,0258947
3103,8674;0,0259626
3104,8318;0,0260368
3105,7959;0,0261237
3106,7603;0,0262255
3107,7244;0,0263408
3108,6887;0,0264677
3109,6528;0,0266044
3110,6172;0,0267486
3111,5813;0,0268957
3112,5457;0,027039
3113,5098;0,0271719
3114,4741;0,0272907
3115,4382;0,0273976
3116,4026;0,0274999
3117,3667;0,0276071
3118,3311;0,027726
3119,2952;0,027858
3120,2595;0,0279981
3121,2236;0,0281376
3122,1880;0,0282676
3123,1521;0,0283819
3124,1165;0,0284797
3125,0806;0,0285648
3126,0449;0,0286454
3127,0090;0,0287313
3127,9734;0,0288315
3128,9375;0,0289515
3129,9019;0,0290915
3130,8660;0,0292453
3131,8303;0,0294023
3132,7944;0,0295514
3133,7588;0,0296851
3134,7229;0,0298028
3135,6873;0,0299107
3136,6514;0,0300178
3137,6157;0,0301317
3138,5798;0,0302555
3139,5442;0,0303875
3140,5083;0,030524
3141,4727;0,0306628
3142,4368;0,0308049
3143,4011;0,030953
3144,3652;0,0311085
3145,3296;0,0312681
3146,2937;0,0314244
3147,2581;0,0315691
3148,2222;0,0316984
3149,1865;0,0318163
3150,1506;0,0319334
3151,1150;0,032061
3152,0791;0,0322057
3153,0435;0,0323655
3154,0076;0,0325321
3154,9719;0,0326963
3155,9360;0,032853
3156,9004;0,0330032
3157,8645;0,0331512
3158,8289;0,0333005
3159,7930;0,0334516
3160,7573;0,0336022
3161,7214;0,0337507
3162,6858;0,0338977
3163,6499;0,0340465
3164,6143;0,0342005
3165,5784;0,0343608
3166,5427;0,0345253
3167,5068;0,0346899
3168,4712;0,0348516
3169,4353;0,0348256
3170,3997;0,0349846
3171,3638;0,0351479
3172,3281;0,0353168
3173,2922;0,0354895
3174,2566;0,035662
3175,2207;0,03583
3176,1851;0,0359896
3177,1492;0,0361391
3178,1135;0,036279
3179,0776;0,0364125
3180,0420;0,0365442
3181,0061;0,0366787
3181,9705;0,0368189
3182,9346;0,0369646
3183,8989;0,037113
3184,8630;0,0372604
3185,8274;0,0374038
3186,7915;0,0375426
3187,7559;0,0376785
3188,7200;0,0378136
3189,6843;0,0379506
3190,6484;0,038092
3191,6128;0,0382411
3192,5769;0,0384011
3193,5413;0,038573
3194,5054;0,0387532
3195,4697;0,0389328
3196,4338;0,0391006
3197,3982;0,0392488
3198,3623;0,039378
3199,3267;0,0394979
3200,2908;0,0396219
3201,2551;0,0397595
3202,2192;0,0399108
3203,1836;0,0400672
3204,1477;0,0402172
3205,1121;0,0403542
3206,0762;0,040481
3207,0405;0,0406079
3208,0046;0,0407458
3208,9690;0,0408982
3209,9331;0,0410592
3210,8975;0,0412168
3211,8616;0,0413607
3212,8259;0,0414895
3213,7900;0,041611
3214,7544;0,0417374
3215,7185;0,0418772
3216,6829;0,0420301
3217,6470;0,0421874
3218,6113;0,0423379
3219,5754;0,0424748
3220,5398;0,0425996
3221,5039;0,0427205
3222,4683;0,0428475
3223,4324;0,0429864
3224,3967;0,0431367
3225,3608;0,043293
3226,3252;0,0434494
3227,2893;0,0436027
3228,2537;0,043753
3229,2178;0,0439023
3230,1821;0,0440507
3231,1462;0,0441952
3232,1106;0,0443307
3233,0747;0,0444534
3234,0391;0,0445651
3235,0032;0,0446733
3235,9675;0,0447895
3236,9316;0,0449232
3237,8960;0,0450783
3238,8601;0,04525
3239,8245;0,045428
3240,7886;0,0456006
3241,7529;0,0457602
3242,7170;0,0459067
3243,6814;0,0460458
3244,6455;0,0461853
3245,6099;0,0463305
3246,5740;0,0464808
3247,5383;0,0466311
3248,5024;0,046776
3249,4668;0,0469146
3250,4309;0,0470527
3251,3953;0,0471992
3252,3594;0,0473608
3253,3237;0,0475374
3254,2878;0,0477215
3255,2522;0,0479026
3256,2163;0,0480728
3257,1807;0,0482292
3258,1448;0,0483745
3259,1091;0,048514
3260,0732;0,0486541
3261,0376;0,0488005
3262,0017;0,0489575
3262,9661;0,0491255
3263,9302;0,0492999
3264,8945;0,0494721
3265,8586;0,0496335
3266,8230;0,0497806
3267,7871;0,0499189
3268,7515;0,050059
3269,7156;0,0502099
3270,6799;0,0503715
3271,6440;0,0505322
3272,6084;0,0506746
3273,5725;0,0507846
3274,5369;0,0508594
3275,5010;0,0509083
3276,4653;0,0509472
3277,4294;0,0509891
3278,3938;0,0510376
3279,3579;0,0510877
3280,3223;0,0511311
3281,2864;0,0511636
3282,2507;0,0511889
3283,2148;0,0512175
3284,1792;0,0512598
3285,1433;0,0513193
3286,1077;0,0513897
3287,0718;0,0514565
3288,0361;0,0515044
3289,0002;0,051524
3289,9646;0,0515162
3290,9287;0,0514911
3291,8931;0,0514634
3292,8572;0,0514458
3293,8215;0,0514456
3294,7856;0,0514627
3295,7500;0,0514901
3296,7141;0,0515178
3297,6785;0,0515352
3298,6426;0,0515348
3299,6069;0,0515141
3300,5710;0,0514761
3301,5354;0,0514288
3302,4995;0,0513816
3303,4639;0,0513438
3304,4280;0,0513213
3305,3923;0,0513166
3306,3564;0,0513288
3307,3208;0,0513534
3308,2849;0,0513833
3309,2493;0,0514096
3310,2134;0,051424
3311,1777;0,0514219
3312,1418;0,0514053
3313,1062;0,0513826
3314,0703;0,0513661
3315,0347;0,0513669
3315,9988;0,0513907
3316,9631;0,0514369
3317,9272;0,0515013
3318,8916;0,0515803
3319,8557;0,0516724
3320,8201;0,051777
3321,7842;0,0518913
3322,7485;0,0520073
3323,7126;0,0521138
3324,6770;0,0522008
3325,6411;0,052264
3326,6055;0,0523068
3327,5696;0,0523376
3328,5339;0,0523669
3329,4980;0,0524027
3330,4624;0,0524489
3331,4265;0,0525047
3332,3909;0,0525644
3333,3550;0,0526173
3334,3193;0,0526499
3335,2834;0,0526498
3336,2478;0,0526112
3337,2119;0,0525379
3338,1763;0,0524418
3339,1404;0,052337
3340,1047;0,0522338
3341,0688;0,0521352
3342,0332;0,0520384
3342,9973;0,051938
3343,9617;0,0518305
3344,9258;0,0517152
3345,8901;0,0515938
3346,8542;0,0514688
3347,8186;0,0513419
3348,7827;0,0512143
3349,7471;0,0510867
3350,7112;0,0509596
3351,6755;0,0508332
3352,6396;0,0507071
3353,6040;0,0505813
3354,5681;0,0504557
3355,5325;0,0503303
3356,4966;0,0502046
3357,4609;0,0500772
3358,4250;0,0499456
3359,3894;0,0498087
3360,3535;0,0496683
3361,3179;0,0495287
3362,2820;0,0493948
3363,2463;0,0492677
3364,2104;0,0491421
3365,1748;0,0490077
3366,1389;0,0488536
3367,1033;0,0486746
3368,0674;0,0484747
3369,0317;0,0482652
3369,9958;0,0480603
3370,9602;0,0478712
3371,9243;0,0477025
3372,8887;0,047553
3373,8528;0,0474168
3374,8171;0,0472868
3375,7813;0,0471574
3376,7456;0,0470264
3377,7097;0,0468958
3378,6741;0,0467701
3379,6382;0,0466522
3380,6025;0,0465394
3381,5667;0,0464221
3382,5310;0,0462869
3383,4951;0,0461254
3384,4595;0,0459415
3385,4236;0,0457532
3386,3879;0,0455859
3387,3521;0,0454595
3388,3164;0,0453779
3389,2805;0,0453271
3390,2449;0,0452823
3391,2090;0,0452185
3392,1733;0,0451216
3393,1375;0,0449914
3394,1018;0,0448374
3395,0659;0,0446709
3396,0303;0,0444999
3396,9944;0,0443291
3397,9587;0,0441618
3398,9229;0,0440009
3399,8872;0,0438463
3400,8513;0,0436934
3401,8157;0,0435341
3402,7798;0,0433611
3403,7441;0,0431732
3404,7083;0,0429772
3405,6726;0,0427847
3406,6367;0,0426064
3407,6011;0,0424468
3408,5652;0,0423026
3409,5295;0,0421638
3410,4937;0,0420172
3411,4580;0,0418511
3412,4221;0,0416604
3413,3865;0,041451
3414,3506;0,0412393
3415,3149;0,041047
3416,2791;0,0408914
3417,2434;0,0407734
3418,2075;0,0406736
3419,1719;0,0405584
3420,1360;0,0403956
3421,1003;0,0401714
3422,0645;0,0398966
3423,0288;0,0395994
3423,9929;0,0393094
3424,9573;0,039046
3425,9214;0,0388159
3426,8857;0,0386158
3427,8499;0,0384369
3428,8142;0,0382672
3429,7783;0,0380937
3430,7427;0,0379039
3431,7068;0,0376903
3432,6711;0,0374543
3433,6353;0,0372068
3434,5996;0,0369649
3435,5637;0,0367441
3436,5281;0,0365517
3437,4922;0,0363849
3438,4565;0,0362347
3439,4207;0,036093
3440,3850;0,0359578
3441,3491;0,0358326
3442,3135;0,0357204
3443,2776;0,0356143
3444,2419;0,035494
3445,2061;0,0353301
3446,1704;0,035099
3447,1345;0,0347988
3448,0989;0,0344561
3449,0630;0,0341133
3450,0273;0,0338069
3450,9915;0,033552
3451,9558;0,0333417
3452,9199;0,0331579
3453,8843;0,0329842
3454,8484;0,032815
3455,8127;0,0326554
3456,7769;0,0325132
3457,7412;0,0323889
3458,7053;0,0322702
3459,6697;0,0321362
3460,6338;0,0319677
3461,5981;0,0317579
3462,5623;0,031516
3463,5266;0,031261
3464,4907;0,0310096
3465,4551;0,0307679
3466,4192;0,0305318
3467,3835;0,0302947
3468,3477;0,0300567
3469,3120;0,0298259
3470,2761;0,0296116
3471,2405;0,0294148
3472,2046;0,0292259
3473,1689;0,0290318
3474,1331;0,0288298
3475,0974;0,0286356
3476,0615;0,0284762
3477,0259;0,0283703
3477,9900;0,0283109
3478,9543;0,0282614
3479,9185;0,0281712
3480,8828;0,0280041
3481,8469;0,0277618
3482,8113;0,0274843
3483,7754;0,0272221
3484,7397;0,0270041
3485,7039;0,0268236
3486,6682;0,0266493
3487,6323;0,0264502
3488,5967;0,0262196
3489,5608;0,0259813
3490,5251;0,0257724
3491,4893;0,0256176
3492,4536;0,0255124
3493,4177;0,0254258
3494,3821;0,0253205
3495,3462;0,0251809
3496,3105;0,0250282
3497,2747;0,0249101
3498,2390;0,0248667
3499,2031;0,0248983
3500,1675;0,0249535
3501,1316;0,0249461
3502,0959;0,0248001
3503,0601;0,0245039
3504,0244;0,0241266
3504,9885;0,023774
3505,9529;0,0235198
3506,9170;0,0233686
3507,8813;0,0232637
3508,8455;0,0231252
3509,8098;0,0228969
3510,7739;0,0225799
3511,7383;0,0222259
3512,7024;0,0218982
3513,6667;0,0216359
3514,6309;0,0214437
3515,5952;0,0213062
3516,5593;0,0212091
3517,5237;0,0211526
3518,4878;0,0211488
3519,4521;0,0212068
3520,4163;0,0213159
3521,3806;0,0214396
3522,3447;0,0215253
3523,3091;0,0215267
3524,2732;0,0214222
3525,2375;0,0212152
3526,2017;0,0209204
3527,1660;0,0205515
3528,1301;0,0201254
3529,0945;0,0196748
3530,0586;0,0192528
3531,0229;0,0189149
3531,9871;0,0186948
3532,9514;0,0185863
3533,9155;0,0185417
3534,8799;0,0184875
3535,8440;0,0183571
3536,8083;0,0181302
3537,7725;0,0178509
3538,7368;0,0176069
3539,7009;0,017485
3540,6653;0,0175325
3541,6294;0,0177376
3542,5938;0,0180237
3543,5579;0,0182587
3544,5222;0,0183013
3545,4863;0,0180805
3546,4507;0,0176506
3547,4148;0,0171549
3548,3792;0,0167263
3549,3433;0,016419
3550,3076;0,0162039
3551,2717;0,0160064
3552,2361;0,0157601
3553,2002;0,0154551
3554,1646;0,0151442
3555,1287;0,0149011
3556,0930;0,0147685
3557,0571;0,0147399
3558,0215;0,0147754
3558,9856;0,0148346
3559,9500;0,0149085
3560,9141;0,015028
3561,8784;0,015241
3562,8425;0,01557
3563,8069;0,0159673
3564,7710;0,0162717
3565,7354;0,0162237
3566,6995;0,015644
3567,6638;0,0146665
3568,6279;0,0136675
3569,5923;0,0129348
3570,5564;0,0125136
3571,5208;0,0123036
3572,4849;0,01219
3573,4492;0,0121037
3574,4133;0,0120234
3575,3777;0,0119537
3576,3418;0,0119004
3577,3062;0,0118565
3578,2703;0,0118073
3579,2346;0,0117493
3580,1987;0,0117043
3581,1631;0,0117123
3582,1272;0,0118081
3583,0916;0,0120005
3584,0557;0,0122576
3585,0200;0,0124873
3585,9841;0,0125374
3586,9485;0,0122959
3587,9126;0,0118521
3588,8770;0,0114685
3589,8411;0,0113413
3590,8054;0,011471
3591,7695;0,0117301
3592,7339;0,0119664
3593,6980;0,0120656
3594,6624;0,0119922
3595,6265;0,0118001
3596,5908;0,0115788
3597,5549;0,0113711
3598,5193;0,0111474
3599,4834;0,0108533
3600,4478;0,0104806
3601,4119;0,010093
3602,3762;0,00977923
3603,3403;0,00958148
3604,3047;0,00946778
3605,2688;0,00934899
3606,2332;0,00911453
3607,1973;0,00868711
3608,1616;0,00808964
3609,1257;0,00746022
3610,0901;0,00697252
3611,0542;0,00673287
3612,0186;0,00674075
3612,9827;0,00691467
3613,9470;0,00714277
3614,9111;0,00732691
3615,8755;0,00740408
3616,8396;0,00734636
3617,8040;0,00715727
3618,7681;0,00688802
3619,7324;0,00665851
3620,6965;0,00661128
3621,6609;0,00679915
3622,6250;0,00713683
3623,5894;0,00746891
3624,5535;0,00766586
3625,5178;0,0076662
3626,4819;0,00744623
3627,4463;0,00696746
3628,4104;0,006241
3629,3748;0,00548145
3630,3389;0,00497554
3631,3032;0,00477009
3632,2673;0,00468198
3633,2317;0,00451966
3634,1958;0,00421433
3635,1602;0,0038183
3636,1243;0,00343357
3637,0886;0,00313251
3638,0527;0,00292196
3639,0171;0,00276446
3639,9812;0,0026248
3640,9456;0,00249792
3641,9097;0,00240037
3642,8740;0,00234272
3643,8381;0,00231627
3644,8025;0,00230391
3645,7666;0,0022809
3646,7310;0,00215094
3647,6951;0,00166505
3648,6594;0,000630928
3649,6235;-0,000609348
3650,5879;-0,00141904
3651,5520;-0,00160777
3652,5164;-0,00144438
3653,4805;-0,00125602
3654,4448;-0,00121779
3655,4089;-0,00133741
3656,3733;-0,00151236
3657,3374;-0,00161838
3658,3018;-0,00160398
3659,2659;-0,00151924
3660,2302;-0,0014515
3661,1943;-0,00144288
3662,1587;-0,00146629
3663,1228;-0,00146782
3664,0872;-0,00142894
3665,0513;-0,00138368
3666,0156;-0,00138525
3666,9797;-0,00146155
3667,9441;-0,00160824
3668,9082;-0,00180245
3669,8726;-0,0019905
3670,8367;-0,00209831
3671,8010;-0,00210177
3672,7651;-0,00204504
3673,7295;-0,00199133
3674,6936;-0,00199468
3675,6580;-0,00206293
3676,6221;-0,00210161
3677,5864;-0,00199857
3678,5505;-0,00176532
3679,5149;-0,00150094
3680,4790;-0,00127357
3681,4434;-0,00108332
3682,4075;-0,00090674
3683,3718;-0,000750148
3684,3359;-0,000655109
3685,3003;-0,00065483
3686,2644;-0,00072801
3687,2288;-0,00080374
3688,1929;-0,000821893
3689,1572;-0,000763965
3690,1213;-0,000604736
3691,0857;-0,000313556
3692,0498;7,95859E-05
3693,0142;0,000495683
3693,9783;0,000870051
3694,9426;0,00117697
3695,9067;0,00141297
3696,8711;0,0015751
3697,8352;0,00165596
3698,7996;0,00165316
3699,7637;0,0015799
3700,7280;0,00146968
3701,6921;0,0013751
3702,6565;0,00135227
3703,6206;0,00142621
3704,5850;0,00156737
3705,5491;0,0017099
3706,5134;0,00179031
3707,4775;0,00176248
3708,4419;0,00156927
3709,4060;0,00110892
3710,3704;0,000307645
3711,3345;-0,000685138
3712,2988;-0,00149199
3713,2629;-0,00182444
3714,2273;-0,00167904
3715,1914;-0,0012241
3716,1558;-0,000627418
3717,1199;1,98035E-05
3718,0842;0,000697133
3719,0483;0,00141502
3720,0127;0,00217506
3720,9768;0,00294793
3721,9412;0,00367061
3722,9053;0,00425799
3723,8696;0,00462742
3724,8337;0,00473639
3725,7981;0,00460996
3726,7622;0,00432485
3727,7266;0,00396302
3728,6907;0,00358872
3729,6550;0,00326598
3730,6191;0,00307791
3731,5835;0,00309874
3732,5476;0,00329889
3733,5120;0,00344898
3734,4761;0,00321655
3735,4404;0,00251586
3736,4045;0,00166269
3737,3689;0,00102467
3738,3330;0,000678748
3739,2974;0,000448304
3740,2615;0,000105907
3741,2258;-0,000484163
3742,1899;-0,00131346
3743,1543;-0,00223348
3744,1184;-0,00299723
3745,0828;-0,00337663
3746,0469;-0,00334256
3747,0112;-0,00309785
3747,9753;-0,00291287
3748,9397;-0,002984
3749,9038;-0,00337867
3750,8682;-0,00395143
3751,8323;-0,00434413
3752,7966;-0,0042972
3753,7607;-0,0038864
3754,7251;-0,00337194
3755,6892;-0,00297574
3756,6536;-0,00280581
3757,6177;-0,00286791
3758,5820;-0,00308082
3759,5461;-0,00330213
3760,5105;-0,00340506
3761,4746;-0,00335449
3762,4390;-0,0032047
3763,4031;-0,00304335
3764,3674;-0,00294478
3765,3315;-0,00295023
3766,2959;-0,0030647
3767,2600;-0,00326372
3768,2244;-0,00350645
3769,1885;-0,00374524
3770,1528;-0,00392674
3771,1169;-0,00400071
3772,0813;-0,00394542
3773,0454;-0,00378743
3774,0098;-0,00358925
3774,9739;-0,00341587
3775,9382;-0,00330948
3776,9023;-0,00328519
3777,8667;-0,00333398
3778,8308;-0,00341565
3779,7952;-0,00346379
3780,7593;-0,00342677
3781,7236;-0,00330877
3782,6877;-0,00316621
3783,6521;-0,0030712
3784,6162;-0,00307283
3785,5806;-0,00317158
3786,5447;-0,00331924
3787,5090;-0,00344662
3788,4731;-0,00350259
3789,4375;-0,00347748
3790,4016;-0,00339811
3791,3660;-0,00330246
3792,3301;-0,00321276
3793,2944;-0,00312521
3794,2585;-0,00302345
3795,2229;-0,00290613
3796,1870;-0,00280596
3797,1514;-0,00278323
3798,1155;-0,00289733
3799,0798;-0,00317332
3800,0439;-0,00357512
3801,0083;-0,00399483
3801,9724;-0,00429497
3802,9368;-0,00441265
3803,9009;-0,00441419
3804,8652;-0,00442352
3805,8293;-0,00450513
3806,7937;-0,00460416
3807,7578;-0,00458481
3808,7222;-0,00435538
3809,6863;-0,00396977
3810,6506;-0,00359254
3811,6147;-0,00337565
3812,5791;-0,00336711
3813,5432;-0,00349897
3814,5076;-0,00364089
3815,4717;-0,00368256
3816,4360;-0,00360008
3817,4001;-0,00346896
3818,3645;-0,00341333
3819,3286;-0,00352218
3820,2930;-0,00377131
3821,2571;-0,00400304
3822,2214;-0,0040325
3823,1855;-0,0038103
3824,1499;-0,00345174
3825,1140;-0,00312634
3826,0784;-0,00295018
3827,0425;-0,00294781
3828,0068;-0,00306922
3828,9709;-0,00323348
3829,9353;-0,00337358
3830,8994;-0,00346043
3831,8638;-0,00349938
3832,8279;-0,00351007
3833,7922;-0,00350547
3834,7563;-0,0034823
3835,7207;-0,00342857
3836,6848;-0,00334359
3837,6492;-0,00324864
3838,6133;-0,00316833
3839,5776;-0,0031115
3840,5417;-0,00308477
3841,5061;-0,00310742
3842,4702;-0,00318865
3843,4346;-0,00329346
3844,3987;-0,00334463
3845,3630;-0,00327219
3846,3271;-0,00307219
3847,2915;-0,0028229
3848,2556;-0,00264683
3849,2200;-0,00265117
3850,1841;-0,0028889
3851,1484;-0,00336899
3852,1125;-0,0040824
3853,0769;-0,0048864
3854,0410;-0,00536761
3855,0054;-0,00521129
3855,9695;-0,00456827
3856,9338;-0,00380685
3857,8979;-0,00318987
3858,8623;-0,00279758
3859,8264;-0,00258434
3860,7908;-0,00246628
3861,7549;-0,0023978
3862,7192;-0,00239375
3863,6833;-0,00247718
3864,6477;-0,00262102
3865,6118;-0,00276063
3866,5762;-0,00284108
3867,5403;-0,00283963
3868,5046;-0,00277118
3869,4688;-0,00269157
3870,4331;-0,00267719
3871,3972;-0,002772
3872,3616;-0,00295037
3873,3257;-0,00313832
3874,2900;-0,00326448
3875,2542;-0,00329015
3876,2185;-0,00320698
3877,1826;-0,00302437
3878,1470;-0,00276687
3879,1111;-0,00248398
3880,0754;-0,00225054
3881,0396;-0,00214175
3882,0039;-0,00220292
3882,9680;-0,00243693
3883,9324;-0,00279828
3884,8965;-0,00318762
3885,8608;-0,00347594
3886,8250;-0,00357085
3887,7893;-0,0034719
3888,7534;-0,00326058
3889,7178;-0,00304673
3890,6819;-0,00291588
3891,6462;-0,00288442
3892,6104;-0,0028845
3893,5747;-0,00282566
3894,5388;-0,00267946
3895,5032;-0,00248308
3896,4673;-0,00228272
3897,4316;-0,00209877
3898,3958;-0,00193551
3899,3601;-0,00180344
3900,3242;-0,00172786
3901,2886;-0,00174714
3902,2527;-0,00190583
3903,2170;-0,00222387
3904,1812;-0,00265533
3905,1455;-0,00309759
3906,1096;-0,00345793
3907,0740;-0,00370189
3908,0381;-0,00384106
3909,0024;-0,00389499
3909,9666;-0,00386875
3910,9309;-0,00375536
3911,8950;-0,00355146
3912,8594;-0,003273
3913,8235;-0,00296359
3914,7878;-0,00269324
3915,7520;-0,00254143
3916,7163;-0,00255562
3917,6804;-0,0027027
3918,6448;-0,00287045
3919,6089;-0,00294024
3920,5732;-0,00286725
3921,5374;-0,00269952
3922,5017;-0,00254097
3923,4658;-0,00248802
3924,4302;-0,00256596
3925,3943;-0,00270657
3926,3586;-0,0027968
3927,3228;-0,00275909
3928,2871;-0,002598
3929,2512;-0,00239679
3930,2156;-0,00227983
3931,1797;-0,00234832
3932,1440;-0,00261288
3933,1082;-0,00298214
3934,0725;-0,00332661
3935,0366;-0,00355302
3936,0010;-0,00362858
3936,9651;-0,00356372
3937,9294;-0,00338998
3938,8936;-0,00315102
3939,8579;-0,00290234
3940,8220;-0,00270456
3941,7864;-0,00260029
3942,7505;-0,0025864
3943,7148;-0,00261197
3944,6790;-0,0026155
3945,6433;-0,00257094
3946,6074;-0,00250808
3947,5718;-0,0024965
3948,5359;-0,00260136
3949,5002;-0,0028342
3950,4644;-0,00313692
3951,4287;-0,00341763
3952,3928;-0,00360618
3953,3572;-0,00368349
3954,3213;-0,00367358
3955,2856;-0,00361649
3956,2498;-0,00354335
3957,2141;-0,00346733
3958,1782;-0,00339253
3959,1426;-0,00332961
3960,1067;-0,00330224
3961,0710;-0,00333617
3962,0352;-0,00343852
3962,9995;-0,00358516
3963,9636;-0,00372928
3964,9280;-0,00382497
3965,8921;-0,00385041
3966,8564;-0,00381506
3967,8206;-0,00374969
3968,7849;-0,00368648
3969,7490;-0,00364233
3970,7134;-0,00361547
3971,6775;-0,00359621
3972,6418;-0,00358124
3973,6060;-0,0035796
3974,5703;-0,00360575
3975,5344;-0,00366598
3976,4988;-0,00375012
3977,4629;-0,00383588
3978,4272;-0,00390256
3979,3914;-0,003944
3980,3557;-0,00397162
3981,3198;-0,00400518
3982,2842;-0,00405679
3983,2483;-0,00411919
3984,2126;-0,00416709
3985,1768;-0,00417145
3986,1411;-0,0041175
3987,1052;-0,00401516
3988,0696;-0,00389612
3989,0337;-0,00379851
3989,9980;-0,00374957
3990,9622;-0,00375509
3991,9265;-0,00380191
3992,8906;-0,00386971
3993,8550;-0,00394274
3994,8191;-0,00401405
3995,7834;-0,00408167
3996,7476;-0,00414226
3997,7119;-0,00418828
3998,6760;-0,00421073
3999,6404;-0,00420466
4000,6045;-0,00389359

##### Extended Information
[Comments]
Sample name
Comment
Username
Division
Organization;UNIVERSIDAD INDUSTRIAL DE SANTANDER

[Detailed Information]
Creation date;28/02/2025 4:19 p.m.

Data array type;Linear data array
Horizontal axis;Wavenumber [cm-1]
Vertical axis;Abs
Start;399,193 cm-1
End;4000,6 cm-1
Data interval;0,964233 cm-1
Data points;3736    

[Measurement Information]
Model name;FT/IR-4X1typeA
Serial No.;A035162111

Accessory;ATR PRO 4X
Accessory S/N;A021162126
Incident angle;45 deg

Measurement date;28/02/2025 4:19 p.m.

Light source;Standard
Detector;TGS
Accumulation;40
Resolution;4 cm-1
Zero filling;On
Apodization;Cosine
Gain;Auto (8)
Aperture;Auto (7 mm)
Scan speed;Auto (2 mm/sec)
Filter;Auto (12800 Hz)

