TITLE;
DATA TYPE;INFRARED SPECTRUM
ORIGIN;JASCO
OWNER;
DATE;25/02/28
TIME;16:39:14
SPECTROMETER/DATA SYSTEM;
LOCALE;9226
RESOLUTION;
DELTAX;0,964233
XUNITS;1/CM
YUNITS;ABSORBANCE
FIRSTX;  399,1927
LASTX; 4000,6047
NPOINTS;    3736
FIRSTY;     0,21737
MAXY;     0,24208
MINY;    -0,01360
XYDATA
399,1927;0,217365
400,1569;0,213036
401,1211;0,209545
402,0854;0,206945
403,0496;0,20499
404,0138;0,203399
404,9781;0,201952
405,9423;0,200535
406,9065;0,199157
407,8708;0,197909
408,8350;0,196895
409,7992;0,196193
410,7635;0,19586
411,7277;0,195967
412,6919;0,196618
413,6562;0,197931
414,6204;0,199984
415,5846;0,202741
416,5489;0,205897
417,5131;0,208678
418,4773;0,209971
419,4416;0,209256
420,4058;0,207348
421,3700;0,205558
422,3343;0,204543
423,2985;0,204218
424,2627;0,204148
425,2270;0,203896
426,1912;0,203236
427,1554;0,202228
428,1197;0,201115
429,0839;0,200155
430,0481;0,199497
431,0124;0,199151
431,9766;0,199021
432,9408;0,198961
433,9051;0,198821
434,8693;0,198501
435,8335;0,197989
436,7978;0,197376
437,7620;0,196821
438,7262;0,196476
439,6905;0,196406
440,6547;0,196545
441,6189;0,196693
442,5832;0,196577
443,5474;0,195982
444,5116;0,194894
445,4759;0,193517
446,4401;0,192171
447,4043;0,19112
448,3686;0,190469
449,3328;0,190136
450,2970;0,189912
451,2613;0,18958
452,2255;0,189037
453,1897;0,188345
454,1540;0,187676
455,1182;0,187201
456,0824;0,186977
457,0467;0,186887
458,0109;0,186662
458,9751;0,186046
459,9394;0,184968
460,9036;0,183578
461,8678;0,182152
462,8321;0,180993
463,7963;0,180367
464,7605;0,180422
465,7248;0,181103
466,6890;0,182133
467,6532;0,183113
468,6175;0,183684
469,5817;0,18365
470,5459;0,183033
471,5102;0,182051
472,4744;0,181031
473,4386;0,18025
474,4029;0,179805
475,3671;0,179629
476,3313;0,179602
477,2956;0,179647
478,2598;0,179768
479,2240;0,180012
480,1883;0,18041
481,1525;0,180926
482,1167;0,181442
483,0810;0,181808
484,0452;0,181923
485,0094;0,181816
485,9737;0,181644
486,9379;0,181615
487,9021;0,181875
488,8664;0,182453
489,8306;0,183246
490,7948;0,184063
491,7591;0,184702
492,7233;0,185036
493,6875;0,185067
494,6518;0,184911
495,6160;0,184734
496,5802;0,184676
497,5445;0,184816
498,5087;0,185158
499,4729;0,185644
500,4372;0,186178
501,4014;0,186648
502,3656;0,186972
503,3299;0,187131
504,2941;0,187174
505,2583;0,18719
506,2226;0,187265
507,1868;0,187445
508,1510;0,18772
509,1153;0,188041
510,0795;0,188358
511,0437;0,188668
512,0080;0,189019
512,9722;0,189489
513,9365;0,190132
514,9007;0,190944
515,8649;0,191837
516,8292;0,192668
517,7934;0,193294
518,7576;0,193643
519,7219;0,193748
520,6861;0,193709
521,6503;0,19363
522,6146;0,193578
523,5788;0,193571
524,5430;0,193587
525,5073;0,19358
526,4715;0,193497
527,4357;0,19331
528,4000;0,193028
529,3642;0,192695
530,3284;0,192369
531,2927;0,192097
532,2569;0,191898
533,2211;0,191751
534,1854;0,191607
535,1496;0,191415
536,1138;0,191149
537,0781;0,190825
538,0423;0,19049
539,0065;0,190203
539,9708;0,190017
540,9350;0,189959
541,8992;0,190035
542,8635;0,190227
543,8277;0,190492
544,7919;0,190764
545,7562;0,190964
546,7204;0,191032
547,6846;0,190958
548,6489;0,190804
549,6131;0,190687
550,5773;0,190725
551,5416;0,190979
552,5058;0,191417
553,4700;0,191928
554,4343;0,192366
555,3985;0,192608
556,3627;0,192593
557,3270;0,192324
558,2912;0,19184
559,2554;0,191193
560,2197;0,190435
561,1839;0,189622
562,1481;0,18882
563,1124;0,188092
564,0766;0,187479
565,0408;0,186983
566,0051;0,186568
566,9693;0,186189
567,9335;0,185818
568,8978;0,185468
569,8620;0,185176
570,8262;0,184984
571,7905;0,184919
572,7547;0,184981
573,7189;0,185157
574,6832;0,185415
575,6474;0,185708
576,6116;0,185972
577,5759;0,186145
578,5401;0,186183
579,5043;0,18608
580,4686;0,18586
581,4328;0,18556
582,3970;0,185207
583,3613;0,184815
584,3255;0,184404
585,2897;0,184026
586,2540;0,183762
587,2182;0,183687
588,1824;0,183819
589,1467;0,184083
590,1109;0,184331
591,0751;0,184407
592,0394;0,184234
593,0036;0,183855
593,9678;0,183396
594,9321;0,182977
595,8963;0,182638
596,8605;0,18233
597,8248;0,181965
598,7890;0,181481
599,7532;0,18089
600,7175;0,180266
601,6817;0,179693
602,6459;0,179211
603,6102;0,178807
604,5744;0,178433
605,5386;0,17804
606,5029;0,177591
607,4671;0,177062
608,4313;0,176425
609,3956;0,17567
610,3598;0,174837
611,3240;0,174047
612,2883;0,173472
613,2525;0,173254
614,2167;0,1734
615,1810;0,173715
616,1452;0,173836
617,1094;0,173389
618,0737;0,172198
619,0379;0,170397
620,0021;0,168354
620,9664;0,166466
621,9306;0,16498
622,8948;0,163928
623,8591;0,163179
624,8233;0,162458
625,7875;0,161804
626,7518;0,161185
627,7160;0,160645
628,6802;0,160224
629,6445;0,159925
630,6087;0,159697
631,5729;0,159467
632,5372;0,159172
633,5014;0,158791
634,4656;0,158346
635,4299;0,157895
636,3941;0,157497
637,3583;0,157188
638,3226;0,156965
639,2868;0,156794
640,2510;0,156632
641,2153;0,156456
642,1795;0,156275
643,1437;0,156123
644,1080;0,156027
645,0722;0,155981
646,0364;0,155933
647,0007;0,155818
647,9649;0,155586
648,9291;0,155242
649,8934;0,154838
650,8576;0,154451
651,8218;0,154144
652,7861;0,153956
653,7503;0,153895
654,7145;0,153948
655,6788;0,154074
656,6430;0,154216
657,6072;0,154327
658,5715;0,154388
659,5357;0,154393
660,4999;0,154295
661,4642;0,153946
662,4284;0,153101
663,3926;0,151503
664,3569;0,149091
665,3211;0,146322
666,2853;0,144328
667,2496;0,144329
668,2138;0,146081
669,1780;0,14777
670,1423;0,148474
671,1065;0,148449
672,0707;0,147797
673,0350;0,146469
673,9992;0,144638
674,9634;0,142677
675,9277;0,140906
676,8919;0,139415
677,8561;0,138094
678,8204;0,136804
679,7846;0,135494
680,7488;0,134209
681,7131;0,133028
682,6773;0,131992
683,6415;0,131097
684,6058;0,130312
685,5700;0,129608
686,5342;0,128954
687,4985;0,128323
688,4627;0,127707
689,4269;0,12709
690,3912;0,126479
691,3554;0,125895
692,3196;0,125346
693,2839;0,124822
694,2481;0,124295
695,2123;0,123744
696,1766;0,12317
697,1408;0,122592
698,1050;0,122029
699,0693;0,121484
700,0335;0,120948
700,9977;0,120406
701,9620;0,119858
702,9262;0,119317
703,8904;0,118775
704,8547;0,118253
705,8189;0,117747
706,7831;0,117231
707,7474;0,11667
708,7116;0,11604
709,6758;0,115342
710,6401;0,114592
711,6043;0,113819
712,5685;0,113052
713,5328;0,112332
714,4970;0,111713
715,4612;0,109467
716,4255;0,10956
717,3897;0,109908
718,3539;0,110245
719,3182;0,110206
720,2824;0,109508
721,2466;0,108126
722,2109;0,106313
723,1751;0,104459
724,1393;0,102883
725,1036;0,101712
726,0678;0,100889
727,0320;0,100254
727,9963;0,09966
728,9605;0,0990272
729,9247;0,0983498
730,8890;0,0976538
731,8532;0,0969612
732,8174;0,09628
733,7817;0,0956162
734,7459;0,0949859
735,7101;0,0944132
736,6744;0,0939163
737,6386;0,0934939
738,6028;0,0931219
739,5671;0,0927614
740,5313;0,0923736
741,4955;0,0919329
742,4598;0,0914352
743,4240;0,0908959
744,3882;0,0903407
745,3525;0,0897922
746,3167;0,0892609
747,2809;0,0887441
748,2452;0,0882337
749,2094;0,0877255
750,1736;0,0872233
751,1379;0,0867341
752,1021;0,0862582
753,0663;0,0857851
754,0306;0,0852971
754,9948;0,0847809
755,9590;0,0842374
756,9233;0,0836836
757,8875;0,0831444
758,8517;0,0826408
759,8160;0,0821825
760,7802;0,0817674
761,7444;0,0813883
762,7087;0,0810385
763,6729;0,0807144
764,6371;0,0804118
765,6014;0,0801226
766,5656;0,0798345
767,5298;0,0795357
768,4941;0,0792216
769,4583;0,0788975
770,4225;0,0785762
771,3868;0,0782697
772,3510;0,0779838
773,3152;0,0777161
774,2795;0,07746
775,2437;0,0772105
776,2079;0,0769655
777,1722;0,0767225
778,1364;0,0764739
779,1006;0,076205
780,0649;0,0758989
781,0291;0,0755442
781,9933;0,0751417
782,9576;0,0747039
783,9218;0,0742492
784,8860;0,0737952
785,8503;0,0733554
786,8145;0,0729409
787,7787;0,0725627
788,7430;0,0722312
789,7072;0,0719507
790,6714;0,0717153
791,6357;0,0715078
792,5999;0,0713071
793,5641;0,071097
794,5284;0,0708724
795,4926;0,070639
796,4568;0,0704078
797,4211;0,0701885
798,3853;0,0699882
799,3495;0,0698125
800,3138;0,0696652
801,2780;0,0695463
802,2422;0,0694466
803,2065;0,0693469
804,1707;0,0692236
805,1349;0,0690588
806,0992;0,0688497
807,0634;0,0686089
808,0276;0,0683574
808,9919;0,0681138
809,9561;0,0678873
810,9203;0,0676787
811,8846;0,0674855
812,8488;0,0673067
813,8130;0,0671437
814,7773;0,0669972
815,7415;0,0668656
816,7057;0,066745
817,6700;0,0666321
818,6342;0,0665247
819,5984;0,0664199
820,5627;0,0663127
821,5269;0,0661964
822,4911;0,0660676
823,4554;0,0659309
824,4196;0,0658
825,3839;0,0656909
826,3481;0,0656133
827,3123;0,0655642
828,2766;0,0655291
829,2408;0,0654905
830,2050;0,0654352
831,1693;0,0653578
832,1335;0,0652568
833,0977;0,0651291
834,0620;0,0649681
835,0262;0,064768
835,9904;0,0645303
836,9547;0,0642667
837,9189;0,0639962
838,8831;0,0637372
839,8474;0,0634994
840,8116;0,0632819
841,7758;0,0630774
842,7401;0,0628805
843,7043;0,0626939
844,6685;0,062529
845,6328;0,0624006
846,5970;0,062319
847,5612;0,0622832
848,5255;0,0622798
849,4897;0,0622877
850,4539;0,0622873
851,4182;0,0622688
852,3824;0,062237
853,3466;0,0622073
854,3109;0,0621964
855,2751;0,0622111
856,2393;0,0622431
857,2036;0,0622722
858,1678;0,0622782
859,1320;0,0622527
860,0963;0,0622047
861,0605;0,0621555
862,0247;0,062127
862,9890;0,0621306
863,9532;0,0621655
864,9174;0,062224
865,8817;0,0623015
866,8459;0,0623996
867,8101;0,0625236
868,7744;0,0626744
869,7386;0,0628434
870,7028;0,0630142
871,6671;0,063169
872,6313;0,0632952
873,5955;0,0633887
874,5598;0,0634511
875,5240;0,063488
876,4882;0,0635074
877,4525;0,0635207
878,4167;0,0635429
879,3809;0,0635908
880,3452;0,0636806
881,3094;0,0638266
882,2736;0,0640434
883,2379;0,0643478
884,2021;0,064759
885,1663;0,0652938
886,1306;0,0659599
887,0948;0,0667525
888,0590;0,067654
889,0233;0,0686393
889,9875;0,0696792
890,9517;0,0707422
891,9160;0,071793
892,8802;0,072791
893,8444;0,0736919
894,8087;0,074451
895,7729;0,0750278
896,7371;0,0753904
897,7014;0,075519
898,6656;0,0754082
899,6298;0,07507
900,5941;0,0745346
901,5583;0,0738464
902,5225;0,0730585
903,4868;0,0722239
904,4510;0,0713889
905,4152;0,0705905
906,3795;0,0698568
907,3437;0,0692098
908,3079;0,0686662
909,2722;0,0682365
910,2364;0,0679226
911,2007;0,0677163
912,1649;0,0676
913,1292;0,0675523
914,0934;0,0675555
915,0576;0,0676016
916,0219;0,067695
916,9861;0,0678472
917,9503;0,0680671
918,9146;0,0683511
919,8788;0,0686781
920,8430;0,069014
921,8073;0,0693235
922,7715;0,069583
923,7357;0,0697896
924,7000;0,0699591
925,6642;0,0701161
926,6284;0,0702804
927,5927;0,0704568
928,5569;0,0706339
929,5211;0,0707918
930,4854;0,0709147
931,4496;0,071001
932,4138;0,0710665
933,3781;0,0711384
934,3423;0,0712453
935,3065;0,0714074
936,2708;0,0716322
937,2350;0,071917
938,1992;0,0722559
939,1635;0,0726461
940,1277;0,0730908
941,0919;0,0735981
942,0562;0,0741765
943,0204;0,0748316
943,9846;0,0755646
944,9489;0,0763734
945,9131;0,0772557
946,8773;0,0782105
947,8416;0,0792398
948,8058;0,080347
949,7700;0,0815361
950,7343;0,0828103
951,6985;0,0841711
952,6627;0,0856175
953,6270;0,0871466
954,5912;0,0887542
955,5554;0,0904363
956,5197;0,0921904
957,4839;0,0940144
958,4481;0,0959033
959,4124;0,0978455
960,3766;0,0998215
961,3408;0,101806
962,3051;0,103779
963,2693;0,105727
964,2335;0,107655
965,1978;0,109583
966,1620;0,111537
967,1262;0,113542
968,0905;0,115618
969,0547;0,117779
970,0189;0,120034
970,9832;0,122394
971,9474;0,124875
972,9116;0,127506
973,8759;0,130321
974,8401;0,133355
975,8043;0,136632
976,7686;0,140152
977,7328;0,143887
978,6970;0,147783
979,6613;0,151761
980,6255;0,155729
981,5897;0,159583
982,5540;0,16322
983,5182;0,166549
984,4824;0,169505
985,4467;0,172067
986,4109;0,174262
987,3751;0,17615
988,3394;0,177805
989,3036;0,179286
990,2678;0,180624
991,2321;0,181825
992,1963;0,182889
993,1605;0,183818
994,1248;0,184634
995,0890;0,185371
996,0532;0,186071
997,0175;0,186766
997,9817;0,187476
998,9459;0,188209
999,9102;0,188963
1000,8744;0,189735
1001,8386;0,190536
1002,8029;0,191391
1003,7671;0,192346
1004,7313;0,193457
1005,6956;0,194783
1006,6598;0,19637
1007,6240;0,198248
1008,5883;0,20042
1009,5525;0,202866
1010,5167;0,205544
1011,4810;0,208392
1012,4452;0,211334
1013,4094;0,214289
1014,3737;0,217177
1015,3379;0,219931
1016,3021;0,222502
1017,2664;0,224863
1018,2306;0,227007
1019,1948;0,22894
1020,1591;0,230674
1021,1233;0,232229
1022,0875;0,233629
1023,0518;0,234905
1024,0160;0,236091
1024,9802;0,23722
1025,9445;0,238308
1026,9087;0,239349
1027,8729;0,240309
1028,8372;0,241134
1029,8014;0,241752
1030,7656;0,242084
1031,7299;0,242053
1032,6941;0,241593
1033,6583;0,240669
1034,6226;0,239291
1035,5868;0,237535
1036,5510;0,23553
1037,5153;0,233442
1038,4795;0,231434
1039,4437;0,229631
1040,4080;0,228099
1041,3722;0,226844
1042,3364;0,225825
1043,3007;0,224968
1044,2649;0,224189
1045,2291;0,223404
1046,1934;0,222541
1047,1576;0,221546
1048,1218;0,220388
1049,0861;0,219045
1050,0503;0,217505
1051,0145;0,215762
1051,9788;0,213814
1052,9430;0,211673
1053,9072;0,209367
1054,8715;0,206933
1055,8357;0,204394
1056,7999;0,201744
1057,7642;0,198946
1058,7284;0,195945
1059,6926;0,192703
1060,6569;0,189226
1061,6211;0,185578
1062,5853;0,18187
1063,5496;0,178232
1064,5138;0,174779
1065,4780;0,171587
1066,4423;0,168686
1067,4065;0,166067
1068,3707;0,163689
1069,3350;0,161502
1070,2992;0,159456
1071,2634;0,157506
1072,2277;0,155611
1073,1919;0,153737
1074,1561;0,15185
1075,1204;0,149924
1076,0846;0,147947
1077,0488;0,145928
1078,0131;0,143902
1078,9773;0,141922
1079,9415;0,140042
1080,9058;0,138309
1081,8700;0,136749
1082,8342;0,135367
1083,7985;0,134153
1084,7627;0,13309
1085,7269;0,132158
1086,6912;0,131339
1087,6554;0,130615
1088,6196;0,129976
1089,5839;0,129413
1090,5481;0,128929
1091,5123;0,128534
1092,4766;0,128246
1093,4408;0,128076
1094,4050;0,128028
1095,3693;0,128089
1096,3335;0,128236
1097,2977;0,128441
1098,2620;0,128683
1099,2262;0,128943
1100,1904;0,129209
1101,1547;0,129464
1102,1189;0,129685
1103,0831;0,129843
1104,0474;0,129915
1105,0116;0,129884
1105,9758;0,129749
1106,9401;0,129516
1107,9043;0,129191
1108,8685;0,128767
1109,8328;0,128221
1110,7970;0,12752
1111,7612;0,126634
1112,7255;0,125558
1113,6897;0,124322
1114,6539;0,122993
1115,6182;0,121655
1116,5824;0,120388
1117,5466;0,119239
1118,5109;0,11821
1119,4751;0,117262
1120,4393;0,116329
1121,4036;0,115334
1122,3678;0,114203
1123,3320;0,112879
1124,2963;0,111326
1125,2605;0,109534
1126,2247;0,107521
1127,1890;0,105326
1128,1532;0,103006
1129,1174;0,10062
1130,0817;0,0982236
1131,0459;0,0958616
1132,0101;0,0935701
1132,9744;0,0913801
1133,9386;0,0893226
1134,9028;0,0874312
1135,8671;0,0857405
1136,8313;0,0842813
1137,7955;0,0830741
1138,7598;0,0821248
1139,7240;0,0814238
1140,6882;0,0809499
1141,6525;0,0806757
1142,6167;0,0805728
1143,5809;0,0806155
1144,5452;0,0807813
1145,5094;0,0810513
1146,4736;0,0814102
1147,4379;0,081847
1148,4021;0,082355
1149,3663;0,0829301
1150,3306;0,0835674
1151,2948;0,0842569
1152,2590;0,0849793
1153,2233;0,0857038
1154,1875;0,086387
1155,1517;0,0869756
1156,1160;0,0874094
1157,0802;0,087626
1158,0444;0,0875641
1159,0087;0,0871658
1159,9729;0,0863798
1160,9371;0,0851663
1161,9014;0,0835059
1162,8656;0,0814099
1163,8298;0,0789267
1164,7941;0,0761404
1165,7583;0,0731596
1166,7225;0,0701016
1167,6868;0,0670762
1168,6510;0,0641752
1169,6152;0,0614663
1170,5795;0,0589927
1171,5437;0,0567736
1172,5079;0,0548073
1173,4722;0,053076
1174,4364;0,0515527
1175,4006;0,0502094
1176,3649;0,0490228
1177,3291;0,0479777
1178,2933;0,0470653
1179,2576;0,0462806
1180,2218;0,045619
1181,1860;0,0450745
1182,1503;0,0446387
1183,1145;0,0443013
1184,0787;0,0440511
1185,0430;0,0438784
1186,0072;0,0437772
1186,9714;0,0437476
1187,9357;0,043796
1188,8999;0,043933
1189,8641;0,0441701
1190,8284;0,0445152
1191,7926;0,0449709
1192,7568;0,0455344
1193,7211;0,0461982
1194,6853;0,0469516
1195,6495;0,0477801
1196,6138;0,048665
1197,5780;0,049584
1198,5422;0,0505144
1199,5065;0,0512613
1200,4707;0,0521919
1201,4349;0,0531103
1202,3992;0,0540231
1203,3634;0,0549366
1204,3276;0,0558523
1205,2919;0,0567664
1206,2561;0,0576742
1207,2203;0,0585761
1208,1846;0,0594819
1209,1488;0,0604099
1210,1130;0,0613819
1211,0773;0,0624167
1212,0415;0,0635244
1213,0057;0,0647042
1213,9700;0,0659451
1214,9342;0,0672289
1215,8984;0,0685339
1216,8627;0,0698372
1217,8269;0,0711177
1218,7911;0,0723608
1219,7554;0,0735581
1220,7196;0,074706
1221,6838;0,0758027
1222,6481;0,0768465
1223,6123;0,0778355
1224,5765;0,07877
1225,5408;0,0796538
1226,5050;0,0804937
1227,4692;0,0812955
1228,4335;0,0820593
1229,3977;0,0827775
1230,3619;0,0834368
1231,3262;0,0840252
1232,2904;0,084538
1233,2546;0,0849803
1234,2189;0,0853647
1235,1831;0,0857045
1236,1473;0,0860081
1237,1116;0,0862771
1238,0758;0,0865076
1239,0400;0,0866934
1240,0043;0,0868277
1240,9685;0,0869034
1241,9327;0,0869132
1242,8970;0,0868507
1243,8612;0,0867126
1244,8254;0,0865001
1245,7897;0,0862176
1246,7539;0,0858712
1247,7181;0,0854654
1248,6824;0,0850041
1249,6466;0,0844922
1250,6108;0,0839386
1251,5751;0,0833583
1252,5393;0,0827703
1253,5035;0,0821939
1254,4678;0,0816413
1255,4320;0,0811126
1256,3962;0,0805928
1257,3605;0,0800556
1258,3247;0,0794711
1259,2889;0,078817
1260,2532;0,0780865
1261,2174;0,0772898
1262,1816;0,0764465
1263,1459;0,0755767
1264,1101;0,0746925
1265,0743;0,0737964
1266,0386;0,0728819
1267,0028;0,0719372
1267,9670;0,0709473
1268,9313;0,0698985
1269,8955;0,0687827
1270,8597;0,0676027
1271,8240;0,066374
1272,7882;0,0651224
1273,7524;0,0638777
1274,7167;0,0626669
1275,6809;0,0615091
1276,6451;0,0604133
1277,6094;0,0593769
1278,5736;0,0583878
1279,5378;0,0574288
1280,5021;0,0564872
1281,4663;0,0555625
1282,4305;0,0546698
1283,3948;0,0538337
1284,3590;0,0530765
1285,3232;0,0524076
1286,2875;0,0518198
1287,2517;0,0512961
1288,2159;0,0508212
1289,1802;0,0503927
1290,1444;0,0500232
1291,1086;0,0497334
1292,0729;0,0495419
1293,0371;0,0494573
1294,0013;0,0494769
1294,9656;0,0495902
1295,9298;0,0497846
1296,8940;0,0500504
1297,8583;0,0503826
1298,8225;0,0507805
1299,7867;0,051246
1300,7510;0,0517813
1301,7152;0,0523904
1302,6794;0,0530724
1303,6437;0,0538206
1304,6079;0,054623
1305,5721;0,0554656
1306,5364;0,0563386
1307,5006;0,0572419
1308,4648;0,0581832
1309,4291;0,0591674
1310,3933;0,0601838
1311,3575;0,0611984
1312,3218;0,0621605
1313,2860;0,0630192
1314,2502;0,0637379
1315,2145;0,0642955
1316,1787;0,0646746
1317,1429;0,0648523
1318,1072;0,0648071
1319,0714;0,0645422
1320,0356;0,0641034
1320,9999;0,0635726
1321,9641;0,063038
1322,9283;0,0625641
1323,8926;0,0621793
1324,8568;0,061883
1325,8210;0,06166
1326,7853;0,061492
1327,7495;0,061361
1328,7137;0,0612469
1329,6780;0,0611262
1330,6422;0,0609804
1331,6064;0,0608105
1332,5707;0,0606459
1333,5349;0,0605398
1334,4991;0,0605414
1335,4634;0,0606572
1336,4276;0,060816
1337,3918;0,0608574
1338,3561;0,0605811
1339,3203;0,059867
1340,2845;0,0587834
1341,2488;0,0575592
1342,2130;0,0564392
1343,1772;0,0555685
1344,1415;0,0549777
1345,1057;0,054625
1346,0699;0,0544438
1347,0342;0,0543767
1347,9984;0,0543944
1348,9626;0,0544969
1349,9269;0,0546981
1350,8911;0,0550065
1351,8553;0,0554121
1352,8196;0,0558889
1353,7838;0,0564082
1354,7480;0,0569576
1355,7123;0,0575536
1356,6765;0,0582376
1357,6407;0,0590546
1358,6050;0,0600256
1359,5692;0,0611202
1360,5334;0,0622314
1361,4977;0,0631859
1362,4619;0,0638331
1363,4261;0,0641638
1364,3904;0,0643165
1365,3546;0,064458
1366,3188;0,064681
1367,2831;0,0649917
1368,2473;0,0653475
1369,2115;0,0656982
1370,1758;0,0660056
1371,1400;0,0662389
1372,1042;0,0663546
1373,0685;0,0662906
1374,0327;0,0659958
1374,9969;0,0654784
1375,9612;0,0648066
1376,9254;0,0640392
1377,8896;0,0631693
1378,8539;0,062147
1379,8181;0,0609554
1380,7823;0,0596657
1381,7466;0,0584183
1382,7108;0,057338
1383,6750;0,056454
1384,6393;0,0556833
1385,6035;0,0548752
1386,5677;0,0539097
1387,5320;0,0528097
1388,4962;0,0517493
1389,4604;0,050913
1390,4247;0,0503724
1391,3889;0,0500999
1392,3531;0,0500396
1393,3174;0,0501365
1394,2816;0,0503181
1395,2458;0,0504779
1396,2101;0,0505075
1397,1743;0,0503602
1398,1385;0,0500881
1399,1028;0,0498184
1400,0670;0,0496847
1401,0313;0,0497615
1401,9955;0,0500395
1402,9597;0,0504471
1403,9240;0,0508943
1404,8882;0,0513215
1405,8524;0,0517323
1406,8167;0,0521824
1407,7809;0,0527242
1408,7451;0,0533661
1409,7094;0,0540804
1410,6736;0,0548393
1411,6378;0,0556427
1412,6021;0,0565157
1413,5663;0,0574782
1414,5305;0,0585146
1415,4948;0,0595638
1416,4590;0,0605108
1417,4232;0,061189
1418,3875;0,0614724
1419,3517;0,061439
1420,3159;0,0613414
1421,2802;0,0613413
1422,2444;0,0613856
1423,2086;0,0613211
1424,1729;0,0610439
1425,1371;0,0605551
1426,1013;0,0599192
1427,0656;0,0591859
1428,0298;0,0583553
1428,9940;0,0574146
1429,9583;0,0564037
1430,9225;0,0554224
1431,8867;0,0545467
1432,8510;0,0537477
1433,8152;0,0528971
1434,7794;0,0518396
1435,7437;0,0505113
1436,7079;0,0490746
1437,6721;0,0478873
1438,6364;0,0472097
1439,6006;0,0470142
1440,5648;0,0471114
1441,5291;0,0473428
1442,4933;0,0476512
1443,4575;0,0480501
1444,4218;0,04856
1445,3860;0,0491641
1446,3502;0,0498048
1447,3145;0,05042
1448,2787;0,0509901
1449,2429;0,0515518
1450,2072;0,0521532
1451,1714;0,0527945
1452,1356;0,0534211
1453,0999;0,0539692
1454,0641;0,0544023
1455,0283;0,0546699
1455,9926;0,0545857
1456,9568;0,0539206
1457,9210;0,0529375
1458,8853;0,0522912
1459,8495;0,0521885
1460,8137;0,0523495
1461,7780;0,0524299
1462,7422;0,0521958
1463,7064;0,0515305
1464,6707;0,0504677
1465,6349;0,04923
1466,5991;0,0480896
1467,5634;0,0471397
1468,5276;0,0462728
1469,4918;0,0453159
1470,4561;0,0441153
1471,4203;0,0425382
1472,3845;0,0405114
1473,3488;0,0381851
1474,3130;0,035954
1475,2772;0,0341333
1476,2415;0,0327581
1477,2057;0,0317111
1478,1699;0,0308758
1479,1342;0,0301777
1480,0984;0,029573
1481,0626;0,0290447
1482,0269;0,0286109
1482,9911;0,0283223
1483,9553;0,0282378
1484,9196;0,028396
1485,8838;0,028795
1486,8480;0,0293578
1487,8123;0,0298798
1488,7765;0,0300781
1489,7407;0,029867
1490,7050;0,0295151
1491,6692;0,029352
1492,6334;0,0294947
1493,5977;0,0299035
1494,5619;0,0305252
1495,5261;0,0313379
1496,4904;0,0323109
1497,4546;0,0333749
1498,4188;0,0344709
1499,3831;0,0355731
1500,3473;0,036619
1501,3115;0,037494
1502,2758;0,038116
1503,2400;0,0385356
1504,2042;0,0390006
1505,1685;0,0398807
1506,1327;0,0412141
1507,0969;0,0421925
1508,0612;0,0420763
1509,0254;0,0412666
1509,9896;0,0403693
1510,9539;0,0395649
1511,9181;0,0388336
1512,8823;0,0381396
1513,8466;0,0374461
1514,8108;0,036689
1515,7750;0,0357888
1516,7393;0,0347014
1517,7035;0,0334469
1518,6677;0,0320855
1519,6320;0,0306902
1520,5962;0,0293629
1521,5604;0,0282514
1522,5247;0,0274852
1523,4889;0,0270657
1524,4531;0,0268545
1525,4174;0,0266816
1526,3816;0,0264617
1527,3458;0,0262223
1528,3101;0,0260388
1529,2743;0,0259572
1530,2385;0,0259774
1531,2028;0,0260748
1532,1670;0,0262111
1533,1312;0,0263391
1534,0955;0,0264254
1535,0597;0,02645
1536,0239;0,0263811
1536,9882;0,0262067
1537,9524;0,026016
1538,9166;0,0260196
1539,8809;0,0263719
1540,8451;0,0269077
1541,8093;0,0273524
1542,7736;0,0276716
1543,7378;0,0278991
1544,7020;0,0280419
1545,6663;0,0281499
1546,6305;0,0283033
1547,5947;0,0285432
1548,5590;0,0288353
1549,5232;0,0290972
1550,4874;0,0292613
1551,4517;0,0293241
1552,4159;0,0293365
1553,3801;0,0293404
1554,3444;0,0293217
1555,3086;0,0292322
1556,2728;0,0290289
1557,2371;0,0286414
1558,2013;0,0279747
1559,1655;0,0273261
1560,1298;0,0273855
1561,0940;0,0282704
1562,0582;0,029542
1563,0225;0,0307996
1563,9867;0,0318567
1564,9509;0,0326799
1565,9152;0,0333122
1566,8794;0,0338299
1567,8436;0,0343192
1568,8079;0,0348586
1569,7721;0,0354981
1570,7363;0,0362296
1571,7006;0,0369849
1572,6648;0,0376926
1573,6290;0,0383496
1574,5933;0,0390337
1575,5575;0,0398302
1576,5217;0,0407494
1577,4860;0,041755
1578,4502;0,0428189
1579,4144;0,0438999
1580,3787;0,0449466
1581,3429;0,0459342
1582,3071;0,0468711
1583,2714;0,0477833
1584,2356;0,0486982
1585,1998;0,0496373
1586,1641;0,0506054
1587,1283;0,0515813
1588,0925;0,0525198
1589,0568;0,0533661
1590,0210;0,0540745
1590,9852;0,0546159
1591,9495;0,0549698
1592,9137;0,0551147
1593,8779;0,0550341
1594,8422;0,0547369
1595,8064;0,0542717
1596,7706;0,0537147
1597,7349;0,053138
1598,6991;0,0525843
1599,6633;0,0520623
1600,6276;0,0515608
1601,5918;0,0510706
1602,5560;0,0506007
1603,5203;0,050175
1604,4845;0,0498091
1605,4487;0,0494864
1606,4130;0,0491572
1607,3772;0,048769
1608,3414;0,0483131
1609,3057;0,047851
1610,2699;0,0474743
1611,2341;0,047223
1612,1984;0,0470481
1613,1626;0,0468509
1614,1268;0,0465512
1615,0911;0,0461412
1616,0553;0,0457289
1617,0195;0,0455264
1617,9838;0,0456886
1618,9480;0,0461512
1619,9122;0,0466989
1620,8765;0,047134
1621,8407;0,0473601
1622,8049;0,047386
1623,7692;0,0473002
1624,7334;0,0472139
1625,6976;0,0471876
1626,6619;0,0472155
1627,6261;0,0472752
1628,5903;0,0473683
1629,5546;0,047503
1630,5188;0,0476529
1631,4830;0,0477556
1632,4473;0,0477546
1633,4115;0,0476333
1634,3757;0,0473966
1635,3400;0,0470552
1636,3042;0,0467208
1637,2684;0,0466091
1638,2327;0,0467922
1639,1969;0,0471386
1640,1611;0,0474829
1641,1254;0,0477287
1642,0896;0,0478483
1643,0538;0,0478528
1644,0181;0,0477608
1644,9823;0,0475611
1645,9465;0,0472152
1646,9108;0,0467678
1647,8750;0,0463743
1648,8392;0,0460932
1649,8035;0,0458109
1650,7677;0,0453726
1651,7319;0,0446472
1652,6962;0,0435378
1653,6604;0,0422999
1654,6246;0,0416235
1655,5889;0,0417235
1656,5531;0,0421842
1657,5173;0,0425676
1658,4816;0,042654
1659,4458;0,0423862
1660,4100;0,0417841
1661,3743;0,0409238
1662,3385;0,0399764
1663,3027;0,0391745
1664,2670;0,0386528
1665,2312;0,0383598
1666,1954;0,0381272
1667,1597;0,037767
1668,1239;0,0371318
1669,0881;0,0361899
1670,0524;0,0351012
1671,0166;0,0341144
1671,9808;0,0333257
1672,9451;0,0326308
1673,9093;0,0318976
1674,8735;0,0311358
1675,8378;0,0305257
1676,8020;0,030267
1677,7662;0,0303807
1678,7305;0,0306826
1679,6947;0,0309126
1680,6589;0,0308409
1681,6232;0,0302843
1682,5874;0,0291214
1683,5516;0,0274823
1684,5159;0,025952
1685,4801;0,0251182
1686,4443;0,0249657
1687,4086;0,0250828
1688,3728;0,0251129
1689,3370;0,0249142
1690,3013;0,0245224
1691,2655;0,0240585
1692,2297;0,0236498
1693,1940;0,0233861
1694,1582;0,0232978
1695,1224;0,0233364
1696,0867;0,0233676
1697,0509;0,0232251
1698,0151;0,0228391
1698,9794;0,022346
1699,9436;0,0220381
1700,9078;0,0221451
1701,8721;0,0226668
1702,8363;0,0234198
1703,8005;0,0241931
1704,7648;0,0248556
1705,7290;0,025386
1706,6932;0,0258533
1707,6575;0,0263629
1708,6217;0,0269891
1709,5859;0,0277433
1710,5502;0,0285927
1711,5144;0,0294952
1712,4786;0,0304142
1713,4429;0,0313114
1714,4071;0,0321175
1715,3713;0,0326957
1716,3356;0,0328913
1717,2998;0,032763
1718,2640;0,0326849
1719,2283;0,0329873
1720,1925;0,033674
1721,1567;0,0345484
1722,1210;0,0354109
1723,0852;0,0361433
1724,0494;0,0367252
1725,0137;0,0372229
1725,9779;0,0377471
1726,9421;0,0383832
1727,9064;0,0391346
1728,8706;0,039913
1729,8348;0,04057
1730,7991;0,040935
1731,7633;0,0408497
1732,7275;0,0402512
1733,6918;0,0393234
1734,6560;0,038473
1735,6202;0,0379715
1736,5845;0,0377473
1737,5487;0,0375647
1738,5129;0,0372512
1739,4772;0,0367798
1740,4414;0,0362369
1741,4056;0,0357254
1742,3699;0,0352717
1743,3341;0,0348133
1744,2983;0,0342666
1745,2626;0,033588
1746,2268;0,0327665
1747,1910;0,0317614
1748,1553;0,0304567
1749,1195;0,028739
1750,0837;0,0266886
1751,0480;0,0246286
1752,0122;0,022887
1752,9764;0,0215706
1753,9407;0,0205806
1754,9049;0,0197513
1755,8691;0,0189557
1756,8334;0,0181401
1757,7976;0,017299
1758,7618;0,0164259
1759,7261;0,0154897
1760,6903;0,0144692
1761,6545;0,0134135
1762,6188;0,0124507
1763,5830;0,0117106
1764,5472;0,0112338
1765,5115;0,010956
1766,4757;0,01076
1767,4399;0,0105331
1768,4042;0,0101988
1769,3684;0,0097253
1770,3326;0,00912368
1771,2969;0,00845399
1772,2611;0,00783278
1773,2253;0,00739725
1774,1896;0,0072158
1775,1538;0,00724029
1776,1180;0,00735386
1777,0823;0,00744749
1778,0465;0,00746141
1779,0107;0,00738797
1779,9750;0,0072533
1780,9392;0,00709056
1781,9034;0,00691714
1782,8677;0,00673322
1783,8319;0,00654414
1784,7961;0,00638203
1785,7604;0,00629787
1786,7246;0,00632672
1787,6888;0,00646088
1788,6531;0,0066539
1789,6173;0,00683959
1790,5815;0,00694481
1791,5458;0,00691265
1792,5100;0,00675861
1793,4742;0,00658657
1794,4385;0,00649276
1795,4027;0,00648205
1796,3669;0,00650102
1797,3312;0,00650874
1798,2954;0,00650085
1799,2596;0,00648383
1800,2239;0,00644083
1801,1881;0,00633426
1802,1523;0,00614563
1803,1166;0,00590478
1804,0808;0,00567852
1805,0450;0,00553557
1806,0093;0,00551363
1806,9735;0,00560117
1807,9377;0,00573848
1808,9020;0,00584042
1809,8662;0,00583845
1810,8304;0,00572184
1811,7947;0,00554249
1812,7589;0,00537336
1813,7231;0,00525967
1814,6874;0,00520304
1815,6516;0,00517689
1816,6158;0,00515142
1817,5801;0,00511565
1818,5443;0,00508747
1819,5085;0,00510265
1820,4728;0,00518839
1821,4370;0,00534185
1822,4012;0,00552573
1823,3655;0,00568184
1824,3297;0,00576054
1825,2939;0,00574994
1826,2582;0,00567665
1827,2224;0,00557515
1828,1866;0,00545852
1829,1509;0,00532042
1830,1151;0,00516731
1831,0793;0,00504022
1832,0436;0,0049863
1833,0078;0,00501147
1833,9720;0,00507322
1834,9363;0,0051125
1835,9005;0,00509074
1836,8647;0,00501424
1837,8290;0,00493222
1838,7932;0,00490351
1839,7574;0,00495905
1840,7217;0,00509442
1841,6859;0,00528305
1842,6501;0,00548078
1843,6144;0,00562698
1844,5786;0,00567451
1845,5428;0,00562618
1846,5071;0,0055149
1847,4713;0,00535724
1848,4355;0,00515155
1849,3998;0,00490778
1850,3640;0,00466272
1851,3282;0,00446636
1852,2925;0,00435405
1853,2567;0,00432943
1854,2209;0,00436968
1855,1852;0,00444456
1856,1494;0,00453078
1857,1136;0,00461395
1858,0779;0,00468107
1859,0421;0,00471781
1860,0063;0,00471699
1860,9706;0,00469213
1861,9348;0,00468117
1862,8990;0,0047333
1863,8633;0,00488755
1864,8275;0,0051548
1865,7917;0,00550229
1866,7560;0,00583743
1867,7202;0,0060176
1868,6844;0,00592854
1869,6487;0,00558587
1870,6129;0,00512675
1871,5771;0,0046969
1872,5414;0,00437547
1873,5056;0,00418147
1874,4698;0,00410388
1875,4341;0,0041165
1876,3983;0,0041838
1877,3625;0,00426932
1878,3268;0,00434813
1879,2910;0,00441174
1880,2552;0,00446368
1881,2195;0,00451052
1882,1837;0,00455613
1883,1479;0,00460153
1884,1122;0,00464755
1885,0764;0,00469535
1886,0406;0,00474354
1887,0049;0,00478482
1887,9691;0,00480736
1888,9333;0,0048045
1889,8976;0,0047867
1890,8618;0,00477948
1891,8260;0,00480276
1892,7903;0,00485094
1893,7545;0,00489267
1894,7188;0,00489028
1895,6830;0,00482649
1896,6472;0,00471998
1897,6115;0,00461452
1898,5757;0,00454722
1899,5399;0,00452301
1900,5042;0,00451542
1901,4684;0,00449195
1902,4326;0,00444578
1903,3969;0,0044108
1904,3611;0,00444595
1905,3253;0,00459668
1906,2896;0,00485834
1907,2538;0,00516367
1908,2180;0,00540495
1909,1823;0,00548742
1910,1465;0,0053867
1911,1107;0,00516577
1912,0750;0,0049342
1913,0392;0,00478609
1914,0034;0,00476449
1914,9677;0,00486248
1915,9319;0,00504374
1916,8961;0,00526744
1917,8604;0,00550751
1918,8246;0,00575263
1919,7888;0,00598408
1920,7531;0,00615525
1921,7173;0,00620036
1922,6815;0,00607353
1923,6458;0,00579283
1924,6100;0,00545026
1925,5742;0,00516771
1926,5385;0,00502954
1927,5027;0,005044
1928,4669;0,00515304
1929,4312;0,00527207
1930,3954;0,00533508
1931,3596;0,00532319
1932,3239;0,00526209
1933,2881;0,00519657
1934,2523;0,00516376
1935,2166;0,00518218
1936,1808;0,00525674
1937,1450;0,00538863
1938,1093;0,0055791
1939,0735;0,00582339
1940,0377;0,00609866
1941,0020;0,00635529
1941,9662;0,00652539
1942,9304;0,00655436
1943,8947;0,00643469
1944,8589;0,00620968
1945,8231;0,0059465
1946,7874;0,0057079
1947,7516;0,00554093
1948,7158;0,0054771
1949,6801;0,00553254
1950,6443;0,00570403
1951,6085;0,00596443
1952,5728;0,00626399
1953,5370;0,00654124
1954,5012;0,00674119
1955,4655;0,00683261
1956,4297;0,00681534
1957,3939;0,00671571
1958,3582;0,00657707
1959,3224;0,00645335
1960,2866;0,00640495
1961,2509;0,00648779
1962,2151;0,00673096
1963,1793;0,00711228
1964,1436;0,00754922
1965,1078;0,00791821
1966,0720;0,00810335
1967,0363;0,00805544
1968,0005;0,00782092
1968,9647;0,00751138
1969,9290;0,0072353
1970,8932;0,00704957
1971,8574;0,00696146
1972,8217;0,00696299
1973,7859;0,00705786
1974,7501;0,00725359
1975,7144;0,00752732
1976,6786;0,00780021
1977,6428;0,0079607
1978,6071;0,00793168
1979,5713;0,00772645
1980,5355;0,00744462
1981,4998;0,00721433
1982,4640;0,00712664
1983,4282;0,00719871
1984,3925;0,0073788
1985,3567;0,00758575
1986,3209;0,00776007
1987,2852;0,00789571
1988,2494;0,00803218
1989,2136;0,00821263
1990,1779;0,00843581
1991,1421;0,00863679
1992,1063;0,00871782
1993,0706;0,00861333
1994,0348;0,00833963
1994,9990;0,00799093
1995,9633;0,00768996
1996,9275;0,00752883
1997,8917;0,00753147
1998,8560;0,00765393
1999,8202;0,007822
2000,7844;0,0079838
2001,7487;0,00814174
2002,7129;0,00834242
2003,6771;0,00863286
2004,6414;0,0090126
2005,6056;0,00941171
2006,5698;0,00971389
2007,5341;0,00981558
2008,4983;0,00968586
2009,4625;0,00938754
2010,4268;0,00904774
2011,3910;0,00880051
2012,3552;0,00873292
2013,3195;0,00885551
2014,2837;0,00910352
2015,2479;0,00936785
2016,2122;0,00954736
2017,1764;0,00960018
2018,1406;0,0095632
2019,1049;0,00952399
2020,0691;0,00956329
2021,0333;0,0097063
2021,9976;0,00990914
2022,9618;0,0100825
2023,9260;0,0101354
2024,8903;0,0100159
2025,8545;0,00973008
2026,8187;0,00933405
2027,7830;0,00891199
2028,7472;0,00855279
2029,7114;0,00833195
2030,6757;0,00829593
2031,6399;0,00844678
2032,6041;0,00873359
2033,5684;0,00906426
2034,5326;0,0093416
2035,4968;0,00950786
2036,4611;0,00956694
2037,4253;0,00956853
2038,3895;0,0095634
2039,3538;0,00956123
2040,3180;0,00951857
2041,2822;0,00936568
2042,2465;0,00905539
2043,2107;0,00859985
2044,1749;0,0080709
2045,1392;0,00756762
2046,1034;0,00717558
2047,0676;0,00694009
2048,0320;0,00686191
2048,9961;0,00690999
2049,9604;0,00703774
2050,9246;0,00719254
2051,8889;0,00732012
2052,8530;0,00737247
2053,8174;0,00732304
2054,7815;0,00718116
2055,7458;0,00699363
2056,7100;0,00682508
2057,6743;0,00672769
2058,6384;0,00672035
2059,6028;0,0067895
2060,5669;0,00690581
2061,5313;0,00704044
2062,4954;0,00716974
2063,4597;0,00727104
2064,4238;0,0073209
2065,3882;0,00730334
2066,3523;0,00722184
2067,3167;0,00710156
2068,2808;0,0069758
2069,2451;0,00686565
2070,2092;0,00676925
2071,1736;0,00666973
2072,1377;0,00655494
2073,1021;0,00643347
2074,0662;0,00633148
2075,0305;0,00627265
2075,9946;0,00625696
2076,9590;0,00625626
2077,9231;0,0062306
2078,8875;0,00615423
2079,8516;0,00603295
2080,8159;0,00590211
2081,7800;0,00580778
2082,7444;0,00578381
2083,7085;0,00583761
2084,6729;0,00594953
2085,6370;0,00608385
2086,6013;0,00620315
2087,5654;0,00628092
2088,5298;0,00630841
2089,4939;0,00629497
2090,4583;0,00626214
2091,4224;0,00623338
2092,3867;0,00622344
2093,3508;0,00623255
2094,3152;0,00624854
2095,2793;0,00625645
2096,2437;0,00624966
2097,2078;0,00623385
2098,1721;0,00622029
2099,1362;0,00621357
2100,1006;0,00620548
2101,0647;0,00617656
2102,0291;0,00611762
2102,9932;0,00603854
2103,9575;0,00596926
2104,9216;0,00594378
2105,8860;0,00597824
2106,8501;0,00605882
2107,8145;0,00614877
2108,7786;0,00621004
2109,7429;0,00622465
2110,7070;0,00620158
2111,6714;0,00616635
2112,6355;0,00614267
2113,5999;0,00613955
2114,5640;0,00615115
2115,5283;0,00616619
2116,4924;0,00617831
2117,4568;0,0061898
2118,4209;0,00620797
2119,3853;0,00623821
2120,3494;0,00627949
2121,3137;0,00632523
2122,2778;0,00636903
2123,2422;0,00641118
2124,2063;0,00646149
2125,1707;0,00653507
2126,1348;0,00664242
2127,0991;0,0067795
2128,0632;0,00692606
2129,0276;0,00705646
2129,9917;0,00715885
2130,9561;0,00725057
2131,9202;0,00737669
2132,8845;0,00758704
2133,8486;0,00790164
2134,8130;0,00828636
2135,7771;0,00865945
2136,7415;0,00892984
2137,7056;0,00904391
2138,6699;0,00901181
2139,6340;0,00890153
2140,5984;0,00880988
2141,5625;0,00882726
2142,5269;0,00900875
2143,4910;0,00935707
2144,4553;0,00982032
2145,4194;0,0103069
2146,3838;0,0107167
2147,3479;0,0109778
2148,3123;0,0110741
2149,2764;0,0110477
2150,2407;0,0109796
2151,2048;0,0109597
2152,1692;0,0110614
2153,1333;0,0113279
2154,0977;0,0117637
2155,0618;0,0123244
2156,0261;0,0129089
2156,9902;0,0133684
2157,9546;0,0135579
2158,9187;0,0134155
2159,8831;0,0130036
2160,8472;0,0124612
2161,8115;0,0119141
2162,7756;0,011428
2163,7400;0,0110247
2164,7041;0,0107186
2165,6685;0,0105309
2166,6326;0,0104712
2167,5969;0,0105093
2168,5610;0,0105688
2169,5254;0,0105583
2170,4895;0,0104222
2171,4539;0,0101791
2172,4180;0,00992061
2173,3823;0,00976454
2174,3464;0,00978358
2175,3108;0,00995285
2176,2749;0,0101535
2177,2393;0,0102358
2178,2034;0,0101062
2179,1677;0,00978412
2180,1318;0,00939738
2181,0962;0,00911281
2182,0603;0,00903862
2183,0247;0,00915641
2183,9888;0,00933053
2184,9531;0,00939061
2185,9172;0,00923187
2186,8816;0,00886978
2187,8457;0,0084226
2188,8101;0,00804118
2189,7742;0,00783175
2190,7385;0,00781394
2191,7026;0,00792923
2192,6670;0,00808355
2193,6311;0,00819319
2194,5955;0,0082109
2195,5596;0,00812827
2196,5239;0,00796495
2197,4880;0,00775688
2198,4524;0,00754783
2199,4165;0,00738167
2200,3809;0,00729205
2201,3450;0,0072916
2202,3093;0,00736678
2203,2734;0,00748319
2204,2378;0,00759931
2205,2019;0,00768152
2206,1663;0,00771246
2207,1304;0,00768991
2208,0947;0,00761965
2209,0588;0,00750914
2210,0232;0,00736674
2210,9873;0,00720586
2211,9517;0,00704849
2212,9158;0,00692191
2213,8801;0,00684761
2214,8442;0,0068283
2215,8086;0,00684295
2216,7727;0,00685589
2217,7371;0,00683655
2218,7012;0,00677723
2219,6655;0,00669595
2220,6296;0,00662115
2221,5940;0,00656893
2222,5581;0,00653015
2223,5225;0,00647831
2224,4866;0,00639324
2225,4509;0,00628234
2226,4150;0,00618118
2227,3794;0,00612981
2228,3435;0,00614611
2229,3079;0,00620897
2230,2720;0,00626994
2231,2363;0,0062838
2232,2004;0,00623623
2233,1648;0,00614952
2234,1289;0,00606385
2235,0933;0,00600982
2236,0574;0,00599175
2237,0217;0,0059918
2237,9858;0,00598835
2238,9502;0,00597321
2239,9143;0,00595548
2240,8787;0,00595127
2241,8428;0,00596876
2242,8071;0,00600009
2243,7712;0,00602548
2244,7356;0,00602593
2245,6997;0,00599597
2246,6641;0,00594846
2247,6282;0,00590864
2248,5925;0,00590094
2249,5566;0,00593568
2250,5210;0,00600302
2251,4851;0,00607698
2252,4495;0,00612766
2253,4136;0,00613514
2254,3779;0,00609787
2255,3420;0,00603147
2256,3064;0,00595925
2257,2705;0,00590059
2258,2349;0,00586383
2259,1990;0,00584625
2260,1633;0,00583903
2261,1274;0,00583294
2262,0918;0,00582192
2263,0559;0,00580376
2264,0203;0,00577936
2264,9844;0,00575119
2265,9487;0,00572172
2266,9128;0,00569174
2267,8772;0,00565968
2268,8413;0,00562296
2269,8057;0,00558137
2270,7698;0,00553978
2271,7341;0,00550705
2272,6982;0,00549027
2273,6626;0,00548748
2274,6267;0,00548521
2275,5911;0,00546432
2276,5552;0,00541212
2277,5195;0,00533269
2278,4836;0,00524785
2279,4480;0,00518766
2280,4121;0,00517677
2281,3765;0,00522589
2282,3406;0,00533261
2283,3049;0,00548869
2284,2690;0,00568692
2285,2334;0,00592359
2286,1975;0,00619769
2287,1619;0,00651089
2288,1260;0,00686918
2289,0903;0,00728312
2290,0544;0,00776277
2291,0188;0,00830819
2291,9829;0,00890238
2292,9473;0,00951371
2293,9114;0,0101083
2294,8757;0,0106641
2295,8398;0,0111751
2296,8042;0,0116424
2297,7683;0,0120599
2298,7327;0,0124086
2299,6968;0,0126679
2300,6611;0,0128387
2301,6252;0,0129616
2302,5896;0,0131123
2303,5537;0,0133759
2304,5181;0,0138082
2305,4822;0,0144033
2306,4465;0,0150821
2307,4106;0,015708
2308,3750;0,0161272
2309,3391;0,0162199
2310,3035;0,0159455
2311,2676;0,0153635
2312,2319;0,0146167
2313,1960;0,01388
2314,1604;0,013294
2315,1245;0,0129197
2316,0889;0,0127355
2317,0530;0,0126701
2318,0173;0,0126475
2318,9814;0,0126182
2319,9458;0,0125703
2320,9099;0,0125237
2321,8743;0,012516
2322,8384;0,012577
2323,8027;0,0126963
2324,7668;0,012807
2325,7312;0,012807
2326,6953;0,0126057
2327,6597;0,0121637
2328,6238;0,0115053
2329,5881;0,0107094
2330,5522;0,0098895
2331,5166;0,00916273
2332,4807;0,00860501
2333,4451;0,00822152
2334,4092;0,00796406
2335,3735;0,00778798
2336,3376;0,00770681
2337,3020;0,00780536
2338,2661;0,00819825
2339,2305;0,00894682
2340,1946;0,0099703
2341,1589;0,0110005
2342,1230;0,0116497
2343,0874;0,0116835
2344,0515;0,0113891
2345,0159;0,0115092
2345,9800;0,0125463
2346,9443;0,014263
2347,9084;0,015926
2348,8728;0,0168529
2349,8369;0,0167683
2350,8013;0,015876
2351,7654;0,0147045
2352,7297;0,0137949
2353,6938;0,0133952
2354,6582;0,0134172
2355,6223;0,0136585
2356,5867;0,0139687
2357,5508;0,0142196
2358,5151;0,0142716
2359,4792;0,0140525
2360,4436;0,013632
2361,4077;0,0131503
2362,3721;0,012672
2363,3362;0,0121392
2364,3005;0,0114605
2365,2646;0,0106199
2366,2290;0,00969638
2367,1931;0,00880077
2368,1575;0,00801161
2369,1216;0,00735741
2370,0859;0,0068335
2371,0500;0,0064246
2372,0144;0,0061233
2372,9785;0,00594467
2373,9429;0,00593088
2374,9070;0,00613519
2375,8713;0,00658653
2376,8354;0,00725333
2377,7998;0,0080306
2378,7639;0,00876126
2379,7283;0,00928277
2380,6924;0,00947666
2381,6567;0,00929969
2382,6208;0,00878726
2383,5852;0,00803356
2384,5493;0,00715983
2385,5137;0,00628298
2386,4778;0,00549289
2387,4421;0,00484178
2388,4063;0,00434536
2389,3706;0,00399186
2390,3347;0,00375437
2391,2991;0,00360226
2392,2632;0,00350905
2393,2275;0,00345614
2394,1917;0,00343278
2395,1560;0,00343362
2396,1201;0,00345555
2397,0845;0,003495
2398,0486;0,00354887
2399,0129;0,00360847
2399,9771;0,00366194
2400,9414;0,00369831
2401,9055;0,00370923
2402,8699;0,00369499
2403,8340;0,00366513
2404,7983;0,0036359
2405,7625;0,00362342
2406,7268;0,00363545
2407,6909;0,00366901
2408,6553;0,00371279
2409,6194;0,00375245
2410,5837;0,00377945
2411,5479;0,00379397
2412,5122;0,00380342
2413,4763;0,00381694
2414,4407;0,00383982
2415,4048;0,00387019
2416,3691;0,00390019
2417,3333;0,00392066
2418,2976;0,00392647
2419,2617;0,00392014
2420,2261;0,00391094
2421,1902;0,00390948
2422,1545;0,00392397
2423,1187;0,00395631
2424,0830;0,00400239
2425,0471;0,00405481
2426,0115;0,00410577
2426,9756;0,00414879
2427,9399;0,00417927
2428,9041;0,0041951
2429,8684;0,00419788
2430,8325;0,00419386
2431,7969;0,00419257
2432,7610;0,0042027
2433,7253;0,00422704
2434,6895;0,00425997
2435,6538;0,00428982
2436,6179;0,00430557
2437,5823;0,00430367
2438,5464;0,00429073
2439,5107;0,00428017
2440,4749;0,00428503
2441,4392;0,00431134
2442,4033;0,00435582
2443,3677;0,00440854
2444,3318;0,00445805
2445,2961;0,00449546
2446,2603;0,00451577
2447,2246;0,00451704
2448,1887;0,00449971
2449,1531;0,00446729
2450,1172;0,00442793
2451,0815;0,00439406
2452,0457;0,0043789
2453,0100;0,00439055
2453,9741;0,00442776
2454,9385;0,00448056
2455,9026;0,00453635
2456,8669;0,00458707
2457,8311;0,00463216
2458,7954;0,00467482
2459,7595;0,00471467
2460,7239;0,00474346
2461,6880;0,00474871
2462,6523;0,00472369
2463,6165;0,00467626
2464,5808;0,0046288
2465,5449;0,00460758
2466,5093;0,00462801
2467,4734;0,00468571
2468,4377;0,00475929
2469,4019;0,00482265
2470,3662;0,0048583
2471,3303;0,00486384
2472,2947;0,0048491
2473,2588;0,00482841
2474,2231;0,00481378
2475,1873;0,00481234
2476,1516;0,00482703
2477,1157;0,00485782
2478,0801;0,00490163
2479,0442;0,00495174
2480,0085;0,0049984
2480,9727;0,00503129
2481,9370;0,00504324
2482,9011;0,0050334
2483,8655;0,00500867
2484,8296;0,00498249
2485,7939;0,00497074
2486,7581;0,00498549
2487,7224;0,00502903
2488,6865;0,00509143
2489,6509;0,00515423
2490,6150;0,00519916
2491,5793;0,00521724
2492,5435;0,00521259
2493,5078;0,00519843
2494,4719;0,00518826
2495,4363;0,00518836
2496,4004;0,00519645
2497,3647;0,00520629
2498,3289;0,00521385
2499,2932;0,00521998
2500,2573;0,00522838
2501,2217;0,00524155
2502,1858;0,00525854
2503,1501;0,00527595
2504,1143;0,00529063
2505,0786;0,0053015
2506,0427;0,00530926
2507,0071;0,00531511
2507,9712;0,0053201
2508,9355;0,00532536
2509,8997;0,0053323
2510,8640;0,00534181
2511,8281;0,00535307
2512,7925;0,00536357
2513,7566;0,00537082
2514,7209;0,00537453
2515,6851;0,00537715
2516,6494;0,00538178
2517,6135;0,00538936
2518,5779;0,00539772
2519,5420;0,00540367
2520,5063;0,00540632
2521,4705;0,00540828
2522,4348;0,00541317
2523,3989;0,0054213
2524,3633;0,00542783
2525,3274;0,0054257
2526,2917;0,00541183
2527,2559;0,00539159
2528,2202;0,00537746
2529,1843;0,00538208
2530,1487;0,00541043
2531,1128;0,00545648
2532,0771;0,00550659
2533,0413;0,00554669
2534,0056;0,00556829
2534,9697;0,0055699
2535,9341;0,00555481
2536,8982;0,00552865
2537,8625;0,00549905
2538,8267;0,0054766
2539,7910;0,00547371
2540,7551;0,00549956
2541,7195;0,00555309
2542,6836;0,00561949
2543,6479;0,00567449
2544,6121;0,00569562
2545,5764;0,00567446
2546,5405;0,00562166
2547,5049;0,00556113
2548,4690;0,00551656
2549,4333;0,0054987
2550,3975;0,00550112
2551,3618;0,00550642
2552,3259;0,0054983
2553,2903;0,00547179
2554,2544;0,00543567
2555,2188;0,00540681
2556,1829;0,00540044
2557,1472;0,00542214
2558,1113;0,00546524
2559,0757;0,0055143
2560,0398;0,00555239
2561,0042;0,00556873
2561,9683;0,00556317
2562,9326;0,00554544
2563,8967;0,00552933
2564,8611;0,00552443
2565,8252;0,00553027
2566,7896;0,0055364
2567,7537;0,00552924
2568,7180;0,00550172
2569,6821;0,00545953
2570,6465;0,00541952
2571,6106;0,00540042
2572,5750;0,0054114
2573,5391;0,00544586
2574,5034;0,00548471
2575,4675;0,00550738
2576,4319;0,00550399
2577,3960;0,00548107
2578,3604;0,00545716
2579,3245;0,00545123
2580,2888;0,00547099
2581,2529;0,00550845
2582,2173;0,00554513
2583,1814;0,0055633
2584,1458;0,00555616
2585,1099;0,00553071
2586,0742;0,00550238
2587,0383;0,00548562
2588,0027;0,0054868
2588,9668;0,00550337
2589,9312;0,00552814
2590,8953;0,00555477
2591,8596;0,00557996
2592,8237;0,00560197
2593,7881;0,00561786
2594,7522;0,00562297
2595,7166;0,00561366
2596,6807;0,00559126
2597,6450;0,00556374
2598,6091;0,00554334
2599,5735;0,00554114
2600,5376;0,00556197
2601,5020;0,00560246
2602,4661;0,00565308
2603,4304;0,00570252
2604,3945;0,00574204
2605,3589;0,00576807
2606,3230;0,0057824
2607,2874;0,00579059
2608,2515;0,00579922
2609,2158;0,00581283
2610,1799;0,00583185
2611,1443;0,00585242
2612,1084;0,00586858
2613,0728;0,00587601
2614,0369;0,00587522
2615,0012;0,00587198
2615,9653;0,00587434
2616,9297;0,00588778
2617,8938;0,00591157
2618,8582;0,0059387
2619,8223;0,00595981
2620,7866;0,00596854
2621,7507;0,00596506
2622,7151;0,00595561
2623,6792;0,00594869
2624,6436;0,00595056
2625,6077;0,00596295
2626,5720;0,00598392
2627,5361;0,00601051
2628,5005;0,00604093
2629,4646;0,00607483
2630,4290;0,00611201
2631,3931;0,00615097
2632,3574;0,00618866
2633,3215;0,00622124
2634,2859;0,00624535
2635,2500;0,00625902
2636,2144;0,00626239
2637,1785;0,00625821
2638,1428;0,00625209
2639,1069;0,00625135
2640,0713;0,00626242
2641,0354;0,00628746
2641,9998;0,00632255
2642,9639;0,00635922
2643,9282;0,00638895
2644,8923;0,00640821
2645,8567;0,0064205
2646,8208;0,00643401
2647,7852;0,00645631
2648,7493;0,00648971
2649,7136;0,00653012
2650,6777;0,00656998
2651,6421;0,00660289
2652,6062;0,00662695
2653,5706;0,00664505
2654,5347;0,0066626
2655,4990;0,00668436
2656,4631;0,00671239
2657,4275;0,00674572
2658,3916;0,00678155
2659,3560;0,00681721
2660,3201;0,006852
2661,2844;0,00688787
2662,2485;0,00692862
2663,2129;0,00697747
2664,1770;0,00703445
2665,1414;0,00709508
2666,1055;0,00715161
2667,0698;0,00719661
2668,0339;0,00722672
2668,9983;0,00724432
2669,9624;0,00725598
2670,9268;0,00726873
2671,8909;0,00728679
2672,8552;0,00731057
2673,8193;0,00733808
2674,7837;0,00736716
2675,7478;0,00739674
2676,7122;0,00742652
2677,6763;0,00745608
2678,6406;0,00748458
2679,6047;0,00751157
2680,5691;0,0075378
2681,5332;0,007565
2682,4976;0,00759452
2683,4617;0,00762591
2684,4260;0,00765689
2685,3901;0,007685
2686,3545;0,00770973
2687,3186;0,00773316
2688,2830;0,00775861
2689,2471;0,00778803
2690,2114;0,00782045
2691,1755;0,0078528
2692,1399;0,00788238
2693,1040;0,00790915
2694,0684;0,00793587
2695,0325;0,00796592
2695,9968;0,00800059
2696,9609;0,00803806
2697,9253;0,00807474
2698,8894;0,00810806
2699,8538;0,0081385
2700,8179;0,00816947
2701,7822;0,00820506
2702,7463;0,0082475
2703,7107;0,00829563
2704,6748;0,00834543
2705,6392;0,00839189
2706,6033;0,00843113
2707,5676;0,00846193
2708,5317;0,00848607
2709,4961;0,00850766
2710,4602;0,00853163
2711,4246;0,00856194
2712,3887;0,00860017
2713,3530;0,00864506
2714,3171;0,0086933
2715,2815;0,00874117
2716,2456;0,00878626
2717,2100;0,00882834
2718,1741;0,00886907
2719,1384;0,00891064
2720,1025;0,00895403
2721,0669;0,00899794
2722,0310;0,00903877
2722,9954;0,00907216
2723,9595;0,00909531
2724,9238;0,00910902
2725,8879;0,00911822
2726,8523;0,00913035
2727,8164;0,00915215
2728,7808;0,00918652
2729,7449;0,00923106
2730,7092;0,00927906
2731,6733;0,00932247
2732,6377;0,00935518
2733,6018;0,00937526
2734,5662;0,00938524
2735,5303;0,00939075
2736,4946;0,0093981
2737,4587;0,00941183
2738,4231;0,00943323
2739,3872;0,00946038
2740,3516;0,00948982
2741,3157;0,00951869
2742,2800;0,00954608
2743,2441;0,00957261
2744,2085;0,00959875
2745,1726;0,00962332
2746,1370;0,00964385
2747,1011;0,00965875
2748,0654;0,00966966
2749,0295;0,0096818
2749,9939;0,00970167
2750,9580;0,0097334
2751,9224;0,0097764
2752,8865;0,00982593
2753,8508;0,00987598
2754,8149;0,00992221
2755,7793;0,00996296
2756,7434;0,00999828
2757,7078;0,0100283
2758,6719;0,0100529
2759,6362;0,0100723
2760,6003;0,0100887
2761,5647;0,0101057
2762,5288;0,0101272
2763,4932;0,0101556
2764,4573;0,0101913
2765,4216;0,0102337
2766,3857;0,0102825
2767,3501;0,0103379
2768,3142;0,0103997
2769,2786;0,0104653
2770,2427;0,0105287
2771,2070;0,0105828
2772,1711;0,0106226
2773,1355;0,0106486
2774,0996;0,0106682
2775,0640;0,010693
2776,0281;0,0107333
2776,9924;0,0107935
2777,9565;0,0108695
2778,9209;0,0109517
2779,8850;0,0110302
2780,8494;0,0111
2781,8135;0,0111626
2782,7778;0,0112229
2783,7419;0,0112847
2784,7063;0,0113471
2785,6704;0,0114052
2786,6348;0,0114543
2787,5989;0,0114941
2788,5632;0,0115307
2789,5273;0,0115743
2790,4917;0,0116342
2791,4558;0,0117136
2792,4202;0,0118089
2793,3843;0,0119104
2794,3486;0,0120079
2795,3127;0,0120943
2796,2771;0,0121688
2797,2412;0,0122365
2798,2056;0,012306
2799,1697;0,0123857
2800,1340;0,0124806
2801,0981;0,0125912
2802,0625;0,012714
2803,0266;0,0128438
2803,9910;0,0129759
2804,9551;0,013107
2805,9194;0,0132347
2806,8835;0,0133568
2807,8479;0,0134721
2808,8120;0,0135808
2809,7764;0,0136861
2810,7405;0,0137941
2811,7048;0,0139118
2812,6689;0,0140447
2813,6333;0,014195
2814,5974;0,0143609
2815,5618;0,0145382
2816,5259;0,0147218
2817,4902;0,0149074
2818,4543;0,0150917
2819,4187;0,0152731
2820,3828;0,0154522
2821,3472;0,0156318
2822,3113;0,0158174
2823,2756;0,0160149
2824,2397;0,016229
2825,2041;0,0164615
2826,1682;0,0167115
2827,1326;0,0169771
2828,0967;0,0172575
2829,0610;0,0175545
2830,0251;0,0178721
2830,9895;0,0182138
2831,9536;0,0185805
2832,9180;0,0189689
2833,8821;0,0193735
2834,8464;0,0197896
2835,8105;0,0202174
2836,7749;0,0206647
2837,7390;0,0211464
2838,7034;0,0216821
2839,6675;0,0222927
2840,6318;0,0229984
2841,5959;0,0238181
2842,5603;0,0247672
2843,5244;0,0258511
2844,4888;0,0270543
2845,4529;0,0283283
2846,4172;0,0295875
2847,3813;0,0307201
2848,3457;0,0316137
2849,3098;0,0321883
2850,2742;0,0324207
2851,2383;0,0323489
2852,2026;0,0320534
2853,1667;0,0316279
2854,1311;0,0311512
2855,0952;0,0306746
2856,0596;0,0302245
2857,0237;0,0298134
2857,9880;0,0294509
2858,9521;0,0291473
2859,9165;0,0289105
2860,8806;0,0287424
2861,8450;0,0286379
2862,8091;0,0285884
2863,7734;0,0285868
2864,7375;0,0286301
2865,7019;0,0287181
2866,6660;0,028848
2867,6304;0,029011
2868,5945;0,0291906
2869,5588;0,029366
2870,5229;0,0295186
2871,4873;0,0296372
2872,4514;0,0297211
2873,4158;0,029779
2874,3799;0,0298241
2875,3442;0,0298699
2876,3083;0,0299259
2877,2727;0,0299962
2878,2368;0,0300812
2879,2012;0,0301794
2880,1653;0,0302894
2881,1296;0,0304105
2882,0938;0,0305432
2883,0581;0,0306881
2884,0222;0,0308462
2884,9866;0,0310182
2885,9507;0,0312048
2886,9150;0,0314051
2887,8792;0,0316162
2888,8435;0,0318333
2889,8076;0,0320503
2890,7720;0,0322622
2891,7361;0,0324664
2892,7004;0,0326635
2893,6646;0,0328561
2894,6289;0,0330476
2895,5930;0,0332415
2896,5574;0,0334413
2897,5215;0,0336495
2898,4858;0,0338667
2899,4500;0,0340899
2900,4143;0,0343135
2901,3784;0,0345323
2902,3428;0,0347468
2903,3069;0,0349674
2904,2712;0,0352128
2905,2354;0,0355048
2906,1997;0,0358615
2907,1638;0,0362934
2908,1282;0,0368067
2909,0923;0,0374086
2910,0566;0,0381095
2911,0208;0,0389176
2911,9851;0,0398252
2912,9492;0,0407961
2913,9136;0,041763
2914,8777;0,0426392
2915,8420;0,0433409
2916,8062;0,0438113
2917,7705;0,0440322
2918,7346;0,0440218
2919,6990;0,0438203
2920,6631;0,043473
2921,6274;0,0430191
2922,5916;0,0424883
2923,5559;0,0419026
2924,5200;0,0412799
2925,4844;0,0406345
2926,4485;0,0399773
2927,4128;0,039315
2928,3770;0,0386518
2929,3413;0,0379908
2930,3054;0,037335
2931,2698;0,0366871
2932,2339;0,036049
2933,1982;0,0354217
2934,1624;0,0348058
2935,1267;0,0342023
2936,0908;0,0336126
2937,0552;0,0330375
2938,0193;0,032477
2938,9836;0,0319298
2939,9478;0,0313947
2940,9121;0,0308717
2941,8762;0,0303622
2942,8406;0,0298695
2943,8047;0,0293986
2944,7690;0,0289554
2945,7332;0,0285465
2946,6975;0,0281779
2947,6616;0,0278528
2948,6260;0,027569
2949,5901;0,0273182
2950,5544;0,027087
2951,5186;0,0268604
2952,4829;0,0266259
2953,4470;0,0263764
2954,4114;0,0261107
2955,3755;0,0258317
2956,3398;0,0255434
2957,3040;0,0252494
2958,2683;0,0249517
2959,2324;0,0246521
2960,1968;0,0243521
2961,1609;0,0240529
2962,1252;0,0237542
2963,0894;0,0234531
2964,0537;0,0231451
2965,0178;0,022827
2965,9822;0,0224995
2966,9463;0,022169
2967,9106;0,0218456
2968,8748;0,0215382
2969,8391;0,0212502
2970,8032;0,0209781
2971,7676;0,0207138
2972,7317;0,0204492
2973,6960;0,0201812
2974,6602;0,0199124
2975,6245;0,019649
2976,5886;0,0193967
2977,5530;0,0191585
2978,5171;0,0189339
2979,4814;0,018722
2980,4456;0,0185226
2981,4099;0,0183374
2982,3740;0,0181683
2983,3384;0,0180158
2984,3025;0,0178785
2985,2668;0,0177536
2986,2310;0,0176386
2987,1953;0,0175322
2988,1594;0,0174345
2989,1238;0,017346
2990,0879;0,0172674
2991,0522;0,0171985
2992,0164;0,0171378
2992,9807;0,0170832
2993,9448;0,0170323
2994,9092;0,0169836
2995,8733;0,016938
2996,8376;0,0168989
2997,8018;0,0168706
2998,7661;0,0168565
2999,7302;0,0168565
3000,6946;0,0168669
3001,6587;0,016882
3002,6230;0,0168967
3003,5872;0,0169087
3004,5515;0,0169191
3005,5156;0,0169308
3006,4800;0,0169471
3007,4441;0,0169695
3008,4084;0,0169973
3009,3726;0,0170282
3010,3369;0,0170584
3011,3010;0,0170847
3012,2654;0,0171051
3013,2295;0,0171202
3014,1938;0,0171322
3015,1580;0,0171448
3016,1223;0,017162
3017,0864;0,0171872
3018,0508;0,0172229
3019,0149;0,0172705
3019,9792;0,0173289
3020,9434;0,0173938
3021,9077;0,0174593
3022,8718;0,0175206
3023,8362;0,0175784
3024,8003;0,0176405
3025,7646;0,017719
3026,7288;0,017823
3027,6931;0,0179516
3028,6572;0,0180912
3029,6216;0,0182207
3030,5857;0,0183211
3031,5500;0,0183859
3032,5142;0,0184238
3033,4785;0,0184541
3034,4426;0,0184961
3035,4070;0,0185612
3036,3711;0,0186496
3037,3354;0,0187539
3038,2996;0,0188643
3039,2639;0,0189735
3040,2280;0,0190791
3041,1924;0,0191833
3042,1565;0,0192917
3043,1208;0,0194101
3044,0850;0,0195425
3045,0493;0,0196876
3046,0134;0,0198395
3046,9778;0,0199899
3047,9419;0,020133
3048,9063;0,0202693
3049,8704;0,0204055
3050,8347;0,02055
3051,7988;0,0207073
3052,7632;0,0208746
3053,7273;0,0210424
3054,6917;0,0211999
3055,6558;0,0213405
3056,6201;0,0214646
3057,5842;0,02158
3058,5486;0,0216981
3059,5127;0,0218298
3060,4771;0,0219812
3061,4412;0,0221518
3062,4055;0,0223327
3063,3696;0,0225099
3064,3340;0,0226688
3065,2981;0,0228015
3066,2625;0,0229106
3067,2266;0,0230086
3068,1909;0,0231111
3069,1550;0,0232294
3070,1194;0,0233656
3071,0835;0,0235139
3072,0479;0,0236667
3073,0120;0,0238188
3073,9763;0,023971
3074,9404;0,024127
3075,9048;0,0242905
3076,8689;0,0244616
3077,8333;0,0246364
3078,7974;0,0248085
3079,7617;0,0249716
3080,7258;0,025121
3081,6902;0,0252552
3082,6543;0,0253756
3083,6187;0,0254866
3084,5828;0,0255943
3085,5471;0,0257052
3086,5112;0,025825
3087,4756;0,025958
3088,4397;0,0261063
3089,4041;0,0262703
3090,3682;0,0264477
3091,3325;0,0266343
3092,2966;0,0268242
3093,2610;0,0270117
3094,2251;0,027194
3095,1895;0,0273717
3096,1536;0,0275471
3097,1179;0,0277217
3098,0820;0,0278934
3099,0464;0,0280571
3100,0105;0,0282085
3100,9749;0,028348
3101,9390;0,028482
3102,9033;0,0286203
3103,8674;0,0287702
3104,8318;0,0289331
3105,7959;0,0291041
3106,7603;0,0292765
3107,7244;0,0294468
3108,6887;0,0296175
3109,6528;0,0297957
3110,6172;0,0299879
3111,5813;0,0301948
3112,5457;0,0304098
3113,5098;0,0306218
3114,4741;0,0308211
3115,4382;0,0310048
3116,4026;0,0311778
3117,3667;0,0313498
3118,3311;0,0315292
3119,2952;0,031719
3120,2595;0,031916
3121,2236;0,0321143
3122,1880;0,0323084
3123,1521;0,032496
3124,1165;0,0326766
3125,0806;0,0328509
3126,0449;0,0330197
3127,0090;0,0331848
3127,9734;0,0333505
3128,9375;0,0335222
3129,9019;0,0337042
3130,8660;0,0338966
3131,8303;0,0340947
3132,7944;0,0342917
3133,7588;0,0344833
3134,7229;0,034671
3135,6873;0,0348607
3136,6514;0,0350596
3137,6157;0,0352714
3138,5798;0,0354946
3139,5442;0,0357236
3140,5083;0,0359522
3141,4727;0,0361765
3142,4368;0,0363969
3143,4011;0,0366166
3144,3652;0,0368396
3145,3296;0,0370672
3146,2937;0,0372973
3147,2581;0,0375244
3148,2222;0,0377424
3149,1865;0,0379488
3150,1506;0,0381465
3151,1150;0,038343
3152,0791;0,0385463
3153,0435;0,0387599
3154,0076;0,0389812
3154,9719;0,0392035
3155,9360;0,0394212
3156,9004;0,0396335
3157,8645;0,039845
3158,8289;0,0400616
3159,7930;0,0402857
3160,7573;0,0405143
3161,7214;0,0407408
3162,6858;0,0409594
3163,6499;0,0411698
3164,6143;0,0413772
3165,5784;0,0415895
3166,5427;0,0418131
3167,5068;0,0420496
3168,4712;0,0422956
3169,4353;0,042335
3170,3997;0,0425852
3171,3638;0,0428337
3172,3281;0,0430786
3173,2922;0,0433179
3174,2566;0,0435489
3175,2207;0,0437687
3176,1851;0,0439765
3177,1492;0,044175
3178,1135;0,044372
3179,0776;0,0445772
3180,0420;0,0447986
3181,0061;0,045038
3181,9705;0,0452891
3182,9346;0,0455406
3183,8989;0,0457814
3184,8630;0,0460055
3185,8274;0,0462147
3186,7915;0,0464164
3187,7559;0,0466192
3188,7200;0,0468288
3189,6843;0,0470467
3190,6484;0,0472709
3191,6128;0,0474988
3192,5769;0,047728
3193,5413;0,0479554
3194,5054;0,048177
3195,4697;0,0483873
3196,4338;0,0485821
3197,3982;0,0487613
3198,3623;0,0489315
3199,3267;0,0491045
3200,2908;0,0492922
3201,2551;0,049501
3202,2192;0,0497277
3203,1836;0,0499606
3204,1477;0,0501857
3205,1121;0,050394
3206,0762;0,0505868
3207,0405;0,0507742
3208,0046;0,0509685
3208,9690;0,0511753
3209,9331;0,0513902
3210,8975;0,0516021
3211,8616;0,0518012
3212,8259;0,051987
3213,7900;0,052169
3214,7544;0,0523601
3215,7185;0,052568
3216,6829;0,052789
3217,6470;0,0530105
3218,6113;0,0532181
3219,5754;0,0534043
3220,5398;0,0535725
3221,5039;0,0537343
3222,4683;0,0539036
3223,4324;0,054089
3224,3967;0,0542921
3225,3608;0,0545076
3226,3252;0,0547269
3227,2893;0,0549411
3228,2537;0,0551438
3229,2178;0,0553317
3230,1821;0,0555057
3231,1462;0,0556701
3232,1106;0,0558316
3233,0747;0,055997
3234,0391;0,0561717
3235,0032;0,056359
3235,9675;0,0565598
3236,9316;0,0567736
3237,8960;0,0569981
3238,8601;0,0572283
3239,8245;0,0574565
3240,7886;0,0576733
3241,7529;0,0578705
3242,7170;0,0580457
3243,6814;0,0582034
3244,6455;0,0583547
3245,6099;0,058512
3246,5740;0,0586843
3247,5383;0,058873
3248,5024;0,0590729
3249,4668;0,0592762
3250,4309;0,0594766
3251,3953;0,0596723
3252,3594;0,0598656
3253,3237;0,0600612
3254,2878;0,0602636
3255,2522;0,0604753
3256,2163;0,0606946
3257,1807;0,0609162
3258,1448;0,0611335
3259,1091;0,0613419
3260,0732;0,0615416
3261,0376;0,0617378
3262,0017;0,0619379
3262,9661;0,0621469
3263,9302;0,0623643
3264,8945;0,0625847
3265,8586;0,0628011
3266,8230;0,0630086
3267,7871;0,0632061
3268,7515;0,0633946
3269,7156;0,0635739
3270,6799;0,0637411
3271,6440;0,063892
3272,6084;0,0640236
3273,5725;0,064137
3274,5369;0,0642375
3275,5010;0,0643323
3276,4653;0,0644275
3277,4294;0,0645257
3278,3938;0,064626
3279,3579;0,0647243
3280,3223;0,0648163
3281,2864;0,0648995
3282,2507;0,0649756
3283,2148;0,0650501
3284,1792;0,0651304
3285,1433;0,0652213
3286,1077;0,0653204
3287,0718;0,0654183
3288,0361;0,0655017
3289,0002;0,0655608
3289,9646;0,0655936
3290,9287;0,065608
3291,8931;0,0656163
3292,8572;0,0656284
3293,8215;0,0656483
3294,7856;0,0656735
3295,7500;0,0656991
3296,7141;0,065723
3297,6785;0,0657462
3298,6426;0,0657713
3299,6069;0,0657993
3300,5710;0,0658282
3301,5354;0,0658553
3302,4995;0,0658797
3303,4639;0,0659035
3304,4280;0,0659298
3305,3923;0,0659599
3306,3564;0,0659911
3307,3208;0,0660182
3308,2849;0,0660366
3309,2493;0,0660452
3310,2134;0,0660469
3311,1777;0,0660467
3312,1418;0,0660498
3313,1062;0,0660606
3314,0703;0,0660837
3315,0347;0,066125
3315,9988;0,0661906
3316,9631;0,0662849
3317,9272;0,0664076
3318,8916;0,0665527
3319,8557;0,0667094
3320,8201;0,066865
3321,7842;0,0670086
3322,7485;0,0671339
3323,7126;0,0672409
3324,6770;0,0673349
3325,6411;0,067424
3326,6055;0,0675158
3327,5696;0,0676139
3328,5339;0,0677185
3329,4980;0,0678276
3330,4624;0,0679387
3331,4265;0,0680496
3332,3909;0,0681565
3333,3550;0,0682516
3334,3193;0,0683229
3335,2834;0,0683576
3336,2478;0,068348
3337,2119;0,0682957
3338,1763;0,0682116
3339,1404;0,0681105
3340,1047;0,0680049
3341,0688;0,0679012
3342,0332;0,0677999
3342,9973;0,0676987
3343,9617;0,067595
3344,9258;0,0674883
3345,8901;0,0673793
3346,8542;0,0672697
3347,8186;0,0671611
3348,7827;0,0670545
3349,7471;0,0669486
3350,7112;0,0668393
3351,6755;0,0667196
3352,6396;0,0665831
3353,6040;0,0664284
3354,5681;0,0662615
3355,5325;0,0660946
3356,4966;0,065941
3357,4609;0,0658082
3358,4250;0,0656947
3359,3894;0,0655919
3360,3535;0,0654892
3361,3179;0,0653785
3362,2820;0,0652563
3363,2463;0,0651207
3364,2104;0,06497
3365,1748;0,0648015
3366,1389;0,0646144
3367,1033;0,064411
3368,0674;0,0641975
3369,0317;0,0639807
3369,9958;0,063766
3370,9602;0,0635572
3371,9243;0,0633574
3372,8887;0,0631705
3373,8528;0,0629994
3374,8171;0,062843
3375,7813;0,0626952
3376,7456;0,0625481
3377,7097;0,062398
3378,6741;0,0622483
3379,6382;0,0621066
3380,6025;0,0619756
3381,5667;0,0618469
3382,5310;0,0617027
3383,4951;0,0615272
3384,4595;0,0613207
3385,4236;0,0611048
3386,3879;0,0609121
3387,3521;0,0607678
3388,3164;0,0606749
3389,2805;0,0606135
3390,2449;0,0605525
3391,2090;0,0604653
3392,1733;0,0603402
3393,1375;0,0601794
3394,1018;0,0599913
3395,0659;0,0597835
3396,0303;0,0595623
3396,9944;0,0593364
3397,9587;0,0591181
3398,9229;0,0589176
3399,8872;0,0587361
3400,8513;0,0585626
3401,8157;0,0583801
3402,7798;0,0581758
3403,7441;0,0579485
3404,7083;0,0577087
3405,6726;0,0574718
3406,6367;0,0572501
3407,6011;0,0570482
3408,5652;0,0568624
3409,5295;0,0566821
3410,4937;0,056492
3411,4580;0,0562777
3412,4221;0,056033
3413,3865;0,0557674
3414,3506;0,0555048
3415,3149;0,0552736
3416,2791;0,055091
3417,2434;0,0549488
3418,2075;0,0548137
3419,1719;0,0546415
3420,1360;0,0544012
3421,1003;0,0540924
3422,0645;0,0537453
3423,0288;0,0534022
3423,9929;0,053094
3424,9573;0,0528287
3425,9214;0,0525934
3426,8857;0,0523666
3427,8499;0,05213
3428,8142;0,0518757
3429,7783;0,0516052
3430,7427;0,0513246
3431,7068;0,0510394
3432,6711;0,0507526
3433,6353;0,0504668
3434,5996;0,0501872
3435,5637;0,0499198
3436,5281;0,0496682
3437,4922;0,0494299
3438,4565;0,049198
3439,4207;0,0489678
3440,3850;0,0487428
3441,3491;0,048533
3442,3135;0,0483452
3443,2776;0,0481693
3444,2419;0,0479733
3445,2061;0,0477148
3446,1704;0,0473655
3447,1345;0,0469353
3448,0989;0,0464739
3449,0630;0,0460451
3450,0273;0,0456918
3450,9915;0,0454192
3451,9558;0,0452014
3452,9199;0,0450032
3453,8843;0,0447992
3454,8484;0,0445823
3455,8127;0,0443594
3456,7769;0,0441387
3457,7412;0,0439205
3458,7053;0,043696
3459,6697;0,0434529
3460,6338;0,0431838
3461,5981;0,0428901
3462,5623;0,0425799
3463,5266;0,0422617
3464,4907;0,0419395
3465,4551;0,041612
3466,4192;0,0412772
3467,3835;0,0409387
3468,3477;0,0406077
3469,3120;0,0402979
3470,2761;0,0400153
3471,2405;0,0397519
3472,2046;0,0394895
3473,1689;0,0392145
3474,1331;0,0389325
3475,0974;0,0386707
3476,0615;0,0384615
3477,0259;0,0383168
3477,9900;0,0382122
3478,9543;0,0380927
3479,9185;0,0379003
3480,8828;0,0376084
3481,8469;0,0372408
3482,8113;0,0368579
3483,7754;0,0365166
3484,7397;0,0362357
3485,7039;0,0359915
3486,6682;0,0357398
3487,6323;0,03545
3488,5967;0,0351273
3489,5608;0,0348089
3490,5251;0,0345375
3491,4893;0,0343306
3492,4536;0,0341679
3493,4177;0,0340041
3494,3821;0,0337996
3495,3462;0,0335522
3496,3105;0,0333063
3497,2747;0,0331256
3498,2390;0,0330462
3499,2031;0,0330422
3500,1675;0,0330267
3501,1316;0,032891
3502,0959;0,0325684
3503,0601;0,0320879
3504,0244;0,0315655
3504,9885;0,0311274
3505,9529;0,0308301
3506,9170;0,0306386
3507,8813;0,0304623
3508,8455;0,0302141
3509,8098;0,0298608
3510,7739;0,0294387
3511,7383;0,0290205
3512,7024;0,0286641
3513,6667;0,0283843
3514,6309;0,0281613
3515,5952;0,0279684
3516,5593;0,0277958
3517,5237;0,0276553
3518,4878;0,0275672
3519,4521;0,0275405
3520,4163;0,0275591
3521,3806;0,0275833
3522,3447;0,0275629
3523,3091;0,0274573
3524,2732;0,0272468
3525,2375;0,0269303
3526,2017;0,0265146
3527,1660;0,0260123
3528,1301;0,0254517
3529,0945;0,0248865
3530,0586;0,0243878
3531,0229;0,0240142
3531,9871;0,0237847
3532,9514;0,0236686
3533,9155;0,0235952
3534,8799;0,0234793
3535,8440;0,0232601
3536,8083;0,0229365
3537,7725;0,0225752
3538,7368;0,0222788
3539,7009;0,0221338
3540,6653;0,0221721
3541,6294;0,0223541
3542,5938;0,0225711
3543,5579;0,022668
3544,5222;0,0225075
3545,4863;0,0220583
3546,4507;0,0214327
3547,4148;0,020814
3548,3792;0,0203358
3549,3433;0,0200182
3550,3076;0,0197862
3551,2717;0,0195333
3552,2361;0,0191916
3553,2002;0,0187782
3554,1646;0,0183798
3555,1287;0,0180852
3556,0930;0,0179258
3557,0571;0,0178689
3558,0215;0,0178543
3558,9856;0,0178425
3559,9500;0,0178467
3560,9141;0,0179243
3561,8784;0,0181296
3562,8425;0,0184579
3563,8069;0,0188041
3564,7710;0,0189424
3565,7354;0,0185888
3566,6995;0,0176281
3567,6638;0,0163248
3568,6279;0,0151521
3569,5923;0,0143996
3570,5564;0,0140497
3571,5208;0,0139283
3572,4849;0,0138667
3573,4492;0,0137703
3574,4133;0,0136211
3575,3777;0,0134453
3576,3418;0,0132724
3577,3062;0,0131089
3578,2703;0,0129466
3579,2346;0,0127922
3580,1987;0,0126857
3581,1631;0,0126846
3582,1272;0,012824
3583,0916;0,0130827
3584,0557;0,0133679
3585,0200;0,0135121
3585,9841;0,0133178
3586,9485;0,0127155
3587,9126;0,0119259
3588,8770;0,0113337
3589,8411;0,0111608
3590,8054;0,0113488
3591,7695;0,0116838
3592,7339;0,0119425
3593,6980;0,0119784
3594,6624;0,0117717
3595,6265;0,011421
3596,5908;0,0110514
3597,5549;0,0107112
3598,5193;0,0103594
3599,4834;0,00994228
3600,4478;0,00947637
3601,4119;0,00905672
3602,3762;0,00877872
3603,3403;0,00865381
3604,3047;0,00859375
3605,2688;0,00845323
3606,2332;0,00809295
3607,1973;0,00745398
3608,1616;0,00661751
3609,1257;0,00578044
3610,0901;0,00513845
3611,0542;0,00478407
3612,0186;0,00469586
3612,9827;0,00478617
3613,9470;0,00494915
3614,9111;0,00508595
3615,8755;0,00511192
3616,8396;0,00496186
3617,8040;0,00461313
3618,7681;0,00413617
3619,7324;0,00372212
3620,6965;0,00359169
3621,6609;0,00382749
3622,6250;0,00431682
3623,5894;0,00484415
3624,5535;0,00520451
3625,5178;0,00524843
3626,4819;0,00486456
3627,4463;0,003988
3628,4104;0,00275264
3629,3748;0,00160275
3630,3389;0,000957811
3631,3032;0,000818422
3632,2673;0,000881002
3633,2317;0,000856052
3634,1958;0,000626221
3635,1602;0,000238918
3636,1243;-0,000182525
3637,0886;-0,000540437
3638,0527;-0,00081468
3639,0171;-0,00104123
3639,9812;-0,00125354
3640,9456;-0,00144452
3641,9097;-0,00157809
3642,8740;-0,0016315
3643,8381;-0,00162511
3644,8025;-0,00162287
3645,7666;-0,00173599
3646,7310;-0,00216931
3647,6951;-0,00321536
3648,6594;-0,0049042
3649,6235;-0,00658455
3650,5879;-0,00747681
3651,5520;-0,00749321
3652,5164;-0,0070695
3653,4805;-0,00665581
3654,4448;-0,00649603
3655,4089;-0,00661365
3656,3733;-0,00686584
3657,3374;-0,00705545
3658,3018;-0,00707767
3659,2659;-0,00697941
3660,2302;-0,00687884
3661,1943;-0,00684826
3662,1587;-0,00686741
3663,1228;-0,00686653
3664,0872;-0,00680949
3665,0513;-0,00673552
3666,0156;-0,00673552
3666,9797;-0,00689484
3667,9441;-0,00724778
3668,9082;-0,0077381
3669,8726;-0,0082019
3670,8367;-0,00846837
3671,8010;-0,00851636
3672,7651;-0,00847648
3673,7295;-0,00850945
3674,6936;-0,00870217
3675,6580;-0,00898442
3676,6221;-0,00913164
3677,5864;-0,00897691
3678,5505;-0,00857876
3679,5149;-0,00811471
3680,4790;-0,00770976
3681,4434;-0,00738677
3682,4075;-0,00711808
3683,3718;-0,00689499
3684,3359;-0,00675298
3685,3003;-0,00674223
3686,2644;-0,00688207
3687,2288;-0,00714337
3688,1929;-0,00745701
3689,1572;-0,00770394
3690,1213;-0,00772445
3691,0857;-0,00743537
3692,0498;-0,00691311
3693,0142;-0,00631236
3693,9783;-0,00575349
3694,9426;-0,00528918
3695,9067;-0,00492963
3696,8711;-0,00467686
3697,8352;-0,00454098
3698,7996;-0,00453541
3699,7637;-0,00465975
3700,7280;-0,00487904
3701,6921;-0,00511229
3702,6565;-0,00525725
3703,6206;-0,00525291
3704,5850;-0,00512206
3705,5491;-0,0049507
3706,5134;-0,00483812
3707,4775;-0,00487394
3708,4419;-0,00515721
3709,4060;-0,00580685
3710,3704;-0,00685483
3711,3345;-0,00805425
3712,2988;-0,00894585
3713,2629;-0,00923087
3714,2273;-0,00894479
3715,1914;-0,0083022
3716,1558;-0,00750864
3717,1199;-0,00668547
3718,0842;-0,00587685
3719,0483;-0,00508599
3720,0127;-0,0043101
3720,9768;-0,00356359
3721,9412;-0,00288966
3722,9053;-0,00235831
3723,8696;-0,00204467
3724,8337;-0,00198767
3725,7981;-0,00215839
3726,7622;-0,00247497
3727,7266;-0,00285036
3728,6907;-0,00321646
3729,6550;-0,00350828
3730,6191;-0,00364852
3731,5835;-0,00358322
3732,5476;-0,00338389
3733,5120;-0,00333372
3734,4761;-0,0037853
3735,4404;-0,00476217
3736,4045;-0,00583296
3737,3689;-0,00654755
3738,3330;-0,00681751
3739,2974;-0,00685886
3740,2615;-0,00696629
3741,2258;-0,00736344
3742,1899;-0,00813952
3743,1543;-0,00920553
3744,1184;-0,0102608
3745,0828;-0,0109211
3746,0469;-0,0110378
3747,0112;-0,0108202
3747,9753;-0,010631
3748,9397;-0,010771
3749,9038;-0,0113496
3750,8682;-0,0121432
3751,8323;-0,0126545
3752,7966;-0,0125613
3753,7607;-0,0119805
3754,7251;-0,011248
3755,6892;-0,0106543
3756,6536;-0,0103583
3757,6177;-0,010387
3758,5820;-0,010637
3759,5461;-0,0109104
3760,5105;-0,0110291
3761,4746;-0,0109411
3762,4390;-0,0107157
3763,4031;-0,0104705
3764,3674;-0,0103104
3765,3315;-0,010298
3766,2959;-0,0104463
3767,2600;-0,0107238
3768,2244;-0,0110695
3769,1885;-0,0114045
3770,1528;-0,0116406
3771,1169;-0,0117031
3772,0813;-0,0115678
3773,0454;-0,0112824
3774,0098;-0,0109444
3774,9739;-0,0106595
3775,9382;-0,0105066
3776,9023;-0,0105201
3777,8667;-0,0106772
3778,8308;-0,0108897
3779,7952;-0,0110369
3780,7593;-0,0110417
3781,7236;-0,0109174
3782,6877;-0,0107456
3783,6521;-0,0106195
3784,6162;-0,0105976
3785,5806;-0,0106808
3786,5447;-0,0108172
3787,5090;-0,0109332
3788,4731;-0,0109711
3789,4375;-0,0109141
3790,4016;-0,0107855
3791,3660;-0,0106301
3792,3301;-0,0104894
3793,2944;-0,010384
3794,2585;-0,0103133
3795,2229;-0,0102717
3796,1870;-0,0102718
3797,1514;-0,0103584
3798,1155;-0,0105964
3799,0798;-0,0110295
3800,0439;-0,0116201
3801,0083;-0,0122112
3801,9724;-0,0125934
3802,9368;-0,0126723
3803,9009;-0,0125489
3804,8652;-0,0124177
3805,8293;-0,0124056
3806,7937;-0,0124764
3807,7578;-0,0124588
3808,7222;-0,0122029
3809,6863;-0,011731
3810,6506;-0,0112209
3811,6147;-0,0108721
3812,5791;-0,0107943
3813,5432;-0,0109688
3814,5076;-0,0112648
3815,4717;-0,0115052
3816,4360;-0,0115784
3817,4001;-0,0115238
3818,3645;-0,0114976
3819,3286;-0,0116426
3820,2930;-0,0119537
3821,2571;-0,0122402
3822,2214;-0,0122701
3823,1855;-0,0119804
3824,1499;-0,0115081
3825,1140;-0,0110564
3826,0784;-0,0107695
3827,0425;-0,0106885
3828,0068;-0,0107681
3828,9709;-0,0109243
3829,9353;-0,0110834
3830,8994;-0,0112071
3831,8638;-0,0112895
3832,8279;-0,0113389
3833,7922;-0,0113632
3834,7563;-0,0113658
3835,7207;-0,0113498
3836,6848;-0,0113245
3837,6492;-0,0112993
3838,6133;-0,0112683
3839,5776;-0,0112157
3840,5417;-0,0111501
3841,5061;-0,0111139
3842,4702;-0,0111409
3843,4346;-0,0112077
3844,3987;-0,0112293
3845,3630;-0,0111134
3846,3271;-0,01083
3847,2915;-0,0104401
3848,2556;-0,010068
3849,2200;-0,00985276
3850,1841;-0,009924
3851,1484;-0,010412
3852,1125;-0,0114047
3853,0769;-0,0126803
3854,0410;-0,0135715
3855,0054;-0,013595
3855,9695;-0,0129157
3856,9338;-0,0119801
3857,8979;-0,0111207
3858,8623;-0,0104776
3859,8264;-0,0100648
3860,7908;-0,00985289
3861,7549;-0,0098213
3862,7192;-0,00995275
3863,6833;-0,0101875
3864,6477;-0,0104192
3865,6118;-0,010557
3866,5762;-0,0105746
3867,5403;-0,0105035
3868,5046;-0,010408
3869,4688;-0,0103663
3870,4331;-0,0104403
3871,3972;-0,010633
3872,3616;-0,0108766
3873,3257;-0,0110722
3874,2900;-0,011144
3875,2542;-0,0110663
3876,2185;-0,0108568
3877,1826;-0,0105595
3878,1470;-0,0102325
3879,1111;-0,00994115
3880,0754;-0,00974736
3881,0396;-0,00969397
3882,0039;-0,00980175
3882,9680;-0,0100736
3883,9324;-0,0104765
3884,8965;-0,0109106
3885,8608;-0,0112246
3886,8250;-0,0113006
3887,7893;-0,0111368
3888,7534;-0,0108465
3889,7178;-0,01059
3890,6819;-0,0104883
3891,6462;-0,010544
3892,6104;-0,0106283
3893,5747;-0,0105895
3894,5388;-0,0103791
3895,5032;-0,0100562
3896,4673;-0,00971098
3897,4316;-0,00940924
3898,3958;-0,00918466
3899,3601;-0,00905186
3900,3242;-0,00902376
3901,2886;-0,00912939
3902,2527;-0,0094114
3903,2170;-0,00987815
3904,1812;-0,0104512
3905,1455;-0,0109894
3906,1096;-0,0113805
3907,0740;-0,0115969
3908,0381;-0,0116741
3909,0024;-0,0116571
3909,9666;-0,0115668
3910,9309;-0,0113971
3911,8950;-0,0111353
3912,8594;-0,0107901
3913,8235;-0,0104112
3914,7878;-0,01009
3915,7520;-0,00993048
3916,7163;-0,00998746
3917,6804;-0,0102068
3918,6448;-0,0104388
3919,6089;-0,0105375
3920,5732;-0,0104579
3921,5374;-0,010271
3922,5017;-0,0101097
3923,4658;-0,010085
3924,4302;-0,01021
3925,3943;-0,010385
3926,3586;-0,0104686
3927,3228;-0,0103778
3928,2871;-0,0101374
3929,2512;-0,00986685
3930,2156;-0,00972506
3931,1797;-0,00982752
3932,1440;-0,010171
3933,1082;-0,0106321
3934,0725;-0,0110508
3935,0366;-0,0113159
3936,0010;-0,0113902
3936,9651;-0,0112887
3937,9294;-0,0110541
3938,8936;-0,0107473
3939,8579;-0,0104436
3940,8220;-0,0102181
3941,7864;-0,0101147
3942,7505;-0,0101157
3943,7148;-0,0101508
3944,6790;-0,0101486
3945,6433;-0,0100911
3946,6074;-0,0100279
3947,5718;-0,0100463
3948,5359;-0,0102116
3949,5002;-0,010515
3950,4644;-0,0108696
3951,4287;-0,0111658
3952,3928;-0,0113357
3953,3572;-0,0113772
3954,3213;-0,0113332
3955,2856;-0,0112548
3956,2498;-0,0111732
3957,2141;-0,0110963
3958,1782;-0,0110243
3959,1426;-0,0109693
3960,1067;-0,0109591
3961,0710;-0,01102
3962,0352;-0,0111539
3962,9995;-0,0113273
3963,9636;-0,0114854
3964,9280;-0,0115799
3965,8921;-0,0115921
3966,8564;-0,0115372
3967,8206;-0,0114507
3968,7849;-0,011367
3969,7490;-0,0113031
3970,7134;-0,011257
3971,6775;-0,0112202
3972,6418;-0,0111918
3973,6060;-0,0111841
3974,5703;-0,0112146
3975,5344;-0,0112906
3976,4988;-0,0114009
3977,4629;-0,0115188
3978,4272;-0,011617
3979,3914;-0,0116827
3980,3557;-0,0117232
3981,3198;-0,0117582
3982,2842;-0,0118038
3983,2483;-0,0118582
3984,2126;-0,0118996
3985,1768;-0,0118991
3986,1411;-0,0118403
3987,1052;-0,0117319
3988,0696;-0,0116074
3989,0337;-0,011509
3989,9980;-0,0114676
3990,9622;-0,0114898
3991,9265;-0,0115592
3992,8906;-0,0116502
3993,8550;-0,011742
3994,8191;-0,0118245
3995,7834;-0,011895
3996,7476;-0,0119512
3997,7119;-0,0119881
3998,6760;-0,012
3999,6404;-0,0119851
4000,6045;-0,0117298

##### Extended Information
[Comments]
Sample name
Comment
Username
Division
Organization;UNIVERSIDAD INDUSTRIAL DE SANTANDER

[Detailed Information]
Creation date;28/02/2025 4:39 p.m.

Data array type;Linear data array
Horizontal axis;Wavenumber [cm-1]
Vertical axis;Abs
Start;399,193 cm-1
End;4000,6 cm-1
Data interval;0,964233 cm-1
Data points;3736    

[Measurement Information]
Model name;FT/IR-4X1typeA
Serial No.;A035162111

Accessory;ATR PRO 4X
Accessory S/N;A021162126
Incident angle;45 deg

Measurement date;28/02/2025 4:39 p.m.

Light source;Standard
Detector;TGS
Accumulation;40
Resolution;4 cm-1
Zero filling;On
Apodization;Cosine
Gain;Auto (8)
Aperture;Auto (7 mm)
Scan speed;Auto (2 mm/sec)
Filter;Auto (12800 Hz)

