TITLE;
DATA TYPE;INFRARED SPECTRUM
ORIGIN;JASCO
OWNER;
DATE;25/02/28
TIME;16:35:37
SPECTROMETER/DATA SYSTEM;
LOCALE;9226
RESOLUTION;
DELTAX;0,964233
XUNITS;1/CM
YUNITS;ABSORBANCE
FIRSTX;  399,1927
LASTX; 4000,6047
NPOINTS;    3736
FIRSTY;     0,19561
MAXY;     0,23747
MINY;    -0,00760
XYDATA
399,1927;0,195613
400,1569;0,192939
401,1211;0,190301
402,0854;0,187975
403,0496;0,185928
404,0138;0,184035
404,9781;0,182251
405,9423;0,180668
406,9065;0,179453
407,8708;0,178704
408,8350;0,178361
409,7992;0,178263
410,7635;0,178298
411,7277;0,178518
412,6919;0,179118
413,6562;0,180289
414,6204;0,182085
415,5846;0,184371
416,5489;0,186789
417,5131;0,188736
418,4773;0,189569
419,4416;0,189192
420,4058;0,188276
421,3700;0,187566
422,3343;0,187294
423,2985;0,187286
424,2627;0,187264
425,2270;0,18703
426,1912;0,186546
427,1554;0,185904
428,1197;0,185247
429,0839;0,184703
430,0481;0,18437
431,0124;0,184326
431,9766;0,184615
432,9408;0,185207
433,9051;0,185952
434,8693;0,186601
435,8335;0,1869
436,7978;0,186735
437,7620;0,186212
438,7262;0,18561
439,6905;0,185234
440,6547;0,185255
441,6189;0,185603
442,5832;0,185957
443,5474;0,185888
444,5116;0,185124
445,4759;0,183734
446,4401;0,182088
447,4043;0,180632
448,3686;0,179679
449,3328;0,179293
450,2970;0,17931
451,2613;0,179463
452,2255;0,179535
453,1897;0,179455
454,1540;0,179281
455,1182;0,179104
456,0824;0,178942
457,0467;0,178712
458,0109;0,178291
458,9751;0,177638
459,9394;0,17685
460,9036;0,176095
461,8678;0,17551
462,8321;0,175153
463,7963;0,175018
464,7605;0,175051
465,7248;0,175181
466,6890;0,175335
467,6532;0,17545
468,6175;0,175472
469,5817;0,175352
470,5459;0,175055
471,5102;0,174585
472,4744;0,174009
473,4386;0,173428
474,4029;0,172927
475,3671;0,17253
476,3313;0,17223
477,2956;0,172034
478,2598;0,171998
479,2240;0,172204
480,1883;0,1727
481,1525;0,173431
482,1167;0,174231
483,0810;0,174874
484,0452;0,175192
485,0094;0,175172
485,9737;0,174973
486,9379;0,174818
487,9021;0,174866
488,8664;0,175145
489,8306;0,175563
490,7948;0,175978
491,7591;0,176271
492,7233;0,176408
493,6875;0,176445
494,6518;0,176478
495,6160;0,176586
496,5802;0,176793
497,5445;0,17707
498,5087;0,177362
499,4729;0,177618
500,4372;0,177816
501,4014;0,17797
502,3656;0,178114
503,3299;0,178269
504,2941;0,178423
505,2583;0,17853
506,2226;0,178549
507,1868;0,178481
508,1510;0,178382
509,1153;0,178351
510,0795;0,178487
511,0437;0,178848
512,0080;0,17943
512,9722;0,180184
513,9365;0,181037
514,9007;0,181911
515,8649;0,182732
516,8292;0,183433
517,7934;0,183957
518,7576;0,184283
519,7219;0,184439
520,6861;0,184497
521,6503;0,184539
522,6146;0,184624
523,5788;0,184764
524,5430;0,184912
525,5073;0,184974
526,4715;0,184862
527,4357;0,184549
528,4000;0,184088
529,3642;0,183578
530,3284;0,183111
531,2927;0,182731
532,2569;0,182432
533,2211;0,182182
534,1854;0,181951
535,1496;0,181733
536,1138;0,181544
537,0781;0,1814
538,0423;0,181298
539,0065;0,181216
539,9708;0,181142
540,9350;0,181089
541,8992;0,181095
542,8635;0,181199
543,8277;0,181411
544,7919;0,181692
545,7562;0,18197
546,7204;0,182178
547,6846;0,182291
548,6489;0,182341
549,6131;0,182396
550,5773;0,182521
551,5416;0,18275
552,5058;0,183078
553,4700;0,183471
554,4343;0,183881
555,3985;0,184251
556,3627;0,184523
557,3270;0,184633
558,2912;0,184515
559,2554;0,184121
560,2197;0,183445
561,1839;0,182539
562,1481;0,181512
563,1124;0,1805
564,0766;0,179615
565,0408;0,178905
566,0051;0,178336
566,9693;0,177831
567,9335;0,17732
568,8978;0,176797
569,8620;0,176327
570,8262;0,176007
571,7905;0,175907
572,7547;0,176025
573,7189;0,176293
574,6832;0,176604
575,6474;0,176858
576,6116;0,176993
577,5759;0,177001
578,5401;0,176902
579,5043;0,176726
580,4686;0,176496
581,4328;0,176225
582,3970;0,175924
583,3613;0,175605
584,3255;0,175291
585,2897;0,175022
586,2540;0,17485
587,2182;0,174831
588,1824;0,174992
589,1467;0,175312
590,1109;0,175711
591,0751;0,176065
592,0394;0,176264
593,0036;0,176257
593,9678;0,176075
594,9321;0,175793
595,8963;0,175472
596,8605;0,175123
597,8248;0,17471
598,7890;0,174193
599,7532;0,173571
600,7175;0,172898
601,6817;0,172255
602,6459;0,171707
603,6102;0,171273
604,5744;0,170925
605,5386;0,170609
606,5029;0,17026
607,4671;0,169812
608,4313;0,169209
609,3956;0,168431
610,3598;0,167536
611,3240;0,166674
612,2883;0,166061
613,2525;0,16587
614,2167;0,166119
615,1810;0,166594
616,1452;0,166885
617,1094;0,166554
618,0737;0,165372
619,0379;0,163456
620,0021;0,161199
620,9664;0,159053
621,9306;0,157323
622,8948;0,156086
623,8591;0,155222
624,8233;0,154441
625,7875;0,153736
626,7518;0,153037
627,7160;0,152372
628,6802;0,151795
629,6445;0,151341
630,6087;0,15099
631,5729;0,150692
632,5372;0,150385
633,5014;0,15003
634,4656;0,14963
635,4299;0,14923
636,3941;0,148893
637,3583;0,148674
638,3226;0,148587
639,2868;0,1486
640,2510;0,148644
641,2153;0,148646
642,1795;0,14856
643,1437;0,148387
644,1080;0,14816
645,0722;0,147917
646,0364;0,147671
647,0007;0,147414
647,9649;0,147131
648,9291;0,146819
649,8934;0,146502
650,8576;0,146214
651,8218;0,145988
652,7861;0,145849
653,7503;0,145815
654,7145;0,145886
655,6788;0,146037
656,6430;0,146209
657,6072;0,146342
658,5715;0,146402
659,5357;0,146376
660,4999;0,146225
661,4642;0,14583
662,4284;0,144969
663,3926;0,143401
664,3569;0,141071
665,3211;0,138422
666,2853;0,136556
667,2496;0,136663
668,2138;0,13849
669,1780;0,140237
670,1423;0,14098
671,1065;0,14098
672,0707;0,140362
673,0350;0,139084
673,9992;0,137309
674,9634;0,135379
675,9277;0,133598
676,8919;0,132067
677,8561;0,130717
678,8204;0,129443
679,7846;0,128202
680,7488;0,127006
681,7131;0,125884
682,6773;0,124832
683,6415;0,123835
684,6058;0,122893
685,5700;0,122025
686,5342;0,121255
687,4985;0,120581
688,4627;0,119988
689,4269;0,11943
690,3912;0,118879
691,3554;0,118338
692,3196;0,117818
693,2839;0,117321
694,2481;0,116827
695,2123;0,116308
696,1766;0,115745
697,1408;0,115143
698,1050;0,114524
699,0693;0,113917
700,0335;0,113341
700,9977;0,112795
701,9620;0,11227
702,9262;0,111754
703,8904;0,111213
704,8547;0,110658
705,8189;0,110103
706,7831;0,109554
707,7474;0,109008
708,7116;0,108454
709,6758;0,107875
710,6401;0,107252
711,6043;0,106571
712,5685;0,105834
713,5328;0,105072
714,4970;0,104356
715,4612;0,10204
716,4255;0,101995
717,3897;0,102218
718,3539;0,102461
719,3182;0,102379
720,2824;0,101703
721,2466;0,100412
722,2109;0,0987445
723,1751;0,0970577
724,1393;0,0956302
725,1036;0,0945581
726,0678;0,0937693
727,0320;0,0931164
727,9963;0,0924769
728,9605;0,0918039
729,9247;0,0911137
730,8890;0,0904405
731,8532;0,0898027
732,8174;0,0891991
733,7817;0,0886262
734,7459;0,0880908
735,7101;0,0876067
736,6744;0,0871808
737,6386;0,0868023
738,6028;0,0864438
739,5671;0,086072
740,5313;0,0856613
741,4955;0,0852025
742,4598;0,0847044
743,4240;0,0841882
744,3882;0,0836766
745,3525;0,0831833
746,3167;0,0827072
747,2809;0,0822364
748,2452;0,0817588
749,2094;0,0812732
750,1736;0,0807908
751,1379;0,0803274
752,1021;0,0798887
753,0663;0,0794629
754,0306;0,0790245
754,9948;0,0785497
755,9590;0,0780313
756,9233;0,0774855
757,8875;0,0769453
758,8517;0,0764461
759,8160;0,0760101
760,7802;0,075638
761,7444;0,0753095
762,7087;0,0749921
763,6729;0,0746536
764,6371;0,0742748
765,6014;0,0738573
766,5656;0,0734233
767,5298;0,0730064
768,4941;0,0726363
769,4583;0,0723242
770,4225;0,0720565
771,3868;0,0718
772,3510;0,0715178
773,3152;0,0711884
774,2795;0,0708166
775,2437;0,0704315
776,2079;0,0700714
777,1722;0,0697629
778,1364;0,0695065
779,1006;0,0692762
780,0649;0,0690341
781,0291;0,0687513
781,9933;0,0684217
782,9576;0,0680624
783,9218;0,0677001
784,8860;0,0673537
785,8503;0,0670257
786,8145;0,066707
787,7787;0,0663905
788,7430;0,0660815
789,7072;0,0657974
790,6714;0,0655567
791,6357;0,0653665
792,5999;0,0652175
793,5641;0,0650897
794,5284;0,0649641
795,4926;0,064829
796,4568;0,0646798
797,4211;0,0645139
798,3853;0,0643293
799,3495;0,0641275
800,3138;0,0639194
801,2780;0,0637242
802,2422;0,0635613
803,2065;0,0634374
804,1707;0,0633398
805,1349;0,0632405
806,0992;0,0631101
807,0634;0,0629318
808,0276;0,0627082
808,9919;0,062458
809,9561;0,0622056
810,9203;0,0619705
811,8846;0,0617616
812,8488;0,0615767
813,8130;0,0614076
814,7773;0,061247
815,7415;0,0610936
816,7057;0,0609537
817,6700;0,0608367
818,6342;0,0607479
819,5984;0,0606832
820,5627;0,0606292
821,5269;0,0605711
822,4911;0,0605007
823,4554;0,0604197
824,4196;0,0603365
825,3839;0,0602579
826,3481;0,0601855
827,3123;0,0601164
828,2766;0,0600494
829,2408;0,0599868
830,2050;0,0599315
831,1693;0,05988
832,1335;0,0598195
833,0977;0,0597317
834,0620;0,0596019
835,0262;0,0594274
835,9904;0,059217
836,9547;0,0589846
837,9189;0,0587405
838,8831;0,0584873
839,8474;0,0582233
840,8116;0,0579497
841,7758;0,0576751
842,7401;0,0574144
843,7043;0,0571835
844,6685;0,0569927
845,6328;0,0568434
846,5970;0,056729
847,5612;0,0566381
848,5255;0,056558
849,4897;0,0564768
850,4539;0,0563854
851,4182;0,0562796
852,3824;0,0561623
853,3466;0,0560454
854,3109;0,0559466
855,2751;0,0558835
856,2393;0,055866
857,2036;0,0558918
858,1678;0,0559481
859,1320;0,0560182
860,0963;0,0560893
861,0605;0,0561564
862,0247;0,0562228
862,9890;0,0562961
863,9532;0,0563855
864,9174;0,0565004
865,8817;0,056649
866,8459;0,0568353
867,8101;0,0570556
868,7744;0,0572973
869,7386;0,0575417
870,7028;0,0577701
871,6671;0,0579693
872,6313;0,0581324
873,5955;0,0582568
874,5598;0,0583419
875,5240;0,0583912
876,4882;0,0584159
877,4525;0,0584365
878,4167;0,0584785
879,3809;0,058563
880,3452;0,0586998
881,3094;0,0588882
882,2736;0,0591254
883,2379;0,0594156
884,2021;0,0597736
885,1663;0,0602196
886,1306;0,0607696
887,0948;0,0614279
888,0590;0,0621866
889,0233;0,0630293
889,9875;0,0639351
890,9517;0,0648792
891,9160;0,0658309
892,8802;0,0667517
893,8444;0,0675957
894,8087;0,0683134
895,7729;0,068858
896,7371;0,069192
897,7014;0,0692955
898,6656;0,0691715
899,6298;0,0688475
900,5941;0,0683699
901,5583;0,0677919
902,5225;0,0671593
903,4868;0,066502
904,4510;0,0658349
905,4152;0,0651674
906,3795;0,0645159
907,3437;0,0639088
908,3079;0,0633818
909,2722;0,0629661
910,2364;0,062676
911,2007;0,0625049
912,1649;0,0624311
913,1292;0,062429
914,0934;0,0624801
915,0576;0,0625768
916,0219;0,0627192
916,9861;0,0629075
917,9503;0,0631362
918,9146;0,0633916
919,8788;0,0636543
920,8430;0,0639052
921,8073;0,0641313
922,7715;0,0643298
923,7357;0,0645086
924,7000;0,064681
925,6642;0,0648579
926,6284;0,0650406
927,5927;0,065219
928,5569;0,0653776
929,5211;0,0655051
930,4854;0,0656024
931,4496;0,0656828
932,4138;0,0657654
933,3781;0,0658658
934,3423;0,0659924
935,3065;0,0661498
936,2708;0,0663442
937,2350;0,0665869
938,1992;0,0668902
939,1635;0,0672605
940,1277;0,0676939
941,0919;0,0681795
942,0562;0,0687078
943,0204;0,0692774
943,9846;0,069895
944,9489;0,0705684
945,9131;0,0712993
946,8773;0,0720824
947,8416;0,0729116
948,8058;0,0737893
949,7700;0,0747308
950,7343;0,0757601
951,6985;0,0768985
952,6627;0,0781548
953,6270;0,0795219
954,5912;0,080982
955,5554;0,0825147
956,5197;0,0841037
957,4839;0,0857373
958,4481;0,0874063
959,4124;0,0891012
960,3766;0,0908136
961,3408;0,0925393
962,3051;0,0942805
963,2693;0,096045
964,2335;0,097842
965,1978;0,0996777
966,1620;0,101555
967,1262;0,103476
968,0905;0,105447
969,0547;0,107485
970,0189;0,109613
970,9832;0,111861
971,9474;0,114264
972,9116;0,116855
973,8759;0,119665
974,8401;0,122723
975,8043;0,126047
976,7686;0,129636
977,7328;0,133467
978,6970;0,137487
979,6613;0,141612
980,6255;0,145738
981,5897;0,149749
982,5540;0,153537
983,5182;0,157009
984,4824;0,160109
985,4467;0,162816
986,4109;0,165151
987,3751;0,167159
988,3394;0,168899
989,3036;0,170426
990,2678;0,171775
991,2321;0,172968
992,1963;0,174012
993,1605;0,174919
994,1248;0,175709
995,0890;0,176417
996,0532;0,177082
997,0175;0,177737
997,9817;0,178404
998,9459;0,179088
999,9102;0,17979
1000,8744;0,180512
1001,8386;0,181266
1002,8029;0,182081
1003,7671;0,182992
1004,7313;0,184042
1005,6956;0,185276
1006,6598;0,186736
1007,6240;0,188459
1008,5883;0,190472
1009,5525;0,192785
1010,5167;0,195376
1011,4810;0,198197
1012,4452;0,201164
1013,4094;0,204182
1014,3737;0,207152
1015,3379;0,209997
1016,3021;0,212673
1017,2664;0,215165
1018,2306;0,217479
1019,1948;0,219631
1020,1591;0,221634
1021,1233;0,223501
1022,0875;0,225249
1023,0518;0,226903
1024,0160;0,228497
1024,9802;0,230054
1025,9445;0,23158
1026,9087;0,233051
1027,8729;0,234417
1028,8372;0,235614
1029,8014;0,236572
1030,7656;0,237216
1031,7299;0,237473
1032,6941;0,237272
1033,6583;0,236564
1034,6226;0,23535
1035,5868;0,233695
1036,5510;0,231734
1037,5153;0,229648
1038,4795;0,227627
1039,4437;0,225826
1040,4080;0,224343
1041,3722;0,223209
1042,3364;0,222395
1043,3007;0,221831
1044,2649;0,221419
1045,2291;0,221057
1046,1934;0,220656
1047,1576;0,220142
1048,1218;0,219466
1049,0861;0,218596
1050,0503;0,217506
1051,0145;0,216177
1051,9788;0,214598
1052,9430;0,212775
1053,9072;0,210729
1054,8715;0,208491
1055,8357;0,206078
1056,7999;0,203483
1057,7642;0,200671
1058,7284;0,197595
1059,6926;0,194229
1060,6569;0,190586
1061,6211;0,186737
1062,5853;0,182796
1063,5496;0,178896
1064,5138;0,175159
1065,4780;0,17167
1066,4423;0,168473
1067,4065;0,165565
1068,3707;0,162913
1069,3350;0,16047
1070,2992;0,158184
1071,2634;0,156016
1072,2277;0,153932
1073,1919;0,151902
1074,1561;0,149894
1075,1204;0,147871
1076,0846;0,145801
1077,0488;0,143676
1078,0131;0,141513
1078,9773;0,13936
1079,9415;0,137285
1080,9058;0,135353
1081,8700;0,13361
1082,8342;0,132079
1083,7985;0,130755
1084,7627;0,129618
1085,7269;0,128643
1086,6912;0,127803
1087,6554;0,127081
1088,6196;0,126462
1089,5839;0,125938
1090,5481;0,125503
1091,5123;0,125155
1092,4766;0,124892
1093,4408;0,124715
1094,4050;0,124625
1095,3693;0,124621
1096,3335;0,124696
1097,2977;0,124836
1098,2620;0,125026
1099,2262;0,125247
1100,1904;0,125479
1101,1547;0,125697
1102,1189;0,125876
1103,0831;0,125982
1104,0474;0,125992
1105,0116;0,125888
1105,9758;0,12567
1106,9401;0,125346
1107,9043;0,124923
1108,8685;0,124392
1109,8328;0,123729
1110,7970;0,122898
1111,7612;0,121872
1112,7255;0,120649
1113,6897;0,11927
1114,6539;0,117809
1115,6182;0,116358
1116,5824;0,114999
1117,5466;0,113783
1118,5109;0,112716
1119,4751;0,111761
1120,4393;0,11085
1121,4036;0,1099
1122,3678;0,108827
1123,3320;0,107565
1124,2963;0,10607
1125,2605;0,104333
1126,2247;0,102377
1127,1890;0,100247
1128,1532;0,0980038
1129,1174;0,0957053
1130,0817;0,0934013
1131,0459;0,0911294
1132,0101;0,0889197
1132,9744;0,0868007
1133,9386;0,0848048
1134,9028;0,0829679
1135,8671;0,081326
1136,8313;0,0799087
1137,7955;0,0787332
1138,7598;0,0778009
1139,7240;0,0770983
1140,6882;0,0766011
1141,6525;0,0762808
1142,6167;0,0761108
1143,5809;0,0760704
1144,5452;0,0761446
1145,5094;0,0763224
1146,4736;0,0765942
1147,4379;0,0769506
1148,4021;0,0773827
1149,3663;0,0778822
1150,3306;0,0784406
1151,2948;0,0790455
1152,2590;0,0796771
1153,2233;0,0803066
1154,1875;0,0808955
1155,1517;0,0813984
1156,1160;0,0817648
1157,0802;0,0819406
1158,0444;0,0818686
1159,0087;0,0814895
1159,9729;0,0807462
1160,9371;0,0795915
1161,9014;0,078
1162,8656;0,075979
1163,8298;0,073575
1164,7941;0,0708697
1165,7583;0,0679692
1166,7225;0,0649877
1167,6868;0,0620327
1168,6510;0,0591945
1169,6152;0,0565415
1170,5795;0,0541188
1171,5437;0,0519486
1172,5079;0,0500325
1173,4722;0,0483557
1174,4364;0,0468931
1175,4006;0,0456171
1176,3649;0,0445032
1177,3291;0,0435338
1178,2933;0,0426975
1179,2576;0,0419871
1180,2218;0,0413974
1181,1860;0,0409237
1182,1503;0,0405611
1183,1145;0,0403034
1184,0787;0,0401426
1185,0430;0,0400691
1186,0072;0,0400726
1186,9714;0,0401446
1187,9357;0,04028
1188,8999;0,040479
1189,8641;0,0407461
1190,8284;0,0410878
1191,7926;0,0415098
1192,7568;0,0420138
1193,7211;0,0425957
1194,6853;0,0432452
1195,6495;0,0439471
1196,6138;0,0446836
1197,5780;0,0454366
1198,5422;0,0461898
1199,5065;0,0467538
1200,4707;0,0474934
1201,4349;0,0482096
1202,3992;0,0489039
1203,3634;0,0495817
1204,3276;0,05025
1205,2919;0,0509143
1206,2561;0,0515793
1207,2203;0,0522514
1208,1846;0,0529426
1209,1488;0,0536708
1210,1130;0,0544553
1211,0773;0,0553102
1212,0415;0,0562383
1213,0057;0,0572306
1213,9700;0,0582709
1214,9342;0,0593431
1215,8984;0,0604351
1216,8627;0,0615376
1217,8269;0,0626404
1218,7911;0,063732
1219,7554;0,0647984
1220,7196;0,065826
1221,6838;0,0668037
1222,6481;0,0677252
1223,6123;0,0685887
1224,5765;0,0693967
1225,5408;0,0701556
1226,5050;0,0708736
1227,4692;0,0715573
1228,4335;0,072208
1229,3977;0,0728196
1230,3619;0,07338
1231,3262;0,0738764
1232,2904;0,0743007
1233,2546;0,0746526
1234,2189;0,07494
1235,1831;0,0751747
1236,1473;0,0753698
1237,1116;0,0755368
1238,0758;0,0756833
1239,0400;0,0758117
1240,0043;0,0759166
1240,9685;0,0759844
1241,9327;0,0759964
1242,8970;0,0759349
1243,8612;0,07579
1244,8254;0,075563
1245,7897;0,0752647
1246,7539;0,0749101
1247,7181;0,0745127
1248,6824;0,074081
1249,6466;0,0736195
1250,6108;0,0731316
1251,5751;0,0726226
1252,5393;0,0721023
1253,5035;0,0715845
1254,4678;0,0710828
1255,4320;0,0706048
1256,3962;0,0701455
1257,3605;0,0696856
1258,3247;0,0691964
1259,2889;0,0686504
1260,2532;0,0680332
1261,2174;0,0673498
1262,1816;0,0666203
1263,1459;0,0658687
1264,1101;0,0651114
1265,0743;0,0643514
1266,0386;0,0635799
1267,0028;0,0627822
1267,9670;0,0619436
1268,9313;0,0610538
1269,8955;0,0601091
1270,8597;0,0591133
1271,8240;0,0580778
1272,7882;0,0570212
1273,7524;0,0559673
1274,7167;0,054942
1275,6809;0,0539691
1276,6451;0,0530636
1277,6094;0,0522274
1278,5736;0,0514471
1279,5378;0,0507002
1280,5021;0,0499661
1281,4663;0,049238
1282,4305;0,0485276
1283,3948;0,0478591
1284,3590;0,0472562
1285,3232;0,0467291
1286,2875;0,0462703
1287,2517;0,0458606
1288,2159;0,0454822
1289,1802;0,0451307
1290,1444;0,0448186
1291,1086;0,0445696
1292,0729;0,0444068
1293,0371;0,0443428
1294,0013;0,0443757
1294,9656;0,0444918
1295,9298;0,044673
1296,8940;0,0449049
1297,8583;0,0451807
1298,8225;0,045502
1299,7867;0,0458751
1300,7510;0,046307
1301,7152;0,0468045
1302,6794;0,0473691
1303,6437;0,0479967
1304,6079;0,0486787
1305,5721;0,0494038
1306,5364;0,0501627
1307,5006;0,0509525
1308,4648;0,0517767
1309,4291;0,0526379
1310,3933;0,0535278
1311,3575;0,0544211
1312,3218;0,0552785
1313,2860;0,0560601
1314,2502;0,0567361
1315,2145;0,0572872
1316,1787;0,0576939
1317,1429;0,0579273
1318,1072;0,057958
1319,0714;0,0577787
1320,0356;0,0574255
1320,9999;0,0569749
1321,9641;0,0565139
1322,9283;0,0561087
1323,8926;0,0557887
1324,8568;0,0555512
1325,8210;0,0553765
1326,7853;0,0552412
1327,7495;0,0551253
1328,7137;0,0550103
1329,6780;0,0548784
1330,6422;0,0547173
1331,6064;0,0545337
1332,5707;0,0543604
1333,5349;0,0542521
1334,4991;0,0542581
1335,4634;0,0543854
1336,4276;0,0545641
1337,3918;0,0546361
1338,3561;0,0544011
1339,3203;0,0537344
1340,2845;0,052696
1341,2488;0,0515068
1342,2130;0,0504084
1343,1772;0,0495479
1344,1415;0,0489607
1345,1057;0,0486088
1346,0699;0,0484275
1347,0342;0,0483573
1347,9984;0,0483655
1348,9626;0,04845
1349,9269;0,0486262
1350,8911;0,0489064
1351,8553;0,0492848
1352,8196;0,049735
1353,7838;0,0502225
1354,7480;0,0507248
1355,7123;0,0512494
1356,6765;0,0518343
1357,6407;0,0525287
1358,6050;0,0533634
1359,5692;0,0543203
1360,5334;0,055305
1361,4977;0,0561536
1362,4619;0,0567187
1363,4261;0,0569869
1364,3904;0,0570893
1365,3546;0,0571869
1366,3188;0,0573701
1367,2831;0,0576443
1368,2473;0,0579664
1369,2115;0,058285
1370,1758;0,0585633
1371,1400;0,0587757
1372,1042;0,0588873
1373,0685;0,0588422
1374,0327;0,0585884
1374,9969;0,0581252
1375,9612;0,0575117
1376,9254;0,0568085
1377,8896;0,0560219
1378,8539;0,0551177
1379,8181;0,0540846
1380,7823;0,0529827
1381,7466;0,0519292
1382,7108;0,0510285
1383,6750;0,0503065
1384,6393;0,0496944
1385,6035;0,0490631
1386,5677;0,0483013
1387,5320;0,047414
1388,4962;0,0465412
1389,4604;0,0458428
1390,4247;0,0453883
1391,3889;0,0451644
1392,3531;0,0451334
1393,3174;0,0452549
1394,2816;0,0454621
1395,2458;0,0456445
1396,2101;0,045684
1397,1743;0,0455256
1398,1385;0,0452181
1399,1028;0,0448893
1400,0670;0,0446754
1401,0313;0,0446526
1401,9955;0,0448136
1402,9597;0,0450896
1403,9240;0,0453953
1404,8882;0,045677
1405,8524;0,0459435
1406,8167;0,0462514
1407,7809;0,0466503
1408,7451;0,0471438
1409,7094;0,0477015
1410,6736;0,048296
1411,6378;0,0489307
1412,6021;0,0496339
1413,5663;0,050427
1414,5305;0,051297
1415,4948;0,0521901
1416,4590;0,0530079
1417,4232;0,0536071
1418,3875;0,0538743
1419,3517;0,0538745
1420,3159;0,0538305
1421,2802;0,0538854
1422,2444;0,0539857
1423,2086;0,0539857
1424,1729;0,0537841
1425,1371;0,0533781
1426,1013;0,0528277
1427,0656;0,0521862
1428,0298;0,0514637
1428,9940;0,0506534
1429,9583;0,0497859
1430,9225;0,0489378
1431,8867;0,0481661
1432,8510;0,0474437
1433,8152;0,0466652
1434,7794;0,0457088
1435,7437;0,0445307
1436,7079;0,0432749
1437,6721;0,0422481
1438,6364;0,0416709
1439,6006;0,0415096
1440,5648;0,0415883
1441,5291;0,0417617
1442,4933;0,0419794
1443,4575;0,0422569
1444,4218;0,0426162
1445,3860;0,0430448
1446,3502;0,0434953
1447,3145;0,0439209
1448,2787;0,0443177
1449,2429;0,0447303
1450,2072;0,0452028
1451,1714;0,0457225
1452,1356;0,0462233
1453,0999;0,0466392
1454,0641;0,0469486
1455,0283;0,0471379
1455,9926;0,0470685
1456,9568;0,0465122
1457,9210;0,0456452
1458,8853;0,0450383
1459,8495;0,0448943
1460,8137;0,0449714
1461,7780;0,044969
1462,7422;0,0446983
1463,7064;0,0440842
1464,6707;0,0431715
1465,6349;0,0421432
1466,5991;0,0412096
1467,5634;0,0404313
1468,5276;0,0397126
1469,4918;0,0389227
1470,4561;0,0379664
1471,4203;0,0367639
1472,3845;0,0352412
1473,3488;0,0334576
1474,3130;0,0316901
1475,2772;0,0302096
1476,2415;0,0290779
1477,2057;0,0282182
1478,1699;0,0275411
1479,1342;0,0269863
1480,0984;0,0265164
1481,0626;0,0261146
1482,0269;0,025793
1482,9911;0,0255927
1483,9553;0,0255659
1484,9196;0,0257547
1485,8838;0,0261752
1486,8480;0,0267818
1487,8123;0,0273996
1488,7765;0,0277441
1489,7407;0,0276782
1490,7050;0,0274107
1491,6692;0,0272525
1492,6334;0,0273382
1493,5977;0,0276567
1494,5619;0,0281805
1495,5261;0,0289069
1496,4904;0,0298103
1497,4546;0,0308062
1498,4188;0,0318117
1499,3831;0,032792
1500,3473;0,0336928
1501,3115;0,034411
1502,2758;0,0348726
1503,2400;0,0351365
1504,2042;0,0354674
1505,1685;0,0362682
1506,1327;0,0376192
1507,0969;0,0387117
1508,0612;0,0387358
1509,0254;0,0380344
1509,9896;0,0372092
1510,9539;0,0364566
1511,9181;0,0357759
1512,8823;0,0351526
1513,8466;0,0345717
1514,8108;0,0339799
1515,7750;0,0332873
1516,7393;0,0324216
1517,7035;0,0313802
1518,6677;0,0302264
1519,6320;0,0290587
1520,5962;0,0279951
1521,5604;0,0271615
1522,5247;0,0266375
1523,4889;0,0263893
1524,4531;0,026281
1525,4174;0,0261683
1526,3816;0,0259892
1527,3458;0,025778
1528,3101;0,0256045
1529,2743;0,0255127
1530,2385;0,0255144
1531,2028;0,0256134
1532,1670;0,025802
1533,1312;0,026039
1534,0955;0,0262563
1535,0597;0,0263834
1536,0239;0,0263604
1536,9882;0,0261796
1537,9524;0,0259573
1538,9166;0,02594
1539,8809;0,0262966
1540,8451;0,026821
1541,8093;0,0271869
1542,7736;0,0273701
1543,7378;0,0274403
1544,7020;0,0274225
1545,6663;0,0273704
1546,6305;0,0273646
1547,5947;0,0274464
1548,5590;0,0275838
1549,5232;0,027697
1550,4874;0,0277192
1551,4517;0,0276436
1552,4159;0,0275136
1553,3801;0,0273636
1554,3444;0,0271767
1555,3086;0,02691
1556,2728;0,0265367
1557,2371;0,0260102
1558,2013;0,0252399
1559,1655;0,0244894
1560,1298;0,0244206
1561,0940;0,0251496
1562,0582;0,0262346
1563,0225;0,0272695
1563,9867;0,028071
1564,9509;0,028617
1565,9152;0,0289656
1566,8794;0,0292008
1567,8436;0,0294022
1568,8079;0,0296353
1569,7721;0,0299503
1570,7363;0,0303574
1571,7006;0,0308044
1572,6648;0,0312187
1573,6290;0,0315813
1574,5933;0,031952
1575,5575;0,0324104
1576,5217;0,0329872
1577,4860;0,0336789
1578,4502;0,0344673
1579,4144;0,0352923
1580,3787;0,0360813
1581,3429;0,0368041
1582,3071;0,0374809
1583,2714;0,0381552
1584,2356;0,0388637
1585,1998;0,0396235
1586,1641;0,0404292
1587,1283;0,0412564
1588,0925;0,0420671
1589,0568;0,0428183
1590,0210;0,0434712
1590,9852;0,043995
1591,9495;0,0443624
1592,9137;0,0445463
1593,8779;0,0445283
1594,8422;0,044319
1595,8064;0,0439698
1596,7706;0,043558
1597,7349;0,0431543
1598,6991;0,0427964
1599,6633;0,0424838
1600,6276;0,042194
1601,5918;0,0419073
1602,5560;0,0416261
1603,5203;0,0413736
1604,4845;0,0411705
1605,4487;0,0410085
1606,4130;0,0408478
1607,3772;0,040643
1608,3414;0,0403832
1609,3057;0,0401133
1610,2699;0,039901
1611,2341;0,0397693
1612,1984;0,0396694
1613,1626;0,039522
1614,1268;0,0392804
1615,0911;0,0389698
1616,0553;0,0387018
1617,0195;0,0386468
1617,9838;0,0389097
1618,9480;0,0394123
1619,9122;0,0399588
1620,8765;0,0403813
1621,8407;0,040607
1622,8049;0,0406528
1623,7692;0,0405957
1624,7334;0,0405293
1625,6976;0,0405105
1626,6619;0,0405454
1627,6261;0,0406247
1628,5903;0,0407483
1629,5546;0,040907
1630,5188;0,041055
1631,4830;0,0411232
1632,4473;0,0410709
1633,4115;0,0409209
1634,3757;0,040728
1635,3400;0,0405192
1636,3042;0,0403471
1637,2684;0,0403472
1638,2327;0,0405697
1639,1969;0,0409045
1640,1611;0,0412092
1641,1254;0,0414004
1642,0896;0,041459
1643,0538;0,0414098
1644,0181;0,0412962
1644,9823;0,0411341
1645,9465;0,0408807
1646,9108;0,0405219
1647,8750;0,0401443
1648,8392;0,0397879
1649,8035;0,039366
1650,7677;0,0387786
1651,7319;0,0379777
1652,6962;0,0369441
1653,6604;0,0358989
1654,6246;0,0353956
1655,5889;0,0355829
1656,5531;0,0360599
1657,5173;0,0364182
1658,4816;0,0364661
1659,4458;0,036179
1660,4100;0,035612
1661,3743;0,0348604
1662,3385;0,0340746
1663,3027;0,0334356
1664,2670;0,0330383
1665,2312;0,032829
1666,1954;0,0326692
1667,1597;0,0324172
1668,1239;0,0319647
1669,0881;0,0312766
1670,0524;0,0304523
1671,0166;0,0296741
1671,9808;0,0290273
1672,9451;0,0284507
1673,9093;0,0278659
1674,8735;0,0273087
1675,8378;0,0269361
1676,8020;0,0268913
1677,7662;0,0271486
1678,7305;0,0275133
1679,6947;0,0277461
1680,6589;0,0276604
1681,6232;0,0271382
1682,5874;0,0261282
1683,5516;0,0247723
1684,5159;0,0235611
1685,4801;0,022974
1686,4443;0,0229739
1687,4086;0,0231798
1688,3728;0,0232622
1689,3370;0,0230905
1690,3013;0,0227007
1691,2655;0,0222132
1692,2297;0,0217594
1693,1940;0,0214401
1694,1582;0,0213008
1695,1224;0,0213047
1696,0867;0,021318
1697,0509;0,0211622
1698,0151;0,0207502
1698,9794;0,0202089
1699,9436;0,0198329
1700,9078;0,0198581
1701,8721;0,0202842
1702,8363;0,0209197
1703,8005;0,0215441
1704,7648;0,0220238
1705,7290;0,0223457
1706,6932;0,0225952
1707,6575;0,0228925
1708,6217;0,0233168
1709,5859;0,0238739
1710,5502;0,0245247
1711,5144;0,025226
1712,4786;0,0259497
1713,4429;0,0266739
1714,4071;0,0273503
1715,3713;0,0278574
1716,3356;0,0280297
1717,2998;0,0278817
1718,2640;0,0277446
1719,2283;0,0279382
1720,1925;0,0284756
1721,1567;0,0291711
1722,1210;0,0298369
1723,0852;0,0303706
1724,0494;0,030768
1725,0137;0,0311058
1725,9779;0,0314935
1726,9421;0,0320067
1727,9064;0,0326378
1728,8706;0,0332947
1729,8348;0,033836
1730,7991;0,0341102
1731,7633;0,0339838
1732,7275;0,0334048
1733,6918;0,0325357
1734,6560;0,0317439
1735,6202;0,0312835
1736,5845;0,0310956
1737,5487;0,0309697
1738,5129;0,0307581
1739,4772;0,0304485
1740,4414;0,0301228
1741,4056;0,0298624
1742,3699;0,02967
1743,3341;0,0294721
1744,2983;0,0291861
1745,2626;0,0287735
1746,2268;0,0282324
1747,1910;0,0275406
1748,1553;0,0266086
1749,1195;0,0253346
1750,0837;0,023768
1751,0480;0,022169
1752,0122;0,0208178
1752,9764;0,0198163
1753,9407;0,0190925
1754,9049;0,0185143
1755,8691;0,0179762
1756,8334;0,0174257
1757,7976;0,0168465
1758,7618;0,0162245
1759,7261;0,0155336
1760,6903;0,0147626
1761,6545;0,0139587
1762,6188;0,0132319
1763,5830;0,0126905
1764,5472;0,0123669
1765,5115;0,0122052
1766,4757;0,0121049
1767,4399;0,0119695
1768,4042;0,0117345
1769,3684;0,0113758
1770,3326;0,0109093
1771,2969;0,0103927
1772,2611;0,00992665
1773,2253;0,00962441
1774,1896;0,00953844
1775,1538;0,00962084
1776,1180;0,00976606
1777,0823;0,00987973
1778,0465;0,0099144
1779,0107;0,00986798
1779,9750;0,00976441
1780,9392;0,00963161
1781,9034;0,009486
1782,8677;0,00933246
1783,8319;0,00918065
1784,7961;0,0090594
1785,7604;0,00900839
1786,7246;0,00905073
1787,6888;0,00917522
1788,6531;0,00934502
1789,6173;0,0095149
1790,5815;0,00963444
1791,5458;0,00965413
1792,5100;0,00957046
1793,4742;0,00945658
1794,4385;0,00939217
1795,4027;0,00938534
1796,3669;0,00939547
1797,3312;0,00939567
1798,2954;0,0093927
1799,2596;0,00939827
1800,2239;0,00939308
1801,1881;0,00933168
1802,1523;0,00918687
1803,1166;0,00898176
1804,0808;0,0087787
1805,0450;0,00864441
1806,0093;0,00861813
1806,9735;0,00869458
1807,9377;0,00882431
1808,9020;0,00893328
1809,8662;0,00895931
1810,8304;0,00888875
1811,7947;0,00876206
1812,7589;0,00863864
1813,7231;0,00855513
1814,6874;0,00851267
1815,6516;0,00849069
1816,6158;0,00846719
1817,5801;0,00843492
1818,5443;0,00840815
1819,5085;0,00841421
1820,4728;0,0084738
1821,4370;0,00858541
1822,4012;0,00872197
1823,3655;0,00884009
1824,3297;0,00890181
1825,2939;0,00889854
1826,2582;0,00885308
1827,2224;0,00879482
1828,1866;0,00873314
1829,1509;0,00865589
1830,1151;0,00855779
1831,0793;0,00846669
1832,0436;0,00842452
1833,0078;0,00844384
1833,9720;0,00849679
1834,9363;0,00854011
1835,9005;0,00854383
1836,8647;0,00850861
1837,8290;0,00846503
1838,7932;0,00845165
1839,7574;0,00848983
1840,7217;0,00858068
1841,6859;0,00871569
1842,6501;0,00887429
1843,6144;0,00901354
1844,5786;0,0090865
1845,5428;0,0090786
1846,5071;0,0090007
1847,4713;0,00885471
1848,4355;0,00863541
1849,3998;0,00835881
1850,3640;0,00807408
1851,3282;0,00784525
1852,2925;0,00771809
1853,2567;0,00769979
1854,2209;0,00776452
1855,1852;0,00787522
1856,1494;0,00800072
1857,1136;0,00811941
1858,0779;0,0082124
1859,0421;0,00826134
1860,0063;0,00825773
1860,9706;0,00821665
1861,9348;0,00817944
1862,8990;0,00819908
1863,8633;0,00831846
1864,8275;0,00855441
1865,7917;0,00888471
1866,7560;0,00923062
1867,7202;0,00945828
1868,6844;0,00944641
1869,6487;0,00918811
1870,6129;0,00879727
1871,5771;0,00840858
1872,5414;0,00810314
1873,5056;0,00790849
1874,4698;0,00782155
1875,4341;0,00781831
1876,3983;0,00785947
1877,3625;0,0079044
1878,3268;0,00793122
1879,2910;0,0079441
1880,2552;0,00796308
1881,2195;0,00800528
1882,1837;0,00807209
1883,1479;0,00815068
1884,1122;0,00822623
1885,0764;0,00829281
1886,0406;0,00835322
1887,0049;0,00840913
1887,9691;0,00845151
1888,9333;0,00846413
1889,8976;0,00844128
1890,8618;0,00840056
1891,8260;0,00837257
1892,7903;0,00837744
1893,7545;0,00841065
1894,7188;0,00844662
1895,6830;0,00845594
1896,6472;0,00842543
1897,6115;0,00836561
1898,5757;0,00829879
1899,5399;0,00824035
1900,5042;0,0081911
1901,4684;0,00814569
1902,4326;0,00810898
1903,3969;0,00810547
1904,3611;0,00817087
1905,3253;0,00832841
1906,2896;0,00856473
1907,2538;0,00882129
1908,2180;0,00901166
1909,1823;0,00906395
1910,1465;0,00896636
1911,1107;0,00877792
1912,0750;0,00859053
1913,0392;0,00847563
1914,0034;0,00845696
1914,9677;0,00851707
1915,9319;0,00862125
1916,8961;0,0087438
1917,8604;0,00888382
1918,8246;0,00905606
1919,7888;0,00925922
1920,7531;0,00945235
1921,7173;0,00956529
1922,6815;0,00953843
1923,6458;0,00936594
1924,6100;0,00910927
1925,5742;0,00886415
1926,5385;0,00870551
1927,5027;0,00865467
1928,4669;0,00868489
1929,4312;0,00874853
1930,3954;0,00880546
1931,3596;0,00883914
1932,3239;0,008854
1933,2881;0,00886173
1934,2523;0,00886871
1935,2166;0,00887302
1936,1808;0,00887055
1937,1450;0,00886409
1938,1093;0,00886904
1939,0735;0,0089119
1940,0377;0,00901882
1941,0020;0,00919501
1941,9662;0,0094062
1942,9304;0,00958375
1943,8947;0,00966048
1944,8589;0,00961061
1945,8231;0,00946151
1946,7874;0,00927451
1947,7516;0,00911334
1948,7158;0,00901683
1949,6801;0,00898687
1950,6443;0,00899768
1951,6085;0,00902088
1952,5728;0,00904866
1953,5370;0,00909806
1954,5012;0,00919438
1955,4655;0,00934613
1956,4297;0,00953032
1957,3939;0,0096988
1958,3582;0,00980321
1959,3224;0,00982468
1960,2866;0,00978976
1961,2509;0,00975919
1962,2151;0,00979223
1963,1793;0,00990796
1964,1436;0,0100684
1965,1078;0,0101942
1966,0720;0,0102081
1967,0363;0,0100855
1968,0005;0,00987974
1968,9647;0,0096954
1969,9290;0,00962595
1970,8932;0,00970252
1971,8574;0,00988457
1972,8217;0,0100882
1973,7859;0,0102296
1974,7501;0,0102591
1975,7144;0,010175
1976,6786;0,0100116
1977,6428;0,00981558
1978,6071;0,00962939
1979,5713;0,00948655
1980,5355;0,00941149
1981,4998;0,00941514
1982,4640;0,009488
1983,4282;0,00959968
1984,3925;0,00971196
1985,3567;0,00980265
1986,3209;0,00988545
1987,2852;0,0100082
1988,2494;0,0102236
1989,2136;0,010546
1990,1779;0,0109197
1991,1421;0,0112276
1992,1063;0,0113485
1993,0706;0,0112323
1994,0348;0,0109362
1994,9990;0,0105941
1995,9633;0,0103458
1996,9275;0,0102723
1997,8917;0,0103658
1998,8560;0,0105468
1999,8202;0,0107186
2000,7844;0,0108292
2001,7487;0,0108985
2002,7129;0,0109936
2003,6771;0,0111731
2004,6414;0,0114374
2005,6056;0,011719
2006,5698;0,0119205
2007,5341;0,011976
2008,4983;0,0118912
2009,4625;0,0117328
2010,4268;0,0115814
2011,3910;0,0114871
2012,3552;0,0114565
2013,3195;0,0114666
2014,2837;0,0114907
2015,2479;0,0115154
2016,2122;0,0115445
2017,1764;0,0115906
2018,1406;0,0116628
2019,1049;0,0117553
2020,0691;0,0118447
2021,0333;0,0118942
2021,9976;0,0118681
2022,9618;0,0117488
2023,9260;0,0115488
2024,8903;0,0113087
2025,8545;0,011078
2026,8187;0,0108887
2027,7830;0,0107405
2028,7472;0,0106077
2029,7114;0,0104632
2030,6757;0,0103027
2031,6399;0,0101511
2032,6041;0,0100493
2033,5684;0,0100334
2034,5326;0,0101215
2035,4968;0,0103162
2036,4611;0,0106105
2037,4253;0,0109867
2038,3895;0,0114029
2039,3538;0,0117817
2040,3180;0,0120197
2041,2822;0,0120241
2042,2465;0,0117601
2043,2107;0,0112755
2044,1749;0,010684
2045,1392;0,0101168
2046,1034;0,00967361
2047,0676;0,00939697
2048,0320;0,0092772
2048,9961;0,00927935
2049,9604;0,00936897
2050,9246;0,00951979
2051,8889;0,00970521
2052,8530;0,00988943
2053,8174;0,0100304
2054,7815;0,0100945
2055,7458;0,0100742
2056,7100;0,00999366
2057,6743;0,0098975
2058,6384;0,00982989
2059,6028;0,00981871
2060,5669;0,00987154
2061,5313;0,0099802
2062,4954;0,0101255
2063,4597;0,010278
2064,4238;0,0103987
2065,3882;0,0104461
2066,3523;0,0103914
2067,3167;0,0102343
2068,2808;0,0100079
2069,2451;0,00976908
2070,2092;0,00957617
2071,1736;0,00946743
2072,1377;0,00944776
2073,1021;0,00949137
2074,0662;0,00955589
2075,0305;0,00960046
2075,9946;0,00959927
2076,9590;0,00954722
2077,9231;0,00945839
2078,8875;0,00935958
2079,8516;0,00928069
2080,8159;0,00924419
2081,7800;0,00925743
2082,7444;0,00931193
2083,7085;0,00939071
2084,6729;0,00947905
2085,6370;0,0095712
2086,6013;0,00966699
2087,5654;0,00976183
2088,5298;0,00983913
2089,4939;0,00987439
2090,4583;0,00985032
2091,4224;0,00977191
2092,3867;0,0096684
2093,3508;0,00957807
2094,3152;0,00952521
2095,2793;0,00950622
2096,2437;0,00949592
2097,2078;0,00946932
2098,1721;0,00942084
2099,1362;0,00936552
2100,1006;0,00932537
2101,0647;0,00930926
2102,0291;0,00931783
2102,9932;0,00934648
2103,9575;0,00939508
2104,9216;0,00946521
2105,8860;0,00954867
2106,8501;0,00962058
2107,8145;0,00964844
2108,7786;0,0096139
2109,7429;0,0095305
2110,7070;0,00944072
2111,6714;0,00939159
2112,6355;0,00940543
2113,5999;0,00946716
2114,5640;0,00953722
2115,5283;0,00957997
2116,4924;0,00958716
2117,4568;0,00958087
2118,4209;0,00959612
2119,3853;0,00965682
2120,3494;0,00976146
2121,3137;0,0098868
2122,2778;0,010005
2123,2422;0,0101015
2124,2063;0,0101814
2125,1707;0,0102615
2126,1348;0,0103552
2127,0991;0,0104614
2128,0632;0,0105649
2129,0276;0,0106482
2129,9917;0,0107054
2130,9561;0,0107477
2131,9202;0,0107974
2132,8845;0,0108721
2133,8486;0,0109739
2134,8130;0,0110872
2135,7771;0,0111901
2136,7415;0,0112659
2137,7056;0,0113072
2138,6699;0,0113125
2139,6340;0,011286
2140,5984;0,0112466
2141,5625;0,0112387
2142,5269;0,0113287
2143,4910;0,0115776
2144,4553;0,011999
2145,4194;0,012533
2146,3838;0,0130606
2147,3479;0,0134598
2148,3123;0,0136702
2149,2764;0,0137228
2150,2407;0,013718
2151,2048;0,0137656
2152,1692;0,0139283
2153,1333;0,0142011
2154,0977;0,0145307
2155,0618;0,0148549
2156,0261;0,0151323
2156,9902;0,0153457
2157,9546;0,0154814
2158,9187;0,0155042
2159,8831;0,0153581
2160,8472;0,0150007
2161,8115;0,0144452
2162,7756;0,0137782
2163,7400;0,0131427
2164,7041;0,0126887
2165,6685;0,0125077
2166,6326;0,0125844
2167,5969;0,0128013
2168,5610;0,0130023
2169,5254;0,0130766
2170,4895;0,0130133
2171,4539;0,012894
2172,4180;0,0128338
2173,3823;0,0129063
2174,3464;0,0130952
2175,3108;0,0133001
2176,2749;0,013393
2177,2393;0,0132861
2178,2034;0,0129757
2179,1677;0,0125445
2180,1318;0,012129
2181,0962;0,0118655
2182,0603;0,0118319
2183,0247;0,0120073
2183,9888;0,0122755
2184,9531;0,0124768
2185,9172;0,0124837
2186,8816;0,0122607
2187,8457;0,0118766
2188,8101;0,0114647
2189,7742;0,0111536
2190,7385;0,0110084
2191,7026;0,011012
2192,6670;0,0110906
2193,6311;0,0111613
2194,5955;0,011172
2195,5596;0,0111136
2196,5239;0,0110083
2197,4880;0,0108879
2198,4524;0,0107767
2199,4165;0,0106857
2200,3809;0,0106141
2201,3450;0,0105545
2202,3093;0,0104988
2203,2734;0,0104458
2204,2378;0,0104046
2205,2019;0,0103926
2206,1663;0,0104247
2207,1304;0,0104989
2208,0947;0,0105883
2209,0588;0,0106474
2210,0232;0,0106325
2210,9873;0,0105247
2211,9517;0,010343
2212,9158;0,010137
2213,8801;0,0099654
2214,8442;0,0098706
2215,8086;0,00986455
2216,7727;0,00993025
2217,7371;0,010035
2218,7012;0,0101455
2219,6655;0,0102363
2220,6296;0,0102913
2221,5940;0,0103005
2222,5581;0,0102593
2223,5225;0,0101708
2224,4866;0,0100491
2225,4509;0,00992042
2226,4150;0,00981653
2227,3794;0,00976281
2228,3435;0,00976987
2229,3079;0,00982569
2230,2720;0,00989892
2231,2363;0,00995127
2232,2004;0,00995373
2233,1648;0,00989921
2234,1289;0,00980497
2235,0933;0,00970384
2236,0574;0,00962863
2237,0217;0,0095981
2237,9858;0,00961149
2238,9502;0,00965283
2239,9143;0,00970113
2240,8787;0,00973901
2241,8428;0,00975565
2242,8071;0,00974513
2243,7712;0,00970522
2244,7356;0,00964033
2245,6997;0,00956695
2246,6641;0,00951482
2247,6282;0,00951818
2248,5925;0,00959849
2249,5566;0,00974834
2250,5210;0,00992856
2251,4851;0,0100831
2252,4495;0,0101651
2253,4136;0,010159
2254,3779;0,0100858
2255,3420;0,00998818
2256,3064;0,00990586
2257,2705;0,00985751
2258,2349;0,00983768
2259,1990;0,00982746
2260,1633;0,00980853
2261,1274;0,00977212
2262,0918;0,00972052
2263,0559;0,009664
2264,0203;0,00961645
2264,9844;0,00959088
2265,9487;0,00959399
2266,9128;0,00962096
2267,8772;0,00965439
2268,8413;0,0096705
2269,8057;0,00965126
2270,7698;0,00959522
2271,7341;0,00951915
2272,6982;0,00944808
2273,6626;0,00940002
2274,6267;0,0093762
2275,5911;0,00936391
2276,5552;0,00934933
2277,5195;0,00933009
2278,4836;0,009318
2279,4480;0,00933051
2280,4121;0,00937885
2281,3765;0,00946237
2282,3406;0,00957325
2283,3049;0,00970653
2284,2690;0,00986714
2285,2334;0,0100692
2286,1975;0,0103291
2287,1619;0,0106585
2288,1260;0,0110607
2289,0903;0,0115311
2290,0544;0,0120585
2291,0188;0,0126253
2291,9829;0,0132085
2292,9473;0,0137845
2293,9114;0,0143357
2294,8757;0,0148557
2295,8398;0,0153459
2296,8042;0,0158052
2297,7683;0,0162193
2298,7327;0,0165612
2299,6968;0,0168058
2300,6611;0,0169534
2301,6252;0,0170461
2302,5896;0,0171632
2303,5537;0,0173953
2304,5181;0,0178053
2305,4822;0,0183938
2306,4465;0,0190834
2307,4106;0,019733
2308,3750;0,0201796
2309,3391;0,0202948
2310,3035;0,0200339
2311,2676;0,0194581
2312,2319;0,0187149
2313,1960;0,017983
2314,1604;0,0174048
2315,1245;0,0170422
2316,0889;0,0168744
2317,0530;0,0168298
2318,0173;0,0168298
2318,9814;0,01682
2319,9458;0,0167852
2320,9099;0,0167495
2321,8743;0,0167628
2322,8384;0,016868
2323,8027;0,0170587
2324,7668;0,0172587
2325,7312;0,0173472
2326,6953;0,0172149
2327,6597;0,0168125
2328,6238;0,0161672
2329,5881;0,0153729
2330,5522;0,0145631
2331,5166;0,0138692
2332,4807;0,0133702
2333,4451;0,0130638
2334,4092;0,0128891
2335,3735;0,0127875
2336,3376;0,0127593
2337,3020;0,0128796
2338,2661;0,0132598
2339,2305;0,0139657
2340,1946;0,0149271
2341,1589;0,0158888
2342,1230;0,0164751
2343,0874;0,0164605
2344,0515;0,0161356
2345,0159;0,0162387
2345,9800;0,0172653
2346,9443;0,0189735
2347,9084;0,0206282
2348,8728;0,0215454
2349,8369;0,0214456
2350,8013;0,020526
2351,7654;0,019309
2352,7297;0,0183361
2353,6938;0,0178676
2354,6582;0,0178356
2355,6223;0,0180543
2356,5867;0,0183767
2357,5508;0,018667
2358,5151;0,0187726
2359,4792;0,0186069
2360,4436;0,0182256
2361,4077;0,0177578
2362,3721;0,0172646
2363,3362;0,0166975
2364,3005;0,0159884
2365,2646;0,0151491
2366,2290;0,0142741
2367,1931;0,0134647
2368,1575;0,0127656
2369,1216;0,0121664
2370,0859;0,0116413
2371,0500;0,0111845
2372,0144;0,0108206
2372,9785;0,0105978
2373,9429;0,0105738
2374,9070;0,0107939
2375,8713;0,0112664
2376,8354;0,0119424
2377,7998;0,0127125
2378,7639;0,0134282
2379,7283;0,013939
2380,6924;0,0141326
2381,6567;0,0139631
2382,6208;0,0134572
2383,5852;0,0127005
2384,5493;0,0118103
2385,5137;0,0109053
2386,4778;0,0100804
2387,4421;0,00939451
2388,4063;0,00887023
2389,3706;0,00850261
2390,3347;0,00827019
2391,2991;0,008144
2392,2632;0,00809321
2393,2275;0,00808889
2394,1917;0,00810746
2395,1560;0,00813358
2396,1201;0,00816099
2397,0845;0,00818987
2398,0486;0,0082243
2399,0129;0,00826174
2399,9771;0,00829324
2400,9414;0,00830861
2401,9055;0,00830132
2402,8699;0,00827637
2403,8340;0,00824977
2404,7983;0,00824164
2405,7625;0,00826504
2406,7268;0,0083165
2407,6909;0,00837746
2408,6553;0,0084239
2409,6194;0,00843833
2410,5837;0,00842053
2411,5479;0,00838622
2412,5122;0,0083577
2413,4763;0,00835132
2414,4407;0,00836976
2415,4048;0,00840233
2416,3691;0,00843242
2417,3333;0,00844734
2418,2976;0,00844463
2419,2617;0,00843286
2420,2261;0,00842649
2421,1902;0,00843739
2422,1545;0,00847018
2423,1187;0,0085195
2424,0830;0,0085729
2425,0471;0,00861675
2426,0115;0,00864247
2426,9756;0,00864981
2427,9399;0,008646
2428,9041;0,00864149
2429,8684;0,00864504
2430,8325;0,00866072
2431,7969;0,00868762
2432,7610;0,00872135
2433,7253;0,00875581
2434,6895;0,00878448
2435,6538;0,00880176
2436,6179;0,00880487
2437,5823;0,00879573
2438,5464;0,00878132
2439,5107;0,00877137
2440,4749;0,008774
2441,4392;0,0087917
2442,4033;0,00882016
2443,3677;0,00885079
2444,3318;0,0088752
2445,2961;0,00888891
2446,2603;0,00889234
2447,2246;0,00888928
2448,1887;0,0088842
2449,1531;0,00888028
2450,1172;0,0088788
2451,0815;0,00887964
2452,0457;0,00888231
2453,0100;0,00888714
2453,9741;0,008896
2454,9385;0,00891219
2455,9026;0,00893881
2456,8669;0,00897613
2457,8311;0,00901917
2458,7954;0,00905785
2459,7595;0,00908023
2460,7239;0,00907812
2461,6880;0,00905186
2462,6523;0,00901153
2463,6165;0,00897353
2464,5808;0,00895442
2465,5449;0,00896491
2466,5093;0,00900687
2467,4734;0,00907339
2468,4377;0,00915122
2469,4019;0,00922383
2470,3662;0,00927507
2471,3303;0,00929346
2472,2947;0,00927656
2473,2588;0,00923367
2474,2231;0,0091841
2475,1873;0,00915045
2476,1516;0,00914926
2477,1157;0,00918367
2478,0801;0,00924234
2479,0442;0,00930529
2480,0085;0,00935314
2480,9727;0,00937488
2481,9370;0,00937059
2482,9011;0,0093493
2483,8655;0,00932457
2484,8296;0,0093102
2485,7939;0,00931676
2486,7581;0,00934846
2487,7224;0,00940041
2488,6865;0,00945825
2489,6509;0,00950222
2490,6150;0,00951557
2491,5793;0,0094934
2492,5435;0,00944657
2493,5078;0,00939737
2494,4719;0,00936875
2495,4363;0,00937325
2496,4004;0,00940789
2497,3647;0,0094577
2498,3289;0,0095049
2499,2932;0,00953768
2500,2573;0,00955402
2501,2217;0,00955935
2502,1858;0,00956083
2503,1501;0,00956245
2504,1143;0,00956351
2505,0786;0,00956071
2506,0427;0,0095519
2507,0071;0,00953875
2507,9712;0,00952664
2508,9355;0,0095216
2509,8997;0,00952633
2510,8640;0,009538
2511,8281;0,00954958
2512,7925;0,00955413
2513,7566;0,00954915
2514,7209;0,00953756
2515,6851;0,00952483
2516,6494;0,00951454
2517,6135;0,00950645
2518,5779;0,00949888
2519,5420;0,00949326
2520,5063;0,00949608
2521,4705;0,00951526
2522,4348;0,00955262
2523,3989;0,0095986
2524,3633;0,00963425
2525,3274;0,00964098
2526,2917;0,00961188
2527,2559;0,00955712
2528,2202;0,00949958
2529,1843;0,00946352
2530,1487;0,00946353
2531,1128;0,00949975
2532,0771;0,00956058
2533,0413;0,00962904
2534,0056;0,00968845
2534,9697;0,00972549
2535,9341;0,00973194
2536,8982;0,00970685
2537,8625;0,00965885
2538,8267;0,00960544
2539,7910;0,00956742
2540,7551;0,00955932
2541,7195;0,00958137
2542,6836;0,00961862
2543,6479;0,0096487
2544,6121;0,0096543
2545,5764;0,00963243
2546,5405;0,00959476
2547,5049;0,00955927
2548,4690;0,00953893
2549,4333;0,00953503
2550,3975;0,00953851
2551,3618;0,00953758
2552,3259;0,00952561
2553,2903;0,00950479
2554,2544;0,00948441
2555,2188;0,0094759
2556,1829;0,00948791
2557,1472;0,00952282
2558,1113;0,00957502
2559,0757;0,00963123
2560,0398;0,00967376
2561,0042;0,00968711
2561,9683;0,00966555
2562,9326;0,00961732
2563,8967;0,0095616
2564,8611;0,00951878
2565,8252;0,00949974
2566,7896;0,00950127
2567,7537;0,00951085
2568,7180;0,00951717
2569,6821;0,00951847
2570,6465;0,00952245
2571,6106;0,00953818
2572,5750;0,00956678
2573,5391;0,00959827
2574,5034;0,00961722
2575,4675;0,00961294
2576,4319;0,00958671
2577,3960;0,00955119
2578,3604;0,00952294
2579,3245;0,00951354
2580,2888;0,00952468
2581,2529;0,00954939
2582,2173;0,009577
2583,1814;0,00959822
2584,1458;0,00960765
2585,1099;0,0096037
2586,0742;0,00958749
2587,0383;0,00956193
2588,0027;0,00953166
2588,9668;0,00950291
2589,9312;0,00948274
2590,8953;0,0094773
2591,8596;0,00948955
2592,8237;0,00951733
2593,7881;0,0095529
2594,7522;0,00958476
2595,7166;0,0096015
2596,6807;0,00959651
2597,6450;0,00957146
2598,6091;0,00953656
2599,5735;0,00950699
2600,5376;0,0094968
2601,5020;0,00951292
2602,4661;0,00955224
2603,4304;0,00960291
2604,3945;0,00964961
2605,3589;0,00967997
2606,3230;0,00968946
2607,2874;0,00968223
2608,2515;0,00966807
2609,2158;0,00965702
2610,1799;0,00965471
2611,1443;0,00966082
2612,1084;0,00967108
2613,0728;0,00968122
2614,0369;0,00969018
2615,0012;0,00970034
2615,9653;0,00971509
2616,9297;0,0097355
2617,8938;0,00975875
2618,8582;0,0097793
2619,8223;0,00979206
2620,7866;0,00979526
2621,7507;0,00979124
2622,7151;0,00978493
2623,6792;0,00978126
2624,6436;0,00978327
2625,6077;0,0097917
2626,5720;0,00980578
2627,5361;0,00982432
2628,5005;0,0098463
2629,4646;0,00987083
2630,4290;0,00989677
2631,3931;0,00992249
2632,3574;0,00994583
2633,3215;0,00996446
2634,2859;0,00997659
2635,2500;0,00998196
2636,2144;0,00998269
2637,1785;0,00998335
2638,1428;0,00998964
2639,1069;0,0100059
2640,0713;0,0100325
2641,0354;0,0100646
2641,9998;0,0100942
2642,9639;0,0101133
2643,9282;0,0101186
2644,8923;0,0101135
2645,8567;0,010107
2646,8208;0,0101088
2647,7852;0,010125
2648,7493;0,0101545
2649,7136;0,0101911
2650,6777;0,0102262
2651,6421;0,0102541
2652,6062;0,0102738
2653,5706;0,0102883
2654,5347;0,0103025
2655,4990;0,0103204
2656,4631;0,0103445
2657,4275;0,0103756
2658,3916;0,0104133
2659,3560;0,0104556
2660,3201;0,0104998
2661,2844;0,0105422
2662,2485;0,0105802
2663,2129;0,0106135
2664,1770;0,0106438
2665,1414;0,0106741
2666,1055;0,0107062
2667,0698;0,0107392
2668,0339;0,0107703
2668,9983;0,0107964
2669,9624;0,0108161
2670,9268;0,0108304
2671,8909;0,0108421
2672,8552;0,0108548
2673,8193;0,0108712
2674,7837;0,0108931
2675,7478;0,010921
2676,7122;0,0109535
2677,6763;0,0109879
2678,6406;0,0110208
2679,6047;0,0110492
2680,5691;0,011072
2681,5332;0,0110898
2682,4976;0,0111045
2683,4617;0,0111183
2684,4260;0,0111326
2685,3901;0,0111485
2686,3545;0,0111671
2687,3186;0,011189
2688,2830;0,0112137
2689,2471;0,0112397
2690,2114;0,0112643
2691,1755;0,0112856
2692,1399;0,0113031
2693,1040;0,0113187
2694,0684;0,011335
2695,0325;0,0113542
2695,9968;0,0113776
2696,9609;0,0114052
2697,9253;0,0114368
2698,8894;0,0114718
2699,8538;0,0115087
2700,8179;0,011545
2701,7822;0,0115784
2702,7463;0,0116071
2703,7107;0,011632
2704,6748;0,0116553
2705,6392;0,0116792
2706,6033;0,0117035
2707,5676;0,0117259
2708,5317;0,0117428
2709,4961;0,0117528
2710,4602;0,0117585
2711,4246;0,0117655
2712,3887;0,0117804
2713,3530;0,0118069
2714,3171;0,0118442
2715,2815;0,011887
2716,2456;0,0119288
2717,2100;0,011965
2718,1741;0,0119949
2719,1384;0,0120216
2720,1025;0,0120496
2721,0669;0,0120814
2722,0310;0,0121156
2722,9954;0,0121476
2723,9595;0,0121724
2724,9238;0,0121877
2725,8879;0,0121958
2726,8523;0,0122023
2727,8164;0,0122135
2728,7808;0,0122332
2729,7449;0,0122615
2730,7092;0,0122946
2731,6733;0,0123269
2732,6377;0,0123533
2733,6018;0,0123706
2734,5662;0,0123793
2735,5303;0,0123827
2736,4946;0,0123861
2737,4587;0,0123948
2738,4231;0,0124113
2739,3872;0,0124353
2740,3516;0,012464
2741,3157;0,0124945
2742,2800;0,0125248
2743,2441;0,0125533
2744,2085;0,0125782
2745,1726;0,012596
2746,1370;0,0126032
2747,1011;0,0125993
2748,0654;0,0125888
2749,0295;0,0125806
2749,9939;0,0125839
2750,9580;0,0126042
2751,9224;0,0126399
2752,8865;0,0126842
2753,8508;0,0127288
2754,8149;0,0127681
2755,7793;0,0128006
2756,7434;0,0128279
2757,7078;0,0128525
2758,6719;0,0128762
2759,6362;0,0128999
2760,6003;0,0129249
2761,5647;0,0129518
2762,5288;0,0129805
2763,4932;0,0130094
2764,4573;0,0130357
2765,4216;0,0130577
2766,3857;0,0130765
2767,3501;0,0130962
2768,3142;0,0131219
2769,2786;0,0131559
2770,2427;0,0131964
2771,2070;0,0132379
2772,1711;0,0132748
2773,1355;0,0133052
2774,0996;0,0133319
2775,0640;0,0133607
2776,0281;0,0133961
2776,9924;0,0134381
2777,9565;0,0134825
2778,9209;0,0135241
2779,8850;0,0135606
2780,8494;0,0135948
2781,8135;0,013633
2782,7778;0,0136807
2783,7419;0,0137385
2784,7063;0,0138015
2785,6704;0,0138617
2786,6348;0,0139123
2787,5989;0,0139514
2788,5632;0,0139829
2789,5273;0,0140141
2790,4917;0,014052
2791,4558;0,0141002
2792,4202;0,0141578
2793,3843;0,0142202
2794,3486;0,0142819
2795,3127;0,0143389
2796,2771;0,0143911
2797,2412;0,0144425
2798,2056;0,0144991
2799,1697;0,0145663
2800,1340;0,0146457
2801,0981;0,0147343
2802,0625;0,0148254
2803,0266;0,0149125
2803,9910;0,0149924
2804,9551;0,0150664
2805,9194;0,0151383
2806,8835;0,0152111
2807,8479;0,0152852
2808,8120;0,0153588
2809,7764;0,0154316
2810,7405;0,0155066
2811,7048;0,0155904
2812,6689;0,0156893
2813,6333;0,0158053
2814,5974;0,015934
2815,5618;0,0160667
2816,5259;0,0161953
2817,4902;0,0163159
2818,4543;0,0164305
2819,4187;0,0165442
2820,3828;0,0166611
2821,3472;0,0167826
2822,3113;0,0169079
2823,2756;0,0170368
2824,2397;0,0171716
2825,2041;0,0173171
2826,1682;0,0174781
2827,1326;0,0176565
2828,0967;0,0178506
2829,0610;0,0180564
2830,0251;0,0182699
2830,9895;0,0184895
2831,9536;0,0187159
2832,9180;0,0189502
2833,8821;0,0191925
2834,8464;0,019441
2835,8105;0,0196937
2836,7749;0,0199511
2837,7390;0,0202181
2838,7034;0,0205039
2839,6675;0,0208199
2840,6318;0,0211775
2841,5959;0,0215849
2842,5603;0,0220454
2843,5244;0,0225552
2844,4888;0,0231003
2845,4529;0,0236549
2846,4172;0,0241815
2847,3813;0,0246365
2848,3457;0,0249802
2849,3098;0,0251883
2850,2742;0,0252596
2851,2383;0,0252161
2852,2026;0,025095
2853,1667;0,0249375
2854,1311;0,0247779
2855,0952;0,0246388
2856,0596;0,0245319
2857,0237;0,0244618
2857,9880;0,0244301
2858,9521;0,0244374
2859,9165;0,0244819
2860,8806;0,0245583
2861,8450;0,0246582
2862,8091;0,0247719
2863,7734;0,0248924
2864,7375;0,0250175
2865,7019;0,0251485
2866,6660;0,0252871
2867,6304;0,0254318
2868,5945;0,0255767
2869,5588;0,0257137
2870,5229;0,0258368
2871,4873;0,0259445
2872,4514;0,0260397
2873,4158;0,0261264
2874,3799;0,0262063
2875,3442;0,026278
2876,3083;0,0263394
2877,2727;0,0263903
2878,2368;0,0264346
2879,2012;0,026479
2880,1653;0,0265303
2881,1296;0,0265925
2882,0938;0,0266663
2883,0581;0,02675
2884,0222;0,0268411
2884,9866;0,0269369
2885,9507;0,0270345
2886,9150;0,0271297
2887,8792;0,0272186
2888,8435;0,0272992
2889,8076;0,0273726
2890,7720;0,0274436
2891,7361;0,0275171
2892,7004;0,0275955
2893,6646;0,0276762
2894,6289;0,0277535
2895,5930;0,0278223
2896,5574;0,0278832
2897,5215;0,027943
2898,4858;0,0280109
2899,4500;0,0280923
2900,4143;0,0281843
2901,3784;0,0282767
2902,3428;0,0283583
2903,3069;0,028426
2904,2712;0,0284884
2905,2354;0,028564
2906,1997;0,0286729
2907,1638;0,0288285
2908,1282;0,0290334
2909,0923;0,0292824
2910,0566;0,0295677
2911,0208;0,0298829
2911,9851;0,0302205
2912,9492;0,0305671
2913,9136;0,0308983
2914,8777;0,0311803
2915,8420;0,0313775
2916,8062;0,0314641
2917,7705;0,031432
2918,7346;0,0312922
2919,6990;0,0310691
2920,6631;0,0307911
2921,6274;0,0304833
2922,5916;0,0301641
2923,5559;0,0298454
2924,5200;0,0295342
2925,4844;0,029234
2926,4485;0,0289455
2927,4128;0,0286675
2928,3770;0,0283987
2929,3413;0,0281389
2930,3054;0,0278893
2931,2698;0,02765
2932,2339;0,0274184
2933,1982;0,027189
2934,1624;0,0269561
2935,1267;0,0267176
2936,0908;0,0264759
2937,0552;0,0262363
2938,0193;0,0260021
2938,9836;0,025771
2939,9478;0,0255357
2940,9121;0,0252879
2941,8762;0,0250239
2942,8406;0,0247472
2943,8047;0,0244673
2944,7690;0,0241953
2945,7332;0,0239387
2946,6975;0,023699
2947,6616;0,0234731
2948,6260;0,0232557
2949,5901;0,0230431
2950,5544;0,022834
2951,5186;0,0226295
2952,4829;0,0224311
2953,4470;0,0222394
2954,4114;0,0220536
2955,3755;0,0218723
2956,3398;0,0216946
2957,3040;0,0215213
2958,2683;0,0213544
2959,2324;0,0211952
2960,1968;0,0210439
2961,1609;0,0208976
2962,1252;0,0207516
2963,0894;0,0206007
2964,0537;0,0204404
2965,0178;0,0202691
2965,9822;0,0200886
2966,9463;0,0199034
2967,9106;0,0197205
2968,8748;0,0195459
2969,8391;0,0193829
2970,8032;0,0192303
2971,7676;0,0190824
2972,7317;0,0189323
2973,6960;0,0187754
2974,6602;0,0186113
2975,6245;0,0184437
2976,5886;0,0182768
2977,5530;0,0181131
2978,5171;0,0179526
2979,4814;0,0177954
2980,4456;0,017645
2981,4099;0,0175082
2982,3740;0,0173928
2983,3384;0,0173021
2984,3025;0,0172324
2985,2668;0,0171742
2986,2310;0,0171178
2987,1953;0,0170582
2988,1594;0,0169976
2989,1238;0,016942
2990,0879;0,0168968
2991,0522;0,0168624
2992,0164;0,0168346
2992,9807;0,0168085
2993,9448;0,0167815
2994,9092;0,0167558
2995,8733;0,0167359
2996,8376;0,0167264
2997,8018;0,0167297
2998,7661;0,0167453
2999,7302;0,0167708
3000,6946;0,0168022
3001,6587;0,0168351
3002,6230;0,0168649
3003,5872;0,0168889
3004,5515;0,0169073
3005,5156;0,0169245
3006,4800;0,0169472
3007,4441;0,0169813
3008,4084;0,0170286
3009,3726;0,0170853
3010,3369;0,0171429
3011,3010;0,0171917
3012,2654;0,0172245
3013,2295;0,0172392
3014,1938;0,0172387
3015,1580;0,0172308
3016,1223;0,0172255
3017,0864;0,0172332
3018,0508;0,0172617
3019,0149;0,0173137
3019,9792;0,0173845
3020,9434;0,0174633
3021,9077;0,0175372
3022,8718;0,0175977
3023,8362;0,0176454
3024,8003;0,0176913
3025,7646;0,017751
3026,7288;0,0178359
3027,6931;0,0179458
3028,6572;0,0180677
3029,6216;0,0181811
3030,5857;0,0182678
3031,5500;0,0183212
3032,5142;0,0183496
3033,4785;0,0183704
3034,4426;0,018402
3035,4070;0,0184548
3036,3711;0,0185288
3037,3354;0,018616
3038,2996;0,0187059
3039,2639;0,0187906
3040,2280;0,0188675
3041,1924;0,0189394
3042,1565;0,0190132
3043,1208;0,0190969
3044,0850;0,0191963
3045,0493;0,0193119
3046,0134;0,0194384
3046,9778;0,0195653
3047,9419;0,0196821
3048,9063;0,0197835
3049,8704;0,0198721
3050,8347;0,0199579
3051,7988;0,0200524
3052,7632;0,0201626
3053,7273;0,0202868
3054,6917;0,0204157
3055,6558;0,0205374
3056,6201;0,020644
3057,5842;0,0207364
3058,5486;0,0208245
3059,5127;0,0209215
3060,4771;0,0210375
3061,4412;0,0211733
3062,4055;0,0213191
3063,3696;0,0214585
3064,3340;0,0215757
3065,2981;0,0216638
3066,2625;0,0217274
3067,2266;0,0217801
3068,1909;0,0218369
3069,1550;0,0219075
3070,1194;0,0219942
3071,0835;0,022094
3072,0479;0,0222031
3073,0120;0,0223202
3073,9763;0,0224456
3074,9404;0,022579
3075,9048;0,0227172
3076,8689;0,0228545
3077,8333;0,0229858
3078,7974;0,0231083
3079,7617;0,0232219
3080,7258;0,0233278
3081,6902;0,0234271
3082,6543;0,0235207
3083,6187;0,0236102
3084,5828;0,023699
3085,5471;0,0237901
3086,5112;0,0238848
3087,4756;0,0239808
3088,4397;0,0240752
3089,4041;0,0241668
3090,3682;0,0242589
3091,3325;0,0243575
3092,2966;0,0244683
3093,2610;0,0245928
3094,2251;0,0247286
3095,1895;0,0248713
3096,1536;0,0250173
3097,1179;0,0251648
3098,0820;0,0253112
3099,0464;0,0254519
3100,0105;0,0255804
3100,9749;0,0256922
3101,9390;0,0257881
3102,9033;0,0258754
3103,8674;0,0259647
3104,8318;0,0260647
3105,7959;0,0261788
3106,7603;0,0263052
3107,7244;0,0264393
3108,6887;0,026578
3109,6528;0,0267205
3110,6172;0,0268674
3111,5813;0,0270192
3112,5457;0,0271741
3113,5098;0,027328
3114,4741;0,0274763
3115,4382;0,0276151
3116,4026;0,027743
3117,3667;0,0278618
3118,3311;0,0279762
3119,2952;0,0280919
3120,2595;0,0282141
3121,2236;0,0283447
3122,1880;0,0284817
3123,1521;0,0286194
3124,1165;0,0287514
3125,0806;0,028874
3126,0449;0,0289888
3127,0090;0,0291022
3127,9734;0,029222
3128,9375;0,0293537
3129,9019;0,0294974
3130,8660;0,0296491
3131,8303;0,0298033
3132,7944;0,0299565
3133,7588;0,030109
3134,7229;0,030263
3135,6873;0,0304206
3136,6514;0,0305813
3137,6157;0,0307429
3138,5798;0,0309031
3139,5442;0,0310611
3140,5083;0,0312182
3141,4727;0,0313762
3142,4368;0,0315367
3143,4011;0,0317001
3144,3652;0,0318662
3145,3296;0,0320335
3146,2937;0,0321995
3147,2581;0,0323606
3148,2222;0,0325131
3149,1865;0,0326562
3150,1506;0,0327935
3151,1150;0,0329326
3152,0791;0,0330823
3153,0435;0,0332474
3154,0076;0,0334263
3154,9719;0,033611
3155,9360;0,0337919
3156,9004;0,0339626
3157,8645;0,034123
3158,8289;0,0342789
3159,7930;0,0344374
3160,7573;0,0346029
3161,7214;0,034775
3162,6858;0,0349491
3163,6499;0,0351202
3164,6143;0,0352861
3165,5784;0,0354479
3166,5427;0,0356082
3167,5068;0,0357686
3168,4712;0,0359291
3169,4353;0,0358867
3170,3997;0,0360512
3171,3638;0,0362252
3172,3281;0,0364127
3173,2922;0,0366131
3174,2566;0,0368197
3175,2207;0,0370214
3176,1851;0,0372081
3177,1492;0,0373759
3178,1135;0,03753
3179,0776;0,0376817
3180,0420;0,0378426
3181,0061;0,0380187
3181,9705;0,0382079
3182,9346;0,0384017
3183,8989;0,0385893
3184,8630;0,0387628
3185,8274;0,0389205
3186,7915;0,0390676
3187,7559;0,0392133
3188,7200;0,0393665
3189,6843;0,0395311
3190,6484;0,0397049
3191,6128;0,0398815
3192,5769;0,040054
3193,5413;0,0402198
3194,5054;0,0403808
3195,4697;0,0405414
3196,4338;0,0407049
3197,3982;0,0408705
3198,3623;0,041035
3199,3267;0,041195
3200,2908;0,0413502
3201,2551;0,0415026
3202,2192;0,041655
3203,1836;0,0418083
3204,1477;0,0419615
3205,1121;0,0421137
3206,0762;0,0422668
3207,0405;0,0424247
3208,0046;0,042591
3208,9690;0,0427647
3209,9331;0,0429393
3210,8975;0,0431066
3211,8616;0,0432621
3212,8259;0,0434087
3213,7900;0,043556
3214,7544;0,0437134
3215,7185;0,0438847
3216,6829;0,0440651
3217,6470;0,044245
3218,6113;0,044416
3219,5754;0,0445758
3220,5398;0,0447274
3221,5039;0,0448762
3222,4683;0,0450264
3223,4324;0,045179
3224,3967;0,045333
3225,3608;0,0454869
3226,3252;0,0456395
3227,2893;0,0457897
3228,2537;0,0459373
3229,2178;0,0460843
3230,1821;0,0462362
3231,1462;0,0463994
3232,1106;0,0465769
3233,0747;0,0467642
3234,0391;0,0469495
3235,0032;0,0471197
3235,9675;0,0472681
3236,9316;0,0473994
3237,8960;0,0475274
3238,8601;0,0476663
3239,8245;0,0478234
3240,7886;0,0479956
3241,7529;0,0481736
3242,7170;0,0483488
3243,6814;0,0485177
3244,6455;0,0486821
3245,6099;0,0488447
3246,5740;0,0490057
3247,5383;0,0491619
3248,5024;0,0493101
3249,4668;0,0494514
3250,4309;0,0495924
3251,3953;0,0497423
3252,3594;0,0499082
3253,3237;0,0500906
3254,2878;0,0502832
3255,2522;0,0504762
3256,2163;0,0506612
3257,1807;0,0508346
3258,1448;0,0509977
3259,1091;0,0511555
3260,0732;0,051314
3261,0376;0,0514785
3262,0017;0,0516526
3262,9661;0,0518371
3263,9302;0,0520298
3264,8945;0,0522258
3265,8586;0,0524192
3266,8230;0,0526052
3267,7871;0,0527819
3268,7515;0,0529495
3269,7156;0,0531082
3270,6799;0,0532559
3271,6440;0,0533879
3272,6084;0,0534991
3273,5725;0,0535886
3274,5369;0,0536613
3275,5010;0,0537277
3276,4653;0,0537984
3277,4294;0,0538799
3278,3938;0,0539707
3279,3579;0,0540635
3280,3223;0,0541488
3281,2864;0,0542203
3282,2507;0,0542779
3283,2148;0,0543279
3284,1792;0,0543797
3285,1433;0,0544413
3286,1077;0,0545146
3287,0718;0,0545943
3288,0361;0,0546695
3289,0002;0,0547282
3289,9646;0,0547629
3290,9287;0,0547744
3291,8931;0,0547717
3292,8572;0,0547677
3293,8215;0,0547734
3294,7856;0,054793
3295,7500;0,0548224
3296,7141;0,0548527
3297,6785;0,0548746
3298,6426;0,0548834
3299,6069;0,0548802
3300,5710;0,0548713
3301,5354;0,0548656
3302,4995;0,0548714
3303,4639;0,0548932
3304,4280;0,0549305
3305,3923;0,054977
3306,3564;0,0550226
3307,3208;0,0550568
3308,2849;0,0550726
3309,2493;0,0550691
3310,2134;0,0550521
3311,1777;0,0550312
3312,1418;0,0550169
3313,1062;0,0550168
3314,0703;0,0550352
3315,0347;0,0550729
3315,9988;0,05513
3316,9631;0,0552068
3317,9272;0,0553034
3318,8916;0,0554182
3319,8557;0,0555459
3320,8201;0,0556764
3321,7842;0,0557977
3322,7485;0,0559
3323,7126;0,05598
3324,6770;0,0560421
3325,6411;0,0560961
3326,6055;0,0561518
3327,5696;0,0562148
3328,5339;0,056287
3329,4980;0,0563672
3330,4624;0,0564536
3331,4265;0,0565433
3332,3909;0,0566298
3333,3550;0,056702
3334,3193;0,0567459
3335,2834;0,0567511
3336,2478;0,056716
3337,2119;0,0566494
3338,1763;0,0565655
3339,1404;0,0564757
3340,1047;0,0563834
3341,0688;0,0562849
3342,0332;0,056175
3342,9973;0,0560541
3343,9617;0,0559293
3344,9258;0,0558121
3345,8901;0,0557109
3346,8542;0,0556266
3347,8186;0,0555515
3348,7827;0,0554735
3349,7471;0,055381
3350,7112;0,0552679
3351,6755;0,0551346
3352,6396;0,0549864
3353,6040;0,0548316
3354,5681;0,0546782
3355,5325;0,0545331
3356,4966;0,0544013
3357,4609;0,0542853
3358,4250;0,054184
3359,3894;0,0540932
3360,3535;0,0540051
3361,3179;0,0539098
3362,2820;0,0537984
3363,2463;0,0536657
3364,2104;0,053512
3365,1748;0,0533426
3366,1389;0,0531654
3367,1033;0,0529871
3368,0674;0,052811
3369,0317;0,0526372
3369,9958;0,0524646
3370,9602;0,0522935
3371,9243;0,0521263
3372,8887;0,0519654
3373,8528;0,0518108
3374,8171;0,0516597
3375,7813;0,0515079
3376,7456;0,0513542
3377,7097;0,0512026
3378,6741;0,0510607
3379,6382;0,0509345
3380,6025;0,0508216
3381,5667;0,0507094
3382,5310;0,0505801
3383,4951;0,0504216
3384,4595;0,0502368
3385,4236;0,0500466
3386,3879;0,0498798
3387,3521;0,0497582
3388,3164;0,0496842
3389,2805;0,0496395
3390,2449;0,0495944
3391,2090;0,0495227
3392,1733;0,049413
3393,1375;0,0492707
3394,1018;0,0491091
3395,0659;0,0489393
3396,0303;0,0487642
3396,9944;0,0485821
3397,9587;0,0483929
3398,9229;0,0482014
3399,8872;0,0480152
3400,8513;0,0478392
3401,8157;0,047672
3402,7798;0,0475063
3403,7441;0,0473338
3404,7083;0,0471508
3405,6726;0,0469602
3406,6367;0,0467709
3407,6011;0,0465928
3408,5652;0,0464311
3409,5295;0,0462822
3410,4937;0,0461333
3411,4580;0,0459672
3412,4221;0,0457729
3413,3865;0,0455539
3414,3506;0,0453289
3415,3149;0,0451235
3416,2791;0,0449562
3417,2434;0,044825
3418,2075;0,0447058
3419,1719;0,0445623
3420,1360;0,0443652
3421,1003;0,0441072
3422,0645;0,0438062
3423,0288;0,0434934
3423,9929;0,0431967
3424,9573;0,0429302
3425,9214;0,0426939
3426,8857;0,0424797
3427,8499;0,0422773
3428,8142;0,0420777
3429,7783;0,0418744
3430,7427;0,0416625
3431,7068;0,0414377
3432,6711;0,0411983
3433,6353;0,0409466
3434,5996;0,0406901
3435,5637;0,0404394
3436,5281;0,0402033
3437,4922;0,0399859
3438,4565;0,0397857
3439,4207;0,0395998
3440,3850;0,0394277
3441,3491;0,0392721
3442,3135;0,0391328
3443,2776;0,0389994
3444,2419;0,0388478
3445,2061;0,0386475
3446,1704;0,0383782
3447,1345;0,0380461
3448,0989;0,0376853
3449,0630;0,0373398
3450,0273;0,0370386
3450,9915;0,0367849
3451,9558;0,0365625
3452,9199;0,0363524
3453,8843;0,0361464
3454,8484;0,0359494
3455,8127;0,0357715
3456,7769;0,0356159
3457,7412;0,0354725
3458,7053;0,0353209
3459,6697;0,0351409
3460,6338;0,0349229
3461,5981;0,0346718
3462,5623;0,0344022
3463,5266;0,0341288
3464,4907;0,0338578
3465,4551;0,0335866
3466,4192;0,0333102
3467,3835;0,0330295
3468,3477;0,0327551
3469,3120;0,0325024
3470,2761;0,0322803
3471,2405;0,0320828
3472,2046;0,0318904
3473,1689;0,0316826
3474,1331;0,0314543
3475,0974;0,0312231
3476,0615;0,0310197
3477,0259;0,0308659
3477,9900;0,0307556
3478,9543;0,0306527
3479,9185;0,0305086
3480,8828;0,0302906
3481,8469;0,030005
3482,8113;0,0296942
3483,7754;0,0294079
3484,7397;0,0291721
3485,7039;0,0289769
3486,6682;0,0287894
3487,6323;0,0285797
3488,5967;0,0283427
3489,5608;0,0281015
3490,5251;0,0278888
3491,4893;0,027721
3492,4536;0,0275851
3493,4177;0,0274469
3494,3821;0,0272759
3495,3462;0,027073
3496,3105;0,0268789
3497,2747;0,0267514
3498,2390;0,0267237
3499,2031;0,0267742
3500,1675;0,0268249
3501,1316;0,0267737
3502,0959;0,0265511
3503,0601;0,0261723
3504,0244;0,0257371
3504,9885;0,0253642
3505,9529;0,0251165
3506,9170;0,0249738
3507,8813;0,0248567
3508,8455;0,0246781
3509,8098;0,0243925
3510,7739;0,0240198
3511,7383;0,0236257
3512,7024;0,0232749
3513,6667;0,022998
3514,6309;0,0227908
3515,5952;0,0226341
3516,5593;0,0225156
3517,5237;0,0224396
3518,4878;0,0224202
3519,4521;0,0224645
3520,4163;0,0225576
3521,3806;0,0226591
3522,3447;0,0227139
3523,3091;0,022674
3524,2732;0,0225164
3525,2375;0,0222456
3526,2017;0,0218806
3527,1660;0,0214446
3528,1301;0,020966
3529,0945;0,0204857
3530,0586;0,0200568
3531,0229;0,019726
3531,9871;0,019514
3532,9514;0,0194039
3533,9155;0,0193436
3534,8799;0,0192627
3535,8440;0,0191033
3536,8083;0,0188548
3537,7725;0,0185673
3538,7368;0,0183288
3539,7009;0,0182212
3540,6653;0,0182832
3541,6294;0,0184917
3542,5938;0,0187582
3543,5579;0,0189433
3544,5222;0,018909
3545,4863;0,0186012
3546,4507;0,0180976
3547,4148;0,017557
3548,3792;0,017112
3549,3433;0,0168033
3550,3076;0,0165853
3551,2717;0,0163724
3552,2361;0,016099
3553,2002;0,0157646
3554,1646;0,0154323
3555,1287;0,0151777
3556,0930;0,0150368
3557,0571;0,0149933
3558,0215;0,0150021
3558,9856;0,0150271
3559,9500;0,015072
3560,9141;0,0151807
3561,8784;0,0154042
3562,8425;0,0157533
3563,8069;0,0161551
3564,7710;0,0164183
3565,7354;0,0162676
3566,6995;0,0155446
3567,6638;0,0144359
3568,6279;0,0133625
3569,5923;0,0126198
3570,5564;0,0122323
3571,5208;0,0120711
3572,4849;0,0119975
3573,4492;0,0119282
3574,4133;0,0118391
3575,3777;0,0117409
3576,3418;0,0116496
3577,3062;0,0115666
3578,2703;0,0114847
3579,2346;0,0114082
3580,1987;0,0113671
3581,1631;0,0114054
3582,1272;0,0115521
3583,0916;0,0117979
3584,0557;0,0120821
3585,0200;0,0122823
3585,9841;0,0122337
3586,9485;0,0118508
3587,9126;0,0112817
3588,8770;0,0108354
3589,8411;0,0107113
3590,8054;0,0108812
3591,7695;0,011181
3592,7339;0,0114295
3593,6980;0,0114997
3594,6624;0,0113625
3595,6265;0,0110906
3596,5908;0,0107898
3597,5549;0,01051
3598,5193;0,0102245
3599,4834;0,00988774
3600,4478;0,00950514
3601,4119;0,00914828
3602,3762;0,00889608
3603,3403;0,00876458
3604,3047;0,00868953
3605,2688;0,00855716
3606,2332;0,00825242
3607,1973;0,00772001
3608,1616;0,0070209
3609,1257;0,00632161
3610,0901;0,00579703
3611,0542;0,00553514
3612,0186;0,00551834
3612,9827;0,0056625
3613,9470;0,00586458
3614,9111;0,00603366
3615,8755;0,00610167
3616,8396;0,00602408
3617,8040;0,00578917
3618,7681;0,00545192
3619,7324;0,00516014
3620,6965;0,00508982
3621,6609;0,00530857
3622,6250;0,00572251
3623,5894;0,00615365
3624,5535;0,00644256
3625,5178;0,00649166
3626,4819;0,00624114
3627,4463;0,00564183
3628,4104;0,00475248
3629,3748;0,00387216
3630,3389;0,00333113
3631,3032;0,00315517
3632,2673;0,0031177
3633,2317;0,00299471
3634,1958;0,00270379
3635,1602;0,00230023
3636,1243;0,00189869
3637,0886;0,00158384
3638,0527;0,0013666
3639,0171;0,00120485
3639,9812;0,00105621
3640,9456;0,000913345
3641,9097;0,000798068
3642,8740;0,000729457
3643,8381;0,000702019
3644,8025;0,000688056
3645,7666;0,000633097
3646,7310;0,000397431
3647,6951;-0,000289898
3648,6594;-0,00156484
3649,6235;-0,00297119
3650,5879;-0,00381708
3651,5520;-0,00394403
3652,5164;-0,00367544
3653,4805;-0,00338066
3654,4448;-0,00326335
3655,4089;-0,0033455
3656,3733;-0,00351897
3657,3374;-0,0036368
3658,3018;-0,00362444
3659,2659;-0,00352353
3660,2302;-0,00342757
3661,1943;-0,00338977
3662,1587;-0,00338967
3663,1228;-0,00337191
3664,0872;-0,00331263
3665,0513;-0,00324585
3666,0156;-0,00323684
3666,9797;-0,00333607
3667,9441;-0,00355754
3668,9082;-0,00386825
3669,8726;-0,0041705
3670,8367;-0,00434808
3671,8010;-0,00437375
3672,7651;-0,00432399
3673,7295;-0,00430141
3674,6936;-0,00437329
3675,6580;-0,0045134
3676,6221;-0,0045727
3677,5864;-0,00441875
3678,5505;-0,00408593
3679,5149;-0,00371003
3680,4790;-0,00338899
3681,4434;-0,0031384
3682,4075;-0,00293419
3683,3718;-0,00276982
3684,3359;-0,00267265
3685,3003;-0,00267262
3686,2644;-0,00276214
3687,2288;-0,00289344
3688,1929;-0,00301389
3689,1572;-0,00307179
3690,1213;-0,0029857
3691,0857;-0,00269614
3692,0498;-0,00224596
3693,0142;-0,00174393
3693,9783;-0,00128027
3694,9426;-0,000894945
3695,9067;-0,000594506
3696,8711;-0,00037803
3697,8352;-0,000249196
3698,7996;-0,000213338
3699,7637;-0,000267835
3700,7280;-0,000390396
3701,6921;-0,000528815
3702,6565;-0,000611535
3703,6206;-0,000590459
3704,5850;-0,000477643
3705,5491;-0,000334103
3706,5134;-0,000231468
3707,4775;-0,000235224
3708,4419;-0,000429152
3709,4060;-0,000937401
3710,3704;-0,00183143
3711,3345;-0,00292652
3712,2988;-0,00380236
3713,2629;-0,00414975
3714,2273;-0,00396683
3715,1914;-0,0034333
3716,1558;-0,00273254
3717,1199;-0,00197516
3718,0842;-0,00120293
3719,0483;-0,000422457
3720,0127;0,000362951
3720,9768;0,0011339
3721,9412;0,00184561
3722,9053;0,00242744
3723,8696;0,002799
3724,8337;0,00290827
3725,7981;0,00276804
3726,7622;0,0024506
3727,7266;0,0020455
3728,6907;0,00163291
3729,6550;0,00129407
3730,6191;0,00112391
3731,5835;0,0011956
3732,5476;0,00145725
3733,5120;0,00163484
3734,4761;0,00135276
3735,4404;0,000526622
3736,4045;-0,00047292
3737,3689;-0,00121365
3738,3330;-0,00158341
3739,2974;-0,0017573
3740,2615;-0,00198686
3741,2258;-0,00245335
3742,1899;-0,00321013
3743,1543;-0,00416206
3744,1184;-0,00506146
3745,0828;-0,00561373
3746,0469;-0,0057178
3747,0112;-0,00555432
3747,9753;-0,0054168
3748,9397;-0,00553902
3749,9038;-0,00600574
3750,8682;-0,00664713
3751,8323;-0,00706472
3752,7966;-0,00698665
3753,7607;-0,00650337
3754,7251;-0,00589605
3755,6892;-0,00540883
3756,6536;-0,00517342
3757,6177;-0,00521287
3758,5820;-0,00544373
3759,5461;-0,00569953
3760,5105;-0,00582336
3761,4746;-0,00576193
3762,4390;-0,00556844
3763,4031;-0,00534243
3764,3674;-0,00517668
3765,3315;-0,00513127
3766,2959;-0,00522463
3767,2600;-0,0054365
3768,2244;-0,00571998
3769,1885;-0,00601283
3770,1528;-0,00624276
3771,1169;-0,00634281
3772,0813;-0,00628255
3773,0454;-0,00608998
3774,0098;-0,00583844
3774,9739;-0,00561202
3775,9382;-0,00547741
3776,9023;-0,0054709
3777,8667;-0,00558632
3778,8308;-0,00575906
3779,7952;-0,00588307
3780,7593;-0,00587748
3781,7236;-0,0057416
3782,6877;-0,00554632
3783,6521;-0,00538536
3784,6162;-0,00532671
3785,5806;-0,00538178
3786,5447;-0,00550475
3787,5090;-0,00562284
3788,4731;-0,00567855
3789,4375;-0,00565539
3790,4016;-0,00557512
3791,3660;-0,00547497
3792,3301;-0,00538241
3793,2944;-0,00530313
3794,2585;-0,00522866
3795,2229;-0,00515736
3796,1870;-0,00511299
3797,1514;-0,00514616
3798,1155;-0,00531505
3799,0798;-0,00565171
3800,0439;-0,00612165
3801,0083;-0,00659909
3801,9724;-0,00691602
3802,9368;-0,00699185
3803,9009;-0,00690245
3804,8652;-0,00680335
3805,8293;-0,00679952
3806,7937;-0,00686648
3807,7578;-0,00686839
3808,7222;-0,00668187
3809,6863;-0,0063217
3810,6506;-0,00593157
3811,6147;-0,00567078
3812,5791;-0,00561934
3813,5432;-0,0057515
3814,5076;-0,00596196
3815,4717;-0,00612359
3816,4360;-0,00616261
3817,4001;-0,00611137
3818,3645;-0,00608314
3819,3286;-0,00618097
3820,2930;-0,00639947
3821,2571;-0,00659231
3822,2214;-0,00657903
3823,1855;-0,00631212
3824,1499;-0,00590819
3825,1140;-0,00553927
3826,0784;-0,00532596
3827,0425;-0,00529768
3828,0068;-0,00540685
3828,9709;-0,00557178
3829,9353;-0,00572283
3830,8994;-0,00582789
3831,8638;-0,00588895
3832,8279;-0,00592173
3833,7922;-0,0059357
3834,7563;-0,00592618
3835,7207;-0,00588173
3836,6848;-0,00580103
3837,6492;-0,00570088
3838,6133;-0,00560112
3839,5776;-0,00551208
3840,5417;-0,00544894
3841,5061;-0,00544172
3842,4702;-0,00550858
3843,4346;-0,00561919
3844,3987;-0,00569335
3845,3630;-0,005648
3846,3271;-0,00545797
3847,2915;-0,00517907
3848,2556;-0,00491923
3849,2200;-0,00478923
3850,1841;-0,00487463
3851,1484;-0,00525046
3852,1125;-0,00598034
3853,0769;-0,00692975
3854,0410;-0,00760426
3855,0054;-0,00760426
3855,9695;-0,0070462
3856,9338;-0,00629479
3857,8979;-0,00562287
3858,8623;-0,00513215
3859,8264;-0,00480941
3860,7908;-0,00460803
3861,7549;-0,00450975
3862,7192;-0,0045293
3863,6833;-0,00465951
3864,6477;-0,00483495
3865,6118;-0,0049705
3866,5762;-0,00501626
3867,5403;-0,00497182
3868,5046;-0,00487891
3869,4688;-0,00481152
3870,4331;-0,00484623
3871,3972;-0,00500992
3872,3616;-0,00525266
3873,3257;-0,00547949
3874,2900;-0,00560666
3875,2542;-0,00559362
3876,2185;-0,00544181
3877,1826;-0,00518146
3878,1470;-0,00486343
3879,1111;-0,00455693
3880,0754;-0,00433699
3881,0396;-0,00425902
3882,0039;-0,0043452
3882,9680;-0,0045899
3883,9324;-0,00495573
3884,8965;-0,00535432
3885,8608;-0,00565645
3886,8250;-0,00575812
3887,7893;-0,00564886
3888,7534;-0,00541494
3889,7178;-0,00518726
3890,6819;-0,00507417
3891,6462;-0,00509391
3892,6104;-0,00515114
3893,5747;-0,00511793
3894,5388;-0,004944
3895,5032;-0,00467005
3896,4673;-0,00436675
3897,4316;-0,00408853
3898,3958;-0,00386689
3899,3601;-0,0037181
3900,3242;-0,00365319
3901,2886;-0,00369553
3902,2527;-0,00388961
3903,2170;-0,00426401
3904,1812;-0,00477199
3905,1455;-0,00529362
3906,1096;-0,0057131
3907,0740;-0,00598187
3908,0381;-0,00611264
3909,0024;-0,00613751
3909,9666;-0,00607639
3910,9309;-0,00593022
3911,8950;-0,00569333
3912,8594;-0,00537432
3913,8235;-0,00501479
3914,7878;-0,00469533
3915,7520;-0,00451578
3916,7163;-0,00454031
3917,6804;-0,004734
3918,6448;-0,00496216
3919,6089;-0,00507788
3920,5732;-0,00501989
3921,5374;-0,00483954
3922,5017;-0,0046597
3923,4658;-0,00459871
3924,4302;-0,00469176
3925,3943;-0,00486122
3926,3586;-0,00497183
3927,3228;-0,00492599
3928,2871;-0,00472248
3929,2512;-0,00445708
3930,2156;-0,00428033
3931,1797;-0,004321
3932,1440;-0,00460398
3933,1082;-0,00503118
3934,0725;-0,00545071
3935,0366;-0,00574381
3936,0010;-0,00585916
3936,9651;-0,00579994
3937,9294;-0,00560177
3938,8936;-0,00532136
3939,8579;-0,00503154
3940,8220;-0,00480764
3941,7864;-0,004697
3942,7505;-0,0046886
3943,7148;-0,00471654
3944,6790;-0,00470778
3945,6433;-0,00463657
3946,6074;-0,00454567
3947,5718;-0,00452351
3948,5359;-0,00464855
3949,5002;-0,00493062
3950,4644;-0,00529511
3951,4287;-0,00562885
3952,3928;-0,00584701
3953,3572;-0,00592734
3954,3213;-0,00589985
3955,2856;-0,0058142
3956,2498;-0,00571018
3957,2141;-0,00560701
3958,1782;-0,00551308
3959,1426;-0,00544264
3960,1067;-0,00542136
3961,0710;-0,00547354
3962,0352;-0,0056004
3962,9995;-0,00576966
3963,9636;-0,0059279
3964,9280;-0,00602722
3965,8921;-0,00604819
3966,8564;-0,00600443
3967,8206;-0,00592944
3968,7849;-0,00585534
3969,7490;-0,00579735
3970,7134;-0,0057531
3971,6775;-0,0057153
3972,6418;-0,00568571
3973,6060;-0,00567864
3974,5703;-0,00571109
3975,5344;-0,00578758
3976,4988;-0,00589266
3977,4629;-0,00599756
3978,4272;-0,00607638
3979,3914;-0,00612068
3980,3557;-0,00614276
3981,3198;-0,00616574
3982,2842;-0,00620621
3983,2483;-0,00626098
3984,2126;-0,00630704
3985,1768;-0,00631542
3986,1411;-0,0062696
3987,1052;-0,00617715
3988,0696;-0,00606792
3989,0337;-0,00597946
3989,9980;-0,00593953
3990,9622;-0,00595492
3991,9265;-0,00601327
3992,8906;-0,00609431
3993,8550;-0,00618138
3994,8191;-0,00626565
3995,7834;-0,00634267
3996,7476;-0,00640671
3997,7119;-0,00644895
3998,6760;-0,00646107
3999,6404;-0,00644082
4000,6045;-0,00617584

##### Extended Information
[Comments]
Sample name
Comment
Username
Division
Organization;UNIVERSIDAD INDUSTRIAL DE SANTANDER

[Detailed Information]
Creation date;28/02/2025 4:35 p.m.

Data array type;Linear data array
Horizontal axis;Wavenumber [cm-1]
Vertical axis;Abs
Start;399,193 cm-1
End;4000,6 cm-1
Data interval;0,964233 cm-1
Data points;3736    

[Measurement Information]
Model name;FT/IR-4X1typeA
Serial No.;A035162111

Accessory;ATR PRO 4X
Accessory S/N;A021162126
Incident angle;45 deg

Measurement date;28/02/2025 4:33 p.m.

Light source;Standard
Detector;TGS
Accumulation;40
Resolution;4 cm-1
Zero filling;On
Apodization;Cosine
Gain;Auto (8)
Aperture;Auto (7 mm)
Scan speed;Auto (2 mm/sec)
Filter;Auto (12800 Hz)

