TITLE;
DATA TYPE;INFRARED SPECTRUM
ORIGIN;JASCO
OWNER;
DATE;25/02/28
TIME;16:13:56
SPECTROMETER/DATA SYSTEM;
LOCALE;9226
RESOLUTION;
DELTAX;0,964233
XUNITS;1/CM
YUNITS;ABSORBANCE
FIRSTX;  399,1927
LASTX; 4000,6047
NPOINTS;    3736
FIRSTY;     0,16663
MAXY;     0,21486
MINY;    -0,00452
XYDATA
399,1927;0,166628
400,1569;0,163849
401,1211;0,161072
402,0854;0,158607
403,0496;0,156622
404,0138;0,155196
404,9781;0,154335
405,9423;0,153961
406,9065;0,153914
407,8708;0,153989
408,8350;0,153985
409,7992;0,153755
410,7635;0,153273
411,7277;0,152701
412,6919;0,15237
413,6562;0,152665
414,6204;0,15389
415,5846;0,156189
416,5489;0,159437
417,5131;0,163022
418,4773;0,165769
419,4416;0,166659
420,4058;0,165862
421,3700;0,164427
422,3343;0,163154
423,2985;0,162219
424,2627;0,16144
425,2270;0,160601
426,1912;0,159645
427,1554;0,158714
428,1197;0,158029
429,0839;0,157737
430,0481;0,157834
431,0124;0,15818
431,9766;0,158595
432,9408;0,158947
433,9051;0,159191
434,8693;0,159326
435,8335;0,159344
436,7978;0,159199
437,7620;0,158864
438,7262;0,158383
439,6905;0,157897
440,6547;0,157584
441,6189;0,157551
442,5832;0,157727
443,5474;0,157849
444,5116;0,157614
445,4759;0,156896
446,4401;0,155842
447,4043;0,15478
448,3686;0,154031
449,3328;0,153742
450,2970;0,15383
451,2613;0,154045
452,2255;0,154128
453,1897;0,153948
454,1540;0,153549
455,1182;0,153087
456,0824;0,152719
457,0467;0,1525
458,0109;0,152325
458,9751;0,15199
459,9394;0,151334
460,9036;0,150333
461,8678;0,149106
462,8321;0,147861
463,7963;0,146856
464,7605;0,146331
465,7248;0,146426
466,6890;0,147093
467,6532;0,148097
468,6175;0,149098
469,5817;0,149762
470,5459;0,149862
471,5102;0,149367
472,4744;0,148479
473,4386;0,14754
474,4029;0,146836
475,3671;0,146456
476,3313;0,146318
477,2956;0,146294
478,2598;0,146309
479,2240;0,146378
480,1883;0,14658
481,1525;0,146973
482,1167;0,147543
483,0810;0,148179
484,0452;0,148727
485,0094;0,149069
485,9737;0,149189
486,9379;0,149163
487,9021;0,149097
488,8664;0,149071
489,8306;0,149113
490,7948;0,149208
491,7591;0,149318
492,7233;0,149415
493,6875;0,149495
494,6518;0,14959
495,6160;0,149746
496,5802;0,150007
497,5445;0,15039
498,5087;0,150864
499,4729;0,151351
500,4372;0,151738
501,4014;0,151935
502,3656;0,151929
503,3299;0,151817
504,2941;0,151764
505,2583;0,151917
506,2226;0,152333
507,1868;0,152948
508,1510;0,153609
509,1153;0,154156
510,0795;0,154505
511,0437;0,154695
512,0080;0,154857
512,9722;0,155144
513,9365;0,155658
514,9007;0,15641
515,8649;0,157308
516,8292;0,15819
517,7934;0,158882
518,7576;0,159287
519,7219;0,159422
520,6861;0,159403
521,6503;0,159362
522,6146;0,159389
523,5788;0,159511
524,5430;0,15969
525,5073;0,159857
526,4715;0,159949
527,4357;0,159942
528,4000;0,159844
529,3642;0,15967
530,3284;0,159425
531,2927;0,1591
532,2569;0,158698
533,2211;0,158254
534,1854;0,157834
535,1496;0,157509
536,1138;0,157327
537,0781;0,157289
538,0423;0,157365
539,0065;0,15751
539,9708;0,157692
540,9350;0,157899
541,8992;0,15813
542,8635;0,158381
543,8277;0,158632
544,7919;0,158847
545,7562;0,158993
546,7204;0,159053
547,6846;0,15905
548,6489;0,159033
549,6131;0,159064
550,5773;0,159194
551,5416;0,159448
552,5058;0,159825
553,4700;0,160306
554,4343;0,160856
555,3985;0,161429
556,3627;0,161956
557,3270;0,162348
558,2912;0,162506
559,2554;0,162348
560,2197;0,161844
561,1839;0,161038
562,1481;0,160049
563,1124;0,159044
564,0766;0,158179
565,0408;0,157546
566,0051;0,157141
566,9693;0,156883
567,9335;0,156659
568,8978;0,156395
569,8620;0,156096
570,8262;0,155838
571,7905;0,155712
572,7547;0,155766
573,7189;0,15597
574,6832;0,156233
575,6474;0,156445
576,6116;0,156528
577,5759;0,156474
578,5401;0,156327
579,5043;0,156146
580,4686;0,155961
581,4328;0,155768
582,3970;0,155543
583,3613;0,155278
584,3255;0,155005
585,2897;0,154793
586,2540;0,154722
587,2182;0,154836
588,1824;0,155118
589,1467;0,155483
590,1109;0,155804
591,0751;0,155957
592,0394;0,155879
593,0036;0,155594
593,9678;0,1552
594,9321;0,154809
595,8963;0,15449
596,8605;0,15424
597,8248;0,154
598,7890;0,153699
599,7532;0,153304
600,7175;0,152834
601,6817;0,152352
602,6459;0,15192
603,6102;0,151565
604,5744;0,151277
605,5386;0,15102
606,5029;0,150744
607,4671;0,150402
608,4313;0,149949
609,3956;0,149366
610,3598;0,148696
611,3240;0,14806
612,2883;0,147636
613,2525;0,147571
614,2167;0,147882
615,1810;0,148384
616,1452;0,148724
617,1094;0,148526
618,0737;0,147591
619,0379;0,146017
620,0021;0,144129
620,9664;0,142297
621,9306;0,140767
622,8948;0,139609
623,8591;0,138747
624,8233;0,137975
625,7875;0,137342
626,7518;0,136802
627,7160;0,136353
628,6802;0,135985
629,6445;0,135678
630,6087;0,135387
631,5729;0,13507
632,5372;0,134702
633,5014;0,134284
634,4656;0,133855
635,4299;0,133476
636,3941;0,133198
637,3583;0,133036
638,3226;0,132952
639,2868;0,132874
640,2510;0,132738
641,2153;0,132528
642,1795;0,132291
643,1437;0,132109
644,1080;0,132044
645,0722;0,132096
646,0364;0,132194
647,0007;0,132235
647,9649;0,132139
648,9291;0,131885
649,8934;0,13152
650,8576;0,131133
651,8218;0,130813
652,7861;0,130627
653,7503;0,130606
654,7145;0,130737
655,6788;0,130957
656,6430;0,131178
657,6072;0,131331
658,5715;0,131402
659,5357;0,131412
660,4999;0,131348
661,4642;0,131088
662,4284;0,130395
663,3926;0,129015
664,3569;0,126886
665,3211;0,124433
666,2853;0,122707
667,2496;0,122838
668,2138;0,124597
669,1780;0,126278
670,1423;0,126993
671,1065;0,126993
672,0707;0,126432
673,0350;0,125308
673,9992;0,123794
674,9634;0,122205
675,9277;0,12078
676,8919;0,11955
677,8561;0,118396
678,8204;0,117212
679,7846;0,115996
680,7488;0,114822
681,7131;0,11377
682,6773;0,112854
683,6415;0,112033
684,6058;0,111254
685,5700;0,110485
686,5342;0,109729
687,4985;0,109004
688,4627;0,108346
689,4269;0,10776
690,3912;0,107247
691,3554;0,106798
692,3196;0,106391
693,2839;0,10599
694,2481;0,105558
695,2123;0,105079
696,1766;0,10456
697,1408;0,104024
698,1050;0,103493
699,0693;0,102973
700,0335;0,102456
700,9977;0,101931
701,9620;0,1014
702,9262;0,100876
703,8904;0,100351
704,8547;0,0998415
705,8189;0,0993465
706,7831;0,0988503
707,7474;0,0983342
708,7116;0,097789
709,6758;0,0972196
710,6401;0,0966361
711,6043;0,0960448
712,5685;0,0954484
713,5328;0,0948608
714,4970;0,0943197
715,4612;0,0922648
716,4255;0,0922949
717,3897;0,0925428
718,3539;0,0927797
719,3182;0,0926829
720,2824;0,0920022
721,2466;0,0907198
722,2109;0,089076
723,1751;0,0874296
724,1393;0,0860666
725,1036;0,0850872
726,0678;0,0844137
727,0320;0,0838822
727,9963;0,0833502
728,9605;0,0827578
729,9247;0,0821211
730,8890;0,0814832
731,8532;0,0808711
732,8174;0,0802877
733,7817;0,0797291
734,7459;0,0792034
735,7101;0,0787307
736,6744;0,0783279
737,6386;0,0779917
738,6028;0,0776946
739,5671;0,0773952
740,5313;0,0770547
741,4955;0,0766512
742,4598;0,0761845
743,4240;0,0756726
744,3882;0,0751424
745,3525;0,0746182
746,3167;0,0741141
747,2809;0,0736317
748,2452;0,0731641
749,2094;0,0727029
750,1736;0,0722444
751,1379;0,0717906
752,1021;0,0713461
753,0663;0,0709125
754,0306;0,0704859
754,9948;0,0700586
755,9590;0,0696232
756,9233;0,0691784
757,8875;0,0687317
758,8517;0,0682974
759,8160;0,0678911
760,7802;0,0675229
761,7444;0,067192
762,7087;0,0668873
763,6729;0,0665921
764,6371;0,0662926
765,6014;0,0659829
766,5656;0,0656672
767,5298;0,0653552
768,4941;0,0650565
769,4583;0,0647749
770,4225;0,0645062
771,3868;0,06424
772,3510;0,0639646
773,3152;0,0636739
774,2795;0,0633707
775,2437;0,0630666
776,2079;0,0627757
777,1722;0,0625063
778,1364;0,0622547
779,1006;0,0620069
780,0649;0,0617457
781,0291;0,0614618
781,9933;0,0611587
782,9576;0,0608508
783,9218;0,0605543
784,8860;0,0602783
785,8503;0,0600211
786,8145;0,0597746
787,7787;0,0595312
788,7430;0,0592899
789,7072;0,0590565
790,6714;0,0588399
791,6357;0,0586468
792,5999;0,0584782
793,5641;0,0583289
794,5284;0,0581889
795,4926;0,0580458
796,4568;0,0578884
797,4211;0,0577106
798,3853;0,0575153
799,3495;0,0573157
800,3138;0,0571312
801,2780;0,0569789
802,2422;0,0568636
803,2065;0,0567727
804,1707;0,0566795
805,1349;0,0565549
806,0992;0,0563807
807,0634;0,0561584
808,0276;0,0559065
808,9919;0,0556505
809,9561;0,0554109
810,9203;0,0551968
811,8846;0,0550082
812,8488;0,0548434
813,8130;0,0547032
814,7773;0,0545909
815,7415;0,0545061
816,7057;0,0544401
817,6700;0,0543768
818,6342;0,0542995
819,5984;0,0541999
820,5627;0,0540817
821,5269;0,053958
822,4911;0,0538434
823,4554;0,0537467
824,4196;0,0536678
825,3839;0,0535999
826,3481;0,0535351
827,3123;0,0534683
828,2766;0,0533983
829,2408;0,0533259
830,2050;0,0532512
831,1693;0,0531715
832,1335;0,0530825
833,0977;0,0529802
834,0620;0,0528628
835,0262;0,0527306
835,9904;0,0525843
836,9547;0,0524223
837,9189;0,0522403
838,8831;0,0520332
839,8474;0,0517992
840,8116;0,0515439
841,7758;0,0512807
842,7401;0,0510282
843,7043;0,0508051
844,6685;0,0506248
845,6328;0,0504927
846,5970;0,0504046
847,5612;0,0503478
848,5255;0,0503043
849,4897;0,0502552
850,4539;0,0501861
851,4182;0,0500933
852,3824;0,0499851
853,3466;0,0498792
854,3109;0,0497938
855,2751;0,0497389
856,2393;0,0497109
857,2036;0,0496946
858,1678;0,0496718
859,1320;0,0496314
860,0963;0,0495749
861,0605;0,0495161
862,0247;0,0494739
862,9890;0,0494649
863,9532;0,0494977
864,9174;0,0495722
865,8817;0,0496807
866,8459;0,0498114
867,8101;0,0499513
868,7744;0,0500881
869,7386;0,0502132
870,7028;0,0503228
871,6671;0,0504177
872,6313;0,0505002
873,5955;0,0505721
874,5598;0,050632
875,5240;0,0506782
876,4882;0,050712
877,4525;0,0507404
878,4167;0,0507759
879,3809;0,0508323
880,3452;0,0509218
881,3094;0,0510537
882,2736;0,0512368
883,2379;0,0514823
884,2021;0,051803
885,1663;0,052209
886,1306;0,0527022
887,0948;0,053275
888,0590;0,0539131
889,0233;0,0546024
889,9875;0,0553322
890,9517;0,0560945
891,9160;0,0568767
892,8802;0,0576553
893,8444;0,0583933
894,8087;0,0590446
895,7729;0,0595621
896,7371;0,0599072
897,7014;0,0600565
898,6656;0,0600055
899,6298;0,0597675
900,5941;0,059372
901,5583;0,058858
902,5225;0,0582682
903,4868;0,0576422
904,4510;0,0570128
905,4152;0,0564062
906,3795;0,0558434
907,3437;0,0553421
908,3079;0,054916
909,2722;0,0545728
910,2364;0,0543127
911,2007;0,05413
912,1649;0,0540162
913,1292;0,0539634
914,0934;0,0539649
915,0576;0,0540134
916,0219;0,0541004
916,9861;0,0542167
917,9503;0,054355
918,9146;0,0545116
919,8788;0,0546843
920,8430;0,0548674
921,8073;0,0550494
922,7715;0,055215
923,7357;0,0553539
924,7000;0,0554681
925,6642;0,0555733
926,6284;0,0556896
927,5927;0,0558279
928,5569;0,0559807
929,5211;0,0561233
930,4854;0,0562277
931,4496;0,0562777
932,4138;0,0562788
933,3781;0,0562555
934,3423;0,056241
935,3065;0,0562643
936,2708;0,0563433
937,2350;0,0564829
938,1992;0,0566788
939,1635;0,0569226
940,1277;0,0572069
941,0919;0,0575293
942,0562;0,0578935
943,0204;0,0583072
943,9846;0,0587758
944,9489;0,0592967
945,9131;0,0598578
946,8773;0,0604441
947,8416;0,0610492
948,8058;0,0616838
949,7700;0,062375
950,7343;0,063156
951,6985;0,0640507
952,6627;0,0650634
953,6270;0,0661797
954,5912;0,0673759
955,5554;0,0686312
956,5197;0,0699336
957,4839;0,0712779
958,4481;0,0726595
959,4124;0,0740701
960,3766;0,0754989
961,3408;0,076938
962,3051;0,0783874
963,2693;0,0798541
964,2335;0,0813467
965,1978;0,0828696
966,1620;0,0844219
967,1262;0,0860018
968,0905;0,0876146
969,0547;0,089277
970,0189;0,0910161
970,9832;0,0928632
971,9474;0,0948477
972,9116;0,0969959
973,8759;0,0993329
974,8401;0,101885
975,8043;0,104679
976,7686;0,107729
977,7328;0,111034
978,6970;0,114559
979,6613;0,118241
980,6255;0,121991
981,5897;0,125708
982,5540;0,129288
983,5182;0,132641
984,4824;0,1357
985,4467;0,138427
986,4109;0,140816
987,3751;0,142888
988,3394;0,144677
989,3036;0,146221
990,2678;0,147555
991,2321;0,148709
992,1963;0,149714
993,1605;0,150606
994,1248;0,15142
995,0890;0,152192
996,0532;0,152944
997,0175;0,15369
997,9817;0,154431
998,9459;0,155165
999,9102;0,155891
1000,8744;0,156615
1001,8386;0,157353
1002,8029;0,158132
1003,7671;0,158989
1004,7313;0,159969
1005,6956;0,161121
1006,6598;0,16249
1007,6240;0,164114
1008,5883;0,166015
1009,5525;0,16819
1010,5167;0,170615
1011,4810;0,173243
1012,4452;0,176007
1013,4094;0,178833
1014,3737;0,181644
1015,3379;0,184375
1016,3021;0,18698
1017,2664;0,189433
1018,2306;0,191733
1019,1948;0,193891
1020,1591;0,195929
1021,1233;0,197866
1022,0875;0,199725
1023,0518;0,20153
1024,0160;0,203304
1024,9802;0,205072
1025,9445;0,206841
1026,9087;0,208596
1027,8729;0,210295
1028,8372;0,211863
1029,8014;0,213207
1030,7656;0,214222
1031,7299;0,214803
1032,6941;0,214865
1033,6583;0,214355
1034,6226;0,213277
1035,5868;0,211706
1036,5510;0,20978
1037,5153;0,207688
1038,4795;0,205632
1039,4437;0,203788
1040,4080;0,202274
1041,3722;0,201141
1042,3364;0,20037
1043,3007;0,199894
1044,2649;0,199615
1045,2291;0,199432
1046,1934;0,19925
1047,1576;0,198995
1048,1218;0,198609
1049,0861;0,198051
1050,0503;0,197283
1051,0145;0,196277
1051,9788;0,195012
1052,9430;0,193487
1053,9072;0,191716
1054,8715;0,189731
1055,8357;0,187555
1056,7999;0,185191
1057,7642;0,182609
1058,7284;0,179756
1059,6926;0,176592
1060,6569;0,173116
1061,6211;0,169389
1062,5853;0,165526
1063,5496;0,161667
1064,5138;0,157944
1065,4780;0,154451
1066,4423;0,151235
1067,4065;0,148307
1068,3707;0,145649
1069,3350;0,14323
1070,2992;0,141009
1071,2634;0,138937
1072,2277;0,136959
1073,1919;0,135018
1074,1561;0,133065
1075,1204;0,131068
1076,0846;0,129015
1077,0488;0,126921
1078,0131;0,124825
1078,9773;0,122782
1079,9415;0,12085
1080,9058;0,119077
1081,8700;0,117492
1082,8342;0,116096
1083,7985;0,114875
1084,7627;0,113804
1085,7269;0,112862
1086,6912;0,112032
1087,6554;0,111306
1088,6196;0,110682
1089,5839;0,11016
1090,5481;0,109741
1091,5123;0,109431
1092,4766;0,109237
1093,4408;0,109164
1094,4050;0,109213
1095,3693;0,109376
1096,3335;0,109639
1097,2977;0,109982
1098,2620;0,110386
1099,2262;0,110833
1100,1904;0,111305
1101,1547;0,111781
1102,1189;0,112232
1103,0831;0,112622
1104,0474;0,112913
1105,0116;0,113074
1105,9758;0,113091
1106,9401;0,112968
1107,9043;0,11272
1108,8685;0,112355
1109,8328;0,111858
1110,7970;0,111195
1111,7612;0,110326
1112,7255;0,109231
1113,6897;0,107935
1114,6539;0,106507
1115,6182;0,105047
1116,5824;0,10365
1117,5466;0,102379
1118,5109;0,101252
1119,4751;0,100242
1120,4393;0,0992895
1121,4036;0,0983215
1122,3678;0,0972647
1123,3320;0,0960579
1124,2963;0,0946604
1125,2605;0,0930568
1126,2247;0,0912586
1127,1890;0,089299
1128,1532;0,087225
1129,1174;0,0850874
1130,0817;0,0829331
1131,0459;0,0808018
1132,0101;0,0787261
1132,9744;0,0767347
1133,9386;0,0748568
1134,9028;0,0731243
1135,8671;0,0715704
1136,8313;0,0702254
1137,7955;0,0691096
1138,7598;0,0682298
1139,7240;0,0675786
1140,6882;0,0671387
1141,6525;0,0668881
1142,6167;0,066803
1143,5809;0,0668596
1144,5452;0,0670338
1145,5094;0,0673038
1146,4736;0,0676532
1147,4379;0,0680744
1148,4021;0,0685678
1149,3663;0,0691367
1150,3306;0,0697797
1151,2948;0,0704848
1152,2590;0,0712288
1153,2233;0,0719806
1154,1875;0,0727058
1155,1517;0,073368
1156,1160;0,0739269
1157,0802;0,0743335
1158,0444;0,0745279
1159,0087;0,0744408
1159,9729;0,0740007
1160,9371;0,0731467
1161,9014;0,0718432
1162,8656;0,070092
1163,8298;0,0679387
1164,7941;0,0654676
1165,7583;0,0627887
1166,7225;0,0600196
1167,6868;0,0572681
1168,6510;0,0546216
1169,6152;0,0521428
1170,5795;0,049871
1171,5437;0,0478254
1172,5079;0,0460085
1173,4722;0,0444095
1174,4364;0,0430077
1175,4006;0,0417789
1176,3649;0,0407005
1177,3291;0,0397561
1178,2933;0,0389368
1179,2576;0,0382387
1180,2218;0,0376593
1181,1860;0,0371937
1182,1503;0,0368333
1183,1145;0,0365658
1184,0787;0,0363769
1185,0430;0,036252
1186,0072;0,036179
1186,9714;0,0361508
1187,9357;0,0361674
1188,8999;0,0362373
1189,8641;0,036375
1190,8284;0,0365964
1191,7926;0,0369132
1192,7568;0,0373286
1193,7211;0,037836
1194,6853;0,0384208
1195,6495;0,0390636
1196,6138;0,0397439
1197,5780;0,0404421
1198,5422;0,041142
1199,5065;0,0415986
1200,4707;0,0423016
1201,4349;0,0429909
1202,3992;0,0436681
1203,3634;0,0443345
1204,3276;0,0449892
1205,2919;0,0456291
1206,2561;0,0462521
1207,2203;0,0468613
1208,1846;0,0474677
1209,1488;0,0480893
1210,1130;0,0487469
1211,0773;0,0494577
1212,0415;0,050231
1213,0057;0,0510658
1213,9700;0,0519525
1214,9342;0,0528769
1215,8984;0,0538245
1216,8627;0,0547815
1217,8269;0,0557353
1218,7911;0,056677
1219,7554;0,0575986
1220,7196;0,0584912
1221,6838;0,059345
1222,6481;0,0601496
1223,6123;0,0608972
1224,5765;0,0615862
1225,5408;0,0622232
1226,5050;0,062822
1227,4692;0,0633978
1228,4335;0,0639598
1229,3977;0,0645063
1230,3619;0,0650245
1231,3262;0,0654965
1232,2904;0,065907
1233,2546;0,0662502
1234,2189;0,06653
1235,1831;0,0667579
1236,1473;0,0669463
1237,1116;0,067106
1238,0758;0,0672438
1239,0400;0,067363
1240,0043;0,0674631
1240,9685;0,0675384
1241,9327;0,0675786
1242,8970;0,06757
1243,8612;0,0674999
1244,8254;0,0673608
1245,7897;0,0671536
1246,7539;0,0668865
1247,7181;0,0665722
1248,6824;0,0662241
1249,6466;0,0658526
1250,6108;0,0654649
1251,5751;0,0650662
1252,5393;0,0646617
1253,5035;0,0642584
1254,4678;0,0638632
1255,4320;0,0634789
1256,3962;0,0631007
1257,3605;0,0627143
1258,3247;0,0622995
1259,2889;0,0618373
1260,2532;0,0613166
1261,2174;0,0607377
1262,1816;0,0601106
1263,1459;0,0594494
1264,1101;0,0587687
1265,0743;0,0580801
1266,0386;0,0573907
1267,0028;0,0567006
1267,9670;0,0560015
1268,9313;0,0552788
1269,8955;0,0545173
1270,8597;0,0537089
1271,8240;0,0528586
1272,7882;0,0519838
1273,7524;0,0511098
1274,7167;0,0502621
1275,6809;0,0494612
1276,6451;0,0487182
1277,6094;0,0480325
1278,5736;0,0473913
1279,5378;0,046774
1280,5021;0,0461611
1281,4663;0,0455448
1282,4305;0,0449345
1283,3948;0,0443524
1284,3590;0,0438218
1285,3232;0,0433556
1286,2875;0,0429503
1287,2517;0,0425907
1288,2159;0,0422617
1289,1802;0,0419584
1290,1444;0,04169
1291,1086;0,0414744
1292,0729;0,0413293
1293,0371;0,0412653
1294,0013;0,0412837
1294,9656;0,0413782
1295,9298;0,0415387
1296,8940;0,041755
1297,8583;0,0420205
1298,8225;0,0423339
1299,7867;0,0426991
1300,7510;0,0431229
1301,7152;0,0436136
1302,6794;0,0441726
1303,6437;0,0447916
1304,6079;0,0454567
1305,5721;0,046152
1306,5364;0,0468674
1307,5006;0,0476031
1308,4648;0,0483674
1309,4291;0,0491659
1310,3933;0,0499907
1311,3575;0,0508151
1312,3218;0,0515993
1313,2860;0,0523048
1314,2502;0,0529055
1315,2145;0,0533871
1316,1787;0,0537351
1317,1429;0,0539253
1318,1072;0,0539302
1319,0714;0,0537407
1320,0356;0,0533873
1320,9999;0,0529382
1321,9641;0,0524743
1322,9283;0,0520602
1323,8926;0,0517285
1324,8568;0,0514817
1325,8210;0,0513043
1326,7853;0,0511746
1327,7495;0,0510714
1328,7137;0,0509763
1329,6780;0,050873
1330,6422;0,0507512
1331,6064;0,050615
1332,5707;0,0504876
1333,5349;0,0504087
1334,4991;0,0504137
1335,4634;0,050506
1336,4276;0,0506276
1337,3918;0,0506482
1338,3561;0,0504018
1339,3203;0,0497867
1340,2845;0,0488595
1341,2488;0,0478129
1342,2130;0,0468514
1343,1772;0,0460932
1344,1415;0,0455615
1345,1057;0,0452225
1346,0699;0,0450256
1347,0342;0,0449277
1347,9984;0,0449072
1348,9626;0,044965
1349,9269;0,0451125
1350,8911;0,0453556
1351,8553;0,0456835
1352,8196;0,0460685
1353,7838;0,0464773
1354,7480;0,0468897
1355,7123;0,0473142
1356,6765;0,0477872
1357,6407;0,0483549
1358,6050;0,0490472
1359,5692;0,0498516
1360,5334;0,0506885
1361,4977;0,0514152
1362,4619;0,0519015
1363,4261;0,0521383
1364,3904;0,0522443
1365,3546;0,0523583
1366,3188;0,0525502
1367,2831;0,0528149
1368,2473;0,0531092
1369,2115;0,0533881
1370,1758;0,0536228
1371,1400;0,0537963
1372,1042;0,0538831
1373,0685;0,0538374
1374,0327;0,0536133
1374,9969;0,0532083
1375,9612;0,0526727
1376,9254;0,0520567
1377,8896;0,0513607
1378,8539;0,0505508
1379,8181;0,0496178
1380,7823;0,0486187
1381,7466;0,0476574
1382,7108;0,0468204
1383,6750;0,0461219
1384,6393;0,0454979
1385,6035;0,0448425
1386,5677;0,0440763
1387,5320;0,043227
1388,4962;0,0424334
1389,4604;0,0418314
1390,4247;0,0414596
1391,3889;0,041284
1392,3531;0,0412646
1393,3174;0,0413743
1394,2816;0,041564
1395,2458;0,0417381
1396,2101;0,0417877
1397,1743;0,041662
1398,1385;0,0414088
1399,1028;0,0411489
1400,0670;0,0410058
1401,0313;0,041043
1401,9955;0,0412453
1402,9597;0,0415444
1403,9240;0,0418622
1404,8882;0,0421529
1405,8524;0,0424273
1406,8167;0,0427373
1407,7809;0,0431254
1408,7451;0,0435929
1409,7094;0,0441152
1410,6736;0,0446769
1411,6378;0,0452885
1412,6021;0,0459715
1413,5663;0,0467268
1414,5305;0,0475197
1415,4948;0,0482914
1416,4590;0,0489662
1417,4232;0,0494473
1418,3875;0,0496673
1419,3517;0,0497069
1420,3159;0,0497661
1421,2802;0,0499458
1422,2444;0,0501577
1423,2086;0,0502415
1424,1729;0,0500998
1425,1371;0,0497423
1426,1013;0,0492412
1427,0656;0,0486599
1428,0298;0,0480178
1428,9940;0,0473131
1429,9583;0,0465694
1430,9225;0,0458414
1431,8867;0,0451584
1432,8510;0,0444748
1433,8152;0,0436891
1434,7794;0,0427091
1435,7437;0,0415334
1436,7079;0,0403359
1437,6721;0,0394236
1438,6364;0,0389901
1439,6006;0,0389636
1440,5648;0,0391371
1441,5291;0,0393541
1442,4933;0,0395718
1443,4575;0,0398227
1444,4218;0,040145
1445,3860;0,040536
1446,3502;0,0409542
1447,3145;0,0413592
1448,2787;0,0417559
1449,2429;0,0421941
1450,2072;0,0427083
1451,1714;0,0432605
1452,1356;0,0437529
1453,0999;0,0441018
1454,0641;0,0442981
1455,0283;0,0443757
1455,9926;0,0442518
1456,9568;0,0437129
1457,9210;0,0429205
1458,8853;0,0424415
1459,8495;0,0424525
1460,8137;0,0426609
1461,7780;0,0427379
1462,7422;0,0425096
1463,7064;0,0419449
1464,6707;0,0411285
1465,6349;0,0402494
1466,5991;0,0394887
1467,5634;0,0388654
1468,5276;0,0382543
1469,4918;0,0375221
1470,4561;0,0365987
1471,4203;0,0354374
1472,3845;0,0339753
1473,3488;0,0322589
1474,3130;0,0305645
1475,2772;0,0291788
1476,2415;0,0281634
1477,2057;0,0274225
1478,1699;0,0268453
1479,1342;0,0263581
1480,0984;0,0259217
1481,0626;0,0255263
1482,0269;0,0251961
1482,9911;0,024981
1483,9553;0,0249337
1484,9196;0,0250894
1485,8838;0,0254572
1486,8480;0,0259914
1487,8123;0,0265237
1488,7765;0,0267813
1489,7407;0,0266501
1490,7050;0,0263606
1491,6692;0,026216
1492,6334;0,0263142
1493,5977;0,0266095
1494,5619;0,0270634
1495,5261;0,0276871
1496,4904;0,0284813
1497,4546;0,0293877
1498,4188;0,0303452
1499,3831;0,0313231
1500,3473;0,0322408
1501,3115;0,0329492
1502,2758;0,0333346
1503,2400;0,0334439
1504,2042;0,0335651
1505,1685;0,0341549
1506,1327;0,0353406
1507,0969;0,0363334
1508,0612;0,0363716
1509,0254;0,0358349
1509,9896;0,035267
1510,9539;0,034778
1511,9181;0,03432
1512,8823;0,0338765
1513,8466;0,0334552
1514,8108;0,0330262
1515,7750;0,0325046
1516,7393;0,0318052
1517,7035;0,0309105
1518,6677;0,0298854
1519,6320;0,0288457
1520,5962;0,0279253
1521,5604;0,0272472
1522,5247;0,0268738
1523,4889;0,0267564
1524,4531;0,0267564
1525,4174;0,0267384
1526,3816;0,026651
1527,3458;0,0265306
1528,3101;0,0264378
1529,2743;0,0264043
1530,2385;0,0264417
1531,2028;0,026572
1532,1670;0,0268136
1533,1312;0,0271352
1534,0955;0,0274503
1535,0597;0,0276564
1536,0239;0,0276729
1536,9882;0,0275031
1537,9524;0,0273164
1538,9166;0,0274278
1539,8809;0,0279832
1540,8451;0,0285928
1541,8093;0,0288284
1542,7736;0,0288043
1543,7378;0,0287176
1544,7020;0,0286071
1545,6663;0,0284995
1546,6305;0,0284515
1547,5947;0,0284902
1548,5590;0,0285779
1549,5232;0,0286381
1550,4874;0,0286149
1551,4517;0,0285114
1552,4159;0,0283699
1553,3801;0,0282079
1554,3444;0,0279861
1555,3086;0,0276506
1556,2728;0,0271834
1557,2371;0,0265396
1558,2013;0,025585
1559,1655;0,0246007
1560,1298;0,0244135
1561,0940;0,0252032
1562,0582;0,0264311
1563,0225;0,027586
1563,9867;0,0284354
1564,9509;0,0289579
1565,9152;0,0292415
1566,8794;0,0294117
1567,8436;0,0295814
1568,8079;0,0298263
1569,7721;0,0301831
1570,7363;0,0306392
1571,7006;0,0311206
1572,6648;0,0315388
1573,6290;0,0318719
1574,5933;0,0321851
1575,5575;0,0325581
1576,5217;0,0330153
1577,4860;0,0335653
1578,4502;0,0342124
1579,4144;0,0348947
1580,3787;0,0355201
1581,3429;0,0360494
1582,3071;0,0365151
1583,2714;0,0369851
1584,2356;0,0375156
1585,1998;0,0381278
1586,1641;0,0388081
1587,1283;0,0395223
1588,0925;0,0402283
1589,0568;0,0408846
1590,0210;0,0414565
1590,9852;0,041917
1591,9495;0,0422428
1592,9137;0,0424098
1593,8779;0,0423996
1594,8422;0,0422165
1595,8064;0,0419012
1596,7706;0,0415212
1597,7349;0,0411437
1598,6991;0,0408087
1599,6633;0,0405216
1600,6276;0,0402643
1601,5918;0,0400178
1602,5560;0,0397826
1603,5203;0,0395791
1604,4845;0,039426
1605,4487;0,0393147
1606,4130;0,0392061
1607,3772;0,0390563
1608,3414;0,0388544
1609,3057;0,0386428
1610,2699;0,0384837
1611,2341;0,0383923
1612,1984;0,0383141
1613,1626;0,0381744
1614,1268;0,0379449
1615,0911;0,0376728
1616,0553;0,0374729
1617,0195;0,0374972
1617,9838;0,0378363
1618,9480;0,0384076
1619,9122;0,0390119
1620,8765;0,0394826
1621,8407;0,0397589
1622,8049;0,0398709
1623,7692;0,0398985
1624,7334;0,0399285
1625,6976;0,0400101
1626,6619;0,0401455
1627,6261;0,0403223
1628,5903;0,0405346
1629,5546;0,0407632
1630,5188;0,040951
1631,4830;0,0410266
1632,4473;0,0409676
1633,4115;0,0408393
1634,3757;0,0407375
1635,3400;0,0406715
1636,3042;0,0406208
1637,2684;0,0406927
1638,2327;0,0409695
1639,1969;0,0413623
1640,1611;0,0417209
1641,1254;0,0419457
1642,0896;0,042008
1643,0538;0,0419421
1644,0181;0,0418256
1644,9823;0,0417208
1645,9465;0,0415998
1646,9108;0,0413999
1647,8750;0,0411348
1648,8392;0,0408001
1649,8035;0,0402974
1650,7677;0,0395473
1651,7319;0,038553
1652,6962;0,0373499
1653,6604;0,0362012
1654,6246;0,0357082
1655,5889;0,0360077
1656,5531;0,0366157
1657,5173;0,0370526
1658,4816;0,0371077
1659,4458;0,0367813
1660,4100;0,0361725
1661,3743;0,0354098
1662,3385;0,0346441
1663,3027;0,034032
1664,2670;0,0336431
1665,2312;0,0334102
1666,1954;0,0331977
1667,1597;0,0328844
1668,1239;0,03239
1669,0881;0,031695
1670,0524;0,0308872
1671,0166;0,0301231
1671,9808;0,0294672
1672,9451;0,0288489
1673,9093;0,0281962
1674,8735;0,0275667
1675,8378;0,027146
1676,8020;0,0270917
1677,7662;0,0273657
1678,7305;0,0277413
1679,6947;0,0279533
1680,6589;0,0278168
1681,6232;0,0272456
1682,5874;0,026222
1683,5516;0,0248762
1684,5159;0,0236584
1685,4801;0,0230523
1686,4443;0,0230496
1687,4086;0,0232719
1688,3728;0,0233751
1689,3370;0,0232145
1690,3013;0,0228172
1691,2655;0,0222988
1692,2297;0,0217942
1693,1940;0,0214186
1694,1582;0,0212404
1695,1224;0,0212405
1696,0867;0,0212773
1697,0509;0,0211321
1698,0151;0,0206693
1698,9794;0,0200082
1699,9436;0,0194984
1700,9078;0,0194481
1701,8721;0,0198812
1702,8363;0,0205718
1703,8005;0,0212436
1704,7648;0,021723
1705,7290;0,0219902
1706,6932;0,0221542
1707,6575;0,0223692
1708,6217;0,0227329
1709,5859;0,0232454
1710,5502;0,0238495
1711,5144;0,0244875
1712,4786;0,0251283
1713,4429;0,0257551
1714,4071;0,0263233
1715,3713;0,0266992
1716,3356;0,0266909
1717,2998;0,0263165
1718,2640;0,0259692
1719,2283;0,0260244
1720,1925;0,0264869
1721,1567;0,027128
1722,1210;0,0277249
1723,0852;0,0281645
1724,0494;0,0284521
1725,0137;0,0286821
1725,9779;0,0289782
1726,9421;0,0294193
1727,9064;0,0299901
1728,8706;0,0305851
1729,8348;0,0310532
1730,7991;0,0312442
1731,7633;0,0310394
1732,7275;0,0304101
1733,6918;0,0295407
1734,6560;0,0288117
1735,6202;0,0284695
1736,5845;0,0284246
1737,5487;0,0284325
1738,5129;0,0283255
1739,4772;0,0280872
1740,4414;0,0278072
1741,4056;0,0275825
1742,3699;0,0274355
1743,3341;0,0273076
1744,2983;0,0271172
1745,2626;0,0268147
1746,2268;0,0263811
1747,1910;0,0257791
1748,1553;0,0249139
1749,1195;0,0236931
1750,0837;0,0221888
1751,0480;0,0206812
1752,0122;0,0194503
1752,9764;0,0185792
1753,9407;0,0179749
1754,9049;0,017495
1755,8691;0,0170349
1756,8334;0,01655
1757,7976;0,0160336
1758,7618;0,0154814
1759,7261;0,0148764
1760,6903;0,0142117
1761,6545;0,0135282
1762,6188;0,0129183
1763,5830;0,0124704
1764,5472;0,012206
1765,5115;0,0120737
1766,4757;0,011991
1767,4399;0,011887
1768,4042;0,0117194
1769,3684;0,0114698
1770,3326;0,0111333
1771,2969;0,0107255
1772,2611;0,0103119
1773,2253;0,0100091
1774,1896;0,00990274
1775,1538;0,00997121
1776,1180;0,0101132
1777,0823;0,0102276
1778,0465;0,0102619
1779,0107;0,0102127
1779,9750;0,010103
1780,9392;0,00995898
1781,9034;0,00979772
1782,8677;0,00963026
1783,8319;0,00947654
1784,7961;0,0093733
1785,7604;0,00935836
1786,7246;0,00944172
1787,6888;0,00959507
1788,6531;0,00977123
1789,6173;0,00992846
1790,5815;0,0100318
1791,5458;0,0100493
1792,5100;0,00998714
1793,4742;0,00991843
1794,4385;0,0099126
1795,4027;0,00995962
1796,3669;0,0100002
1797,3312;0,00999581
1798,2954;0,00995318
1799,2596;0,00989611
1800,2239;0,00982838
1801,1881;0,00973044
1802,1523;0,00959033
1803,1166;0,00942731
1804,0808;0,00928559
1805,0450;0,00921165
1806,0093;0,00923198
1806,9735;0,00933858
1807,9377;0,00948583
1808,9020;0,00960356
1809,8662;0,0096291
1810,8304;0,00954526
1811,7947;0,00939152
1812,7589;0,00923205
1813,7231;0,00911178
1814,6874;0,00904
1815,6516;0,00900176
1816,6158;0,0089765
1817,5801;0,00895334
1818,5443;0,00893923
1819,5085;0,00895425
1820,4728;0,00901599
1821,4370;0,0091263
1822,4012;0,00926756
1823,3655;0,00940744
1824,3297;0,00951348
1825,2939;0,00957095
1826,2582;0,00958538
1827,2224;0,00956439
1828,1866;0,00950055
1829,1509;0,00937931
1830,1151;0,00921281
1831,0793;0,00905829
1832,0436;0,00897919
1833,0078;0,00898927
1833,9720;0,00904804
1834,9363;0,00909986
1835,9005;0,0091104
1836,8647;0,00908295
1837,8290;0,00905163
1838,7932;0,00905385
1839,7574;0,00910504
1840,7217;0,00920107
1841,6859;0,00933364
1842,6501;0,00948661
1843,6144;0,00961987
1844,5786;0,00968622
1845,5428;0,00967252
1846,5071;0,00959371
1847,4713;0,0094546
1848,4355;0,00925106
1849,3998;0,00899975
1850,3640;0,00874887
1851,3282;0,00855735
1852,2925;0,00846157
1853,2567;0,00845892
1854,2209;0,0085182
1855,1852;0,00860373
1856,1494;0,00869139
1857,1136;0,00876897
1858,0779;0,00882567
1859,0421;0,00884789
1860,0063;0,00882852
1860,9706;0,00878228
1861,9348;0,00874986
1862,8990;0,00878412
1863,8633;0,00892807
1864,8275;0,00919814
1865,7917;0,00956923
1866,7560;0,00995434
1867,7202;0,0102064
1868,6844;0,0101957
1869,6487;0,00992172
1870,6129;0,00951291
1871,5771;0,00910985
1872,5414;0,00878638
1873,5056;0,00856029
1874,4698;0,00842903
1875,4341;0,00838476
1876,3983;0,00841396
1877,3625;0,00849546
1878,3268;0,00860528
1879,2910;0,00872091
1880,2552;0,00882405
1881,2195;0,00890172
1882,1837;0,00894907
1883,1479;0,00897244
1884,1122;0,00898806
1885,0764;0,00901391
1886,0406;0,0090586
1887,0049;0,00911395
1887,9691;0,00915735
1888,9333;0,00916843
1889,8976;0,0091514
1890,8618;0,0091384
1891,8260;0,00916326
1892,7903;0,00923023
1893,7545;0,00930607
1894,7188;0,00933913
1895,6830;0,00929305
1896,6472;0,00917404
1897,6115;0,00902936
1898,5757;0,00891541
1899,5399;0,00886279
1900,5042;0,00886483
1901,4684;0,00889284
1902,4326;0,00892376
1903,3969;0,00896018
1904,3611;0,00902827
1905,3253;0,00915492
1906,2896;0,00934146
1907,2538;0,00955161
1908,2180;0,00972248
1909,1823;0,00979637
1910,1465;0,00975582
1911,1107;0,00963366
1912,0750;0,00948813
1913,0392;0,009368
1914,0034;0,00929763
1914,9677;0,00928425
1915,9319;0,00933093
1916,8961;0,00944291
1917,8604;0,0096241
1918,8246;0,00986489
1919,7888;0,0101278
1920,7531;0,0103459
1921,7173;0,0104429
1922,6815;0,0103688
1923,6458;0,010134
1924,6100;0,00981477
1925,5742;0,00951817
1926,5385;0,00932809
1927,5027;0,00927346
1928,4669;0,00933078
1929,4312;0,00944553
1930,3954;0,00955796
1931,3596;0,0096254
1932,3239;0,00963257
1933,2881;0,00958986
1934,2523;0,00952405
1935,2166;0,00946768
1936,1808;0,0094499
1937,1450;0,00948966
1938,1093;0,00959177
1939,0735;0,00974543
1940,0377;0,00992274
1941,0020;0,0100792
1941,9662;0,010166
1942,9304;0,010158
1943,8947;0,0100767
1944,8589;0,00997829
1945,8231;0,00991648
1946,7874;0,00991065
1947,7516;0,00994211
1948,7158;0,00997355
1949,6801;0,00997845
1950,6443;0,00996271
1951,6085;0,00996276
1952,5728;0,0100197
1953,5370;0,0101473
1954,5012;0,0103166
1955,4655;0,0104662
1956,4297;0,0105321
1957,3939;0,010478
1958,3582;0,0103126
1959,3224;0,0100912
1960,2866;0,00990284
1961,2509;0,00984279
1962,2151;0,00997561
1963,1793;0,0103006
1964,1436;0,0107362
1965,1078;0,0111354
1966,0720;0,0113387
1967,0363;0,0112511
1968,0005;0,0109001
1968,9647;0,0104219
1969,9290;0,00998097
1970,8932;0,00968795
1971,8574;0,00957029
1972,8217;0,00959758
1973,7859;0,00972487
1974,7501;0,00991618
1975,7144;0,0101378
1976,6786;0,0103359
1977,6428;0,0104373
1978,6071;0,0103898
1979,5713;0,0102095
1980,5355;0,00998884
1981,4998;0,0098527
1982,4640;0,00989352
1983,4282;0,0101242
1984,3925;0,0104733
1985,3567;0,0108256
1986,3209;0,0110875
1987,2852;0,0112359
1988,2494;0,011319
1989,2136;0,0114112
1990,1779;0,0115526
1991,1421;0,0117176
1992,1063;0,0118343
1993,0706;0,0118431
1994,0348;0,0117441
1994,9990;0,0115971
1995,9633;0,01148
1996,9275;0,0114425
1997,8917;0,0114808
1998,8560;0,0115476
1999,8202;0,0115897
2000,7844;0,0115899
2001,7487;0,0115839
2002,7129;0,0116419
2003,6771;0,0118261
2004,6414;0,0121486
2005,6056;0,012549
2006,5698;0,0129094
2007,5341;0,0131029
2008,4983;0,0130545
2009,4625;0,012778
2010,4268;0,0123692
2011,3910;0,0119654
2012,3552;0,0116927
2013,3195;0,0116243
2014,2837;0,0117601
2015,2479;0,012031
2016,2122;0,0123295
2017,1764;0,012556
2018,1406;0,0126611
2019,1049;0,0126577
2020,0691;0,0125983
2021,0333;0,0125373
2021,9976;0,0125014
2022,9618;0,0124827
2023,9260;0,0124529
2024,8903;0,0123874
2025,8545;0,0122814
2026,8187;0,0121492
2027,7830;0,0120112
2028,7472;0,0118821
2029,7114;0,011773
2030,6757;0,0117035
2031,6399;0,0117078
2032,6041;0,0118212
2033,5684;0,0120509
2034,5326;0,012355
2035,4968;0,0126524
2036,4611;0,0128605
2037,4253;0,0129361
2038,3895;0,0128865
2039,3538;0,0127502
2040,3180;0,012564
2041,2822;0,0123418
2042,2465;0,0120778
2043,2107;0,0117672
2044,1749;0,0114249
2045,1392;0,0110877
2046,1034;0,0108013
2047,0676;0,0106028
2048,0320;0,0105092
2048,9961;0,0105156
2049,9604;0,0106014
2050,9246;0,0107362
2051,8889;0,0108852
2052,8530;0,0110156
2053,8174;0,0111055
2054,7815;0,0111509
2055,7458;0,0111657
2056,7100;0,0111694
2057,6743;0,0111711
2058,6384;0,0111635
2059,6028;0,0111316
2060,5669;0,0110696
2061,5313;0,0109915
2062,4954;0,0109253
2063,4597;0,0108967
2064,4238;0,0109126
2065,3882;0,0109584
2066,3523;0,0110085
2067,3167;0,0110397
2068,2808;0,0110389
2069,2451;0,0110007
2070,2092;0,0109246
2071,1736;0,010816
2072,1377;0,0106891
2073,1021;0,0105682
2074,0662;0,0104787
2075,0305;0,0104349
2075,9946;0,0104308
2076,9590;0,0104431
2077,9231;0,0104452
2078,8875;0,0104226
2079,8516;0,0103804
2080,8159;0,0103388
2081,7800;0,0103212
2082,7444;0,0103423
2083,7085;0,0104023
2084,6729;0,0104883
2085,6370;0,0105817
2086,6013;0,0106641
2087,5654;0,0107235
2088,5298;0,0107561
2089,4939;0,0107668
2090,4583;0,0107656
2091,4224;0,010762
2092,3867;0,0107593
2093,3508;0,0107521
2094,3152;0,0107301
2095,2793;0,0106868
2096,2437;0,0106285
2097,2078;0,0105739
2098,1721;0,010544
2099,1362;0,0105459
2100,1006;0,0105656
2101,0647;0,0105688
2102,0291;0,0105306
2102,9932;0,0104499
2103,9575;0,0103576
2104,9216;0,010301
2105,8860;0,0103136
2106,8501;0,0103916
2107,8145;0,0104926
2108,7786;0,0105614
2109,7429;0,0105641
2110,7070;0,0105089
2111,6714;0,0104382
2112,6355;0,010399
2113,5999;0,0104129
2114,5640;0,0104651
2115,5283;0,0105197
2116,4924;0,0105469
2117,4568;0,0105429
2118,4209;0,0105309
2119,3853;0,0105418
2120,3494;0,0105934
2121,3137;0,01068
2122,2778;0,010781
2123,2422;0,0108789
2124,2063;0,0109728
2125,1707;0,0110755
2126,1348;0,0111987
2127,0991;0,0113371
2128,0632;0,0114683
2129,0276;0,0115683
2129,9917;0,0116332
2130,9561;0,0116883
2131,9202;0,0117758
2132,8845;0,0119267
2133,8486;0,0121334
2134,8130;0,0123466
2135,7771;0,0124996
2136,7415;0,0125456
2137,7056;0,0124822
2138,6699;0,0123494
2139,6340;0,0122103
2140,5984;0,0121317
2141,5625;0,012171
2142,5269;0,0123642
2143,4910;0,0127095
2144,4553;0,0131531
2145,4194;0,013594
2146,3838;0,013921
2147,3479;0,014069
2148,3123;0,0140608
2149,2764;0,0140011
2150,2407;0,0140199
2151,2048;0,0142023
2152,1692;0,0145456
2153,1333;0,0149716
2154,0977;0,0153766
2155,0618;0,0156832
2156,0261;0,015862
2156,9902;0,0159196
2157,9546;0,0158745
2158,9187;0,0157434
2159,8831;0,0155459
2160,8472;0,0153095
2161,8115;0,015061
2162,7756;0,014814
2163,7400;0,0145688
2164,7041;0,0143258
2165,6685;0,0141001
2166,6326;0,013922
2167,5969;0,0138205
2168,5610;0,0138024
2169,5254;0,0138453
2170,4895;0,0139109
2171,4539;0,0139685
2172,4180;0,0140102
2173,3823;0,0140462
2174,3464;0,0140796
2175,3108;0,0140843
2176,2749;0,0140063
2177,2393;0,0137973
2178,2034;0,0134586
2179,1677;0,0130646
2180,1318;0,0127421
2181,0962;0,01261
2182,0603;0,0127096
2183,0247;0,0129718
2183,9888;0,0132481
2184,9531;0,0133878
2185,9172;0,0133098
2186,8816;0,0130311
2187,8457;0,0126424
2188,8101;0,0122591
2189,7742;0,0119741
2190,7385;0,0118331
2191,7026;0,0118318
2192,6670;0,0119259
2193,6311;0,012046
2194,5955;0,0121163
2195,5596;0,012079
2196,5239;0,0119171
2197,4880;0,0116638
2198,4524;0,0113886
2199,4165;0,0111642
2200,3809;0,0110337
2201,3450;0,0109968
2202,3093;0,0110242
2203,2734;0,0110854
2204,2378;0,0111702
2205,2019;0,0112869
2206,1663;0,0114435
2207,1304;0,0116261
2208,0947;0,0117955
2209,0588;0,0119016
2210,0232;0,0119081
2210,9873;0,0118098
2211,9517;0,0116346
2212,9158;0,0114309
2213,8801;0,0112494
2214,8442;0,0111277
2215,8086;0,011081
2216,7727;0,0111002
2217,7371;0,0111552
2218,7012;0,0112058
2219,6655;0,0112173
2220,6296;0,0111757
2221,5940;0,0110947
2222,5581;0,011009
2223,5225;0,0109557
2224,4866;0,0109535
2225,4509;0,010992
2226,4150;0,0110368
2227,3794;0,0110466
2228,3435;0,0109971
2229,3079;0,0108915
2230,2720;0,010757
2231,2363;0,0106297
2232,2004;0,0105364
2233,1648;0,0104842
2234,1289;0,0104613
2235,0933;0,0104473
2236,0574;0,0104254
2237,0217;0,0103913
2237,9858;0,0103533
2238,9502;0,0103283
2239,9143;0,0103339
2240,8787;0,0103822
2241,8428;0,0104745
2242,8071;0,0105981
2243,7712;0,0107274
2244,7356;0,0108315
2245,6997;0,010886
2246,6641;0,0108864
2247,6282;0,0108543
2248,5925;0,01083
2249,5566;0,0108532
2250,5210;0,0109417
2251,4851;0,0110789
2252,4495;0,0112199
2253,4136;0,0113125
2254,3779;0,0113234
2255,3420;0,0112531
2256,3064;0,0111336
2257,2705;0,011009
2258,2349;0,0109132
2259,1990;0,0108568
2260,1633;0,0108287
2261,1274;0,0108094
2262,0918;0,0107853
2263,0559;0,0107568
2264,0203;0,0107354
2264,9844;0,0107333
2265,9487;0,0107538
2266,9128;0,0107873
2267,8772;0,0108166
2268,8413;0,0108262
2269,8057;0,0108103
2270,7698;0,0107749
2271,7341;0,0107322
2272,6982;0,0106935
2273,6626;0,0106622
2274,6267;0,0106344
2275,5911;0,0106033
2276,5552;0,0105664
2277,5195;0,0105295
2278,4836;0,0105051
2279,4480;0,0105062
2280,4121;0,0105395
2281,3765;0,0106039
2282,3406;0,0106937
2283,3049;0,0108064
2284,2690;0,0109469
2285,2334;0,0111277
2286,1975;0,0113629
2287,1619;0,0116615
2288,1260;0,0120233
2289,0903;0,0124395
2290,0544;0,0128953
2291,0188;0,0133744
2291,9829;0,0138611
2292,9473;0,0143426
2293,9114;0,0148101
2294,8757;0,0152587
2295,8398;0,0156831
2296,8042;0,0160738
2297,7683;0,0164138
2298,7327;0,0166835
2299,6968;0,016872
2300,6611;0,0169906
2301,6252;0,0170799
2302,5896;0,0172015
2303,5537;0,0174192
2304,5181;0,0177722
2305,4822;0,0182534
2306,4465;0,0187999
2307,4106;0,0193029
2308,3750;0,0196365
2309,3391;0,019699
2310,3035;0,0194517
2311,2676;0,018939
2312,2319;0,0182785
2313,1960;0,0176177
2314,1604;0,0170784
2315,1245;0,0167168
2316,0889;0,0165195
2317,0530;0,0164312
2318,0173;0,0163909
2318,9814;0,0163595
2319,9458;0,0163294
2320,9099;0,0163233
2321,8743;0,0163819
2322,8384;0,0165382
2323,8027;0,0167804
2324,7668;0,0170327
2325,7312;0,0171771
2326,6953;0,0171063
2327,6597;0,0167723
2328,6238;0,0162079
2329,5881;0,0155181
2330,5522;0,0148468
2331,5166;0,0143238
2332,4807;0,0140089
2333,4451;0,0138707
2334,4092;0,0138223
2335,3735;0,0137925
2336,3376;0,0137825
2337,3020;0,0138762
2338,2661;0,0141936
2339,2305;0,014806
2340,1946;0,0156489
2341,1589;0,0164799
2342,1230;0,0169453
2343,0874;0,0168366
2344,0515;0,0164327
2345,0159;0,0164327
2345,9800;0,0173078
2346,9443;0,0188377
2347,9084;0,0203397
2348,8728;0,0211796
2349,8369;0,0211045
2350,8013;0,0203106
2351,7654;0,0192967
2352,7297;0,0185671
2353,6938;0,0183382
2354,6582;0,0184949
2355,6223;0,0188103
2356,5867;0,0191188
2357,5508;0,0193023
2358,5151;0,0192577
2359,4792;0,0189594
2360,4436;0,0185072
2361,4077;0,0180416
2362,3721;0,0176028
2363,3362;0,0171002
2364,3005;0,0164186
2365,2646;0,0155392
2366,2290;0,0145601
2367,1931;0,0136231
2368,1575;0,0128294
2369,1216;0,0122111
2370,0859;0,0117496
2371,0500;0,0114104
2372,0144;0,0111721
2372,9785;0,0110424
2373,9429;0,0110573
2374,9070;0,0112617
2375,8713;0,0116781
2376,8354;0,0122778
2377,7998;0,0129738
2378,7639;0,0136384
2379,7283;0,014139
2380,6924;0,0143754
2381,6567;0,0143048
2382,6208;0,0139467
2383,5852;0,0133705
2384,5493;0,0126723
2385,5137;0,0119499
2386,4778;0,0112831
2387,4421;0,0107231
2388,4063;0,0102922
2389,3706;0,00998965
2390,3347;0,00980005
2391,2991;0,00970026
2392,2632;0,00966456
2393,2275;0,00966848
2394,1917;0,00969202
2395,1560;0,00972173
2396,1201;0,00975091
2397,0845;0,00977775
2398,0486;0,00980473
2399,0129;0,00983106
2399,9771;0,00985345
2400,9414;0,00986883
2401,9055;0,00987446
2402,8699;0,00987163
2403,8340;0,00986494
2404,7983;0,0098607
2405,7625;0,00986402
2406,7268;0,00987576
2407,6909;0,00989347
2408,6553;0,00991353
2409,6194;0,00993251
2410,5837;0,00995059
2411,5479;0,00997078
2412,5122;0,00999704
2413,4763;0,0100312
2414,4407;0,010071
2415,4048;0,010109
2416,3691;0,0101344
2417,3333;0,0101379
2418,2976;0,0101164
2419,2617;0,0100774
2420,2261;0,0100386
2421,1902;0,0100202
2422,1545;0,0100371
2423,1187;0,0100899
2424,0830;0,0101649
2425,0471;0,0102399
2426,0115;0,0102954
2426,9756;0,0103231
2427,9399;0,0103268
2428,9041;0,0103184
2429,8684;0,0103103
2430,8325;0,0103113
2431,7969;0,0103247
2432,7610;0,0103489
2433,7253;0,0103781
2434,6895;0,0104038
2435,6538;0,0104178
2436,6179;0,0104177
2437,5823;0,0104094
2438,5464;0,0104058
2439,5107;0,0104189
2440,4749;0,010451
2441,4392;0,0104925
2442,4033;0,0105275
2443,3677;0,0105447
2444,3318;0,0105437
2445,2961;0,0105339
2446,2603;0,0105256
2447,2246;0,0105231
2448,1887;0,0105247
2449,1531;0,0105283
2450,1172;0,0105369
2451,0815;0,0105575
2452,0457;0,0105932
2453,0100;0,0106365
2453,9741;0,0106716
2454,9385;0,0106841
2455,9026;0,0106725
2456,8669;0,0106512
2457,8311;0,0106419
2458,7954;0,0106585
2459,7595;0,0106974
2460,7239;0,0107387
2461,6880;0,0107586
2462,6523;0,0107444
2463,6165;0,0107018
2464,5808;0,0106519
2465,5449;0,0106197
2466,5093;0,0106223
2467,4734;0,0106623
2468,4377;0,010728
2469,4019;0,0107995
2470,3662;0,0108568
2471,3303;0,0108864
2472,2947;0,0108864
2473,2588;0,0108663
2474,2231;0,0108434
2475,1873;0,0108357
2476,1516;0,0108537
2477,1157;0,010896
2478,0801;0,0109511
2479,0442;0,0110029
2480,0085;0,0110378
2480,9727;0,0110489
2481,9370;0,0110365
2482,9011;0,0110062
2483,8655;0,0109674
2484,8296;0,0109332
2485,7939;0,0109188
2486,7581;0,0109369
2487,7224;0,0109907
2488,6865;0,0110685
2489,6509;0,0111464
2490,6150;0,0111981
2491,5793;0,0112076
2492,5435;0,0111781
2493,5078;0,0111292
2494,4719;0,0110867
2495,4363;0,0110692
2496,4004;0,0110809
2497,3647;0,0111135
2498,3289;0,0111532
2499,2932;0,011189
2500,2573;0,0112163
2501,2217;0,0112356
2502,1858;0,0112494
2503,1501;0,011259
2504,1143;0,0112642
2505,0786;0,0112639
2506,0427;0,0112587
2507,0071;0,0112524
2507,9712;0,0112513
2508,9355;0,0112621
2509,8997;0,0112881
2510,8640;0,0113258
2511,8281;0,0113656
2512,7925;0,0113961
2513,7566;0,0114089
2514,7209;0,0114022
2515,6851;0,0113796
2516,6494;0,011346
2517,6135;0,011305
2518,5779;0,0112596
2519,5420;0,0112156
2520,5063;0,0111834
2521,4705;0,0111748
2522,4348;0,0111954
2523,3989;0,0112387
2524,3633;0,0112867
2525,3274;0,0113183
2526,2917;0,0113212
2527,2559;0,0112988
2528,2202;0,0112687
2529,1843;0,0112518
2530,1487;0,011262
2531,1128;0,0112996
2532,0771;0,0113538
2533,0413;0,011409
2534,0056;0,0114519
2534,9697;0,0114744
2535,9341;0,0114738
2536,8982;0,0114522
2537,8625;0,0114168
2538,8267;0,0113799
2539,7910;0,0113567
2540,7551;0,0113589
2541,7195;0,0113883
2542,6836;0,0114345
2543,6479;0,0114781
2544,6121;0,0115008
2545,5764;0,0114947
2546,5405;0,0114656
2547,5049;0,0114284
2548,4690;0,0113971
2549,4333;0,0113772
2550,3975;0,011364
2551,3618;0,0113481
2552,3259;0,0113234
2553,2903;0,0112921
2554,2544;0,011264
2555,2188;0,0112505
2556,1829;0,0112583
2557,1472;0,0112862
2558,1113;0,011326
2559,0757;0,0113661
2560,0398;0,0113963
2561,0042;0,0114102
2561,9683;0,0114068
2562,9326;0,0113888
2563,8967;0,0113611
2564,8611;0,0113289
2565,8252;0,0112964
2566,7896;0,0112666
2567,7537;0,0112426
2568,7180;0,0112281
2569,6821;0,0112273
2570,6465;0,0112432
2571,6106;0,0112751
2572,5750;0,0113171
2573,5391;0,0113585
2574,5034;0,0113879
2575,4675;0,0113979
2576,4319;0,0113884
2577,3960;0,0113668
2578,3604;0,0113446
2579,3245;0,011332
2580,2888;0,011334
2581,2529;0,0113501
2582,2173;0,0113759
2583,1814;0,0114059
2584,1458;0,0114353
2585,1099;0,0114595
2586,0742;0,0114736
2587,0383;0,0114725
2588,0027;0,0114536
2588,9668;0,0114195
2589,9312;0,0113784
2590,8953;0,0113426
2591,8596;0,0113235
2592,8237;0,0113269
2593,7881;0,0113507
2594,7522;0,0113859
2595,7166;0,0114203
2596,6807;0,0114436
2597,6450;0,0114508
2598,6091;0,0114438
2599,5735;0,0114292
2600,5376;0,0114153
2601,5020;0,0114084
2602,4661;0,0114102
2603,4304;0,0114187
2604,3945;0,01143
2605,3589;0,0114415
2606,3230;0,0114534
2607,2874;0,0114678
2608,2515;0,0114866
2609,2158;0,0115099
2610,1799;0,0115354
2611,1443;0,0115598
2612,1084;0,0115802
2613,0728;0,0115948
2614,0369;0,0116028
2615,0012;0,011604
2615,9653;0,0115983
2616,9297;0,0115868
2617,8938;0,011572
2618,8582;0,0115584
2619,8223;0,0115513
2620,7866;0,0115545
2621,7507;0,011569
2622,7151;0,011592
2623,6792;0,0116183
2624,6436;0,0116423
2625,6077;0,0116603
2626,5720;0,0116721
2627,5361;0,0116801
2628,5005;0,0116876
2629,4646;0,0116966
2630,4290;0,0117075
2631,3931;0,0117198
2632,3574;0,0117326
2633,3215;0,0117457
2634,2859;0,0117589
2635,2500;0,0117708
2636,2144;0,0117799
2637,1785;0,0117854
2638,1428;0,0117889
2639,1069;0,0117947
2640,0713;0,0118075
2641,0354;0,0118287
2641,9998;0,0118551
2642,9639;0,0118799
2643,9282;0,0118961
2644,8923;0,0119017
2645,8567;0,0119006
2646,8208;0,011901
2647,7852;0,0119104
2648,7493;0,0119315
2649,7136;0,011961
2650,6777;0,0119923
2651,6421;0,0120193
2652,6062;0,0120395
2653,5706;0,0120546
2654,5347;0,0120681
2655,4990;0,0120838
2656,4631;0,012104
2657,4275;0,0121298
2658,3916;0,0121619
2659,3560;0,0122005
2660,3201;0,0122444
2661,2844;0,0122911
2662,2485;0,0123364
2663,2129;0,0123762
2664,1770;0,0124079
2665,1414;0,0124318
2666,1055;0,012451
2667,0698;0,01247
2668,0339;0,0124922
2668,9983;0,0125184
2669,9624;0,0125468
2670,9268;0,0125738
2671,8909;0,0125966
2672,8552;0,0126148
2673,8193;0,0126301
2674,7837;0,0126455
2675,7478;0,0126626
2676,7122;0,0126807
2677,6763;0,0126975
2678,6406;0,0127119
2679,6047;0,0127249
2680,5691;0,0127401
2681,5332;0,0127609
2682,4976;0,0127879
2683,4617;0,012818
2684,4260;0,0128466
2685,3901;0,0128709
2686,3545;0,0128914
2687,3186;0,0129113
2688,2830;0,0129334
2689,2471;0,012958
2690,2114;0,0129825
2691,1755;0,0130042
2692,1399;0,0130225
2693,1040;0,0130396
2694,0684;0,0130589
2695,0325;0,0130823
2695,9968;0,0131089
2696,9609;0,0131363
2697,9253;0,0131618
2698,8894;0,0131841
2699,8538;0,0132042
2700,8179;0,0132241
2701,7822;0,013247
2702,7463;0,0132756
2703,7107;0,0133112
2704,6748;0,0133521
2705,6392;0,0133938
2706,6033;0,0134304
2707,5676;0,0134568
2708,5317;0,013472
2709,4961;0,0134784
2710,4602;0,0134809
2711,4246;0,013484
2712,3887;0,0134909
2713,3530;0,0135037
2714,3171;0,0135247
2715,2815;0,0135561
2716,2456;0,0135985
2717,2100;0,0136489
2718,1741;0,0137013
2719,1384;0,0137484
2720,1025;0,0137859
2721,0669;0,0138137
2722,0310;0,0138349
2722,9954;0,0138531
2723,9595;0,0138703
2724,9238;0,0138869
2725,8879;0,0139032
2726,8523;0,0139213
2727,8164;0,013944
2728,7808;0,0139738
2729,7449;0,0140096
2730,7092;0,0140471
2731,6733;0,0140799
2732,6377;0,0141025
2733,6018;0,0141125
2734,5662;0,014112
2735,5303;0,0141062
2736,4946;0,0141016
2737,4587;0,0141033
2738,4231;0,0141138
2739,3872;0,0141332
2740,3516;0,0141596
2741,3157;0,0141913
2742,2800;0,0142265
2743,2441;0,0142635
2744,2085;0,0142988
2745,1726;0,0143279
2746,1370;0,0143465
2747,1011;0,0143531
2748,0654;0,0143512
2749,0295;0,0143476
2749,9939;0,0143501
2750,9580;0,0143635
2751,9224;0,0143876
2752,8865;0,014419
2753,8508;0,0144531
2754,8149;0,0144872
2755,7793;0,0145208
2756,7434;0,0145537
2757,7078;0,0145853
2758,6719;0,0146132
2759,6362;0,0146356
2760,6003;0,0146526
2761,5647;0,0146675
2762,5288;0,0146848
2763,4932;0,0147085
2764,4573;0,0147397
2765,4216;0,0147768
2766,3857;0,0148171
2767,3501;0,0148589
2768,3142;0,0149024
2769,2786;0,014948
2770,2427;0,0149941
2771,2070;0,0150366
2772,1711;0,0150706
2773,1355;0,0150936
2774,0996;0,0151084
2775,0640;0,0151225
2776,0281;0,0151446
2776,9924;0,0151794
2777,9565;0,0152253
2778,9209;0,0152764
2779,8850;0,0153266
2780,8494;0,0153737
2781,8135;0,0154199
2782,7778;0,0154684
2783,7419;0,0155203
2784,7063;0,0155732
2785,6704;0,0156229
2786,6348;0,0156669
2787,5989;0,0157067
2788,5632;0,0157466
2789,5273;0,0157913
2790,4917;0,015843
2791,4558;0,0159007
2792,4202;0,0159611
2793,3843;0,0160211
2794,3486;0,0160786
2795,3127;0,016133
2796,2771;0,0161851
2797,2412;0,0162368
2798,2056;0,0162915
2799,1697;0,016353
2800,1340;0,016424
2801,0981;0,0165052
2802,0625;0,0165946
2803,0266;0,0166885
2803,9910;0,0167831
2804,9551;0,0168756
2805,9194;0,0169644
2806,8835;0,017048
2807,8479;0,0171256
2808,8120;0,0171976
2809,7764;0,0172669
2810,7405;0,0173387
2811,7048;0,0174193
2812,6689;0,0175132
2813,6333;0,0176204
2814,5974;0,0177369
2815,5618;0,0178565
2816,5259;0,0179746
2817,4902;0,0180903
2818,4543;0,0182061
2819,4187;0,0183256
2820,3828;0,0184507
2821,3472;0,0185813
2822,3113;0,0187165
2823,2756;0,0188569
2824,2397;0,0190058
2825,2041;0,0191673
2826,1682;0,0193442
2827,1326;0,0195356
2828,0967;0,0197378
2829,0610;0,0199469
2830,0251;0,0201615
2830,9895;0,020384
2831,9536;0,0206181
2832,9180;0,0208662
2833,8821;0,021127
2834,8464;0,021397
2835,8105;0,0216739
2836,7749;0,0219595
2837,7390;0,0222609
2838,7034;0,0225898
2839,6675;0,0229591
2840,6318;0,0233816
2841,5959;0,0238687
2842,5603;0,0244281
2843,5244;0,0250594
2844,4888;0,0257478
2845,4529;0,0264587
2846,4172;0,0271386
2847,3813;0,0277237
2848,3457;0,0281571
2849,3098;0,0284054
2850,2742;0,0284691
2851,2383;0,0283811
2852,2026;0,0281935
2853,1667;0,0279599
2854,1311;0,0277217
2855,0952;0,0275013
2856,0596;0,0273062
2857,0237;0,027137
2857,9880;0,0269948
2858,9521;0,026884
2859,9165;0,0268105
2860,8806;0,0267766
2861,8450;0,0267793
2862,8091;0,0268109
2863,7734;0,0268636
2864,7375;0,0269334
2865,7019;0,0270209
2866,6660;0,027128
2867,6304;0,0272535
2868,5945;0,0273899
2869,5588;0,0275244
2870,5229;0,027643
2871,4873;0,0277355
2872,4514;0,0277989
2873,4158;0,0278377
2874,3799;0,0278607
2875,3442;0,0278786
2876,3083;0,0279005
2877,2727;0,0279327
2878,2368;0,0279781
2879,2012;0,0280361
2880,1653;0,0281041
2881,1296;0,0281793
2882,0938;0,0282607
2883,0581;0,0283499
2884,0222;0,0284504
2884,9866;0,0285648
2885,9507;0,0286926
2886,9150;0,0288297
2887,8792;0,0289693
2888,8435;0,0291056
2889,8076;0,0292355
2890,7720;0,0293598
2891,7361;0,029481
2892,7004;0,0296012
2893,6646;0,0297197
2894,6289;0,029834
2895,5930;0,0299418
2896,5574;0,0300438
2897,5215;0,0301445
2898,4858;0,0302501
2899,4500;0,0303648
2900,4143;0,0304883
2901,3784;0,0306163
2902,3428;0,0307443
2903,3069;0,0308723
2904,2712;0,0310074
2905,2354;0,0311627
2906,1997;0,0313527
2907,1638;0,0315903
2908,1282;0,0318836
2909,0923;0,0322369
2910,0566;0,0326492
2911,0208;0,033113
2911,9851;0,0336101
2912,9492;0,0341097
2913,9136;0,034571
2914,8777;0,0349512
2915,8420;0,0352156
2916,8062;0,0353463
2917,7705;0,0353439
2918,7346;0,0352241
2919,6990;0,0350098
2920,6631;0,0347254
2921,6274;0,0343924
2922,5916;0,0340294
2923,5559;0,0336521
2924,5200;0,0332724
2925,4844;0,0328978
2926,4485;0,0325304
2927,4128;0,0321689
2928,3770;0,0318115
2929,3413;0,0314584
2930,3054;0,0311121
2931,2698;0,0307751
2932,2339;0,0304476
2933,1982;0,0301263
2934,1624;0,0298066
2935,1267;0,029486
2936,0908;0,0291661
2937,0552;0,0288517
2938,0193;0,028547
2938,9836;0,0282529
2939,9478;0,0279657
2940,9121;0,0276796
2941,8762;0,0273914
2942,8406;0,027103
2943,8047;0,0268212
2944,7690;0,0265543
2945,7332;0,0263081
2946,6975;0,0260831
2947,6616;0,0258757
2948,6260;0,0256805
2949,5901;0,0254936
2950,5544;0,0253138
2951,5186;0,0251415
2952,4829;0,0249769
2953,4470;0,0248181
2954,4114;0,0246608
2955,3755;0,0245006
2956,3398;0,0243342
2957,3040;0,0241613
2958,2683;0,0239837
2959,2324;0,0238038
2960,1968;0,0236228
2961,1609;0,02344
2962,1252;0,0232533
2963,0894;0,0230605
2964,0537;0,0228609
2965,0178;0,0226558
2965,9822;0,0224487
2966,9463;0,0222439
2967,9106;0,0220448
2968,8748;0,0218531
2969,8391;0,0216682
2970,8032;0,0214874
2971,7676;0,0213081
2972,7317;0,0211286
2973,6960;0,0209495
2974,6602;0,0207732
2975,6245;0,0206019
2976,5886;0,0204365
2977,5530;0,0202759
2978,5171;0,0201178
2979,4814;0,0199614
2980,4456;0,0198091
2981,4099;0,0196668
2982,3740;0,019542
2983,3384;0,0194401
2984,3025;0,019362
2985,2668;0,0193025
2986,2310;0,0192525
2987,1953;0,0192028
2988,1594;0,0191479
2989,1238;0,0190882
2990,0879;0,0190289
2991,0522;0,0189775
2992,0164;0,01894
2992,9807;0,0189186
2993,9448;0,0189115
2994,9092;0,0189143
2995,8733;0,0189217
2996,8376;0,0189297
2997,8018;0,0189359
2998,7661;0,0189401
2999,7302;0,0189435
3000,6946;0,0189486
3001,6587;0,0189584
3002,6230;0,0189758
3003,5872;0,0190028
3004,5515;0,0190405
3005,5156;0,0190882
3006,4800;0,0191441
3007,4441;0,019205
3008,4084;0,0192665
3009,3726;0,0193237
3010,3369;0,0193714
3011,3010;0,0194063
3012,2654;0,0194279
3013,2295;0,0194392
3014,1938;0,0194447
3015,1580;0,0194496
3016,1223;0,0194572
3017,0864;0,01947
3018,0508;0,0194901
3019,0149;0,01952
3019,9792;0,0195624
3020,9434;0,0196174
3021,9077;0,0196812
3022,8718;0,0197472
3023,8362;0,01981
3024,8003;0,0198702
3025,7646;0,0199358
3026,7288;0,0200184
3027,6931;0,0201248
3028,6572;0,0202507
3029,6216;0,0203804
3030,5857;0,0204932
3031,5500;0,0205741
3032,5142;0,0206216
3033,4785;0,0206474
3034,4426;0,0206693
3035,4070;0,0207019
3036,3711;0,0207515
3037,3354;0,0208152
3038,2996;0,0208858
3039,2639;0,0209559
3040,2280;0,0210219
3041,1924;0,0210846
3042,1565;0,0211497
3043,1208;0,0212248
3044,0850;0,0213169
3045,0493;0,0214282
3046,0134;0,021554
3046,9778;0,0216844
3047,9419;0,0218087
3048,9063;0,0219214
3049,8704;0,0220248
3050,8347;0,0221275
3051,7988;0,0222381
3052,7632;0,0223593
3053,7273;0,0224862
3054,6917;0,0226088
3055,6558;0,0227177
3056,6201;0,0228099
3057,5842;0,0228904
3058,5486;0,0229708
3059,5127;0,0230643
3060,4771;0,0231796
3061,4412;0,0233176
3062,4055;0,0234687
3063,3696;0,023616
3064,3340;0,0237407
3065,2981;0,0238306
3066,2625;0,0238864
3067,2266;0,0239217
3068,1909;0,023958
3069,1550;0,0240145
3070,1194;0,0241007
3071,0835;0,0242139
3072,0479;0,0243433
3073,0120;0,0244768
3073,9763;0,0246069
3074,9404;0,0247323
3075,9048;0,0248559
3076,8689;0,0249799
3077,8333;0,0251028
3078,7974;0,0252192
3079,7617;0,0253223
3080,7258;0,0254085
3081,6902;0,0254796
3082,6543;0,0255432
3083,6187;0,0256093
3084,5828;0,0256858
3085,5471;0,0257751
3086,5112;0,0258733
3087,4756;0,0259736
3088,4397;0,0260711
3089,4041;0,026167
3090,3682;0,0262679
3091,3325;0,0263817
3092,2966;0,0265118
3093,2610;0,0266546
3094,2251;0,0268017
3095,1895;0,0269448
3096,1536;0,02708
3097,1179;0,0272085
3098,0820;0,0273325
3099,0464;0,0274519
3100,0105;0,0275629
3100,9749;0,0276621
3101,9390;0,0277498
3102,9033;0,027832
3103,8674;0,0279171
3104,8318;0,0280112
3105,7959;0,0281157
3106,7603;0,0282279
3107,7244;0,0283453
3108,6887;0,0284682
3109,6528;0,0285998
3110,6172;0,0287426
3111,5813;0,0288953
3112,5457;0,0290513
3113,5098;0,0292013
3114,4741;0,0293384
3115,4382;0,0294615
3116,4026;0,0295756
3117,3667;0,0296888
3118,3311;0,029808
3119,2952;0,0299356
3120,2595;0,0300691
3121,2236;0,0302033
3122,1880;0,030333
3123,1521;0,0304548
3124,1165;0,0305681
3125,0806;0,0306746
3126,0449;0,0307779
3127,0090;0,0308834
3127,9734;0,0309968
3128,9375;0,0311225
3129,9019;0,0312614
3130,8660;0,0314098
3131,8303;0,0315615
3132,7944;0,0317103
3133,7588;0,0318535
3134,7229;0,0319927
3135,6873;0,0321314
3136,6514;0,0322721
3137,6157;0,0324139
3138,5798;0,0325537
3139,5442;0,0326886
3140,5083;0,0328192
3141,4727;0,0329503
3142,4368;0,0330894
3143,4011;0,0332426
3144,3652;0,0334113
3145,3296;0,033591
3146,2937;0,0337719
3147,2581;0,0339437
3148,2222;0,0340996
3149,1865;0,0342401
3150,1506;0,0343724
3151,1150;0,0345072
3152,0791;0,0346534
3153,0435;0,0348142
3154,0076;0,0349863
3154,9719;0,0351628
3155,9360;0,0353367
3156,9004;0,0355034
3157,8645;0,0356607
3158,8289;0,0358084
3159,7930;0,0359477
3160,7573;0,0360819
3161,7214;0,0362166
3162,6858;0,0363591
3163,6499;0,0365156
3164,6143;0,0366885
3165,5784;0,0368748
3166,5427;0,0370667
3167,5068;0,0372551
3168,4712;0,0374326
3169,4353;0,037427
3170,3997;0,0375825
3171,3638;0,0377371
3172,3281;0,0378977
3173,2922;0,0380679
3174,2566;0,0382461
3175,2207;0,0384261
3176,1851;0,0386002
3177,1492;0,0387635
3178,1135;0,0389169
3179,0776;0,0390676
3180,0420;0,0392243
3181,0061;0,0393925
3181,9705;0,0395703
3182,9346;0,0397494
3183,8989;0,0399196
3184,8630;0,0400749
3185,8274;0,0402168
3186,7915;0,0403535
3187,7559;0,0404945
3188,7200;0,0406454
3189,6843;0,0408059
3190,6484;0,0409724
3191,6128;0,0411418
3192,5769;0,0413138
3193,5413;0,0414902
3194,5054;0,0416706
3195,4697;0,0418498
3196,4338;0,0420188
3197,3982;0,0421701
3198,3623;0,0423038
3199,3267;0,0424291
3200,2908;0,0425601
3201,2551;0,0427086
3202,2192;0,0428772
3203,1836;0,0430586
3204,1477;0,0432403
3205,1121;0,0434112
3206,0762;0,0435672
3207,0405;0,0437118
3208,0046;0,0438522
3208,9690;0,0439942
3209,9331;0,0441394
3210,8975;0,0442866
3211,8616;0,0444349
3212,8259;0,044586
3213,7900;0,0447438
3214,7544;0,0449105
3215,7185;0,0450832
3216,6829;0,045254
3217,6470;0,0454138
3218,6113;0,0455578
3219,5754;0,0456899
3220,5398;0,0458204
3221,5039;0,0459606
3222,4683;0,046117
3223,4324;0,0462873
3224,3967;0,0464642
3225,3608;0,0466393
3226,3252;0,0468079
3227,2893;0,0469701
3228,2537;0,0471285
3229,2178;0,0472858
3230,1821;0,0474427
3231,1462;0,0475984
3232,1106;0,0477517
3233,0747;0,0479009
3234,0391;0,0480454
3235,0032;0,0481857
3235,9675;0,0483253
3236,9316;0,0484708
3237,8960;0,0486301
3238,8601;0,0488083
3239,8245;0,0490028
3240,7886;0,0492037
3241,7529;0,0493965
3242,7170;0,0495706
3243,6814;0,049724
3244,6455;0,0498642
3245,6099;0,0500032
3246,5740;0,05015
3247,5383;0,0503056
3248,5024;0,0504649
3249,4668;0,0506219
3250,4309;0,0507753
3251,3953;0,0509301
3252,3594;0,051094
3253,3237;0,0512722
3254,2878;0,0514642
3255,2522;0,0516635
3256,2163;0,0518611
3257,1807;0,0520494
3258,1448;0,052224
3259,1091;0,0523856
3260,0732;0,0525395
3261,0376;0,0526943
3262,0017;0,0528591
3262,9661;0,0530394
3263,9302;0,0532334
3264,8945;0,0534326
3265,8586;0,053626
3266,8230;0,0538057
3267,7871;0,0539723
3268,7515;0,0541326
3269,7156;0,0542935
3270,6799;0,0544553
3271,6440;0,0546092
3272,6084;0,0547417
3273,5725;0,0548434
3274,5369;0,0549151
3275,5010;0,0549677
3276,4653;0,0550153
3277,4294;0,0550677
3278,3938;0,0551256
3279,3579;0,0551834
3280,3223;0,0552352
3281,2864;0,0552799
3282,2507;0,0553228
3283,2148;0,0553721
3284,1792;0,0554339
3285,1433;0,0555089
3286,1077;0,0555915
3287,0718;0,0556722
3288,0361;0,0557416
3289,0002;0,0557934
3289,9646;0,0558252
3290,9287;0,0558392
3291,8931;0,0558404
3292,8572;0,0558343
3293,8215;0,0558267
3294,7856;0,0558222
3295,7500;0,0558236
3296,7141;0,0558316
3297,6785;0,0558438
3298,6426;0,0558547
3299,6069;0,0558583
3300,5710;0,055852
3301,5354;0,0558393
3302,4995;0,0558292
3303,4639;0,0558321
3304,4280;0,0558533
3305,3923;0,0558893
3306,3564;0,055929
3307,3208;0,0559594
3308,2849;0,0559717
3309,2493;0,0559648
3310,2134;0,0559442
3311,1777;0,0559186
3312,1418;0,0558969
3313,1062;0,0558868
3314,0703;0,0558948
3315,0347;0,0559257
3315,9988;0,055981
3316,9631;0,0560584
3317,9272;0,0561525
3318,8916;0,0562573
3319,8557;0,0563682
3320,8201;0,0564824
3321,7842;0,0565979
3322,7485;0,0567119
3323,7126;0,0568207
3324,6770;0,056921
3325,6411;0,0570108
3326,6055;0,05709
3327,5696;0,0571597
3328,5339;0,0572224
3329,4980;0,0572818
3330,4624;0,0573422
3331,4265;0,0574071
3332,3909;0,0574768
3333,3550;0,0575459
3334,3193;0,057604
3335,2834;0,0576383
3336,2478;0,0576385
3337,2119;0,0576002
3338,1763;0,0575248
3339,1404;0,0574178
3340,1047;0,0572868
3341,0688;0,0571412
3342,0332;0,0569922
3342,9973;0,0568514
3343,9617;0,0567275
3344,9258;0,0566226
3345,8901;0,0565304
3346,8542;0,056439
3347,8186;0,0563364
3348,7827;0,0562159
3349,7471;0,0560783
3350,7112;0,0559302
3351,6755;0,05578
3352,6396;0,0556335
3353,6040;0,0554935
3354,5681;0,0553601
3355,5325;0,0552327
3356,4966;0,0551103
3357,4609;0,0549912
3358,4250;0,0548722
3359,3894;0,0547504
3360,3535;0,0546244
3361,3179;0,0544952
3362,2820;0,054365
3363,2463;0,0542336
3364,2104;0,0540971
3365,1748;0,0539474
3366,1389;0,0537768
3367,1033;0,0535824
3368,0674;0,053369
3369,0317;0,0531478
3369,9958;0,052932
3370,9602;0,0527328
3371,9243;0,0525562
3372,8887;0,0524017
3373,8528;0,0522636
3374,8171;0,0521333
3375,7813;0,052003
3376,7456;0,051869
3377,7097;0,0517339
3378,6741;0,0516038
3379,6382;0,0514826
3380,6025;0,0513665
3381,5667;0,0512428
3382,5310;0,0510963
3383,4951;0,0509197
3384,4595;0,0507225
3385,4236;0,0505293
3386,3879;0,0503682
3387,3521;0,0502556
3388,3164;0,0501865
3389,2805;0,0501376
3390,2449;0,0500793
3391,2090;0,0499903
3392,1733;0,0498661
3393,1375;0,0497171
3394,1018;0,0495579
3395,0659;0,0493971
3396,0303;0,0492336
3396,9944;0,0490622
3397,9587;0,0488807
3398,9229;0,048694
3399,8872;0,0485112
3400,8513;0,0483383
3401,8157;0,0481743
3402,7798;0,0480111
3403,7441;0,0478398
3404,7083;0,0476563
3405,6726;0,0474645
3406,6367;0,0472737
3407,6011;0,0470925
3408,5652;0,0469238
3409,5295;0,0467619
3410,4937;0,0465951
3411,4580;0,0464121
3412,4221;0,0462091
3413,3865;0,0459943
3414,3506;0,0457855
3415,3149;0,0456016
3416,2791;0,0454531
3417,2434;0,0453333
3418,2075;0,0452186
3419,1719;0,0450773
3420,1360;0,0448848
3421,1003;0,0446362
3422,0645;0,044349
3423,0288;0,044052
3423,9929;0,0437702
3424,9573;0,0435148
3425,9214;0,0432824
3426,8857;0,0430615
3427,8499;0,0428407
3428,8142;0,0426142
3429,7783;0,0423823
3430,7427;0,0421489
3431,7068;0,0419171
3432,6711;0,041688
3433,6353;0,0414617
3434,5996;0,04124
3435,5637;0,0410268
3436,5281;0,0408258
3437,4922;0,040638
3438,4565;0,0404613
3439,4207;0,040293
3440,3850;0,0401332
3441,3491;0,0399852
3442,3135;0,0398506
3443,2776;0,0397213
3444,2419;0,039576
3445,2061;0,0393849
3446,1704;0,0391246
3447,1345;0,0387954
3448,0989;0,0384262
3449,0630;0,038061
3450,0273;0,0377361
3450,9915;0,0374655
3451,9558;0,0372424
3452,9199;0,0370499
3453,8843;0,0368725
3454,8484;0,036703
3455,8127;0,0365409
3456,7769;0,0363869
3457,7412;0,0362375
3458,7053;0,0360837
3459,6697;0,0359144
3460,6338;0,035721
3461,5981;0,0355011
3462,5623;0,0352581
3463,5266;0,0349987
3464,4907;0,0347287
3465,4551;0,0344526
3466,4192;0,0341755
3467,3835;0,0339051
3468,3477;0,0336515
3469,3120;0,0334229
3470,2761;0,033219
3471,2405;0,0330275
3472,2046;0,0328297
3473,1689;0,0326123
3474,1331;0,0323798
3475,0974;0,0321569
3476,0615;0,0319762
3477,0259;0,0318557
3477,9900;0,0317836
3478,9543;0,031719
3479,9185;0,0316105
3480,8828;0,0314246
3481,8469;0,0311666
3482,8113;0,0308769
3483,7754;0,0306027
3484,7397;0,0303674
3485,7039;0,0301607
3486,6682;0,0299526
3487,6323;0,0297187
3488,5967;0,0294608
3489,5608;0,0292072
3490,5251;0,0289934
3491,4893;0,0288362
3492,4536;0,0287222
3493,4177;0,0286161
3494,3821;0,0284852
3495,3462;0,0283248
3496,3105;0,0281673
3497,2747;0,0280626
3498,2390;0,0280418
3499,2031;0,0280877
3500,1675;0,0281324
3501,1316;0,0280839
3502,0959;0,0278765
3503,0601;0,0275195
3504,0244;0,0271011
3504,9885;0,0267317
3505,9529;0,0264746
3506,9170;0,0263177
3507,8813;0,0261931
3508,8455;0,0260209
3509,8098;0,0257563
3510,7739;0,0254135
3511,7383;0,0250497
3512,7024;0,0247235
3513,6667;0,0244629
3514,6309;0,0242635
3515,5952;0,0241072
3516,5593;0,0239833
3517,5237;0,0238978
3518,4878;0,0238672
3519,4521;0,0239015
3520,4163;0,0239894
3521,3806;0,0240943
3522,3447;0,0241648
3523,3091;0,0241549
3524,2732;0,0240405
3525,2375;0,0238213
3526,2017;0,0235099
3527,1660;0,0231238
3528,1301;0,0226874
3529,0945;0,0222396
3530,0586;0,0218311
3531,0229;0,021506
3531,9871;0,0212827
3532,9514;0,0211453
3533,9155;0,0210484
3534,8799;0,0209346
3535,8440;0,0207611
3536,8083;0,0205266
3537,7725;0,0202796
3538,7368;0,0200953
3539,7009;0,0200382
3540,6653;0,020133
3541,6294;0,0203518
3542,5938;0,0206115
3543,5579;0,0207859
3544,5222;0,0207526
3545,4863;0,0204663
3546,4507;0,0200012
3547,4148;0,0195029
3548,3792;0,0190901
3549,3433;0,0187949
3550,3076;0,0185707
3551,2717;0,0183377
3552,2361;0,0180405
3553,2002;0,0176888
3554,1646;0,0173518
3555,1287;0,0171066
3556,0930;0,0169875
3557,0571;0,0169768
3558,0215;0,0170282
3558,9856;0,0171031
3559,9500;0,0171976
3560,9141;0,0173447
3561,8784;0,017585
3562,8425;0,0179256
3563,8069;0,0183009
3564,7710;0,0185392
3565,7354;0,0183894
3566,6995;0,0177047
3567,6638;0,0166562
3568,6279;0,0156348
3569,5923;0,0149156
3570,5564;0,0145214
3571,5208;0,0143339
3572,4849;0,0142292
3573,4492;0,0141357
3574,4133;0,0140346
3575,3777;0,0139359
3576,3418;0,0138522
3577,3062;0,0137841
3578,2703;0,0137253
3579,2346;0,0136793
3580,1987;0,0136697
3581,1631;0,0137286
3582,1272;0,0138749
3583,0916;0,014097
3584,0557;0,0143442
3585,0200;0,014515
3585,9841;0,014468
3586,9485;0,0141251
3587,9126;0,0136151
3588,8770;0,0132152
3589,8411;0,0131053
3590,8054;0,0132577
3591,7695;0,0135226
3592,7339;0,0137381
3593,6980;0,0137934
3594,6624;0,0136669
3595,6265;0,0134278
3596,5908;0,0131741
3597,5549;0,0129488
3598,5193;0,0127202
3599,4834;0,0124341
3600,4478;0,0120842
3601,4119;0,0117331
3602,3762;0,0114614
3603,3403;0,0112988
3604,3047;0,0112015
3605,2688;0,0110744
3606,2332;0,010812
3607,1973;0,010353
3608,1616;0,00974017
3609,1257;0,00912214
3610,0901;0,00866591
3611,0542;0,00845893
3612,0186;0,00848137
3612,9827;0,00864162
3613,9470;0,00882973
3614,9111;0,00895736
3615,8755;0,00897262
3616,8396;0,0088561
3617,8040;0,00861779
3618,7681;0,00831518
3619,7324;0,00807335
3620,6965;0,0080349
3621,6609;0,00824554
3622,6250;0,00860867
3623,5894;0,00895767
3624,5535;0,00915471
3625,5178;0,00913441
3626,4819;0,00887578
3627,4463;0,00835288
3628,4104;0,00759745
3629,3748;0,00683876
3630,3389;0,00635828
3631,3032;0,00618375
3632,2673;0,00611412
3633,2317;0,00594828
3634,1958;0,00561676
3635,1602;0,00517883
3636,1243;0,00474842
3637,0886;0,004411
3638,0527;0,00418379
3639,0171;0,00403502
3639,9812;0,00392973
3640,9456;0,00385766
3641,9097;0,00382566
3642,8740;0,00383288
3643,8381;0,00386092
3644,8025;0,00388732
3645,7666;0,00388731
3646,7310;0,00376888
3647,6951;0,0032883
3648,6594;0,00225486
3649,6235;0,00100876
3650,5879;0,000183592
3651,5520;-3,54601E-05
3652,5164;7,74281E-05
3653,4805;0,000194968
3654,4448;0,000150959
3655,4089;-4,49164E-05
3656,3733;-0,00027193
3657,3374;-0,000398651
3658,3018;-0,00038143
3659,2659;-0,000284087
3660,2302;-0,000202168
3661,1943;-0,000176907
3662,1587;-0,000175836
3663,1228;-0,000142217
3664,0872;-6,0556E-05
3665,0513;2,93674E-05
3666,0156;7,1751E-05
3666,9797;4,22224E-05
3667,9441;-4,9565E-05
3668,9082;-0,000183961
3669,8726;-0,000324591
3670,8367;-0,000419424
3671,8010;-0,000458146
3672,7651;-0,000487391
3673,7295;-0,000561094
3674,6936;-0,00070664
3675,6580;-0,000888678
3676,6221;-0,000977706
3677,5864;-0,000861625
3678,5505;-0,000579025
3679,5149;-0,000257576
3680,4790;1,66934E-05
3681,4434;0,000236297
3682,4075;0,00042447
3683,3718;0,000579293
3684,3359;0,000666205
3685,3003;0,000659699
3686,2644;0,000586684
3687,2288;0,000516608
3688,1929;0,000497125
3689,1572;0,000531639
3690,1213;0,000647275
3691,0857;0,000894768
3692,0498;0,00126096
3693,0142;0,0016682
3693,9783;0,0020418
3694,9426;0,00234282
3695,9067;0,00255816
3696,8711;0,00268349
3697,8352;0,00271983
3698,7996;0,00267989
3699,7637;0,00259145
3700,7280;0,00249319
3701,6921;0,00242899
3702,6565;0,00243845
3703,6206;0,00253451
3704,5850;0,00268638
3705,5491;0,00283485
3706,5134;0,00292501
3707,4775;0,00291665
3708,4419;0,00275221
3709,4060;0,00232044
3710,3704;0,00153349
3711,3345;0,000536896
3712,2988;-0,000278673
3713,2629;-0,000609759
3714,2273;-0,000450388
3715,1914;2,38484E-05
3716,1558;0,000636608
3717,1199;0,00129111
3718,0842;0,00196413
3719,0483;0,00266433
3720,0127;0,00339204
3720,9768;0,00411916
3721,9412;0,00478959
3722,9053;0,00533135
3723,8696;0,00567647
3724,8337;0,00579001
3725,7981;0,00569133
3726,7622;0,00544084
3727,7266;0,00510343
3728,6907;0,00473376
3729,6550;0,00439548
3730,6191;0,00417735
3731,5835;0,00416027
3732,5476;0,00431929
3733,5120;0,00443057
3734,4761;0,00417726
3735,4404;0,0034993
3736,4045;0,00272657
3737,3689;0,00221066
3738,3330;0,00199155
3739,2974;0,00185568
3740,2615;0,00155191
3741,2258;0,000939526
3742,1899;4,45989E-05
3743,1543;-0,000944192
3744,1184;-0,0017346
3745,0828;-0,002083
3746,0469;-0,00198743
3747,0112;-0,00169231
3747,9753;-0,00149329
3748,9397;-0,00158652
3749,9038;-0,00201826
3750,8682;-0,00261457
3751,8323;-0,00300246
3752,7966;-0,00293171
3753,7607;-0,00249939
3754,7251;-0,00198116
3755,6892;-0,00160113
3756,6536;-0,0014582
3757,6177;-0,0015446
3758,5820;-0,00176994
3759,5461;-0,00199185
3760,5105;-0,00208974
3761,4746;-0,00203385
3762,4390;-0,00187889
3763,4031;-0,00170895
3764,3674;-0,00159502
3765,3315;-0,0015797
3766,2959;-0,00167542
3767,2600;-0,00186711
3768,2244;-0,00211806
3769,1885;-0,0023751
3770,1528;-0,00257271
3771,1169;-0,00265073
3772,0813;-0,00258663
3773,0454;-0,00241475
3774,0098;-0,00220758
3774,9739;-0,00203648
3775,9382;-0,00194396
3776,9023;-0,00194066
3777,8667;-0,00201124
3778,8308;-0,00211015
3779,7952;-0,00216759
3780,7593;-0,00213023
3781,7236;-0,00200205
3782,6877;-0,00184067
3783,6521;-0,00172114
3784,6162;-0,00169759
3785,5806;-0,00177661
3786,5447;-0,00191465
3787,5090;-0,00204364
3788,4731;-0,00211005
3789,4375;-0,00210004
3790,4016;-0,00203575
3791,3660;-0,0019502
3792,3301;-0,00186025
3793,2944;-0,0017577
3794,2585;-0,0016258
3795,2229;-0,00146952
3796,1870;-0,00133334
3797,1514;-0,00128887
3798,1155;-0,00139989
3799,0798;-0,0016867
3800,0439;-0,00210284
3801,0083;-0,00253195
3801,9724;-0,00283662
3802,9368;-0,00296298
3803,9009;-0,00298903
3804,8652;-0,00304432
3805,8293;-0,003186
3806,7937;-0,00333889
3807,7578;-0,0033448
3808,7222;-0,00310442
3809,6863;-0,0026848
3810,6506;-0,00227281
3811,6147;-0,00203634
3812,5791;-0,0020248
3813,5432;-0,00215852
3814,5076;-0,00229176
3815,4717;-0,00230825
3816,4360;-0,00219357
3817,4001;-0,00204132
3818,3645;-0,00198975
3819,3286;-0,00212969
3820,2930;-0,00242442
3821,2571;-0,00269516
3822,2214;-0,00274108
3823,1855;-0,00251269
3824,1499;-0,00213709
3825,1140;-0,00179598
3826,0784;-0,00161063
3827,0425;-0,00160363
3828,0068;-0,00171924
3828,9709;-0,00187091
3829,9353;-0,00198857
3830,8994;-0,00204362
3831,8638;-0,00204597
3832,8279;-0,00202323
3833,7922;-0,00199766
3834,7563;-0,00197309
3835,7207;-0,00193929
3836,6848;-0,00189115
3837,6492;-0,00184119
3838,6133;-0,00180473
3839,5776;-0,00178444
3840,5417;-0,0017846
3841,5061;-0,00182255
3842,4702;-0,00190241
3843,4346;-0,00198223
3844,3987;-0,00198239
3845,3630;-0,00184139
3846,3271;-0,00157473
3847,2915;-0,00128516
3848,2556;-0,00111672
3849,2200;-0,00118951
3850,1841;-0,00155672
3851,1484;-0,00221033
3852,1125;-0,0031012
3853,0769;-0,00402539
3854,0410;-0,00452084
3855,0054;-0,00428063
3855,9695;-0,00350703
3856,9338;-0,00261824
3857,8979;-0,00190565
3858,8623;-0,00145892
3859,8264;-0,001229
3860,7908;-0,00112028
3861,7549;-0,00107054
3862,7192;-0,00107824
3863,6833;-0,00115709
3864,6477;-0,00128307
3865,6118;-0,0014049
3866,5762;-0,00148279
3867,5403;-0,00150229
3868,5046;-0,00147499
3869,4688;-0,0014419
3870,4331;-0,00145923
3871,3972;-0,00155639
3872,3616;-0,00170791
3873,3257;-0,00185363
3874,2900;-0,00194065
3875,2542;-0,00194438
3876,2185;-0,0018617
3877,1826;-0,00169803
3878,1470;-0,00146744
3879,1111;-0,00120789
3880,0754;-0,000988226
3881,0396;-0,000886193
3882,0039;-0,000954421
3882,9680;-0,00120043
3883,9324;-0,00157641
3884,8965;-0,00197616
3885,8608;-0,0022663
3886,8250;-0,0023579
3887,7893;-0,00225953
3888,7534;-0,00205902
3889,7178;-0,00186227
3890,6819;-0,00173994
3891,6462;-0,00169159
3892,6104;-0,00164431
3893,5747;-0,00152066
3894,5388;-0,00131565
3895,5032;-0,00108747
3896,4673;-0,000892714
3897,4316;-0,00075003
3898,3958;-0,000651878
3899,3601;-0,000591008
3900,3242;-0,00057537
3901,2886;-0,000632701
3902,2527;-0,000805435
3903,2170;-0,00111562
3904,1812;-0,00151894
3905,1455;-0,00191452
3906,1096;-0,00221575
3907,0740;-0,00239962
3908,0381;-0,00249075
3909,0024;-0,00251817
3909,9666;-0,00248969
3910,9309;-0,00239404
3911,8950;-0,00221911
3912,8594;-0,00197167
3913,8235;-0,00168864
3914,7878;-0,00143621
3915,7520;-0,0012916
3916,7163;-0,00130091
3917,6804;-0,00143182
3918,6448;-0,00157689
3919,6089;-0,00162638
3920,5732;-0,00154474
3921,5374;-0,00138389
3922,5017;-0,00124223
3923,4658;-0,00120305
3924,4302;-0,00127889
3925,3943;-0,00139906
3926,3586;-0,00146129
3927,3228;-0,0014054
3928,2871;-0,00124907
3929,2512;-0,00107667
3930,2156;-0,00100043
3931,1797;-0,00110209
3932,1440;-0,00137668
3933,1082;-0,00173015
3934,0725;-0,00204325
3935,0366;-0,002238
3936,0010;-0,0022939
3936,9651;-0,00222713
3937,9294;-0,00206875
3938,8936;-0,00185722
3939,8579;-0,00163954
3940,8220;-0,00146617
3941,7864;-0,00137088
3942,7505;-0,00134716
3943,7148;-0,00134842
3944,6790;-0,00132329
3945,6433;-0,00125589
3946,6074;-0,0011806
3947,5718;-0,00116395
3948,5359;-0,00126312
3949,5002;-0,00148282
3950,4644;-0,0017645
3951,4287;-0,00202248
3952,3928;-0,00219484
3953,3572;-0,00226718
3954,3213;-0,00226249
3955,2856;-0,00221601
3956,2498;-0,00215459
3957,2141;-0,00209054
3958,1782;-0,00202994
3959,1426;-0,0019848
3960,1067;-0,00197624
3961,0710;-0,00202359
3962,0352;-0,00212727
3962,9995;-0,00226072
3963,9636;-0,00238075
3964,9280;-0,00244903
3965,8921;-0,00245114
3966,8564;-0,00240064
3967,8206;-0,00232837
3968,7849;-0,00226422
3969,7490;-0,00222239
3970,7134;-0,00219941
3971,6775;-0,00218462
3972,6418;-0,00217381
3973,6060;-0,00217469
3974,5703;-0,00220012
3975,5344;-0,00225513
3976,4988;-0,00232922
3977,4629;-0,00240089
3978,4272;-0,00245151
3979,3914;-0,00247824
3980,3557;-0,00249663
3981,3198;-0,00253017
3982,2842;-0,00259272
3983,2483;-0,00267549
3984,2126;-0,0027485
3985,1768;-0,00277654
3986,1411;-0,00273936
3987,1052;-0,00264392
3988,0696;-0,00252215
3989,0337;-0,00241534
3989,9980;-0,00235578
3990,9622;-0,00235457
3991,9265;-0,00240243
3992,8906;-0,00247982
3993,8550;-0,0025678
3994,8191;-0,0026529
3995,7834;-0,00272581
3996,7476;-0,00277867
3997,7119;-0,00280521
3998,6760;-0,00280366
3999,6404;-0,0027792
4000,6045;-0,00241927

##### Extended Information
[Comments]
Sample name
Comment
Username
Division
Organization;UNIVERSIDAD INDUSTRIAL DE SANTANDER

[Detailed Information]
Creation date;28/02/2025 4:13 p.m.

Data array type;Linear data array
Horizontal axis;Wavenumber [cm-1]
Vertical axis;Abs
Start;399,193 cm-1
End;4000,6 cm-1
Data interval;0,964233 cm-1
Data points;3736    

[Measurement Information]
Model name;FT/IR-4X1typeA
Serial No.;A035162111

Accessory;ATR PRO 4X
Accessory S/N;A021162126
Incident angle;45 deg

Measurement date;28/02/2025 4:13 p.m.

Light source;Standard
Detector;TGS
Accumulation;40
Resolution;4 cm-1
Zero filling;On
Apodization;Cosine
Gain;Auto (8)
Aperture;Auto (7 mm)
Scan speed;Auto (2 mm/sec)
Filter;Auto (12800 Hz)

