TITLE;
DATA TYPE;INFRARED SPECTRUM
ORIGIN;JASCO
OWNER;
DATE;25/02/28
TIME;15:56:03
SPECTROMETER/DATA SYSTEM;
LOCALE;9226
RESOLUTION;
DELTAX;0,964233
XUNITS;1/CM
YUNITS;ABSORBANCE
FIRSTX;  399,1927
LASTX; 4000,6047
NPOINTS;    3736
FIRSTY;     0,16472
MAXY;     0,20362
MINY;    -0,00312
XYDATA
399,1927;0,164716
400,1569;0,161827
401,1211;0,159302
402,0854;0,157533
403,0496;0,156426
404,0138;0,155672
404,9781;0,154961
405,9423;0,154144
406,9065;0,153296
407,8708;0,152628
408,8350;0,152322
409,7992;0,152396
410,7635;0,152712
411,7277;0,153099
412,6919;0,153513
413,6562;0,154087
414,6204;0,155069
415,5846;0,156689
416,5489;0,158985
417,5131;0,161554
418,4773;0,16345
419,4416;0,163771
420,4058;0,162633
421,3700;0,160987
422,3343;0,159629
423,2985;0,158808
424,2627;0,15839
425,2270;0,15811
426,1912;0,157771
427,1554;0,157358
428,1197;0,157021
429,0839;0,156967
430,0481;0,157332
431,0124;0,158116
431,9766;0,159176
432,9408;0,160264
433,9051;0,1611
434,8693;0,16145
435,8335;0,161223
436,7978;0,160547
437,7620;0,159737
438,7262;0,159165
439,6905;0,159081
440,6547;0,159485
441,6189;0,160092
442,5832;0,16044
443,5474;0,160143
444,5116;0,159154
445,4759;0,157802
446,4401;0,15658
447,4043;0,15587
448,3686;0,155778
449,3328;0,156137
450,2970;0,156622
451,2613;0,156931
452,2255;0,156941
453,1897;0,156757
454,1540;0,156615
455,1182;0,156723
456,0824;0,157103
457,0467;0,157531
458,0109;0,157634
458,9751;0,157155
459,9394;0,156164
460,9036;0,154974
461,8678;0,153927
462,8321;0,153241
463,7963;0,152991
464,7605;0,153136
465,7248;0,153561
466,6890;0,154114
467,6532;0,154642
468,6175;0,155007
469,5817;0,155104
470,5459;0,154881
471,5102;0,154376
472,4744;0,153718
473,4386;0,153076
474,4029;0,15256
475,3671;0,152178
476,3313;0,151884
477,2956;0,151641
478,2598;0,151463
479,2240;0,151399
480,1883;0,151496
481,1525;0,151751
482,1167;0,152099
483,0810;0,152424
484,0452;0,152614
485,0094;0,15261
485,9737;0,152446
486,9379;0,152223
487,9021;0,152061
488,8664;0,152044
489,8306;0,152195
490,7948;0,152476
491,7591;0,152818
492,7233;0,153154
493,6875;0,153455
494,6518;0,153729
495,6160;0,153993
496,5802;0,154257
497,5445;0,154504
498,5087;0,154708
499,4729;0,154841
500,4372;0,154893
501,4014;0,154884
502,3656;0,154863
503,3299;0,154889
504,2941;0,155001
505,2583;0,155195
506,2226;0,15542
507,1868;0,155599
508,1510;0,15568
509,1153;0,15567
510,0795;0,155652
511,0437;0,155742
512,0080;0,156037
512,9722;0,156565
513,9365;0,157278
514,9007;0,158077
515,8649;0,158844
516,8292;0,159474
517,7934;0,159897
518,7576;0,160101
519,7219;0,160126
520,6861;0,160054
521,6503;0,159971
522,6146;0,159945
523,5788;0,160009
524,5430;0,160141
525,5073;0,160271
526,4715;0,160314
527,4357;0,16021
528,4000;0,159958
529,3642;0,159608
530,3284;0,159234
531,2927;0,158902
532,2569;0,158658
533,2211;0,158514
534,1854;0,158437
535,1496;0,158365
536,1138;0,158234
537,0781;0,158007
538,0423;0,1577
539,0065;0,15738
539,9708;0,157133
540,9350;0,157023
541,8992;0,157065
542,8635;0,157232
543,8277;0,157467
544,7919;0,157717
545,7562;0,157941
546,7204;0,15812
547,6846;0,158248
548,6489;0,15833
549,6131;0,15839
550,5773;0,15847
551,5416;0,158624
552,5058;0,158897
553,4700;0,159301
554,4343;0,159799
555,3985;0,160307
556,3627;0,160711
557,3270;0,160895
558,2912;0,160776
559,2554;0,160322
560,2197;0,159561
561,1839;0,15858
562,1481;0,157506
563,1124;0,15648
564,0766;0,155616
565,0408;0,154973
566,0051;0,154537
566,9693;0,154237
567,9335;0,153982
568,8978;0,153715
569,8620;0,153438
570,8262;0,153203
571,7905;0,15307
572,7547;0,153062
573,7189;0,153151
574,6832;0,15327
575,6474;0,153345
576,6116;0,153326
577,5759;0,153197
578,5401;0,152968
579,5043;0,152655
580,4686;0,152278
581,4328;0,151867
582,3970;0,151463
583,3613;0,151117
584,3255;0,150866
585,2897;0,15073
586,2540;0,15071
587,2182;0,150801
588,1824;0,150988
589,1467;0,151248
590,1109;0,151528
591,0751;0,151753
592,0394;0,151846
593,0036;0,15177
593,9678;0,151542
594,9321;0,151222
595,8963;0,150866
596,8605;0,150504
597,8248;0,150129
598,7890;0,149727
599,7532;0,149296
600,7175;0,148863
601,6817;0,14846
602,6459;0,148108
603,6102;0,147798
604,5744;0,1475
605,5386;0,147177
606,5029;0,146802
607,4671;0,146356
608,4313;0,145832
609,3956;0,14524
610,3598;0,144627
611,3240;0,144085
612,2883;0,143726
613,2525;0,143633
614,2167;0,143789
615,1810;0,144037
616,1452;0,144108
617,1094;0,143734
618,0737;0,142786
619,0379;0,141357
620,0021;0,139712
620,9664;0,138146
621,9306;0,136856
622,8948;0,135888
623,8591;0,135167
624,8233;0,134497
625,7875;0,133906
626,7518;0,133348
627,7160;0,132825
628,6802;0,132346
629,6445;0,131914
630,6087;0,131512
631,5729;0,131127
632,5372;0,130758
633,5014;0,130412
634,4656;0,130105
635,4299;0,129842
636,3941;0,129621
637,3583;0,129433
638,3226;0,129267
639,2868;0,129113
640,2510;0,128963
641,2153;0,128813
642,1795;0,128661
643,1437;0,128514
644,1080;0,128382
645,0722;0,128269
646,0364;0,128164
647,0007;0,128041
647,9649;0,127871
648,9291;0,12764
649,8934;0,127367
650,8576;0,127101
651,8218;0,126897
652,7861;0,126802
653,7503;0,126832
654,7145;0,126961
655,6788;0,127132
656,6430;0,127279
657,6072;0,127363
658,5715;0,12739
659,5357;0,12738
660,4999;0,127302
661,4642;0,127027
662,4284;0,126342
663,3926;0,125037
664,3569;0,123082
665,3211;0,120879
666,2853;0,119386
667,2496;0,119618
668,2138;0,121361
669,1780;0,123035
670,1423;0,123769
671,1065;0,123769
672,0707;0,123197
673,0350;0,122073
673,9992;0,120557
674,9634;0,118938
675,9277;0,117455
676,8919;0,116178
677,8561;0,115039
678,8204;0,113946
679,7846;0,112865
680,7488;0,111813
681,7131;0,110816
682,6773;0,109875
683,6415;0,108981
684,6058;0,108131
685,5700;0,10734
686,5342;0,10662
687,4985;0,105969
688,4627;0,105377
689,4269;0,104814
690,3912;0,104272
691,3554;0,10376
692,3196;0,103286
693,2839;0,102841
694,2481;0,102396
695,2123;0,101922
696,1766;0,101404
697,1408;0,100852
698,1050;0,100292
699,0693;0,0997491
700,0335;0,0992326
700,9977;0,0987374
701,9620;0,0982515
702,9262;0,0977685
703,8904;0,0972701
704,8547;0,0967788
705,8189;0,0963128
706,7831;0,0958758
707,7474;0,0954516
708,7116;0,0950111
709,6758;0,0945252
710,6401;0,093975
711,6043;0,0933568
712,5685;0,0926862
713,5328;0,0920023
714,4970;0,0913662
715,4612;0,0894266
716,4255;0,0893525
717,3897;0,0895065
718,3539;0,0896881
719,3182;0,089611
720,2824;0,0890436
721,2466;0,0879484
722,2109;0,0865112
723,1751;0,0850307
724,1393;0,0837587
725,1036;0,0827985
726,0678;0,0821022
727,0320;0,0815393
727,9963;0,080985
728,9605;0,0803774
729,9247;0,0797239
730,8890;0,0790685
731,8532;0,0784531
732,8174;0,0778986
733,7817;0,0774042
734,7459;0,076958
735,7101;0,0765458
736,6744;0,076157
737,6386;0,0757867
738,6028;0,0754344
739,5671;0,0750992
740,5313;0,0747747
741,4955;0,0744471
742,4598;0,0741007
743,4240;0,0737261
744,3882;0,0733253
745,3525;0,072907
746,3167;0,0724779
747,2809;0,0720364
748,2452;0,0715767
749,2094;0,071099
750,1736;0,0706174
751,1379;0,0701558
752,1021;0,0697355
753,0663;0,0693609
754,0306;0,0690171
754,9948;0,0686781
755,9590;0,0683225
756,9233;0,0679421
757,8875;0,0675421
758,8517;0,0671335
759,8160;0,0667268
760,7802;0,06633
761,7444;0,0659509
762,7087;0,0655993
763,6729;0,0652839
764,6371;0,0650071
765,6014;0,0647604
766,5656;0,0645252
767,5298;0,0642788
768,4941;0,0640035
769,4583;0,0636939
770,4225;0,0633587
771,3868;0,0630156
772,3510;0,0626821
773,3152;0,0623661
774,2795;0,0620633
775,2437;0,0617608
776,2079;0,0614478
777,1722;0,0611247
778,1364;0,0608041
779,1006;0,0605032
780,0649;0,0602316
781,0291;0,0599824
781,9933;0,0597356
782,9576;0,0594692
783,9218;0,0591736
784,8860;0,058858
785,8503;0,0585454
786,8145;0,0582597
787,7787;0,0580142
788,7430;0,0578072
789,7072;0,0576269
790,6714;0,0574605
791,6357;0,0572993
792,5999;0,057139
793,5641;0,0569747
794,5284;0,0567985
795,4926;0,0566015
796,4568;0,0563805
797,4211;0,0561449
798,3853;0,0559169
799,3495;0,0557239
800,3138;0,055585
801,2780;0,0555008
802,2422;0,0554514
803,2065;0,0554037
804,1707;0,0553253
805,1349;0,0551964
806,0992;0,0550159
807,0634;0,0547988
808,0276;0,0545686
808,9919;0,0543482
809,9561;0,0541531
810,9203;0,0539883
811,8846;0,0538493
812,8488;0,0537263
813,8130;0,0536113
814,7773;0,053503
815,7415;0,0534088
816,7057;0,0533403
817,6700;0,0533045
818,6342;0,0532963
819,5984;0,0532973
820,5627;0,0532828
821,5269;0,0532335
822,4911;0,053145
823,4554;0,0530289
824,4196;0,0529061
825,3839;0,0527964
826,3481;0,0527106
827,3123;0,0526505
828,2766;0,0526118
829,2408;0,052589
830,2050;0,0525756
831,1693;0,0525631
832,1335;0,0525385
833,0977;0,0524864
834,0620;0,0523927
835,0262;0,0522491
835,9904;0,0520553
836,9547;0,0518187
837,9189;0,0515516
838,8831;0,0512695
839,8474;0,0509892
840,8116;0,0507273
841,7758;0,0504964
842,7401;0,0503026
843,7043;0,0501431
844,6685;0,0500087
845,6328;0,0498893
846,5970;0,0497803
847,5612;0,0496854
848,5255;0,0496139
849,4897;0,0495725
850,4539;0,0495582
851,4182;0,0495556
852,3824;0,0495433
853,3466;0,049504
854,3109;0,0494348
855,2751;0,049349
856,2393;0,049269
857,2036;0,0492143
858,1678;0,0491931
859,1320;0,0492003
860,0963;0,0492248
861,0605;0,0492578
862,0247;0,0492984
862,9890;0,0493527
863,9532;0,0494284
864,9174;0,0495292
865,8817;0,0496529
866,8459;0,0497923
867,8101;0,0499369
868,7744;0,0500755
869,7386;0,050197
870,7028;0,0502919
871,6671;0,0503545
872,6313;0,0503837
873,5955;0,0503834
874,5598;0,0503615
875,5240;0,0503285
876,4882;0,0502965
877,4525;0,0502784
878,4167;0,0502864
879,3809;0,050329
880,3452;0,0504096
881,3094;0,0505279
882,2736;0,0506838
883,2379;0,0508829
884,2021;0,0511377
885,1663;0,0514652
886,1306;0,0518791
887,0948;0,0523831
888,0590;0,0529682
889,0233;0,0536162
889,9875;0,0543051
890,9517;0,0550152
891,9160;0,0557306
892,8802;0,0564357
893,8444;0,0571101
894,8087;0,0577243
895,7729;0,0582398
896,7371;0,0586154
897,7014;0,0588177
898,6656;0,058832
899,6298;0,0586684
900,5941;0,0583602
901,5583;0,0579533
902,5225;0,0574925
903,4868;0,0570112
904,4510;0,0565279
905,4152;0,0560527
906,3795;0,0555964
907,3437;0,0551779
908,3079;0,054825
909,2722;0,0545663
910,2364;0,0544199
911,2007;0,054385
912,1649;0,0544409
913,1292;0,0545549
914,0934;0,0546963
915,0576;0,0548483
916,0219;0,055012
916,9861;0,0552001
917,9503;0,0554242
918,9146;0,0556824
919,8788;0,0559559
920,8430;0,0562172
921,8073;0,0564431
922,7715;0,0566273
923,7357;0,0567816
924,7000;0,0569278
925,6642;0,0570835
926,6284;0,0572518
927,5927;0,0574205
928,5569;0,0575697
929,5211;0,0576834
930,4854;0,0577572
931,4496;0,0577987
932,4138;0,057823
933,3781;0,0578452
934,3423;0,057877
935,3065;0,0579265
936,2708;0,0580005
937,2350;0,058107
938,1992;0,0582548
939,1635;0,0584516
940,1277;0,0587012
941,0919;0,0590034
942,0562;0,0593555
943,0204;0,059754
943,9846;0,0601962
944,9489;0,0606812
945,9131;0,0612097
946,8773;0,061785
947,8416;0,0624142
948,8058;0,0631079
949,7700;0,0638782
950,7343;0,0647331
951,6985;0,0656724
952,6627;0,0666876
953,6270;0,0677664
954,5912;0,0689013
955,5554;0,0700953
956,5197;0,0713611
957,4839;0,0727137
958,4481;0,0741585
959,4124;0,0756839
960,3766;0,0772618
961,3408;0,0788566
962,3051;0,0804384
963,2693;0,0819941
964,2335;0,0835312
965,1978;0,0850736
966,1620;0,0866519
967,1262;0,0882931
968,0905;0,0900138
969,0547;0,0918199
970,0189;0,093711
970,9832;0,0956895
971,9474;0,0977686
972,9116;0,0999754
973,8759;0,102349
974,8401;0,10493
975,8043;0,107749
976,7686;0,110815
977,7328;0,114107
978,6970;0,117578
979,6613;0,121158
980,6255;0,124761
981,5897;0,128294
982,5540;0,131665
983,5182;0,134788
984,4824;0,137598
985,4467;0,140063
986,4109;0,142183
987,3751;0,143993
988,3394;0,145545
989,3036;0,146891
990,2678;0,148073
991,2321;0,149115
992,1963;0,150033
993,1605;0,150842
994,1248;0,151563
995,0890;0,152218
996,0532;0,152823
997,0175;0,15339
997,9817;0,153925
998,9459;0,154432
999,9102;0,154923
1000,8744;0,155417
1001,8386;0,155938
1002,8029;0,156516
1003,7671;0,157188
1004,7313;0,157993
1005,6956;0,158977
1006,6598;0,160185
1007,6240;0,161652
1008,5883;0,163391
1009,5525;0,165393
1010,5167;0,167626
1011,4810;0,170038
1012,4452;0,172559
1013,4094;0,175112
1014,3737;0,177617
1015,3379;0,180004
1016,3021;0,182222
1017,2664;0,184249
1018,2306;0,186093
1019,1948;0,187779
1020,1591;0,189343
1021,1233;0,190822
1022,0875;0,192248
1023,0518;0,193647
1024,0160;0,195035
1024,9802;0,196419
1025,9445;0,197791
1026,9087;0,199127
1027,8729;0,200391
1028,8372;0,201535
1029,8014;0,2025
1030,7656;0,203218
1031,7299;0,203615
1032,6941;0,203618
1033,6583;0,20317
1034,6226;0,202255
1035,5868;0,200915
1036,5510;0,199251
1037,5153;0,197419
1038,4795;0,195599
1039,4437;0,193956
1040,4080;0,192611
1041,3722;0,191622
1042,3364;0,190977
1043,3007;0,190612
1044,2649;0,190427
1045,2291;0,190319
1046,1934;0,19019
1047,1576;0,189967
1048,1218;0,189595
1049,0861;0,189037
1050,0503;0,188263
1051,0145;0,187253
1051,9788;0,185996
1052,9430;0,184497
1053,9072;0,182777
1054,8715;0,180869
1055,8357;0,178798
1056,7999;0,176568
1057,7642;0,174152
1058,7284;0,171502
1059,6926;0,168577
1060,6569;0,165373
1061,6211;0,16194
1062,5853;0,158379
1063,5496;0,15482
1064,5138;0,151394
1065,4780;0,148203
1066,4423;0,145306
1067,4065;0,142718
1068,3707;0,140415
1069,3350;0,138348
1070,2992;0,136457
1071,2634;0,134679
1072,2277;0,132959
1073,1919;0,131253
1074,1561;0,129527
1075,1204;0,127758
1076,0846;0,12593
1077,0488;0,124041
1078,0131;0,122106
1078,9773;0,120155
1079,9415;0,118234
1080,9058;0,116398
1081,8700;0,114693
1082,8342;0,11315
1083,7985;0,11178
1084,7627;0,110572
1085,7269;0,109511
1086,6912;0,108576
1087,6554;0,107756
1088,6196;0,107045
1089,5839;0,106441
1090,5481;0,105944
1091,5123;0,105557
1092,4766;0,105285
1093,4408;0,105134
1094,4050;0,105107
1095,3693;0,105202
1096,3335;0,105405
1097,2977;0,105696
1098,2620;0,106051
1099,2262;0,106445
1100,1904;0,106849
1101,1547;0,107234
1102,1189;0,107568
1103,0831;0,107822
1104,0474;0,107975
1105,0116;0,108017
1105,9758;0,107954
1106,9401;0,107796
1107,9043;0,107549
1108,8685;0,107206
1109,8328;0,106739
1110,7970;0,106107
1111,7612;0,105275
1112,7255;0,104232
1113,6897;0,103007
1114,6539;0,101669
1115,6182;0,10031
1116,5824;0,0990173
1117,5466;0,0978499
1118,5109;0,0968224
1119,4751;0,0959077
1120,4393;0,0950504
1121,4036;0,0941822
1122,3678;0,0932365
1123,3320;0,0921572
1124,2963;0,0909059
1125,2605;0,0894667
1126,2247;0,0878486
1127,1890;0,0860829
1128,1532;0,0842153
1129,1174;0,0822954
1130,0817;0,0803664
1131,0459;0,0784614
1132,0101;0,076605
1132,9744;0,0748179
1133,9386;0,0731225
1134,9028;0,0715455
1135,8671;0,0701165
1136,8313;0,0688644
1137,7955;0,0678122
1138,7598;0,0669721
1139,7240;0,0663427
1140,6882;0,0659084
1141,6525;0,0656436
1142,6167;0,0655181
1143,5809;0,0655046
1144,5452;0,0655824
1145,5094;0,0657392
1146,4736;0,0659686
1147,4379;0,0662662
1148,4021;0,0666266
1149,3663;0,0670425
1150,3306;0,0675056
1151,2948;0,068007
1152,2590;0,068537
1153,2233;0,0690809
1154,1875;0,0696142
1155,1517;0,0700997
1156,1160;0,0704874
1157,0802;0,0707182
1158,0444;0,0707301
1159,0087;0,0704646
1159,9729;0,0698714
1160,9371;0,0689133
1161,9014;0,0675724
1162,8656;0,0658564
1163,8298;0,0638039
1164,7941;0,0614834
1165,7583;0,0589864
1166,7225;0,0564142
1167,6868;0,0538644
1168,6510;0,0514196
1169,6152;0,0491412
1170,5795;0,0470676
1171,5437;0,0452149
1172,5079;0,0435802
1173,4722;0,0421469
1174,4364;0,0408918
1175,4006;0,0397929
1176,3649;0,0388337
1177,3291;0,0380039
1178,2933;0,0372962
1179,2576;0,0367016
1180,2218;0,0362082
1181,1860;0,035803
1182,1503;0,035476
1183,1145;0,035223
1184,0787;0,0350439
1185,0430;0,0349386
1186,0072;0,0349031
1186,9714;0,034929
1187,9357;0,0350074
1188,8999;0,0351345
1189,8641;0,0353142
1190,8284;0,0355569
1191,7926;0,0358751
1192,7568;0,0362768
1193,7211;0,0367628
1194,6853;0,0373265
1195,6495;0,0379556
1196,6138;0,0386342
1197,5780;0,0393451
1198,5422;0,0400704
1199,5065;0,0405375
1200,4707;0,0412795
1201,4349;0,0420058
1202,3992;0,0427166
1203,3634;0,0434162
1204,3276;0,0441099
1205,2919;0,044801
1206,2561;0,0454906
1207,2203;0,0461798
1208,1846;0,0468725
1209,1488;0,0475773
1210,1130;0,0483061
1211,0773;0,0490723
1212,0415;0,0498859
1213,0057;0,0507509
1213,9700;0,051664
1214,9342;0,0526153
1215,8984;0,0535909
1216,8627;0,0545743
1217,8269;0,0555486
1218,7911;0,0565014
1219,7554;0,0574242
1220,7196;0,0583115
1221,6838;0,0591584
1222,6481;0,0599598
1223,6123;0,0607104
1224,5765;0,0614069
1225,5408;0,0620507
1226,5050;0,0626494
1227,4692;0,063215
1228,4335;0,0637587
1229,3977;0,0642849
1230,3619;0,0647881
1231,3262;0,0652546
1232,2904;0,0656674
1233,2546;0,0660145
1234,2189;0,066293
1235,1831;0,0665102
1236,1473;0,0666802
1237,1116;0,0668182
1238,0758;0,0669352
1239,0400;0,0670346
1240,0043;0,0671114
1240,9685;0,0671534
1241,9327;0,0671457
1242,8970;0,067076
1243,8612;0,0669383
1244,8254;0,0667349
1245,7897;0,0664735
1246,7539;0,0661637
1247,7181;0,0658139
1248,6824;0,0654298
1249,6466;0,0650163
1250,6108;0,0645782
1251,5751;0,0641219
1252,5393;0,0636547
1253,5035;0,0631844
1254,4678;0,0627172
1255,4320;0,0622548
1256,3962;0,0617924
1257,3605;0,0613176
1258,3247;0,0608131
1259,2889;0,0602627
1260,2532;0,0596582
1261,2174;0,0590026
1262,1816;0,0583088
1263,1459;0,0575931
1264,1101;0,0568696
1265,0743;0,0561462
1266,0386;0,055424
1267,0028;0,0546975
1267,9670;0,053956
1268,9313;0,0531867
1269,8955;0,052379
1270,8597;0,0515301
1271,8240;0,0506483
1272,7882;0,049752
1273,7524;0,0488655
1274,7167;0,0480126
1275,6809;0,0472109
1276,6451;0,0464686
1277,6094;0,0457825
1278,5736;0,0451394
1279,5378;0,0445211
1280,5021;0,0439117
1281,4663;0,0433065
1282,4305;0,0427138
1283,3948;0,0421511
1284,3590;0,0416358
1285,3232;0,0411759
1286,2875;0,0407675
1287,2517;0,0403985
1288,2159;0,0400574
1289,1802;0,0397415
1290,1444;0,0394593
1291,1086;0,0392273
1292,0729;0,0390625
1293,0371;0,0389754
1294,0013;0,0389667
1294,9656;0,0390277
1295,9298;0,0391458
1296,8940;0,0393103
1297,8583;0,0395179
1298,8225;0,0397731
1299,7867;0,0400846
1300,7510;0,0404586
1301,7152;0,0408978
1302,6794;0,0413951
1303,6437;0,0419366
1304,6079;0,0425079
1305,5721;0,0430979
1306,5364;0,043702
1307,5006;0,044324
1308,4648;0,0449727
1309,4291;0,0456548
1310,3933;0,046366
1311,3575;0,0470868
1312,3218;0,0477853
1313,2860;0,0484277
1314,2502;0,0489878
1315,2145;0,0494478
1316,1787;0,0497895
1317,1429;0,0499879
1318,1072;0,0500173
1319,0714;0,049871
1320,0356;0,0495791
1320,9999;0,0492063
1321,9641;0,0488266
1322,9283;0,0484966
1323,8926;0,0482414
1324,8568;0,0480592
1325,8210;0,0479331
1326,7853;0,0478436
1327,7495;0,0477735
1328,7137;0,047708
1329,6780;0,0476329
1330,6422;0,0475378
1331,6064;0,0474247
1332,5707;0,0473122
1333,5349;0,047234
1334,4991;0,0472219
1335,4634;0,0472816
1336,4276;0,0473677
1337,3918;0,0473721
1338,3561;0,0471509
1339,3203;0,0466101
1340,2845;0,0457915
1341,2488;0,0448586
1342,2130;0,0439906
1343,1772;0,0432961
1344,1415;0,0428041
1345,1057;0,0424942
1346,0699;0,0423267
1347,0342;0,0422605
1347,9984;0,0422667
1348,9626;0,0423351
1349,9269;0,0424712
1350,8911;0,0426836
1351,8553;0,0429722
1352,8196;0,0433229
1353,7838;0,0437139
1354,7480;0,0441284
1355,7123;0,0445678
1356,6765;0,045053
1357,6407;0,0456136
1358,6050;0,0462712
1359,5692;0,0470186
1360,5334;0,0477957
1361,4977;0,048485
1362,4619;0,0489728
1363,4261;0,0492467
1364,3904;0,0494063
1365,3546;0,0495684
1366,3188;0,0497902
1367,2831;0,0500664
1368,2473;0,0503614
1369,2115;0,0506405
1370,1758;0,0508837
1371,1400;0,0510785
1372,1042;0,0512
1373,0685;0,0511962
1374,0327;0,0510073
1374,9969;0,0506155
1375,9612;0,0500659
1376,9254;0,0494186
1377,8896;0,0486921
1378,8539;0,0478698
1379,8181;0,0469508
1380,7823;0,0459849
1381,7466;0,0450577
1382,7108;0,0442366
1383,6750;0,0435292
1384,6393;0,042884
1385,6035;0,04222
1386,5677;0,0414792
1387,5320;0,0406898
1388,4962;0,0399687
1389,4604;0,0394231
1390,4247;0,0390724
1391,3889;0,0388789
1392,3531;0,038814
1393,3174;0,0388699
1394,2816;0,0390173
1395,2458;0,0391725
1396,2101;0,0392287
1397,1743;0,0391294
1398,1385;0,0389112
1399,1028;0,0386808
1400,0670;0,0385485
1401,0313;0,0385698
1401,9955;0,0387297
1402,9597;0,0389686
1403,9240;0,0392219
1404,8882;0,0394547
1405,8524;0,0396804
1406,8167;0,0399453
1407,7809;0,0402847
1408,7451;0,0406982
1409,7094;0,0411672
1410,6736;0,0416838
1411,6378;0,0422588
1412,6021;0,0429008
1413,5663;0,0435912
1414,5305;0,0442823
1415,4948;0,0449231
1416,4590;0,0454714
1417,4232;0,0458777
1418,3875;0,0461043
1419,3517;0,0462175
1420,3159;0,0463723
1421,2802;0,0466301
1422,2444;0,0468854
1423,2086;0,0469799
1424,1729;0,0468289
1425,1371;0,0464557
1426,1013;0,0459444
1427,0656;0,0453689
1428,0298;0,0447585
1428,9940;0,0441155
1429,9583;0,0434526
1430,9225;0,0427996
1431,8867;0,0421607
1432,8510;0,0414826
1433,8152;0,0406834
1434,7794;0,0397134
1435,7437;0,0386113
1436,7079;0,0375528
1437,6721;0,0368029
1438,6364;0,0365056
1439,6006;0,0365614
1440,5648;0,0367576
1441,5291;0,0369472
1442,4933;0,0371053
1443,4575;0,0372834
1444,4218;0,0375342
1445,3860;0,0378627
1446,3502;0,0382314
1447,3145;0,0386037
1448,2787;0,0389868
1449,2429;0,039426
1450,2072;0,0399416
1451,1714;0,0404723
1452,1356;0,0408997
1453,0999;0,0411371
1454,0641;0,0412052
1455,0283;0,0412054
1455,9926;0,0411214
1456,9568;0,0407219
1457,9210;0,0400697
1458,8853;0,0396819
1459,8495;0,0397411
1460,8137;0,039957
1461,7780;0,0400043
1462,7422;0,0397324
1463,7064;0,0391459
1464,6707;0,0383521
1465,6349;0,0375319
1466,5991;0,0368387
1467,5634;0,0362664
1468,5276;0,0356806
1469,4918;0,0349633
1470,4561;0,0340823
1471,4203;0,0330269
1472,3845;0,0317231
1473,3488;0,0301524
1474,3130;0,0285445
1475,2772;0,0271998
1476,2415;0,0262124
1477,2057;0,0255015
1478,1699;0,024958
1479,1342;0,0245072
1480,0984;0,0241098
1481,0626;0,0237568
1482,0269;0,0234715
1482,9911;0,0232997
1483,9553;0,0232873
1484,9196;0,0234652
1485,8838;0,0238477
1486,8480;0,0244054
1487,8123;0,0249852
1488,7765;0,0253098
1489,7407;0,0252431
1490,7050;0,0250027
1491,6692;0,0248897
1492,6334;0,0249979
1493,5977;0,0252801
1494,5619;0,0257099
1495,5261;0,0263188
1496,4904;0,0271165
1497,4546;0,0280293
1498,4188;0,0289799
1499,3831;0,0299429
1500,3473;0,0308443
1501,3115;0,0315242
1502,2758;0,031853
1503,2400;0,0318783
1504,2042;0,0319205
1505,1685;0,0324853
1506,1327;0,0336962
1507,0969;0,0346661
1508,0612;0,0346095
1509,0254;0,0340106
1509,9896;0,0334482
1510,9539;0,0329879
1511,9181;0,0325464
1512,8823;0,0321095
1513,8466;0,0317128
1514,8108;0,0313536
1515,7750;0,0309513
1516,7393;0,0303996
1517,7035;0,0296557
1518,6677;0,0287746
1519,6320;0,0278732
1520,5962;0,0270757
1521,5604;0,0264745
1522,5247;0,0261021
1523,4889;0,0259071
1524,4531;0,0257765
1525,4174;0,0256145
1526,3816;0,0254063
1527,3458;0,0252064
1528,3101;0,0250679
1529,2743;0,0250023
1530,2385;0,0250097
1531,2028;0,0251218
1532,1670;0,0253781
1533,1312;0,0257542
1534,0955;0,0261421
1535,0597;0,026405
1536,0239;0,0264434
1536,9882;0,0262798
1537,9524;0,0261511
1538,9166;0,0264546
1539,8809;0,0272989
1540,8451;0,0280364
1541,8093;0,0280736
1542,7736;0,0276993
1543,7378;0,0273102
1544,7020;0,0270004
1545,6663;0,0267812
1546,6305;0,0266805
1547,5947;0,0266995
1548,5590;0,0267836
1549,5232;0,0268549
1550,4874;0,0268696
1551,4517;0,026842
1552,4159;0,0268077
1553,3801;0,0267553
1554,3444;0,0266103
1555,3086;0,0262997
1556,2728;0,0258122
1557,2371;0,0251049
1558,2013;0,0239967
1559,1655;0,0227835
1560,1298;0,0224654
1561,0940;0,0232922
1562,0582;0,0246263
1563,0225;0,0258493
1563,9867;0,0266835
1564,9509;0,0271151
1565,9152;0,0272693
1566,8794;0,0273123
1567,8436;0,0273789
1568,8079;0,0275384
1569,7721;0,0278123
1570,7363;0,0281835
1571,7006;0,0285792
1572,6648;0,0289079
1573,6290;0,0291453
1574,5933;0,0293572
1575,5575;0,0296151
1576,5217;0,0299303
1577,4860;0,0303256
1578,4502;0,0308367
1579,4144;0,0314076
1580,3787;0,0319293
1581,3429;0,0323534
1582,3071;0,0327188
1583,2714;0,0331055
1584,2356;0,0335734
1585,1998;0,0341367
1586,1641;0,0347725
1587,1283;0,0354436
1588,0925;0,0361128
1589,0568;0,036746
1590,0210;0,0373121
1590,9852;0,0377829
1591,9495;0,0381323
1592,9137;0,0383343
1593,8779;0,0383694
1594,8422;0,0382406
1595,8064;0,0379855
1596,7706;0,0376697
1597,7349;0,0373594
1598,6991;0,0370948
1599,6633;0,0368805
1600,6276;0,0366961
1601,5918;0,0365194
1602,5560;0,0363487
1603,5203;0,0362055
1604,4845;0,0361114
1605,4487;0,0360621
1606,4130;0,0360231
1607,3772;0,0359544
1608,3414;0,0358462
1609,3057;0,035736
1610,2699;0,0356745
1611,2341;0,0356634
1612,1984;0,0356404
1613,1626;0,0355389
1614,1268;0,0353589
1615,0911;0,0351785
1616,0553;0,0351095
1617,0195;0,0352636
1617,9838;0,035698
1618,9480;0,0363262
1619,9122;0,0369568
1620,8765;0,0374379
1621,8407;0,0377307
1622,8049;0,0378804
1623,7692;0,0379605
1624,7334;0,0380378
1625,6976;0,0381503
1626,6619;0,038307
1627,6261;0,0385115
1628,5903;0,0387664
1629,5546;0,039042
1630,5188;0,0392568
1631,4830;0,0393218
1632,4473;0,039228
1633,4115;0,0390946
1634,3757;0,0390794
1635,3400;0,0391814
1636,3042;0,0392811
1637,2684;0,0394245
1638,2327;0,0397189
1639,1969;0,0401065
1640,1611;0,0404414
1641,1254;0,0406178
1642,0896;0,0406099
1643,0538;0,0404795
1644,0181;0,0403671
1644,9823;0,0404099
1645,9465;0,0405874
1646,9108;0,040717
1647,8750;0,0406567
1648,8392;0,040331
1649,8035;0,039654
1650,7677;0,0386148
1651,7319;0,0373374
1652,6962;0,035984
1653,6604;0,0348571
1654,6246;0,034519
1655,5889;0,0350371
1656,5531;0,0358375
1657,5173;0,0363796
1658,4816;0,036446
1659,4458;0,0360752
1660,4100;0,0354219
1661,3743;0,034652
1662,3385;0,0339135
1663,3027;0,0333361
1664,2670;0,032968
1665,2312;0,0327371
1666,1954;0,0325217
1667,1597;0,0322316
1668,1239;0,0318146
1669,0881;0,0312386
1670,0524;0,0305311
1671,0166;0,0297916
1671,9808;0,0290733
1672,9451;0,0283283
1673,9093;0,027525
1674,8735;0,0267721
1675,8378;0,0263003
1676,8020;0,0262781
1677,7662;0,0266314
1678,7305;0,0270736
1679,6947;0,0272932
1680,6589;0,0271001
1681,6232;0,0264476
1682,5874;0,0253716
1683,5516;0,0240171
1684,5159;0,0228155
1685,4801;0,0222579
1686,4443;0,0223449
1687,4086;0,0226717
1688,3728;0,0228574
1689,3370;0,0227331
1690,3013;0,022318
1691,2655;0,0217334
1692,2297;0,0211333
1693,1940;0,0206659
1694,1582;0,0204385
1695,1224;0,0204545
1696,0867;0,0205528
1697,0509;0,0204504
1698,0151;0,0199497
1698,9794;0,0191783
1699,9436;0,0185748
1700,9078;0,0185379
1701,8721;0,0191016
1702,8363;0,0199734
1703,8005;0,0207926
1704,7648;0,0213311
1705,7290;0,0215631
1706,6932;0,0216367
1707,6575;0,0217635
1708,6217;0,0220807
1709,5859;0,0225921
1710,5502;0,0232201
1711,5144;0,023884
1712,4786;0,02454
1713,4429;0,0251746
1714,4071;0,0257585
1715,3713;0,0261696
1716,3356;0,0262011
1717,2998;0,0258445
1718,2640;0,0255045
1719,2283;0,0255869
1720,1925;0,0260933
1721,1567;0,026765
1722,1210;0,0273586
1723,0852;0,027763
1724,0494;0,0280026
1725,0137;0,0281935
1725,9779;0,0284709
1726,9421;0,0289086
1727,9064;0,0294715
1728,8706;0,0300307
1729,8348;0,0304223
1730,7991;0,0305076
1731,7633;0,0302065
1732,7275;0,0295374
1733,6918;0,028708
1734,6560;0,0280853
1735,6202;0,0278765
1736,5845;0,0279412
1737,5487;0,0279955
1738,5129;0,0278615
1739,4772;0,0275452
1740,4414;0,0271776
1741,4056;0,0268974
1742,3699;0,0267491
1743,3341;0,0266681
1744,2983;0,0265474
1745,2626;0,0263055
1746,2268;0,025896
1747,1910;0,0252652
1748,1553;0,0243197
1749,1195;0,0229949
1750,0837;0,0214134
1751,0480;0,0198981
1752,0122;0,01873
1752,9764;0,0179542
1753,9407;0,0174332
1754,9049;0,0169991
1755,8691;0,0165455
1756,8334;0,0160407
1757,7976;0,0154929
1758,7618;0,0149082
1759,7261;0,0142767
1760,6903;0,013598
1761,6545;0,0129178
1762,6188;0,0123258
1763,5830;0,0118982
1764,5472;0,0116396
1765,5115;0,0114874
1766,4757;0,0113629
1767,4399;0,0112147
1768,4042;0,0110263
1769,3684;0,0107967
1770,3326;0,0105138
1771,2969;0,0101591
1772,2611;0,00976278
1773,2253;0,00943946
1774,1896;0,00930096
1775,1538;0,00934397
1776,1180;0,00946452
1777,0823;0,00955328
1778,0465;0,00955722
1779,0107;0,00947805
1779,9750;0,00933936
1780,9392;0,00916045
1781,9034;0,00895287
1782,8677;0,00873421
1783,8319;0,00854299
1784,7961;0,00843402
1785,7604;0,00844694
1786,7246;0,00857291
1787,6888;0,00875641
1788,6531;0,00893456
1789,6173;0,00907289
1790,5815;0,00915998
1791,5458;0,00918175
1792,5100;0,00914339
1793,4742;0,00910735
1794,4385;0,00913327
1795,4027;0,00919884
1796,3669;0,00923179
1797,3312;0,00918825
1798,2954;0,00908002
1799,2596;0,00894483
1800,2239;0,0088061
1801,1881;0,00866568
1802,1523;0,00852532
1803,1166;0,00840083
1804,0808;0,00831681
1805,0450;0,00829534
1806,0093;0,00834608
1806,9735;0,00845797
1807,9377;0,00859418
1808,9020;0,00869719
1809,8662;0,00871147
1810,8304;0,00861754
1811,7947;0,00844756
1812,7589;0,00826055
1813,7231;0,00810285
1814,6874;0,00799252
1815,6516;0,00792864
1816,6158;0,00790408
1817,5801;0,00791214
1818,5443;0,00794936
1819,5085;0,00801451
1820,4728;0,0081041
1821,4370;0,00821029
1822,4012;0,00832235
1823,3655;0,00842824
1824,3297;0,00851858
1825,2939;0,00859172
1826,2582;0,00864922
1827,2224;0,00868067
1828,1866;0,00865596
1829,1509;0,00854398
1830,1151;0,00835615
1831,0793;0,00816643
1832,0436;0,00805826
1833,0078;0,00805336
1833,9720;0,00810849
1834,9363;0,00816554
1835,9005;0,0081915
1836,8647;0,00818797
1837,8290;0,00817689
1838,7932;0,0081748
1839,7574;0,00817802
1840,7217;0,00817803
1841,6859;0,00818537
1842,6501;0,00822266
1843,6144;0,00829105
1844,5786;0,00836474
1845,5428;0,00842228
1846,5071;0,00844887
1847,4713;0,00841504
1848,4355;0,00829215
1849,3998;0,00808759
1850,3640;0,00785236
1851,3282;0,00765375
1852,2925;0,00753697
1853,2567;0,00750687
1854,2209;0,00753817
1855,1852;0,00759933
1856,1494;0,00766785
1857,1136;0,0077322
1858,0779;0,0077841
1859,0421;0,00781678
1860,0063;0,00783216
1860,9706;0,00784833
1861,9348;0,00789557
1862,8990;0,00800157
1863,8633;0,00817841
1864,8275;0,00841988
1865,7917;0,00869812
1866,7560;0,0089475
1867,7202;0,00906154
1868,6844;0,00895539
1869,6487;0,00865702
1870,6129;0,0082928
1871,5771;0,00797591
1872,5414;0,00774678
1873,5056;0,00759847
1874,4698;0,00751502
1875,4341;0,00748169
1876,3983;0,00748179
1877,3625;0,00749668
1878,3268;0,00751482
1879,2910;0,0075356
1880,2552;0,00756607
1881,2195;0,00761261
1882,1837;0,00767466
1883,1479;0,00774468
1884,1122;0,0078133
1885,0764;0,00787433
1886,0406;0,00792568
1887,0049;0,0079659
1887,9691;0,00799028
1888,9333;0,00799421
1889,8976;0,00798381
1890,8618;0,00797853
1891,8260;0,00799593
1892,7903;0,00803433
1893,7545;0,00807125
1894,7188;0,008077
1895,6830;0,00803349
1896,6472;0,00794738
1897,6115;0,00784692
1898,5757;0,00776321
1899,5399;0,00771207
1900,5042;0,00769069
1901,4684;0,00768758
1902,4326;0,00769614
1903,3969;0,00772188
1904,3611;0,00777792
1905,3253;0,00787204
1906,2896;0,00799499
1907,2538;0,00811806
1908,2180;0,00820292
1909,1823;0,00822114
1910,1465;0,00817213
1911,1107;0,00808252
1912,0750;0,00798544
1913,0392;0,00790139
1914,0034;0,00783974
1914,9677;0,00781406
1915,9319;0,0078505
1916,8961;0,0079776
1917,8604;0,00820332
1918,8246;0,00849562
1919,7888;0,00878161
1920,7531;0,00897041
1921,7173;0,00899167
1922,6815;0,00883205
1923,6458;0,00854925
1924,6100;0,00824736
1925,5742;0,00802178
1926,5385;0,00791327
1927,5027;0,00790407
1928,4669;0,00794799
1929,4312;0,0080022
1930,3954;0,00804288
1931,3596;0,008064
1932,3239;0,00806612
1933,2881;0,00805013
1934,2523;0,00802028
1935,2166;0,00799
1936,1808;0,00798065
1937,1450;0,00801136
1938,1093;0,0080889
1939,0735;0,00820574
1940,0377;0,00834436
1941,0020;0,00848077
1941,9662;0,00858774
1942,9304;0,00864313
1943,8947;0,00863952
1944,8589;0,00858406
1945,8231;0,00849063
1946,7874;0,00837615
1947,7516;0,00826243
1948,7158;0,00817645
1949,6801;0,00814455
1950,6443;0,00818298
1951,6085;0,00828984
1952,5728;0,00844201
1953,5370;0,0085989
1954,5012;0,00871294
1955,4655;0,00874462
1956,4297;0,00867703
1957,3939;0,00852458
1958,3582;0,00833312
1959,3224;0,00817152
1960,2866;0,00811404
1961,2509;0,00821493
1962,2151;0,00848269
1963,1793;0,00886635
1964,1436;0,00926268
1965,1078;0,00954624
1966,0720;0,00961741
1967,0363;0,00945068
1968,0005;0,00910914
1968,9647;0,0087037
1969,9290;0,00832535
1970,8932;0,00800739
1971,8574;0,00774266
1972,8217;0,00753112
1973,7859;0,00741218
1974,7501;0,00744872
1975,7144;0,00767297
1976,6786;0,00803399
1977,6428;0,00840359
1978,6071;0,00864904
1979,5713;0,0087141
1980,5355;0,00864066
1981,4998;0,00852349
1982,4640;0,0084455
1983,4282;0,00843917
1984,3925;0,00848918
1985,3567;0,00856397
1986,3209;0,00865008
1987,2852;0,00876392
1988,2494;0,00893386
1989,2136;0,0091661
1990,1779;0,00941962
1991,1421;0,00961198
1992,1063;0,00965989
1993,0706;0,00952964
1994,0348;0,00925873
1994,9990;0,00893561
1995,9633;0,00865819
1996,9275;0,00849731
1997,8917;0,00847674
1998,8560;0,00857253
1999,8202;0,00873175
2000,7844;0,00890276
2001,7487;0,00906019
2002,7129;0,00921052
2003,6771;0,00937712
2004,6414;0,00957517
2005,6056;0,00979017
2006,5698;0,00997495
2007,5341;0,0100686
2008,4983;0,01003
2009,4625;0,00986702
2010,4268;0,0096447
2011,3910;0,00946799
2012,3552;0,00944496
2013,3195;0,0096421
2014,2837;0,0100457
2015,2479;0,0105481
2016,2122;0,0109791
2017,1764;0,0111826
2018,1406;0,0110996
2019,1049;0,010801
2020,0691;0,0104438
2021,0333;0,0101819
2021,9976;0,0100918
2022,9618;0,0101501
2023,9260;0,0102702
2024,8903;0,0103675
2025,8545;0,0104086
2026,8187;0,0104093
2027,7830;0,0103922
2028,7472;0,0103446
2029,7114;0,0102184
2030,6757;0,00997732
2031,6399;0,0096512
2032,6041;0,0093473
2033,5684;0,00919953
2034,5326;0,00928756
2035,4968;0,00958807
2036,4611;0,00999285
2037,4253;0,0103774
2038,3895;0,0106609
2039,3538;0,0108215
2040,3180;0,0108703
2041,2822;0,0108149
2042,2465;0,0106454
2043,2107;0,0103511
2044,1749;0,00995092
2045,1392;0,00950964
2046,1034;0,00912625
2047,0676;0,00889671
2048,0320;0,00887106
2048,9961;0,00903159
2049,9604;0,00930558
2050,9246;0,00959981
2051,8889;0,00983289
2052,8530;0,00995405
2053,8174;0,00995119
2054,7815;0,00984946
2055,7458;0,00970151
2056,7100;0,00956601
2057,6743;0,00948469
2058,6384;0,00947047
2059,6028;0,00951221
2060,5669;0,00958904
2061,5313;0,00968168
2062,4954;0,00977392
2063,4597;0,00984776
2064,4238;0,00988245
2065,3882;0,00986266
2066,3523;0,0097901
2067,3167;0,00968639
2068,2808;0,00958159
2069,2451;0,00949624
2070,2092;0,00943076
2071,1736;0,009371
2072,1377;0,00930461
2073,1021;0,00923652
2074,0662;0,00918788
2075,0305;0,00917889
2075,9946;0,00920821
2076,9590;0,00924684
2077,9231;0,00925299
2078,8875;0,00919935
2079,8516;0,00909451
2080,8159;0,00898306
2081,7800;0,00892373
2082,7444;0,00895811
2083,7085;0,00908861
2084,6729;0,00927681
2085,6370;0,00946283
2086,6013;0,00959285
2087,5654;0,00964131
2088,5298;0,00961789
2089,4939;0,00955823
2090,4583;0,0095049
2091,4224;0,00948813
2092,3867;0,00951388
2093,3508;0,00956289
2094,3152;0,00960035
2095,2793;0,00959312
2096,2437;0,00952746
2097,2078;0,00941732
2098,1721;0,00929751
2099,1362;0,0092045
2100,1006;0,00915917
2101,0647;0,00915073
2102,0291;0,00915927
2102,9932;0,00916342
2103,9575;0,00915693
2104,9216;0,00914933
2105,8860;0,00915381
2106,8501;0,00917288
2107,8145;0,0091938
2108,7786;0,0091972
2109,7429;0,00917184
2110,7070;0,00912374
2111,6714;0,00907337
2112,6355;0,00904387
2113,5999;0,0090492
2114,5640;0,0090896
2115,5283;0,00915498
2116,4924;0,00923148
2117,4568;0,00930653
2118,4209;0,00937062
2119,3853;0,00941715
2120,3494;0,0094424
2121,3137;0,00944597
2122,2778;0,00943124
2123,2422;0,00940533
2124,2063;0,00937857
2125,1707;0,00936361
2126,1348;0,00937355
2127,0991;0,00941883
2128,0632;0,00950401
2129,0276;0,0096266
2129,9917;0,00977916
2130,9561;0,00995317
2131,9202;0,0101411
2132,8845;0,010334
2133,8486;0,0105154
2134,8130;0,0106589
2135,7771;0,0107336
2136,7415;0,0107166
2137,7056;0,0106076
2138,6699;0,0104343
2139,6340;0,0102492
2140,5984;0,0101184
2141,5625;0,0101064
2142,5269;0,0102577
2143,4910;0,0105776
2144,4553;0,0110209
2145,4194;0,0114976
2146,3838;0,0119008
2147,3479;0,0121481
2148,3123;0,0122152
2149,2764;0,0121427
2150,2407;0,0120139
2151,2048;0,0119185
2152,1692;0,0119229
2153,1333;0,0120583
2154,0977;0,0123217
2155,0618;0,0126803
2156,0261;0,0130718
2156,9902;0,0134097
2157,9546;0,0136076
2158,9187;0,013618
2159,8831;0,0134531
2160,8472;0,0131614
2161,8115;0,0127892
2162,7756;0,0123687
2163,7400;0,0119378
2164,7041;0,0115576
2165,6685;0,0112978
2166,6326;0,0111951
2167,5969;0,0112192
2168,5610;0,0112828
2169,5254;0,0112956
2170,4895;0,0112246
2171,4539;0,0111177
2172,4180;0,0110718
2173,3823;0,0111645
2174,3464;0,0113935
2175,3108;0,0116699
2176,2749;0,0118679
2177,2393;0,0118973
2178,2034;0,0117477
2179,1677;0,0114824
2180,1318;0,0111966
2181,0962;0,0109684
2182,0603;0,0108294
2183,0247;0,010761
2183,9888;0,0107143
2184,9531;0,0106385
2185,9172;0,0105043
2186,8816;0,0103148
2187,8457;0,0101013
2188,8101;0,00990808
2189,7742;0,00977273
2190,7385;0,00971214
2191,7026;0,00971964
2192,6670;0,00977209
2193,6311;0,00983977
2194,5955;0,00989328
2195,5596;0,00990797
2196,5239;0,00986943
2197,4880;0,00978048
2198,4524;0,00966441
2199,4165;0,00955745
2200,3809;0,00949108
2201,3450;0,0094744
2202,3093;0,00949031
2203,2734;0,00951033
2204,2378;0,00951792
2205,2019;0,00952251
2206,1663;0,0095522
2207,1304;0,00962998
2208,0947;0,00975073
2209,0588;0,00987626
2210,0232;0,00995245
2210,9873;0,00993766
2211,9517;0,00982508
2212,9158;0,00964711
2213,8801;0,00946132
2214,8442;0,00932643
2215,8086;0,0092799
2216,7727;0,00932535
2217,7371;0,00943371
2218,7012;0,00955712
2219,6655;0,00964992
2220,6296;0,00968773
2221,5940;0,00967493
2222,5581;0,00963644
2223,5225;0,00959905
2224,4866;0,00957426
2225,4509;0,00955402
2226,4150;0,00952082
2227,3794;0,00946279
2228,3435;0,00938676
2229,3079;0,00931342
2230,2720;0,00926388
2231,2363;0,00924641
2232,2004;0,0092521
2233,1648;0,00926105
2234,1289;0,00925394
2235,0933;0,009222
2236,0574;0,00917136
2237,0217;0,0091215
2237,9858;0,00909899
2238,9502;0,00912736
2239,9143;0,00921557
2240,8787;0,00934913
2241,8428;0,00949038
2242,8071;0,00959116
2243,7712;0,00961468
2244,7356;0,00955542
2245,6997;0,00944535
2246,6641;0,00934122
2247,6282;0,00929877
2248,5925;0,00934783
2249,5566;0,00948108
2250,5210;0,00966084
2251,4851;0,00983751
2252,4495;0,00996891
2253,4136;0,0100319
2254,3779;0,0100242
2255,3420;0,00995952
2256,3064;0,00986024
2257,2705;0,00975074
2258,2349;0,00965177
2259,1990;0,0095763
2260,1633;0,00952748
2261,1274;0,0095005
2262,0918;0,00948807
2263,0559;0,00948709
2264,0203;0,00950199
2264,9844;0,0095416
2265,9487;0,00961057
2266,9128;0,00970089
2267,8772;0,00979035
2268,8413;0,0098507
2269,8057;0,00986193
2270,7698;0,00982376
2271,7341;0,00975634
2272,6982;0,00968841
2273,6626;0,00963981
2274,6267;0,00961015
2275,5911;0,00958178
2276,5552;0,00953549
2277,5195;0,00946775
2278,4836;0,0093966
2279,4480;0,00935166
2280,4121;0,00935575
2281,3765;0,00941205
2282,3406;0,0095059
2283,3049;0,00961909
2284,2690;0,00974502
2285,2334;0,00989402
2286,1975;0,0100861
2287,1619;0,0103373
2288,1260;0,0106505
2289,0903;0,0110134
2290,0544;0,0114059
2291,0188;0,011807
2291,9829;0,0122003
2292,9473;0,0125741
2293,9114;0,0129199
2294,8757;0,0132317
2295,8398;0,0135039
2296,8042;0,0137301
2297,7683;0,0139027
2298,7327;0,0140156
2299,6968;0,0140707
2300,6611;0,0140847
2301,6252;0,0140916
2302,5896;0,0141351
2303,5537;0,0142556
2304,5181;0,0144722
2305,4822;0,0147699
2306,4465;0,0150951
2307,4106;0,0153644
2308,3750;0,0154871
2309,3391;0,0153941
2310,3035;0,0150659
2311,2676;0,0145459
2312,2319;0,0139306
2313,1960;0,0133354
2314,1604;0,012851
2315,1245;0,0125132
2316,0889;0,0123023
2317,0530;0,0121698
2318,0173;0,0120708
2318,9814;0,011987
2319,9458;0,0119306
2320,9099;0,011934
2321,8743;0,0120316
2322,8384;0,0122333
2323,8027;0,0124992
2324,7668;0,0127349
2325,7312;0,0128242
2326,6953;0,0126821
2327,6597;0,0122963
2328,6238;0,0117338
2329,5881;0,0111153
2330,5522;0,0105723
2331,5166;0,0102031
2332,4807;0,0100399
2333,4451;0,0100463
2334,4092;0,010153
2335,3735;0,0103086
2336,3376;0,0105134
2337,3020;0,0108149
2338,2661;0,0112702
2339,2305;0,0118903
2340,1946;0,0125855
2341,1589;0,0131412
2342,1230;0,0132801
2343,0874;0,0128919
2344,0515;0,0123255
2345,0159;0,0122819
2345,9800;0,0131831
2346,9443;0,014757
2347,9084;0,0162914
2348,8728;0,0171399
2349,8369;0,0170424
2350,8013;0,0161859
2351,7654;0,0150617
2352,7297;0,014178
2353,6938;0,0137754
2354,6582;0,0137754
2355,6223;0,0139749
2356,5867;0,0142061
2357,5508;0,0143324
2358,5151;0,0142377
2359,4792;0,0138951
2360,4436;0,0134075
2361,4077;0,0129131
2362,3721;0,0124504
2363,3362;0,0119404
2364,3005;0,0112939
2365,2646;0,0105133
2366,2290;0,00968739
2367,1931;0,00891166
2368,1575;0,00822907
2369,1216;0,00763922
2370,0859;0,00714079
2371,0500;0,00675698
2372,0144;0,00652938
2372,9785;0,00649881
2373,9429;0,00669174
2374,9070;0,00711502
2375,8713;0,00775159
2376,8354;0,00855475
2377,7998;0,00944519
2378,7639;0,0103179
2379,7283;0,0110602
2380,6924;0,0115776
2381,6567;0,0118156
2382,6208;0,0117719
2383,5852;0,0114934
2384,5493;0,0110607
2385,5137;0,0105653
2386,4778;0,0100884
2387,4421;0,00968621
2388,4063;0,00938513
2389,3706;0,00918552
2390,3347;0,00907033
2391,2991;0,0090149
2392,2632;0,00899506
2393,2275;0,0089925
2394,1917;0,00899695
2395,1560;0,00900546
2396,1201;0,00901971
2397,0845;0,00904246
2398,0486;0,00907677
2399,0129;0,00911895
2399,9771;0,00916022
2400,9414;0,00919066
2401,9055;0,00920178
2402,8699;0,0091933
2403,8340;0,00917463
2404,7983;0,00916201
2405,7625;0,00917054
2406,7268;0,00920439
2407,6909;0,00925406
2408,6553;0,00930104
2409,6194;0,00932723
2410,5837;0,00932681
2411,5479;0,00930891
2412,5122;0,00929202
2413,4763;0,00929293
2414,4407;0,00931782
2415,4048;0,00935967
2416,3691;0,00940323
2417,3333;0,00943353
2418,2976;0,00944284
2419,2617;0,00943376
2420,2261;0,00941724
2421,1902;0,00940696
2422,1545;0,00941509
2423,1187;0,00944678
2424,0830;0,00949783
2425,0471;0,00955569
2426,0115;0,00960419
2426,9756;0,00963047
2427,9399;0,00963082
2428,9041;0,00961235
2429,8684;0,00958946
2430,8325;0,00957692
2431,7969;0,00958323
2432,7610;0,00960741
2433,7253;0,00964052
2434,6895;0,00967064
2435,6538;0,00968865
2436,6179;0,00969207
2437,5823;0,00968552
2438,5464;0,0096779
2439,5107;0,00967798
2440,4749;0,00969074
2441,4392;0,00971609
2442,4033;0,00975019
2443,3677;0,00978791
2444,3318;0,00982467
2445,2961;0,00985674
2446,2603;0,00988066
2447,2246;0,00989351
2448,1887;0,00989455
2449,1531;0,00988717
2450,1172;0,00987919
2451,0815;0,00987998
2452,0457;0,00989565
2453,0100;0,00992521
2453,9741;0,00996077
2454,9385;0,00999204
2455,9026;0,0100123
2456,8669;0,0100219
2457,8311;0,010027
2458,7954;0,0100343
2459,7595;0,0100461
2460,7239;0,0100584
2461,6880;0,0100641
2462,6523;0,0100587
2463,6165;0,0100436
2464,5808;0,0100268
2465,5449;0,0100184
2466,5093;0,0100262
2467,4734;0,0100518
2468,4377;0,0100908
2469,4019;0,0101344
2470,3662;0,0101722
2471,3303;0,0101957
2472,2947;0,0102006
2473,2588;0,010189
2474,2231;0,0101689
2475,1873;0,0101509
2476,1516;0,0101441
2477,1157;0,010152
2478,0801;0,010171
2479,0442;0,0101939
2480,0085;0,0102144
2480,9727;0,0102306
2481,9370;0,0102447
2482,9011;0,0102601
2483,8655;0,0102775
2484,8296;0,0102946
2485,7939;0,0103088
2486,7581;0,0103198
2487,7224;0,0103307
2488,6865;0,0103459
2489,6509;0,0103665
2490,6150;0,0103889
2491,5793;0,0104062
2492,5435;0,0104131
2493,5078;0,0104099
2494,4719;0,010403
2495,4363;0,0104005
2496,4004;0,0104074
2497,3647;0,0104217
2498,3289;0,010437
2499,2932;0,0104476
2500,2573;0,0104533
2501,2217;0,0104598
2502,1858;0,0104743
2503,1501;0,0104993
2504,1143;0,0105291
2505,0786;0,0105522
2506,0427;0,0105582
2507,0071;0,0105442
2507,9712;0,010517
2508,9355;0,0104893
2509,8997;0,010473
2510,8640;0,0104739
2511,8281;0,010491
2512,7925;0,0105195
2513,7566;0,0105543
2514,7209;0,0105907
2515,6851;0,0106227
2516,6494;0,0106418
2517,6135;0,0106396
2518,5779;0,0106126
2519,5420;0,0105668
2520,5063;0,0105174
2521,4705;0,0104821
2522,4348;0,0104718
2523,3989;0,010485
2524,3633;0,0105093
2525,3274;0,0105297
2526,2917;0,0105378
2527,2559;0,0105359
2528,2202;0,0105339
2529,1843;0,0105419
2530,1487;0,0105639
2531,1128;0,0105965
2532,0771;0,0106322
2533,0413;0,0106641
2534,0056;0,0106884
2534,9697;0,0107037
2535,9341;0,0107089
2536,8982;0,0107028
2537,8625;0,0106858
2538,8267;0,0106618
2539,7910;0,0106388
2540,7551;0,0106258
2541,7195;0,0106289
2542,6836;0,0106476
2543,6479;0,0106759
2544,6121;0,0107051
2545,5764;0,0107289
2546,5405;0,0107452
2547,5049;0,0107556
2548,4690;0,0107623
2549,4333;0,0107652
2550,3975;0,0107611
2551,3618;0,0107461
2552,3259;0,0107185
2553,2903;0,0106807
2554,2544;0,0106397
2555,2188;0,0106051
2556,1829;0,0105854
2557,1472;0,0105856
2558,1113;0,0106043
2559,0757;0,0106342
2560,0398;0,0106645
2561,0042;0,0106861
2561,9683;0,0106948
2562,9326;0,0106936
2563,8967;0,0106897
2564,8611;0,0106894
2565,8252;0,010694
2566,7896;0,0106989
2567,7537;0,0106971
2568,7180;0,0106846
2569,6821;0,0106639
2570,6465;0,0106435
2571,6106;0,0106326
2572,5750;0,0106359
2573,5391;0,0106506
2574,5034;0,0106685
2575,4675;0,0106809
2576,4319;0,0106836
2577,3960;0,0106788
2578,3604;0,0106725
2579,3245;0,0106707
2580,2888;0,0106751
2581,2529;0,0106832
2582,2173;0,010691
2583,1814;0,0106964
2584,1458;0,0107004
2585,1099;0,0107053
2586,0742;0,0107114
2587,0383;0,0107154
2588,0027;0,010713
2588,9668;0,0107022
2589,9312;0,0106869
2590,8953;0,0106755
2591,8596;0,0106764
2592,8237;0,0106928
2593,7881;0,0107201
2594,7522;0,0107485
2595,7166;0,0107679
2596,6807;0,0107731
2597,6450;0,0107656
2598,6091;0,0107522
2599,5735;0,0107414
2600,5376;0,0107397
2601,5020;0,0107489
2602,4661;0,0107669
2603,4304;0,0107888
2604,3945;0,0108096
2605,3589;0,010827
2606,3230;0,0108413
2607,2874;0,010855
2608,2515;0,0108704
2609,2158;0,0108874
2610,1799;0,0109035
2611,1443;0,010915
2612,1084;0,0109198
2613,0728;0,0109187
2614,0369;0,0109163
2615,0012;0,0109188
2615,9653;0,0109314
2616,9297;0,010956
2617,8938;0,0109897
2618,8582;0,0110254
2619,8223;0,0110551
2620,7866;0,0110729
2621,7507;0,0110781
2622,7151;0,0110752
2623,6792;0,0110707
2624,6436;0,0110707
2625,6077;0,0110772
2626,5720;0,0110893
2627,5361;0,011104
2628,5005;0,0111191
2629,4646;0,011134
2630,4290;0,0111497
2631,3931;0,0111671
2632,3574;0,0111862
2633,3215;0,0112056
2634,2859;0,0112228
2635,2500;0,0112352
2636,2144;0,0112412
2637,1785;0,011242
2638,1428;0,0112417
2639,1069;0,0112469
2640,0713;0,011263
2641,0354;0,0112912
2641,9998;0,0113262
2642,9639;0,0113583
2643,9282;0,0113787
2644,8923;0,0113845
2645,8567;0,0113811
2646,8208;0,0113796
2647,7852;0,0113897
2648,7493;0,0114146
2649,7136;0,0114489
2650,6777;0,0114823
2651,6421;0,011506
2652,6062;0,0115177
2653,5706;0,0115223
2654,5347;0,0115282
2655,4990;0,0115422
2656,4631;0,0115659
2657,4275;0,0115959
2658,3916;0,011626
2659,3560;0,0116515
2660,3201;0,0116708
2661,2844;0,0116859
2662,2485;0,0117005
2663,2129;0,0117183
2664,1770;0,0117409
2665,1414;0,0117676
2666,1055;0,0117952
2667,0698;0,0118197
2668,0339;0,0118382
2668,9983;0,0118499
2669,9624;0,0118568
2670,9268;0,0118629
2671,8909;0,011872
2672,8552;0,0118866
2673,8193;0,0119073
2674,7837;0,0119326
2675,7478;0,01196
2676,7122;0,0119867
2677,6763;0,0120104
2678,6406;0,0120296
2679,6047;0,0120442
2680,5691;0,0120554
2681,5332;0,0120657
2682,4976;0,0120777
2683,4617;0,0120936
2684,4260;0,0121141
2685,3901;0,0121387
2686,3545;0,0121653
2687,3186;0,0121913
2688,2830;0,0122136
2689,2471;0,0122304
2690,2114;0,0122418
2691,1755;0,0122503
2692,1399;0,0122598
2693,1040;0,0122736
2694,0684;0,0122925
2695,0325;0,0123153
2695,9968;0,01234
2696,9609;0,0123661
2697,9253;0,0123949
2698,8894;0,0124282
2699,8538;0,0124662
2700,8179;0,0125069
2701,7822;0,0125467
2702,7463;0,0125833
2703,7107;0,0126161
2704,6748;0,0126464
2705,6392;0,0126743
2706,6033;0,012698
2707,5676;0,0127145
2708,5317;0,012722
2709,4961;0,0127222
2710,4602;0,0127208
2711,4246;0,0127245
2712,3887;0,012738
2713,3530;0,0127624
2714,3171;0,012795
2715,2815;0,0128313
2716,2456;0,0128677
2717,2100;0,0129018
2718,1741;0,0129332
2719,1384;0,0129623
2720,1025;0,01299
2721,0669;0,0130168
2722,0310;0,0130425
2722,9954;0,0130658
2723,9595;0,0130853
2724,9238;0,0130999
2725,8879;0,0131107
2726,8523;0,0131208
2727,8164;0,0131342
2728,7808;0,0131535
2729,7449;0,013179
2730,7092;0,0132078
2731,6733;0,0132353
2732,6377;0,0132577
2733,6018;0,0132732
2734,5662;0,0132825
2735,5303;0,013288
2736,4946;0,0132923
2737,4587;0,0132976
2738,4231;0,0133056
2739,3872;0,0133181
2740,3516;0,0133376
2741,3157;0,013366
2742,2800;0,0134033
2743,2441;0,0134458
2744,2085;0,0134865
2745,1726;0,0135174
2746,1370;0,0135337
2747,1011;0,0135364
2748,0654;0,0135329
2749,0295;0,0135333
2749,9939;0,0135456
2750,9580;0,0135716
2751,9224;0,0136061
2752,8865;0,0136406
2753,8508;0,0136676
2754,8149;0,0136842
2755,7793;0,013693
2756,7434;0,0136994
2757,7078;0,0137087
2758,6719;0,0137244
2759,6362;0,0137472
2760,6003;0,0137759
2761,5647;0,0138084
2762,5288;0,0138421
2763,4932;0,0138749
2764,4573;0,0139063
2765,4216;0,0139377
2766,3857;0,013972
2767,3501;0,0140124
2768,3142;0,0140592
2769,2786;0,0141088
2770,2427;0,0141542
2771,2070;0,0141884
2772,1711;0,0142087
2773,1355;0,0142184
2774,0996;0,0142259
2775,0640;0,0142406
2776,0281;0,0142679
2776,9924;0,0143072
2777,9565;0,0143532
2778,9209;0,0143996
2779,8850;0,0144429
2780,8494;0,0144838
2781,8135;0,0145256
2782,7778;0,0145705
2783,7419;0,0146171
2784,7063;0,014661
2785,6704;0,0146972
2786,6348;0,014724
2787,5989;0,0147453
2788,5632;0,0147688
2789,5273;0,0148032
2790,4917;0,0148531
2791,4558;0,0149175
2792,4202;0,0149899
2793,3843;0,0150619
2794,3486;0,0151265
2795,3127;0,0151813
2796,2771;0,0152283
2797,2412;0,0152731
2798,2056;0,0153217
2799,1697;0,0153784
2800,1340;0,015444
2801,0981;0,015516
2802,0625;0,0155903
2803,0266;0,0156638
2803,9910;0,0157355
2804,9551;0,015807
2805,9194;0,0158807
2806,8835;0,015958
2807,8479;0,0160384
2808,8120;0,0161197
2809,7764;0,0162007
2810,7405;0,0162819
2811,7048;0,016366
2812,6689;0,0164556
2813,6333;0,0165514
2814,5974;0,0166517
2815,5618;0,0167542
2816,5259;0,0168576
2817,4902;0,0169624
2818,4543;0,0170698
2819,4187;0,0171799
2820,3828;0,0172913
2821,3472;0,0174022
2822,3113;0,0175136
2823,2756;0,0176298
2824,2397;0,0177576
2825,2041;0,0179021
2826,1682;0,0180641
2827,1326;0,0182396
2828,0967;0,0184222
2829,0610;0,0186076
2830,0251;0,0187957
2830,9895;0,0189903
2831,9536;0,0191953
2832,9180;0,0194116
2833,8821;0,0196357
2834,8464;0,019862
2835,8105;0,0200875
2836,7749;0,0203159
2837,7390;0,0205582
2838,7034;0,0208296
2839,6675;0,0211442
2840,6318;0,0215106
2841,5959;0,0219307
2842,5603;0,0224004
2843,5244;0,0229105
2844,4888;0,0234457
2845,4529;0,0239822
2846,4172;0,0244862
2847,3813;0,0249166
2848,3457;0,0252345
2849,3098;0,0254142
2850,2742;0,0254533
2851,2383;0,0253743
2852,2026;0,0252175
2853,1667;0,0250283
2854,1311;0,0248442
2855,0952;0,0246882
2856,0596;0,024568
2857,0237;0,0244826
2857,9880;0,0244283
2858,9521;0,0244031
2859,9165;0,0244067
2860,8806;0,0244376
2861,8450;0,0244917
2862,8091;0,0245635
2863,7734;0,0246489
2864,7375;0,0247474
2865,7019;0,0248613
2866,6660;0,0249915
2867,6304;0,0251336
2868,5945;0,0252769
2869,5588;0,0254079
2870,5229;0,0255166
2871,4873;0,0256006
2872,4514;0,0256653
2873,4158;0,0257194
2874,3799;0,0257703
2875,3442;0,025821
2876,3083;0,0258709
2877,2727;0,025919
2878,2368;0,0259654
2879,2012;0,0260122
2880,1653;0,0260626
2881,1296;0,0261197
2882,0938;0,0261864
2883,0581;0,026265
2884,0222;0,0263563
2884,9866;0,0264587
2885,9507;0,026568
2886,9150;0,026679
2887,8792;0,0267875
2888,8435;0,0268921
2889,8076;0,0269937
2890,7720;0,0270936
2891,7361;0,027191
2892,7004;0,0272828
2893,6646;0,0273652
2894,6289;0,0274372
2895,5930;0,0275019
2896,5574;0,0275664
2897,5215;0,0276381
2898,4858;0,0277208
2899,4500;0,0278122
2900,4143;0,0279056
2901,3784;0,0279942
2902,3428;0,0280765
2903,3069;0,028159
2904,2712;0,0282541
2905,2354;0,0283751
2906,1997;0,0285303
2907,1638;0,0287213
2908,1282;0,0289459
2909,0923;0,0292029
2910,0566;0,0294943
2911,0208;0,0298225
2911,9851;0,0301819
2912,9492;0,0305532
2913,9136;0,0309019
2914,8777;0,0311868
2915,8420;0,0313728
2916,8062;0,0314422
2917,7705;0,0313981
2918,7346;0,0312596
2919,6990;0,0310516
2920,6631;0,0307967
2921,6274;0,0305112
2922,5916;0,0302071
2923,5559;0,0298947
2924,5200;0,0295835
2925,4844;0,029281
2926,4485;0,0289912
2927,4128;0,0287146
2928,3770;0,0284504
2929,3413;0,0281988
2930,3054;0,0279622
2931,2698;0,0277426
2932,2339;0,0275387
2933,1982;0,0273456
2934,1624;0,0271552
2935,1267;0,0269606
2936,0908;0,0267583
2937,0552;0,0265484
2938,0193;0,0263328
2938,9836;0,0261124
2939,9478;0,025886
2940,9121;0,0256524
2941,8762;0,0254122
2942,8406;0,0251695
2943,8047;0,0249315
2944,7690;0,0247056
2945,7332;0,0244965
2946,6975;0,0243041
2947,6616;0,0241245
2948,6260;0,0239523
2949,5901;0,0237836
2950,5544;0,0236176
2951,5186;0,0234559
2952,4829;0,0233007
2953,4470;0,0231527
2954,4114;0,0230097
2955,3755;0,0228677
2956,3398;0,0227236
2957,3040;0,0225765
2958,2683;0,0224284
2959,2324;0,0222826
2960,1968;0,022141
2961,1609;0,0220023
2962,1252;0,0218619
2963,0894;0,0217138
2964,0537;0,0215536
2965,0178;0,0213812
2965,9822;0,021201
2966,9463;0,0210203
2967,9106;0,0208468
2968,8748;0,0206851
2969,8391;0,0205355
2970,8032;0,0203942
2971,7676;0,0202557
2972,7317;0,0201151
2973,6960;0,01997
2974,6602;0,0198204
2975,6245;0,0196684
2976,5886;0,0195158
2977,5530;0,0193645
2978,5171;0,0192164
2979,4814;0,0190745
2980,4456;0,0189431
2981,4099;0,018827
2982,3740;0,0187299
2983,3384;0,0186518
2984,3025;0,0185886
2985,2668;0,0185334
2986,2310;0,0184791
2987,1953;0,0184222
2988,1594;0,0183643
2989,1238;0,0183119
2990,0879;0,0182725
2991,0522;0,0182502
2992,0164;0,0182425
2992,9807;0,0182413
2993,9448;0,0182363
2994,9092;0,0182207
2995,8733;0,018195
2996,8376;0,0181668
2997,8018;0,0181472
2998,7661;0,0181452
2999,7302;0,0181645
3000,6946;0,0182018
3001,6587;0,0182495
3002,6230;0,0182997
3003,5872;0,0183465
3004,5515;0,0183885
3005,5156;0,0184277
3006,4800;0,0184682
3007,4441;0,0185141
3008,4084;0,018567
3009,3726;0,0186253
3010,3369;0,0186833
3011,3010;0,0187334
3012,2654;0,0187688
3013,2295;0,0187873
3014,1938;0,0187927
3015,1580;0,0187941
3016,1223;0,0188021
3017,0864;0,0188248
3018,0508;0,0188651
3019,0149;0,0189205
3019,9792;0,0189844
3020,9434;0,0190492
3021,9077;0,0191082
3022,8718;0,0191586
3023,8362;0,0192029
3024,8003;0,0192499
3025,7646;0,0193124
3026,7288;0,0194024
3027,6931;0,0195237
3028,6572;0,0196675
3029,6216;0,0198128
3030,5857;0,0199344
3031,5500;0,0200137
3032,5142;0,0200484
3033,4785;0,0200529
3034,4426;0,0200506
3035,4070;0,0200621
3036,3711;0,0200967
3037,3354;0,0201514
3038,2996;0,0202165
3039,2639;0,0202833
3040,2280;0,0203497
3041,1924;0,0204202
3042,1565;0,0205028
3043,1208;0,0206032
3044,0850;0,0207216
3045,0493;0,0208513
3046,0134;0,0209816
3046,9778;0,0211014
3047,9419;0,0212044
3048,9063;0,0212917
3049,8704;0,0213716
3050,8347;0,0214566
3051,7988;0,021557
3052,7632;0,0216767
3053,7273;0,02181
3054,6917;0,0219442
3055,6558;0,022065
3056,6201;0,022163
3057,5842;0,0222391
3058,5486;0,0223057
3059,5127;0,0223809
3060,4771;0,0224807
3061,4412;0,0226105
3062,4055;0,0227615
3063,3696;0,0229129
3064,3340;0,0230411
3065,2981;0,0231299
3066,2625;0,0231793
3067,2266;0,0232044
3068,1909;0,0232281
3069,1550;0,0232704
3070,1194;0,0233411
3071,0835;0,0234381
3072,0479;0,0235519
3073,0120;0,0236724
3073,9763;0,0237931
3074,9404;0,0239132
3075,9048;0,0240347
3076,8689;0,0241595
3077,8333;0,0242861
3078,7974;0,0244095
3079,7617;0,0245232
3080,7258;0,0246222
3081,6902;0,0247053
3082,6543;0,0247761
3083,6187;0,0248414
3084,5828;0,024908
3085,5471;0,0249805
3086,5112;0,0250594
3087,4756;0,025143
3088,4397;0,0252299
3089,4041;0,0253212
3090,3682;0,025421
3091,3325;0,0255334
3092,2966;0,0256586
3093,2610;0,0257911
3094,2251;0,0259217
3095,1895;0,0260432
3096,1536;0,0261549
3097,1179;0,0262636
3098,0820;0,026378
3099,0464;0,0265019
3100,0105;0,0266293
3100,9749;0,026748
3101,9390;0,026847
3102,9033;0,0269245
3103,8674;0,0269895
3104,8318;0,0270562
3105,7959;0,0271361
3106,7603;0,0272327
3107,7244;0,0273432
3108,6887;0,0274638
3109,6528;0,0275939
3110,6172;0,027736
3111,5813;0,0278909
3112,5457;0,0280529
3113,5098;0,0282103
3114,4741;0,0283504
3115,4382;0,0284676
3116,4026;0,0285668
3117,3667;0,0286608
3118,3311;0,0287627
3119,2952;0,0288792
3120,2595;0,029008
3121,2236;0,0291404
3122,1880;0,0292671
3123,1521;0,0293818
3124,1165;0,0294826
3125,0806;0,0295722
3126,0449;0,0296562
3127,0090;0,0297429
3127,9734;0,0298416
3128,9375;0,0299594
3129,9019;0,0300977
3130,8660;0,0302512
3131,8303;0,0304091
3132,7944;0,03056
3133,7588;0,0306976
3134,7229;0,0308224
3135,6873;0,0309399
3136,6514;0,0310564
3137,6157;0,031175
3138,5798;0,0312956
3139,5442;0,0314167
3140,5083;0,0315384
3141,4727;0,0316635
3142,4368;0,0317964
3143,4011;0,0319407
3144,3652;0,032096
3145,3296;0,0322579
3146,2937;0,0324178
3147,2581;0,0325669
3148,2222;0,0326988
3149,1865;0,0328137
3150,1506;0,0329185
3151,1150;0,0330253
3152,0791;0,0331465
3153,0435;0,0332895
3154,0076;0,0334535
3154,9719;0,0336304
3155,9360;0,0338083
3156,9004;0,0339768
3157,8645;0,0341306
3158,8289;0,0342708
3159,7930;0,0344031
3160,7573;0,034535
3161,7214;0,0346729
3162,6858;0,0348202
3163,6499;0,0349767
3164,6143;0,0351387
3165,5784;0,0353007
3166,5427;0,0354577
3167,5068;0,0356073
3168,4712;0,0357512
3169,4353;0,0357049
3170,3997;0,0358553
3171,3638;0,0360174
3172,3281;0,03619
3173,2922;0,036367
3174,2566;0,0365409
3175,2207;0,036707
3176,1851;0,0368649
3177,1492;0,0370183
3178,1135;0,0371718
3179,0776;0,0373278
3180,0420;0,0374847
3181,0061;0,0376383
3181,9705;0,0377847
3182,9346;0,0379224
3183,8989;0,0380539
3184,8630;0,0381835
3185,8274;0,038316
3186,7915;0,0384534
3187,7559;0,0385947
3188,7200;0,0387368
3189,6843;0,0388772
3190,6484;0,0390162
3191,6128;0,0391578
3192,5769;0,0393075
3193,5413;0,0394687
3194,5054;0,0396396
3195,4697;0,039813
3196,4338;0,0399793
3197,3982;0,0401316
3198,3623;0,0402696
3199,3267;0,0403988
3200,2908;0,0405266
3201,2551;0,0406574
3202,2192;0,0407902
3203,1836;0,0409214
3204,1477;0,041049
3205,1121;0,0411765
3206,0762;0,0413117
3207,0405;0,0414621
3208,0046;0,0416296
3208,9690;0,0418068
3209,9331;0,0419804
3210,8975;0,0421376
3211,8616;0,0422732
3212,8259;0,0423915
3213,7900;0,0425033
3214,7544;0,0426195
3215,7185;0,042745
3216,6829;0,0428772
3217,6470;0,0430091
3218,6113;0,0431341
3219,5754;0,0432505
3220,5398;0,0433621
3221,5039;0,0434767
3222,4683;0,0436021
3223,4324;0,0437424
3224,3967;0,0438979
3225,3608;0,0440639
3226,3252;0,0442337
3227,2893;0,0444003
3228,2537;0,0445586
3229,2178;0,0447074
3230,1821;0,0448482
3231,1462;0,0449832
3232,1106;0,0451129
3233,0747;0,0452352
3234,0391;0,0453474
3235,0032;0,0454494
3235,9675;0,0455459
3236,9316;0,0456469
3237,8960;0,045763
3238,8601;0,0459008
3239,8245;0,0460586
3240,7886;0,0462271
3241,7529;0,0463935
3242,7170;0,046548
3243,6814;0,0466881
3244,6455;0,0468186
3245,6099;0,0469474
3246,5740;0,0470807
3247,5383;0,0472192
3248,5024;0,0473594
3249,4668;0,0474984
3250,4309;0,0476373
3251,3953;0,047781
3252,3594;0,0479354
3253,3237;0,0481026
3254,2878;0,048279
3255,2522;0,0484574
3256,2163;0,0486306
3257,1807;0,048793
3258,1448;0,0489414
3259,1091;0,0490744
3260,0732;0,0491935
3261,0376;0,049305
3262,0017;0,0494202
3262,9661;0,0495521
3263,9302;0,0497086
3264,8945;0,0498873
3265,8586;0,0500754
3266,8230;0,050256
3267,7871;0,0504183
3268,7515;0,0505621
3269,7156;0,0506959
3270,6799;0,0508286
3271,6440;0,0509623
3272,6084;0,0510908
3273,5725;0,0512033
3274,5369;0,0512922
3275,5010;0,0513566
3276,4653;0,0514008
3277,4294;0,0514306
3278,3938;0,0514498
3279,3579;0,0514604
3280,3223;0,0514655
3281,2864;0,051471
3282,2507;0,0514854
3283,2148;0,0515169
3284,1792;0,0515702
3285,1433;0,0516442
3286,1077;0,0517313
3287,0718;0,051819
3288,0361;0,0518931
3289,0002;0,0519412
3289,9646;0,0519574
3290,9287;0,0519439
3291,8931;0,0519109
3292,8572;0,0518723
3293,8215;0,0518411
3294,7856;0,0518252
3295,7500;0,0518263
3296,7141;0,0518406
3297,6785;0,0518607
3298,6426;0,0518783
3299,6069;0,0518858
3300,5710;0,0518802
3301,5354;0,051864
3302,4995;0,0518448
3303,4639;0,0518318
3304,4280;0,0518311
3305,3923;0,0518425
3306,3564;0,0518608
3307,3208;0,0518789
3308,2849;0,0518924
3309,2493;0,0519007
3310,2134;0,0519051
3311,1777;0,0519066
3312,1418;0,0519048
3313,1062;0,0519
3314,0703;0,0518964
3315,0347;0,0519024
3315,9988;0,0519278
3316,9631;0,0519796
3317,9272;0,0520578
3318,8916;0,0521548
3319,8557;0,0522585
3320,8201;0,0523572
3321,7842;0,0524435
3322,7485;0,0525165
3323,7126;0,0525807
3324,6770;0,0526422
3325,6411;0,052705
3326,6055;0,052768
3327,5696;0,0528264
3328,5339;0,0528758
3329,4980;0,0529168
3330,4624;0,0529557
3331,4265;0,0530015
3332,3909;0,0530594
3333,3550;0,0531246
3334,3193;0,0531817
3335,2834;0,0532107
3336,2478;0,0531963
3337,2119;0,0531352
3338,1763;0,0530371
3339,1404;0,0529188
3340,1047;0,0527963
3341,0688;0,0526795
3342,0332;0,0525712
3342,9973;0,0524692
3343,9617;0,0523701
3344,9258;0,0522703
3345,8901;0,0521667
3346,8542;0,0520566
3347,8186;0,0519383
3348,7827;0,0518121
3349,7471;0,0516809
3350,7112;0,0515501
3351,6755;0,0514251
3352,6396;0,0513094
3353,6040;0,051203
3354,5681;0,0511021
3355,5325;0,0510017
3356,4966;0,0508979
3357,4609;0,0507903
3358,4250;0,0506818
3359,3894;0,0505776
3360,3535;0,050481
3361,3179;0,0503908
3362,2820;0,0503001
3363,2463;0,0501981
3364,2104;0,0500744
3365,1748;0,0499226
3366,1389;0,0497433
3367,1033;0,049544
3368,0674;0,0493365
3369,0317;0,0491337
3369,9958;0,0489467
3370,9602;0,0487823
3371,9243;0,0486416
3372,8887;0,0485193
3373,8528;0,0484052
3374,8171;0,0482878
3375,7813;0,0481593
3376,7456;0,0480194
3377,7097;0,0478752
3378,6741;0,0477364
3379,6382;0,0476093
3380,6025;0,0474918
3381,5667;0,0473749
3382,5310;0,0472484
3383,4951;0,047108
3384,4595;0,0469593
3385,4236;0,0468156
3386,3879;0,0466905
3387,3521;0,0465902
3388,3164;0,0465103
3389,2805;0,0464386
3390,2449;0,0463619
3391,2090;0,0462717
3392,1733;0,0461677
3393,1375;0,0460552
3394,1018;0,0459388
3395,0659;0,0458176
3396,0303;0,0456848
3396,9944;0,0455332
3397,9587;0,0453618
3398,9229;0,0451783
3399,8872;0,044995
3400,8513;0,0448219
3401,8157;0,04466
3402,7798;0,0445013
3403,7441;0,0443352
3404,7083;0,0441564
3405,6726;0,0439696
3406,6367;0,0437879
3407,6011;0,0436255
3408,5652;0,0434892
3409,5295;0,043373
3410,4937;0,0432595
3411,4580;0,0431271
3412,4221;0,0429607
3413,3865;0,0427608
3414,3506;0,0425445
3415,3149;0,0423389
3416,2791;0,042169
3417,2434;0,0420439
3418,2075;0,0419502
3419,1719;0,041857
3420,1360;0,0417296
3421,1003;0,0415477
3422,0645;0,0413144
3423,0288;0,0410513
3423,9929;0,0407849
3424,9573;0,0405333
3425,9214;0,0403022
3426,8857;0,0400875
3427,8499;0,0398813
3428,8142;0,0396766
3429,7783;0,0394694
3430,7427;0,0392579
3431,7068;0,0390412
3432,6711;0,0388198
3433,6353;0,0385979
3434,5996;0,0383831
3435,5637;0,0381844
3436,5281;0,0380075
3437,4922;0,0378517
3438,4565;0,0377096
3439,4207;0,0375727
3440,3850;0,0374375
3441,3491;0,0373069
3442,3135;0,0371868
3443,2776;0,0370758
3444,2419;0,0369587
3445,2061;0,0368078
3446,1704;0,0365952
3447,1345;0,036312
3448,0989;0,0359773
3449,0630;0,0356296
3450,0273;0,0353054
3450,9915;0,0350238
3451,9558;0,0347846
3452,9199;0,0345773
3453,8843;0,0343921
3454,8484;0,0342255
3455,8127;0,0340794
3456,7769;0,033955
3457,7412;0,0338467
3458,7053;0,0337412
3459,6697;0,0336218
3460,6338;0,0334754
3461,5981;0,0332969
3462,5623;0,0330887
3463,5266;0,0328573
3464,4907;0,0326084
3465,4551;0,0323463
3466,4192;0,0320763
3467,3835;0,0318082
3468,3477;0,031556
3469,3120;0,0313325
3470,2761;0,0311424
3471,2405;0,0309777
3472,2046;0,030821
3473,1689;0,0306555
3474,1331;0,0304771
3475,0974;0,0302988
3476,0615;0,0301434
3477,0259;0,0300277
3477,9900;0,0299479
3478,9543;0,0298772
3479,9185;0,0297764
3480,8828;0,029615
3481,8469;0,0293896
3482,8113;0,0291273
3483,7754;0,0288671
3484,7397;0,0286368
3485,7039;0,0284395
3486,6682;0,0282587
3487,6323;0,0280728
3488,5967;0,0278712
3489,5608;0,0276612
3490,5251;0,0274616
3491,4893;0,0272881
3492,4536;0,0271435
3493,4177;0,0270168
3494,3821;0,0268935
3495,3462;0,0267692
3496,3105;0,0266579
3497,2747;0,0265847
3498,2390;0,0265662
3499,2031;0,0265923
3500,1675;0,0266202
3501,1316;0,0265868
3502,0959;0,0264393
3503,0601;0,0261733
3504,0244;0,0258442
3504,9885;0,0255329
3505,9529;0,0252947
3506,9170;0,0251317
3507,8813;0,0250012
3508,8455;0,0248417
3509,8098;0,0246087
3510,7739;0,0242997
3511,7383;0,023953
3512,7024;0,0236205
3513,6667;0,02334
3514,6309;0,023126
3515,5952;0,0229752
3516,5593;0,022879
3517,5237;0,0228315
3518,4878;0,0228321
3519,4521;0,0228795
3520,4163;0,0229622
3521,3806;0,0230545
3522,3447;0,0231197
3523,3091;0,0231231
3524,2732;0,0230447
3525,2375;0,02288
3526,2017;0,0226315
3527,1660;0,0223023
3528,1301;0,0219018
3529,0945;0,0214587
3530,0586;0,0210236
3531,0229;0,0206514
3531,9871;0,020379
3532,9514;0,0202093
3533,9155;0,0201105
3534,8799;0,020028
3535,8440;0,0199098
3536,8083;0,0197377
3537,7725;0,0195417
3538,7368;0,0193833
3539,7009;0,0193209
3540,6653;0,0193809
3541,6294;0,0195454
3542,5938;0,0197503
3543,5579;0,019893
3544,5222;0,0198693
3545,4863;0,0196347
3546,4507;0,0192438
3547,4148;0,0188143
3548,3792;0,0184452
3549,3433;0,0181677
3550,3076;0,0179513
3551,2717;0,0177379
3552,2361;0,0174828
3553,2002;0,0171861
3554,1646;0,0168924
3555,1287;0,0166572
3556,0930;0,016513
3557,0571;0,0164631
3558,0215;0,0164946
3558,9856;0,0165932
3559,9500;0,0167503
3560,9141;0,0169634
3561,8784;0,0172264
3562,8425;0,0175185
3563,8069;0,017785
3564,7710;0,0179073
3565,7354;0,0177067
3566,6995;0,0170772
3567,6638;0,0161638
3568,6279;0,0152868
3569,5923;0,0146627
3570,5564;0,0142966
3571,5208;0,0140871
3572,4849;0,0139447
3573,4492;0,0138296
3574,4133;0,0137373
3575,3777;0,0136709
3576,3418;0,0136267
3577,3062;0,0135953
3578,2703;0,013572
3579,2346;0,0135635
3580,1987;0,0135832
3581,1631;0,0136383
3582,1272;0,0137205
3583,0916;0,0138098
3584,0557;0,013883
3585,0200;0,0139047
3585,9841;0,0138122
3586,9485;0,0135643
3587,9126;0,0132444
3588,8770;0,0130339
3589,8411;0,0130396
3590,8054;0,0132176
3591,7695;0,0134491
3592,7339;0,0136268
3593,6980;0,0136889
3594,6624;0,0136289
3595,6265;0,0134907
3596,5908;0,0133304
3597,5549;0,0131648
3598,5193;0,0129625
3599,4834;0,0126858
3600,4478;0,0123407
3601,4119;0,0119867
3602,3762;0,0116924
3603,3403;0,0114813
3604,3047;0,0113203
3605,2688;0,0111426
3606,2332;0,0108747
3607,1973;0,0104715
3608,1616;0,00996418
3609,1257;0,00947275
3610,0901;0,00914064
3611,0542;0,00904602
3612,0186;0,009165
3612,9827;0,00939564
3613,9470;0,00961116
3614,9111;0,00971191
3615,8755;0,00965404
3616,8396;0,00945029
3617,8040;0,00915675
3618,7681;0,00886615
3619,7324;0,00870198
3620,6965;0,00876614
3621,6609;0,00904864
3622,6250;0,00940799
3623,5894;0,00965666
3624,5535;0,00966706
3625,5178;0,00942307
3626,4819;0,00899296
3627,4463;0,00844744
3628,4104;0,00784465
3629,3748;0,00732768
3630,3389;0,00705702
3631,3032;0,00699762
3632,2673;0,00695065
3633,2317;0,00675094
3634,1958;0,00637285
3635,1602;0,00590787
3636,1243;0,00547869
3637,0886;0,00515927
3638,0527;0,00495126
3639,0171;0,0048185
3639,9812;0,0047343
3640,9456;0,00469752
3641,9097;0,00471134
3642,8740;0,00475638
3643,8381;0,00479384
3644,8025;0,00479953
3645,7666;0,00478238
3646,7310;0,00471598
3647,6951;0,00440417
3648,6594;0,00360772
3649,6235;0,00254583
3650,5879;0,00178757
3651,5520;0,00153062
3652,5164;0,00153064
3653,4805;0,00149145
3654,4448;0,00128688
3655,4089;0,000969416
3656,3733;0,0006836
3657,3374;0,00055129
3658,3018;0,000585864
3659,2659;0,000699877
3660,2302;0,000795718
3661,1943;0,000845565
3662,1587;0,000892283
3663,1228;0,000984799
3664,0872;0,00111513
3665,0513;0,00122524
3666,0156;0,00126768
3666,9797;0,0012578
3667,9441;0,00125146
3668,9082;0,00127162
3669,8726;0,00129183
3670,8367;0,00128559
3671,8010;0,00123627
3672,7651;0,00113326
3673,7295;0,00099234
3674,6936;0,000843895
3675,6580;0,000722343
3676,6221;0,000701408
3677,5864;0,000841701
3678,5505;0,00109133
3679,5149;0,0013373
3680,4790;0,00151896
3681,4434;0,00165066
3682,4075;0,00176258
3683,3718;0,00184349
3684,3359;0,00184663
3685,3003;0,00175158
3686,2644;0,00162003
3687,2288;0,00157394
3688,1929;0,00168538
3689,1572;0,00190816
3690,1213;0,00217499
3691,0857;0,00247992
3692,0498;0,00281319
3693,0142;0,0031256
3693,9783;0,00337015
3694,9426;0,00352901
3695,9067;0,00360452
3696,8711;0,00360491
3697,8352;0,00354493
3698,7996;0,00345462
3699,7637;0,00337887
3700,7280;0,003362
3701,6921;0,00343171
3702,6565;0,003593
3703,6206;0,00382243
3704,5850;0,00406507
3705,5491;0,00425375
3706,5134;0,0043412
3707,4775;0,00430932
3708,4419;0,0041311
3709,4060;0,00371707
3710,3704;0,00297177
3711,3345;0,00200967
3712,2988;0,00120056
3713,2629;0,000848219
3714,2273;0,00096313
3715,1914;0,00137146
3716,1558;0,00190193
3717,1199;0,0024695
3718,0842;0,00306457
3719,0483;0,00370222
3720,0127;0,00437706
3720,9768;0,00504858
3721,9412;0,00565461
3722,9053;0,00613308
3723,8696;0,00643943
3724,8337;0,00656172
3725,7981;0,00652577
3726,7622;0,00637596
3727,7266;0,00614648
3728,6907;0,00586008
3729,6550;0,00555658
3730,6191;0,0053126
3731,5835;0,00521116
3732,5476;0,00525098
3733,5120;0,00526282
3734,4761;0,00500542
3735,4404;0,0044644
3736,4045;0,00393444
3737,3689;0,00366803
3738,3330;0,00360444
3739,2974;0,00347126
3740,2615;0,00301524
3741,2258;0,00215627
3742,1899;0,00104259
3743,1543;7,31908E-06
3744,1184;-0,000591508
3745,0828;-0,000597714
3746,0469;-0,000173582
3747,0112;0,000329235
3747,9753;0,000604416
3748,9397;0,000506858
3749,9038;5,15511E-05
3750,8682;-0,000557461
3751,8323;-0,000950684
3752,7966;-0,000892782
3753,7607;-0,000496921
3754,7251;-4,7781E-05
3755,6892;0,000239333
3756,6536;0,000290962
3757,6177;0,000141086
3758,5820;-0,000111905
3759,5461;-0,000339702
3760,5105;-0,00044336
3761,4746;-0,000406856
3762,4390;-0,000285738
3763,4031;-0,000154683
3764,3674;-7,11028E-05
3765,3315;-6,71836E-05
3766,2959;-0,000153209
3767,2600;-0,000320276
3768,2244;-0,000541906
3769,1885;-0,000774458
3770,1528;-0,000958549
3771,1169;-0,00103711
3772,0813;-0,000989952
3773,0454;-0,000853857
3774,0098;-0,000700489
3774,9739;-0,000591383
3775,9382;-0,000548236
3776,9023;-0,00055718
3777,8667;-0,00059059
3778,8308;-0,000614364
3779,7952;-0,000587202
3780,7593;-0,000482437
3781,7236;-0,000317625
3782,6877;-0,000152847
3783,6521;-6,0591E-05
3784,6162;-9,00996E-05
3785,5806;-0,000239306
3786,5447;-0,000451351
3787,5090;-0,000643659
3788,4731;-0,000753809
3789,4375;-0,000768292
3790,4016;-0,000715322
3791,3660;-0,000631288
3792,3301;-0,000527293
3793,2944;-0,000381941
3794,2585;-0,00016873
3795,2229;0,00010203
3796,1870;0,000365987
3797,1514;0,000532842
3798,1155;0,000537461
3799,0798;0,0003725
3800,0439;8,58722E-05
3801,0083;-0,000239991
3801,9724;-0,000521316
3802,9368;-0,000732798
3803,9009;-0,000935039
3804,8652;-0,00120585
3805,8293;-0,0015358
3806,7937;-0,00179439
3807,7578;-0,00181124
3808,7222;-0,00152689
3809,6863;-0,0010696
3810,6506;-0,000667035
3811,6147;-0,000484749
3812,5791;-0,000526578
3813,5432;-0,000645768
3814,5076;-0,000652836
3815,4717;-0,000453947
3816,4360;-0,000113126
3817,4001;0,000202614
3818,3645;0,000328227
3819,3286;0,000184172
3820,2930;-0,000170193
3821,2571;-0,000535515
3822,2214;-0,000692404
3823,1855;-0,000577673
3824,1499;-0,000312739
3825,1140;-7,54147E-05
3826,0784;2,26088E-05
3827,0425;-2,59347E-05
3828,0068;-0,000150914
3828,9709;-0,000259715
3829,9353;-0,000288832
3830,8994;-0,000229398
3831,8638;-0,000120656
3832,8279;-2,06134E-05
3833,7922;2,9522E-05
3834,7563;2,85623E-05
3835,7207;1,0123E-05
3836,6848;8,82276E-06
3837,6492;2,69502E-05
3838,6133;4,09178E-05
3839,5776;2,98872E-05
3840,5417;-1,92039E-05
3841,5061;-0,000116742
3842,4702;-0,000249225
3843,4346;-0,000355923
3844,3987;-0,000348095
3845,3630;-0,000172898
3846,3271;0,000127695
3847,2915;0,000416173
3848,2556;0,000519924
3849,2200;0,000311803
3850,1841;-0,000233046
3851,1484;-0,00103818
3852,1125;-0,00197318
3853,0769;-0,00280447
3854,0410;-0,00311715
3855,0054;-0,00267759
3855,9695;-0,00175111
3856,9338;-0,000798281
3857,8979;-0,000122227
3858,8623;0,000209414
3859,8264;0,000295873
3860,7908;0,000295883
3861,7549;0,000319667
3862,7192;0,000370178
3863,6833;0,000383498
3864,6477;0,000318914
3865,6118;0,000192642
3866,5762;5,17205E-05
3867,5403;-5,3955E-05
3868,5046;-9,36872E-05
3869,4688;-7,93596E-05
3870,4331;-6,38593E-05
3871,3972;-9,70981E-05
3872,3616;-0,00018382
3873,3257;-0,000291141
3874,2900;-0,000384644
3875,2542;-0,000446233
3876,2185;-0,000463409
3877,1826;-0,000415224
3878,1470;-0,00027912
3879,1111;-6,3792E-05
3880,0754;0,000164162
3881,0396;0,000300462
3882,0039;0,00026119
3882,9680;2,98134E-05
3883,9324;-0,00033016
3884,8965;-0,000695095
3885,8608;-0,000936968
3886,8250;-0,00099565
3887,7893;-0,000908147
3888,7534;-0,000764691
3889,7178;-0,000640116
3890,6819;-0,000557897
3891,6462;-0,000489688
3892,6104;-0,00037919
3893,5747;-0,000197003
3894,5388;1,91372E-05
3895,5032;0,000198067
3896,4673;0,000301384
3897,4316;0,000346078
3898,3958;0,000371391
3899,3601;0,000395514
3900,3242;0,00040292
3901,2886;0,000358586
3902,2527;0,000223212
3903,2170;-2,28438E-05
3904,1812;-0,000347865
3905,1455;-0,000675196
3906,1096;-0,000937527
3907,0740;-0,00111498
3908,0381;-0,00122035
3909,0024;-0,0012657
3909,9666;-0,00124906
3910,9309;-0,00116434
3911,8950;-0,00101659
3912,8594;-0,000827799
3913,8235;-0,00063247
3914,7878;-0,000470826
3915,7520;-0,000380909
3916,7163;-0,000380429
3917,6804;-0,000441444
3918,6448;-0,000492963
3919,6089;-0,000468675
3920,5732;-0,000357072
3921,5374;-0,000205157
3922,5017;-8,52731E-05
3923,4658;-5,1556E-05
3924,4302;-0,000103798
3925,3943;-0,000183275
3926,3586;-0,000214895
3927,3228;-0,000161722
3928,2871;-4,63046E-05
3929,2512;6,34367E-05
3930,2156;8,46904E-05
3931,1797;-3,77876E-05
3932,1440;-0,000290507
3933,1082;-0,000592226
3934,0725;-0,000847853
3935,0366;-0,00100157
3936,0010;-0,00104545
3936,9651;-0,000997529
3937,9294;-0,00088199
3938,8936;-0,000724218
3939,8579;-0,000555322
3940,8220;-0,000412616
3941,7864;-0,00032611
3942,7505;-0,000297772
3943,7148;-0,000296291
3944,6790;-0,000281247
3945,6433;-0,000234544
3946,6074;-0,00017484
3947,5718;-0,000148783
3948,5359;-0,000203994
3949,5002;-0,000355427
3950,4644;-0,000569893
3951,4287;-0,000786124
3952,3928;-0,000951925
3953,3572;-0,00104606
3954,3213;-0,00107616
3955,2856;-0,00106412
3956,2498;-0,0010314
3957,2141;-0,000991181
3958,1782;-0,000950115
3959,1426;-0,00091567
3960,1067;-0,000900955
3961,0710;-0,000920779
3962,0352;-0,000980788
3962,9995;-0,00106906
3963,9636;-0,00115912
3964,9280;-0,00122211
3965,8921;-0,00124129
3966,8564;-0,00121812
3967,8206;-0,00116896
3968,7849;-0,00111466
3969,7490;-0,00107012
3970,7134;-0,00104005
3971,6775;-0,00102308
3972,6418;-0,00101897
3973,6060;-0,00103235
3974,5703;-0,00106931
3975,5344;-0,00113001
3976,4988;-0,00120417
3977,4629;-0,00127396
3978,4272;-0,00132311
3979,3914;-0,00134613
3980,3557;-0,00135183
3981,3198;-0,00135826
3982,2842;-0,00138108
3983,2483;-0,00142243
3984,2126;-0,00146813
3985,1768;-0,00149574
3986,1411;-0,00148828
3987,1052;-0,00144474
3988,0696;-0,00138116
3989,0337;-0,001321
3989,9980;-0,00128294
3990,9622;-0,0012726
3991,9265;-0,00128432
3992,8906;-0,00130984
3993,8550;-0,00134575
3994,8191;-0,00139352
3995,7834;-0,0014532
3996,7476;-0,00151723
3997,7119;-0,00157079
3998,6760;-0,00159902
3999,6404;-0,00159548
4000,6045;-0,00116857

##### Extended Information
[Comments]
Sample name
Comment
Username
Division
Organization;UNIVERSIDAD INDUSTRIAL DE SANTANDER

[Detailed Information]
Creation date;28/02/2025 3:56 p.m.

Data array type;Linear data array
Horizontal axis;Wavenumber [cm-1]
Vertical axis;Abs
Start;399,193 cm-1
End;4000,6 cm-1
Data interval;0,964233 cm-1
Data points;3736    

[Measurement Information]
Model name;FT/IR-4X1typeA
Serial No.;A035162111

Accessory;ATR PRO 4X
Accessory S/N;A021162126
Incident angle;45 deg

Measurement date;28/02/2025 3:51 p.m.

Light source;Standard
Detector;TGS
Accumulation;40
Resolution;4 cm-1
Zero filling;On
Apodization;Cosine
Gain;Auto (8)
Aperture;Auto (7 mm)
Scan speed;Auto (2 mm/sec)
Filter;Auto (12800 Hz)

