TITLE;
DATA TYPE;INFRARED SPECTRUM
ORIGIN;JASCO
OWNER;
DATE;25/03/14
TIME;17:16:56
SPECTROMETER/DATA SYSTEM;
LOCALE;9226
RESOLUTION;
DELTAX;0,964233
XUNITS;1/CM
YUNITS;ABSORBANCE
FIRSTX;  399,1927
LASTX; 4000,6047
NPOINTS;    3736
FIRSTY;     0,19162
MAXY;     0,26123
MINY;     0,01121
XYDATA
399,1927;0,191623
400,1569;0,192033
401,1211;0,190507
402,0854;0,187957
403,0496;0,185317
404,0138;0,183299
404,9781;0,182296
405,9423;0,18232
406,9065;0,183057
407,8708;0,184079
408,8350;0,185084
409,7992;0,185977
410,7635;0,186782
411,7277;0,187508
412,6919;0,188129
413,6562;0,188641
414,6204;0,189121
415,5846;0,189711
416,5489;0,190538
417,5131;0,191588
418,4773;0,192599
419,4416;0,193216
420,4058;0,193402
421,3700;0,193458
422,3343;0,193645
423,2985;0,193993
424,2627;0,194347
425,2270;0,19449
426,1912;0,194287
427,1554;0,193784
428,1197;0,193205
429,0839;0,192847
430,0481;0,192953
431,0124;0,1936
431,9766;0,19463
432,9408;0,195678
433,9051;0,19631
434,8693;0,196235
435,8335;0,195464
436,7978;0,194311
437,7620;0,193203
438,7262;0,192446
439,6905;0,192119
440,6547;0,192124
441,6189;0,192305
442,5832;0,192544
443,5474;0,192796
444,5116;0,193033
445,4759;0,193179
446,4401;0,1931
447,4043;0,192673
448,3686;0,191865
449,3328;0,190783
450,2970;0,189643
451,2613;0,188688
452,2255;0,188069
453,1897;0,187779
454,1540;0,187676
455,1182;0,187575
456,0824;0,187358
457,0467;0,18704
458,0109;0,186749
458,9751;0,186606
459,9394;0,186606
460,9036;0,18662
461,8678;0,186506
462,8321;0,186209
463,7963;0,185783
464,7605;0,185358
465,7248;0,185068
466,6890;0,184969
467,6532;0,185009
468,6175;0,185074
469,5817;0,185064
470,5459;0,184953
471,5102;0,184808
472,4744;0,184738
473,4386;0,184797
474,4029;0,184932
475,3671;0,185022
476,3313;0,184971
477,2956;0,184781
478,2598;0,18457
479,2240;0,184514
480,1883;0,184764
481,1525;0,185358
482,1167;0,186195
483,0810;0,187084
484,0452;0,187832
485,0094;0,188332
485,9737;0,18859
486,9379;0,18868
487,9021;0,188674
488,8664;0,188617
489,8306;0,188542
490,7948;0,188493
491,7591;0,188532
492,7233;0,188702
493,6875;0,189001
494,6518;0,189385
495,6160;0,189793
496,5802;0,190188
497,5445;0,190562
498,5087;0,190924
499,4729;0,191275
500,4372;0,191603
501,4014;0,191887
502,3656;0,192116
503,3299;0,192303
504,2941;0,192479
505,2583;0,192679
506,2226;0,192925
507,1868;0,193222
508,1510;0,19356
509,1153;0,19393
510,0795;0,194333
511,0437;0,194784
512,0080;0,195301
512,9722;0,195886
513,9365;0,196509
514,9007;0,197107
515,8649;0,197613
516,8292;0,197993
517,7934;0,198273
518,7576;0,19853
519,7219;0,19882
520,6861;0,199136
521,6503;0,199404
522,6146;0,199544
523,5788;0,199518
524,5430;0,199368
525,5073;0,199204
526,4715;0,199143
527,4357;0,199223
528,4000;0,199375
529,3642;0,199481
530,3284;0,19944
531,2927;0,19922
532,2569;0,198863
533,2211;0,198444
534,1854;0,198039
535,1496;0,197692
536,1138;0,197417
537,0781;0,197226
538,0423;0,197135
539,0065;0,197164
539,9708;0,197308
540,9350;0,197531
541,8992;0,197767
542,8635;0,197951
543,8277;0,198054
544,7919;0,1981
545,7562;0,198151
546,7204;0,198282
547,6846;0,198534
548,6489;0,198899
549,6131;0,199328
550,5773;0,199764
551,5416;0,200175
552,5058;0,200561
553,4700;0,200942
554,4343;0,20133
555,3985;0,201705
556,3627;0,202012
557,3270;0,202176
558,2912;0,202129
559,2554;0,20183
560,2197;0,201278
561,1839;0,200513
562,1481;0,199609
563,1124;0,19866
564,0766;0,19775
565,0408;0,19693
566,0051;0,196208
566,9693;0,195558
567,9335;0,194953
568,8978;0,194395
569,8620;0,193918
570,8262;0,193562
571,7905;0,193343
572,7547;0,193232
573,7189;0,193165
574,6832;0,19308
575,6474;0,192946
576,6116;0,192778
577,5759;0,192619
578,5401;0,192501
579,5043;0,19242
580,4686;0,192336
581,4328;0,192198
582,3970;0,191973
583,3613;0,191665
584,3255;0,191316
585,2897;0,190984
586,2540;0,190725
587,2182;0,190572
588,1824;0,190526
589,1467;0,190561
590,1109;0,19063
591,0751;0,190675
592,0394;0,190649
593,0036;0,190525
593,9678;0,190302
594,9321;0,18999
595,8963;0,189598
596,8605;0,189125
597,8248;0,188571
598,7890;0,187952
599,7532;0,1873
600,7175;0,186665
601,6817;0,186089
602,6459;0,185596
603,6102;0,185187
604,5744;0,184855
605,5386;0,184583
606,5029;0,184346
607,4671;0,184103
608,4313;0,183791
609,3956;0,183343
610,3598;0,182723
611,3240;0,18195
612,2883;0,181103
613,2525;0,180292
614,2167;0,179599
615,1810;0,179029
616,1452;0,1785
617,1094;0,177869
618,0737;0,177013
619,0379;0,175892
620,0021;0,174564
620,9664;0,173145
621,9306;0,171751
622,8948;0,17047
623,8591;0,16935
624,8233;0,168375
625,7875;0,167574
626,7518;0,166895
627,7160;0,16627
628,6802;0,165634
629,6445;0,164955
630,6087;0,164242
631,5729;0,163539
632,5372;0,162901
633,5014;0,162358
634,4656;0,161895
635,4299;0,161462
636,3941;0,161006
637,3583;0,160503
638,3226;0,159976
639,2868;0,159474
640,2510;0,159038
641,2153;0,158678
642,1795;0,15837
643,1437;0,158084
644,1080;0,157806
645,0722;0,157547
646,0364;0,157323
647,0007;0,157127
647,9649;0,156923
648,9291;0,156662
649,8934;0,156323
650,8576;0,155927
651,8218;0,15554
652,7861;0,155234
653,7503;0,155061
654,7145;0,155035
655,6788;0,155132
656,6430;0,155296
657,6072;0,155462
658,5715;0,155572
659,5357;0,155572
660,4999;0,155418
661,4642;0,155071
662,4284;0,154482
663,3926;0,153586
664,3569;0,15234
665,3211;0,150815
666,2853;0,149278
667,2496;0,148102
668,2138;0,147419
669,1780;0,147029
670,1423;0,146782
671,1065;0,146541
672,0707;0,146044
673,0350;0,145095
673,9992;0,143702
674,9634;0,142036
675,9277;0,140327
676,8919;0,138731
677,8561;0,137278
678,8204;0,13591
679,7846;0,134571
680,7488;0,133256
681,7131;0,132011
682,6773;0,130887
683,6415;0,129912
684,6058;0,12909
685,5700;0,128405
686,5342;0,127827
687,4985;0,127312
688,4627;0,126819
689,4269;0,126312
690,3912;0,125792
691,3554;0,125283
692,3196;0,124817
693,2839;0,124406
694,2481;0,124034
695,2123;0,123669
696,1766;0,123283
697,1408;0,122863
698,1050;0,122415
699,0693;0,121953
700,0335;0,121495
700,9977;0,12105
701,9620;0,120619
702,9262;0,12019
703,8904;0,119734
704,8547;0,119234
705,8189;0,118681
706,7831;0,118085
707,7474;0,117471
708,7116;0,11687
709,6758;0,1163
710,6401;0,115755
711,6043;0,115208
712,5685;0,11463
713,5328;0,11401
714,4970;0,113369
715,4612;0,112155
716,4255;0,111709
717,3897;0,111346
718,3539;0,110974
719,3182;0,110466
720,2824;0,109734
721,2466;0,108784
722,2109;0,107719
723,1751;0,106666
724,1393;0,105714
725,1036;0,104883
726,0678;0,104146
727,0320;0,103457
727,9963;0,102785
728,9605;0,10212
729,9247;0,101462
730,8890;0,100812
731,8532;0,100173
732,8174;0,0995483
733,7817;0,0989469
734,7459;0,0983812
735,7101;0,0978613
736,6744;0,0973914
737,6386;0,0969705
738,6028;0,0965925
739,5671;0,096245
740,5313;0,0959074
741,4955;0,0955525
742,4598;0,0951543
743,4240;0,0946974
744,3882;0,0941821
745,3525;0,093623
746,3167;0,0930408
747,2809;0,0924547
748,2452;0,0918773
749,2094;0,0913151
750,1736;0,0907706
751,1379;0,0902445
752,1021;0,0897362
753,0663;0,0892439
754,0306;0,0887639
754,9948;0,0882909
755,9590;0,0878182
756,9233;0,0873411
757,8875;0,0868603
758,8517;0,0863843
759,8160;0,0859282
760,7802;0,0855061
761,7444;0,0851218
762,7087;0,0847632
763,6729;0,0844063
764,6371;0,0840271
765,6014;0,083616
766,5656;0,0831848
767,5298;0,0827611
768,4941;0,0823737
769,4583;0,0820374
770,4225;0,0817464
771,3868;0,08148
772,3510;0,0812146
773,3152;0,0809363
774,2795;0,0806455
775,2437;0,0803532
776,2079;0,0800725
777,1722;0,0798096
778,1364;0,0795594
779,1006;0,0793066
780,0649;0,0790309
781,0291;0,0787155
781,9933;0,0783545
782,9576;0,077957
783,9218;0,0775454
784,8860;0,0771486
785,8503;0,0767928
786,8145;0,0764927
787,7787;0,0762482
788,7430;0,076046
789,7072;0,0758653
790,6714;0,0756851
791,6357;0,0754905
792,5999;0,0752769
793,5641;0,0750504
794,5284;0,074825
795,4926;0,0746176
796,4568;0,0744411
797,4211;0,0743006
798,3853;0,0741921
799,3495;0,0741059
800,3138;0,0740306
801,2780;0,073957
802,2422;0,0738783
803,2065;0,0737893
804,1707;0,0736859
805,1349;0,0735666
806,0992;0,0734342
807,0634;0,0732966
808,0276;0,0731635
808,9919;0,0730407
809,9561;0,0729254
810,9203;0,0728067
811,8846;0,0726717
812,8488;0,0725134
813,8130;0,0723369
814,7773;0,0721562
815,7415;0,071987
816,7057;0,0718371
817,6700;0,071703
818,6342;0,0715739
819,5984;0,0714402
820,5627;0,0713001
821,5269;0,0711605
822,4911;0,0710304
823,4554;0,070914
824,4196;0,0708074
825,3839;0,0707016
826,3481;0,0705883
827,3123;0,0704646
828,2766;0,0703315
829,2408;0,0701899
830,2050;0,0700363
831,1693;0,0698627
832,1335;0,0696621
833,0977;0,0694323
834,0620;0,0691787
835,0262;0,0689106
835,9904;0,0686366
836,9547;0,068361
837,9189;0,0680843
838,8831;0,0678054
839,8474;0,0675257
840,8116;0,06725
841,7758;0,0669855
842,7401;0,0667408
843,7043;0,066524
844,6685;0,0663413
845,6328;0,0661954
846,5970;0,0660846
847,5612;0,0660021
848,5255;0,0659386
849,4897;0,0658845
850,4539;0,0658329
851,4182;0,0657794
852,3824;0,0657209
853,3466;0,0656541
854,3109;0,0655767
855,2751;0,0654908
856,2393;0,0654055
857,2036;0,065336
858,1678;0,0652983
859,1320;0,0653011
860,0963;0,0653412
861,0605;0,0654046
862,0247;0,0654743
862,9890;0,0655395
863,9532;0,0656013
864,9174;0,0656697
865,8817;0,0657555
866,8459;0,0658622
867,8101;0,0659845
868,7744;0,066113
869,7386;0,0662431
870,7028;0,0663782
871,6671;0,0665262
872,6313;0,0666913
873,5955;0,066868
874,5598;0,0670434
875,5240;0,0672058
876,4882;0,0673538
877,4525;0,0674992
878,4167;0,0676614
879,3809;0,0678595
880,3452;0,0681078
881,3094;0,0684181
882,2736;0,0688048
883,2379;0,0692866
884,2021;0,0698824
885,1663;0,0706021
886,1306;0,071441
887,0948;0,0723809
888,0590;0,0733973
889,0233;0,0744665
889,9875;0,0755671
890,9517;0,0766757
891,9160;0,0777604
892,8802;0,0787777
893,8444;0,0796764
894,8087;0,0804059
895,7729;0,080926
896,7371;0,0812123
897,7014;0,0812574
898,6656;0,0810675
899,6298;0,0806581
900,5941;0,080051
901,5583;0,0792743
902,5225;0,0783639
903,4868;0,0773657
904,4510;0,0763348
905,4152;0,0753303
906,3795;0,0744062
907,3437;0,0736023
908,3079;0,0729401
909,2722;0,0724234
910,2364;0,0720451
911,2007;0,0717928
912,1649;0,0716522
913,1292;0,071607
914,0934;0,0716382
915,0576;0,0717262
916,0219;0,0718552
916,9861;0,0720179
917,9503;0,0722155
918,9146;0,0724533
919,8788;0,0727328
920,8430;0,0730461
921,8073;0,0733756
922,7715;0,0736998
923,7357;0,0740012
924,7000;0,0742729
925,6642;0,0745194
926,6284;0,074753
927,5927;0,0749878
928,5569;0,0752341
929,5211;0,0754972
930,4854;0,0757777
931,4496;0,0760751
932,4138;0,0763891
933,3781;0,0767211
934,3423;0,0770739
935,3065;0,0774527
936,2708;0,077866
937,2350;0,0783261
938,1992;0,0788472
939,1635;0,0794418
940,1277;0,0801153
941,0919;0,0808655
942,0562;0,0816851
943,0204;0,0825682
943,9846;0,0835155
944,9489;0,0845348
945,9131;0,0856351
946,8773;0,0868209
947,8416;0,0880881
948,8058;0,0894275
949,7700;0,0908307
950,7343;0,0922967
951,6985;0,0938329
952,6627;0,095453
953,6270;0,0971708
954,5912;0,0989962
955,5554;0,100931
956,5197;0,102965
957,4839;0,105077
958,4481;0,107236
959,4124;0,109407
960,3766;0,111563
961,3408;0,113693
962,3051;0,115805
963,2693;0,117915
964,2335;0,120038
965,1978;0,122178
966,1620;0,12433
967,1262;0,126486
968,0905;0,128652
969,0547;0,130855
970,0189;0,133137
970,9832;0,135545
971,9474;0,138121
972,9116;0,140893
973,8759;0,143874
974,8401;0,147069
975,8043;0,150479
976,7686;0,154101
977,7328;0,15792
978,6970;0,161895
979,6613;0,165955
980,6255;0,170001
981,5897;0,173913
982,5540;0,17758
983,5182;0,180913
984,4824;0,183864
985,4467;0,186425
986,4109;0,188618
987,3751;0,190481
988,3394;0,192059
989,3036;0,193399
990,2678;0,194547
991,2321;0,195549
992,1963;0,19645
993,1605;0,197286
994,1248;0,198085
995,0890;0,198864
996,0532;0,199638
997,0175;0,200419
997,9817;0,201225
998,9459;0,20207
999,9102;0,202968
1000,8744;0,203927
1001,8386;0,204953
1002,8029;0,206057
1003,7671;0,207259
1004,7313;0,208591
1005,6956;0,210088
1006,6598;0,211785
1007,6240;0,213712
1008,5883;0,215886
1009,5525;0,218311
1010,5167;0,220971
1011,4810;0,223824
1012,4452;0,226804
1013,4094;0,229827
1014,3737;0,232804
1015,3379;0,235667
1016,3021;0,238368
1017,2664;0,240891
1018,2306;0,243232
1019,1948;0,245398
1020,1591;0,247398
1021,1233;0,249248
1022,0875;0,250967
1023,0518;0,252584
1024,0160;0,254122
1024,9802;0,25559
1025,9445;0,256978
1026,9087;0,258257
1027,8729;0,259382
1028,8372;0,260297
1029,8014;0,260937
1030,7656;0,261229
1031,7299;0,261101
1032,6941;0,26049
1033,6583;0,259369
1034,6226;0,257764
1035,5868;0,255762
1036,5510;0,253505
1037,5153;0,251164
1038,4795;0,248909
1039,4437;0,246879
1040,4080;0,245162
1041,3722;0,243786
1042,3364;0,242721
1043,3007;0,241899
1044,2649;0,24122
1045,2291;0,240577
1046,1934;0,239868
1047,1576;0,239012
1048,1218;0,237957
1049,0861;0,236684
1050,0503;0,235193
1051,0145;0,233497
1051,9788;0,23161
1052,9430;0,229545
1053,9072;0,227312
1054,8715;0,224919
1055,8357;0,222366
1056,7999;0,219631
1057,7642;0,216677
1058,7284;0,213454
1059,6926;0,209935
1060,6569;0,206139
1061,6211;0,202145
1062,5853;0,198085
1063,5496;0,194105
1064,5138;0,190331
1065,4780;0,186842
1066,4423;0,183662
1067,4065;0,180778
1068,3707;0,178155
1069,3350;0,175749
1070,2992;0,173515
1071,2634;0,171407
1072,2277;0,169374
1073,1919;0,167369
1074,1561;0,165353
1075,1204;0,163298
1076,0846;0,161195
1077,0488;0,159057
1078,0131;0,156915
1078,9773;0,15482
1079,9415;0,152829
1080,9058;0,150996
1081,8700;0,149357
1082,8342;0,147916
1083,7985;0,146656
1084,7627;0,145541
1085,7269;0,144539
1086,6912;0,143631
1087,6554;0,142812
1088,6196;0,142088
1089,5839;0,141464
1090,5481;0,140939
1091,5123;0,140503
1092,4766;0,140144
1093,4408;0,139852
1094,4050;0,139625
1095,3693;0,139466
1096,3335;0,13938
1097,2977;0,139371
1098,2620;0,139442
1099,2262;0,139585
1100,1904;0,139783
1101,1547;0,140007
1102,1189;0,140216
1103,0831;0,140365
1104,0474;0,140414
1105,0116;0,140338
1105,9758;0,140131
1106,9401;0,1398
1107,9043;0,139354
1108,8685;0,138793
1109,8328;0,138099
1110,7970;0,137241
1111,7612;0,136186
1112,7255;0,134925
1113,6897;0,133483
1114,6539;0,131923
1115,6182;0,130336
1116,5824;0,128815
1117,5466;0,127426
1118,5109;0,126187
1119,4751;0,125065
1120,4393;0,123989
1121,4036;0,122863
1122,3678;0,121599
1123,3320;0,120133
1124,2963;0,118434
1125,2605;0,116508
1126,2247;0,114388
1127,1890;0,112121
1128,1532;0,109759
1129,1174;0,107348
1130,0817;0,104931
1131,0459;0,102542
1132,0101;0,100211
1132,9744;0,09797
1133,9386;0,0958534
1134,9028;0,0938997
1135,8671;0,0921491
1136,8313;0,0906378
1137,7955;0,0893909
1138,7598;0,0884171
1139,7240;0,087707
1140,6882;0,0872362
1141,6525;0,0869711
1142,6167;0,0868747
1143,5809;0,0869129
1144,5452;0,0870594
1145,5094;0,087299
1146,4736;0,0876289
1147,4379;0,0880554
1148,4021;0,0885864
1149,3663;0,0892221
1150,3306;0,0899483
1151,2948;0,090735
1152,2590;0,091541
1153,2233;0,0923217
1154,1875;0,0930334
1155,1517;0,0936343
1156,1160;0,0940803
1157,0802;0,0943211
1158,0444;0,0942976
1159,0087;0,0939453
1159,9729;0,0932013
1160,9371;0,0920152
1161,9014;0,090361
1162,8656;0,0882468
1163,8298;0,0857195
1164,7941;0,0828615
1165,7583;0,0797806
1166,7225;0,0765957
1167,6868;0,0734214
1168,6510;0,0703561
1169,6152;0,0674743
1170,5795;0,0648248
1171,5437;0,0624329
1172,5079;0,0603043
1173,4722;0,0584301
1174,4364;0,0567914
1175,4006;0,0553631
1176,3649;0,0541188
1177,3291;0,0530353
1178,2933;0,0520965
1179,2576;0,0512937
1180,2218;0,0506234
1181,1860;0,0500818
1182,1503;0,0496615
1183,1145;0,04935
1184,0787;0,049133
1185,0430;0,0489988
1186,0072;0,0489407
1186,9714;0,048958
1187,9357;0,0490536
1188,8999;0,0492324
1189,8641;0,0495003
1190,8284;0,0498631
1191,7926;0,0503264
1192,7568;0,0508922
1193,7211;0,0515565
1194,6853;0,0523071
1195,6495;0,0531253
1196,6138;0,05399
1197,5780;0,0548823
1198,5422;0,0557882
1199,5065;0,0565308
1200,4707;0,057458
1201,4349;0,0583759
1202,3992;0,0592753
1203,3634;0,0601482
1204,3276;0,0609904
1205,2919;0,0618031
1206,2561;0,0625933
1207,2203;0,0633729
1208,1846;0,0641579
1209,1488;0,0649667
1210,1130;0,065818
1211,0773;0,0667271
1212,0415;0,0677009
1213,0057;0,0687359
1213,9700;0,0698195
1214,9342;0,0709346
1215,8984;0,0720651
1216,8627;0,0731978
1217,8269;0,0743213
1218,7911;0,0754257
1219,7554;0,0764993
1220,7196;0,0775289
1221,6838;0,0785028
1222,6481;0,0794131
1223,6123;0,0802576
1224,5765;0,0810396
1225,5408;0,0817658
1226,5050;0,0824441
1227,4692;0,083081
1228,4335;0,0836798
1229,3977;0,0842397
1230,3619;0,0847556
1231,3262;0,0852208
1232,2904;0,0856291
1233,2546;0,0859777
1234,2189;0,0862689
1235,1831;0,0865089
1236,1473;0,0867065
1237,1116;0,0868705
1238,0758;0,0870076
1239,0400;0,0871214
1240,0043;0,0872109
1240,9685;0,0872699
1241,9327;0,0872871
1242,8970;0,0872479
1243,8612;0,087138
1244,8254;0,0869486
1245,7897;0,08668
1246,7539;0,0863435
1247,7181;0,0859589
1248,6824;0,0855488
1249,6466;0,0851318
1250,6108;0,0847183
1251,5751;0,0843098
1252,5393;0,0839029
1253,5035;0,0834944
1254,4678;0,0830834
1255,4320;0,0826694
1256,3962;0,0822486
1257,3605;0,0818109
1258,3247;0,0813426
1259,2889;0,080832
1260,2532;0,0802744
1261,2174;0,079673
1262,1816;0,0790339
1263,1459;0,0783597
1264,1101;0,0776477
1265,0743;0,0768924
1266,0386;0,0760892
1267,0028;0,0752371
1267,9670;0,0743379
1268,9313;0,0733939
1269,8955;0,072408
1270,8597;0,0713855
1271,8240;0,070337
1272,7882;0,0692777
1273,7524;0,0682247
1274,7167;0,0671939
1275,6809;0,0661979
1276,6451;0,0652458
1277,6094;0,0643421
1278,5736;0,0634846
1279,5378;0,0626641
1280,5021;0,0618668
1281,4663;0,0610808
1282,4305;0,0603033
1283,3948;0,059543
1284,3590;0,0588164
1285,3232;0,0581412
1286,2875;0,0575299
1287,2517;0,0569877
1288,2159;0,0565145
1289,1802;0,0561094
1290,1444;0,0557727
1291,1086;0,0555065
1292,0729;0,0553137
1293,0371;0,0551975
1294,0013;0,0551616
1294,9656;0,0552095
1295,9298;0,0553417
1296,8940;0,0555545
1297,8583;0,0558393
1298,8225;0,056186
1299,7867;0,0565873
1300,7510;0,0570409
1301,7152;0,0575518
1302,6794;0,0581257
1303,6437;0,058765
1304,6079;0,0594667
1305,5721;0,0602204
1306,5364;0,0610108
1307,5006;0,0618225
1308,4648;0,062644
1309,4291;0,0634677
1310,3933;0,0642863
1311,3575;0,0650871
1312,3218;0,0658488
1313,2860;0,0665448
1314,2502;0,0671486
1315,2145;0,0676376
1316,1787;0,0679925
1317,1429;0,0681967
1318,1072;0,0682414
1319,0714;0,0681356
1320,0356;0,0679124
1320,9999;0,0676216
1321,9641;0,0673119
1322,9283;0,0670162
1323,8926;0,0667484
1324,8568;0,0665093
1325,8210;0,0662952
1326,7853;0,0661028
1327,7495;0,065929
1328,7137;0,0657681
1329,6780;0,0656084
1330,6422;0,0654342
1331,6064;0,0652318
1332,5707;0,0649939
1333,5349;0,0647225
1334,4991;0,0644204
1335,4634;0,0640813
1336,4276;0,0636811
1337,3918;0,06318
1338,3561;0,0625452
1339,3203;0,0617924
1340,2845;0,0610043
1341,2488;0,0602865
1342,2130;0,0597031
1343,1772;0,0592579
1344,1415;0,0589221
1345,1057;0,0586663
1346,0699;0,058476
1347,0342;0,0583509
1347,9984;0,0583007
1348,9626;0,0583375
1349,9269;0,0584696
1350,8911;0,0586952
1351,8553;0,0590021
1352,8196;0,0593724
1353,7838;0,0597905
1354,7480;0,0602479
1355,7123;0,060743
1356,6765;0,0612755
1357,6407;0,0618419
1358,6050;0,062437
1359,5692;0,0630561
1360,5334;0,0636872
1361,4977;0,064299
1362,4619;0,0648531
1363,4261;0,0653394
1364,3904;0,0657813
1365,3546;0,0662025
1366,3188;0,0666037
1367,2831;0,0669684
1368,2473;0,0672764
1369,2115;0,0675113
1370,1758;0,0676595
1371,1400;0,0677043
1372,1042;0,0676204
1373,0685;0,0673782
1374,0327;0,0669672
1374,9969;0,0664194
1375,9612;0,0657945
1376,9254;0,0651251
1377,8896;0,0643882
1378,8539;0,0635391
1379,8181;0,0625669
1380,7823;0,0615212
1381,7466;0,0604825
1382,7108;0,0595019
1383,6750;0,0585647
1384,6393;0,0576072
1385,6035;0,056572
1386,5677;0,0554754
1387,5320;0,0544397
1388,4962;0,0536223
1389,4604;0,0530878
1390,4247;0,0527744
1391,3889;0,0525739
1392,3531;0,0524124
1393,3174;0,0522705
1394,2816;0,052155
1395,2458;0,0520638
1396,2101;0,0519787
1397,1743;0,0518899
1398,1385;0,0518182
1399,1028;0,0518092
1400,0670;0,0519018
1401,0313;0,0521007
1401,9955;0,0523773
1402,9597;0,0526926
1403,9240;0,053024
1404,8882;0,0533769
1405,8524;0,0537794
1406,8167;0,0542579
1407,7809;0,0548149
1408,7451;0,0554316
1409,7094;0,0560922
1410,6736;0,0567983
1411,6378;0,057559
1412,6021;0,0583681
1413,5663;0,0591914
1414,5305;0,0599803
1415,4948;0,0606993
1416,4590;0,0613349
1417,4232;0,0618753
1418,3875;0,0623062
1419,3517;0,0626569
1420,3159;0,0629937
1421,2802;0,0633194
1422,2444;0,0635443
1423,2086;0,0635682
1424,1729;0,0633585
1425,1371;0,0629563
1426,1013;0,0624236
1427,0656;0,0617853
1428,0298;0,0610214
1428,9940;0,0601175
1429,9583;0,0591229
1430,9225;0,0581399
1431,8867;0,0572341
1432,8510;0,056367
1433,8152;0,0554239
1434,7794;0,0543013
1435,7437;0,0530132
1436,7079;0,0517702
1437,6721;0,050885
1438,6364;0,0505024
1439,6006;0,0505025
1440,5648;0,0506702
1441,5291;0,0508655
1442,4933;0,0510626
1443,4575;0,0513031
1444,4218;0,051631
1445,3860;0,0520503
1446,3502;0,0525261
1447,3145;0,0530154
1448,2787;0,0535027
1449,2429;0,0540041
1450,2072;0,0545278
1451,1714;0,055034
1452,1356;0,0554441
1453,0999;0,0556903
1454,0641;0,0557586
1455,0283;0,0556699
1455,9926;0,0553797
1456,9568;0,0548033
1457,9210;0,0541842
1458,8853;0,0539754
1459,8495;0,0542038
1460,8137;0,0545438
1461,7780;0,0546833
1462,7422;0,0544397
1463,7064;0,0537482
1464,6707;0,0526879
1465,6349;0,0515033
1466,5991;0,0504501
1467,5634;0,04958
1468,5276;0,0487496
1469,4918;0,0477688
1470,4561;0,0464871
1471,4203;0,0447989
1472,3845;0,0426933
1473,3488;0,0404103
1474,3130;0,0383946
1475,2772;0,0369122
1476,2415;0,0359
1477,2057;0,0351689
1478,1699;0,0345723
1479,1342;0,034037
1480,0984;0,0335421
1481,0626;0,0331011
1482,0269;0,032751
1482,9911;0,0325316
1483,9553;0,0324607
1484,9196;0,0325272
1485,8838;0,0327036
1486,8480;0,0329518
1487,8123;0,0332001
1488,7765;0,0333564
1489,7407;0,0334341
1490,7050;0,0335968
1491,6692;0,0339653
1492,6334;0,034513
1493,5977;0,0351652
1494,5619;0,0359014
1495,5261;0,036758
1496,4904;0,0377568
1497,4546;0,0388519
1498,4188;0,0399828
1499,3831;0,0411264
1500,3473;0,0422321
1501,3115;0,0431886
1502,2758;0,0438902
1503,2400;0,0443188
1504,2042;0,044588
1505,1685;0,0448808
1506,1327;0,045157
1507,0969;0,0449725
1508,0612;0,0442692
1509,0254;0,0436246
1509,9896;0,0432651
1510,9539;0,0430094
1511,9181;0,0426675
1512,8823;0,0421582
1513,8466;0,041473
1514,8108;0,0406285
1515,7750;0,0396515
1516,7393;0,0385836
1517,7035;0,0374715
1518,6677;0,0363396
1519,6320;0,0351875
1520,5962;0,0340331
1521,5604;0,0329586
1522,5247;0,0320745
1523,4889;0,031415
1524,4531;0,0309104
1525,4174;0,0304752
1526,3816;0,030094
1527,3458;0,0298149
1528,3101;0,0296742
1529,2743;0,0296505
1530,2385;0,0296909
1531,2028;0,0297602
1532,1670;0,0298576
1533,1312;0,0299999
1534,0955;0,0301978
1535,0597;0,0304278
1536,0239;0,0306304
1536,9882;0,0307764
1537,9524;0,0309449
1538,9166;0,0312834
1539,8809;0,0317278
1540,8451;0,0318215
1541,8093;0,031402
1542,7736;0,030921
1543,7378;0,0306644
1544,7020;0,0305991
1545,6663;0,0306474
1546,6305;0,0307725
1547,5947;0,0309459
1548,5590;0,0311265
1549,5232;0,0312794
1550,4874;0,0314048
1551,4517;0,0315407
1552,4159;0,0317231
1553,3801;0,0319347
1554,3444;0,0320992
1555,3086;0,0321282
1556,2728;0,0319507
1557,2371;0,0314538
1558,2013;0,0305099
1559,1655;0,0295369
1560,1298;0,029398
1561,0940;0,0301816
1562,0582;0,0313508
1563,0225;0,0324574
1563,9867;0,0333083
1564,9509;0,0338829
1565,9152;0,0342456
1566,8794;0,0344932
1567,8436;0,0347238
1568,8079;0,0350211
1569,7721;0,0354439
1570,7363;0,0359969
1571,7006;0,0366176
1572,6648;0,0372262
1573,6290;0,0377976
1574,5933;0,0383741
1575,5575;0,038999
1576,5217;0,0396662
1577,4860;0,0403806
1578,4502;0,0411765
1579,4144;0,0420398
1580,3787;0,0429165
1581,3429;0,0437753
1582,3071;0,0446234
1583,2714;0,0454836
1584,2356;0,0463714
1585,1998;0,0472912
1586,1641;0,0482377
1587,1283;0,0491952
1588,0925;0,0501351
1589,0568;0,0510181
1590,0210;0,0518021
1590,9852;0,0524483
1591,9495;0,0529225
1592,9137;0,0531955
1593,8779;0,0532532
1594,8422;0,0531128
1595,8064;0,0528282
1596,7706;0,0524706
1597,7349;0,0520979
1598,6991;0,0517363
1599,6633;0,0513839
1600,6276;0,0510287
1601,5918;0,0506688
1602,5560;0,0503226
1603,5203;0,0500204
1604,4845;0,0497795
1605,4487;0,049584
1606,4130;0,0493887
1607,3772;0,0491479
1608,3414;0,0488566
1609,3057;0,0485712
1610,2699;0,0483716
1611,2341;0,0482891
1612,1984;0,0482779
1613,1626;0,0482556
1614,1268;0,0481579
1615,0911;0,0479674
1616,0553;0,0477355
1617,0195;0,0476048
1617,9838;0,0477171
1618,9480;0,0480555
1619,9122;0,0484657
1620,8765;0,0487989
1621,8407;0,0489918
1622,8049;0,0490647
1623,7692;0,0490859
1624,7334;0,0491233
1625,6976;0,0492013
1626,6619;0,0493047
1627,6261;0,0494231
1628,5903;0,0495741
1629,5546;0,0497725
1630,5188;0,0499895
1631,4830;0,0501607
1632,4473;0,0502372
1633,4115;0,0502182
1634,3757;0,0501142
1635,3400;0,0498952
1636,3042;0,0496059
1637,2684;0,0494558
1638,2327;0,0495676
1639,1969;0,0498517
1640,1611;0,0501603
1641,1254;0,0504001
1642,0896;0,05054
1643,0538;0,0505899
1644,0181;0,0505776
1644,9823;0,0505085
1645,9465;0,0503419
1646,9108;0,0500835
1647,8750;0,0498405
1648,8392;0,0496425
1649,8035;0,0493598
1650,7677;0,0488252
1651,7319;0,0479002
1652,6962;0,0465195
1653,6604;0,0450703
1654,6246;0,0443629
1655,5889;0,0445459
1656,5531;0,0450869
1657,5173;0,0455032
1658,4816;0,0455853
1659,4458;0,0453147
1660,4100;0,0447624
1661,3743;0,0440392
1662,3385;0,0432972
1663,3027;0,0426987
1664,2670;0,0423125
1665,2312;0,0420704
1666,1954;0,041839
1667,1597;0,0414967
1668,1239;0,0409654
1669,0881;0,0402402
1670,0524;0,039433
1671,0166;0,0387048
1671,9808;0,0380975
1672,9451;0,0375079
1673,9093;0,036832
1674,8735;0,0361
1675,8378;0,0354894
1676,8020;0,0351831
1677,7662;0,035195
1678,7305;0,0353575
1679,6947;0,0354495
1680,6589;0,0353017
1681,6232;0,0348086
1682,5874;0,0339016
1683,5516;0,0326467
1684,5159;0,0314448
1685,4801;0,030762
1686,4443;0,0306226
1687,4086;0,0307243
1688,3728;0,0307954
1689,3370;0,0307244
1690,3013;0,030525
1691,2655;0,0302658
1692,2297;0,0300213
1693,1940;0,0298532
1694,1582;0,0297988
1695,1224;0,02984
1696,0867;0,0298672
1697,0509;0,0297019
1698,0151;0,0292326
1698,9794;0,0285801
1699,9436;0,0280788
1700,9078;0,0280168
1701,8721;0,0284141
1702,8363;0,0290635
1703,8005;0,0297126
1704,7648;0,0301982
1705,7290;0,0304956
1706,6932;0,0307028
1707,6575;0,0309658
1708,6217;0,0313802
1709,5859;0,0319501
1710,5502;0,0326221
1711,5144;0,0333363
1712,4786;0,0340512
1713,4429;0,034742
1714,4071;0,0353749
1715,3713;0,0358641
1716,3356;0,0360872
1717,2998;0,0360749
1718,2640;0,0361179
1719,2283;0,0364609
1720,1925;0,0370726
1721,1567;0,0377777
1722,1210;0,0384279
1723,0852;0,0389588
1724,0494;0,0393812
1725,0137;0,0397522
1725,9779;0,0401378
1726,9421;0,040574
1727,9064;0,0410437
1728,8706;0,0414811
1729,8348;0,0417922
1730,7991;0,0418748
1731,7633;0,0416335
1732,7275;0,0410376
1733,6918;0,0402497
1734,6560;0,0396068
1735,6202;0,0393052
1736,5845;0,0392288
1737,5487;0,0391249
1738,5129;0,0388102
1739,4772;0,0382474
1740,4414;0,0375316
1741,4056;0,0368165
1742,3699;0,0362073
1743,3341;0,035703
1744,2983;0,0352296
1745,2626;0,0347042
1746,2268;0,0340558
1747,1910;0,0332023
1748,1553;0,0320437
1749,1195;0,0305497
1750,0837;0,0288936
1751,0480;0,0274019
1752,0122;0,0262959
1752,9764;0,0255537
1753,9407;0,0250066
1754,9049;0,0244891
1755,8691;0,0239188
1756,8334;0,0233007
1757,7976;0,0226777
1758,7618;0,0220691
1759,7261;0,0214492
1760,6903;0,0207847
1761,6545;0,0200933
1762,6188;0,0194547
1763,5830;0,0189509
1764,5472;0,0186013
1765,5115;0,0183621
1766,4757;0,0181724
1767,4399;0,0179926
1768,4042;0,0178072
1769,3684;0,0175984
1770,3326;0,0173208
1771,2969;0,0169227
1772,2611;0,0164281
1773,2253;0,0159759
1774,1896;0,0157091
1775,1538;0,0156475
1776,1180;0,0156991
1777,0823;0,0157513
1778,0465;0,0157331
1779,0107;0,0156272
1779,9750;0,015455
1780,9392;0,0152512
1781,9034;0,0150445
1782,8677;0,0148546
1783,8319;0,0147048
1784,7961;0,0146273
1785,7604;0,0146458
1786,7246;0,014751
1787,6888;0,0148976
1788,6531;0,0150275
1789,6173;0,0150947
1790,5815;0,0150711
1791,5458;0,0149503
1792,5100;0,0147776
1793,4742;0,0146508
1794,4385;0,0146358
1795,4027;0,0147043
1796,3669;0,0147757
1797,3312;0,014784
1798,2954;0,0147057
1799,2596;0,0145536
1800,2239;0,014364
1801,1881;0,0141842
1802,1523;0,0140567
1803,1166;0,0140024
1804,0808;0,0140173
1805,0450;0,0140828
1806,0093;0,0141769
1806,9735;0,0142767
1807,9377;0,0143554
1808,9020;0,014383
1809,8662;0,0143373
1810,8304;0,0142223
1811,7947;0,0140728
1812,7589;0,0139317
1813,7231;0,0138232
1814,6874;0,0137477
1815,6516;0,013695
1816,6158;0,0136598
1817,5801;0,0136471
1818,5443;0,0136678
1819,5085;0,0137268
1820,4728;0,0138141
1821,4370;0,0139079
1822,4012;0,0139862
1823,3655;0,0140372
1824,3297;0,0140644
1825,2939;0,0140815
1826,2582;0,0140963
1827,2224;0,0140959
1828,1866;0,0140502
1829,1509;0,0139377
1830,1151;0,0137805
1831,0793;0,0136452
1832,0436;0,0135912
1833,0078;0,0136207
1833,9720;0,0136889
1834,9363;0,0137475
1835,9005;0,0137756
1836,8647;0,0137851
1837,8290;0,0138027
1838,7932;0,0138427
1839,7574;0,0138928
1840,7217;0,0139267
1841,6859;0,0139265
1842,6501;0,0138894
1843,6144;0,0138226
1844,5786;0,013747
1845,5428;0,0136962
1846,5071;0,0136856
1847,4713;0,0136915
1848,4355;0,0136769
1849,3998;0,0136282
1850,3640;0,0135649
1851,3282;0,0135214
1852,2925;0,0135202
1853,2567;0,0135574
1854,2209;0,013609
1855,1852;0,0136482
1856,1494;0,01366
1857,1136;0,0136451
1858,0779;0,0136141
1859,0421;0,0135828
1860,0063;0,0135708
1860,9706;0,0136011
1861,9348;0,013693
1862,8990;0,0138508
1863,8633;0,0140563
1864,8275;0,0142709
1865,7917;0,0144405
1866,7560;0,014501
1867,7202;0,0144012
1868,6844;0,0141543
1869,6487;0,0138604
1870,6129;0,0136358
1871,5771;0,0135261
1872,5414;0,0135028
1873,5056;0,0135157
1874,4698;0,0135321
1875,4341;0,0135434
1876,3983;0,0135553
1877,3625;0,0135744
1878,3268;0,0136032
1879,2910;0,0136405
1880,2552;0,0136867
1881,2195;0,013744
1882,1837;0,0138131
1883,1479;0,0138881
1884,1122;0,0139559
1885,0764;0,0140009
1886,0406;0,0140123
1887,0049;0,0139895
1887,9691;0,0139422
1888,9333;0,0138877
1889,8976;0,0138445
1890,8618;0,0138236
1891,8260;0,0138209
1892,7903;0,013819
1893,7545;0,0137995
1894,7188;0,0137564
1895,6830;0,0137036
1896,6472;0,0136678
1897,6115;0,013673
1898,5757;0,0137238
1899,5399;0,0138023
1900,5042;0,0138791
1901,4684;0,0139302
1902,4326;0,0139495
1903,3969;0,0139497
1904,3611;0,0139509
1905,3253;0,0139656
1906,2896;0,0139891
1907,2538;0,0140032
1908,2180;0,0139883
1909,1823;0,0139387
1910,1465;0,0138711
1911,1107;0,0138162
1912,0750;0,0138003
1913,0392;0,013833
1914,0034;0,0139094
1914,9677;0,0140175
1915,9319;0,0141414
1916,8961;0,0142592
1917,8604;0,0143474
1918,8246;0,0143894
1919,7888;0,0143775
1920,7531;0,0143077
1921,7173;0,0141774
1922,6815;0,013993
1923,6458;0,0137789
1924,6100;0,0135766
1925,5742;0,0134315
1926,5385;0,0133735
1927,5027;0,0134078
1928,4669;0,0135157
1929,4312;0,0136588
1930,3954;0,0137895
1931,3596;0,0138675
1932,3239;0,0138754
1933,2881;0,0138243
1934,2523;0,0137468
1935,2166;0,0136798
1936,1808;0,013649
1937,1450;0,0136616
1938,1093;0,0137114
1939,0735;0,0137893
1940,0377;0,0138897
1941,0020;0,0140074
1941,9662;0,0141292
1942,9304;0,0142328
1943,8947;0,0142968
1944,8589;0,014311
1945,8231;0,0142801
1946,7874;0,0142219
1947,7516;0,0141642
1948,7158;0,014137
1949,6801;0,0141598
1950,6443;0,0142272
1951,6085;0,0143042
1952,5728;0,0143367
1953,5370;0,0142781
1954,5012;0,0141188
1955,4655;0,013902
1956,4297;0,0137112
1957,3939;0,0136306
1958,3582;0,0136998
1959,3224;0,0138896
1960,2866;0,0141172
1961,2509;0,0142973
1962,2151;0,0143964
1963,1793;0,0144494
1964,1436;0,0145304
1965,1078;0,0146947
1966,0720;0,0149305
1967,0363;0,0151523
1968,0005;0,0152482
1968,9647;0,0151514
1969,9290;0,0148801
1970,8932;0,0145249
1971,8574;0,0142039
1972,8217;0,014017
1973,7859;0,0140177
1974,7501;0,0142031
1975,7144;0,0145245
1976,6786;0,0149082
1977,6428;0,015276
1978,6071;0,0155595
1979,5713;0,0157093
1980,5355;0,0157014
1981,4998;0,015544
1982,4640;0,0152809
1983,4282;0,014985
1984,3925;0,0147403
1985,3567;0,0146139
1986,3209;0,0146332
1987,2852;0,0147817
1988,2494;0,0150136
1989,2136;0,0152745
1990,1779;0,0155144
1991,1421;0,015693
1992,1063;0,0157849
1993,0706;0,0157875
1994,0348;0,0157249
1994,9990;0,0156402
1995,9633;0,0155789
1996,9275;0,0155713
1997,8917;0,0156186
1998,8560;0,0156933
1999,8202;0,0157533
2000,7844;0,0157665
2001,7487;0,015728
2002,7129;0,0156625
2003,6771;0,0156137
2004,6414;0,0156266
2005,6056;0,0157307
2006,5698;0,0159237
2007,5341;0,0161659
2008,4983;0,0163927
2009,4625;0,0165457
2010,4268;0,0166046
2011,3910;0,0165979
2012,3552;0,0165811
2013,3195;0,0165957
2014,2837;0,0166359
2015,2479;0,0166492
2016,2122;0,0165773
2017,1764;0,0164104
2018,1406;0,0162078
2019,1049;0,0160606
2020,0691;0,0160291
2021,0333;0,0161101
2021,9976;0,0162574
2022,9618;0,0164324
2023,9260;0,0166358
2024,8903;0,0168904
2025,8545;0,017186
2026,8187;0,0174399
2027,7830;0,0175172
2028,7472;0,0173113
2029,7114;0,0168285
2030,6757;0,0162108
2031,6399;0,0156725
2032,6041;0,0153869
2033,5684;0,0153994
2034,5326;0,0156253
2035,4968;0,0159273
2036,4611;0,0162104
2037,4253;0,0164636
2038,3895;0,0167294
2039,3538;0,0170369
2040,3180;0,0173533
2041,2822;0,0175891
2042,2465;0,0176546
2043,2107;0,0175279
2044,1749;0,0172822
2045,1392;0,0170547
2046,1034;0,0169705
2047,0676;0,0170687
2048,0320;0,0172762
2048,9961;0,0174553
2049,9604;0,0174931
2050,9246;0,0173644
2051,8889;0,0171344
2052,8530;0,0169129
2053,8174;0,0167945
2054,7815;0,0168114
2055,7458;0,0169224
2056,7100;0,0170396
2057,6743;0,0170809
2058,6384;0,0170144
2059,6028;0,016871
2060,5669;0,016722
2061,5313;0,016638
2062,4954;0,0166544
2063,4597;0,0167579
2064,4238;0,0169001
2065,3882;0,0170275
2066,3523;0,0171072
2067,3167;0,0171353
2068,2808;0,0171281
2069,2451;0,0171054
2070,2092;0,0170795
2071,1736;0,0170536
2072,1377;0,0170263
2073,1021;0,0169963
2074,0662;0,0169642
2075,0305;0,01693
2075,9946;0,0168918
2076,9590;0,0168467
2077,9231;0,0167937
2078,8875;0,0167381
2079,8516;0,0166917
2080,8159;0,016668
2081,7800;0,0166752
2082,7444;0,0167087
2083,7085;0,0167512
2084,6729;0,016781
2085,6370;0,0167855
2086,6013;0,0167706
2087,5654;0,0167589
2088,5298;0,0167743
2089,4939;0,0168248
2090,4583;0,0168937
2091,4224;0,0169483
2092,3867;0,0169617
2093,3508;0,0169314
2094,3152;0,016883
2095,2793;0,0168547
2096,2437;0,0168748
2097,2078;0,0169463
2098,1721;0,0170499
2099,1362;0,0171582
2100,1006;0,0172497
2101,0647;0,0173085
2102,0291;0,0173293
2102,9932;0,0173121
2103,9575;0,0172666
2104,9216;0,0172149
2105,8860;0,0171847
2106,8501;0,0171955
2107,8145;0,0172444
2108,7786;0,0173031
2109,7429;0,0173327
2110,7070;0,0173065
2111,6714;0,0172268
2112,6355;0,0171257
2113,5999;0,0170479
2114,5640;0,0170274
2115,5283;0,0170705
2116,4924;0,0171523
2117,4568;0,0172301
2118,4209;0,0172629
2119,3853;0,0172301
2120,3494;0,0171409
2121,3137;0,0170291
2122,2778;0,0169379
2123,2422;0,0169016
2124,2063;0,0169329
2125,1707;0,0170208
2126,1348;0,0171383
2127,0991;0,0172527
2128,0632;0,0173352
2129,0276;0,0173683
2129,9917;0,0173522
2130,9561;0,0173093
2131,9202;0,0172832
2132,8845;0,0173254
2133,8486;0,0174706
2134,8130;0,0177119
2135,7771;0,0179954
2136,7415;0,0182411
2137,7056;0,0183815
2138,6699;0,0183908
2139,6340;0,0182905
2140,5984;0,0181333
2141,5625;0,0179823
2142,5269;0,0178948
2143,4910;0,0179154
2144,4553;0,0180696
2145,4194;0,0183568
2146,3838;0,0187457
2147,3479;0,0191781
2148,3123;0,0195822
2149,2764;0,019888
2150,2407;0,020038
2151,2048;0,0199959
2152,1692;0,0197619
2153,1333;0,0193926
2154,0977;0,01901
2155,0618;0,0187785
2156,0261;0,0188369
2156,9902;0,019205
2157,9546;0,0197307
2158,9187;0,0201588
2159,8831;0,0203075
2160,8472;0,0201943
2161,8115;0,0199911
2162,7756;0,0198741
2163,7400;0,01991
2164,7041;0,0200409
2165,6685;0,0201473
2166,6326;0,0201317
2167,5969;0,0199686
2168,5610;0,0196993
2169,5254;0,0193935
2170,4895;0,0191127
2171,4539;0,0188953
2172,4180;0,0187554
2173,3823;0,018685
2174,3464;0,0186578
2175,3108;0,0186413
2176,2749;0,0186208
2177,2393;0,0186177
2178,2034;0,0186824
2179,1677;0,0188563
2180,1318;0,0191282
2181,0962;0,0194208
2182,0603;0,0196298
2183,0247;0,0196931
2183,9888;0,0196359
2184,9531;0,0195482
2185,9172;0,0195108
2186,8816;0,0195278
2187,8457;0,0195205
2188,8101;0,0193858
2189,7742;0,0190769
2190,7385;0,0186439
2191,7026;0,0182077
2192,6670;0,0178889
2193,6311;0,0177453
2194,5955;0,0177582
2195,5596;0,0178668
2196,5239;0,0180157
2197,4880;0,0181767
2198,4524;0,0183376
2199,4165;0,0184774
2200,3809;0,0185575
2201,3450;0,0185396
2202,3093;0,018414
2203,2734;0,0182126
2204,2378;0,0179971
2205,2019;0,0178306
2206,1663;0,017754
2207,1304;0,01778
2208,0947;0,0178994
2209,0588;0,0180871
2210,0232;0,0183046
2210,9873;0,018503
2211,9517;0,0186343
2212,9158;0,0186707
2213,8801;0,0186178
2214,8442;0,0185096
2215,8086;0,0183857
2216,7727;0,0182676
2217,7371;0,0181525
2218,7012;0,018029
2219,6655;0,0179001
2220,6296;0,0177926
2221,5940;0,0177438
2222,5581;0,0177736
2223,5225;0,0178672
2224,4866;0,0179799
2225,4509;0,0180629
2226,4150;0,0180901
2227,3794;0,018068
2228,3435;0,0180249
2229,3079;0,0179875
2230,2720;0,0179636
2231,2363;0,0179405
2232,2004;0,0178987
2233,1648;0,0178277
2234,1289;0,0177359
2235,0933;0,0176471
2236,0574;0,0175895
2237,0217;0,0175818
2237,9858;0,0176243
2238,9502;0,0176983
2239,9143;0,0177742
2240,8787;0,0178237
2241,8428;0,0178305
2242,8071;0,017796
2243,7712;0,0177355
2244,7356;0,0176706
2245,6997;0,0176189
2246,6641;0,0175896
2247,6282;0,0175828
2248,5925;0,0175934
2249,5566;0,0176144
2250,5210;0,0176391
2251,4851;0,0176612
2252,4495;0,017675
2253,4136;0,0176776
2254,3779;0,0176706
2255,3420;0,0176608
2256,3064;0,0176567
2257,2705;0,0176644
2258,2349;0,0176837
2259,1990;0,0177076
2260,1633;0,0177257
2261,1274;0,0177295
2262,0918;0,0177156
2263,0559;0,0176871
2264,0203;0,0176516
2264,9844;0,0176182
2265,9487;0,0175945
2266,9128;0,0175854
2267,8772;0,0175931
2268,8413;0,017618
2269,8057;0,0176586
2270,7698;0,0177115
2271,7341;0,0177688
2272,6982;0,0178173
2273,6626;0,0178394
2274,6267;0,0178179
2275,5911;0,0177441
2276,5552;0,0176252
2277,5195;0,017486
2278,4836;0,0173619
2279,4480;0,0172851
2280,4121;0,0172719
2281,3765;0,0173166
2282,3406;0,0173972
2283,3049;0,017488
2284,2690;0,0175713
2285,2334;0,0176426
2286,1975;0,0177077
2287,1619;0,0177742
2288,1260;0,0178445
2289,0903;0,0179139
2290,0544;0,017975
2291,0188;0,0180237
2291,9829;0,018064
2292,9473;0,0181064
2293,9114;0,018162
2294,8757;0,0182343
2295,8398;0,0183149
2296,8042;0,0183848
2297,7683;0,0184231
2298,7327;0,0184171
2299,6968;0,0183701
2300,6611;0,0182996
2301,6252;0,0182303
2302,5896;0,0181824
2303,5537;0,0181648
2304,5181;0,018174
2305,4822;0,0181974
2306,4465;0,0182175
2307,4106;0,0182149
2308,3750;0,0181723
2309,3391;0,0180788
2310,3035;0,0179357
2311,2676;0,0177604
2312,2319;0,0175829
2313,1960;0,0174325
2314,1604;0,0173243
2315,1245;0,0172516
2316,0889;0,0171941
2317,0530;0,0171332
2318,0173;0,0170668
2318,9814;0,0170118
2319,9458;0,0169939
2320,9099;0,0170312
2321,8743;0,0171229
2322,8384;0,0172479
2323,8027;0,0173708
2324,7668;0,0174497
2325,7312;0,0174491
2326,6953;0,0173553
2327,6597;0,0171875
2328,6238;0,0169975
2329,5881;0,0168542
2330,5522;0,0168181
2331,5166;0,0169143
2332,4807;0,0171183
2333,4451;0,0173652
2334,4092;0,0175802
2335,3735;0,0177142
2336,3376;0,017764
2337,3020;0,0177676
2338,2661;0,0177764
2339,2305;0,0178163
2340,1946;0,0178578
2341,1589;0,0178133
2342,1230;0,0175835
2343,0874;0,0171689
2344,0515;0,016779
2345,0159;0,01674
2345,9800;0,0172
2346,9443;0,0179866
2347,9084;0,018759
2348,8728;0,0192333
2349,8369;0,0193072
2350,8013;0,0190728
2351,7654;0,0187485
2352,7297;0,0185506
2353,6938;0,01857
2354,6582;0,0187557
2355,6223;0,0190094
2356,5867;0,0192548
2357,5508;0,019421
2358,5151;0,0194283
2359,4792;0,0192322
2360,4436;0,0188714
2361,4077;0,0184411
2362,3721;0,0180149
2363,3362;0,0176013
2364,3005;0,0171674
2365,2646;0,0166893
2366,2290;0,016181
2367,1931;0,0156843
2368,1575;0,015243
2369,1216;0,014883
2370,0859;0,0146074
2371,0500;0,0144035
2372,0144;0,0142587
2372,9785;0,0141751
2373,9429;0,0141752
2374,9070;0,0142921
2375,8713;0,0145507
2376,8354;0,014949
2377,7998;0,0154508
2378,7639;0,015994
2379,7283;0,0165088
2380,6924;0,0169381
2381,6567;0,0172509
2382,6208;0,0174465
2383,5852;0,0175467
2384,5493;0,0175844
2385,5137;0,0175904
2386,4778;0,0175859
2387,4421;0,0175811
2388,4063;0,0175788
2389,3706;0,01758
2390,3347;0,0175871
2391,2991;0,0176029
2392,2632;0,0176284
2393,2275;0,0176617
2394,1917;0,0176985
2395,1560;0,017735
2396,1201;0,0177696
2397,0845;0,0178016
2398,0486;0,017831
2399,0129;0,0178548
2399,9771;0,0178687
2400,9414;0,0178712
2401,9055;0,0178646
2402,8699;0,0178567
2403,8340;0,0178574
2404,7983;0,0178743
2405,7625;0,0179086
2406,7268;0,0179537
2407,6909;0,0179983
2408,6553;0,0180315
2409,6194;0,0180485
2410,5837;0,0180535
2411,5479;0,0180573
2412,5122;0,0180715
2413,4763;0,018102
2414,4407;0,0181457
2415,4048;0,0181926
2416,3691;0,0182316
2417,3333;0,0182561
2418,2976;0,0182668
2419,2617;0,0182709
2420,2261;0,0182783
2421,1902;0,0182967
2422,1545;0,0183302
2423,1187;0,0183771
2424,0830;0,018431
2425,0471;0,0184825
2426,0115;0,0185223
2426,9756;0,0185455
2427,9399;0,0185532
2428,9041;0,018552
2429,8684;0,01855
2430,8325;0,0185532
2431,7969;0,0185639
2432,7610;0,0185819
2433,7253;0,0186068
2434,6895;0,0186391
2435,6538;0,0186791
2436,6179;0,0187247
2437,5823;0,0187716
2438,5464;0,0188153
2439,5107;0,018853
2440,4749;0,0188851
2441,4392;0,0189128
2442,4033;0,0189357
2443,3677;0,0189513
2444,3318;0,0189571
2445,2961;0,0189546
2446,2603;0,0189502
2447,2246;0,0189528
2448,1887;0,0189686
2449,1531;0,0189974
2450,1172;0,0190336
2451,0815;0,0190702
2452,0457;0,0191038
2453,0100;0,0191345
2453,9741;0,0191634
2454,9385;0,0191883
2455,9026;0,0192033
2456,8669;0,019204
2457,8311;0,0191919
2458,7954;0,0191773
2459,7595;0,0191736
2460,7239;0,0191896
2461,6880;0,0192232
2462,6523;0,0192623
2463,6165;0,0192925
2464,5808;0,019306
2465,5449;0,0193055
2466,5093;0,0193005
2467,4734;0,0193
2468,4377;0,0193066
2469,4019;0,0193165
2470,3662;0,0193239
2471,3303;0,0193264
2472,2947;0,0193261
2473,2588;0,0193279
2474,2231;0,019336
2475,1873;0,0193524
2476,1516;0,0193767
2477,1157;0,0194071
2478,0801;0,0194414
2479,0442;0,0194761
2480,0085;0,0195077
2480,9727;0,0195334
2481,9370;0,0195528
2482,9011;0,0195678
2483,8655;0,0195813
2484,8296;0,0195943
2485,7939;0,0196057
2486,7581;0,0196128
2487,7224;0,0196146
2488,6865;0,0196132
2489,6509;0,0196129
2490,6150;0,0196183
2491,5793;0,0196317
2492,5435;0,0196521
2493,5078;0,019677
2494,4719;0,0197048
2495,4363;0,0197363
2496,4004;0,0197737
2497,3647;0,0198178
2498,3289;0,0198657
2499,2932;0,0199107
2500,2573;0,0199452
2501,2217;0,0199646
2502,1858;0,0199712
2503,1501;0,0199728
2504,1143;0,019979
2505,0786;0,0199966
2506,0427;0,0200263
2507,0071;0,0200634
2507,9712;0,0201006
2508,9355;0,0201307
2509,8997;0,020148
2510,8640;0,0201486
2511,8281;0,0201321
2512,7925;0,0201024
2513,7566;0,0200693
2514,7209;0,0200455
2515,6851;0,0200421
2516,6494;0,0200627
2517,6135;0,020101
2518,5779;0,0201434
2519,5420;0,0201756
2520,5063;0,0201892
2521,4705;0,0201852
2522,4348;0,0201721
2523,3989;0,0201613
2524,3633;0,0201624
2525,3274;0,0201793
2526,2917;0,0202095
2527,2559;0,0202452
2528,2202;0,0202764
2529,1843;0,0202956
2530,1487;0,0203014
2531,1128;0,0202997
2532,0771;0,0203009
2533,0413;0,0203137
2534,0056;0,0203395
2534,9697;0,020371
2535,9341;0,0203956
2536,8982;0,0204025
2537,8625;0,0203887
2538,8267;0,0203607
2539,7910;0,0203305
2540,7551;0,0203099
2541,7195;0,0203055
2542,6836;0,0203174
2543,6479;0,0203406
2544,6121;0,0203681
2545,5764;0,0203937
2546,5405;0,0204142
2547,5049;0,0204298
2548,4690;0,0204435
2549,4333;0,0204592
2550,3975;0,0204787
2551,3618;0,0204998
2552,3259;0,0205166
2553,2903;0,0205224
2554,2544;0,0205142
2555,2188;0,0204952
2556,1829;0,0204741
2557,1472;0,0204616
2558,1113;0,0204655
2559,0757;0,0204865
2560,0398;0,0205189
2561,0042;0,0205528
2561,9683;0,0205792
2562,9326;0,0205939
2563,8967;0,0205992
2564,8611;0,0206024
2565,8252;0,0206116
2566,7896;0,0206307
2567,7537;0,0206573
2568,7180;0,0206831
2569,6821;0,0206992
2570,6465;0,0207013
2571,6106;0,0206922
2572,5750;0,0206803
2573,5391;0,0206745
2574,5034;0,0206787
2575,4675;0,0206901
2576,4319;0,0207025
2577,3960;0,0207108
2578,3604;0,020715
2579,3245;0,0207197
2580,2888;0,020731
2581,2529;0,0207512
2582,2173;0,0207778
2583,1814;0,0208047
2584,1458;0,0208258
2585,1099;0,0208382
2586,0742;0,0208434
2587,0383;0,0208466
2588,0027;0,0208549
2588,9668;0,0208749
2589,9312;0,0209104
2590,8953;0,0209604
2591,8596;0,0210176
2592,8237;0,0210706
2593,7881;0,021108
2594,7522;0,0211243
2595,7166;0,0211223
2596,6807;0,0211111
2597,6450;0,0210998
2598,6091;0,0210927
2599,5735;0,0210885
2600,5376;0,0210843
2601,5020;0,0210811
2602,4661;0,0210845
2603,4304;0,0211011
2604,3945;0,0211323
2605,3589;0,0211721
2606,3230;0,0212105
2607,2874;0,0212404
2608,2515;0,0212618
2609,2158;0,0212809
2610,1799;0,0213043
2611,1443;0,0213333
2612,1084;0,0213637
2613,0728;0,0213891
2614,0369;0,0214064
2615,0012;0,0214173
2615,9653;0,0214267
2616,9297;0,0214392
2617,8938;0,0214572
2618,8582;0,0214818
2619,8223;0,0215133
2620,7866;0,0215518
2621,7507;0,0215953
2622,7151;0,0216388
2623,6792;0,0216762
2624,6436;0,0217031
2625,6077;0,0217206
2626,5720;0,0217355
2627,5361;0,0217561
2628,5005;0,0217882
2629,4646;0,0218307
2630,4290;0,0218768
2631,3931;0,0219174
2632,3574;0,0219454
2633,3215;0,0219584
2634,2859;0,0219591
2635,2500;0,0219531
2636,2144;0,0219471
2637,1785;0,021948
2638,1428;0,0219611
2639,1069;0,02199
2640,0713;0,0220337
2641,0354;0,0220871
2641,9998;0,022141
2642,9639;0,0221859
2643,9282;0,022216
2644,8923;0,0222318
2645,8567;0,0222394
2646,8208;0,0222479
2647,7852;0,0222647
2648,7493;0,0222928
2649,7136;0,0223304
2650,6777;0,0223718
2651,6421;0,0224109
2652,6062;0,0224425
2653,5706;0,0224639
2654,5347;0,0224759
2655,4990;0,0224817
2656,4631;0,0224864
2657,4275;0,0224951
2658,3916;0,0225108
2659,3560;0,0225336
2660,3201;0,0225606
2661,2844;0,0225872
2662,2485;0,0226094
2663,2129;0,0226254
2664,1770;0,022636
2665,1414;0,0226446
2666,1055;0,0226553
2667,0698;0,0226716
2668,0339;0,0226945
2668,9983;0,0227228
2669,9624;0,0227533
2670,9268;0,0227829
2671,8909;0,0228098
2672,8552;0,0228339
2673,8193;0,0228563
2674,7837;0,0228781
2675,7478;0,0229002
2676,7122;0,0229223
2677,6763;0,0229442
2678,6406;0,0229663
2679,6047;0,0229901
2680,5691;0,0230175
2681,5332;0,02305
2682,4976;0,0230875
2683,4617;0,0231278
2684,4260;0,0231676
2685,3901;0,0232032
2686,3545;0,0232333
2687,3186;0,0232592
2688,2830;0,023285
2689,2471;0,0233152
2690,2114;0,0233524
2691,1755;0,0233957
2692,1399;0,0234412
2693,1040;0,0234844
2694,0684;0,0235223
2695,0325;0,0235544
2695,9968;0,0235819
2696,9609;0,0236063
2697,9253;0,0236287
2698,8894;0,0236499
2699,8538;0,0236712
2700,8179;0,0236952
2701,7822;0,0237247
2702,7463;0,0237613
2703,7107;0,0238044
2704,6748;0,0238512
2705,6392;0,0238987
2706,6033;0,0239453
2707,5676;0,0239913
2708,5317;0,0240376
2709,4961;0,0240846
2710,4602;0,0241306
2711,4246;0,0241729
2712,3887;0,0242096
2713,3530;0,0242415
2714,3171;0,0242724
2715,2815;0,024307
2716,2456;0,0243486
2717,2100;0,0243966
2718,1741;0,0244472
2719,1384;0,0244949
2720,1025;0,0245352
2721,0669;0,0245652
2722,0310;0,0245843
2722,9954;0,0245938
2723,9595;0,0245965
2724,9238;0,0245975
2725,8879;0,0246028
2726,8523;0,0246184
2727,8164;0,0246474
2728,7808;0,0246892
2729,7449;0,0247397
2730,7092;0,0247935
2731,6733;0,0248461
2732,6377;0,0248941
2733,6018;0,0249346
2734,5662;0,0249646
2735,5303;0,0249814
2736,4946;0,0249855
2737,4587;0,0249818
2738,4231;0,024979
2739,3872;0,0249861
2740,3516;0,0250078
2741,3157;0,0250425
2742,2800;0,0250826
2743,2441;0,0251195
2744,2085;0,0251474
2745,1726;0,0251657
2746,1370;0,0251787
2747,1011;0,0251928
2748,0654;0,0252135
2749,0295;0,0252436
2749,9939;0,0252826
2750,9580;0,0253267
2751,9224;0,0253706
2752,8865;0,0254091
2753,8508;0,0254395
2754,8149;0,0254626
2755,7793;0,0254827
2756,7434;0,0255055
2757,7078;0,0255353
2758,6719;0,0255733
2759,6362;0,0256172
2760,6003;0,0256634
2761,5647;0,0257084
2762,5288;0,0257504
2763,4932;0,0257888
2764,4573;0,0258241
2765,4216;0,0258577
2766,3857;0,0258927
2767,3501;0,0259325
2768,3142;0,0259797
2769,2786;0,026033
2770,2427;0,0260868
2771,2070;0,0261333
2772,1711;0,0261671
2773,1355;0,0261892
2774,0996;0,0262086
2775,0640;0,0262378
2776,0281;0,0262859
2776,9924;0,0263534
2777,9565;0,0264317
2778,9209;0,0265076
2779,8850;0,0265712
2780,8494;0,0266205
2781,8135;0,0266613
2782,7778;0,0267025
2783,7419;0,0267503
2784,7063;0,0268048
2785,6704;0,0268613
2786,6348;0,0269141
2787,5989;0,0269614
2788,5632;0,027006
2789,5273;0,0270549
2790,4917;0,0271145
2791,4558;0,0271881
2792,4202;0,0272735
2793,3843;0,0273645
2794,3486;0,0274535
2795,3127;0,0275346
2796,2771;0,0276065
2797,2412;0,0276725
2798,2056;0,0277388
2799,1697;0,0278115
2800,1340;0,0278939
2801,0981;0,0279854
2802,0625;0,0280829
2803,0266;0,0281829
2803,9910;0,0282837
2804,9551;0,0283852
2805,9194;0,0284882
2806,8835;0,0285932
2807,8479;0,0286997
2808,8120;0,0288073
2809,7764;0,0289166
2810,7405;0,029029
2811,7048;0,0291466
2812,6689;0,0292706
2813,6333;0,0294008
2814,5974;0,0295359
2815,5618;0,0296743
2816,5259;0,0298155
2817,4902;0,0299599
2818,4543;0,0301087
2819,4187;0,0302633
2820,3828;0,0304245
2821,3472;0,0305923
2822,3113;0,0307664
2823,2756;0,0309466
2824,2397;0,0311332
2825,2041;0,0313268
2826,1682;0,0315275
2827,1326;0,0317345
2828,0967;0,0319465
2829,0610;0,0321632
2830,0251;0,0323865
2830,9895;0,0326215
2831,9536;0,0328737
2832,9180;0,0331462
2833,8821;0,0334363
2834,8464;0,033736
2835,8105;0,0340358
2836,7749;0,0343298
2837,7390;0,0346196
2838,7034;0,0349143
2839,6675;0,0352273
2840,6318;0,0355701
2841,5959;0,0359491
2842,5603;0,0363634
2843,5244;0,0368055
2844,4888;0,037262
2845,4529;0,0377138
2846,4172;0,0381366
2847,3813;0,0385035
2848,3457;0,0387904
2849,3098;0,0389827
2850,2742;0,0390808
2851,2383;0,0391012
2852,2026;0,0390715
2853,1667;0,0390231
2854,1311;0,0389829
2855,0952;0,0389689
2856,0596;0,0389888
2857,0237;0,0390424
2857,9880;0,0391251
2858,9521;0,0392313
2859,9165;0,0393568
2860,8806;0,0394999
2861,8450;0,0396614
2862,8091;0,0398431
2863,7734;0,0400454
2864,7375;0,0402659
2865,7019;0,0404982
2866,6660;0,0407332
2867,6304;0,0409606
2868,5945;0,0411716
2869,5588;0,0413603
2870,5229;0,0415253
2871,4873;0,0416688
2872,4514;0,041796
2873,4158;0,0419133
2874,3799;0,0420257
2875,3442;0,0421353
2876,3083;0,0422417
2877,2727;0,0423427
2878,2368;0,0424363
2879,2012;0,0425218
2880,1653;0,0426
2881,1296;0,0426719
2882,0938;0,0427385
2883,0581;0,0428005
2884,0222;0,0428599
2884,9866;0,0429203
2885,9507;0,0429867
2886,9150;0,0430636
2887,8792;0,0431525
2888,8435;0,0432501
2889,8076;0,0433492
2890,7720;0,0434412
2891,7361;0,0435197
2892,7004;0,0435837
2893,6646;0,0436373
2894,6289;0,043688
2895,5930;0,0437427
2896,5574;0,0438042
2897,5215;0,0438706
2898,4858;0,0439374
2899,4500;0,0440002
2900,4143;0,0440575
2901,3784;0,044111
2902,3428;0,0441644
2903,3069;0,0442207
2904,2712;0,0442816
2905,2354;0,0443479
2906,1997;0,0444212
2907,1638;0,0445059
2908,1282;0,0446094
2909,0923;0,0447402
2910,0566;0,0449045
2911,0208;0,045102
2911,9851;0,0453232
2912,9492;0,0455491
2913,9136;0,0457539
2914,8777;0,0459113
2915,8420;0,0459992
2916,8062;0,0460045
2917,7705;0,0459241
2918,7346;0,0457641
2919,6990;0,0455382
2920,6631;0,0452653
2921,6274;0,0449674
2922,5916;0,0446657
2923,5559;0,0443769
2924,5200;0,0441088
2925,4844;0,0438605
2926,4485;0,0436253
2927,4128;0,0433967
2928,3770;0,0431737
2929,3413;0,0429623
2930,3054;0,0427714
2931,2698;0,0426067
2932,2339;0,0424656
2933,1982;0,0423378
2934,1624;0,0422099
2935,1267;0,0420712
2936,0908;0,0419177
2937,0552;0,0417507
2938,0193;0,0415727
2938,9836;0,0413831
2939,9478;0,0411777
2940,9121;0,0409511
2941,8762;0,0407012
2942,8406;0,0404318
2943,8047;0,0401514
2944,7690;0,0398702
2945,7332;0,0395963
2946,6975;0,0393338
2947,6616;0,0390831
2948,6260;0,0388423
2949,5901;0,0386092
2950,5544;0,0383819
2951,5186;0,0381594
2952,4829;0,0379417
2953,4470;0,0377298
2954,4114;0,0375253
2955,3755;0,0373291
2956,3398;0,0371404
2957,3040;0,0369566
2958,2683;0,0367744
2959,2324;0,0365919
2960,1968;0,0364099
2961,1609;0,0362313
2962,1252;0,0360592
2963,0894;0,0358939
2964,0537;0,0357327
2965,0178;0,0355706
2965,9822;0,0354041
2966,9463;0,0352325
2967,9106;0,035058
2968,8748;0,0348836
2969,8391;0,03471
2970,8032;0,0345352
2971,7676;0,0343568
2972,7317;0,0341744
2973,6960;0,0339913
2974,6602;0,0338129
2975,6245;0,0336436
2976,5886;0,0334844
2977,5530;0,0333333
2978,5171;0,0331876
2979,4814;0,0330475
2980,4456;0,0329168
2981,4099;0,0328002
2982,3740;0,0327006
2983,3384;0,0326164
2984,3025;0,0325428
2985,2668;0,0324744
2986,2310;0,0324078
2987,1953;0,0323421
2988,1594;0,0322781
2989,1238;0,0322167
2990,0879;0,0321583
2991,0522;0,0321039
2992,0164;0,0320548
2992,9807;0,0320133
2993,9448;0,0319817
2994,9092;0,0319624
2995,8733;0,0319584
2996,8376;0,0319728
2997,8018;0,0320072
2998,7661;0,0320593
2999,7302;0,0321205
3000,6946;0,0321782
3001,6587;0,0322211
3002,6230;0,0322449
3003,5872;0,0322554
3004,5515;0,0322656
3005,5156;0,0322882
3006,4800;0,0323291
3007,4441;0,0323846
3008,4084;0,0324451
3009,3726;0,0325003
3010,3369;0,032544
3011,3010;0,0325751
3012,2654;0,0325965
3013,2295;0,0326129
3014,1938;0,0326298
3015,1580;0,0326536
3016,1223;0,0326911
3017,0864;0,0327475
3018,0508;0,0328239
3019,0149;0,0329155
3019,9792;0,0330128
3020,9434;0,0331049
3021,9077;0,033185
3022,8718;0,0332532
3023,8362;0,0333178
3024,8003;0,0333912
3025,7646;0,0334837
3026,7288;0,0335978
3027,6931;0,0337258
3028,6572;0,0338522
3029,6216;0,0339607
3030,5857;0,0340415
3031,5500;0,0340965
3032,5142;0,0341379
3033,4785;0,034182
3034,4426;0,0342418
3035,4070;0,0343224
3036,3711;0,0344211
3037,3354;0,0345309
3038,2996;0,0346444
3039,2639;0,0347566
3040,2280;0,034866
3041,1924;0,0349746
3042,1565;0,0350876
3043,1208;0,0352114
3044,0850;0,0353498
3045,0493;0,0355013
3046,0134;0,0356574
3046,9778;0,0358055
3047,9419;0,0359358
3048,9063;0,0360469
3049,8704;0,0361481
3050,8347;0,0362546
3051,7988;0,0363797
3052,7632;0,0365276
3053,7273;0,0366919
3054,6917;0,0368601
3055,6558;0,0370207
3056,6201;0,0371688
3057,5842;0,0373068
3058,5486;0,0374415
3059,5127;0,037579
3060,4771;0,0377222
3061,4412;0,0378703
3062,4055;0,0380204
3063,3696;0,0381689
3064,3340;0,0383124
3065,2981;0,0384485
3066,2625;0,0385761
3067,2266;0,038696
3068,1909;0,0388114
3069,1550;0,0389267
3070,1194;0,0390471
3071,0835;0,039177
3072,0479;0,0393195
3073,0120;0,0394753
3073,9763;0,0396424
3074,9404;0,0398161
3075,9048;0,0399901
3076,8689;0,040158
3077,8333;0,0403147
3078,7974;0,0404576
3079,7617;0,0405879
3080,7258;0,0407092
3081,6902;0,040827
3082,6543;0,0409459
3083,6187;0,0410687
3084,5828;0,0411953
3085,5471;0,0413236
3086,5112;0,0414525
3087,4756;0,0415836
3088,4397;0,0417218
3089,4041;0,0418723
3090,3682;0,0420365
3091,3325;0,04221
3092,2966;0,0423844
3093,2610;0,0425529
3094,2251;0,0427147
3095,1895;0,0428753
3096,1536;0,043041
3097,1179;0,0432121
3098,0820;0,0433804
3099,0464;0,0435344
3100,0105;0,0436676
3100,9749;0,0437854
3101,9390;0,0439039
3102,9033;0,0440409
3103,8674;0,0442053
3104,8318;0,0443922
3105,7959;0,0445862
3106,7603;0,0447712
3107,7244;0,044939
3108,6887;0,0450933
3109,6528;0,045246
3110,6172;0,0454098
3111,5813;0,0455914
3112,5457;0,0457885
3113,5098;0,0459922
3114,4741;0,0461916
3115,4382;0,046379
3116,4026;0,046553
3117,3667;0,046718
3118,3311;0,0468816
3119,2952;0,0470512
3120,2595;0,0472302
3121,2236;0,0474173
3122,1880;0,0476071
3123,1521;0,0477932
3124,1165;0,0479711
3125,0806;0,0481406
3126,0449;0,0483063
3127,0090;0,0484743
3127,9734;0,0486498
3128,9375;0,0488337
3129,9019;0,0490232
3130,8660;0,0492139
3131,8303;0,0494028
3132,7944;0,0495897
3133,7588;0,0497761
3134,7229;0,0499634
3135,6873;0,0501515
3136,6514;0,0503397
3137,6157;0,0505281
3138,5798;0,050718
3139,5442;0,0509109
3140,5083;0,0511063
3141,4727;0,0513013
3142,4368;0,0514934
3143,4011;0,0516837
3144,3652;0,0518777
3145,3296;0,0520828
3146,2937;0,0523027
3147,2581;0,0525335
3148,2222;0,0527642
3149,1865;0,0529831
3150,1506;0,0531842
3151,1150;0,0533712
3152,0791;0,0535554
3153,0435;0,053749
3154,0076;0,0539585
3154,9719;0,0541816
3155,9360;0,0544096
3156,9004;0,0546332
3157,8645;0,0548475
3158,8289;0,0550541
3159,7930;0,055259
3160,7573;0,0554683
3161,7214;0,0556847
3162,6858;0,0559074
3163,6499;0,056134
3164,6143;0,0563627
3165,5784;0,0565935
3166,5427;0,0568265
3167,5068;0,05706
3168,4712;0,0572909
3169,4353;0,0574348
3170,3997;0,0576584
3171,3638;0,0578856
3172,3281;0,058122
3173,2922;0,0583689
3174,2566;0,0586202
3175,2207;0,0588646
3176,1851;0,0590917
3177,1492;0,0592979
3178,1135;0,0594887
3179,0776;0,0596751
3180,0420;0,0598673
3181,0061;0,0600701
3181,9705;0,0602823
3182,9346;0,0605003
3183,8989;0,0607212
3184,8630;0,0609444
3185,8274;0,0611695
3186,7915;0,0613948
3187,7559;0,0616154
3188,7200;0,0618258
3189,6843;0,062023
3190,6484;0,0622094
3191,6128;0,0623927
3192,5769;0,0625826
3193,5413;0,062786
3194,5054;0,063003
3195,4697;0,0632266
3196,4338;0,0634455
3197,3982;0,0636505
3198,3623;0,0638392
3199,3267;0,0640175
3200,2908;0,0641972
3201,2551;0,0643893
3202,2192;0,0645998
3203,1836;0,0648266
3204,1477;0,0650618
3205,1121;0,0652955
3206,0762;0,0655211
3207,0405;0,0657371
3208,0046;0,0659468
3208,9690;0,0661543
3209,9331;0,0663616
3210,8975;0,0665676
3211,8616;0,06677
3212,8259;0,0669685
3213,7900;0,0671663
3214,7544;0,0673678
3215,7185;0,0675743
3216,6829;0,0677809
3217,6470;0,067978
3218,6113;0,0681572
3219,5754;0,0683173
3220,5398;0,0684664
3221,5039;0,0686184
3222,4683;0,0687849
3223,4324;0,0689693
3224,3967;0,0691672
3225,3608;0,0693709
3226,3252;0,0695754
3227,2893;0,0697795
3228,2537;0,0699839
3229,2178;0,0701869
3230,1821;0,0703839
3231,1462;0,0705707
3232,1106;0,0707477
3233,0747;0,070921
3234,0391;0,071099
3235,0032;0,0712868
3235,9675;0,0714838
3236,9316;0,0716859
3237,8960;0,0718905
3238,8601;0,0720982
3239,8245;0,072311
3240,7886;0,0725274
3241,7529;0,0727389
3242,7170;0,072934
3243,6814;0,0731058
3244,6455;0,073259
3245,6099;0,0734106
3246,5740;0,0735817
3247,5383;0,0737854
3248,5024;0,07402
3249,4668;0,0742697
3250,4309;0,0745133
3251,3953;0,0747343
3252,3594;0,0749273
3253,3237;0,075099
3254,2878;0,0752633
3255,2522;0,0754339
3256,2163;0,0756196
3257,1807;0,0758215
3258,1448;0,0760354
3259,1091;0,0762551
3260,0732;0,0764746
3261,0376;0,0766898
3262,0017;0,0768983
3262,9661;0,0770995
3263,9302;0,0772944
3264,8945;0,0774857
3265,8586;0,0776772
3266,8230;0,0778712
3267,7871;0,0780676
3268,7515;0,0782612
3269,7156;0,0784438
3270,6799;0,0786073
3271,6440;0,0787473
3272,6084;0,0788657
3273,5725;0,0789706
3274,5369;0,0790721
3275,5010;0,0791781
3276,4653;0,0792908
3277,4294;0,0794063
3278,3938;0,0795168
3279,3579;0,0796144
3280,3223;0,0796946
3281,2864;0,0797582
3282,2507;0,0798113
3283,2148;0,0798626
3284,1792;0,0799198
3285,1433;0,0799866
3286,1077;0,0800612
3287,0718;0,0801367
3288,0361;0,0802053
3289,0002;0,0802612
3289,9646;0,0803037
3290,9287;0,080337
3291,8931;0,0803682
3292,8572;0,0804024
3293,8215;0,0804404
3294,7856;0,0804783
3295,7500;0,0805099
3296,7141;0,080532
3297,6785;0,0805471
3298,6426;0,0805634
3299,6069;0,0805907
3300,5710;0,0806347
3301,5354;0,0806931
3302,4995;0,0807558
3303,4639;0,0808099
3304,4280;0,0808459
3305,3923;0,0808625
3306,3564;0,0808669
3307,3208;0,08087
3308,2849;0,0808805
3309,2493;0,0809
3310,2134;0,0809242
3311,1777;0,0809469
3312,1418;0,0809667
3313,1062;0,0809888
3314,0703;0,0810235
3315,0347;0,0810797
3315,9988;0,0811598
3316,9631;0,0812584
3317,9272;0,0813657
3318,8916;0,0814731
3319,8557;0,0815778
3320,8201;0,0816819
3321,7842;0,0817888
3322,7485;0,0818984
3323,7126;0,0820058
3324,6770;0,0821038
3325,6411;0,0821882
3326,6055;0,08226
3327,5696;0,082325
3328,5339;0,0823897
3329,4980;0,082458
3330,4624;0,0825295
3331,4265;0,0826012
3332,3909;0,0826686
3333,3550;0,0827262
3334,3193;0,0827666
3335,2834;0,0827816
3336,2478;0,082765
3337,2119;0,082717
3338,1763;0,0826446
3339,1404;0,0825586
3340,1047;0,0824678
3341,0688;0,0823756
3342,0332;0,0822803
3342,9973;0,082179
3343,9617;0,0820716
3344,9258;0,0819604
3345,8901;0,0818477
3346,8542;0,0817327
3347,8186;0,0816118
3348,7827;0,0814823
3349,7471;0,081345
3350,7112;0,0812038
3351,6755;0,0810624
3352,6396;0,0809208
3353,6040;0,0807757
3354,5681;0,0806239
3355,5325;0,0804664
3356,4966;0,0803094
3357,4609;0,080161
3358,4250;0,0800272
3359,3894;0,0799087
3360,3535;0,0798023
3361,3179;0,0797025
3362,2820;0,079603
3363,2463;0,0794966
3364,2104;0,0793758
3365,1748;0,079234
3366,1389;0,0790687
3367,1033;0,0788839
3368,0674;0,0786893
3369,0317;0,0784965
3369,9958;0,0783137
3370,9602;0,0781432
3371,9243;0,0779819
3372,8887;0,0778249
3373,8528;0,0776683
3374,8171;0,0775115
3375,7813;0,0773566
3376,7456;0,0772065
3377,7097;0,0770629
3378,6741;0,0769241
3379,6382;0,0767852
3380,6025;0,0766393
3381,5667;0,0764811
3382,5310;0,0763101
3383,4951;0,0761328
3384,4595;0,0759614
3385,4236;0,0758081
3386,3879;0,0756788
3387,3521;0,0755695
3388,3164;0,0754676
3389,2805;0,0753584
3390,2449;0,0752324
3391,2090;0,0750891
3392,1733;0,074936
3393,1375;0,0747823
3394,1018;0,0746323
3395,0659;0,0744834
3396,0303;0,0743275
3396,9944;0,0741574
3397,9587;0,0739704
3398,9229;0,0737688
3399,8872;0,0735577
3400,8513;0,0733433
3401,8157;0,0731306
3402,7798;0,0729229
3403,7441;0,0727216
3404,7083;0,0725251
3405,6726;0,0723302
3406,6367;0,0721341
3407,6011;0,0719362
3408,5652;0,0717385
3409,5295;0,0715429
3410,4937;0,0713485
3411,4580;0,0711525
3412,4221;0,0709536
3413,3865;0,0707557
3414,3506;0,0705665
3415,3149;0,0703911
3416,2791;0,0702258
3417,2434;0,0700549
3418,2075;0,0698574
3419,1719;0,0696182
3420,1360;0,069339
3421,1003;0,0690394
3422,0645;0,0687465
3423,0288;0,0684791
3423,9929;0,0682397
3424,9573;0,0680161
3425,9214;0,0677914
3426,8857;0,067553
3427,8499;0,067297
3428,8142;0,0670274
3429,7783;0,0667507
3430,7427;0,0664717
3431,7068;0,0661926
3432,6711;0,0659143
3433,6353;0,0656403
3434,5996;0,0653764
3435,5637;0,0651287
3436,5281;0,0648992
3437,4922;0,0646842
3438,4565;0,0644768
3439,4207;0,0642713
3440,3850;0,0640665
3441,3491;0,0638627
3442,3135;0,0636565
3443,2776;0,0634353
3444,2419;0,0631799
3445,2061;0,0628746
3446,1704;0,0625193
3447,1345;0,0621359
3448,0989;0,0617597
3449,0630;0,0614204
3450,0273;0,0611278
3450,9915;0,0608716
3451,9558;0,060633
3452,9199;0,0603962
3453,8843;0,0601558
3454,8484;0,0599149
3455,8127;0,0596799
3456,7769;0,0594536
3457,7412;0,0592327
3458,7053;0,0590089
3459,6697;0,0587735
3460,6338;0,0585211
3461,5981;0,0582523
3462,5623;0,0579725
3463,5266;0,0576882
3464,4907;0,0574034
3465,4551;0,0571184
3466,4192;0,0568317
3467,3835;0,0565443
3468,3477;0,056261
3469,3120;0,0559876
3470,2761;0,0557263
3471,2405;0,0554733
3472,2046;0,055221
3473,1689;0,0549656
3474,1331;0,0547113
3475,0974;0,0544695
3476,0615;0,0542496
3477,0259;0,054049
3477,9900;0,0538512
3478,9543;0,0536329
3479,9185;0,053377
3480,8828;0,0530851
3481,8469;0,0527775
3482,8113;0,0524807
3483,7754;0,0522093
3484,7397;0,0519565
3485,7039;0,051702
3486,6682;0,0514273
3487,6323;0,0511307
3488,5967;0,0508301
3489,5608;0,0505516
3490,5251;0,0503106
3491,4893;0,0501006
3492,4536;0,0498977
3493,4177;0,0496771
3494,3821;0,0494327
3495,3462;0,0491852
3496,3105;0,0489706
3497,2747;0,0488132
3498,2390;0,0487038
3499,2031;0,0485979
3500,1675;0,0484369
3501,1316;0,0481798
3502,0959;0,0478313
3503,0601;0,0474463
3504,0244;0,047096
3504,9885;0,046819
3505,9529;0,0465999
3506,9170;0,0463881
3507,8813;0,0461343
3508,8455;0,0458205
3509,8098;0,0454678
3510,7739;0,0451198
3511,7383;0,0448116
3512,7024;0,0445502
3513,6667;0,0443203
3514,6309;0,0441059
3515,5952;0,0439052
3516,5593;0,0437312
3517,5237;0,0435976
3518,4878;0,043504
3519,4521;0,04343
3520,4163;0,0433435
3521,3806;0,0432156
3522,3447;0,0430333
3523,3091;0,0428013
3524,2732;0,042533
3525,2375;0,0422364
3526,2017;0,0419094
3527,1660;0,04155
3528,1301;0,0411703
3529,0945;0,0408011
3530,0586;0,0404774
3531,0229;0,0402154
3531,9871;0,040002
3532,9514;0,0398023
3533,9155;0,0395795
3534,8799;0,0393145
3535,8440;0,0390197
3536,8083;0,0387362
3537,7725;0,0385135
3538,7368;0,0383813
3539,7009;0,0383341
3540,6653;0,0383322
3541,6294;0,0383153
3542,5938;0,0382185
3543,5579;0,037994
3544,5222;0,0376404
3545,4863;0,0372183
3546,4507;0,0368228
3547,4148;0,0365202
3548,3792;0,0363062
3549,3433;0,0361197
3550,3076;0,0358885
3551,2717;0,0355753
3552,2361;0,0352017
3553,2002;0,0348373
3554,1646;0,0345524
3555,1287;0,0343705
3556,0930;0,0342633
3557,0571;0,0341824
3558,0215;0,0340997
3558,9856;0,0340277
3559,9500;0,0340079
3560,9141;0,0340719
3561,8784;0,0342017
3562,8425;0,0343159
3563,8069;0,0342809
3564,7710;0,0339452
3565,7354;0,033227
3566,6995;0,0322465
3567,6638;0,0313265
3568,6279;0,030744
3569,5923;0,0305284
3570,5564;0,0305268
3571,5208;0,0305636
3572,4849;0,0305293
3573,4492;0,030394
3574,4133;0,0301843
3575,3777;0,0299465
3576,3418;0,0297155
3577,3062;0,029507
3578,2703;0,0293336
3579,2346;0,0292202
3580,1987;0,0291977
3581,1631;0,0292746
3582,1272;0,0294126
3583,0916;0,0295259
3584,0557;0,0295013
3585,0200;0,0292318
3585,9841;0,0286812
3586,9485;0,0279718
3587,9126;0,0273729
3588,8770;0,0271
3589,8411;0,0271478
3590,8054;0,0273484
3591,7695;0,0275163
3592,7339;0,0275376
3593,6980;0,0273965
3594,6624;0,0271615
3595,6265;0,0269255
3596,5908;0,0267297
3597,5549;0,0265386
3598,5193;0,0262894
3599,4834;0,0259657
3600,4478;0,0256297
3601,4119;0,0253796
3602,3762;0,0252682
3603,3403;0,0252619
3604,3047;0,0252662
3605,2688;0,025181
3606,2332;0,0249479
3607,1973;0,0245802
3608,1616;0,0241622
3609,1257;0,0238005
3610,0901;0,023559
3611,0542;0,0234385
3612,0186;0,0234048
3612,9827;0,0234186
3613,9470;0,02344
3614,9111;0,0234158
3615,8755;0,0232758
3616,8396;0,0229537
3617,8040;0,0224385
3618,7681;0,0218373
3619,7324;0,0213714
3620,6965;0,0212414
3621,6609;0,0214775
3622,6250;0,021939
3623,5894;0,0224211
3624,5535;0,0227386
3625,5178;0,0227473
3626,4819;0,0223396
3627,4463;0,0214919
3628,4104;0,0204053
3629,3748;0,0195029
3630,3389;0,0190702
3631,3032;0,0190221
3632,2673;0,0190973
3633,2317;0,019097
3634,1958;0,0189612
3635,1602;0,0187338
3636,1243;0,0184915
3637,0886;0,0182834
3638,0527;0,0181146
3639,0171;0,0179767
3639,9812;0,0178836
3640,9456;0,0178784
3641,9097;0,0180018
3642,8740;0,0182556
3643,8381;0,0185903
3644,8025;0,0189175
3645,7666;0,0191109
3646,7310;0,0189724
3647,6951;0,0182609
3648,6594;0,0170062
3649,6235;0,0157887
3650,5879;0,0151787
3651,5520;0,0151566
3652,5164;0,0153631
3653,4805;0,015478
3654,4448;0,0153495
3655,4089;0,0149999
3656,3733;0,0145847
3657,3374;0,0142836
3658,3018;0,0141703
3659,2659;0,0141863
3660,2302;0,0142344
3661,1943;0,0142748
3662,1587;0,0143452
3663,1228;0,0145056
3664,0872;0,0147657
3665,0513;0,0150628
3666,0156;0,0152982
3666,9797;0,0153946
3667,9441;0,0153371
3668,9082;0,0151938
3669,8726;0,015089
3670,8367;0,0150981
3671,8010;0,0151593
3672,7651;0,0151192
3673,7295;0,0148429
3674,6936;0,0143126
3675,6580;0,0136951
3676,6221;0,0132596
3677,5864;0,0131344
3678,5505;0,0132281
3679,5149;0,0133903
3680,4790;0,013551
3681,4434;0,013731
3682,4075;0,013977
3683,3718;0,014295
3684,3359;0,0146316
3685,3003;0,0149011
3686,2644;0,0150233
3687,2288;0,0149417
3688,1929;0,0146442
3689,1572;0,0142214
3690,1213;0,0138677
3691,0857;0,0137251
3692,0498;0,0137751
3693,0142;0,0139154
3693,9783;0,0140655
3694,9426;0,0141964
3695,9067;0,0143083
3696,8711;0,0143986
3697,8352;0,0144474
3698,7996;0,0144245
3699,7637;0,0143156
3700,7280;0,0141526
3701,6921;0,0140263
3702,6565;0,0140468
3703,6206;0,0142701
3704,5850;0,0146618
3705,5491;0,0151242
3706,5134;0,0155413
3707,4775;0,0157955
3708,4419;0,0157592
3709,4060;0,0153132
3710,3704;0,0144719
3711,3345;0,013522
3712,2988;0,0128722
3713,2629;0,0127112
3714,2273;0,0129411
3715,1914;0,0133596
3716,1558;0,0138072
3717,1199;0,0142077
3718,0842;0,0145522
3719,0483;0,0148633
3720,0127;0,0151576
3720,9768;0,0154215
3721,9412;0,0156131
3722,9053;0,015692
3723,8696;0,0156588
3724,8337;0,0155757
3725,7981;0,0155399
3726,7622;0,015623
3727,7266;0,0158297
3728,6907;0,0161111
3729,6550;0,0164026
3730,6191;0,0166437
3731,5835;0,0167651
3732,5476;0,0166601
3733,5120;0,016212
3734,4761;0,0154485
3735,4404;0,0146777
3736,4045;0,0142893
3737,3689;0,0144028
3738,3330;0,0148282
3739,2974;0,0152651
3740,2615;0,0154613
3741,2258;0,0152795
3742,1899;0,0147364
3743,1543;0,0140455
3744,1184;0,0135802
3745,0828;0,0136275
3746,0469;0,0141243
3747,0112;0,014722
3747,9753;0,0150372
3748,9397;0,0148089
3749,9038;0,0140223
3750,8682;0,0130436
3751,8323;0,0124342
3752,7966;0,0124342
3753,7607;0,0128396
3754,7251;0,0133109
3755,6892;0,0136037
3756,6536;0,0136181
3757,6177;0,0133892
3758,5820;0,0130612
3759,5461;0,0128132
3760,5105;0,0127481
3761,4746;0,0128488
3762,4390;0,0130295
3763,4031;0,0132044
3764,3674;0,0133196
3765,3315;0,0133504
3766,2959;0,0132857
3767,2600;0,0131195
3768,2244;0,0128595
3769,1885;0,0125501
3770,1528;0,0122815
3771,1169;0,0121546
3772,0813;0,0122175
3773,0454;0,0124343
3774,0098;0,0127102
3774,9739;0,0129404
3775,9382;0,0130488
3776,9023;0,013011
3777,8667;0,0128674
3778,8308;0,0127143
3779,7952;0,0126492
3780,7593;0,0127027
3781,7236;0,0128226
3782,6877;0,0129196
3783,6521;0,0129231
3784,6162;0,0128156
3785,5806;0,012638
3786,5447;0,0124645
3787,5090;0,0123646
3788,4731;0,0123723
3789,4375;0,0124799
3790,4016;0,0126526
3791,3660;0,0128513
3792,3301;0,013054
3793,2944;0,0132651
3794,2585;0,0135059
3795,2229;0,0137879
3796,1870;0,0140851
3797,1514;0,0143274
3798,1155;0,014425
3799,0798;0,0143135
3800,0439;0,014008
3801,0083;0,0136286
3801,9724;0,0133332
3802,9368;0,0131778
3803,9009;0,0130671
3804,8652;0,0128573
3805,8293;0,012498
3806,7937;0,0121085
3807,7578;0,0119152
3808,7222;0,0120644
3809,6863;0,0124974
3810,6506;0,0130173
3811,6147;0,0134363
3812,5791;0,0136671
3813,5432;0,0137423
3814,5076;0,0137803
3815,4717;0,0139017
3816,4360;0,014127
3817,4001;0,0143423
3818,3645;0,0143736
3819,3286;0,0141111
3820,2930;0,0136153
3821,2571;0,0131186
3822,2214;0,0128534
3823,1855;0,0128686
3824,1499;0,0130427
3825,1140;0,0132236
3826,0784;0,0133261
3827,0425;0,0133503
3828,0068;0,0133503
3828,9709;0,0133884
3829,9353;0,0135008
3830,8994;0,0136889
3831,8638;0,0139275
3832,8279;0,0141761
3833,7922;0,0143869
3834,7563;0,0145104
3835,7207;0,0145038
3836,6848;0,0143463
3837,6492;0,0140599
3838,6133;0,0137171
3839,5776;0,0133992
3840,5417;0,0131398
3841,5061;0,012926
3842,4702;0,0127537
3843,4346;0,0126698
3844,3987;0,0127552
3845,3630;0,0130643
3846,3271;0,0135733
3847,2915;0,0141779
3848,2556;0,0147302
3849,2200;0,0150745
3850,1841;0,0150562
3851,1484;0,0145206
3852,1125;0,0134117
3853,0769;0,0120697
3854,0410;0,0112147
3855,0054;0,0112123
3855,9695;0,0118034
3856,9338;0,0125673
3857,8979;0,0132338
3858,8623;0,0137006
3859,8264;0,0139675
3860,7908;0,0140781
3861,7549;0,0140857
3862,7192;0,0140416
3863,6833;0,0139964
3864,6477;0,013985
3865,6118;0,0140037
3866,5762;0,0140141
3867,5403;0,0139693
3868,5046;0,0138373
3869,4688;0,0136124
3870,4331;0,0133258
3871,3972;0,0130464
3872,3616;0,0128548
3873,3257;0,0127994
3874,2900;0,0128748
3875,2542;0,013032
3876,2185;0,0132084
3877,1826;0,0133565
3878,1470;0,0134592
3879,1111;0,0135264
3880,0754;0,013573
3881,0396;0,0135897
3882,0039;0,0135366
3882,9680;0,013377
3883,9324;0,013131
3884,8965;0,0128959
3885,8608;0,0127901
3886,8250;0,0128561
3887,7893;0,0130201
3888,7534;0,0131455
3889,7178;0,0131286
3890,6819;0,0129764
3891,6462;0,0128219
3892,6104;0,0128343
3893,5747;0,0130757
3894,5388;0,0134623
3895,5032;0,0138516
3896,4673;0,0141359
3897,4316;0,0142761
3898,3958;0,0142846
3899,3601;0,0141903
3900,3242;0,0140054
3901,2886;0,01372
3902,2527;0,0133332
3903,2170;0,012898
3904,1812;0,0125203
3905,1455;0,0122926
3906,1096;0,012231
3907,0740;0,0122831
3908,0381;0,0123835
3909,0024;0,0124972
3909,9666;0,0126258
3910,9309;0,0127862
3911,8950;0,0129799
3912,8594;0,0131768
3913,8235;0,0133232
3914,7878;0,0133682
3915,7520;0,0132975
3916,7163;0,0131563
3917,6804;0,0130359
3918,6448;0,0130158
3919,6089;0,0131069
3920,5732;0,0132485
3921,5374;0,0133558
3922,5017;0,0133748
3923,4658;0,0133146
3924,4302;0,013242
3925,3943;0,0132334
3926,3586;0,0133165
3927,3228;0,0134508
3928,2871;0,0135561
3929,2512;0,0135577
3930,2156;0,0134255
3931,1797;0,0131938
3932,1440;0,0129489
3933,1082;0,0127795
3934,0725;0,0127268
3935,0366;0,0127773
3936,0010;0,0128886
3936,9651;0,0130159
3937,9294;0,0131237
3938,8936;0,0131874
3939,8579;0,0131959
3940,8220;0,0131576
3941,7864;0,0131048
3942,7505;0,0130812
3943,7148;0,0131155
3944,6790;0,0131991
3945,6433;0,0132886
3946,6074;0,013332
3947,5718;0,0132979
3948,5359;0,0131951
3949,5002;0,0130679
3950,4644;0,0129684
3951,4287;0,0129232
3952,3928;0,0129242
3953,3572;0,0129445
3954,3213;0,0129609
3955,2856;0,012966
3956,2498;0,0129652
3957,2141;0,0129662
3958,1782;0,0129701
3959,1426;0,0129701
3960,1067;0,0129583
3961,0710;0,0129332
3962,0352;0,0129023
3962,9995;0,0128779
3963,9636;0,0128692
3964,9280;0,0128787
3965,8921;0,012902
3966,8564;0,0129322
3967,8206;0,0129628
3968,7849;0,0129889
3969,7490;0,0130068
3970,7134;0,0130132
3971,6775;0,0130055
3972,6418;0,0129835
3973,6060;0,0129507
3974,5703;0,0129141
3975,5344;0,0128819
3976,4988;0,0128595
3977,4629;0,0128474
3978,4272;0,0128415
3979,3914;0,0128356
3980,3557;0,0128252
3981,3198;0,0128107
3982,2842;0,0127977
3983,2483;0,012795
3984,2126;0,0128101
3985,1768;0,0128447
3986,1411;0,012893
3987,1052;0,012944
3988,0696;0,0129854
3989,0337;0,0130083
3989,9980;0,0130094
3990,9622;0,0129903
3991,9265;0,0129554
3992,8906;0,0129107
3993,8550;0,0128639
3994,8191;0,0128246
3995,7834;0,0128022
3996,7476;0,0128011
3997,7119;0,0128182
3998,6760;0,0128428
3999,6404;0,012863
4000,6045;0,0130356

##### Extended Information
[Comments]
Sample name
Comment
Username
Division
Organization;UNIVERSIDAD INDUSTRIAL DE SANTANDER

[Detailed Information]
Creation date;14/03/2025 5:16 p.m.

Data array type;Linear data array
Horizontal axis;Wavenumber [cm-1]
Vertical axis;Abs
Start;399,193 cm-1
End;4000,6 cm-1
Data interval;0,964233 cm-1
Data points;3736    

[Measurement Information]
Model name;FT/IR-4X1typeA
Serial No.;A035162111

Accessory;ATR PRO 4X
Accessory S/N;A021162126
Incident angle;45 deg

Measurement date;14/03/2025 5:16 p.m.

Light source;Standard
Detector;TGS
Accumulation;40
Resolution;4 cm-1
Zero filling;On
Apodization;Cosine
Gain;Auto (8)
Aperture;Auto (7 mm)
Scan speed;Auto (2 mm/sec)
Filter;Auto (12800 Hz)

