TITLE;
DATA TYPE;INFRARED SPECTRUM
ORIGIN;JASCO
OWNER;
DATE;25/03/17
TIME;14:54:43
SPECTROMETER/DATA SYSTEM;
LOCALE;9226
RESOLUTION;
DELTAX;0,964233
XUNITS;1/CM
YUNITS;ABSORBANCE
FIRSTX;  399,1927
LASTX; 4000,6047
NPOINTS;    3736
FIRSTY;     0,09405
MAXY;     0,14087
MINY;     0,01072
XYDATA
399,1927;0,0940506
400,1569;0,0934687
401,1211;0,0930991
402,0854;0,092931
403,0496;0,0930018
404,0138;0,0933707
404,9781;0,0940585
405,9423;0,0950013
406,9065;0,096058
407,8708;0,097075
408,8350;0,0979522
409,7992;0,0986615
410,7635;0,0992178
411,7277;0,0996414
412,6919;0,0999373
413,6562;0,100093
414,6204;0,100083
415,5846;0,099878
416,5489;0,099483
417,5131;0,0990154
418,4773;0,0987686
419,4416;0,0990496
420,4058;0,0998563
421,3700;0,100897
422,3343;0,1019
423,2985;0,102751
424,2627;0,103441
425,2270;0,103992
426,1912;0,104398
427,1554;0,104617
428,1197;0,104592
429,0839;0,10431
430,0481;0,103844
431,0124;0,103345
431,9766;0,102991
432,9408;0,102895
433,9051;0,103049
434,8693;0,103339
435,8335;0,103611
436,7978;0,103751
437,7620;0,103719
438,7262;0,103538
439,6905;0,103256
440,6547;0,102933
441,6189;0,10263
442,5832;0,102396
443,5474;0,102235
444,5116;0,102094
445,4759;0,101884
446,4401;0,101544
447,4043;0,101066
448,3686;0,100501
449,3328;0,0999232
450,2970;0,0994113
451,2613;0,0990257
452,2255;0,0988045
453,1897;0,0987635
454,1540;0,0988977
455,1182;0,0991785
456,0824;0,0995446
457,0467;0,0998929
458,0109;0,100091
458,9751;0,100025
459,9394;0,0996571
460,9036;0,0990317
461,8678;0,0982495
462,8321;0,0974434
463,7963;0,0967607
464,7605;0,0963264
465,7248;0,0961875
466,6890;0,0962808
467,6532;0,0964689
468,6175;0,0966262
469,5817;0,0967115
470,5459;0,0967781
471,5102;0,0969163
472,4744;0,0971584
473,4386;0,0974221
474,4029;0,0975576
475,3671;0,0974583
476,3313;0,0971361
477,2956;0,0967158
478,2598;0,0963718
479,2240;0,0962444
480,1883;0,0963748
481,1525;0,0966957
482,1167;0,0970828
483,0810;0,0974354
484,0452;0,097735
485,0094;0,0980407
485,9737;0,0984274
486,9379;0,0989165
487,9021;0,099457
488,8664;0,0999557
489,8306;0,100326
490,7948;0,100524
491,7591;0,100567
492,7233;0,100517
493,6875;0,100451
494,6518;0,100441
495,6160;0,100536
496,5802;0,100768
497,5445;0,101143
498,5087;0,101628
499,4729;0,102144
500,4372;0,102579
501,4014;0,102838
502,3656;0,102905
503,3299;0,102872
504,2941;0,102892
505,2583;0,103086
506,2226;0,103474
507,1868;0,103963
508,1510;0,104402
509,1153;0,104672
510,0795;0,104755
511,0437;0,104744
512,0080;0,104781
512,9722;0,104986
513,9365;0,105401
514,9007;0,105986
515,8649;0,10664
516,8292;0,107248
517,7934;0,107731
518,7576;0,108088
519,7219;0,108376
520,6861;0,10866
521,6503;0,108964
522,6146;0,109253
523,5788;0,109451
524,5430;0,109487
525,5073;0,109347
526,4715;0,109096
527,4357;0,108852
528,4000;0,108703
529,3642;0,108665
530,3284;0,108684
531,2927;0,108691
532,2569;0,108641
533,2211;0,108534
534,1854;0,108403
535,1496;0,10828
536,1138;0,108177
537,0781;0,108077
538,0423;0,10796
539,0065;0,107816
539,9708;0,107653
540,9350;0,1075
541,8992;0,107391
542,8635;0,107364
543,8277;0,107449
544,7919;0,107659
545,7562;0,107978
546,7204;0,108357
547,6846;0,108724
548,6489;0,109007
549,6131;0,109159
550,5773;0,109178
551,5416;0,109107
552,5058;0,109023
553,4700;0,109012
554,4343;0,109135
555,3985;0,109402
556,3627;0,109763
557,3270;0,110118
558,2912;0,110359
559,2554;0,110408
560,2197;0,110242
561,1839;0,109897
562,1481;0,109443
563,1124;0,108964
564,0766;0,108528
565,0408;0,108174
566,0051;0,107916
566,9693;0,10774
567,9335;0,107618
568,8978;0,10752
569,8620;0,10742
570,8262;0,107304
571,7905;0,107165
572,7547;0,107002
573,7189;0,106814
574,6832;0,106615
575,6474;0,106432
576,6116;0,106301
577,5759;0,10625
578,5401;0,106279
579,5043;0,106357
580,4686;0,10643
581,4328;0,10645
582,3970;0,106392
583,3613;0,106264
584,3255;0,106098
585,2897;0,105927
586,2540;0,105776
587,2182;0,105659
588,1824;0,10559
589,1467;0,105583
590,1109;0,105641
591,0751;0,105745
592,0394;0,105842
593,0036;0,105863
593,9678;0,105755
594,9321;0,105513
595,8963;0,105182
596,8605;0,104835
597,8248;0,104541
598,7890;0,104327
599,7532;0,104171
600,7175;0,104016
601,6817;0,103809
602,6459;0,103537
603,6102;0,103233
604,5744;0,102952
605,5386;0,102736
606,5029;0,102584
607,4671;0,102445
608,4313;0,102249
609,3956;0,101944
610,3598;0,10153
611,3240;0,101055
612,2883;0,100597
613,2525;0,100219
614,2167;0,0999412
615,1810;0,0997275
616,1452;0,0994998
617,1094;0,0991687
618,0737;0,0986749
619,0379;0,0980168
620,0021;0,0972462
620,9664;0,0964373
621,9306;0,0956551
622,8948;0,0949372
623,8591;0,0942916
624,8233;0,0937043
625,7875;0,0931582
626,7518;0,0926422
627,7160;0,0921576
628,6802;0,0917127
629,6445;0,0913121
630,6087;0,0909488
631,5729;0,0906062
632,5372;0,0902674
633,5014;0,0899255
634,4656;0,0895861
635,4299;0,0892608
636,3941;0,0889562
637,3583;0,0886682
638,3226;0,0883869
639,2868;0,0881065
640,2510;0,0878326
641,2153;0,0875794
642,1795;0,0873593
643,1437;0,0871724
644,1080;0,087005
645,0722;0,0868376
646,0364;0,0866558
647,0007;0,0864568
647,9649;0,0862492
648,9291;0,0860471
649,8934;0,0858653
650,8576;0,0857158
651,8218;0,085608
652,7861;0,0855475
653,7503;0,0855357
654,7145;0,0855696
655,6788;0,0856425
656,6430;0,0857441
657,6072;0,0858569
658,5715;0,0859482
659,5357;0,0859691
660,4999;0,0858725
661,4642;0,0856477
662,4284;0,0853362
663,3926;0,0850113
664,3569;0,0847437
665,3211;0,0845823
666,2853;0,0845385
667,2496;0,0845384
668,2138;0,0843842
669,1780;0,0839096
670,1423;0,0831954
671,1065;0,0824145
672,0707;0,0816285
673,0350;0,0808148
673,9992;0,079945
674,9634;0,0790258
675,9277;0,0781028
676,8919;0,0772307
677,8561;0,0764355
678,8204;0,0757059
679,7846;0,0750187
680,7488;0,0743654
681,7131;0,0737572
682,6773;0,0732082
683,6415;0,0727176
684,6058;0,0722672
685,5700;0,0718328
686,5342;0,0714008
687,4985;0,0709766
688,4627;0,070582
689,4269;0,0702408
690,3912;0,0699641
691,3554;0,0697402
692,3196;0,0695381
693,2839;0,0693202
694,2481;0,0690587
695,2123;0,0687471
696,1766;0,0683998
697,1408;0,0680431
698,1050;0,0677032
699,0693;0,0673975
700,0335;0,0671315
700,9977;0,0669016
701,9620;0,0666971
702,9262;0,0665032
703,8904;0,0663035
704,8547;0,0660845
705,8189;0,0658378
706,7831;0,0655609
707,7474;0,0652554
708,7116;0,0649244
709,6758;0,0645715
710,6401;0,0642015
711,6043;0,0638214
712,5685;0,0634421
713,5328;0,0630774
714,4970;0,0627416
715,4612;0,0624242
716,4255;0,0621744
717,3897;0,0619576
718,3539;0,061747
719,3182;0,0615031
720,2824;0,0611868
721,2466;0,0607756
722,2109;0,0602745
723,1751;0,059713
724,1393;0,0591337
725,1036;0,05858
726,0678;0,058086
727,0320;0,0576681
727,9963;0,05732
728,9605;0,0570151
729,9247;0,0567188
730,8890;0,0564049
731,8532;0,0560664
732,8174;0,0557151
733,7817;0,0553703
734,7459;0,0550463
735,7101;0,0547456
736,6744;0,0544602
737,6386;0,0541798
738,6028;0,0538983
739,5671;0,0536164
740,5313;0,0533402
741,4955;0,0530775
742,4598;0,0528339
743,4240;0,0526075
744,3882;0,0523876
745,3525;0,0521561
746,3167;0,0518969
747,2809;0,0516059
748,2452;0,0512968
749,2094;0,0509951
750,1736;0,0507223
751,1379;0,050481
752,1021;0,0502518
753,0663;0,0500063
754,0306;0,0497271
754,9948;0,0494207
755,9590;0,0491134
756,9233;0,0488331
757,8875;0,0485911
758,8517;0,0483765
759,8160;0,048167
760,7802;0,0479467
761,7444;0,0477164
762,7087;0,0474913
763,6729;0,0472869
764,6371;0,0471062
765,6014;0,0469366
766,5656;0,0467587
767,5298;0,0465593
768,4941;0,0463389
769,4583;0,0461107
770,4225;0,0458915
771,3868;0,0456924
772,3510;0,0455151
773,3152;0,0453549
774,2795;0,0452063
775,2437;0,0450674
776,2079;0,0449392
777,1722;0,0448214
778,1364;0,0447078
779,1006;0,0445867
780,0649;0,0444443
781,0291;0,044272
781,9933;0,0440718
782,9576;0,0438561
783,9218;0,0436428
784,8860;0,0434473
785,8503;0,0432774
786,8145;0,0431323
787,7787;0,0430059
788,7430;0,0428914
789,7072;0,042784
790,6714;0,0426818
791,6357;0,0425861
792,5999;0,0425014
793,5641;0,0424345
794,5284;0,0423905
795,4926;0,0423664
796,4568;0,0423474
797,4211;0,0423105
798,3853;0,0422355
799,3495;0,0421191
800,3138;0,04198
801,2780;0,0418501
802,2422;0,0417555
803,2065;0,0417002
804,1707;0,0416632
805,1349;0,0416133
806,0992;0,0415301
807,0634;0,0414171
808,0276;0,0412987
808,9919;0,0412034
809,9561;0,0411464
810,9203;0,0411222
811,8846;0,0411103
812,8488;0,0410888
813,8130;0,0410443
814,7773;0,0409755
815,7415;0,0408897
816,7057;0,0407966
817,6700;0,0407044
818,6342;0,0406177
819,5984;0,0405375
820,5627;0,0404624
821,5269;0,0403909
822,4911;0,0403254
823,4554;0,0402729
824,4196;0,0402429
825,3839;0,0402417
826,3481;0,0402665
827,3123;0,0403039
828,2766;0,0403344
829,2408;0,0403406
830,2050;0,0403135
831,1693;0,0402549
832,1335;0,0401735
833,0977;0,0400793
834,0620;0,039979
835,0262;0,0398737
835,9904;0,0397597
836,9547;0,0396316
837,9189;0,039486
838,8831;0,0393261
839,8474;0,0391634
840,8116;0,0390161
841,7758;0,0389018
842,7401;0,0388291
843,7043;0,038792
844,6685;0,0387721
845,6328;0,0387473
846,5970;0,0387033
847,5612;0,0386411
848,5255;0,0385755
849,4897;0,0385257
850,4539;0,0385037
851,4182;0,0385067
852,3824;0,038518
853,3466;0,0385166
854,3109;0,0384876
855,2751;0,0384302
856,2393;0,0383566
857,2036;0,0382856
858,1678;0,0382327
859,1320;0,0382053
860,0963;0,0382023
861,0605;0,0382187
862,0247;0,0382503
862,9890;0,0382951
863,9532;0,0383518
864,9174;0,0384177
865,8817;0,038489
866,8459;0,0385627
867,8101;0,0386389
868,7744;0,0387201
869,7386;0,0388079
870,7028;0,0388984
871,6671;0,0389822
872,6313;0,039048
873,5955;0,0390886
874,5598;0,0391062
875,5240;0,0391125
876,4882;0,0391251
877,4525;0,0391608
878,4167;0,0392307
879,3809;0,0393377
880,3452;0,0394774
881,3094;0,0396428
882,2736;0,0398288
883,2379;0,0400367
884,2021;0,0402745
885,1663;0,0405548
886,1306;0,0408888
887,0948;0,0412822
888,0590;0,0417328
889,0233;0,0422319
889,9875;0,0427664
890,9517;0,0433199
891,9160;0,043872
892,8802;0,0443972
893,8444;0,0448665
894,8087;0,0452509
895,7729;0,0455275
896,7371;0,0456822
897,7014;0,0457114
898,6656;0,0456198
899,6298;0,0454176
900,5941;0,0451195
901,5583;0,0447427
902,5225;0,0443072
903,4868;0,0438351
904,4510;0,0433513
905,4152;0,0428829
906,3795;0,0424579
907,3437;0,0421009
908,3079;0,0418273
909,2722;0,0416376
910,2364;0,0415181
911,2007;0,0414456
912,1649;0,0413976
913,1292;0,0413611
914,0934;0,041336
915,0576;0,0413319
916,0219;0,0413612
916,9861;0,0414302
917,9503;0,0415348
918,9146;0,0416615
919,8788;0,0417931
920,8430;0,0419168
921,8073;0,0420304
922,7715;0,0421421
923,7357;0,0422633
924,7000;0,0423992
925,6642;0,0425428
926,6284;0,0426779
927,5927;0,0427899
928,5569;0,0428761
929,5211;0,0429483
930,4854;0,0430254
931,4496;0,0431203
932,4138;0,043232
933,3781;0,043349
934,3423;0,0434604
935,3065;0,043567
936,2708;0,0436836
937,2350;0,0438298
938,1992;0,0440182
939,1635;0,0442473
940,1277;0,044505
941,0919;0,0447782
942,0562;0,0450624
943,0204;0,045364
943,9846;0,045696
944,9489;0,0460699
945,9131;0,046491
946,8773;0,0469566
947,8416;0,0474599
948,8058;0,0479938
949,7700;0,048556
950,7343;0,0491503
951,6985;0,0497856
952,6627;0,0504713
953,6270;0,0512117
954,5912;0,0520023
955,5554;0,0528313
956,5197;0,0536853
957,4839;0,054557
958,4481;0,0554476
959,4124;0,0563636
960,3766;0,0573093
961,3408;0,0582817
962,3051;0,0592717
963,2693;0,0602697
964,2335;0,0612719
965,1978;0,0622815
966,1620;0,0633043
967,1262;0,0643436
968,0905;0,0653993
969,0547;0,0664733
970,0189;0,0675763
970,9832;0,0687308
971,9474;0,069966
972,9116;0,0713095
973,8759;0,0727791
974,8401;0,0743815
975,8043;0,0761166
976,7686;0,0779813
977,7328;0,0799698
978,6970;0,0820679
979,6613;0,0842467
980,6255;0,0864598
981,5897;0,088648
982,5540;0,0907477
983,5182;0,0927016
984,4824;0,0944668
985,4467;0,0960188
986,4109;0,0973525
987,3751;0,0984805
988,3394;0,0994282
989,3036;0,100228
990,2678;0,100914
991,2321;0,101511
992,1963;0,102039
993,1605;0,10251
994,1248;0,102936
995,0890;0,103333
996,0532;0,103724
997,0175;0,10413
997,9817;0,104567
998,9459;0,105033
999,9102;0,105518
1000,8744;0,106005
1001,8386;0,106492
1002,8029;0,106993
1003,7671;0,107545
1004,7313;0,108188
1005,6956;0,108951
1006,6598;0,109848
1007,6240;0,110877
1008,5883;0,112033
1009,5525;0,113314
1010,5167;0,114719
1011,4810;0,116238
1012,4452;0,117841
1013,4094;0,119476
1014,3737;0,121088
1015,3379;0,122635
1016,3021;0,124101
1017,2664;0,125499
1018,2306;0,126854
1019,1948;0,128184
1020,1591;0,129491
1021,1233;0,130765
1022,0875;0,131992
1023,0518;0,133166
1024,0160;0,134296
1024,9802;0,135397
1025,9445;0,136479
1026,9087;0,137535
1027,8729;0,138535
1028,8372;0,13943
1029,8014;0,140157
1030,7656;0,140656
1031,7299;0,140874
1032,6941;0,140781
1033,6583;0,140367
1034,6226;0,139651
1035,5868;0,13868
1036,5510;0,137526
1037,5153;0,136285
1038,4795;0,135058
1039,4437;0,133941
1040,4080;0,133001
1041,3722;0,132269
1042,3364;0,131735
1043,3007;0,13136
1044,2649;0,131085
1045,2291;0,130846
1046,1934;0,130588
1047,1576;0,130271
1048,1218;0,12987
1049,0861;0,129372
1050,0503;0,128766
1051,0145;0,128046
1051,9788;0,127206
1052,9430;0,126245
1053,9072;0,125173
1054,8715;0,124002
1055,8357;0,122739
1056,7999;0,121375
1057,7642;0,11988
1058,7284;0,118215
1059,6926;0,116354
1060,6569;0,114303
1061,6211;0,112105
1062,5853;0,109837
1063,5496;0,107585
1064,5138;0,105424
1065,4780;0,103406
1066,4423;0,101557
1067,4065;0,0998778
1068,3707;0,098356
1069,3350;0,096967
1070,2992;0,0956806
1071,2634;0,0944644
1072,2277;0,0932876
1073,1919;0,0921232
1074,1561;0,0909491
1075,1204;0,0897491
1076,0846;0,0885157
1077,0488;0,0872539
1078,0131;0,0859842
1078,9773;0,08474
1079,9415;0,083559
1080,9058;0,0824727
1081,8700;0,0814986
1082,8342;0,0806391
1083,7985;0,0798869
1084,7627;0,0792318
1085,7269;0,0786644
1086,6912;0,0781754
1087,6554;0,0777539
1088,6196;0,0773878
1089,5839;0,077067
1090,5481;0,0767885
1091,5123;0,0765571
1092,4766;0,0763806
1093,4408;0,076263
1094,4050;0,0762
1095,3693;0,0761808
1096,3335;0,0761953
1097,2977;0,0762409
1098,2620;0,0763237
1099,2262;0,0764521
1100,1904;0,0766264
1101,1547;0,076831
1102,1189;0,0770352
1103,0831;0,0772029
1104,0474;0,0773062
1105,0116;0,0773348
1105,9758;0,0772966
1106,9401;0,077208
1107,9043;0,0770788
1108,8685;0,0769014
1109,8328;0,076649
1110,7970;0,0762856
1111,7612;0,0757829
1112,7255;0,0751347
1113,6897;0,0743639
1114,6539;0,0735172
1115,6182;0,0726531
1116,5824;0,0718258
1117,5466;0,0710724
1118,5109;0,0704049
1119,4751;0,0698083
1120,4393;0,069244
1121,4036;0,0686602
1122,3678;0,0680045
1123,3320;0,0672382
1124,2963;0,0663437
1125,2605;0,0653243
1126,2247;0,0641976
1127,1890;0,0629868
1128,1532;0,0617153
1129,1174;0,0604057
1130,0817;0,0590816
1131,0459;0,0577677
1132,0101;0,0564883
1132,9744;0,0552648
1133,9386;0,0541155
1134,9028;0,0530572
1135,8671;0,052107
1136,8313;0,0512817
1137,7955;0,0505941
1138,7598;0,0500487
1139,7240;0,04964
1140,6882;0,0493551
1141,6525;0,0491779
1142,6167;0,0490935
1143,5809;0,04909
1144,5452;0,0491572
1145,5094;0,0492857
1146,4736;0,0494675
1147,4379;0,0496968
1148,4021;0,049971
1149,3663;0,0502894
1150,3306;0,0506498
1151,2948;0,0510448
1152,2590;0,051461
1153,2233;0,0518795
1154,1875;0,0522786
1155,1517;0,0526357
1156,1160;0,0529255
1157,0802;0,0531187
1158,0444;0,0531788
1159,0087;0,0530642
1159,9729;0,0527328
1160,9371;0,0521506
1161,9014;0,0513012
1162,8656;0,0501907
1163,8298;0,0488494
1164,7941;0,0473265
1165,7583;0,0456835
1166,7225;0,0439858
1167,6868;0,0422951
1168,6510;0,0406637
1169,6152;0,0391299
1170,5795;0,0377165
1171,5437;0,0364322
1172,5079;0,0352767
1173,4722;0,0342459
1174,4364;0,0333362
1175,4006;0,0325443
1176,3649;0,0318654
1177,3291;0,0312904
1178,2933;0,0308054
1179,2576;0,030395
1180,2218;0,0300464
1181,1860;0,0297533
1182,1503;0,0295146
1183,1145;0,0293316
1184,0787;0,029203
1185,0430;0,0291231
1186,0072;0,0290833
1186,9714;0,0290761
1187,9357;0,029099
1188,8999;0,0291564
1189,8641;0,0292566
1190,8284;0,0294084
1191,7926;0,0296167
1192,7568;0,0298811
1193,7211;0,0301962
1194,6853;0,0305539
1195,6495;0,0309451
1196,6138;0,0313607
1197,5780;0,031792
1198,5422;0,0322313
1199,5065;0,0326291
1200,4707;0,0330735
1201,4349;0,033514
1202,3992;0,0339493
1203,3634;0,0343781
1204,3276;0,0347982
1205,2919;0,0352082
1206,2561;0,0356088
1207,2203;0,0360047
1208,1846;0,0364047
1209,1488;0,0368194
1210,1130;0,0372584
1211,0773;0,0377271
1212,0415;0,038226
1213,0057;0,0387517
1213,9700;0,0392986
1214,9342;0,039861
1215,8984;0,0404328
1216,8627;0,0410069
1217,8269;0,0415748
1218,7911;0,0421283
1219,7554;0,0426599
1220,7196;0,0431649
1221,6838;0,0436411
1222,6481;0,044088
1223,6123;0,0445066
1224,5765;0,0448986
1225,5408;0,0452669
1226,5050;0,0456147
1227,4692;0,0459442
1228,4335;0,0462555
1229,3977;0,0465454
1230,3619;0,0468086
1231,3262;0,0470398
1232,2904;0,0472362
1233,2546;0,0473989
1234,2189;0,0475326
1235,1831;0,0476442
1236,1473;0,0477406
1237,1116;0,0478264
1238,0758;0,0479028
1239,0400;0,047967
1240,0043;0,048014
1240,9685;0,0480377
1241,9327;0,0480339
1242,8970;0,0480005
1243,8612;0,047938
1244,8254;0,0478474
1245,7897;0,0477292
1246,7539;0,0475827
1247,7181;0,0474072
1248,6824;0,0472034
1249,6466;0,0469752
1250,6108;0,0467303
1251,5751;0,0464786
1252,5393;0,0462293
1253,5035;0,045988
1254,4678;0,0457549
1255,4320;0,0455254
1256,3962;0,0452929
1257,3605;0,0450514
1258,3247;0,0447975
1259,2889;0,0445289
1260,2532;0,044243
1261,2174;0,0439352
1262,1816;0,0436001
1263,1459;0,0432344
1264,1101;0,042839
1265,0743;0,0424186
1266,0386;0,0419792
1267,0028;0,0415248
1267,9670;0,0410559
1268,9313;0,0405715
1269,8955;0,0400722
1270,8597;0,0395622
1271,8240;0,039048
1272,7882;0,0385356
1273,7524;0,0380286
1274,7167;0,0375285
1275,6809;0,0370367
1276,6451;0,0365562
1277,6094;0,0360907
1278,5736;0,0356426
1279,5378;0,035211
1280,5021;0,0347928
1281,4663;0,0343854
1282,4305;0,0339887
1283,3948;0,033606
1284,3590;0,0332421
1285,3232;0,0329022
1286,2875;0,0325918
1287,2517;0,0323171
1288,2159;0,0320851
1289,1802;0,0319012
1290,1444;0,0317658
1291,1086;0,0316731
1292,0729;0,0316134
1293,0371;0,0315785
1294,0013;0,0315663
1294,9656;0,0315823
1295,9298;0,0316361
1296,8940;0,031736
1297,8583;0,0318848
1298,8225;0,0320792
1299,7867;0,0323124
1300,7510;0,0325778
1301,7152;0,0328716
1302,6794;0,0331914
1303,6437;0,0335357
1304,6079;0,0339021
1305,5721;0,0342869
1306,5364;0,0346847
1307,5006;0,0350888
1308,4648;0,0354929
1309,4291;0,0358914
1310,3933;0,0362803
1311,3575;0,0366569
1312,3218;0,037018
1313,2860;0,0373571
1314,2502;0,0376634
1315,2145;0,0379212
1316,1787;0,0381139
1317,1429;0,0382296
1318,1072;0,0382663
1319,0714;0,0382353
1320,0356;0,0381568
1320,9999;0,0380515
1321,9641;0,0379338
1322,9283;0,0378104
1323,8926;0,0376848
1324,8568;0,0375617
1325,8210;0,0374472
1326,7853;0,0373462
1327,7495;0,0372592
1328,7137;0,0371814
1329,6780;0,0371054
1330,6422;0,0370239
1331,6064;0,0369316
1332,5707;0,0368232
1333,5349;0,0366919
1334,4991;0,0365268
1335,4634;0,0363139
1336,4276;0,0360399
1337,3918;0,0357004
1338,3561;0,0353105
1339,3203;0,0349096
1340,2845;0,034548
1341,2488;0,0342601
1342,2130;0,0340499
1343,1772;0,0338982
1344,1415;0,0337807
1345,1057;0,0336796
1346,0699;0,0335886
1347,0342;0,0335127
1347,9984;0,0334653
1348,9626;0,0334623
1349,9269;0,0335145
1350,8911;0,0336218
1351,8553;0,0337727
1352,8196;0,0339516
1353,7838;0,0341475
1354,7480;0,0343611
1355,7123;0,0346017
1356,6765;0,0348767
1357,6407;0,0351824
1358,6050;0,035503
1359,5692;0,0358168
1360,5334;0,0361052
1361,4977;0,0363599
1362,4619;0,0365886
1363,4261;0,0368097
1364,3904;0,0370374
1365,3546;0,0372692
1366,3188;0,0374903
1367,2831;0,0376848
1368,2473;0,0378424
1369,2115;0,0379574
1370,1758;0,0380233
1371,1400;0,0380266
1372,1042;0,037949
1373,0685;0,0377793
1374,0327;0,0375289
1374,9969;0,0372351
1375,9612;0,0369362
1376,9254;0,036639
1377,8896;0,0363147
1378,8539;0,0359257
1379,8181;0,0354586
1380,7823;0,0349389
1381,7466;0,034414
1382,7108;0,0339172
1383,6750;0,033443
1384,6393;0,0329544
1385,6035;0,0324171
1386,5677;0,0318425
1387,5320;0,0313031
1388,4962;0,0308868
1389,4604;0,0306271
1390,4247;0,0304895
1391,3889;0,0304098
1392,3531;0,030334
1393,3174;0,0302342
1394,2816;0,0301101
1395,2458;0,0299815
1396,2101;0,0298761
1397,1743;0,0298179
1398,1385;0,029822
1399,1028;0,0298933
1400,0670;0,0300242
1401,0313;0,0301945
1401,9955;0,0303772
1402,9597;0,0305497
1403,9240;0,0307058
1404,8882;0,0308606
1405,8524;0,0310418
1406,8167;0,0312705
1407,7809;0,0315464
1408,7451;0,0318537
1409,7094;0,032178
1410,6736;0,032517
1411,6378;0,0328785
1412,6021;0,0332667
1413,5663;0,0336702
1414,5305;0,0340622
1415,4948;0,0344102
1416,4590;0,0346854
1417,4232;0,0348733
1418,3875;0,03499
1419,3517;0,0350843
1420,3159;0,0351974
1421,2802;0,0353202
1422,2444;0,0354055
1423,2086;0,0354116
1424,1729;0,0353274
1425,1371;0,0351668
1426,1013;0,034943
1427,0656;0,034646
1428,0298;0,034251
1428,9940;0,0337537
1429,9583;0,0332024
1430,9225;0,0326794
1431,8867;0,0322374
1432,8510;0,0318555
1433,8152;0,0314534
1434,7794;0,0309459
1435,7437;0,0303175
1436,7079;0,0296795
1437,6721;0,0292102
1438,6364;0,0289997
1439,6006;0,0289997
1440,5648;0,0291099
1441,5291;0,0292575
1442,4933;0,029415
1443,4575;0,0295835
1444,4218;0,0297687
1445,3860;0,0299659
1446,3502;0,030162
1447,3145;0,0303484
1448,2787;0,0305332
1449,2429;0,0307386
1450,2072;0,0309804
1451,1714;0,0312514
1452,1356;0,0315221
1453,0999;0,0317511
1454,0641;0,0318875
1455,0283;0,0318612
1455,9926;0,0315943
1456,9568;0,0311207
1457,9210;0,0306974
1458,8853;0,030559
1459,8495;0,0306706
1460,8137;0,0308605
1461,7780;0,0309734
1462,7422;0,0308985
1463,7064;0,0305754
1464,6707;0,030035
1465,6349;0,0294174
1466,5991;0,0288742
1467,5634;0,0284466
1468,5276;0,0280631
1469,4918;0,0276049
1470,4561;0,0269506
1471,4203;0,0260159
1472,3845;0,024837
1473,3488;0,0236362
1474,3130;0,022683
1475,2772;0,0220652
1476,2415;0,0216939
1477,2057;0,021448
1478,1699;0,0212501
1479,1342;0,0210664
1480,0984;0,0208913
1481,0626;0,0207349
1482,0269;0,0206165
1482,9911;0,0205538
1483,9553;0,0205508
1484,9196;0,0205923
1485,8838;0,0206478
1486,8480;0,0206816
1487,8123;0,0206713
1488,7765;0,020639
1489,7407;0,0206632
1490,7050;0,0208184
1491,6692;0,0211074
1492,6334;0,0214777
1493,5977;0,0218736
1494,5619;0,0222608
1495,5261;0,022626
1496,4904;0,0229735
1497,4546;0,0233287
1498,4188;0,0237341
1499,3831;0,0242143
1500,3473;0,0247486
1501,3115;0,025286
1502,2758;0,0257741
1503,2400;0,0261703
1504,2042;0,0264293
1505,1685;0,026469
1506,1327;0,0261635
1507,0969;0,0255284
1508,0612;0,0249077
1509,0254;0,0245836
1509,9896;0,0244967
1510,9539;0,0244777
1511,9181;0,0244089
1512,8823;0,024231
1513,8466;0,0239212
1514,8108;0,0234877
1515,7750;0,0229711
1516,7393;0,0224297
1517,7035;0,0219048
1518,6677;0,0213958
1519,6320;0,0208752
1520,5962;0,020336
1521,5604;0,019824
1522,5247;0,0194084
1523,4889;0,0191169
1524,4531;0,0189219
1525,4174;0,018783
1526,3816;0,0186878
1527,3458;0,0186505
1528,3101;0,0186794
1529,2743;0,0187538
1530,2385;0,0188287
1531,2028;0,0188577
1532,1670;0,0188241
1533,1312;0,0187657
1534,0955;0,0187588
1535,0597;0,0188532
1536,0239;0,0190338
1536,9882;0,019245
1537,9524;0,0194225
1538,9166;0,0194912
1539,8809;0,0193669
1540,8451;0,0190669
1541,8093;0,0188031
1542,7736;0,0187433
1543,7378;0,0188532
1544,7020;0,0190386
1545,6663;0,0192438
1546,6305;0,0194487
1547,5947;0,0196426
1548,5590;0,0198126
1549,5232;0,0199478
1550,4874;0,0200528
1551,4517;0,0201531
1552,4159;0,0202808
1553,3801;0,0204484
1554,3444;0,0206334
1555,3086;0,0207805
1556,2728;0,0208007
1557,2371;0,0205769
1558,2013;0,020087
1559,1655;0,0196324
1560,1298;0,0195735
1561,0940;0,0198842
1562,0582;0,0203517
1563,0225;0,0208265
1563,9867;0,0212432
1564,9509;0,0215798
1565,9152;0,0218312
1566,8794;0,0220027
1567,8436;0,0221198
1568,8079;0,0222362
1569,7721;0,0224146
1570,7363;0,0226804
1571,7006;0,0230056
1572,6648;0,0233381
1573,6290;0,0236353
1574,5933;0,0238804
1575,5575;0,024091
1576,5217;0,0243218
1577,4860;0,0246347
1578,4502;0,0250461
1579,4144;0,0255226
1580,3787;0,0260196
1581,3429;0,0265078
1582,3071;0,026975
1583,2714;0,027422
1584,2356;0,0278583
1585,1998;0,0282958
1586,1641;0,0287406
1587,1283;0,0291874
1588,0925;0,0296202
1589,0568;0,0300178
1590,0210;0,03036
1590,9852;0,0306303
1591,9495;0,0308144
1592,9137;0,0309012
1593,8779;0,0308881
1594,8422;0,0307879
1595,8064;0,0306279
1596,7706;0,0304392
1597,7349;0,0302439
1598,6991;0,0300502
1599,6633;0,0298561
1600,6276;0,029658
1601,5918;0,0294584
1602,5560;0,029267
1603,5203;0,0290959
1604,4845;0,0289493
1605,4487;0,0288174
1606,4130;0,0286803
1607,3772;0,0285241
1608,3414;0,0283596
1609,3057;0,0282269
1610,2699;0,0281704
1611,2341;0,0282026
1612,1984;0,02829
1613,1626;0,0283678
1614,1268;0,0283633
1615,0911;0,028231
1616,0553;0,0280075
1617,0195;0,0278264
1617,9838;0,0278104
1618,9480;0,0279606
1619,9122;0,0281866
1620,8765;0,028391
1621,8407;0,0285117
1622,8049;0,0285363
1623,7692;0,0285003
1624,7334;0,0284566
1625,6976;0,0284341
1626,6619;0,0284322
1627,6261;0,0284492
1628,5903;0,0285026
1629,5546;0,0286149
1630,5188;0,0287865
1631,4830;0,0289842
1632,4473;0,0291484
1633,4115;0,0292007
1634,3757;0,029062
1635,3400;0,0287251
1636,3042;0,0283437
1637,2684;0,0281224
1638,2327;0,0281145
1639,1969;0,0282447
1640,1611;0,0284305
1641,1254;0,0286242
1642,0896;0,0287983
1643,0538;0,0289218
1644,0181;0,028945
1644,9823;0,0288145
1645,9465;0,0285403
1646,9108;0,0282604
1647,8750;0,028141
1648,8392;0,028206
1649,8035;0,0283403
1650,7677;0,0283688
1651,7319;0,0280869
1652,6962;0,0273766
1653,6604;0,0265165
1654,6246;0,0260234
1655,5889;0,025997
1656,5531;0,0261998
1657,5173;0,0264192
1658,4816;0,0265416
1659,4458;0,0265093
1660,4100;0,0262967
1661,3743;0,0259294
1662,3385;0,0255108
1663,3027;0,0251764
1664,2670;0,024994
1665,2312;0,0249288
1666,1954;0,0248859
1667,1597;0,0247573
1668,1239;0,0244622
1669,0881;0,024004
1670,0524;0,0235006
1671,0166;0,0230941
1671,9808;0,0228194
1672,9451;0,0226011
1673,9093;0,0223465
1674,8735;0,0220276
1675,8378;0,0217075
1676,8020;0,0214876
1677,7662;0,0214174
1678,7305;0,0214629
1679,6947;0,0215412
1680,6589;0,0215538
1681,6232;0,0213931
1682,5874;0,0209679
1683,5516;0,0203153
1684,5159;0,0196792
1685,4801;0,019295
1686,4443;0,019166
1687,4086;0,019166
1688,3728;0,0191947
1689,3370;0,0192159
1690,3013;0,0192346
1691,2655;0,019265
1692,2297;0,0193095
1693,1940;0,0193539
1694,1582;0,0193741
1695,1224;0,0193455
1696,0867;0,0192524
1697,0509;0,0190935
1698,0151;0,018887
1698,9794;0,0186773
1699,9436;0,0185311
1700,9078;0,0185045
1701,8721;0,0186068
1702,8363;0,0188008
1703,8005;0,0190324
1704,7648;0,0192585
1705,7290;0,0194621
1706,6932;0,0196562
1707,6575;0,0198719
1708,6217;0,0201362
1709,5859;0,0204572
1710,5502;0,020825
1711,5144;0,0212187
1712,4786;0,0216082
1713,4429;0,0219524
1714,4071;0,0221988
1715,3713;0,0222985
1716,3356;0,0222592
1717,2998;0,0221959
1718,2640;0,0222593
1719,2283;0,0224968
1720,1925;0,0228486
1721,1567;0,0232312
1722,1210;0,0235846
1723,0852;0,0238785
1724,0494;0,0241098
1725,0137;0,0242966
1725,9779;0,0244693
1726,9421;0,0246544
1727,9064;0,0248612
1728,8706;0,0250751
1729,8348;0,0252564
1730,7991;0,0253409
1731,7633;0,0252536
1732,7275;0,0249619
1733,6918;0,024553
1734,6560;0,0242041
1735,6202;0,0240174
1736,5845;0,0239506
1737,5487;0,0238949
1738,5129;0,0237573
1739,4772;0,0234969
1740,4414;0,0231358
1741,4056;0,0227401
1742,3699;0,022373
1743,3341;0,0220548
1744,2983;0,0217653
1745,2626;0,0214685
1746,2268;0,0211249
1747,1910;0,0206907
1748,1553;0,0201286
1749,1195;0,0194487
1750,0837;0,0187448
1751,0480;0,0181481
1752,0122;0,0177269
1752,9764;0,0174515
1753,9407;0,0172402
1754,9049;0,017018
1755,8691;0,0167484
1756,8334;0,0164375
1757,7976;0,016112
1758,7618;0,0157874
1759,7261;0,0154558
1760,6903;0,015106
1761,6545;0,0147543
1762,6188;0,0144475
1763,5830;0,0142295
1764,5472;0,0141081
1765,5115;0,0140544
1766,4757;0,014025
1767,4399;0,0139824
1768,4042;0,0139007
1769,3684;0,0137616
1770,3326;0,0135523
1771,2969;0,0132808
1772,2611;0,0129967
1773,2253;0,0127783
1774,1896;0,012677
1775,1538;0,012684
1776,1180;0,0127498
1777,0823;0,0128194
1778,0465;0,0128551
1779,0107;0,0128446
1779,9750;0,0127987
1780,9392;0,0127386
1781,9034;0,0126785
1782,8677;0,0126218
1783,8319;0,0125715
1784,7961;0,0125412
1785,7604;0,0125509
1786,7246;0,0126112
1787,6888;0,0127107
1788,6531;0,0128161
1789,6173;0,0128818
1790,5815;0,0128662
1791,5458;0,0127604
1792,5100;0,0126124
1793,4742;0,0125016
1794,4385;0,0124748
1795,4027;0,0125213
1796,3669;0,0125989
1797,3312;0,0126633
1798,2954;0,0126824
1799,2596;0,0126438
1800,2239;0,0125609
1801,1881;0,0124689
1802,1523;0,0124062
1803,1166;0,0123941
1804,0808;0,0124307
1805,0450;0,0124976
1806,0093;0,0125703
1806,9735;0,0126256
1807,9377;0,0126475
1808,9020;0,0126316
1809,8662;0,012588
1810,8304;0,012537
1811,7947;0,0124981
1812,7589;0,012479
1813,7231;0,012473
1814,6874;0,0124669
1815,6516;0,0124513
1816,6158;0,0124283
1817,5801;0,0124127
1818,5443;0,0124233
1819,5085;0,0124692
1820,4728;0,0125418
1821,4370;0,012618
1822,4012;0,0126731
1823,3655;0,0126932
1824,3297;0,0126834
1825,2939;0,0126619
1826,2582;0,0126429
1827,2224;0,0126226
1828,1866;0,0125828
1829,1509;0,0125098
1830,1151;0,0124155
1831,0793;0,0123357
1832,0436;0,0123022
1833,0078;0,0123197
1833,9720;0,0123678
1834,9363;0,0124188
1835,9005;0,0124543
1836,8647;0,0124757
1837,8290;0,0125009
1838,7932;0,0125485
1839,7574;0,0126222
1840,7217;0,012707
1841,6859;0,012775
1842,6501;0,0127961
1843,6144;0,0127555
1844,5786;0,0126692
1845,5428;0,0125778
1846,5071;0,0125148
1847,4713;0,0124872
1848,4355;0,0124835
1849,3998;0,012489
1850,3640;0,0124941
1851,3282;0,0124952
1852,2925;0,0124923
1853,2567;0,0124869
1854,2209;0,0124819
1855,1852;0,0124808
1856,1494;0,0124871
1857,1136;0,012501
1858,0779;0,0125195
1859,0421;0,0125383
1860,0063;0,0125574
1860,9706;0,0125839
1861,9348;0,0126285
1862,8990;0,0126971
1863,8633;0,0127832
1864,8275;0,0128662
1865,7917;0,0129169
1866,7560;0,0129092
1867,7202;0,0128378
1868,6844;0,0127306
1869,6487;0,0126332
1870,6129;0,0125752
1871,5771;0,0125543
1872,5414;0,0125524
1873,5056;0,0125557
1874,4698;0,0125642
1875,4341;0,0125875
1876,3983;0,0126324
1877,3625;0,0126928
1878,3268;0,0127489
1879,2910;0,012779
1880,2552;0,0127731
1881,2195;0,0127384
1882,1837;0,0126939
1883,1479;0,0126581
1884,1122;0,0126382
1885,0764;0,0126291
1886,0406;0,0126215
1887,0049;0,0126121
1887,9691;0,0126088
1888,9333;0,0126255
1889,8976;0,01267
1890,8618;0,0127338
1891,8260;0,012794
1892,7903;0,0128262
1893,7545;0,0128186
1894,7188;0,0127788
1895,6830;0,0127299
1896,6472;0,0126966
1897,6115;0,0126886
1898,5757;0,0126954
1899,5399;0,0126979
1900,5042;0,0126861
1901,4684;0,0126707
1902,4326;0,0126776
1903,3969;0,0127282
1904,3611;0,0128195
1905,3253;0,0129192
1906,2896;0,0129824
1907,2538;0,0129791
1908,2180;0,0129146
1909,1823;0,0128305
1910,1465;0,0127799
1911,1107;0,0127937
1912,0750;0,0128646
1913,0392;0,0129579
1914,0034;0,0130331
1914,9677;0,013061
1915,9319;0,0130309
1916,8961;0,0129521
1917,8604;0,0128498
1918,8246;0,0127549
1919,7888;0,012692
1920,7531;0,0126723
1921,7173;0,0126926
1922,6815;0,0127383
1923,6458;0,0127881
1924,6100;0,0128214
1925,5742;0,0128258
1926,5385;0,0127999
1927,5027;0,0127523
1928,4669;0,0126975
1929,4312;0,0126532
1930,3954;0,0126352
1931,3596;0,0126513
1932,3239;0,0126955
1933,2881;0,0127477
1934,2523;0,0127809
1935,2166;0,0127732
1936,1808;0,0127167
1937,1450;0,0126192
1938,1093;0,0124981
1939,0735;0,0123744
1940,0377;0,0122709
1941,0020;0,0122148
1941,9662;0,0122332
1942,9304;0,0123365
1943,8947;0,0125011
1944,8589;0,0126703
1945,8231;0,0127791
1946,7874;0,012785
1947,7516;0,0126877
1948,7158;0,0125279
1949,6801;0,0123653
1950,6443;0,0122464
1951,6085;0,0121839
1952,5728;0,0121627
1953,5370;0,0121656
1954,5012;0,0121959
1955,4655;0,0122738
1956,4297;0,0124091
1957,3939;0,0125721
1958,3582;0,0126918
1959,3224;0,0126912
1960,2866;0,0125407
1961,2509;0,0122874
1962,2151;0,0120326
1963,1793;0,0118703
1964,1436;0,0118308
1965,1078;0,011869
1966,0720;0,011902
1967,0363;0,0118722
1968,0005;0,0117907
1968,9647;0,0117256
1969,9290;0,0117485
1970,8932;0,0118842
1971,8574;0,0121014
1972,8217;0,0123376
1973,7859;0,012533
1974,7501;0,0126531
1975,7144;0,0126915
1976,6786;0,0126607
1977,6428;0,0125852
1978,6071;0,012499
1979,5713;0,0124388
1980,5355;0,0124301
1981,4998;0,0124744
1982,4640;0,0125494
1983,4282;0,0126261
1984,3925;0,0126893
1985,3567;0,0127498
1986,3209;0,012833
1987,2852;0,0129532
1988,2494;0,0130922
1989,2136;0,0132022
1990,1779;0,0132341
1991,1421;0,0131729
1992,1063;0,0130525
1993,0706;0,0129333
1994,0348;0,0128609
1994,9990;0,0128386
1995,9633;0,0128347
1996,9275;0,0128122
1997,8917;0,0127568
1998,8560;0,0126854
1999,8202;0,0126296
2000,7844;0,0126072
2001,7487;0,0126036
2002,7129;0,0125814
2003,6771;0,0125118
2004,6414;0,0124097
2005,6056;0,0123445
2006,5698;0,0124085
2007,5341;0,0126524
2008,4983;0,0130301
2009,4625;0,0134044
2010,4268;0,0136172
2011,3910;0,0135845
2012,3552;0,0133526
2013,3195;0,013082
2014,2837;0,0129637
2015,2479;0,0131077
2016,2122;0,013467
2017,1764;0,0138553
2018,1406;0,0140609
2019,1049;0,0139817
2020,0691;0,0136852
2021,0333;0,0133545
2021,9976;0,01317
2022,9618;0,0132012
2023,9260;0,0133716
2024,8903;0,0135126
2025,8545;0,0134694
2026,8187;0,0131946
2027,7830;0,0127719
2028,7472;0,0123637
2029,7114;0,012122
2030,6757;0,0121184
2031,6399;0,0123295
2032,6041;0,0126731
2033,5684;0,0130633
2034,5326;0,0134449
2035,4968;0,0137895
2036,4611;0,0140709
2037,4253;0,0142475
2038,3895;0,014272
2039,3538;0,0141209
2040,3180;0,0138227
2041,2822;0,0134599
2042,2465;0,0131393
2043,2107;0,0129459
2044,1749;0,0129099
2045,1392;0,0130035
2046,1034;0,0131645
2047,0676;0,0133285
2048,0320;0,0134556
2048,9961;0,0135389
2049,9604;0,013595
2050,9246;0,0136455
2051,8889;0,0137039
2052,8530;0,0137713
2053,8174;0,0138402
2054,7815;0,0139012
2055,7458;0,0139483
2056,7100;0,0139815
2057,6743;0,0140039
2058,6384;0,0140186
2059,6028;0,0140273
2060,5669;0,0140324
2061,5313;0,0140403
2062,4954;0,0140594
2063,4597;0,014094
2064,4238;0,014137
2065,3882;0,0141687
2066,3523;0,0141653
2067,3167;0,0141127
2068,2808;0,0140153
2069,2451;0,0138949
2070,2092;0,01378
2071,1736;0,0136936
2072,1377;0,0136464
2073,1021;0,0136366
2074,0662;0,0136561
2075,0305;0,0136955
2075,9946;0,013747
2076,9590;0,013805
2077,9231;0,0138644
2078,8875;0,013921
2079,8516;0,0139701
2080,8159;0,0140077
2081,7800;0,0140308
2082,7444;0,0140396
2083,7085;0,014039
2084,6729;0,0140379
2085,6370;0,0140459
2086,6013;0,0140682
2087,5654;0,0141037
2088,5298;0,0141459
2089,4939;0,0141859
2090,4583;0,0142151
2091,4224;0,0142256
2092,3867;0,0142098
2093,3508;0,0141613
2094,3152;0,0140803
2095,2793;0,0139789
2096,2437;0,0138815
2097,2078;0,0138177
2098,1721;0,0138105
2099,1362;0,0138662
2100,1006;0,0139712
2101,0647;0,0140965
2102,0291;0,0142074
2102,9932;0,0142758
2103,9575;0,0142906
2104,9216;0,0142628
2105,8860;0,0142204
2106,8501;0,0141945
2107,8145;0,0142015
2108,7786;0,014234
2109,7429;0,0142647
2110,7070;0,0142652
2111,6714;0,0142248
2112,6355;0,0141585
2113,5999;0,0140972
2114,5640;0,0140671
2115,5283;0,0140739
2116,4924;0,0141015
2117,4568;0,0141251
2118,4209;0,0141302
2119,3853;0,0141232
2120,3494;0,014128
2121,3137;0,0141714
2122,2778;0,0142659
2123,2422;0,0143993
2124,2063;0,0145361
2125,1707;0,0146309
2126,1348;0,0146471
2127,0991;0,0145743
2128,0632;0,0144374
2129,0276;0,0142904
2129,9917;0,0141984
2130,9561;0,0142123
2131,9202;0,0143463
2132,8845;0,014569
2133,8486;0,0148128
2134,8130;0,0149997
2135,7771;0,015072
2136,7415;0,0150138
2137,7056;0,0148518
2138,6699;0,0146412
2139,6340;0,014445
2140,5984;0,0143174
2141,5625;0,0142917
2142,5269;0,014373
2143,4910;0,014536
2144,4553;0,0147307
2145,4194;0,014899
2146,3838;0,0149985
2147,3479;0,0150235
2148,3123;0,0150079
2149,2764;0,0150052
2150,2407;0,0150524
2151,2048;0,0151421
2152,1692;0,0152218
2153,1333;0,0152263
2154,0977;0,0151245
2155,0618;0,0149533
2156,0261;0,0148118
2156,9902;0,0148074
2157,9546;0,014976
2158,9187;0,015236
2159,8831;0,0154357
2160,8472;0,0154611
2161,8115;0,015302
2162,7756;0,0150319
2163,7400;0,0147434
2164,7041;0,0144965
2165,6685;0,0143048
2166,6326;0,0141534
2167,5969;0,0140295
2168,5610;0,0139406
2169,5254;0,0139118
2170,4895;0,0139672
2171,4539;0,0141107
2172,4180;0,0143179
2173,3823;0,0145411
2174,3464;0,0147253
2175,3108;0,0148268
2176,2749;0,0148273
2177,2393;0,0147393
2178,2034;0,0146023
2179,1677;0,0144715
2180,1318;0,0144
2181,0962;0,014419
2182,0603;0,0145217
2183,0247;0,0146626
2183,9888;0,0147772
2184,9531;0,0148146
2185,9172;0,0147643
2186,8816;0,0146619
2187,8457;0,014571
2188,8101;0,0145505
2189,7742;0,0146252
2190,7385;0,014775
2191,7026;0,014948
2192,6670;0,015089
2193,6311;0,0151672
2194,5955;0,0151872
2195,5596;0,0151786
2196,5239;0,0151702
2197,4880;0,0151664
2198,4524;0,0151415
2199,4165;0,0150587
2200,3809;0,0149035
2201,3450;0,0147092
2202,3093;0,0145532
2203,2734;0,0145185
2204,2378;0,014641
2205,2019;0,0148759
2206,1663;0,0151099
2207,1304;0,0152185
2208,0947;0,0151371
2209,0588;0,0149012
2210,0232;0,0146292
2210,9873;0,0144568
2211,9517;0,0144612
2212,9158;0,0146227
2213,8801;0,0148433
2214,8442;0,0150079
2215,8086;0,0150472
2216,7727;0,0149673
2217,7371;0,0148327
2218,7012;0,01472
2219,6655;0,014675
2220,6296;0,0146954
2221,5940;0,0147443
2222,5581;0,0147792
2223,5225;0,0147765
2224,4866;0,014739
2225,4509;0,0146858
2226,4150;0,0146358
2227,3794;0,0145964
2228,3435;0,0145637
2229,3079;0,0145315
2230,2720;0,0145004
2231,2363;0,01448
2232,2004;0,014482
2233,1648;0,0145108
2234,1289;0,0145574
2235,0933;0,0146043
2236,0574;0,014635
2237,0217;0,014645
2237,9858;0,0146427
2238,9502;0,0146425
2239,9143;0,0146533
2240,8787;0,0146718
2241,8428;0,0146846
2242,8071;0,0146777
2243,7712;0,0146478
2244,7356;0,0146068
2245,6997;0,014577
2246,6641;0,0145797
2247,6282;0,0146234
2248,5925;0,0146981
2249,5566;0,0147786
2250,5210;0,0148348
2251,4851;0,0148444
2252,4495;0,0148029
2253,4136;0,0147255
2254,3779;0,0146409
2255,3420;0,0145781
2256,3064;0,0145541
2257,2705;0,0145668
2258,2349;0,0145983
2259,1990;0,0146256
2260,1633;0,0146336
2261,1274;0,0146225
2262,0918;0,0146064
2263,0559;0,0146035
2264,0203;0,014624
2264,9844;0,0146624
2265,9487;0,0147004
2266,9128;0,0147171
2267,8772;0,0147012
2268,8413;0,014657
2269,8057;0,0146001
2270,7698;0,0145475
2271,7341;0,0145083
2272,6982;0,014482
2273,6626;0,0144627
2274,6267;0,014447
2275,5911;0,0144363
2276,5552;0,0144346
2277,5195;0,014442
2278,4836;0,0144526
2279,4480;0,0144588
2280,4121;0,0144585
2281,3765;0,0144591
2282,3406;0,0144745
2283,3049;0,0145155
2284,2690;0,0145815
2285,2334;0,0146591
2286,1975;0,0147281
2287,1619;0,0147719
2288,1260;0,0147846
2289,0903;0,0147721
2290,0544;0,0147475
2291,0188;0,0147247
2291,9829;0,0147151
2292,9473;0,0147269
2293,9114;0,0147647
2294,8757;0,0148282
2295,8398;0,0149109
2296,8042;0,015
2297,7683;0,0150806
2298,7327;0,0151405
2299,6968;0,0151749
2300,6611;0,0151866
2301,6252;0,0151828
2302,5896;0,0151721
2303,5537;0,015162
2304,5181;0,0151585
2305,4822;0,0151654
2306,4465;0,0151815
2307,4106;0,0151985
2308,3750;0,015202
2309,3391;0,0151791
2310,3035;0,0151275
2311,2676;0,0150617
2312,2319;0,015008
2313,1960;0,0149913
2314,1604;0,0150207
2315,1245;0,0150828
2316,0889;0,0151471
2317,0530;0,0151783
2318,0173;0,0151499
2318,9814;0,0150564
2319,9458;0,0149197
2320,9099;0,0147868
2321,8743;0,014713
2322,8384;0,0147349
2323,8027;0,0148504
2324,7668;0,0150182
2325,7312;0,0151781
2326,6953;0,0152768
2327,6597;0,015288
2328,6238;0,0152214
2329,5881;0,0151168
2330,5522;0,0150236
2331,5166;0,0149757
2332,4807;0,0149759
2333,4451;0,0150018
2334,4092;0,0150256
2335,3735;0,015034
2336,3376;0,015034
2337,3020;0,0150454
2338,2661;0,0150841
2339,2305;0,0151442
2340,1946;0,0151902
2341,1589;0,0151628
2342,1230;0,0150083
2343,0874;0,0147361
2344,0515;0,0144629
2345,0159;0,014356
2345,9800;0,0144951
2346,9443;0,0148156
2347,9084;0,0151785
2348,8728;0,0154605
2349,8369;0,0156009
2350,8013;0,0156077
2351,7654;0,0155405
2352,7297;0,015478
2353,6938;0,0154796
2354,6582;0,0155613
2355,6223;0,0156939
2356,5867;0,0158167
2357,5508;0,0158623
2358,5151;0,015793
2359,4792;0,0156301
2360,4436;0,0154384
2361,4077;0,0152712
2362,3721;0,0151298
2363,3362;0,0149783
2364,3005;0,0147916
2365,2646;0,0145818
2366,2290;0,0143812
2367,1931;0,0142068
2368,1575;0,0140486
2369,1216;0,0138885
2370,0859;0,0137277
2371,0500;0,0135934
2372,0144;0,0135205
2372,9785;0,0135268
2373,9429;0,0136013
2374,9070;0,0137139
2375,8713;0,0138346
2376,8354;0,0139493
2377,7998;0,014062
2378,7639;0,0141844
2379,7283;0,0143229
2380,6924;0,0144725
2381,6567;0,0146184
2382,6208;0,0147448
2383,5852;0,0148416
2384,5493;0,0149071
2385,5137;0,0149461
2386,4778;0,0149659
2387,4421;0,0149737
2388,4063;0,0149757
2389,3706;0,0149775
2390,3347;0,0149841
2391,2991;0,0149977
2392,2632;0,0150177
2393,2275;0,0150399
2394,1917;0,0150599
2395,1560;0,0150753
2396,1201;0,0150866
2397,0845;0,0150965
2398,0486;0,0151075
2399,0129;0,0151198
2399,9771;0,0151327
2400,9414;0,0151453
2401,9055;0,015158
2402,8699;0,0151717
2403,8340;0,015187
2404,7983;0,0152034
2405,7625;0,0152195
2406,7268;0,0152349
2407,6909;0,0152502
2408,6553;0,0152662
2409,6194;0,0152824
2410,5837;0,0152968
2411,5479;0,0153065
2412,5122;0,0153104
2413,4763;0,01531
2414,4407;0,0153092
2415,4048;0,0153119
2416,3691;0,0153199
2417,3333;0,0153329
2418,2976;0,0153501
2419,2617;0,0153717
2420,2261;0,0153989
2421,1902;0,0154309
2422,1545;0,0154634
2423,1187;0,015488
2424,0830;0,0154968
2425,0471;0,0154878
2426,0115;0,0154672
2426,9756;0,0154484
2427,9399;0,0154446
2428,9041;0,0154616
2429,8684;0,0154939
2430,8325;0,0155275
2431,7969;0,0155472
2432,7610;0,0155446
2433,7253;0,0155229
2434,6895;0,0154952
2435,6538;0,0154778
2436,6179;0,0154824
2437,5823;0,0155098
2438,5464;0,0155503
2439,5107;0,0155885
2440,4749;0,0156119
2441,4392;0,0156166
2442,4033;0,015609
2443,3677;0,0156005
2444,3318;0,0156012
2445,2961;0,0156148
2446,2603;0,0156389
2447,2246;0,015669
2448,1887;0,0157014
2449,1531;0,0157349
2450,1172;0,0157671
2451,0815;0,0157929
2452,0457;0,0158048
2453,0100;0,0157975
2453,9741;0,015772
2454,9385;0,0157375
2455,9026;0,0157075
2456,8669;0,0156942
2457,8311;0,015703
2458,7954;0,0157315
2459,7595;0,0157715
2460,7239;0,0158126
2461,6880;0,015846
2462,6523;0,0158661
2463,6165;0,0158717
2464,5808;0,0158668
2465,5449;0,0158593
2466,5093;0,0158594
2467,4734;0,0158746
2468,4377;0,0159064
2469,4019;0,0159476
2470,3662;0,0159854
2471,3303;0,0160062
2472,2947;0,0160023
2473,2588;0,0159764
2474,2231;0,0159399
2475,1873;0,015908
2476,1516;0,0158924
2477,1157;0,0158963
2478,0801;0,0159145
2479,0442;0,015938
2480,0085;0,0159589
2480,9727;0,0159742
2481,9370;0,0159843
2482,9011;0,0159905
2483,8655;0,0159929
2484,8296;0,0159911
2485,7939;0,0159865
2486,7581;0,0159827
2487,7224;0,0159841
2488,6865;0,0159923
2489,6509;0,0160048
2490,6150;0,0160169
2491,5793;0,0160259
2492,5435;0,0160335
2493,5078;0,0160452
2494,4719;0,0160653
2495,4363;0,0160927
2496,4004;0,0161212
2497,3647;0,0161437
2498,3289;0,0161578
2499,2932;0,0161674
2500,2573;0,0161789
2501,2217;0,0161952
2502,1858;0,0162119
2503,1501;0,0162195
2504,1143;0,0162101
2505,0786;0,0161842
2506,0427;0,016152
2507,0071;0,0161287
2507,9712;0,016126
2508,9355;0,0161463
2509,8997;0,0161822
2510,8640;0,016222
2511,8281;0,0162555
2512,7925;0,016278
2513,7566;0,0162899
2514,7209;0,0162929
2515,6851;0,0162878
2516,6494;0,0162741
2517,6135;0,0162521
2518,5779;0,0162246
2519,5420;0,016197
2520,5063;0,0161759
2521,4705;0,0161659
2522,4348;0,0161688
2523,3989;0,0161828
2524,3633;0,0162038
2525,3274;0,0162266
2526,2917;0,0162459
2527,2559;0,0162581
2528,2202;0,016262
2529,1843;0,0162605
2530,1487;0,0162593
2531,1128;0,0162651
2532,0771;0,016282
2533,0413;0,016309
2534,0056;0,0163393
2534,9697;0,0163642
2535,9341;0,0163767
2536,8982;0,0163754
2537,8625;0,0163652
2538,8267;0,0163541
2539,7910;0,0163487
2540,7551;0,0163509
2541,7195;0,016358
2542,6836;0,0163661
2543,6479;0,016373
2544,6121;0,0163799
2545,5764;0,0163893
2546,5405;0,0164016
2547,5049;0,0164127
2548,4690;0,0164162
2549,4333;0,016407
2550,3975;0,0163858
2551,3618;0,0163598
2552,3259;0,0163395
2553,2903;0,0163334
2554,2544;0,0163438
2555,2188;0,0163663
2556,1829;0,0163923
2557,1472;0,0164137
2558,1113;0,0164255
2559,0757;0,016427
2560,0398;0,0164204
2561,0042;0,0164095
2561,9683;0,0163984
2562,9326;0,0163911
2563,8967;0,0163911
2564,8611;0,0164
2565,8252;0,0164157
2566,7896;0,0164327
2567,7537;0,0164439
2568,7180;0,0164449
2569,6821;0,0164376
2570,6465;0,0164309
2571,6106;0,0164356
2572,5750;0,0164583
2573,5391;0,016496
2574,5034;0,016537
2575,4675;0,0165673
2576,4319;0,0165778
2577,3960;0,0165699
2578,3604;0,0165532
2579,3245;0,0165391
2580,2888;0,0165351
2581,2529;0,0165411
2582,2173;0,0165524
2583,1814;0,0165633
2584,1458;0,0165709
2585,1099;0,0165751
2586,0742;0,0165764
2587,0383;0,0165747
2588,0027;0,0165692
2588,9668;0,0165603
2589,9312;0,0165499
2590,8953;0,0165414
2591,8596;0,0165375
2592,8237;0,0165385
2593,7881;0,0165419
2594,7522;0,0165448
2595,7166;0,0165457
2596,6807;0,0165459
2597,6450;0,0165488
2598,6091;0,0165574
2599,5735;0,0165721
2600,5376;0,0165903
2601,5020;0,0166077
2602,4661;0,016621
2603,4304;0,0166295
2604,3945;0,0166358
2605,3589;0,0166439
2606,3230;0,0166574
2607,2874;0,016678
2608,2515;0,0167056
2609,2158;0,0167386
2610,1799;0,0167742
2611,1443;0,016808
2612,1084;0,0168348
2613,0728;0,0168499
2614,0369;0,0168515
2615,0012;0,0168428
2615,9653;0,0168316
2616,9297;0,0168265
2617,8938;0,0168329
2618,8582;0,0168497
2619,8223;0,0168707
2620,7866;0,0168877
2621,7507;0,0168952
2622,7151;0,0168925
2623,6792;0,0168825
2624,6436;0,0168704
2625,6077;0,0168616
2626,5720;0,0168608
2627,5361;0,0168716
2628,5005;0,0168945
2629,4646;0,0169264
2630,4290;0,0169611
2631,3931;0,0169917
2632,3574;0,0170144
2633,3215;0,0170299
2634,2859;0,0170419
2635,2500;0,0170531
2636,2144;0,0170627
2637,1785;0,0170674
2638,1428;0,0170656
2639,1069;0,0170602
2640,0713;0,0170587
2641,0354;0,0170684
2641,9998;0,0170914
2642,9639;0,0171223
2643,9282;0,0171515
2644,8923;0,0171708
2645,8567;0,0171777
2646,8208;0,0171759
2647,7852;0,0171715
2648,7493;0,0171693
2649,7136;0,0171705
2650,6777;0,0171741
2651,6421;0,0171793
2652,6062;0,0171871
2653,5706;0,0171996
2654,5347;0,0172182
2655,4990;0,0172415
2656,4631;0,0172658
2657,4275;0,0172864
2658,3916;0,0173003
2659,3560;0,0173071
2660,3201;0,017309
2661,2844;0,0173093
2662,2485;0,0173102
2663,2129;0,0173123
2664,1770;0,0173155
2665,1414;0,0173202
2666,1055;0,0173283
2667,0698;0,0173424
2668,0339;0,0173644
2668,9983;0,0173933
2669,9624;0,0174249
2670,9268;0,0174532
2671,8909;0,0174728
2672,8552;0,0174814
2673,8193;0,0174802
2674,7837;0,0174731
2675,7478;0,0174648
2676,7122;0,0174591
2677,6763;0,0174584
2678,6406;0,0174641
2679,6047;0,0174769
2680,5691;0,0174972
2681,5332;0,0175244
2682,4976;0,0175566
2683,4617;0,0175906
2684,4260;0,0176228
2685,3901;0,0176503
2686,3545;0,0176711
2687,3186;0,0176845
2688,2830;0,0176908
2689,2471;0,0176913
2690,2114;0,0176882
2691,1755;0,0176851
2692,1399;0,0176857
2693,1040;0,0176936
2694,0684;0,01771
2695,0325;0,0177339
2695,9968;0,017762
2696,9609;0,0177903
2697,9253;0,017815
2698,8894;0,0178337
2699,8538;0,017845
2700,8179;0,0178492
2701,7822;0,0178484
2702,7463;0,0178465
2703,7107;0,0178483
2704,6748;0,0178576
2705,6392;0,0178757
2706,6033;0,0179013
2707,5676;0,0179313
2708,5317;0,0179626
2709,4961;0,0179929
2710,4602;0,0180203
2711,4246;0,0180428
2712,3887;0,0180583
2713,3530;0,0180663
2714,3171;0,018069
2715,2815;0,018071
2716,2456;0,0180768
2717,2100;0,018089
2718,1741;0,0181063
2719,1384;0,0181257
2720,1025;0,018144
2721,0669;0,0181594
2722,0310;0,0181718
2722,9954;0,0181815
2723,9595;0,0181892
2724,9238;0,0181967
2725,8879;0,0182072
2726,8523;0,0182243
2727,8164;0,0182496
2728,7808;0,0182807
2729,7449;0,0183113
2730,7092;0,0183337
2731,6733;0,0183434
2732,6377;0,0183407
2733,6018;0,0183309
2734,5662;0,0183211
2735,5303;0,0183172
2736,4946;0,0183224
2737,4587;0,0183373
2738,4231;0,0183605
2739,3872;0,01839
2740,3516;0,0184225
2741,3157;0,0184543
2742,2800;0,018481
2743,2441;0,0184989
2744,2085;0,0185062
2745,1726;0,018504
2746,1370;0,0184966
2747,1011;0,01849
2748,0654;0,0184903
2749,0295;0,0185006
2749,9939;0,0185204
2750,9580;0,0185453
2751,9224;0,0185702
2752,8865;0,0185914
2753,8508;0,0186084
2754,8149;0,0186233
2755,7793;0,0186384
2756,7434;0,0186544
2757,7078;0,01867
2758,6719;0,0186835
2759,6362;0,018695
2760,6003;0,0187068
2761,5647;0,0187219
2762,5288;0,0187418
2763,4932;0,0187649
2764,4573;0,0187877
2765,4216;0,0188067
2766,3857;0,0188212
2767,3501;0,0188336
2768,3142;0,0188469
2769,2786;0,0188624
2770,2427;0,0188781
2771,2070;0,01889
2772,1711;0,018896
2773,1355;0,0188982
2774,0996;0,0189036
2775,0640;0,0189202
2776,0281;0,0189522
2776,9924;0,0189967
2777,9565;0,0190448
2778,9209;0,0190865
2779,8850;0,0191162
2780,8494;0,0191357
2781,8135;0,0191521
2782,7778;0,0191726
2783,7419;0,0192001
2784,7063;0,0192324
2785,6704;0,0192646
2786,6348;0,0192932
2787,5989;0,0193186
2788,5632;0,0193437
2789,5273;0,0193711
2790,4917;0,0194008
2791,4558;0,0194302
2792,4202;0,0194565
2793,3843;0,0194795
2794,3486;0,019502
2795,3127;0,019528
2796,2771;0,0195603
2797,2412;0,0195983
2798,2056;0,019639
2799,1697;0,0196787
2800,1340;0,0197151
2801,0981;0,019748
2802,0625;0,0197793
2803,0266;0,0198107
2803,9910;0,0198441
2804,9551;0,0198807
2805,9194;0,0199218
2806,8835;0,0199692
2807,8479;0,0200238
2808,8120;0,0200856
2809,7764;0,0201525
2810,7405;0,0202217
2811,7048;0,0202902
2812,6689;0,0203567
2813,6333;0,0204215
2814,5974;0,0204852
2815,5618;0,0205473
2816,5259;0,020606
2817,4902;0,0206588
2818,4543;0,0207046
2819,4187;0,0207453
2820,3828;0,0207858
2821,3472;0,0208316
2822,3113;0,0208871
2823,2756;0,0209533
2824,2397;0,0210288
2825,2041;0,021111
2826,1682;0,0211979
2827,1326;0,0212893
2828,0967;0,0213853
2829,0610;0,0214863
2830,0251;0,0215914
2830,9895;0,0216997
2831,9536;0,0218104
2832,9180;0,0219235
2833,8821;0,0220399
2834,8464;0,022161
2835,8105;0,0222877
2836,7749;0,0224205
2837,7390;0,0225582
2838,7034;0,0226985
2839,6675;0,0228374
2840,6318;0,0229711
2841,5959;0,0230968
2842,5603;0,023215
2843,5244;0,0233296
2844,4888;0,0234468
2845,4529;0,023573
2846,4172;0,023712
2847,3813;0,0238632
2848,3457;0,0240213
2849,3098;0,0241774
2850,2742;0,0243209
2851,2383;0,0244423
2852,2026;0,0245362
2853,1667;0,0246022
2854,1311;0,0246452
2855,0952;0,024673
2856,0596;0,0246929
2857,0237;0,0247097
2857,9880;0,024726
2858,9521;0,024743
2859,9165;0,0247635
2860,8806;0,0247919
2861,8450;0,024832
2862,8091;0,0248855
2863,7734;0,0249502
2864,7375;0,025022
2865,7019;0,0250969
2866,6660;0,0251727
2867,6304;0,0252483
2868,5945;0,025321
2869,5588;0,0253863
2870,5229;0,0254384
2871,4873;0,0254744
2872,4514;0,0254967
2873,4158;0,0255128
2874,3799;0,0255315
2875,3442;0,0255583
2876,3083;0,0255932
2877,2727;0,0256318
2878,2368;0,0256689
2879,2012;0,0257009
2880,1653;0,025727
2881,1296;0,0257482
2882,0938;0,0257661
2883,0581;0,025783
2884,0222;0,0258022
2884,9866;0,0258272
2885,9507;0,0258609
2886,9150;0,0259029
2887,8792;0,0259501
2888,8435;0,0259974
2889,8076;0,0260402
2890,7720;0,0260758
2891,7361;0,0261037
2892,7004;0,026125
2893,6646;0,026142
2894,6289;0,0261582
2895,5930;0,0261779
2896,5574;0,0262044
2897,5215;0,0262381
2898,4858;0,0262752
2899,4500;0,0263094
2900,4143;0,0263352
2901,3784;0,026351
2902,3428;0,02636
2903,3069;0,0263676
2904,2712;0,0263784
2905,2354;0,026393
2906,1997;0,0264094
2907,1638;0,0264249
2908,1282;0,0264385
2909,0923;0,0264519
2910,0566;0,0264679
2911,0208;0,0264891
2911,9851;0,0265166
2912,9492;0,0265506
2913,9136;0,0265908
2914,8777;0,0266368
2915,8420;0,0266877
2916,8062;0,0267412
2917,7705;0,0267937
2918,7346;0,026841
2919,6990;0,0268785
2920,6631;0,0269023
2921,6274;0,0269086
2922,5916;0,0268941
2923,5559;0,0268562
2924,5200;0,0267944
2925,4844;0,0267116
2926,4485;0,0266148
2927,4128;0,0265134
2928,3770;0,0264164
2929,3413;0,0263295
2930,3054;0,0262524
2931,2698;0,0261801
2932,2339;0,0261053
2933,1982;0,0260215
2934,1624;0,0259251
2935,1267;0,0258161
2936,0908;0,0256967
2937,0552;0,0255705
2938,0193;0,0254411
2938,9836;0,0253117
2939,9478;0,0251849
2940,9121;0,0250624
2941,8762;0,0249446
2942,8406;0,0248307
2943,8047;0,0247186
2944,7690;0,024606
2945,7332;0,0244913
2946,6975;0,0243752
2947,6616;0,0242604
2948,6260;0,0241509
2949,5901;0,02405
2950,5544;0,0239573
2951,5186;0,0238691
2952,4829;0,0237795
2953,4470;0,0236845
2954,4114;0,0235847
2955,3755;0,0234851
2956,3398;0,0233924
2957,3040;0,0233106
2958,2683;0,0232389
2959,2324;0,0231724
2960,1968;0,0231052
2961,1609;0,0230337
2962,1252;0,0229569
2963,0894;0,0228758
2964,0537;0,0227916
2965,0178;0,0227052
2965,9822;0,0226173
2966,9463;0,0225293
2967,9106;0,0224424
2968,8748;0,0223567
2969,8391;0,0222709
2970,8032;0,0221838
2971,7676;0,0220949
2972,7317;0,0220059
2973,6960;0,0219197
2974,6602;0,0218392
2975,6245;0,0217657
2976,5886;0,0216992
2977,5530;0,021639
2978,5171;0,0215841
2979,4814;0,0215337
2980,4456;0,0214872
2981,4099;0,0214436
2982,3740;0,0214023
2983,3384;0,021363
2984,3025;0,0213255
2985,2668;0,0212904
2986,2310;0,0212587
2987,1953;0,0212325
2988,1594;0,0212147
2989,1238;0,0212071
2990,0879;0,0212093
2991,0522;0,0212176
2992,0164;0,0212263
2992,9807;0,0212302
2993,9448;0,0212278
2994,9092;0,021221
2995,8733;0,0212138
2996,8376;0,0212093
2997,8018;0,0212086
2998,7661;0,0212117
2999,7302;0,0212184
3000,6946;0,0212295
3001,6587;0,0212456
3002,6230;0,021266
3003,5872;0,0212883
3004,5515;0,0213093
3005,5156;0,0213267
3006,4800;0,0213399
3007,4441;0,021349
3008,4084;0,0213541
3009,3726;0,0213552
3010,3369;0,0213534
3011,3010;0,0213525
3012,2654;0,0213582
3013,2295;0,0213765
3014,1938;0,0214094
3015,1580;0,0214537
3016,1223;0,0215017
3017,0864;0,0215447
3018,0508;0,0215768
3019,0149;0,0215971
3019,9792;0,0216097
3020,9434;0,0216214
3021,9077;0,0216388
3022,8718;0,0216663
3023,8362;0,021705
3024,8003;0,0217522
3025,7646;0,0218032
3026,7288;0,0218526
3027,6931;0,0218962
3028,6572;0,021932
3029,6216;0,0219601
3030,5857;0,0219828
3031,5500;0,0220032
3032,5142;0,0220242
3033,4785;0,0220483
3034,4426;0,0220771
3035,4070;0,0221117
3036,3711;0,0221532
3037,3354;0,0222024
3038,2996;0,022259
3039,2639;0,0223205
3040,2280;0,0223824
3041,1924;0,0224386
3042,1565;0,0224837
3043,1208;0,0225158
3044,0850;0,0225373
3045,0493;0,0225549
3046,0134;0,0225767
3046,9778;0,0226092
3047,9419;0,0226551
3048,9063;0,022713
3049,8704;0,0227789
3050,8347;0,0228483
3051,7988;0,0229178
3052,7632;0,0229851
3053,7273;0,0230487
3054,6917;0,0231074
3055,6558;0,0231606
3056,6201;0,0232104
3057,5842;0,0232615
3058,5486;0,0233207
3059,5127;0,023393
3060,4771;0,0234781
3061,4412;0,0235682
3062,4055;0,0236501
3063,3696;0,0237118
3064,3340;0,0237492
3065,2981;0,0237692
3066,2625;0,023787
3067,2266;0,0238174
3068,1909;0,0238668
3069,1550;0,0239305
3070,1194;0,0239971
3071,0835;0,0240565
3072,0479;0,0241059
3073,0120;0,0241496
3073,9763;0,0241952
3074,9404;0,0242469
3075,9048;0,0243039
3076,8689;0,024362
3077,8333;0,0244177
3078,7974;0,0244713
3079,7617;0,0245259
3080,7258;0,0245842
3081,6902;0,0246461
3082,6543;0,0247084
3083,6187;0,0247669
3084,5828;0,0248191
3085,5471;0,0248665
3086,5112;0,0249132
3087,4756;0,0249644
3088,4397;0,0250234
3089,4041;0,0250895
3090,3682;0,0251579
3091,3325;0,0252215
3092,2966;0,0252747
3093,2610;0,0253165
3094,2251;0,0253525
3095,1895;0,0253924
3096,1536;0,025445
3097,1179;0,0255142
3098,0820;0,0255968
3099,0464;0,0256851
3100,0105;0,025771
3100,9749;0,0258496
3101,9390;0,0259197
3102,9033;0,0259825
3103,8674;0,0260392
3104,8318;0,026091
3105,7959;0,0261401
3106,7603;0,0261914
3107,7244;0,0262504
3108,6887;0,0263213
3109,6528;0,0264036
3110,6172;0,0264917
3111,5813;0,0265778
3112,5457;0,0266563
3113,5098;0,0267266
3114,4741;0,0267924
3115,4382;0,0268582
3116,4026;0,026926
3117,3667;0,0269943
3118,3311;0,0270596
3119,2952;0,0271203
3120,2595;0,0271779
3121,2236;0,0272361
3122,1880;0,027297
3123,1521;0,0273599
3124,1165;0,0274221
3125,0806;0,0274821
3126,0449;0,0275426
3127,0090;0,0276096
3127,9734;0,0276889
3128,9375;0,0277808
3129,9019;0,0278792
3130,8660;0,0279744
3131,8303;0,0280582
3132,7944;0,0281288
3133,7588;0,0281907
3134,7229;0,0282516
3135,6873;0,0283176
3136,6514;0,0283902
3137,6157;0,0284682
3138,5798;0,0285491
3139,5442;0,0286315
3140,5083;0,0287151
3141,4727;0,0287995
3142,4368;0,0288835
3143,4011;0,0289657
3144,3652;0,0290456
3145,3296;0,0291245
3146,2937;0,0292047
3147,2581;0,0292878
3148,2222;0,0293731
3149,1865;0,0294578
3150,1506;0,0295386
3151,1150;0,0296139
3152,0791;0,0296849
3153,0435;0,0297554
3154,0076;0,0298297
3154,9719;0,0299103
3155,9360;0,0299967
3156,9004;0,0300857
3157,8645;0,0301742
3158,8289;0,0302604
3159,7930;0,0303448
3160,7573;0,0304289
3161,7214;0,0305129
3162,6858;0,0305951
3163,6499;0,0306726
3164,6143;0,0307434
3165,5784;0,0308083
3166,5427;0,0308711
3167,5068;0,0309372
3168,4712;0,0310113
3169,4353;0,0310953
3170,3997;0,0311895
3171,3638;0,0312912
3172,3281;0,0313966
3173,2922;0,0315019
3174,2566;0,031604
3175,2207;0,0317014
3176,1851;0,0317945
3177,1492;0,0318854
3178,1135;0,0319757
3179,0776;0,0320657
3180,0420;0,0321535
3181,0061;0,0322368
3181,9705;0,0323152
3182,9346;0,032391
3183,8989;0,0324681
3184,8630;0,0325494
3185,8274;0,0326345
3186,7915;0,0327205
3187,7559;0,0328037
3188,7200;0,0328831
3189,6843;0,0329601
3190,6484;0,0330375
3191,6128;0,0331156
3192,5769;0,0331919
3193,5413;0,0332627
3194,5054;0,0333269
3195,4697;0,0333886
3196,4338;0,0334554
3197,3982;0,0335341
3198,3623;0,0336258
3199,3267;0,0337249
3200,2908;0,0338224
3201,2551;0,0339123
3202,2192;0,0339944
3203,1836;0,0340742
3204,1477;0,0341571
3205,1121;0,0342447
3206,0762;0,034333
3207,0405;0,0344154
3208,0046;0,034488
3208,9690;0,0345516
3209,9331;0,0346112
3210,8975;0,0346728
3211,8616;0,0347404
3212,8259;0,034815
3213,7900;0,0348955
3214,7544;0,0349801
3215,7185;0,0350669
3216,6829;0,0351538
3217,6470;0,0352394
3218,6113;0,0353238
3219,5754;0,0354086
3220,5398;0,0354962
3221,5039;0,035587
3222,4683;0,0356777
3223,4324;0,0357623
3224,3967;0,0358363
3225,3608;0,0358996
3226,3252;0,0359584
3227,2893;0,0360213
3228,2537;0,0360954
3229,2178;0,0361814
3230,1821;0,0362749
3231,1462;0,0363688
3232,1106;0,036458
3233,0747;0,0365411
3234,0391;0,0366199
3235,0032;0,0366967
3235,9675;0,0367731
3236,9316;0,036849
3237,8960;0,0369241
3238,8601;0,0369986
3239,8245;0,0370738
3240,7886;0,0371509
3241,7529;0,0372306
3242,7170;0,0373122
3243,6814;0,0373939
3244,6455;0,0374743
3245,6099;0,0375534
3246,5740;0,0376335
3247,5383;0,0377182
3248,5024;0,0378098
3249,4668;0,0379076
3250,4309;0,0380083
3251,3953;0,0381073
3252,3594;0,0382012
3253,3237;0,0382897
3254,2878;0,0383744
3255,2522;0,0384572
3256,2163;0,0385392
3257,1807;0,0386207
3258,1448;0,0387034
3259,1091;0,0387903
3260,0732;0,038884
3261,0376;0,038984
3262,0017;0,0390848
3262,9661;0,0391789
3263,9302;0,0392612
3264,8945;0,0393339
3265,8586;0,0394055
3266,8230;0,0394857
3267,7871;0,0395785
3268,7515;0,0396787
3269,7156;0,0397743
3270,6799;0,0398535
3271,6440;0,0399106
3272,6084;0,0399493
3273,5725;0,0399798
3274,5369;0,0400126
3275,5010;0,0400543
3276,4653;0,0401058
3277,4294;0,0401638
3278,3938;0,0402243
3279,3579;0,0402846
3280,3223;0,0403433
3281,2864;0,0404003
3282,2507;0,0404548
3283,2148;0,0405048
3284,1792;0,0405476
3285,1433;0,0405799
3286,1077;0,0406001
3287,0718;0,0406089
3288,0361;0,0406096
3289,0002;0,0406078
3289,9646;0,0406089
3290,9287;0,0406169
3291,8931;0,0406329
3292,8572;0,040655
3293,8215;0,0406794
3294,7856;0,0407023
3295,7500;0,0407209
3296,7141;0,0407347
3297,6785;0,0407457
3298,6426;0,0407575
3299,6069;0,0407739
3300,5710;0,0407972
3301,5354;0,0408265
3302,4995;0,0408585
3303,4639;0,0408887
3304,4280;0,0409137
3305,3923;0,0409334
3306,3564;0,0409501
3307,3208;0,0409669
3308,2849;0,0409847
3309,2493;0,0410017
3310,2134;0,0410141
3311,1777;0,0410196
3312,1418;0,0410191
3313,1062;0,0410173
3314,0703;0,0410205
3315,0347;0,0410341
3315,9988;0,0410611
3316,9631;0,0411018
3317,9272;0,0411552
3318,8916;0,0412194
3319,8557;0,0412916
3320,8201;0,0413668
3321,7842;0,0414387
3322,7485;0,041501
3323,7126;0,0415509
3324,6770;0,0415908
3325,6411;0,0416282
3326,6055;0,0416719
3327,5696;0,0417273
3328,5339;0,041793
3329,4980;0,0418608
3330,4624;0,0419195
3331,4265;0,0419601
3332,3909;0,0419786
3333,3550;0,0419775
3334,3193;0,0419637
3335,2834;0,0419444
3336,2478;0,0419246
3337,2119;0,0419056
3338,1763;0,0418862
3339,1404;0,0418642
3340,1047;0,0418389
3341,0688;0,0418108
3342,0332;0,0417818
3342,9973;0,0417527
3343,9617;0,0417223
3344,9258;0,0416865
3345,8901;0,0416395
3346,8542;0,0415759
3347,8186;0,0414938
3348,7827;0,0413962
3349,7471;0,0412906
3350,7112;0,0411867
3351,6755;0,0410931
3352,6396;0,0410149
3353,6040;0,0409519
3354,5681;0,0409001
3355,5325;0,0408533
3356,4966;0,0408055
3357,4609;0,0407533
3358,4250;0,0406959
3359,3894;0,0406354
3360,3535;0,0405742
3361,3179;0,0405132
3362,2820;0,0404513
3363,2463;0,0403854
3364,2104;0,040313
3365,1748;0,0402338
3366,1389;0,0401506
3367,1033;0,0400677
3368,0674;0,0399887
3369,0317;0,0399139
3369,9958;0,0398407
3370,9602;0,0397651
3371,9243;0,0396847
3372,8887;0,0396002
3373,8528;0,0395153
3374,8171;0,0394354
3375,7813;0,0393643
3376,7456;0,0393016
3377,7097;0,0392425
3378,6741;0,0391786
3379,6382;0,039102
3380,6025;0,0390091
3381,5667;0,0389036
3382,5310;0,0387964
3383,4951;0,0387016
3384,4595;0,0386315
3385,4236;0,0385898
3386,3879;0,03857
3387,3521;0,0385566
3388,3164;0,0385315
3389,2805;0,0384805
3390,2449;0,0383987
3391,2090;0,0382922
3392,1733;0,038175
3393,1375;0,0380623
3394,1018;0,0379638
3395,0659;0,0378805
3396,0303;0,0378068
3396,9944;0,0377353
3397,9587;0,0376613
3398,9229;0,0375851
3399,8872;0,0375092
3400,8513;0,0374357
3401,8157;0,0373637
3402,7798;0,0372897
3403,7441;0,0372107
3404,7083;0,0371259
3405,6726;0,0370377
3406,6367;0,0369492
3407,6011;0,0368615
3408,5652;0,0367723
3409,5295;0,036677
3410,4937;0,0365722
3411,4580;0,0364588
3412,4221;0,0363428
3413,3865;0,0362323
3414,3506;0,0361328
3415,3149;0,0360442
3416,2791;0,0359607
3417,2434;0,0358743
3418,2075;0,0357789
3419,1719;0,0356737
3420,1360;0,035562
3421,1003;0,0354488
3422,0645;0,0353375
3423,0288;0,0352281
3423,9929;0,0351181
3424,9573;0,0350044
3425,9214;0,0348852
3426,8857;0,0347614
3427,8499;0,0346368
3428,8142;0,0345161
3429,7783;0,0344027
3430,7427;0,034296
3431,7068;0,034191
3432,6711;0,0340813
3433,6353;0,0339638
3434,5996;0,0338417
3435,5637;0,0337235
3436,5281;0,0336175
3437,4922;0,0335267
3438,4565;0,0334467
3439,4207;0,0333689
3440,3850;0,0332848
3441,3491;0,0331894
3442,3135;0,0330807
3443,2776;0,0329576
3444,2419;0,0328195
3445,2061;0,032668
3446,1704;0,0325093
3447,1345;0,0323538
3448,0989;0,03221
3449,0630;0,0320795
3450,0273;0,0319568
3450,9915;0,0318342
3451,9558;0,0317087
3452,9199;0,0315839
3453,8843;0,0314673
3454,8484;0,0313638
3455,8127;0,0312704
3456,7769;0,0311771
3457,7412;0,0310725
3458,7053;0,0309498
3459,6697;0,0308108
3460,6338;0,0306645
3461,5981;0,0305224
3462,5623;0,0303935
3463,5266;0,0302806
3464,4907;0,0301798
3465,4551;0,0300834
3466,4192;0,0299844
3467,3835;0,0298788
3468,3477;0,0297664
3469,3120;0,0296476
3470,2761;0,0295208
3471,2405;0,0293822
3472,2046;0,0292305
3473,1689;0,0290725
3474,1331;0,028924
3475,0974;0,0288026
3476,0615;0,0287162
3477,0259;0,028655
3477,9900;0,0285953
3478,9543;0,028512
3479,9185;0,0283935
3480,8828;0,028249
3481,8469;0,0281012
3482,8113;0,0279695
3483,7754;0,0278559
3484,7397;0,0277455
3485,7039;0,0276201
3486,6682;0,0274721
3487,6323;0,0273124
3488,5967;0,0271638
3489,5608;0,0270459
3490,5251;0,0269622
3491,4893;0,0268976
3492,4536;0,026828
3493,4177;0,0267348
3494,3821;0,0266161
3495,3462;0,0264891
3496,3105;0,0263788
3497,2747;0,0263006
3498,2390;0,0262473
3499,2031;0,0261914
3500,1675;0,0260997
3501,1316;0,025955
3502,0959;0,0257713
3503,0601;0,0255897
3504,0244;0,0254509
3504,9885;0,0253667
3505,9529;0,0253133
3506,9170;0,0252493
3507,8813;0,0251416
3508,8455;0,0249854
3509,8098;0,024806
3510,7739;0,024641
3511,7383;0,024515
3512,7024;0,0244281
3513,6667;0,0243632
3514,6309;0,0243034
3515,5952;0,024243
3516,5593;0,0241869
3517,5237;0,024141
3518,4878;0,0241022
3519,4521;0,024056
3520,4163;0,0239848
3521,3806;0,0238787
3522,3447;0,0237421
3523,3091;0,0235906
3524,2732;0,0234397
3525,2375;0,0232944
3526,2017;0,0231495
3527,1660;0,0229987
3528,1301;0,0228454
3529,0945;0,0227044
3530,0586;0,022592
3531,0229;0,0225129
3531,9871;0,0224546
3532,9514;0,0223925
3533,9155;0,0223014
3534,8799;0,0221699
3535,8440;0,022009
3536,8083;0,0218508
3537,7725;0,021733
3538,7368;0,0216804
3539,7009;0,0216928
3540,6653;0,0217439
3541,6294;0,021789
3542,5938;0,0217774
3543,5579;0,0216726
3544,5222;0,0214746
3545,4863;0,0212285
3546,4507;0,0210009
3547,4148;0,0208369
3548,3792;0,0207364
3549,3433;0,020664
3550,3076;0,0205761
3551,2717;0,0204493
3552,2361;0,0202942
3553,2002;0,0201475
3554,1646;0,0200443
3555,1287;0,0199931
3556,0930;0,0199734
3557,0571;0,0199548
3558,0215;0,0199196
3558,9856;0,0198777
3559,9500;0,0198602
3560,9141;0,0198953
3561,8784;0,0199797
3562,8425;0,0200656
3563,8069;0,0200674
3564,7710;0,0198926
3565,7354;0,0195062
3566,6995;0,0189972
3567,6638;0,0185473
3568,6279;0,0182903
3569,5923;0,0182299
3570,5564;0,018285
3571,5208;0,0183629
3572,4849;0,0183983
3573,4492;0,0183654
3574,4133;0,018274
3575,3777;0,0181542
3576,3418;0,0180346
3577,3062;0,0179302
3578,2703;0,0178479
3579,2346;0,017799
3580,1987;0,017802
3581,1631;0,0178684
3582,1272;0,0179845
3583,0916;0,0181004
3584,0557;0,0181373
3585,0200;0,018014
3585,9841;0,0177045
3586,9485;0,0172966
3587,9126;0,0169623
3588,8770;0,0168238
3589,8411;0,0168714
3590,8054;0,0170077
3591,7695;0,0171238
3592,7339;0,0171455
3593,6980;0,0170558
3594,6624;0,0168959
3595,6265;0,0167306
3596,5908;0,0165977
3597,5549;0,0164893
3598,5193;0,0163772
3599,4834;0,016254
3600,4478;0,0161476
3601,4119;0,016099
3602,3762;0,0161229
3603,3403;0,0161902
3604,3047;0,016243
3605,2688;0,0162245
3606,2332;0,0161086
3607,1973;0,0159184
3608,1616;0,015714
3609,1257;0,0155498
3610,0901;0,0154407
3611,0542;0,0153698
3612,0186;0,0153193
3612,9827;0,0152873
3613,9470;0,0152773
3614,9111;0,0152752
3615,8755;0,0152381
3616,8396;0,0151107
3617,8040;0,0148673
3618,7681;0,0145591
3619,7324;0,0143108
3620,6965;0,01424
3621,6609;0,0143771
3622,6250;0,0146663
3623,5894;0,0150134
3624,5535;0,0153134
3625,5178;0,0154537
3626,4819;0,0153247
3627,4463;0,0148882
3628,4104;0,0142809
3629,3748;0,0137678
3630,3389;0,0135067
3631,3032;0,0134539
3632,2673;0,0134863
3633,2317;0,0135122
3634,1958;0,0134978
3635,1602;0,0134516
3636,1243;0,0133961
3637,0886;0,0133436
3638,0527;0,0132919
3639,0171;0,0132396
3639,9812;0,0132048
3640,9456;0,0132266
3641,9097;0,0133449
3642,8740;0,013571
3643,8381;0,0138705
3644,8025;0,0141574
3645,7666;0,0142929
3646,7310;0,0141035
3647,6951;0,0134929
3648,6594;0,0126504
3649,6235;0,0120071
3650,5879;0,0117994
3651,5520;0,0119168
3652,5164;0,0121386
3653,4805;0,0122968
3654,4448;0,0123068
3655,4089;0,0121695
3656,3733;0,0119654
3657,3374;0,0118008
3658,3018;0,0117302
3659,2659;0,0117338
3660,2302;0,011763
3661,1943;0,0117947
3662,1587;0,0118492
3663,1228;0,0119675
3664,0872;0,0121673
3665,0513;0,012416
3666,0156;0,0126366
3666,9797;0,0127413
3667,9441;0,012686
3668,9082;0,0125292
3669,8726;0,0124139
3670,8367;0,0124394
3671,8010;0,0125631
3672,7651;0,0126384
3673,7295;0,0125134
3674,6936;0,0121384
3675,6580;0,0116466
3676,6221;0,0112708
3677,5864;0,0111316
3678,5505;0,011181
3679,5149;0,011318
3680,4790;0,0114797
3681,4434;0,0116565
3682,4075;0,0118669
3683,3718;0,0121219
3684,3359;0,0123989
3685,3003;0,0126351
3686,2644;0,0127367
3687,2288;0,0126131
3688,1929;0,012251
3689,1572;0,0117845
3690,1213;0,0114261
3691,0857;0,0112892
3692,0498;0,0113396
3693,0142;0,0114884
3693,9783;0,0116682
3694,9426;0,0118467
3695,9067;0,0120109
3696,8711;0,0121481
3697,8352;0,012235
3698,7996;0,0122437
3699,7637;0,012162
3700,7280;0,012019
3701,6921;0,0118903
3702,6565;0,0118599
3703,6206;0,0119685
3704,5850;0,012196
3705,5491;0,0124827
3706,5134;0,0127521
3707,4775;0,0129172
3708,4419;0,0128857
3709,4060;0,0125962
3710,3704;0,0120991
3711,3345;0,011589
3712,2988;0,0112747
3713,2629;0,0112257
3714,2273;0,0113806
3715,1914;0,0116394
3716,1558;0,011919
3717,1199;0,012166
3718,0842;0,0123556
3719,0483;0,0124869
3720,0127;0,0125724
3720,9768;0,0126229
3721,9412;0,0126372
3722,9053;0,0126098
3723,8696;0,0125522
3724,8337;0,0125039
3725,7981;0,012517
3726,7622;0,0126228
3727,7266;0,0128134
3728,6907;0,0130504
3729,6550;0,0132807
3730,6191;0,0134447
3731,5835;0,0134745
3732,5476;0,0133013
3733,5120;0,0128989
3734,4761;0,0123606
3735,4404;0,0119021
3736,4045;0,0117144
3737,3689;0,0118305
3738,3330;0,0121554
3739,2974;0,0125562
3740,2615;0,0129055
3741,2258;0,0130884
3742,1899;0,0130213
3743,1543;0,0127185
3744,1184;0,0123525
3745,0828;0,0121532
3746,0469;0,0121954
3747,0112;0,0123552
3747,9753;0,0124296
3748,9397;0,0122517
3749,9038;0,0118023
3750,8682;0,0112907
3751,8323;0,0110089
3752,7966;0,011055
3753,7607;0,0113094
3754,7251;0,0115979
3755,6892;0,0117882
3756,6536;0,0118134
3757,6177;0,0116858
3758,5820;0,0114972
3759,5461;0,0113676
3760,5105;0,0113637
3761,4746;0,0114706
3762,4390;0,0116273
3763,4031;0,0117705
3764,3674;0,0118575
3765,3315;0,0118696
3766,2959;0,0118063
3767,2600;0,0116784
3768,2244;0,0115074
3769,1885;0,0113318
3770,1528;0,011206
3771,1169;0,0111779
3772,0813;0,0112613
3773,0454;0,0114264
3774,0098;0,0116153
3774,9739;0,0117642
3775,9382;0,0118224
3776,9023;0,0117721
3777,8667;0,011644
3778,8308;0,0115084
3779,7952;0,0114303
3780,7593;0,0114267
3781,7236;0,0114666
3782,6877;0,011504
3783,6521;0,0115075
3784,6162;0,0114715
3785,5806;0,011413
3786,5447;0,0113598
3787,5090;0,0113382
3788,4731;0,0113649
3789,4375;0,0114433
3790,4016;0,0115622
3791,3660;0,0116986
3792,3301;0,0118265
3793,2944;0,0119304
3794,2585;0,0120148
3795,2229;0,0121002
3796,1870;0,0122007
3797,1514;0,0122997
3798,1155;0,0123462
3799,0798;0,0122852
3800,0439;0,0121105
3801,0083;0,0118955
3801,9724;0,0117453
3802,9368;0,0116979
3803,9009;0,0116929
3804,8652;0,0116329
3805,8293;0,0114686
3806,7937;0,0112524
3807,7578;0,0111159
3808,7222;0,0111651
3809,6863;0,0113997
3810,6506;0,0117324
3811,6147;0,0120547
3812,5791;0,0122831
3813,5432;0,0123847
3814,5076;0,0123928
3815,4717;0,0123858
3816,4360;0,0124142
3817,4001;0,0124425
3818,3645;0,0123757
3819,3286;0,0121467
3820,2930;0,011796
3821,2571;0,0114684
3822,2214;0,011299
3823,1855;0,01131
3824,1499;0,0114312
3825,1140;0,0115796
3826,0784;0,0117059
3827,0425;0,0118018
3828,0068;0,0118836
3828,9709;0,0119712
3829,9353;0,0120733
3830,8994;0,0121858
3831,8638;0,0122982
3832,8279;0,0123962
3833,7922;0,0124595
3834,7563;0,0124595
3835,7207;0,0123686
3836,6848;0,0121828
3837,6492;0,0119432
3838,6133;0,0117238
3839,5776;0,0115792
3840,5417;0,0115091
3841,5061;0,0114767
3842,4702;0,0114547
3843,4346;0,0114534
3844,3987;0,0115143
3845,3630;0,0116807
3846,3271;0,0119665
3847,2915;0,0123448
3848,2556;0,0127512
3849,2200;0,0130858
3850,1841;0,0132071
3851,1484;0,0129497
3852,1125;0,0122538
3853,0769;0,0113832
3854,0410;0,010809
3855,0054;0,0107223
3855,9695;0,0109701
3856,9338;0,0113449
3857,8979;0,0117157
3858,8623;0,0120142
3859,8264;0,0122021
3860,7908;0,0122616
3861,7549;0,0122078
3862,7192;0,0121006
3863,6833;0,0120223
3864,6477;0,0120247
3865,6118;0,0120979
3866,5762;0,0121887
3867,5403;0,0122363
3868,5046;0,0121994
3869,4688;0,0120713
3870,4331;0,011883
3871,3972;0,0116916
3872,3616;0,0115554
3873,3257;0,0115121
3874,2900;0,0115692
3875,2542;0,0117052
3876,2185;0,011878
3877,1826;0,0120369
3878,1470;0,01214
3879,1111;0,0121709
3880,0754;0,0121444
3881,0396;0,0120885
3882,0039;0,0120172
3882,9680;0,0119265
3883,9324;0,0118206
3884,8965;0,0117345
3885,8608;0,0117174
3886,8250;0,0117863
3887,7893;0,0118992
3888,7534;0,0119766
3889,7178;0,0119509
3890,6819;0,0118213
3891,6462;0,0116744
3892,6104;0,0116291
3893,5747;0,0117415
3894,5388;0,0119741
3895,5032;0,0122425
3896,4673;0,0124684
3897,4316;0,012604
3898,3958;0,0126369
3899,3601;0,0125803
3900,3242;0,0124488
3901,2886;0,0122448
3902,2527;0,0119754
3903,2170;0,0116836
3904,1812;0,0114434
3905,1455;0,0113126
3906,1096;0,0112964
3907,0740;0,0113571
3908,0381;0,0114488
3909,0024;0,0115435
3909,9666;0,0116372
3910,9309;0,0117396
3911,8950;0,0118569
3912,8594;0,0119773
3913,8235;0,0120709
3914,7878;0,0121046
3915,7520;0,012065
3916,7163;0,0119761
3917,6804;0,0118901
3918,6448;0,0118523
3919,6089;0,0118692
3920,5732;0,0119091
3921,5374;0,0119297
3922,5017;0,0119071
3923,4658;0,0118525
3924,4302;0,0118058
3925,3943;0,0118061
3926,3586;0,0118609
3927,3228;0,0119405
3928,2871;0,0119979
3929,2512;0,0119942
3930,2156;0,0119209
3931,1797;0,011806
3932,1440;0,0116994
3933,1082;0,0116407
3934,0725;0,0116408
3935,0366;0,0116864
3936,0010;0,0117571
3936,9651;0,0118345
3937,9294;0,0119033
3938,8936;0,011949
3939,8579;0,0119615
3940,8220;0,0119421
3941,7864;0,0119096
3942,7505;0,0118921
3943,7148;0,0119088
3944,6790;0,0119541
3945,6433;0,0120009
3946,6074;0,012017
3947,5718;0,0119847
3948,5359;0,0119133
3949,5002;0,0118336
3950,4644;0,0117783
3951,4287;0,011762
3952,3928;0,0117781
3953,3572;0,0118084
3954,3213;0,0118369
3955,2856;0,0118557
3956,2498;0,0118651
3957,2141;0,0118685
3958,1782;0,011869
3959,1426;0,0118677
3960,1067;0,0118648
3961,0710;0,0118602
3962,0352;0,0118543
3962,9995;0,0118473
3963,9636;0,0118397
3964,9280;0,0118327
3965,8921;0,0118287
3966,8564;0,0118308
3967,8206;0,0118414
3968,7849;0,0118605
3969,7490;0,0118849
3970,7134;0,0119087
3971,6775;0,0119246
3972,6418;0,0119276
3973,6060;0,011917
3974,5703;0,0118984
3975,5344;0,0118806
3976,4988;0,0118721
3977,4629;0,011876
3978,4272;0,0118895
3979,3914;0,0119053
3980,3557;0,0119166
3981,3198;0,0119204
3982,2842;0,0119187
3983,2483;0,0119157
3984,2126;0,0119148
3985,1768;0,0119164
3986,1411;0,0119177
3987,1052;0,0119159
3988,0696;0,0119098
3989,0337;0,0119015
3989,9980;0,0118943
3990,9622;0,0118904
3991,9265;0,0118882
3992,8906;0,0118824
3993,8550;0,011867
3994,8191;0,0118393
3995,7834;0,0118036
3996,7476;0,0117702
3997,7119;0,011752
3998,6760;0,0117581
3999,6404;0,011789
4000,6045;0,0118304

##### Extended Information
[Comments]
Sample name
Comment
Username
Division
Organization;UNIVERSIDAD INDUSTRIAL DE SANTANDER

[Detailed Information]
Creation date;17/03/2025 2:54 p.m.

Data array type;Linear data array
Horizontal axis;Wavenumber [cm-1]
Vertical axis;Abs
Start;399,193 cm-1
End;4000,6 cm-1
Data interval;0,964233 cm-1
Data points;3736    

[Measurement Information]
Model name;FT/IR-4X1typeA
Serial No.;A035162111

Accessory;ATR PRO 4X
Accessory S/N;A021162126
Incident angle;45 deg

Measurement date;17/03/2025 2:54 p.m.

Light source;Standard
Detector;TGS
Accumulation;40
Resolution;4 cm-1
Zero filling;On
Apodization;Cosine
Gain;Auto (8)
Aperture;Auto (7 mm)
Scan speed;Auto (2 mm/sec)
Filter;Auto (12800 Hz)

