TITLE;
DATA TYPE;INFRARED SPECTRUM
ORIGIN;JASCO
OWNER;
DATE;25/03/17
TIME;14:37:05
SPECTROMETER/DATA SYSTEM;
LOCALE;9226
RESOLUTION;
DELTAX;0,964233
XUNITS;1/CM
YUNITS;ABSORBANCE
FIRSTX;  399,1927
LASTX; 4000,6047
NPOINTS;    3736
FIRSTY;     0,16224
MAXY;     0,20156
MINY;     0,01229
XYDATA
399,1927;0,162236
400,1569;0,161668
401,1211;0,160789
402,0854;0,159843
403,0496;0,159019
404,0138;0,158446
404,9781;0,158176
405,9423;0,15816
406,9065;0,158261
407,8708;0,158334
408,8350;0,158328
409,7992;0,158345
410,7635;0,158593
411,7277;0,159248
412,6919;0,160311
413,6562;0,161576
414,6204;0,16273
415,5846;0,163452
416,5489;0,163485
417,5131;0,162761
418,4773;0,16163
419,4416;0,160821
420,4058;0,16085
421,3700;0,161611
422,3343;0,162724
423,2985;0,163916
424,2627;0,165062
425,2270;0,16607
426,1912;0,166798
427,1554;0,167062
428,1197;0,166738
429,0839;0,165875
430,0481;0,164727
431,0124;0,16367
431,9766;0,163036
432,9408;0,162948
433,9051;0,163288
434,8693;0,163819
435,8335;0,164363
436,7978;0,164874
437,7620;0,165372
438,7262;0,165813
439,6905;0,166035
440,6547;0,165834
441,6189;0,165125
442,5832;0,164061
443,5474;0,163001
444,5116;0,162291
445,4759;0,162034
446,4401;0,162053
447,4043;0,162053
448,3686;0,161813
449,3328;0,16128
450,2970;0,160549
451,2613;0,159778
452,2255;0,159086
453,1897;0,158523
454,1540;0,158094
455,1182;0,157815
456,0824;0,157748
457,0467;0,157971
458,0109;0,158489
458,9751;0,159175
459,9394;0,159824
460,9036;0,160265
461,8678;0,160428
462,8321;0,160324
463,7963;0,159996
464,7605;0,159506
465,7248;0,158918
466,6890;0,1583
467,6532;0,157715
468,6175;0,157206
469,5817;0,156795
470,5459;0,156483
471,5102;0,156267
472,4744;0,156145
473,4386;0,156118
474,4029;0,156165
475,3671;0,156243
476,3313;0,15629
477,2956;0,156246
478,2598;0,156087
479,2240;0,155835
480,1883;0,155558
481,1525;0,155345
482,1167;0,155272
483,0810;0,155378
484,0452;0,155649
485,0094;0,156015
485,9737;0,156371
486,9379;0,156609
487,9021;0,156652
488,8664;0,156475
489,8306;0,156127
490,7948;0,155723
491,7591;0,155416
492,7233;0,155336
493,6875;0,155527
494,6518;0,155934
495,6160;0,156439
496,5802;0,15692
497,5445;0,157306
498,5087;0,157586
499,4729;0,157798
500,4372;0,158005
501,4014;0,158261
502,3656;0,158588
503,3299;0,158973
504,2941;0,159381
505,2583;0,159778
506,2226;0,160143
507,1868;0,160467
508,1510;0,160749
509,1153;0,161
510,0795;0,161241
511,0437;0,161506
512,0080;0,16183
512,9722;0,162236
513,9365;0,162728
514,9007;0,163281
515,8649;0,16384
516,8292;0,164332
517,7934;0,164688
518,7576;0,164869
519,7219;0,164896
520,6861;0,164831
521,6503;0,16476
522,6146;0,164754
523,5788;0,164857
524,5430;0,165061
525,5073;0,165303
526,4715;0,165486
527,4357;0,165538
528,4000;0,165446
529,3642;0,165257
530,3284;0,165032
531,2927;0,164802
532,2569;0,164556
533,2211;0,164262
534,1854;0,163907
535,1496;0,163517
536,1138;0,163152
537,0781;0,162862
538,0423;0,162656
539,0065;0,162499
539,9708;0,162344
540,9350;0,162173
541,8992;0,162005
542,8635;0,161873
543,8277;0,161782
544,7919;0,161699
545,7562;0,161575
546,7204;0,161392
547,6846;0,1612
548,6489;0,1611
549,6131;0,161186
550,5773;0,161492
551,5416;0,161981
552,5058;0,162568
553,4700;0,163173
554,4343;0,163744
555,3985;0,164249
556,3627;0,164653
557,3270;0,1649
558,2912;0,16492
559,2554;0,164667
560,2197;0,164144
561,1839;0,163415
562,1481;0,162587
563,1124;0,161775
564,0766;0,161072
565,0408;0,160525
566,0051;0,160139
566,9693;0,159882
567,9335;0,159699
568,8978;0,159527
569,8620;0,159322
570,8262;0,159064
571,7905;0,158762
572,7547;0,158442
573,7189;0,158132
574,6832;0,157851
575,6474;0,157606
576,6116;0,15739
577,5759;0,157189
578,5401;0,156981
579,5043;0,156744
580,4686;0,156464
581,4328;0,156137
582,3970;0,155781
583,3613;0,15543
584,3255;0,15512
585,2897;0,154877
586,2540;0,154704
587,2182;0,154589
588,1824;0,154519
589,1467;0,154481
590,1109;0,154469
591,0751;0,154469
592,0394;0,154457
593,0036;0,154402
593,9678;0,154288
594,9321;0,15412
595,8963;0,153922
596,8605;0,153719
597,8248;0,153518
598,7890;0,153304
599,7532;0,153056
600,7175;0,152761
601,6817;0,152434
602,6459;0,152105
603,6102;0,151794
604,5744;0,151498
605,5386;0,151183
606,5029;0,150809
607,4671;0,150348
608,4313;0,149801
609,3956;0,149189
610,3598;0,148537
611,3240;0,147855
612,2883;0,147142
613,2525;0,146399
614,2167;0,145645
615,1810;0,144916
616,1452;0,144249
617,1094;0,143652
618,0737;0,143091
619,0379;0,142501
620,0021;0,141822
620,9664;0,141025
621,9306;0,140119
622,8948;0,139144
623,8591;0,138152
624,8233;0,1372
625,7875;0,136329
626,7518;0,135576
627,7160;0,134957
628,6802;0,134463
629,6445;0,134053
630,6087;0,133666
631,5729;0,13324
632,5372;0,132742
633,5014;0,13218
634,4656;0,131599
635,4299;0,131048
636,3941;0,130551
637,3583;0,130093
638,3226;0,129638
639,2868;0,129151
640,2510;0,128624
641,2153;0,128076
642,1795;0,127536
643,1437;0,127026
644,1080;0,126554
645,0722;0,126113
646,0364;0,125698
647,0007;0,125306
647,9649;0,124939
648,9291;0,124606
649,8934;0,124312
650,8576;0,124067
651,8218;0,123886
652,7861;0,123785
653,7503;0,123778
654,7145;0,123868
655,6788;0,124046
656,6430;0,124284
657,6072;0,124549
658,5715;0,124804
659,5357;0,125017
660,4999;0,125166
661,4642;0,12525
662,4284;0,12529
663,3926;0,125311
664,3569;0,125311
665,3211;0,12523
666,2853;0,124923
667,2496;0,124199
668,2138;0,123041
669,1780;0,121777
670,1423;0,120731
671,1065;0,119882
672,0707;0,119038
673,0350;0,118045
673,9992;0,11684
674,9634;0,115456
675,9277;0,114018
676,8919;0,112674
677,8561;0,111498
678,8204;0,110471
679,7846;0,109534
680,7488;0,108651
681,7131;0,107831
682,6773;0,107099
683,6415;0,106467
684,6058;0,105921
685,5700;0,105439
686,5342;0,105007
687,4985;0,104626
688,4627;0,104305
689,4269;0,104042
690,3912;0,103821
691,3554;0,103614
692,3196;0,103398
693,2839;0,103167
694,2481;0,102937
695,2123;0,10273
696,1766;0,102558
697,1408;0,102411
698,1050;0,102258
699,0693;0,10207
700,0335;0,101833
700,9977;0,101555
701,9620;0,101254
702,9262;0,100946
703,8904;0,100629
704,8547;0,100291
705,8189;0,0999193
706,7831;0,0995141
707,7474;0,099085
708,7116;0,0986446
709,6758;0,0981987
710,6401;0,097742
711,6043;0,0972644
712,5685;0,0967581
713,5328;0,0962233
714,4970;0,0956655
715,4612;0,0951506
716,4255;0,0945347
717,3897;0,0938785
718,3539;0,0931787
719,3182;0,092449
720,2824;0,0917196
721,2466;0,0910241
722,2109;0,0903805
723,1751;0,0897823
724,1393;0,089207
725,1036;0,0886311
726,0678;0,0880434
727,0320;0,0874467
727,9963;0,0868515
728,9605;0,0862676
729,9247;0,0857006
730,8890;0,0851546
731,8532;0,0846366
732,8174;0,0841566
733,7817;0,0837219
734,7459;0,0833328
735,7101;0,0829822
736,6744;0,0826605
737,6386;0,0823607
738,6028;0,0820787
739,5671;0,0818085
740,5313;0,0815393
741,4955;0,0812572
742,4598;0,0809525
743,4240;0,0806271
744,3882;0,0802941
745,3525;0,079971
746,3167;0,0796681
747,2809;0,0793816
748,2452;0,0790945
749,2094;0,0787843
750,1736;0,0784331
751,1379;0,0780343
752,1021;0,077594
753,0663;0,077128
754,0306;0,0766564
754,9948;0,0761994
755,9590;0,0757736
756,9233;0,075389
757,8875;0,0750486
758,8517;0,0747484
759,8160;0,0744795
760,7802;0,0742303
761,7444;0,0739888
762,7087;0,0737431
763,6729;0,0734825
764,6371;0,0731992
765,6014;0,0728914
766,5656;0,0725651
767,5298;0,072232
768,4941;0,0719047
769,4583;0,0715899
770,4225;0,0712859
771,3868;0,0709852
772,3510;0,0706828
773,3152;0,0703821
774,2795;0,0700961
775,2437;0,0698405
776,2079;0,0696239
777,1722;0,0694401
778,1364;0,0692681
779,1006;0,0690798
780,0649;0,0688516
781,0291;0,0685732
781,9933;0,0682498
782,9576;0,0678976
783,9218;0,067535
784,8860;0,0671764
785,8503;0,0668302
786,8145;0,0665018
787,7787;0,0661975
788,7430;0,0659255
789,7072;0,0656924
790,6714;0,0654983
791,6357;0,0653352
792,5999;0,0651906
793,5641;0,0650539
794,5284;0,064921
795,4926;0,0647938
796,4568;0,0646756
797,4211;0,0645661
798,3853;0,0644608
799,3495;0,0643533
800,3138;0,064238
801,2780;0,0641116
802,2422;0,0639712
803,2065;0,0638137
804,1707;0,0636369
805,1349;0,0634421
806,0992;0,0632355
807,0634;0,0630276
808,0276;0,0628297
808,9919;0,0626514
809,9561;0,0624992
810,9203;0,0623765
811,8846;0,0622832
812,8488;0,0622142
813,8130;0,0621595
814,7773;0,0621067
815,7415;0,0620451
816,7057;0,0619703
817,6700;0,0618847
818,6342;0,0617951
819,5984;0,0617084
820,5627;0,0616292
821,5269;0,0615599
822,4911;0,0615022
823,4554;0,0614567
824,4196;0,0614225
825,3839;0,0613959
826,3481;0,0613705
827,3123;0,0613389
828,2766;0,0612936
829,2408;0,0612271
830,2050;0,0611318
831,1693;0,0610021
832,1335;0,0608381
833,0977;0,0606488
834,0620;0,0604505
835,0262;0,0602599
835,9904;0,0600854
836,9547;0,0599239
837,9189;0,059765
838,8831;0,0596013
839,8474;0,0594351
840,8116;0,0592776
841,7758;0,0591393
842,7401;0,0590209
843,7043;0,0589119
844,6685;0,0587986
845,6328;0,058675
846,5970;0,058548
847,5612;0,0584326
848,5255;0,0583415
849,4897;0,058277
850,4539;0,0582315
851,4182;0,0581954
852,3824;0,0581652
853,3466;0,0581455
854,3109;0,0581431
855,2751;0,0581598
856,2393;0,0581884
857,2036;0,0582155
858,1678;0,0582298
859,1320;0,058228
860,0963;0,0582175
861,0605;0,0582133
862,0247;0,0582322
862,9890;0,0582869
863,9532;0,0583838
864,9174;0,0585227
865,8817;0,0586995
866,8459;0,0589097
867,8101;0,0591507
868,7744;0,0594218
869,7386;0,0597207
870,7028;0,0600393
871,6671;0,0603592
872,6313;0,0606506
873,5955;0,0608765
874,5598;0,0610012
875,5240;0,0610018
876,4882;0,060878
877,4525;0,0606571
878,4167;0,0603905
879,3809;0,0601411
880,3452;0,0599663
881,3094;0,059903
882,2736;0,0599612
883,2379;0,0601281
884,2021;0,0603807
885,1663;0,0606991
886,1306;0,0610742
887,0948;0,0615078
888,0590;0,0620055
889,0233;0,0625698
889,9875;0,0631937
890,9517;0,0638604
891,9160;0,064545
892,8802;0,0652167
893,8444;0,0658419
894,8087;0,0663865
895,7729;0,0668194
896,7371;0,0671169
897,7014;0,0672664
898,6656;0,0672684
899,6298;0,0671354
900,5941;0,0668886
901,5583;0,0665538
902,5225;0,066159
903,4868;0,065734
904,4510;0,0653096
905,4152;0,0649156
906,3795;0,064577
907,3437;0,0643094
908,3079;0,0641173
909,2722;0,0639956
910,2364;0,0639344
911,2007;0,0639226
912,1649;0,0639502
913,1292;0,0640089
914,0934;0,0640921
915,0576;0,0641962
916,0219;0,0643221
916,9861;0,0644736
917,9503;0,0646534
918,9146;0,064858
919,8788;0,0650755
920,8430;0,0652895
921,8073;0,065487
922,7715;0,0656639
923,7357;0,065826
924,7000;0,0659821
925,6642;0,0661361
926,6284;0,0662824
927,5927;0,0664099
928,5569;0,06651
929,5211;0,0665839
930,4854;0,0666443
931,4496;0,0667089
932,4138;0,0667924
933,3781;0,0669009
934,3423;0,0670327
935,3065;0,0671835
936,2708;0,0673522
937,2350;0,0675427
938,1992;0,0677606
939,1635;0,0680101
940,1277;0,0682924
941,0919;0,0686092
942,0562;0,0689676
943,0204;0,0693815
943,9846;0,069867
944,9489;0,0704348
945,9131;0,0710832
946,8773;0,0717994
947,8416;0,0725669
948,8058;0,073377
949,7700;0,0742352
950,7343;0,0751584
951,6985;0,0761644
952,6627;0,0772601
953,6270;0,0784362
954,5912;0,0796714
955,5554;0,0809432
956,5197;0,0822385
957,4839;0,0835586
958,4481;0,084915
959,4124;0,0863196
960,3766;0,087776
961,3408;0,0892753
962,3051;0,090799
963,2693;0,0923265
964,2335;0,0938428
965,1978;0,0953446
966,1620;0,0968414
967,1262;0,0983537
968,0905;0,0999088
969,0547;0,101536
970,0189;0,103261
970,9832;0,105104
971,9474;0,107081
972,9116;0,109201
973,8759;0,111473
974,8401;0,113908
975,8043;0,116515
976,7686;0,119299
977,7328;0,122248
978,6970;0,125334
979,6613;0,128507
980,6255;0,1317
981,5897;0,134833
982,5540;0,137827
983,5182;0,140616
984,4824;0,143156
985,4467;0,145434
986,4109;0,147465
987,3751;0,149284
988,3394;0,150932
989,3036;0,152436
990,2678;0,153808
991,2321;0,155047
992,1963;0,15615
993,1605;0,157126
994,1248;0,157998
995,0890;0,158801
996,0532;0,159569
997,0175;0,160327
997,9817;0,161083
998,9459;0,161841
999,9102;0,162602
1000,8744;0,163377
1001,8386;0,164187
1002,8029;0,165066
1003,7671;0,166046
1004,7313;0,16716
1005,6956;0,168429
1006,6598;0,169867
1007,6240;0,171475
1008,5883;0,173248
1009,5525;0,175168
1010,5167;0,177207
1011,4810;0,179326
1012,4452;0,181472
1013,4094;0,18359
1014,3737;0,185622
1015,3379;0,187524
1016,3021;0,189262
1017,2664;0,19082
1018,2306;0,192197
1019,1948;0,193403
1020,1591;0,194463
1021,1233;0,19541
1022,0875;0,196277
1023,0518;0,197094
1024,0160;0,197878
1024,9802;0,198633
1025,9445;0,199349
1026,9087;0,20001
1027,8729;0,200596
1028,8372;0,20108
1029,8014;0,201422
1030,7656;0,201565
1031,7299;0,201439
1032,6941;0,200978
1033,6583;0,200137
1034,6226;0,198919
1035,5868;0,197382
1036,5510;0,195632
1037,5153;0,193806
1038,4795;0,19204
1039,4437;0,190443
1040,4080;0,189079
1041,3722;0,187971
1042,3364;0,187103
1043,3007;0,186435
1044,2649;0,185911
1045,2291;0,185467
1046,1934;0,185037
1047,1576;0,18456
1048,1218;0,183988
1049,0861;0,18329
1050,0503;0,182452
1051,0145;0,181469
1051,9788;0,180341
1052,9430;0,179071
1053,9072;0,177669
1054,8715;0,176143
1055,8357;0,174493
1056,7999;0,172702
1057,7642;0,170729
1058,7284;0,168528
1059,6926;0,166068
1060,6569;0,163362
1061,6211;0,160477
1062,5853;0,15752
1063,5496;0,154614
1064,5138;0,151864
1065,4780;0,149335
1066,4423;0,147054
1067,4065;0,145014
1068,3707;0,143189
1069,3350;0,141543
1070,2992;0,14004
1071,2634;0,138637
1072,2277;0,137286
1073,1919;0,135936
1074,1561;0,134534
1075,1204;0,133044
1076,0846;0,131449
1077,0488;0,129765
1078,0131;0,128031
1078,9773;0,126304
1079,9415;0,124637
1080,9058;0,123077
1081,8700;0,121649
1082,8342;0,120364
1083,7985;0,119217
1084,7627;0,118195
1085,7269;0,117279
1086,6912;0,116449
1087,6554;0,115695
1088,6196;0,115017
1089,5839;0,114428
1090,5481;0,11395
1091,5123;0,113596
1092,4766;0,113371
1093,4408;0,113261
1094,4050;0,113243
1095,3693;0,113294
1096,3335;0,113399
1097,2977;0,113551
1098,2620;0,113746
1099,2262;0,113979
1100,1904;0,114229
1101,1547;0,114468
1102,1189;0,114664
1103,0831;0,114789
1104,0474;0,114829
1105,0116;0,114782
1105,9758;0,114657
1106,9401;0,114468
1107,9043;0,114219
1108,8685;0,113905
1109,8328;0,113505
1110,7970;0,112982
1111,7612;0,112297
1112,7255;0,111428
1113,6897;0,110385
1114,6539;0,109219
1115,6182;0,108013
1116,5824;0,106856
1117,5466;0,105814
1118,5109;0,10491
1119,4751;0,104114
1120,4393;0,103362
1121,4036;0,102573
1122,3678;0,101677
1123,3320;0,100627
1124,2963;0,0993992
1125,2605;0,0979949
1126,2247;0,0964326
1127,1890;0,0947434
1128,1532;0,0929673
1129,1174;0,0911464
1130,0817;0,0893194
1131,0459;0,0875172
1132,0101;0,0857635
1132,9744;0,0840793
1133,9386;0,0824892
1134,9028;0,0810242
1135,8671;0,0797196
1136,8313;0,0786081
1137,7955;0,0777119
1138,7598;0,0770369
1139,7240;0,0765704
1140,6882;0,076285
1141,6525;0,0761443
1142,6167;0,0761118
1143,5809;0,0761589
1144,5452;0,0762703
1145,5094;0,0764441
1146,4736;0,0766869
1147,4379;0,0770047
1148,4021;0,0773954
1149,3663;0,0778443
1150,3306;0,0783264
1151,2948;0,0788115
1152,2590;0,0792701
1153,2233;0,0796769
1154,1875;0,0800102
1155,1517;0,0802489
1156,1160;0,0803685
1157,0802;0,0803378
1158,0444;0,0801176
1159,0087;0,079663
1159,9729;0,0789291
1160,9371;0,0778797
1161,9014;0,0764973
1162,8656;0,0747904
1163,8298;0,0727966
1164,7941;0,0705795
1165,7583;0,0682208
1166,7225;0,0658106
1167,6868;0,0634362
1168,6510;0,0611724
1169,6152;0,0590735
1170,5795;0,0571707
1171,5437;0,0554737
1172,5079;0,0539768
1173,4722;0,0526661
1174,4364;0,051524
1175,4006;0,0505333
1176,3649;0,0496777
1177,3291;0,048943
1178,2933;0,0483178
1179,2576;0,0477924
1180,2218;0,0473567
1181,1860;0,0469975
1182,1503;0,0466985
1183,1145;0,0464441
1184,0787;0,0462253
1185,0430;0,0460445
1186,0072;0,0459157
1186,9714;0,0458586
1187,9357;0,0458896
1188,8999;0,0460154
1189,8641;0,0462306
1190,8284;0,0465214
1191,7926;0,0468717
1192,7568;0,0472692
1193,7211;0,0477085
1194,6853;0,0481909
1195,6495;0,048721
1196,6138;0,0493019
1197,5780;0,0499314
1198,5422;0,0505993
1199,5065;0,0513125
1200,4707;0,0520037
1201,4349;0,0526831
1202,3992;0,0533427
1203,3634;0,0539825
1204,3276;0,0546085
1205,2919;0,0552289
1206,2561;0,0558503
1207,2203;0,0564774
1208,1846;0,0571141
1209,1488;0,0577667
1210,1130;0,0584461
1211,0773;0,0591661
1212,0415;0,0599392
1213,0057;0,060771
1213,9700;0,0616568
1214,9342;0,0625816
1215,8984;0,0635243
1216,8627;0,0644637
1217,8269;0,0653832
1218,7911;0,0662727
1219,7554;0,0671295
1220,7196;0,0679549
1221,6838;0,0687518
1222,6481;0,0695203
1223,6123;0,0702559
1224,5765;0,0709492
1225,5408;0,0715896
1226,5050;0,0721696
1227,4692;0,0726891
1228,4335;0,0731553
1229,3977;0,0735789
1230,3619;0,0739673
1231,3262;0,0743212
1232,2904;0,0746346
1233,2546;0,0749001
1234,2189;0,0751142
1235,1831;0,0752806
1236,1473;0,0754077
1237,1116;0,0755033
1238,0758;0,0755702
1239,0400;0,0756054
1240,0043;0,0756028
1240,9685;0,0755578
1241,9327;0,0754692
1242,8970;0,0753375
1243,8612;0,0751634
1244,8254;0,0749458
1245,7897;0,0746839
1246,7539;0,0743805
1247,7181;0,074043
1248,6824;0,0736818
1249,6466;0,073306
1250,6108;0,0729202
1251,5751;0,0725243
1252,5393;0,0721175
1253,5035;0,0717016
1254,4678;0,0712815
1255,4320;0,0708621
1256,3962;0,070445
1257,3605;0,0700265
1258,3247;0,0696005
1259,2889;0,0691613
1260,2532;0,0687053
1261,2174;0,0682299
1262,1816;0,0677306
1263,1459;0,0672013
1264,1101;0,0666361
1265,0743;0,0660328
1266,0386;0,0653934
1267,0028;0,064722
1267,9670;0,0640229
1268,9313;0,0632998
1269,8955;0,0625576
1270,8597;0,0618049
1271,8240;0,0610519
1272,7882;0,0603074
1273,7524;0,059575
1274,7167;0,0588541
1275,6809;0,0581432
1276,6451;0,0574439
1277,6094;0,0567607
1278,5736;0,0560981
1279,5378;0,0554566
1280,5021;0,0548327
1281,4663;0,0542235
1282,4305;0,0536311
1283,3948;0,0530641
1284,3590;0,0525336
1285,3232;0,0520485
1286,2875;0,0516121
1287,2517;0,0512238
1288,2159;0,0508823
1289,1802;0,0505889
1290,1444;0,0503469
1291,1086;0,0501593
1292,0729;0,0500274
1293,0371;0,0499508
1294,0013;0,0499292
1294,9656;0,049964
1295,9298;0,050057
1296,8940;0,0502086
1297,8583;0,0504165
1298,8225;0,0506759
1299,7867;0,0509806
1300,7510;0,0513241
1301,7152;0,0517004
1302,6794;0,0521055
1303,6437;0,0525385
1304,6079;0,0530014
1305,5721;0,0534976
1306,5364;0,0540282
1307,5006;0,0545886
1308,4648;0,0551687
1309,4291;0,0557553
1310,3933;0,0563362
1311,3575;0,0569015
1312,3218;0,0574416
1313,2860;0,057944
1314,2502;0,0583907
1315,2145;0,0587596
1316,1787;0,0590292
1317,1429;0,0591848
1318,1072;0,0592257
1319,0714;0,059168
1320,0356;0,0590405
1320,9999;0,0588757
1321,9641;0,0587007
1322,9283;0,0585337
1323,8926;0,0583853
1324,8568;0,0582611
1325,8210;0,0581622
1326,7853;0,0580845
1327,7495;0,0580186
1328,7137;0,0579515
1329,6780;0,0578697
1330,6422;0,0577622
1331,6064;0,0576214
1332,5707;0,0574428
1333,5349;0,0572226
1334,4991;0,0569541
1335,4634;0,0566261
1336,4276;0,0562266
1337,3918;0,0557531
1338,3561;0,0552275
1339,3203;0,0546978
1340,2845;0,0542175
1341,2488;0,053817
1342,2130;0,0534949
1343,1772;0,0532334
1344,1415;0,0530165
1345,1057;0,0528389
1346,0699;0,0527063
1347,0342;0,0526303
1347,9984;0,0526213
1348,9626;0,0526841
1349,9269;0,052816
1350,8911;0,0530091
1351,8553;0,0532538
1352,8196;0,0535432
1353,7838;0,0538756
1354,7480;0,0542538
1355,7123;0,0546791
1356,6765;0,055147
1357,6407;0,0556463
1358,6050;0,0561634
1359,5692;0,0566865
1360,5334;0,057206
1361,4977;0,057713
1362,4619;0,0581957
1363,4261;0,058642
1364,3904;0,0590451
1365,3546;0,0594069
1366,3188;0,0597339
1367,2831;0,0600284
1368,2473;0,0602848
1369,2115;0,0604897
1370,1758;0,0606241
1371,1400;0,0606665
1372,1042;0,0605979
1373,0685;0,0604121
1374,0327;0,0601281
1374,9969;0,0597869
1375,9612;0,0594246
1376,9254;0,0590453
1377,8896;0,0586215
1378,8539;0,05812
1379,8181;0,0575323
1380,7823;0,0568877
1381,7466;0,0562376
1382,7108;0,0556189
1383,6750;0,0550277
1384,6393;0,0544258
1385,6035;0,0537782
1386,5677;0,053102
1387,5320;0,0524782
1388,4962;0,051997
1389,4604;0,0516902
1390,4247;0,0515252
1391,3889;0,0514423
1392,3531;0,0513868
1393,3174;0,0513248
1394,2816;0,0512504
1395,2458;0,0511831
1396,2101;0,0511518
1397,1743;0,0511766
1398,1385;0,0512619
1399,1028;0,051401
1400,0670;0,0515826
1401,0313;0,0517947
1401,9955;0,0520282
1402,9597;0,0522794
1403,9240;0,0525515
1404,8882;0,0528524
1405,8524;0,0531877
1406,8167;0,0535552
1407,7809;0,0539477
1408,7451;0,0543609
1409,7094;0,0547969
1410,6736;0,0552601
1411,6378;0,0557503
1412,6021;0,0562588
1413,5663;0,0567725
1414,5305;0,0572785
1415,4948;0,0577634
1416,4590;0,0582091
1417,4232;0,058594
1418,3875;0,0589038
1419,3517;0,0591356
1420,3159;0,0592896
1421,2802;0,0593585
1422,2444;0,0593305
1423,2086;0,0591976
1424,1729;0,0589658
1425,1371;0,0586534
1426,1013;0,0582735
1427,0656;0,0578165
1428,0298;0,0572563
1428,9940;0,0565862
1429,9583;0,0558547
1430,9225;0,0551521
1431,8867;0,0545471
1432,8510;0,0540362
1433,8152;0,0535481
1434,7794;0,0529925
1435,7437;0,0523383
1436,7079;0,0516724
1437,6721;0,0511425
1438,6364;0,0508243
1439,6006;0,0506914
1440,5648;0,0506843
1441,5291;0,0507599
1442,4933;0,050897
1443,4575;0,0510861
1444,4218;0,051319
1445,3860;0,0515848
1446,3502;0,0518714
1447,3145;0,0521687
1448,2787;0,052468
1449,2429;0,0527619
1450,2072;0,0530449
1451,1714;0,053315
1452,1356;0,0535683
1453,0999;0,0537841
1454,0641;0,0539049
1455,0283;0,0538301
1455,9926;0,0534786
1456,9568;0,0529511
1457,9210;0,0525312
1458,8853;0,0523628
1459,8495;0,0523619
1460,8137;0,0523983
1461,7780;0,0523605
1462,7422;0,0521352
1463,7064;0,0516245
1464,6707;0,0508277
1465,6349;0,0498882
1466,5991;0,0489886
1467,5634;0,0482035
1468,5276;0,0474758
1469,4918;0,0466685
1470,4561;0,0456121
1471,4203;0,0441803
1472,3845;0,0424346
1473,3488;0,0406925
1474,3130;0,0392841
1475,2772;0,0382733
1476,2415;0,0375323
1477,2057;0,0369327
1478,1699;0,0364086
1479,1342;0,0359383
1480,0984;0,03552
1481,0626;0,035161
1482,0269;0,0348731
1482,9911;0,0346661
1483,9553;0,0345384
1484,9196;0,0344726
1485,8838;0,0344414
1486,8480;0,0344257
1487,8123;0,0344449
1488,7765;0,0345679
1489,7407;0,0348518
1490,7050;0,0352697
1491,6692;0,0357475
1492,6334;0,0362402
1493,5977;0,0367433
1494,5619;0,0372705
1495,5261;0,0378425
1496,4904;0,0384862
1497,4546;0,0392186
1498,4188;0,0400145
1499,3831;0,0408141
1500,3473;0,041573
1501,3115;0,0422805
1502,2758;0,0429364
1503,2400;0,0435224
1504,2042;0,0439774
1505,1685;0,0441913
1506,1327;0,0440748
1507,0969;0,0437355
1508,0612;0,0434366
1509,0254;0,0432679
1509,9896;0,0431572
1510,9539;0,0430383
1511,9181;0,042868
1512,8823;0,0426012
1513,8466;0,0421924
1514,8108;0,0416242
1515,7750;0,0409345
1516,7393;0,0402048
1517,7035;0,0395032
1518,6677;0,0388393
1519,6320;0,0381795
1520,5962;0,0375119
1521,5604;0,03689
1522,5247;0,0363978
1523,4889;0,0360768
1524,4531;0,0359076
1525,4174;0,0358459
1526,3816;0,0358567
1527,3458;0,0359225
1528,3101;0,0360334
1529,2743;0,0361781
1530,2385;0,0363416
1531,2028;0,0365126
1532,1670;0,0366968
1533,1312;0,0369209
1534,0955;0,0372087
1535,0597;0,0375547
1536,0239;0,0379262
1536,9882;0,0382702
1537,9524;0,0385006
1538,9166;0,0385012
1539,8809;0,0382263
1540,8451;0,0378742
1541,8093;0,0377374
1542,7736;0,0378356
1543,7378;0,0380196
1544,7020;0,0381942
1545,6663;0,0383345
1546,6305;0,038443
1547,5947;0,0385237
1548,5590;0,0385717
1549,5232;0,0385752
1550,4874;0,0385289
1551,4517;0,0384506
1552,4159;0,038381
1553,3801;0,0383615
1554,3444;0,0384033
1555,3086;0,0384632
1556,2728;0,0384283
1557,2371;0,0381517
1558,2013;0,0376454
1559,1655;0,0372298
1560,1298;0,0371268
1561,0940;0,0372341
1562,0582;0,0374239
1563,0225;0,0376484
1563,9867;0,0378891
1564,9509;0,0381237
1565,9152;0,0383242
1566,8794;0,0384738
1567,8436;0,0385901
1568,8079;0,03873
1569,7721;0,0389488
1570,7363;0,0392523
1571,7006;0,0396044
1572,6648;0,0399662
1573,6290;0,0403125
1574,5933;0,0406382
1575,5575;0,0409688
1576,5217;0,0413513
1577,4860;0,0418032
1578,4502;0,0422982
1579,4144;0,0428115
1580,3787;0,0433399
1581,3429;0,0438848
1582,3071;0,0444411
1583,2714;0,0450008
1584,2356;0,0455623
1585,1998;0,0461321
1586,1641;0,0467169
1587,1283;0,0473127
1588,0925;0,0479001
1589,0568;0,0484504
1590,0210;0,0489344
1590,9852;0,0493288
1591,9495;0,0496155
1592,9137;0,0497816
1593,8779;0,0498248
1594,8422;0,0497606
1595,8064;0,0496212
1596,7706;0,0494424
1597,7349;0,0492495
1598,6991;0,0490531
1599,6633;0,0488558
1600,6276;0,0486635
1601,5918;0,0484905
1602,5560;0,0483555
1603,5203;0,0482703
1604,4845;0,0482313
1605,4487;0,0482202
1606,4130;0,0482166
1607,3772;0,0482145
1608,3414;0,0482321
1609,3057;0,048304
1610,2699;0,0484549
1611,2341;0,0486792
1612,1984;0,0489448
1613,1626;0,0492083
1614,1268;0,0494321
1615,0911;0,0496108
1616,0553;0,0497935
1617,0195;0,0500494
1617,9838;0,0503906
1618,9480;0,0507705
1619,9122;0,0511419
1620,8765;0,0514795
1621,8407;0,0517744
1622,8049;0,0520331
1623,7692;0,0522772
1624,7334;0,0525298
1625,6976;0,052801
1626,6619;0,0530889
1627,6261;0,0533869
1628,5903;0,0536892
1629,5546;0,0539914
1630,5188;0,0542893
1631,4830;0,0545704
1632,4473;0,0547998
1633,4115;0,0549142
1634,3757;0,0548565
1635,3400;0,0546687
1636,3042;0,0545172
1637,2684;0,0545219
1638,2327;0,0546518
1639,1969;0,0548295
1640,1611;0,0550127
1641,1254;0,0551894
1642,0896;0,0553501
1643,0538;0,0554613
1644,0181;0,0554517
1644,9823;0,0552437
1645,9465;0,0548572
1646,9108;0,054477
1647,8750;0,0543024
1648,8392;0,0543618
1649,8035;0,0545298
1650,7677;0,0545888
1651,7319;0,0542513
1652,6962;0,0533521
1653,6604;0,0522275
1654,6246;0,051427
1655,5889;0,0510251
1656,5531;0,0508133
1657,5173;0,0506297
1658,4816;0,0503784
1659,4458;0,0499829
1660,4100;0,0493874
1661,3743;0,0486097
1662,3385;0,0477776
1663,3027;0,0470547
1664,2670;0,046513
1665,2312;0,0461021
1666,1954;0,0456998
1667,1597;0,0451657
1668,1239;0,0444048
1669,0881;0,0434589
1670,0524;0,0425225
1671,0166;0,0417784
1671,9808;0,0412359
1672,9451;0,0407685
1673,9093;0,0402404
1674,8735;0,0395967
1675,8378;0,0388931
1676,8020;0,0382457
1677,7662;0,0377364
1678,7305;0,0373706
1679,6947;0,0370914
1680,6589;0,0367933
1681,6232;0,0363263
1682,5874;0,0355543
1683,5516;0,0345272
1684,5159;0,0335442
1685,4801;0,0328434
1686,4443;0,0323936
1687,4086;0,0320591
1688,3728;0,0317519
1689,3370;0,0314502
1690,3013;0,0311707
1691,2655;0,0309337
1692,2297;0,0307358
1693,1940;0,0305429
1694,1582;0,0303054
1695,1224;0,0299905
1696,0867;0,0296131
1697,0509;0,029237
1698,0151;0,0289301
1698,9794;0,0287149
1699,9436;0,028565
1700,9078;0,0284499
1701,8721;0,0283667
1702,8363;0,0283343
1703,8005;0,0283724
1704,7648;0,0284903
1705,7290;0,0286863
1706,6932;0,028949
1707,6575;0,0292622
1708,6217;0,0296123
1709,5859;0,0299929
1710,5502;0,0304
1711,5144;0,030823
1712,4786;0,0312396
1713,4429;0,0316199
1714,4071;0,0319428
1715,3713;0,0322241
1716,3356;0,0325349
1717,2998;0,032945
1718,2640;0,0334324
1719,2283;0,0339185
1720,1925;0,0343648
1721,1567;0,0347831
1722,1210;0,0351941
1723,0852;0,0356036
1724,0494;0,0359995
1725,0137;0,0363628
1725,9779;0,0366806
1726,9421;0,0369534
1727,9064;0,0371911
1728,8706;0,037401
1729,8348;0,0375722
1730,7991;0,0376655
1731,7633;0,0376213
1732,7275;0,0374058
1733,6918;0,0370708
1734,6560;0,0367263
1735,6202;0,0364339
1736,5845;0,0361732
1737,5487;0,0358856
1738,5129;0,0355139
1739,4772;0,0350285
1740,4414;0,0344439
1741,4056;0,0338104
1742,3699;0,033174
1743,3341;0,0325466
1744,2983;0,0319147
1745,2626;0,0312615
1746,2268;0,0305719
1747,1910;0,0298236
1748,1553;0,0289915
1749,1195;0,0280815
1750,0837;0,0271621
1751,0480;0,0263311
1752,0122;0,0256401
1752,9764;0,0250674
1753,9407;0,024551
1754,9049;0,0240311
1755,8691;0,0234791
1756,8334;0,022905
1757,7976;0,0223367
1758,7618;0,0217877
1759,7261;0,0212461
1760,6903;0,0206978
1761,6545;0,0201594
1762,6188;0,0196771
1763,5830;0,0192899
1764,5472;0,0189963
1765,5115;0,0187574
1766,4757;0,0185225
1767,4399;0,0182529
1768,4042;0,0179328
1769,3684;0,0175705
1770,3326;0,0171943
1771,2969;0,0168481
1772,2611;0,0165788
1773,2253;0,0164098
1774,1896;0,0163261
1775,1538;0,0162911
1776,1180;0,0162698
1777,0823;0,0162377
1778,0465;0,0161827
1779,0107;0,0161081
1779,9750;0,016031
1780,9392;0,0159704
1781,9034;0,0159324
1782,8677;0,0159092
1783,8319;0,0158909
1784,7961;0,0158764
1785,7604;0,0158733
1786,7246;0,0158881
1787,6888;0,0159157
1788,6531;0,0159356
1789,6173;0,0159159
1790,5815;0,0158313
1791,5458;0,0156917
1792,5100;0,0155486
1793,4742;0,015455
1794,4385;0,0154238
1795,4027;0,0154354
1796,3669;0,0154627
1797,3312;0,0154837
1798,2954;0,0154847
1799,2596;0,0154639
1800,2239;0,0154328
1801,1881;0,0154077
1802,1523;0,0153978
1803,1166;0,0154024
1804,0808;0,0154144
1805,0450;0,0154254
1806,0093;0,015427
1806,9735;0,0154121
1807,9377;0,0153774
1808,9020;0,0153281
1809,8662;0,0152785
1810,8304;0,0152467
1811,7947;0,0152433
1812,7589;0,0152661
1813,7231;0,015303
1814,6874;0,0153393
1815,6516;0,0153637
1816,6158;0,0153716
1817,5801;0,0153668
1818,5443;0,0153593
1819,5085;0,0153591
1820,4728;0,0153709
1821,4370;0,0153927
1822,4012;0,0154169
1823,3655;0,015434
1824,3297;0,0154355
1825,2939;0,0154154
1826,2582;0,0153708
1827,2224;0,0153042
1828,1866;0,0152268
1829,1509;0,0151604
1830,1151;0,0151291
1831,0793;0,015143
1832,0436;0,0151914
1833,0078;0,015255
1833,9720;0,0153174
1834,9363;0,0153688
1835,9005;0,0154047
1836,8647;0,0154259
1837,8290;0,0154376
1838,7932;0,0154468
1839,7574;0,0154591
1840,7217;0,0154747
1841,6859;0,0154876
1842,6501;0,0154878
1843,6144;0,0154688
1844,5786;0,0154318
1845,5428;0,0153847
1846,5071;0,0153392
1847,4713;0,0153095
1848,4355;0,0153066
1849,3998;0,0153315
1850,3640;0,015373
1851,3282;0,0154118
1852,2925;0,0154298
1853,2567;0,0154191
1854,2209;0,0153859
1855,1852;0,0153467
1856,1494;0,0153217
1857,1136;0,0153249
1858,0779;0,0153594
1859,0421;0,0154149
1860,0063;0,0154724
1860,9706;0,0155111
1861,9348;0,0155179
1862,8990;0,0154925
1863,8633;0,0154455
1864,8275;0,0153929
1865,7917;0,0153502
1866,7560;0,0153299
1867,7202;0,0153393
1868,6844;0,0153745
1869,6487;0,0154194
1870,6129;0,0154565
1871,5771;0,0154802
1872,5414;0,0154962
1873,5056;0,0155121
1874,4698;0,0155304
1875,4341;0,0155489
1876,3983;0,0155633
1877,3625;0,0155702
1878,3268;0,0155681
1879,2910;0,0155573
1880,2552;0,01554
1881,2195;0,0155216
1882,1837;0,0155112
1883,1479;0,0155187
1884,1122;0,0155497
1885,0764;0,0156012
1886,0406;0,0156605
1887,0049;0,0157092
1887,9691;0,015731
1888,9333;0,0157217
1889,8976;0,0156917
1890,8618;0,0156601
1891,8260;0,0156424
1892,7903;0,0156422
1893,7545;0,0156517
1894,7188;0,015658
1895,6830;0,0156518
1896,6472;0,0156333
1897,6115;0,0156122
1898,5757;0,0156002
1899,5399;0,0156046
1900,5042;0,0156248
1901,4684;0,015655
1902,4326;0,0156887
1903,3969;0,0157231
1904,3611;0,0157591
1905,3253;0,0157986
1906,2896;0,0158409
1907,2538;0,0158816
1908,2180;0,0159152
1909,1823;0,0159389
1910,1465;0,0159543
1911,1107;0,0159658
1912,0750;0,0159777
1913,0392;0,0159918
1914,0034;0,0160083
1914,9677;0,0160276
1915,9319;0,0160516
1916,8961;0,0160826
1917,8604;0,0161193
1918,8246;0,016154
1919,7888;0,0161758
1920,7531;0,0161778
1921,7173;0,0161611
1922,6815;0,0161331
1923,6458;0,0161028
1924,6100;0,0160747
1925,5742;0,0160481
1926,5385;0,0160207
1927,5027;0,0159942
1928,4669;0,015976
1929,4312;0,015977
1930,3954;0,0160061
1931,3596;0,016065
1932,3239;0,0161465
1933,2881;0,0162368
1934,2523;0,016318
1935,2166;0,0163731
1936,1808;0,0163924
1937,1450;0,0163802
1938,1093;0,016357
1939,0735;0,0163534
1940,0377;0,0163954
1941,0020;0,016486
1941,9662;0,0165952
1942,9304;0,0166702
1943,8947;0,0166698
1944,8589;0,0165963
1945,8231;0,0164966
1946,7874;0,0164336
1947,7516;0,0164515
1948,7158;0,0165531
1949,6801;0,0166979
1950,6443;0,0168219
1951,6085;0,0168668
1952,5728;0,0168039
1953,5370;0,0166413
1954,5012;0,0164172
1955,4655;0,0161864
1956,4297;0,0160071
1957,3939;0,0159286
1958,3582;0,0159787
1959,3224;0,0161537
1960,2866;0,0164136
1961,2509;0,0166919
1962,2151;0,0169202
1963,1793;0,0170516
1964,1436;0,0170729
1965,1078;0,0170008
1966,0720;0,0168721
1967,0363;0,0167312
1968,0005;0,0166192
1968,9647;0,0165622
1969,9290;0,0165654
1970,8932;0,0166118
1971,8574;0,0166702
1972,8217;0,016712
1973,7859;0,0167306
1974,7501;0,0167511
1975,7144;0,0168152
1976,6786;0,0169453
1977,6428;0,0171154
1978,6071;0,0172621
1979,5713;0,0173311
1980,5355;0,0173186
1981,4998;0,017272
1982,4640;0,017253
1983,4282;0,0172937
1984,3925;0,0173762
1985,3567;0,01745
1986,3209;0,0174753
1987,2852;0,0174585
1988,2494;0,0174505
1989,2136;0,0175051
1990,1779;0,0176299
1991,1421;0,0177675
1992,1063;0,0178291
1993,0706;0,0177606
1994,0348;0,017587
1994,9990;0,017399
1995,9633;0,0172966
1996,9275;0,0173333
1997,8917;0,0174895
1998,8560;0,0176878
1999,8202;0,0178393
2000,7844;0,0178958
2001,7487;0,0178747
2002,7129;0,0178459
2003,6771;0,0178899
2004,6414;0,0180522
2005,6056;0,0183148
2006,5698;0,0186012
2007,5341;0,018814
2008,4983;0,0188864
2009,4625;0,0188137
2010,4268;0,0186484
2011,3910;0,0184682
2012,3552;0,0183421
2013,3195;0,0183103
2014,2837;0,0183799
2015,2479;0,018531
2016,2122;0,018726
2017,1764;0,0189216
2018,1406;0,0190798
2019,1049;0,0191778
2020,0691;0,0192097
2021,0333;0,0191829
2021,9976;0,0191124
2022,9618;0,0190174
2023,9260;0,0189195
2024,8903;0,0188395
2025,8545;0,0187894
2026,8187;0,0187665
2027,7830;0,0187544
2028,7472;0,0187362
2029,7114;0,0187098
2030,6757;0,0186926
2031,6399;0,0187065
2032,6041;0,0187532
2033,5684;0,0188009
2034,5326;0,0188012
2035,4968;0,0187262
2036,4611;0,0185984
2037,4253;0,0184871
2038,3895;0,0184721
2039,3538;0,0185973
2040,3180;0,018842
2041,2822;0,019125
2042,2465;0,0193402
2043,2107;0,0194044
2044,1749;0,0192925
2045,1392;0,0190454
2046,1034;0,0187541
2047,0676;0,0185221
2048,0320;0,0184205
2048,9961;0,0184549
2049,9604;0,0185682
2050,9246;0,0186771
2051,8889;0,0187159
2052,8530;0,0186645
2053,8174;0,0185505
2054,7815;0,0184286
2055,7458;0,0183477
2056,7100;0,0183246
2057,6743;0,01834
2058,6384;0,0183573
2059,6028;0,0183502
2060,5669;0,0183188
2061,5313;0,0182868
2062,4954;0,0182849
2063,4597;0,0183325
2064,4238;0,0184284
2065,3882;0,0185529
2066,3523;0,0186757
2067,3167;0,0187638
2068,2808;0,0187866
2069,2451;0,0187225
2070,2092;0,0185679
2071,1736;0,0183477
2072,1377;0,018115
2073,1021;0,0179356
2074,0662;0,0178602
2075,0305;0,0178981
2075,9946;0,0180112
2076,9590;0,0181322
2077,9231;0,0181993
2078,8875;0,0181877
2079,8516;0,0181199
2080,8159;0,0180502
2081,7800;0,0180337
2082,7444;0,0180982
2083,7085;0,0182326
2084,6729;0,0183948
2085,6370;0,0185327
2086,6013;0,0186044
2087,5654;0,018592
2088,5298;0,0185044
2089,4939;0,018372
2090,4583;0,0182361
2091,4224;0,0181364
2092,3867;0,0180997
2093,3508;0,0181311
2094,3152;0,018212
2095,2793;0,0183052
2096,2437;0,018368
2097,2078;0,0183693
2098,1721;0,0183013
2099,1362;0,0181826
2100,1006;0,0180501
2101,0647;0,0179471
2102,0291;0,0179065
2102,9932;0,0179413
2103,9575;0,018041
2104,9216;0,0181765
2105,8860;0,0183124
2106,8501;0,0184201
2107,8145;0,0184872
2108,7786;0,018518
2109,7429;0,0185274
2110,7070;0,0185313
2111,6714;0,0185386
2112,6355;0,0185486
2113,5999;0,0185536
2114,5640;0,0185454
2115,5283;0,0185205
2116,4924;0,0184843
2117,4568;0,0184496
2118,4209;0,0184325
2119,3853;0,0184455
2120,3494;0,0184924
2121,3137;0,0185665
2122,2778;0,0186533
2123,2422;0,018737
2124,2063;0,0188052
2125,1707;0,0188511
2126,1348;0,018873
2127,0991;0,0188721
2128,0632;0,0188533
2129,0276;0,0188256
2129,9917;0,0188023
2130,9561;0,0187981
2131,9202;0,0188227
2132,8845;0,0188768
2133,8486;0,0189537
2134,8130;0,0190483
2135,7771;0,0191656
2136,7415;0,0193208
2137,7056;0,0195265
2138,6699;0,0197747
2139,6340;0,0200274
2140,5984;0,0202265
2141,5625;0,0203205
2142,5269;0,0202924
2143,4910;0,0201739
2144,4553;0,020034
2145,4194;0,0199485
2146,3838;0,0199681
2147,3479;0,0201014
2148,3123;0,0203197
2149,2764;0,020577
2150,2407;0,0208298
2151,2048;0,0210492
2152,1692;0,021224
2153,1333;0,021359
2154,0977;0,0214721
2155,0618;0,0215876
2156,0261;0,0217223
2156,9902;0,0218706
2157,9546;0,0220003
2158,9187;0,0220739
2159,8831;0,022085
2160,8472;0,0220683
2161,8115;0,0220708
2162,7756;0,0221099
2163,7400;0,022154
2164,7041;0,0221391
2165,6685;0,0220097
2166,6326;0,0217569
2167,5969;0,0214277
2168,5610;0,0210988
2169,5254;0,0208355
2170,4895;0,0206619
2171,4539;0,0205598
2172,4180;0,0204905
2173,3823;0,0204231
2174,3464;0,0203511
2175,3108;0,0202875
2176,2749;0,020245
2177,2393;0,0202184
2178,2034;0,0201816
2179,1677;0,0201043
2180,1318;0,0199757
2181,0962;0,019821
2182,0603;0,0196978
2183,0247;0,0196694
2183,9888;0,0197691
2184,9531;0,019977
2185,9172;0,0202256
2186,8816;0,0204304
2187,8457;0,020528
2188,8101;0,0205008
2189,7742;0,0203776
2190,7385;0,0202118
2191,7026;0,0200525
2192,6670;0,0199259
2193,6311;0,0198337
2194,5955;0,019765
2195,5596;0,0197111
2196,5239;0,0196721
2197,4880;0,0196535
2198,4524;0,0196574
2199,4165;0,0196744
2200,3809;0,0196845
2201,3450;0,0196663
2202,3093;0,0196109
2203,2734;0,0195315
2204,2378;0,0194613
2205,2019;0,0194387
2206,1663;0,0194849
2207,1304;0,0195896
2208,0947;0,0197115
2209,0588;0,0197971
2210,0232;0,0198068
2210,9873;0,0197334
2211,9517;0,0196018
2212,9158;0,0194531
2213,8801;0,0193216
2214,8442;0,0192226
2215,8086;0,0191531
2216,7727;0,0191048
2217,7371;0,0190756
2218,7012;0,0190718
2219,6655;0,0190998
2220,6296;0,019156
2221,5940;0,0192223
2222,5581;0,0192711
2223,5225;0,0192779
2224,4866;0,0192321
2225,4509;0,0191406
2226,4150;0,0190239
2227,3794;0,018906
2228,3435;0,018806
2229,3079;0,0187325
2230,2720;0,0186848
2231,2363;0,0186561
2232,2004;0,0186393
2233,1648;0,0186301
2234,1289;0,0186282
2235,0933;0,0186356
2236,0574;0,0186542
2237,0217;0,0186843
2237,9858;0,0187242
2238,9502;0,0187713
2239,9143;0,0188215
2240,8787;0,0188678
2241,8428;0,0188994
2242,8071;0,0189037
2243,7712;0,0188711
2244,7356;0,0188014
2245,6997;0,0187054
2246,6641;0,0186009
2247,6282;0,0185042
2248,5925;0,0184251
2249,5566;0,0183669
2250,5210;0,0183317
2251,4851;0,0183231
2252,4495;0,0183429
2253,4136;0,0183834
2254,3779;0,0184223
2255,3420;0,0184295
2256,3064;0,0183837
2257,2705;0,0182867
2258,2349;0,0181666
2259,1990;0,0180624
2260,1633;0,0180028
2261,1274;0,0179909
2262,0918;0,0180051
2263,0559;0,0180151
2264,0203;0,0180009
2264,9844;0,0179641
2265,9487;0,0179239
2266,9128;0,0179037
2267,8772;0,0179166
2268,8413;0,0179597
2269,8057;0,0180164
2270,7698;0,0180647
2271,7341;0,0180859
2272,6982;0,0180701
2273,6626;0,0180198
2274,6267;0,0179492
2275,5911;0,0178809
2276,5552;0,0178372
2277,5195;0,0178313
2278,4836;0,0178592
2279,4480;0,0179013
2280,4121;0,0179307
2281,3765;0,0179284
2282,3406;0,0178937
2283,3049;0,0178458
2284,2690;0,0178132
2285,2334;0,0178186
2286,1975;0,0178653
2287,1619;0,0179356
2288,1260;0,0179993
2289,0903;0,0180291
2290,0544;0,0180138
2291,0188;0,0179616
2291,9829;0,0178933
2292,9473;0,0178312
2293,9114;0,0177887
2294,8757;0,0177674
2295,8398;0,0177613
2296,8042;0,0177638
2297,7683;0,0177739
2298,7327;0,0177973
2299,6968;0,0178415
2300,6611;0,017908
2301,6252;0,0179876
2302,5896;0,0180609
2303,5537;0,0181066
2304,5181;0,0181136
2305,4822;0,0180902
2306,4465;0,0180649
2307,4106;0,0180743
2308,3750;0,0181439
2309,3391;0,0182712
2310,3035;0,018423
2311,2676;0,0185514
2312,2319;0,0186186
2313,1960;0,0186166
2314,1604;0,0185688
2315,1245;0,0185145
2316,0889;0,018489
2317,0530;0,0185106
2318,0173;0,0185769
2318,9814;0,0186688
2319,9458;0,0187574
2320,9099;0,0188121
2321,8743;0,018808
2322,8384;0,0187353
2323,8027;0,0186033
2324,7668;0,0184389
2325,7312;0,0182768
2326,6953;0,0181486
2327,6597;0,0180745
2328,6238;0,0180593
2329,5881;0,0180917
2330,5522;0,0181487
2331,5166;0,0182017
2332,4807;0,0182243
2333,4451;0,0181973
2334,4092;0,0181083
2335,3735;0,0179523
2336,3376;0,0177357
2337,3020;0,0174824
2338,2661;0,0172342
2339,2305;0,0170391
2340,1946;0,0169364
2341,1589;0,0169498
2342,1230;0,0170839
2343,0874;0,0173129
2344,0515;0,0175625
2345,0159;0,0177354
2345,9800;0,0177826
2346,9443;0,0177371
2347,9084;0,0176756
2348,8728;0,0176635
2349,8369;0,0177268
2350,8013;0,0178504
2351,7654;0,0179957
2352,7297;0,0181281
2353,6938;0,0182344
2354,6582;0,0183116
2355,6223;0,0183443
2356,5867;0,0183095
2357,5508;0,0182058
2358,5151;0,0180673
2359,4792;0,0179425
2360,4436;0,0178627
2361,4077;0,0178298
2362,3721;0,0178313
2363,3362;0,0178561
2364,3005;0,0178957
2365,2646;0,01794
2366,2290;0,017979
2367,1931;0,0180107
2368,1575;0,0180445
2369,1216;0,0180953
2370,0859;0,0181725
2371,0500;0,0182729
2372,0144;0,0183805
2372,9785;0,018473
2373,9429;0,0185287
2374,9070;0,0185351
2375,8713;0,0184929
2376,8354;0,018417
2377,7998;0,0183309
2378,7639;0,0182578
2379,7283;0,0182112
2380,6924;0,0181912
2381,6567;0,0181875
2382,6208;0,0181875
2383,5852;0,0181842
2384,5493;0,0181796
2385,5137;0,0181814
2386,4778;0,0181968
2387,4421;0,0182259
2388,4063;0,018261
2389,3706;0,0182919
2390,3347;0,018313
2391,2991;0,0183285
2392,2632;0,0183498
2393,2275;0,0183873
2394,1917;0,0184424
2395,1560;0,0185051
2396,1201;0,0185589
2397,0845;0,0185902
2398,0486;0,0185955
2399,0129;0,0185829
2399,9771;0,018566
2400,9414;0,018556
2401,9055;0,0185562
2402,8699;0,0185618
2403,8340;0,0185652
2404,7983;0,0185625
2405,7625;0,0185566
2406,7268;0,0185566
2407,6909;0,0185719
2408,6553;0,0186063
2409,6194;0,0186553
2410,5837;0,0187082
2411,5479;0,0187535
2412,5122;0,0187845
2413,4763;0,0188015
2414,4407;0,0188104
2415,4048;0,0188178
2416,3691;0,0188276
2417,3333;0,0188401
2418,2976;0,0188537
2419,2617;0,0188672
2420,2261;0,0188807
2421,1902;0,0188947
2422,1545;0,0189077
2423,1187;0,0189167
2424,0830;0,0189185
2425,0471;0,0189128
2426,0115;0,0189038
2426,9756;0,0188999
2427,9399;0,0189102
2428,9041;0,0189407
2429,8684;0,0189909
2430,8325;0,0190535
2431,7969;0,0191158
2432,7610;0,0191639
2433,7253;0,0191874
2434,6895;0,0191835
2435,6538;0,0191586
2436,6179;0,0191262
2437,5823;0,0191015
2438,5464;0,0190957
2439,5107;0,0191121
2440,4749;0,0191456
2441,4392;0,0191873
2442,4033;0,0192291
2443,3677;0,0192672
2444,3318;0,0193023
2445,2961;0,0193366
2446,2603;0,0193706
2447,2246;0,0194015
2448,1887;0,019424
2449,1531;0,019434
2450,1172;0,0194314
2451,0815;0,0194219
2452,0457;0,0194156
2453,0100;0,0194231
2453,9741;0,0194505
2454,9385;0,0194965
2455,9026;0,0195528
2456,8669;0,0196072
2457,8311;0,019649
2458,7954;0,0196731
2459,7595;0,0196801
2460,7239;0,019675
2461,6880;0,0196635
2462,6523;0,0196505
2463,6165;0,0196397
2464,5808;0,0196346
2465,5449;0,0196385
2466,5093;0,019653
2467,4734;0,0196768
2468,4377;0,0197051
2469,4019;0,0197312
2470,3662;0,0197493
2471,3303;0,0197572
2472,2947;0,0197566
2473,2588;0,0197527
2474,2231;0,0197525
2475,1873;0,0197625
2476,1516;0,0197865
2477,1157;0,0198235
2478,0801;0,0198668
2479,0442;0,0199059
2480,0085;0,0199309
2480,9727;0,0199379
2481,9370;0,0199306
2482,9011;0,019918
2483,8655;0,019909
2484,8296;0,0199074
2485,7939;0,0199118
2486,7581;0,0199191
2487,7224;0,0199293
2488,6865;0,0199468
2489,6509;0,0199768
2490,6150;0,0200202
2491,5793;0,0200709
2492,5435;0,0201171
2493,5078;0,0201477
2494,4719;0,0201574
2495,4363;0,0201485
2496,4004;0,0201292
2497,3647;0,0201085
2498,3289;0,0200932
2499,2932;0,0200861
2500,2573;0,0200873
2501,2217;0,020096
2502,1858;0,0201119
2503,1501;0,0201354
2504,1143;0,0201663
2505,0786;0,0202009
2506,0427;0,020231
2507,0071;0,0202454
2507,9712;0,0202353
2508,9355;0,0202007
2509,8997;0,0201534
2510,8640;0,0201142
2511,8281;0,0201034
2512,7925;0,020131
2513,7566;0,0201913
2514,7209;0,0202661
2515,6851;0,020334
2516,6494;0,02038
2517,6135;0,0203999
2518,5779;0,0203991
2519,5420;0,0203875
2520,5063;0,0203748
2521,4705;0,0203674
2522,4348;0,0203681
2523,3989;0,0203755
2524,3633;0,0203843
2525,3274;0,0203875
2526,2917;0,0203805
2527,2559;0,0203647
2528,2202;0,0203494
2529,1843;0,0203475
2530,1487;0,0203689
2531,1128;0,0204127
2532,0771;0,0204664
2533,0413;0,0205105
2534,0056;0,0205278
2534,9697;0,0205114
2535,9341;0,0204682
2536,8982;0,0204145
2537,8625;0,020369
2538,8267;0,020345
2539,7910;0,0203467
2540,7551;0,0203699
2541,7195;0,0204057
2542,6836;0,0204449
2543,6479;0,0204805
2544,6121;0,0205085
2545,5764;0,020527
2546,5405;0,0205352
2547,5049;0,020534
2548,4690;0,0205254
2549,4333;0,0205134
2550,3975;0,0205021
2551,3618;0,0204956
2552,3259;0,0204959
2553,2903;0,0205035
2554,2544;0,020518
2555,2188;0,0205385
2556,1829;0,0205637
2557,1472;0,0205915
2558,1113;0,0206177
2559,0757;0,0206371
2560,0398;0,0206449
2561,0042;0,0206394
2561,9683;0,0206239
2562,9326;0,0206057
2563,8967;0,0205932
2564,8611;0,0205916
2565,8252;0,0205997
2566,7896;0,0206108
2567,7537;0,0206171
2568,7180;0,020615
2569,6821;0,020608
2570,6465;0,0206052
2571,6106;0,0206151
2572,5750;0,0206398
2573,5391;0,0206724
2574,5034;0,0207008
2575,4675;0,0207148
2576,4319;0,0207126
2577,3960;0,0207013
2578,3604;0,0206924
2579,3245;0,0206947
2580,2888;0,0207096
2581,2529;0,0207318
2582,2173;0,0207535
2583,1814;0,0207698
2584,1458;0,0207801
2585,1099;0,020787
2586,0742;0,0207928
2587,0383;0,0207984
2588,0027;0,0208028
2588,9668;0,0208055
2589,9312;0,0208073
2590,8953;0,0208106
2591,8596;0,0208183
2592,8237;0,0208334
2593,7881;0,0208573
2594,7522;0,0208894
2595,7166;0,0209258
2596,6807;0,0209602
2597,6450;0,0209856
2598,6091;0,0209981
2599,5735;0,0209998
2600,5376;0,020998
2601,5020;0,0210021
2602,4661;0,0210179
2603,4304;0,0210449
2604,3945;0,0210773
2605,3589;0,0211082
2606,3230;0,0211334
2607,2874;0,0211522
2608,2515;0,021166
2609,2158;0,0211752
2610,1799;0,0211799
2611,1443;0,0211811
2612,1084;0,0211827
2613,0728;0,0211908
2614,0369;0,0212094
2615,0012;0,0212375
2615,9653;0,0212682
2616,9297;0,0212933
2617,8938;0,0213082
2618,8582;0,0213148
2619,8223;0,0213202
2620,7866;0,0213308
2621,7507;0,0213482
2622,7151;0,021369
2623,6792;0,0213877
2624,6436;0,0214015
2625,6077;0,0214122
2626,5720;0,0214253
2627,5361;0,0214457
2628,5005;0,0214746
2629,4646;0,0215089
2630,4290;0,0215427
2631,3931;0,0215701
2632,3574;0,0215885
2633,3215;0,0215992
2634,2859;0,021607
2635,2500;0,0216181
2636,2144;0,0216368
2637,1785;0,0216638
2638,1428;0,0216954
2639,1069;0,0217253
2640,0713;0,0217484
2641,0354;0,0217629
2641,9998;0,0217716
2642,9639;0,0217801
2643,9282;0,0217936
2644,8923;0,0218145
2645,8567;0,0218424
2646,8208;0,021875
2647,7852;0,0219095
2648,7493;0,0219435
2649,7136;0,0219747
2650,6777;0,0220006
2651,6421;0,0220196
2652,6062;0,0220317
2653,5706;0,0220394
2654,5347;0,0220469
2655,4990;0,022058
2656,4631;0,0220738
2657,4275;0,0220922
2658,3916;0,0221101
2659,3560;0,0221253
2660,3201;0,0221381
2661,2844;0,0221506
2662,2485;0,0221645
2663,2129;0,02218
2664,1770;0,0221955
2665,1414;0,0222098
2666,1055;0,0222229
2667,0698;0,0222361
2668,0339;0,0222514
2668,9983;0,0222694
2669,9624;0,0222899
2670,9268;0,0223125
2671,8909;0,0223383
2672,8552;0,0223687
2673,8193;0,0224038
2674,7837;0,0224408
2675,7478;0,0224742
2676,7122;0,0224987
2677,6763;0,022513
2678,6406;0,0225214
2679,6047;0,0225319
2680,5691;0,0225516
2681,5332;0,0225822
2682,4976;0,0226192
2683,4617;0,022654
2684,4260;0,0226796
2685,3901;0,0226941
2686,3545;0,0227015
2687,3186;0,022709
2688,2830;0,022723
2689,2471;0,0227463
2690,2114;0,022778
2691,1755;0,0228149
2692,1399;0,0228534
2693,1040;0,022891
2694,0684;0,0229255
2695,0325;0,0229549
2695,9968;0,0229775
2696,9609;0,0229931
2697,9253;0,0230043
2698,8894;0,0230154
2699,8538;0,0230315
2700,8179;0,0230561
2701,7822;0,0230896
2702,7463;0,0231299
2703,7107;0,0231737
2704,6748;0,0232171
2705,6392;0,0232568
2706,6033;0,0232901
2707,5676;0,0233155
2708,5317;0,0233336
2709,4961;0,023348
2710,4602;0,0233635
2711,4246;0,023385
2712,3887;0,0234142
2713,3530;0,0234491
2714,3171;0,023485
2715,2815;0,0235177
2716,2456;0,0235453
2717,2100;0,0235692
2718,1741;0,0235923
2719,1384;0,0236174
2720,1025;0,0236455
2721,0669;0,0236759
2722,0310;0,0237064
2722,9954;0,0237349
2723,9595;0,0237593
2724,9238;0,0237784
2725,8879;0,0237925
2726,8523;0,023804
2727,8164;0,0238175
2728,7808;0,0238383
2729,7449;0,0238699
2730,7092;0,0239119
2731,6733;0,0239594
2732,6377;0,0240041
2733,6018;0,0240385
2734,5662;0,0240587
2735,5303;0,0240664
2736,4946;0,0240673
2737,4587;0,0240683
2738,4231;0,0240749
2739,3872;0,0240898
2740,3516;0,0241133
2741,3157;0,024144
2742,2800;0,0241796
2743,2441;0,0242162
2744,2085;0,0242482
2745,1726;0,0242701
2746,1370;0,0242788
2747,1011;0,0242769
2748,0654;0,0242728
2749,0295;0,0242776
2749,9939;0,0242999
2750,9580;0,0243413
2751,9224;0,0243958
2752,8865;0,0244526
2753,8508;0,0245022
2754,8149;0,0245398
2755,7793;0,0245672
2756,7434;0,0245895
2757,7078;0,0246125
2758,6719;0,0246391
2759,6362;0,0246692
2760,6003;0,0247009
2761,5647;0,0247313
2762,5288;0,0247585
2763,4932;0,0247819
2764,4573;0,0248023
2765,4216;0,0248228
2766,3857;0,0248474
2767,3501;0,0248797
2768,3142;0,0249208
2769,2786;0,0249679
2770,2427;0,0250148
2771,2070;0,0250549
2772,1711;0,0250846
2773,1355;0,025106
2774,0996;0,0251262
2775,0640;0,0251541
2776,0281;0,0251956
2776,9924;0,0252506
2777,9565;0,0253133
2778,9209;0,0253754
2779,8850;0,0254302
2780,8494;0,0254755
2781,8135;0,0255138
2782,7778;0,0255498
2783,7419;0,0255871
2784,7063;0,0256271
2785,6704;0,0256685
2786,6348;0,0257097
2787,5989;0,0257505
2788,5632;0,0257927
2789,5273;0,025839
2790,4917;0,0258922
2791,4558;0,0259534
2792,4202;0,0260217
2793,3843;0,0260945
2794,3486;0,0261671
2795,3127;0,0262349
2796,2771;0,0262948
2797,2412;0,026347
2798,2056;0,0263966
2799,1697;0,0264514
2800,1340;0,0265182
2801,0981;0,0265994
2802,0625;0,0266914
2803,0266;0,026786
2803,9910;0,0268749
2804,9551;0,026954
2805,9194;0,0270249
2806,8835;0,0270937
2807,8479;0,0271676
2808,8120;0,0272512
2809,7764;0,0273449
2810,7405;0,027445
2811,7048;0,0275455
2812,6689;0,0276422
2813,6333;0,027734
2814,5974;0,0278245
2815,5618;0,0279194
2816,5259;0,0280232
2817,4902;0,0281362
2818,4543;0,0282542
2819,4187;0,0283719
2820,3828;0,0284873
2821,3472;0,0286035
2822,3113;0,0287276
2823,2756;0,0288662
2824,2397;0,0290213
2825,2041;0,0291894
2826,1682;0,0293646
2827,1326;0,0295418
2828,0967;0,0297196
2829,0610;0,0298997
2830,0251;0,0300846
2830,9895;0,0302761
2831,9536;0,0304745
2832,9180;0,0306804
2833,8821;0,0308953
2834,8464;0,031122
2835,8105;0,031364
2836,7749;0,0316248
2837,7390;0,0319077
2838,7034;0,0322163
2839,6675;0,0325554
2840,6318;0,0329306
2841,5959;0,0333484
2842,5603;0,033814
2843,5244;0,0343284
2844,4888;0,0348839
2845,4529;0,03546
2846,4172;0,0360224
2847,3813;0,0365277
2848,3457;0,0369326
2849,3098;0,0372066
2850,2742;0,0373411
2851,2383;0,0373506
2852,2026;0,0372666
2853,1667;0,0371265
2854,1311;0,0369626
2855,0952;0,0367969
2856,0596;0,0366417
2857,0237;0,0365042
2857,9880;0,0363906
2858,9521;0,0363083
2859,9165;0,0362646
2860,8806;0,0362642
2861,8450;0,0363063
2862,8091;0,0363845
2863,7734;0,0364886
2864,7375;0,0366082
2865,7019;0,036735
2866,6660;0,0368641
2867,6304;0,0369925
2868,5945;0,0371169
2869,5588;0,0372321
2870,5229;0,037332
2871,4873;0,037413
2872,4514;0,037477
2873,4158;0,0375316
2874,3799;0,0375872
2875,3442;0,037651
2876,3083;0,0377237
2877,2727;0,0377997
2878,2368;0,0378713
2879,2012;0,037934
2880,1653;0,037989
2881,1296;0,0380416
2882,0938;0,038098
2883,0581;0,0381621
2884,0222;0,0382347
2884,9866;0,0383148
2885,9507;0,0384017
2886,9150;0,0384952
2887,8792;0,0385957
2888,8435;0,0387027
2889,8076;0,0388143
2890,7720;0,0389272
2891,7361;0,0390377
2892,7004;0,0391424
2893,6646;0,0392399
2894,6289;0,0393315
2895,5930;0,0394213
2896,5574;0,0395148
2897,5215;0,0396159
2898,4858;0,0397249
2899,4500;0,0398375
2900,4143;0,0399483
2901,3784;0,0400542
2902,3428;0,0401582
2903,3069;0,0402695
2904,2712;0,0403996
2905,2354;0,0405578
2906,1997;0,040747
2907,1638;0,0409649
2908,1282;0,041208
2909,0923;0,0414768
2910,0566;0,041777
2911,0208;0,0421157
2911,9851;0,0424929
2912,9492;0,0428951
2913,9136;0,0432931
2914,8777;0,0436487
2915,8420;0,0439257
2916,8062;0,0441003
2917,7705;0,0441657
2918,7346;0,0441304
2919,6990;0,0440116
2920,6631;0,0438297
2921,6274;0,0436039
2922,5916;0,0433508
2923,5559;0,043083
2924,5200;0,0428067
2925,4844;0,0425228
2926,4485;0,0422291
2927,4128;0,0419261
2928,3770;0,0416209
2929,3413;0,041327
2930,3054;0,0410578
2931,2698;0,0408192
2932,2339;0,0406056
2933,1982;0,0404017
2934,1624;0,0401911
2935,1267;0,0399631
2936,0908;0,0397161
2937,0552;0,0394552
2938,0193;0,0391864
2938,9836;0,038913
2939,9478;0,0386347
2940,9121;0,0383504
2941,8762;0,0380616
2942,8406;0,0377737
2943,8047;0,0374952
2944,7690;0,0372348
2945,7332;0,0369991
2946,6975;0,0367908
2947,6616;0,0366082
2948,6260;0,0364464
2949,5901;0,0362985
2950,5544;0,0361574
2951,5186;0,0360177
2952,4829;0,0358763
2953,4470;0,0357334
2954,4114;0,0355909
2955,3755;0,0354512
2956,3398;0,0353155
2957,3040;0,0351818
2958,2683;0,0350453
2959,2324;0,0348998
2960,1968;0,0347404
2961,1609;0,0345662
2962,1252;0,0343808
2963,0894;0,0341912
2964,0537;0,034005
2965,0178;0,0338266
2965,9822;0,0336555
2966,9463;0,0334862
2967,9106;0,0333102
2968,8748;0,0331195
2969,8391;0,0329097
2970,8032;0,0326825
2971,7676;0,0324456
2972,7317;0,032212
2973,6960;0,0319956
2974,6602;0,0318064
2975,6245;0,0316477
2976,5886;0,0315148
2977,5530;0,0313979
2978,5171;0,0312869
2979,4814;0,0311751
2980,4456;0,0310605
2981,4099;0,0309453
2982,3740;0,0308327
2983,3384;0,0307254
2984,3025;0,0306245
2985,2668;0,03053
2986,2310;0,0304417
2987,1953;0,0303595
2988,1594;0,0302835
2989,1238;0,0302144
2990,0879;0,0301537
2991,0522;0,0301032
2992,0164;0,0300645
2992,9807;0,030038
2993,9448;0,0300223
2994,9092;0,0300147
2995,8733;0,0300128
2996,8376;0,0300157
2997,8018;0,0300243
2998,7661;0,0300407
2999,7302;0,0300663
3000,6946;0,0301004
3001,6587;0,0301399
3002,6230;0,0301807
3003,5872;0,0302194
3004,5515;0,0302543
3005,5156;0,0302861
3006,4800;0,030315
3007,4441;0,03034
3008,4084;0,0303578
3009,3726;0,030365
3010,3369;0,0303622
3011,3010;0,0303559
3012,2654;0,0303581
3013,2295;0,0303811
3014,1938;0,0304309
3015,1580;0,0305043
3016,1223;0,0305903
3017,0864;0,0306757
3018,0508;0,0307518
3019,0149;0,0308165
3019,9792;0,0308737
3020,9434;0,0309289
3021,9077;0,0309857
3022,8718;0,0310455
3023,8362;0,0311084
3024,8003;0,031175
3025,7646;0,0312465
3026,7288;0,0313234
3027,6931;0,0314033
3028,6572;0,0314818
3029,6216;0,0315532
3030,5857;0,0316142
3031,5500;0,0316661
3032,5142;0,0317151
3033,4785;0,0317701
3034,4426;0,0318392
3035,4070;0,0319255
3036,3711;0,0320259
3037,3354;0,0321326
3038,2996;0,0322363
3039,2639;0,0323308
3040,2280;0,0324154
3041,1924;0,0324946
3042,1565;0,0325754
3043,1208;0,0326628
3044,0850;0,0327575
3045,0493;0,0328558
3046,0134;0,0329526
3046,9778;0,0330452
3047,9419;0,033135
3048,9063;0,0332264
3049,8704;0,0333239
3050,8347;0,0334284
3051,7988;0,033536
3052,7632;0,0336406
3053,7273;0,0337378
3054,6917;0,0338283
3055,6558;0,0339186
3056,6201;0,0340177
3057,5842;0,0341313
3058,5486;0,0342584
3059,5127;0,0343905
3060,4771;0,0345158
3061,4412;0,0346246
3062,4055;0,0347137
3063,3696;0,0347879
3064,3340;0,034858
3065,2981;0,0349356
3066,2625;0,0350278
3067,2266;0,0351345
3068,1909;0,0352491
3069,1550;0,0353628
3070,1194;0,0354695
3071,0835;0,0355682
3072,0479;0,0356626
3073,0120;0,0357571
3073,9763;0,0358534
3074,9404;0,0359492
3075,9048;0,036041
3076,8689;0,0361272
3077,8333;0,0362102
3078,7974;0,0362949
3079,7617;0,0363848
3080,7258;0,0364793
3081,6902;0,036574
3082,6543;0,0366642
3083,6187;0,0367482
3084,5828;0,0368287
3085,5471;0,0369107
3086,5112;0,036998
3087,4756;0,0370912
3088,4397;0,0371874
3089,4041;0,0372823
3090,3682;0,0373723
3091,3325;0,0374567
3092,2966;0,0375378
3093,2610;0,0376206
3094,2251;0,037711
3095,1895;0,0378133
3096,1536;0,037927
3097,1179;0,0380463
3098,0820;0,0381617
3099,0464;0,0382653
3100,0105;0,0383554
3100,9749;0,0384391
3101,9390;0,0385283
3102,9033;0,0386332
3103,8674;0,0387564
3104,8318;0,0388911
3105,7959;0,0390254
3106,7603;0,0391496
3107,7244;0,0392609
3108,6887;0,0393638
3109,6528;0,0394659
3110,6172;0,0395717
3111,5813;0,0396803
3112,5457;0,0397873
3113,5098;0,0398895
3114,4741;0,0399888
3115,4382;0,0400917
3116,4026;0,040205
3117,3667;0,0403315
3118,3311;0,0404672
3119,2952;0,0406048
3120,2595;0,0407372
3121,2236;0,0408618
3122,1880;0,0409803
3123,1521;0,0410974
3124,1165;0,0412185
3125,0806;0,0413478
3126,0449;0,0414881
3127,0090;0,0416395
3127,9734;0,0417983
3128,9375;0,0419571
3129,9019;0,0421071
3130,8660;0,0422427
3131,8303;0,0423651
3132,7944;0,0424822
3133,7588;0,042604
3134,7229;0,0427368
3135,6873;0,0428797
3136,6514;0,0430262
3137,6157;0,0431698
3138,5798;0,0433077
3139,5442;0,0434422
3140,5083;0,0435779
3141,4727;0,0437183
3142,4368;0,0438639
3143,4011;0,0440128
3144,3652;0,044163
3145,3296;0,0443126
3146,2937;0,0444606
3147,2581;0,0446061
3148,2222;0,0447497
3149,1865;0,0448935
3150,1506;0,0450414
3151,1150;0,0451962
3152,0791;0,0453576
3153,0435;0,0455216
3154,0076;0,045683
3154,9719;0,0458391
3155,9360;0,045992
3156,9004;0,0461466
3157,8645;0,0463073
3158,8289;0,0464739
3159,7930;0,0466418
3160,7573;0,0468052
3161,7214;0,0469609
3162,6858;0,0471104
3163,6499;0,0472584
3164,6143;0,0474093
3165,5784;0,0475653
3166,5427;0,0477249
3167,5068;0,0478852
3168,4712;0,0480437
3169,4353;0,048206
3170,3997;0,0483604
3171,3638;0,0485159
3172,3281;0,0486752
3173,2922;0,0488391
3174,2566;0,0490058
3175,2207;0,0491711
3176,1851;0,0493308
3177,1492;0,0494837
3178,1135;0,0496325
3179,0776;0,0497829
3180,0420;0,0499394
3181,0061;0,0501025
3181,9705;0,0502679
3182,9346;0,0504303
3183,8989;0,0505866
3184,8630;0,0507384
3185,8274;0,0508893
3186,7915;0,0510421
3187,7559;0,0511955
3188,7200;0,0513455
3189,6843;0,051489
3190,6484;0,0516266
3191,6128;0,0517631
3192,5769;0,0519039
3193,5413;0,0520521
3194,5054;0,0522061
3195,4697;0,0523613
3196,4338;0,0525128
3197,3982;0,0526583
3198,3623;0,0527988
3199,3267;0,0529373
3200,2908;0,0530769
3201,2551;0,0532196
3202,2192;0,053365
3203,1836;0,0535117
3204,1477;0,0536586
3205,1121;0,0538056
3206,0762;0,053954
3207,0405;0,0541058
3208,0046;0,0542611
3208,9690;0,0544174
3209,9331;0,0545699
3210,8975;0,0547145
3211,8616;0,0548497
3212,8259;0,0549777
3213,7900;0,0551024
3214,7544;0,055227
3215,7185;0,0553524
3216,6829;0,0554785
3217,6470;0,0556071
3218,6113;0,0557419
3219,5754;0,0558875
3220,5398;0,0560443
3221,5039;0,0562062
3222,4683;0,056362
3223,4324;0,0565014
3224,3967;0,0566219
3225,3608;0,0567313
3226,3252;0,0568448
3227,2893;0,0569758
3228,2537;0,0571276
3229,2178;0,0572904
3230,1821;0,0574467
3231,1462;0,0575815
3232,1106;0,0576923
3233,0747;0,057791
3234,0391;0,0578979
3235,0032;0,0580308
3235,9675;0,058196
3236,9316;0,0583852
3237,8960;0,0585814
3238,8601;0,0587673
3239,8245;0,0589329
3240,7886;0,0590776
3241,7529;0,0592077
3242,7170;0,0593319
3243,6814;0,0594582
3244,6455;0,0595923
3245,6099;0,0597374
3246,5740;0,059894
3247,5383;0,0600596
3248,5024;0,0602293
3249,4668;0,0603968
3250,4309;0,0605573
3251,3953;0,0607095
3252,3594;0,0608563
3253,3237;0,0610035
3254,2878;0,0611573
3255,2522;0,0613224
3256,2163;0,0615003
3257,1807;0,0616889
3258,1448;0,0618836
3259,1091;0,0620781
3260,0732;0,0622665
3261,0376;0,0624454
3262,0017;0,0626145
3262,9661;0,0627762
3263,9302;0,0629339
3264,8945;0,0630893
3265,8586;0,0632414
3266,8230;0,0633871
3267,7871;0,0635229
3268,7515;0,0636466
3269,7156;0,0637583
3270,6799;0,0638594
3271,6440;0,0639524
3272,6084;0,0640401
3273,5725;0,0641261
3274,5369;0,0642142
3275,5010;0,0643078
3276,4653;0,0644083
3277,4294;0,0645138
3278,3938;0,0646188
3279,3579;0,0647156
3280,3223;0,0647972
3281,2864;0,0648604
3282,2507;0,0649071
3283,2148;0,0649442
3284,1792;0,0649806
3285,1433;0,0650229
3286,1077;0,0650727
3287,0718;0,0651263
3288,0361;0,065177
3289,0002;0,0652191
3289,9646;0,0652496
3290,9287;0,0652694
3291,8931;0,0652806
3292,8572;0,065285
3293,8215;0,0652832
3294,7856;0,0652757
3295,7500;0,0652643
3296,7141;0,0652532
3297,6785;0,0652472
3298,6426;0,0652498
3299,6069;0,0652608
3300,5710;0,0652759
3301,5354;0,0652879
3302,4995;0,0652899
3303,4639;0,065278
3304,4280;0,065253
3305,3923;0,0652198
3306,3564;0,0651854
3307,3208;0,065156
3308,2849;0,0651351
3309,2493;0,0651236
3310,2134;0,0651213
3311,1777;0,0651286
3312,1418;0,0651466
3313,1062;0,0651756
3314,0703;0,0652136
3315,0347;0,0652565
3315,9988;0,0653002
3316,9631;0,0653429
3317,9272;0,0653873
3318,8916;0,0654383
3319,8557;0,0655005
3320,8201;0,0655743
3321,7842;0,0656552
3322,7485;0,0657361
3323,7126;0,0658104
3324,6770;0,0658746
3325,6411;0,065929
3326,6055;0,065975
3327,5696;0,0660139
3328,5339;0,0660458
3329,4980;0,0660707
3330,4624;0,0660901
3331,4265;0,0661072
3332,3909;0,0661253
3333,3550;0,0661445
3334,3193;0,0661609
3335,2834;0,0661677
3336,2478;0,0661596
3337,2119;0,0661358
3338,1763;0,0661008
3339,1404;0,0660603
3340,1047;0,0660166
3341,0688;0,0659658
3342,0332;0,0658999
3342,9973;0,0658123
3343,9617;0,0657025
3344,9258;0,0655781
3345,8901;0,0654503
3346,8542;0,0653286
3347,8186;0,0652153
3348,7827;0,0651056
3349,7471;0,0649914
3350,7112;0,064867
3351,6755;0,0647324
3352,6396;0,064593
3353,6040;0,0644563
3354,5681;0,0643272
3355,5325;0,0642062
3356,4966;0,0640904
3357,4609;0,0639767
3358,4250;0,0638643
3359,3894;0,0637553
3360,3535;0,063653
3361,3179;0,0635587
3362,2820;0,0634694
3363,2463;0,0633781
3364,2104;0,063276
3365,1748;0,0631564
3366,1389;0,063018
3367,1033;0,0628655
3368,0674;0,0627085
3369,0317;0,0625569
3369,9958;0,0624171
3370,9602;0,06229
3371,9243;0,0621712
3372,8887;0,0620547
3373,8528;0,0619363
3374,8171;0,0618151
3375,7813;0,061693
3376,7456;0,0615718
3377,7097;0,0614513
3378,6741;0,0613287
3379,6382;0,0612012
3380,6025;0,0610675
3381,5667;0,0609305
3382,5310;0,0607958
3383,4951;0,0606704
3384,4595;0,0605599
3385,4236;0,0604663
3386,3879;0,0603865
3387,3521;0,0603126
3388,3164;0,0602338
3389,2805;0,0601392
3390,2449;0,0600223
3391,2090;0,0598835
3392,1733;0,0597312
3393,1375;0,0595784
3394,1018;0,0594371
3395,0659;0,0593142
3396,0303;0,059209
3396,9944;0,0591142
3397,9587;0,0590196
3398,9229;0,0589153
3399,8872;0,0587954
3400,8513;0,0586602
3401,8157;0,058515
3402,7798;0,0583674
3403,7441;0,0582239
3404,7083;0,0580868
3405,6726;0,0579553
3406,6367;0,0578262
3407,6011;0,0576965
3408,5652;0,0575624
3409,5295;0,0574187
3410,4937;0,0572591
3411,4580;0,057079
3412,4221;0,0568806
3413,3865;0,056674
3414,3506;0,0564732
3415,3149;0,0562882
3416,2791;0,0561183
3417,2434;0,0559527
3418,2075;0,0557777
3419,1719;0,0555865
3420,1360;0,0553834
3421,1003;0,0551809
3422,0645;0,0549897
3423,0288;0,054812
3423,9929;0,0546416
3424,9573;0,0544704
3425,9214;0,0542938
3426,8857;0,0541132
3427,8499;0,0539327
3428,8142;0,0537558
3429,7783;0,0535827
3430,7427;0,0534117
3431,7068;0,0532406
3432,6711;0,0530679
3433,6353;0,0528917
3434,5996;0,0527093
3435,5637;0,0525171
3436,5281;0,0523133
3437,4922;0,0521002
3438,4565;0,0518856
3439,4207;0,0516802
3440,3850;0,0514925
3441,3491;0,0513232
3442,3135;0,0511619
3443,2776;0,0509906
3444,2419;0,0507928
3445,2061;0,0505638
3446,1704;0,0503172
3447,1345;0,0500789
3448,0989;0,049872
3449,0630;0,0497018
3450,0273;0,0495533
3450,9915;0,0494027
3451,9558;0,0492327
3452,9199;0,0490428
3453,8843;0,0488483
3454,8484;0,0486678
3455,8127;0,0485088
3456,7769;0,0483612
3457,7412;0,048204
3458,7053;0,0480192
3459,6697;0,047803
3460,6338;0,0475674
3461,5981;0,0473311
3462,5623;0,0471072
3463,5266;0,0468961
3464,4907;0,0466885
3465,4551;0,0464753
3466,4192;0,0462552
3467,3835;0,0460371
3468,3477;0,0458334
3469,3120;0,0456511
3470,2761;0,0454869
3471,2405;0,0453297
3472,2046;0,0451677
3473,1689;0,0449954
3474,1331;0,0448155
3475,0974;0,0446338
3476,0615;0,0444515
3477,0259;0,0442626
3477,9900;0,0440578
3478,9543;0,0438337
3479,9185;0,043599
3480,8828;0,0433726
3481,8469;0,043172
3482,8113;0,0430005
3483,7754;0,0428444
3484,7397;0,0426826
3485,7039;0,0425
3486,6682;0,0422969
3487,6323;0,042087
3488,5967;0,0418877
3489,5608;0,0417083
3490,5251;0,041545
3491,4893;0,0413845
3492,4536;0,0412135
3493,4177;0,0410266
3494,3821;0,0408294
3495,3462;0,0406349
3496,3105;0,0404558
3497,2747;0,0402951
3498,2390;0,0401423
3499,2031;0,0399765
3500,1675;0,0397769
3501,1316;0,0395363
3502,0959;0,0392702
3503,0601;0,039013
3504,0244;0,0387972
3504,9885;0,0386322
3505,9529;0,0384993
3506,9170;0,038364
3507,8813;0,0381957
3508,8455;0,0379839
3509,8098;0,0377439
3510,7739;0,0375065
3511,7383;0,0372987
3512,7024;0,0371294
3513,6667;0,0369904
3514,6309;0,0368663
3515,5952;0,0367444
3516,5593;0,0366195
3517,5237;0,036491
3518,4878;0,0363577
3519,4521;0,0362141
3520,4163;0,0360524
3521,3806;0,0358673
3522,3447;0,0356613
3523,3091;0,0354437
3524,2732;0,035225
3525,2375;0,0350099
3526,2017;0,0347973
3527,1660;0,0345854
3528,1301;0,0343782
3529,0945;0,0341863
3530,0586;0,0340192
3531,0229;0,0338779
3531,9871;0,033752
3532,9514;0,0336244
3533,9155;0,0334802
3534,8799;0,0333147
3535,8440;0,0331362
3536,8083;0,032962
3537,7725;0,0328074
3538,7368;0,0326774
3539,7009;0,0325639
3540,6653;0,0324487
3541,6294;0,0323078
3542,5938;0,0321189
3543,5579;0,0318739
3544,5222;0,0315895
3545,4863;0,0313054
3546,4507;0,0310623
3547,4148;0,0308758
3548,3792;0,0307295
3549,3433;0,0305886
3550,3076;0,0304201
3551,2717;0,0302104
3552,2361;0,0299744
3553,2002;0,0297466
3554,1646;0,0295576
3555,1287;0,0294155
3556,0930;0,0293038
3557,0571;0,029196
3558,0215;0,0290725
3558,9856;0,0289328
3559,9500;0,028795
3560,9141;0,0286799
3561,8784;0,0285899
3562,8425;0,0284969
3563,8069;0,0283455
3564,7710;0,0280795
3565,7354;0,0276902
3566,6995;0,0272533
3567,6638;0,0268862
3568,6279;0,0266523
3569,5923;0,0265317
3570,5564;0,0264665
3571,5208;0,0264024
3572,4849;0,0263054
3573,4492;0,0261651
3574,4133;0,0259926
3575,3777;0,0258091
3576,3418;0,0256305
3577,3062;0,0254596
3578,2703;0,0252932
3579,2346;0,0251341
3580,1987;0,0249958
3581,1631;0,0248929
3582,1272;0,0248252
3583,0916;0,0247659
3584,0557;0,0246627
3585,0200;0,0244581
3585,9841;0,0241327
3586,9485;0,0237452
3587,9126;0,0234045
3588,8770;0,0231805
3589,8411;0,0230636
3590,8054;0,0229987
3591,7695;0,0229279
3592,7339;0,0228122
3593,6980;0,0226418
3594,6624;0,0224356
3595,6265;0,0222206
3596,5908;0,0220074
3597,5549;0,0217882
3598,5193;0,0215579
3599,4834;0,0213352
3600,4478;0,0211604
3601,4119;0,0210682
3602,3762;0,0210594
3603,3403;0,0210979
3604,3047;0,0211283
3605,2688;0,0211006
3606,2332;0,0209921
3607,1973;0,0208199
3608,1616;0,0206291
3609,1257;0,0204564
3610,0901;0,0203055
3611,0542;0,0201591
3612,0186;0,0200074
3612,9827;0,0198613
3613,9470;0,0197417
3614,9111;0,0196541
3615,8755;0,0195728
3616,8396;0,0194479
3617,8040;0,0192368
3618,7681;0,0189464
3619,7324;0,0186452
3620,6965;0,0184197
3621,6609;0,018318
3622,6250;0,0183376
3623,5894;0,0184415
3624,5535;0,0185663
3625,5178;0,0186198
3626,4819;0,0184955
3627,4463;0,0181422
3628,4104;0,0176554
3629,3748;0,0172332
3630,3389;0,0169903
3631,3032;0,0169003
3632,2673;0,0168866
3633,2317;0,0168881
3634,1958;0,0168715
3635,1602;0,0168275
3636,1243;0,0167633
3637,0886;0,0166914
3638,0527;0,0166201
3639,0171;0,0165529
3639,9812;0,0164937
3640,9456;0,016453
3641,9097;0,0164466
3642,8740;0,0164858
3643,8381;0,0165632
3644,8025;0,0166375
3645,7666;0,0166228
3646,7310;0,0164071
3647,6951;0,0159476
3648,6594;0,0154025
3649,6235;0,0150383
3650,5879;0,0149454
3651,5520;0,0150245
3652,5164;0,0151537
3653,4805;0,015248
3654,4448;0,0152528
3655,4089;0,0151512
3656,3733;0,014978
3657,3374;0,0148019
3658,3018;0,0146749
3659,2659;0,0146049
3660,2302;0,0145715
3661,1943;0,0145556
3662,1587;0,0145557
3663,1228;0,0145841
3664,0872;0,0146484
3665,0513;0,01473
3666,0156;0,0147797
3666,9797;0,014734
3667,9441;0,0145625
3668,9082;0,0143227
3669,8726;0,0141423
3670,8367;0,014105
3671,8010;0,0141777
3672,7651;0,0142494
3673,7295;0,0142044
3674,6936;0,0139944
3675,6580;0,0136893
3676,6221;0,01342
3677,5864;0,0132554
3678,5505;0,0131816
3679,5149;0,0131637
3680,4790;0,0131844
3681,4434;0,0132464
3682,4075;0,0133605
3683,3718;0,0135277
3684,3359;0,0137245
3685,3003;0,0138945
3686,2644;0,0139545
3687,2288;0,0138299
3688,1929;0,013526
3689,1572;0,0131727
3690,1213;0,0129306
3691,0857;0,0128511
3692,0498;0,012882
3693,0142;0,0129588
3693,9783;0,0130487
3694,9426;0,0131461
3695,9067;0,0132527
3696,8711;0,0133592
3697,8352;0,0134364
3698,7996;0,013443
3699,7637;0,0133504
3700,7280;0,013174
3701,6921;0,0129818
3702,6565;0,0128573
3703,6206;0,0128453
3704,5850;0,0129346
3705,5491;0,0130766
3706,5134;0,013208
3707,4775;0,0132602
3708,4419;0,013176
3709,4060;0,0129494
3710,3704;0,0126686
3711,3345;0,0124767
3712,2988;0,0124484
3713,2629;0,0125484
3714,2273;0,0127026
3715,1914;0,0128557
3716,1558;0,0129751
3717,1199;0,0130413
3718,0842;0,0130472
3719,0483;0,013002
3720,0127;0,0129277
3720,9768;0,0128456
3721,9412;0,0127625
3722,9053;0,0126728
3723,8696;0,0125758
3724,8337;0,0124894
3725,7981;0,0124451
3726,7622;0,0124689
3727,7266;0,0125674
3728,6907;0,0127282
3729,6550;0,0129229
3730,6191;0,0131071
3731,5835;0,01322
3732,5476;0,0131964
3733,5120;0,0130063
3734,4761;0,0127061
3735,4404;0,0124293
3736,4045;0,012289
3737,3689;0,0123158
3738,3330;0,0124886
3739,2974;0,012773
3740,2615;0,0131214
3741,2258;0,0134582
3742,1899;0,013681
3743,1543;0,0137092
3744,1184;0,0135639
3745,0828;0,013368
3746,0469;0,01323
3747,0112;0,0131641
3747,9753;0,0131119
3748,9397;0,0130003
3749,9038;0,0128164
3750,8682;0,0126478
3751,8323;0,0125942
3752,7966;0,0126586
3753,7607;0,012779
3754,7251;0,0128948
3755,6892;0,0129613
3756,6536;0,0129523
3757,6177;0,0128785
3758,5820;0,0127948
3759,5461;0,0127659
3760,5105;0,0128176
3761,4746;0,012927
3762,4390;0,0130498
3763,4031;0,0131455
3764,3674;0,0131896
3765,3315;0,0131773
3766,2959;0,0131201
3767,2600;0,0130359
3768,2244;0,0129427
3769,1885;0,0128581
3770,1528;0,0128019
3771,1169;0,0127915
3772,0813;0,0128333
3773,0454;0,012919
3774,0098;0,0130276
3774,9739;0,0131286
3775,9382;0,0131882
3776,9023;0,0131836
3777,8667;0,0131203
3778,8308;0,0130339
3779,7952;0,0129645
3780,7593;0,0129292
3781,7236;0,0129199
3782,6877;0,0129193
3783,6521;0,0129149
3784,6162;0,0129043
3785,5806;0,0128935
3786,5447;0,0128927
3787,5090;0,0129119
3788,4731;0,0129579
3789,4375;0,0130314
3790,4016;0,0131228
3791,3660;0,0132124
3792,3301;0,013276
3793,2944;0,0132979
3794,2585;0,0132849
3795,2229;0,0132661
3796,1870;0,0132723
3797,1514;0,0133074
3798,1155;0,0133376
3799,0798;0,0133139
3800,0439;0,013218
3801,0083;0,0130933
3801,9724;0,0130114
3802,9368;0,0130036
3803,9009;0,0130384
3804,8652;0,0130578
3805,8293;0,0130228
3806,7937;0,0129455
3807,7578;0,0128861
3808,7222;0,0129045
3809,6863;0,0130184
3810,6506;0,0132028
3811,6147;0,0134063
3812,5791;0,0135642
3813,5432;0,013621
3814,5076;0,0135671
3815,4717;0,0134546
3816,4360;0,0133528
3817,4001;0,0132846
3818,3645;0,0132199
3819,3286;0,013121
3820,2930;0,0129916
3821,2571;0,0128777
3822,2214;0,0128205
3823,1855;0,0128223
3824,1499;0,0128637
3825,1140;0,0129274
3826,0784;0,0130051
3827,0425;0,0130934
3828,0068;0,0131883
3828,9709;0,0132821
3829,9353;0,0133651
3830,8994;0,013432
3831,8638;0,0134859
3832,8279;0,0135332
3833,7922;0,0135724
3834,7563;0,0135843
3835,7207;0,0135371
3836,6848;0,013411
3837,6492;0,0132276
3838,6133;0,0130483
3839,5776;0,0129324
3840,5417;0,0128989
3841,5061;0,0129292
3842,4702;0,0129919
3843,4346;0,0130631
3844,3987;0,0131353
3845,3630;0,0132194
3846,3271;0,0133377
3847,2915;0,0135119
3848,2556;0,0137461
3849,2200;0,0140068
3850,1841;0,0142044
3851,1484;0,0142052
3852,1125;0,0139306
3853,0769;0,0135059
3854,0410;0,0131759
3855,0054;0,0130357
3855,9695;0,0130357
3856,9338;0,0131197
3857,8979;0,0132522
3858,8623;0,0133979
3859,8264;0,0135134
3860,7908;0,0135621
3861,7549;0,0135397
3862,7192;0,0134885
3863,6833;0,0134701
3864,6477;0,0135149
3865,6118;0,0136033
3866,5762;0,0136872
3867,5403;0,0137181
3868,5046;0,0136681
3869,4688;0,0135431
3870,4331;0,0133837
3871,3972;0,0132443
3872,3616;0,0131657
3873,3257;0,0131636
3874,2900;0,0132334
3875,2542;0,0133566
3876,2185;0,0135032
3877,1826;0,0136347
3878,1470;0,0137154
3879,1111;0,0137294
3880,0754;0,0136926
3881,0396;0,0136407
3882,0039;0,0136012
3882,9680;0,0135785
3883,9324;0,0135646
3884,8965;0,0135572
3885,8608;0,0135632
3886,8250;0,0135853
3887,7893;0,0136104
3888,7534;0,0136117
3889,7178;0,0135652
3890,6819;0,0134764
3891,6462;0,0133935
3892,6104;0,0133758
3893,5747;0,013447
3894,5388;0,0135867
3895,5032;0,0137534
3896,4673;0,0139027
3897,4316;0,014
3898,3958;0,0140319
3899,3601;0,0140095
3900,3242;0,0139503
3901,2886;0,0138569
3902,2527;0,0137236
3903,2170;0,0135623
3904,1812;0,0134102
3905,1455;0,0133063
3906,1096;0,0132672
3907,0740;0,0132852
3908,0381;0,0133406
3909,0024;0,013414
3909,9666;0,0134937
3910,9309;0,0135774
3911,8950;0,0136671
3912,8594;0,0137591
3913,8235;0,0138377
3914,7878;0,0138784
3915,7520;0,0138635
3916,7163;0,0138002
3917,6804;0,0137216
3918,6448;0,013666
3919,6089;0,0136504
3920,5732;0,0136647
3921,5374;0,0136827
3922,5017;0,0136811
3923,4658;0,0136552
3924,4302;0,0136227
3925,3943;0,0136096
3926,3586;0,0136294
3927,3228;0,0136732
3928,2871;0,0137153
3929,2512;0,0137275
3930,2156;0,013695
3931,1797;0,0136273
3932,1440;0,0135523
3933,1082;0,0134978
3934,0725;0,0134775
3935,0366;0,0134935
3936,0010;0,0135422
3936,9651;0,0136173
3937,9294;0,0137068
3938,8936;0,0137915
3939,8579;0,0138483
3940,8220;0,0138608
3941,7864;0,0138305
3942,7505;0,0137779
3943,7148;0,01373
3944,6790;0,0137029
3945,6433;0,0136942
3946,6074;0,0136879
3947,5718;0,0136678
3948,5359;0,0136301
3949,5002;0,0135862
3950,4644;0,0135545
3951,4287;0,0135475
3952,3928;0,0135659
3953,3572;0,0136011
3954,3213;0,0136415
3955,2856;0,0136771
3956,2498;0,0137017
3957,2141;0,0137131
3958,1782;0,0137113
3959,1426;0,0136994
3960,1067;0,0136834
3961,0710;0,0136717
3962,0352;0,013672
3962,9995;0,0136873
3963,9636;0,0137144
3964,9280;0,0137455
3965,8921;0,0137718
3966,8564;0,0137871
3967,8206;0,0137891
3968,7849;0,0137793
3969,7490;0,0137614
3970,7134;0,0137397
3971,6775;0,0137173
3972,6418;0,0136967
3973,6060;0,0136795
3974,5703;0,0136668
3975,5344;0,0136589
3976,4988;0,0136551
3977,4629;0,0136539
3978,4272;0,0136535
3979,3914;0,0136528
3980,3557;0,0136527
3981,3198;0,0136568
3982,2842;0,0136704
3983,2483;0,0136969
3984,2126;0,0137351
3985,1768;0,0137771
3986,1411;0,0138114
3987,1052;0,0138272
3988,0696;0,0138209
3989,0337;0,0137976
3989,9980;0,0137697
3990,9622;0,0137503
3991,9265;0,0137474
3992,8906;0,013761
3993,8550;0,0137853
3994,8191;0,0138121
3995,7834;0,0138339
3996,7476;0,0138459
3997,7119;0,013846
3998,6760;0,0138351
3999,6404;0,0138171
4000,6045;0,0136972

##### Extended Information
[Comments]
Sample name
Comment
Username
Division
Organization;UNIVERSIDAD INDUSTRIAL DE SANTANDER

[Detailed Information]
Creation date;17/03/2025 2:37 p.m.

Data array type;Linear data array
Horizontal axis;Wavenumber [cm-1]
Vertical axis;Abs
Start;399,193 cm-1
End;4000,6 cm-1
Data interval;0,964233 cm-1
Data points;3736    

[Measurement Information]
Model name;FT/IR-4X1typeA
Serial No.;A035162111

Accessory;ATR PRO 4X
Accessory S/N;A021162126
Incident angle;45 deg

Measurement date;17/03/2025 2:36 p.m.

Light source;Standard
Detector;TGS
Accumulation;40
Resolution;4 cm-1
Zero filling;On
Apodization;Cosine
Gain;Auto (8)
Aperture;Auto (7 mm)
Scan speed;Auto (2 mm/sec)
Filter;Auto (12800 Hz)

