TITLE;
DATA TYPE;INFRARED SPECTRUM
ORIGIN;JASCO
OWNER;
DATE;25/03/17
TIME;15:00:01
SPECTROMETER/DATA SYSTEM;
LOCALE;9226
RESOLUTION;
DELTAX;0,964233
XUNITS;1/CM
YUNITS;ABSORBANCE
FIRSTX;  399,1927
LASTX; 4000,6047
NPOINTS;    3736
FIRSTY;     0,08651
MAXY;     0,10943
MINY;     0,00918
XYDATA
399,1927;0,0865088
400,1569;0,087129
401,1211;0,0871697
402,0854;0,0866897
403,0496;0,0858671
404,0138;0,0849595
404,9781;0,0842757
405,9423;0,0840877
406,9065;0,0845026
407,8708;0,0853948
408,8350;0,0864726
409,7992;0,0874263
410,7635;0,0880536
411,7277;0,0883049
412,6919;0,0882381
413,6562;0,0879312
414,6204;0,0874296
415,5846;0,08677
416,5489;0,0860675
417,5131;0,0856086
418,4773;0,08579
419,4416;0,0867478
420,4058;0,0881081
421,3700;0,0893744
422,3343;0,0903511
423,2985;0,0911067
424,2627;0,0917701
425,2270;0,0923936
426,1912;0,0929196
427,1554;0,0932425
428,1197;0,0933095
429,0839;0,0931783
430,0481;0,0929931
431,0124;0,0929046
431,9766;0,0929876
432,9408;0,093212
433,9051;0,0934883
434,8693;0,0937521
435,8335;0,0940146
436,7978;0,0943373
437,7620;0,0947582
438,7262;0,09524
439,6905;0,0956811
440,6547;0,0959666
441,6189;0,096022
442,5832;0,0958402
443,5474;0,0954697
444,5116;0,0949723
445,4759;0,0943903
446,4401;0,0937529
447,4043;0,093111
448,3686;0,0925588
449,3328;0,0922177
450,2970;0,0921843
451,2613;0,0924691
452,2255;0,0929718
453,1897;0,093521
454,1540;0,0939585
455,1182;0,0942164
456,0824;0,0943448
457,0467;0,0944676
458,0109;0,0946678
458,9751;0,0948783
459,9394;0,0949047
460,9036;0,0945777
461,8678;0,0938827
462,8321;0,0929798
463,7963;0,0921372
464,7605;0,0916126
465,7248;0,0915252
466,6890;0,0917981
467,6532;0,0922284
468,6175;0,0926313
469,5817;0,0929382
470,5459;0,0931868
471,5102;0,0934277
472,4744;0,0936303
473,4386;0,0936785
474,4029;0,0934688
475,3671;0,0930101
476,3313;0,0924323
477,2956;0,0919196
478,2598;0,0916275
479,2240;0,0916213
480,1883;0,091857
481,1525;0,0922098
482,1167;0,0925348
483,0810;0,0927292
484,0452;0,0927724
485,0094;0,0927255
485,9737;0,0926879
486,9379;0,0927366
487,9021;0,0928875
488,8664;0,0930943
489,8306;0,0932742
490,7948;0,0933462
491,7591;0,0932741
492,7233;0,0930936
493,6875;0,0929016
494,6518;0,092807
495,6160;0,0928722
496,5802;0,0930815
497,5445;0,0933492
498,5087;0,0935603
499,4729;0,0936243
500,4372;0,0935237
501,4014;0,0933329
502,3656;0,0931846
503,3299;0,0931921
504,2941;0,0933813
505,2583;0,093683
506,2226;0,0939806
507,1868;0,0941748
508,1510;0,0942272
509,1153;0,0941694
510,0795;0,0940778
511,0437;0,0940332
512,0080;0,0940923
512,9722;0,0942787
513,9365;0,0945842
514,9007;0,0949712
515,8649;0,0953721
516,8292;0,0957002
517,7934;0,0958821
518,7576;0,0959018
519,7219;0,0958151
520,6861;0,0957147
521,6503;0,095674
522,6146;0,0957121
523,5788;0,0957935
524,5430;0,0958506
525,5073;0,0958228
526,4715;0,0956948
527,4357;0,095507
528,4000;0,0953289
529,3642;0,0952169
530,3284;0,0951905
531,2927;0,0952321
532,2569;0,0952992
533,2211;0,0953433
534,1854;0,0953273
535,1496;0,0952394
536,1138;0,095093
537,0781;0,0949158
538,0423;0,0947313
539,0065;0,094547
539,9708;0,0943572
540,9350;0,0941573
541,8992;0,0939613
542,8635;0,0938063
543,8277;0,0937407
544,7919;0,0938005
545,7562;0,0939871
546,7204;0,0942615
547,6846;0,0945586
548,6489;0,0948122
549,6131;0,094979
550,5773;0,0950505
551,5416;0,0950528
552,5058;0,0950366
553,4700;0,0950574
554,4343;0,095151
555,3985;0,0953096
556,3627;0,0954746
557,3270;0,0955548
558,2912;0,0954642
559,2554;0,0951614
560,2197;0,0946687
561,1839;0,0940619
562,1481;0,0934382
563,1124;0,092878
564,0766;0,0924193
565,0408;0,0920539
566,0051;0,0917425
566,9693;0,0914392
567,9335;0,0911156
568,8978;0,0907745
569,8620;0,0904451
570,8262;0,0901621
571,7905;0,0899425
572,7547;0,0897755
573,7189;0,0896306
574,6832;0,0894795
575,6474;0,0893167
576,6116;0,0891654
577,5759;0,0890604
578,5401;0,0890207
579,5043;0,089032
580,4686;0,089053
581,4328;0,0890402
582,3970;0,0889753
583,3613;0,0888754
584,3255;0,0887789
585,2897;0,0887196
586,2540;0,0887066
587,2182;0,088724
588,1824;0,0887477
589,1467;0,0887631
590,1109;0,0887715
591,0751;0,0887822
592,0394;0,0887956
593,0036;0,0887927
593,9678;0,0887407
594,9321;0,0886107
595,8963;0,0883956
596,8605;0,0881165
597,8248;0,0878144
598,7890;0,0875318
599,7532;0,0872919
600,7175;0,0870905
601,6817;0,086906
602,6459;0,0867213
603,6102;0,0865395
604,5744;0,0863808
605,5386;0,0862615
606,5029;0,0861716
607,4671;0,0860704
608,4313;0,0859046
609,3956;0,0856408
610,3598;0,0852879
611,3240;0,084893
612,2883;0,0845128
613,2525;0,0841794
614,2167;0,0838832
615,1810;0,0835805
616,1452;0,0832197
617,1094;0,0827715
618,0737;0,0822449
619,0379;0,0816795
620,0021;0,0811206
620,9664;0,0805979
621,9306;0,0801188
622,8948;0,0796739
623,8591;0,0792465
624,8233;0,078816
625,7875;0,0783854
626,7518;0,0779586
627,7160;0,0775472
628,6802;0,0771632
629,6445;0,0768127
630,6087;0,0764931
631,5729;0,0761965
632,5372;0,0759161
633,5014;0,0756515
634,4656;0,075406
635,4299;0,0751797
636,3941;0,0749631
637,3583;0,0747382
638,3226;0,0744887
639,2868;0,0742114
640,2510;0,0739203
641,2153;0,0736402
642,1795;0,0733939
643,1437;0,073191
644,1080;0,0730261
645,0722;0,0728856
646,0364;0,0727549
647,0007;0,0726236
647,9649;0,0724834
648,9291;0,0723278
649,8934;0,0721542
650,8576;0,0719688
651,8218;0,07179
652,7861;0,0716453
653,7503;0,0715613
654,7145;0,0715503
655,6788;0,0716002
656,6430;0,0716753
657,6072;0,0717302
658,5715;0,0717284
659,5357;0,0716563
660,4999;0,0715252
661,4642;0,0713585
662,4284;0,0711662
663,3926;0,0709283
664,3569;0,0706024
665,3211;0,0701476
666,2853;0,0695539
667,2496;0,0688742
668,2138;0,0682549
669,1780;0,0678793
670,1423;0,0677777
671,1065;0,0677776
672,0707;0,0676785
673,0350;0,0673676
673,9992;0,0668276
674,9634;0,0661143
675,9277;0,065326
676,8919;0,0645586
677,8561;0,063866
678,8204;0,0632596
679,7846;0,0627372
680,7488;0,0623024
681,7131;0,061955
682,6773;0,0616699
683,6415;0,0613967
684,6058;0,0610834
685,5700;0,0607085
686,5342;0,0602953
687,4985;0,0599009
688,4627;0,0595871
689,4269;0,0593887
690,3912;0,0593013
691,3554;0,0592864
692,3196;0,0592878
693,2839;0,0592506
694,2481;0,0591365
695,2123;0,0589334
696,1766;0,0586583
697,1408;0,0583506
698,1050;0,0580584
699,0693;0,057821
700,0335;0,0576557
700,9977;0,0575534
701,9620;0,0574835
702,9262;0,0574056
703,8904;0,0572817
704,8547;0,0570928
705,8189;0,0568421
706,7831;0,0565504
707,7474;0,0562449
708,7116;0,0559456
709,6758;0,0556569
710,6401;0,0553698
711,6043;0,0550721
712,5685;0,0547601
713,5328;0,0544458
714,4970;0,0541515
715,4612;0,0537922
716,4255;0,0536105
717,3897;0,0534739
718,3539;0,0533472
719,3182;0,0531848
720,2824;0,0529472
721,2466;0,0526156
722,2109;0,0521969
723,1751;0,0517183
724,1393;0,0512192
725,1036;0,0507448
726,0678;0,0503385
727,0320;0,0500292
727,9963;0,0498166
728,9605;0,0496659
729,9247;0,0495197
730,8890;0,0493237
731,8532;0,0490518
732,8174;0,0487154
733,7817;0,0483542
734,7459;0,048014
735,7101;0,0477264
736,6744;0,0474985
737,6386;0,0473171
738,6028;0,0471593
739,5671;0,0470028
740,5313;0,0468306
741,4955;0,0466315
742,4598;0,0463993
743,4240;0,0461336
744,3882;0,0458415
745,3525;0,0455397
746,3167;0,0452518
747,2809;0,0450007
748,2452;0,044799
749,2094;0,0446415
750,1736;0,044505
751,1379;0,0443585
752,1021;0,0441776
753,0663;0,0439567
754,0306;0,0437104
754,9948;0,0434639
755,9590;0,0432383
756,9233;0,0430405
757,8875;0,0428624
758,8517;0,04269
759,8160;0,0425136
760,7802;0,0423328
761,7444;0,0421535
762,7087;0,0419822
763,6729;0,0418208
764,6371;0,0416677
765,6014;0,0415205
766,5656;0,0413787
767,5298;0,0412426
768,4941;0,0411103
769,4583;0,0409757
770,4225;0,0408312
771,3868;0,040672
772,3510;0,0405007
773,3152;0,0403279
774,2795;0,0401688
775,2437;0,0400377
776,2079;0,0399428
777,1722;0,0398819
778,1364;0,0398411
779,1006;0,0397967
780,0649;0,0397215
781,0291;0,0395936
781,9933;0,039406
782,9576;0,039171
783,9218;0,0389162
784,8860;0,0386748
785,8503;0,0384729
786,8145;0,0383214
787,7787;0,038215
788,7430;0,0381375
789,7072;0,0380695
790,6714;0,0379953
791,6357;0,0379073
792,5999;0,0378079
793,5641;0,0377066
794,5284;0,0376141
795,4926;0,0375345
796,4568;0,0374607
797,4211;0,0373768
798,3853;0,0372692
799,3495;0,0371381
800,3138;0,0370018
801,2780;0,0368888
802,2422;0,0368206
803,2065;0,0367977
804,1707;0,0367975
805,1349;0,0367879
806,0992;0,0367458
807,0634;0,0366701
808,0276;0,0365796
808,9919;0,0364993
809,9561;0,0364457
810,9203;0,0364187
811,8846;0,0364054
812,8488;0,0363887
813,8130;0,0363563
814,7773;0,0363028
815,7415;0,0362288
816,7057;0,0361378
817,6700;0,0360347
818,6342;0,0359257
819,5984;0,0358179
820,5627;0,0357184
821,5269;0,0356333
822,4911;0,0355674
823,4554;0,0355238
824,4196;0,0355037
825,3839;0,0355042
826,3481;0,0355171
827,3123;0,0355293
828,2766;0,0355263
829,2408;0,0354972
830,2050;0,035439
831,1693;0,0353568
832,1335;0,0352613
833,0977;0,0351637
834,0620;0,0350714
835,0262;0,0349855
835,9904;0,0349003
836,9547;0,0348066
837,9189;0,0346953
838,8831;0,0345631
839,8474;0,034416
840,8116;0,0342691
841,7758;0,0341418
842,7401;0,0340507
843,7043;0,0340032
844,6685;0,0339952
845,6328;0,034015
846,5970;0,0340492
847,5612;0,0340872
848,5255;0,0341224
849,4897;0,0341508
850,4539;0,0341684
851,4182;0,0341719
852,3824;0,0341608
853,3466;0,0341392
854,3109;0,0341157
855,2751;0,0340992
856,2393;0,0340947
857,2036;0,0340998
858,1678;0,0341053
859,1320;0,0340997
860,0963;0,0340751
861,0605;0,0340328
862,0247;0,033984
862,9890;0,033946
863,9532;0,0339347
864,9174;0,033957
865,8817;0,0340077
866,8459;0,0340725
867,8101;0,0341366
868,7744;0,034193
869,7386;0,034245
870,7028;0,0343022
871,6671;0,0343705
872,6313;0,0344456
873,5955;0,0345126
874,5598;0,0345546
875,5240;0,0345635
876,4882;0,0345458
877,4525;0,0345209
878,4167;0,0345112
879,3809;0,0345323
880,3452;0,0345888
881,3094;0,0346764
882,2736;0,034789
883,2379;0,0349239
884,2021;0,0350837
885,1663;0,0352744
886,1306;0,0355027
887,0948;0,0357734
888,0590;0,0360891
889,0233;0,0364487
889,9875;0,0368466
890,9517;0,0372712
891,9160;0,0377047
892,8802;0,038125
893,8444;0,038508
894,8087;0,0388301
895,7729;0,0390708
896,7371;0,039214
897,7014;0,0392513
898,6656;0,0391835
899,6298;0,0390216
900,5941;0,0387845
901,5583;0,0384953
902,5225;0,0381763
903,4868;0,0378474
904,4510;0,0375252
905,4152;0,0372247
906,3795;0,036959
907,3437;0,0367379
908,3079;0,0365659
909,2722;0,0364408
910,2364;0,0363549
911,2007;0,0362974
912,1649;0,0362589
913,1292;0,0362344
914,0934;0,0362259
915,0576;0,0362419
916,0219;0,0362935
916,9861;0,0363874
917,9503;0,0365192
918,9146;0,0366715
919,8788;0,0368194
920,8430;0,0369423
921,8073;0,0370357
922,7715;0,0371147
923,7357;0,0372049
924,7000;0,0373266
925,6642;0,0374809
926,6284;0,0376489
927,5927;0,0378032
928,5569;0,0379255
929,5211;0,0380172
930,4854;0,0380971
931,4496;0,0381884
932,4138;0,0383046
933,3781;0,0384441
934,3423;0,0385954
935,3065;0,0387477
936,2708;0,0388983
937,2350;0,0390517
938,1992;0,0392146
939,1635;0,0393906
940,1277;0,0395797
941,0919;0,0397823
942,0562;0,0400026
943,0204;0,0402493
943,9846;0,0405318
944,9489;0,0408558
945,9131;0,0412207
946,8773;0,0416208
947,8416;0,042048
948,8058;0,0424961
949,7700;0,0429636
950,7343;0,0434556
951,6985;0,0439827
952,6627;0,044557
953,6270;0,045186
954,5912;0,0458681
955,5554;0,0465922
956,5197;0,0473429
957,4839;0,0481078
958,4481;0,0488816
959,4124;0,0496658
960,3766;0,0504629
961,3408;0,0512726
962,3051;0,0520908
963,2693;0,0529135
964,2335;0,05374
965,1978;0,0545735
966,1620;0,0554172
967,1262;0,0562719
968,0905;0,0571361
969,0547;0,0580112
970,0189;0,0589068
970,9832;0,0598418
971,9474;0,0608399
972,9116;0,0619223
973,8759;0,0631021
974,8401;0,0643837
975,8043;0,0657656
976,7686;0,0672418
977,7328;0,0688011
978,6970;0,0704239
979,6613;0,0720786
980,6255;0,0737229
981,5897;0,0753078
982,5540;0,0767863
983,5182;0,0781202
984,4824;0,0792868
985,4467;0,0802815
986,4109;0,0811162
987,3751;0,081815
988,3394;0,0824057
989,3036;0,0829133
990,2678;0,0833547
991,2321;0,0837399
992,1963;0,0840762
993,1605;0,0843738
994,1248;0,0846489
995,0890;0,0849212
996,0532;0,0852084
997,0175;0,0855196
997,9817;0,0858533
998,9459;0,0862001
999,9102;0,0865491
1000,8744;0,0868954
1001,8386;0,0872437
1002,8029;0,0876083
1003,7671;0,0880088
1004,7313;0,0884646
1005,6956;0,0889914
1006,6598;0,089599
1007,6240;0,0902917
1008,5883;0,0910701
1009,5525;0,0919311
1010,5167;0,0928673
1011,4810;0,093866
1012,4452;0,094908
1013,4094;0,0959697
1014,3737;0,097027
1015,3379;0,0980594
1016,3021;0,0990533
1017,2664;0,100002
1018,2306;0,100903
1019,1948;0,101756
1020,1591;0,102564
1021,1233;0,103331
1022,0875;0,104068
1023,0518;0,104786
1024,0160;0,105498
1024,9802;0,106208
1025,9445;0,106908
1026,9087;0,10758
1027,8729;0,108195
1028,8372;0,108719
1029,8014;0,109119
1030,7656;0,109365
1031,7299;0,109429
1032,6941;0,109292
1033,6583;0,108946
1034,6226;0,108406
1035,5868;0,107708
1036,5510;0,106906
1037,5153;0,10607
1038,4795;0,105267
1039,4437;0,104554
1040,4080;0,103973
1041,3722;0,103539
1042,3364;0,103246
1043,3007;0,103066
1044,2649;0,102956
1045,2291;0,102866
1046,1934;0,102752
1047,1576;0,102585
1048,1218;0,102349
1049,0861;0,10204
1050,0503;0,101655
1051,0145;0,101191
1051,9788;0,100643
1052,9430;0,100012
1053,9072;0,0993005
1054,8715;0,098519
1055,8357;0,0976719
1056,7999;0,0967516
1057,7642;0,0957363
1058,7284;0,0945971
1059,6926;0,0933135
1060,6569;0,0918875
1061,6211;0,090351
1062,5853;0,0887598
1063,5496;0,0871792
1064,5138;0,0856676
1065,4780;0,084265
1066,4423;0,0829907
1067,4065;0,0818464
1068,3707;0,0808218
1069,3350;0,0798975
1070,2992;0,0790473
1071,2634;0,0782401
1072,2277;0,0774458
1073,1919;0,0766412
1074,1561;0,0758157
1075,1204;0,0749702
1076,0846;0,0741127
1077,0488;0,0732527
1078,0131;0,0723989
1078,9773;0,0715602
1079,9415;0,0707486
1080,9058;0,0699805
1081,8700;0,0692728
1082,8342;0,0686384
1083,7985;0,068082
1084,7627;0,0675995
1085,7269;0,0671806
1086,6912;0,0668122
1087,6554;0,0664818
1088,6196;0,0661803
1089,5839;0,0659053
1090,5481;0,0656635
1091,5123;0,0654687
1092,4766;0,0653365
1093,4408;0,0652757
1094,4050;0,0652815
1095,3693;0,065336
1096,3335;0,0654151
1097,2977;0,0654998
1098,2620;0,0655828
1099,2262;0,0656683
1100,1904;0,0657635
1101,1547;0,0658694
1102,1189;0,0659756
1103,0831;0,0660634
1104,0474;0,0661142
1105,0116;0,066118
1105,9758;0,0660765
1106,9401;0,0659988
1107,9043;0,0658926
1108,8685;0,0657558
1109,8328;0,0655721
1110,7970;0,0653156
1111,7612;0,064961
1112,7255;0,0644961
1113,6897;0,0639317
1114,6539;0,063302
1115,6182;0,0626569
1116,5824;0,0620463
1117,5466;0,0615042
1118,5109;0,0610382
1119,4751;0,0606283
1120,4393;0,0602349
1121,4036;0,0598107
1122,3678;0,0593132
1123,3320;0,0587117
1124,2963;0,0579896
1125,2605;0,057143
1126,2247;0,0561795
1127,1890;0,0551172
1128,1532;0,0539834
1129,1174;0,052812
1130,0817;0,0516372
1131,0459;0,0504879
1132,0101;0,049384
1132,9744;0,0483376
1133,9386;0,0473573
1134,9028;0,0464535
1135,8671;0,0456399
1136,8313;0,0449308
1137,7955;0,0443362
1138,7598;0,043858
1139,7240;0,0434892
1140,6882;0,043218
1141,6525;0,0430307
1142,6167;0,0429155
1143,5809;0,0428626
1144,5452;0,0428644
1145,5094;0,0429152
1146,4736;0,0430117
1147,4379;0,0431521
1148,4021;0,043335
1149,3663;0,0435563
1150,3306;0,0438082
1151,2948;0,0440799
1152,2590;0,0443592
1153,2233;0,044635
1154,1875;0,0448959
1155,1517;0,0451278
1156,1160;0,0453104
1157,0802;0,0454164
1158,0444;0,0454131
1159,0087;0,0452675
1159,9729;0,0449505
1160,9371;0,0444415
1161,9014;0,0437321
1162,8656;0,0428294
1163,8298;0,0417583
1164,7941;0,0405604
1165,7583;0,0392886
1166,7225;0,037998
1167,6868;0,0367355
1168,6510;0,0355334
1169,6152;0,0344084
1170,5795;0,0333663
1171,5437;0,0324092
1172,5079;0,0315407
1173,4722;0,030767
1174,4364;0,0300935
1175,4006;0,0295206
1176,3649;0,0290413
1177,3291;0,0286422
1178,2933;0,0283079
1179,2576;0,0280255
1180,2218;0,0277874
1181,1860;0,0275908
1182,1503;0,027435
1183,1145;0,0273177
1184,0787;0,0272342
1185,0430;0,0271777
1186,0072;0,0271428
1186,9714;0,0271282
1187,9357;0,0271381
1188,8999;0,0271807
1189,8641;0,0272656
1190,8284;0,0273995
1191,7926;0,0275839
1192,7568;0,0278142
1193,7211;0,0280809
1194,6853;0,0283732
1195,6495;0,0286816
1196,6138;0,0290015
1197,5780;0,0293327
1198,5422;0,029678
1199,5065;0,0299968
1200,4707;0,030378
1201,4349;0,0307667
1202,3992;0,0311514
1203,3634;0,0315216
1204,3276;0,0318713
1205,2919;0,0322023
1206,2561;0,0325228
1207,2203;0,0328439
1208,1846;0,0331754
1209,1488;0,0335222
1210,1130;0,0338851
1211,0773;0,0342624
1212,0415;0,0346536
1213,0057;0,0350602
1213,9700;0,035485
1214,9342;0,0359294
1215,8984;0,0363896
1216,8627;0,0368558
1217,8269;0,0373136
1218,7911;0,0377484
1219,7554;0,0381503
1220,7196;0,0385161
1221,6838;0,0388497
1222,6481;0,0391587
1223,6123;0,0394516
1224,5765;0,0397342
1225,5408;0,0400084
1226,5050;0,0402721
1227,4692;0,0405202
1228,4335;0,0407467
1229,3977;0,0409461
1230,3619;0,0411148
1231,3262;0,0412516
1232,2904;0,0413578
1233,2546;0,0414373
1234,2189;0,0414963
1235,1831;0,0415428
1236,1473;0,0415855
1237,1116;0,041631
1238,0758;0,0416814
1239,0400;0,041733
1240,0043;0,0417782
1240,9685;0,0418083
1241,9327;0,0418171
1242,8970;0,041802
1243,8612;0,041763
1244,8254;0,0417002
1245,7897;0,0416122
1246,7539;0,0414978
1247,7181;0,0413587
1248,6824;0,0412011
1249,6466;0,0410352
1250,6108;0,0408712
1251,5751;0,0407148
1252,5393;0,0405654
1253,5035;0,0404175
1254,4678;0,0402652
1255,4320;0,0401064
1256,3962;0,0399446
1257,3605;0,0397853
1258,3247;0,0396324
1259,2889;0,0394829
1260,2532;0,0393268
1261,2174;0,0391502
1262,1816;0,0389417
1263,1459;0,0386969
1264,1101;0,0384191
1265,0743;0,0381159
1266,0386;0,0377949
1267,0028;0,0374606
1267,9670;0,0371151
1268,9313;0,0367601
1269,8955;0,0363984
1270,8597;0,0360327
1271,8240;0,0356623
1272,7882;0,0352822
1273,7524;0,0348853
1274,7167;0,0344676
1275,6809;0,0340331
1276,6451;0,0335937
1277,6094;0,033164
1278,5736;0,0327545
1279,5378;0,0323679
1280,5021;0,0320005
1281,4663;0,0316476
1282,4305;0,0313076
1283,3948;0,030983
1284,3590;0,0306775
1285,3232;0,0303934
1286,2875;0,0301316
1287,2517;0,0298942
1288,2159;0,0296868
1289,1802;0,0295165
1290,1444;0,029389
1291,1086;0,0293037
1292,0729;0,0292547
1293,0371;0,0292339
1294,0013;0,0292364
1294,9656;0,0292628
1295,9298;0,0293177
1296,8940;0,0294061
1297,8583;0,0295294
1298,8225;0,0296847
1299,7867;0,0298673
1300,7510;0,0300729
1301,7152;0,0302998
1302,6794;0,0305484
1303,6437;0,0308189
1304,6079;0,03111
1305,5721;0,0314182
1306,5364;0,0317384
1307,5006;0,0320652
1308,4648;0,0323942
1309,4291;0,0327218
1310,3933;0,0330434
1311,3575;0,033352
1312,3218;0,0336372
1313,2860;0,0338872
1314,2502;0,0340909
1315,2145;0,0342407
1316,1787;0,0343323
1317,1429;0,0343658
1318,1072;0,0343455
1319,0714;0,0342811
1320,0356;0,0341865
1320,9999;0,0340758
1321,9641;0,0339599
1322,9283;0,0338448
1323,8926;0,0337336
1324,8568;0,0336279
1325,8210;0,0335291
1326,7853;0,033437
1327,7495;0,0333493
1328,7137;0,033262
1329,6780;0,0331716
1330,6422;0,0330765
1331,6064;0,0329773
1332,5707;0,0328747
1333,5349;0,0327668
1334,4991;0,0326466
1335,4634;0,0325026
1336,4276;0,0323213
1337,3918;0,0320937
1338,3561;0,0318239
1339,3203;0,0315357
1340,2845;0,0312657
1341,2488;0,031044
1342,2130;0,0308802
1343,1772;0,0307651
1344,1415;0,0306827
1345,1057;0,0306191
1346,0699;0,0305667
1347,0342;0,0305254
1347,9984;0,0305017
1348,9626;0,0305062
1349,9269;0,030548
1350,8911;0,0306301
1351,8553;0,0307474
1352,8196;0,0308907
1353,7838;0,0310522
1354,7480;0,0312296
1355,7123;0,0314249
1356,6765;0,0316393
1357,6407;0,0318692
1358,6050;0,0321065
1359,5692;0,032343
1360,5334;0,0325726
1361,4977;0,032791
1362,4619;0,0329962
1363,4261;0,0331894
1364,3904;0,0333729
1365,3546;0,0335454
1366,3188;0,0337026
1367,2831;0,0338395
1368,2473;0,0339517
1369,2115;0,0340346
1370,1758;0,034081
1371,1400;0,034082
1372,1042;0,0340295
1373,0685;0,0339229
1374,0327;0,0337751
1374,9969;0,0336095
1375,9612;0,0334433
1376,9254;0,0332717
1377,8896;0,0330699
1378,8539;0,0328125
1379,8181;0,0324935
1380,7823;0,0321334
1381,7466;0,0317662
1382,7108;0,0314156
1383,6750;0,031081
1384,6393;0,0307438
1385,6035;0,0303893
1386,5677;0,0300295
1387,5320;0,0297077
1388,4962;0,029469
1389,4604;0,0293234
1390,4247;0,0292436
1391,3889;0,0291918
1392,3531;0,0291437
1393,3174;0,0290948
1394,2816;0,0290541
1395,2458;0,0290332
1396,2101;0,0290385
1397,1743;0,0290714
1398,1385;0,0291332
1399,1028;0,0292265
1400,0670;0,0293499
1401,0313;0,0294947
1401,9955;0,0296465
1402,9597;0,0297932
1403,9240;0,0299319
1404,8882;0,0300723
1405,8524;0,030231
1406,8167;0,0304203
1407,7809;0,0306415
1408,7451;0,0308867
1409,7094;0,0311479
1410,6736;0,0314208
1411,6378;0,0317018
1412,6021;0,0319826
1413,5663;0,0322491
1414,5305;0,0324845
1415,4948;0,0326762
1416,4590;0,0328195
1417,4232;0,0329193
1418,3875;0,0329905
1419,3517;0,0330539
1420,3159;0,0331176
1421,2802;0,0331613
1422,2444;0,0331495
1423,2086;0,0330576
1424,1729;0,032888
1425,1371;0,032662
1426,1013;0,0323983
1427,0656;0,0320954
1428,0298;0,0317373
1428,9940;0,0313205
1429,9583;0,0308766
1430,9225;0,0304598
1431,8867;0,0301034
1432,8510;0,0297903
1433,8152;0,0294655
1434,7794;0,0290734
1435,7437;0,0286077
1436,7079;0,0281467
1437,6721;0,027811
1438,6364;0,0276601
1439,6006;0,0276602
1440,5648;0,027743
1441,5291;0,0278612
1442,4933;0,0279984
1443,4575;0,0281571
1444,4218;0,0283412
1445,3860;0,0285476
1446,3502;0,0287662
1447,3145;0,0289871
1448,2787;0,0292066
1449,2429;0,029427
1450,2072;0,0296489
1451,1714;0,0298632
1452,1356;0,0300508
1453,0999;0,0301876
1454,0641;0,0302466
1455,0283;0,0301926
1455,9926;0,0299885
1456,9568;0,0296661
1457,9210;0,0293928
1458,8853;0,029314
1459,8495;0,0293961
1460,8137;0,0295171
1461,7780;0,0295709
1462,7422;0,0294847
1463,7064;0,0292205
1464,6707;0,0287987
1465,6349;0,0283111
1466,5991;0,0278574
1467,5634;0,0274637
1468,5276;0,02708
1469,4918;0,0266255
1470,4561;0,026022
1471,4203;0,025222
1472,3845;0,0242645
1473,3488;0,0233128
1474,3130;0,0225522
1475,2772;0,0220364
1476,2415;0,0216984
1477,2057;0,0214535
1478,1699;0,021249
1479,1342;0,0210631
1480,0984;0,0208926
1481,0626;0,0207457
1482,0269;0,0206373
1482,9911;0,02058
1483,9553;0,0205753
1484,9196;0,0206106
1485,8838;0,020664
1486,8480;0,0207141
1487,8123;0,0207503
1488,7765;0,0207879
1489,7407;0,0208715
1490,7050;0,0210411
1491,6692;0,0212947
1492,6334;0,0215999
1493,5977;0,021926
1494,5619;0,0222593
1495,5261;0,0226019
1496,4904;0,0229631
1497,4546;0,0233545
1498,4188;0,0237854
1499,3831;0,0242514
1500,3473;0,0247252
1501,3115;0,0251668
1502,2758;0,0255407
1503,2400;0,0258258
1504,2042;0,0260148
1505,1685;0,0261009
1506,1327;0,0260584
1507,0969;0,0258879
1508,0612;0,0257043
1509,0254;0,0256193
1509,9896;0,0256128
1510,9539;0,025612
1511,9181;0,0255642
1512,8823;0,0254421
1513,8466;0,0252345
1514,8108;0,0249444
1515,7750;0,0245915
1516,7393;0,0242073
1517,7035;0,0238169
1518,6677;0,0234249
1519,6320;0,0230255
1520,5962;0,0226296
1521,5604;0,0222799
1522,5247;0,0220231
1523,4889;0,0218701
1524,4531;0,021794
1525,4174;0,0217636
1526,3816;0,0217673
1527,3458;0,0218095
1528,3101;0,0218898
1529,2743;0,0219923
1530,2385;0,0220927
1531,2028;0,0221742
1532,1670;0,0222414
1533,1312;0,0223235
1534,0955;0,0224551
1535,0597;0,0226446
1536,0239;0,0228674
1536,9882;0,0230881
1537,9524;0,0232761
1538,9166;0,0233961
1539,8809;0,0233946
1540,8451;0,0232615
1541,8093;0,0231182
1542,7736;0,0230865
1543,7378;0,0231594
1544,7020;0,0232782
1545,6663;0,0234039
1546,6305;0,0235217
1547,5947;0,0236244
1548,5590;0,0237049
1549,5232;0,0237585
1550,4874;0,0237923
1551,4517;0,0238271
1552,4159;0,0238865
1553,3801;0,0239773
1554,3444;0,0240802
1555,3086;0,0241533
1556,2728;0,0241334
1557,2371;0,0239407
1558,2013;0,0235648
1559,1655;0,023224
1560,1298;0,0231757
1561,0940;0,0233986
1562,0582;0,0237368
1563,0225;0,0240815
1563,9867;0,0243864
1564,9509;0,0246385
1565,9152;0,0248408
1566,8794;0,0250077
1567,8436;0,0251669
1568,8079;0,0253542
1569,7721;0,0255929
1570,7363;0,0258753
1571,7006;0,0261708
1572,6648;0,0264509
1573,6290;0,0267058
1574,5933;0,0269455
1575,5575;0,0271904
1576,5217;0,0274566
1577,4860;0,0277504
1578,4502;0,0280679
1579,4144;0,0283986
1580,3787;0,0287318
1581,3429;0,0290614
1582,3071;0,0293845
1583,2714;0,0296995
1584,2356;0,0300068
1585,1998;0,0303093
1586,1641;0,0306086
1587,1283;0,0309002
1588,0925;0,0311721
1589,0568;0,0314078
1590,0210;0,0315928
1590,9852;0,0317171
1591,9495;0,0317744
1592,9137;0,0317608
1593,8779;0,0316767
1594,8422;0,0315312
1595,8064;0,0313435
1596,7706;0,0311362
1597,7349;0,0309265
1598,6991;0,0307219
1599,6633;0,0305214
1600,6276;0,0303218
1601,5918;0,0301237
1602,5560;0,0299335
1603,5203;0,0297607
1604,4845;0,0296091
1605,4487;0,0294726
1606,4130;0,0293381
1607,3772;0,0291967
1608,3414;0,0290564
1609,3057;0,0289435
1610,2699;0,0288847
1611,2341;0,0288846
1612,1984;0,02892
1613,1626;0,0289531
1614,1268;0,0289493
1615,0911;0,0288948
1616,0553;0,0288169
1617,0195;0,0287799
1617,9838;0,0288308
1618,9480;0,028957
1619,9122;0,029111
1620,8765;0,0292507
1621,8407;0,0293559
1622,8049;0,029427
1623,7692;0,0294771
1624,7334;0,0295213
1625,6976;0,0295669
1626,6619;0,0296166
1627,6261;0,029678
1628,5903;0,0297637
1629,5546;0,0298808
1630,5188;0,0300204
1631,4830;0,0301596
1632,4473;0,0302691
1633,4115;0,0303181
1634,3757;0,0302782
1635,3400;0,0301505
1636,3042;0,0300024
1637,2684;0,0299261
1638,2327;0,0299485
1639,1969;0,0300374
1640,1611;0,0301552
1641,1254;0,030279
1642,0896;0,0303943
1643,0538;0,0304841
1644,0181;0,0305232
1644,9823;0,0304841
1645,9465;0,0303677
1646,9108;0,0302354
1647,8750;0,0301638
1648,8392;0,03016
1649,8035;0,030159
1650,7677;0,030061
1651,7319;0,0297504
1652,6962;0,029173
1653,6604;0,0285192
1654,6246;0,0281024
1655,5889;0,0279633
1656,5531;0,0279445
1657,5173;0,0279155
1658,4816;0,0278123
1659,4458;0,0276065
1660,4100;0,0272893
1661,3743;0,0268834
1662,3385;0,0264587
1663,3027;0,0261025
1664,2670;0,025854
1665,2312;0,0256831
1666,1954;0,0255182
1667,1597;0,0252802
1668,1239;0,0249154
1669,0881;0,0244411
1670,0524;0,023959
1671,0166;0,0235728
1671,9808;0,02329
1672,9451;0,0230345
1673,9093;0,0227272
1674,8735;0,0223508
1675,8378;0,0219678
1676,8020;0,021671
1677,7662;0,0215043
1678,7305;0,0214386
1679,6947;0,0214038
1680,6589;0,0213176
1681,6232;0,0210924
1682,5874;0,0206585
1683,5516;0,0200534
1684,5159;0,0194726
1685,4801;0,0190896
1686,4443;0,0188926
1687,4086;0,0187786
1688,3728;0,0186731
1689,3370;0,0185571
1690,3013;0,0184441
1691,2655;0,0183515
1692,2297;0,0182827
1693,1940;0,0182243
1694,1582;0,018155
1695,1224;0,018055
1696,0867;0,0179116
1697,0509;0,0177184
1698,0151;0,0174764
1698,9794;0,0172097
1699,9436;0,0169759
1700,9078;0,0168391
1701,8721;0,0168225
1702,8363;0,0168977
1703,8005;0,0170119
1704,7648;0,0171193
1705,7290;0,0172006
1706,6932;0,0172693
1707,6575;0,0173582
1708,6217;0,0174938
1709,5859;0,0176822
1710,5502;0,0179123
1711,5144;0,018166
1712,4786;0,0184215
1713,4429;0,0186523
1714,4071;0,0188242
1715,3713;0,0189038
1716,3356;0,0188901
1717,2998;0,0188516
1718,2640;0,0188847
1719,2283;0,0190244
1720,1925;0,0192376
1721,1567;0,0194738
1722,1210;0,0196964
1723,0852;0,0198869
1724,0494;0,0200425
1725,0137;0,0201735
1725,9779;0,0202973
1726,9421;0,0204292
1727,9064;0,020575
1728,8706;0,0207265
1729,8348;0,0208592
1730,7991;0,0209325
1731,7633;0,020896
1732,7275;0,0207229
1733,6918;0,0204614
1734,6560;0,0202219
1735,6202;0,0200748
1736,5845;0,0200008
1737,5487;0,0199359
1738,5129;0,0198226
1739,4772;0,0196331
1740,4414;0,0193767
1741,4056;0,0190906
1742,3699;0,018813
1743,3341;0,0185596
1744,2983;0,0183231
1745,2626;0,0180852
1746,2268;0,0178212
1747,1910;0,0174979
1748,1553;0,0170812
1749,1195;0,0165694
1750,0837;0,0160233
1751,0480;0,0155378
1752,0122;0,0151685
1752,9764;0,0149014
1753,9407;0,014685
1754,9049;0,0144717
1755,8691;0,0142401
1756,8334;0,0139961
1757,7976;0,013754
1758,7618;0,0135146
1759,7261;0,0132605
1760,6903;0,012977
1761,6545;0,0126787
1762,6188;0,0124108
1763,5830;0,0122185
1764,5472;0,0121169
1765,5115;0,0120873
1766,4757;0,0120947
1767,4399;0,0121024
1768,4042;0,0120771
1769,3684;0,011989
1770,3326;0,0118171
1771,2969;0,01157
1772,2611;0,011304
1773,2253;0,0111003
1774,1896;0,0110062
1775,1538;0,0110089
1776,1180;0,0110602
1777,0823;0,0111104
1778,0465;0,011127
1779,0107;0,0111015
1779,9750;0,0110476
1780,9392;0,0109881
1781,9034;0,0109391
1782,8677;0,0109044
1783,8319;0,0108836
1784,7961;0,0108822
1785,7604;0,0109097
1786,7246;0,0109691
1787,6888;0,0110488
1788,6531;0,011122
1789,6173;0,011154
1790,5815;0,0111172
1791,5458;0,0110144
1792,5100;0,0108934
1793,4742;0,0108172
1794,4385;0,0108133
1795,4027;0,0108629
1796,3669;0,0109269
1797,3312;0,0109698
1798,2954;0,0109698
1799,2596;0,0109239
1800,2239;0,0108489
1801,1881;0,0107735
1802,1523;0,0107218
1803,1166;0,0107035
1804,0808;0,0107147
1805,0450;0,0107456
1806,0093;0,0107856
1806,9735;0,0108239
1807,9377;0,0108498
1808,9020;0,0108542
1809,8662;0,010835
1810,8304;0,0107993
1811,7947;0,0107609
1812,7589;0,0107311
1813,7231;0,010712
1814,6874;0,0106978
1815,6516;0,010682
1816,6158;0,0106645
1817,5801;0,0106548
1818,5443;0,0106657
1819,5085;0,0107028
1820,4728;0,0107577
1821,4370;0,0108119
1822,4012;0,0108475
1823,3655;0,0108582
1824,3297;0,0108532
1825,2939;0,0108488
1826,2582;0,0108521
1827,2224;0,0108513
1828,1866;0,0108239
1829,1509;0,0107576
1830,1151;0,0106686
1831,0793;0,0105957
1832,0436;0,0105705
1833,0078;0,0105959
1833,9720;0,0106502
1834,9363;0,0107046
1835,9005;0,0107391
1836,8647;0,0107531
1837,8290;0,0107627
1838,7932;0,0107867
1839,7574;0,0108305
1840,7217;0,0108821
1841,6859;0,0109172
1842,6501;0,0109121
1843,6144;0,0108602
1844,5786;0,0107832
1845,5428;0,010718
1846,5071;0,0106877
1847,4713;0,0106901
1848,4355;0,0107083
1849,3998;0,0107254
1850,3640;0,0107313
1851,3282;0,0107238
1852,2925;0,0107067
1853,2567;0,0106871
1854,2209;0,0106723
1855,1852;0,0106678
1856,1494;0,0106754
1857,1136;0,0106912
1858,0779;0,0107067
1859,0421;0,0107135
1860,0063;0,0107107
1860,9706;0,0107089
1861,9348;0,0107258
1862,8990;0,0107752
1863,8633;0,0108559
1864,8275;0,0109479
1865,7917;0,0110155
1866,7560;0,0110201
1867,7202;0,0109437
1868,6844;0,0108094
1869,6487;0,010673
1870,6129;0,0105812
1871,5771;0,0105453
1872,5414;0,0105491
1873,5056;0,0105714
1874,4698;0,0105991
1875,4341;0,0106304
1876,3983;0,010669
1877,3625;0,0107151
1878,3268;0,0107596
1879,2910;0,0107879
1880,2552;0,0107895
1881,2195;0,0107672
1882,1837;0,0107388
1883,1479;0,0107283
1884,1122;0,010752
1885,0764;0,0108078
1886,0406;0,0108759
1887,0049;0,0109277
1887,9691;0,0109403
1888,9333;0,01091
1889,8976;0,0108552
1890,8618;0,0108038
1891,8260;0,010775
1892,7903;0,0107701
1893,7545;0,0107763
1894,7188;0,0107765
1895,6830;0,0107598
1896,6472;0,0107249
1897,6115;0,0106789
1898,5757;0,0106316
1899,5399;0,0105936
1900,5042;0,0105755
1901,4684;0,0105881
1902,4326;0,0106371
1903,3969;0,0107172
1904,3611;0,010809
1905,3253;0,0108852
1906,2896;0,0109212
1907,2538;0,0109072
1908,2180;0,0108541
1909,1823;0,0107897
1910,1465;0,0107467
1911,1107;0,0107471
1912,0750;0,0107956
1913,0392;0,0108826
1914,0034;0,0109901
1914,9677;0,0110953
1915,9319;0,0111719
1916,8961;0,0111962
1917,8604;0,0111587
1918,8246;0,0110732
1919,7888;0,0109723
1920,7531;0,0108921
1921,7173;0,0108564
1922,6815;0,0108684
1923,6458;0,0109088
1924,6100;0,0109448
1925,5742;0,0109461
1926,5385;0,010899
1927,5027;0,0108121
1928,4669;0,010712
1929,4312;0,0106325
1930,3954;0,0105996
1931,3596;0,0106181
1932,3239;0,0106688
1933,2881;0,0107202
1934,2523;0,0107466
1935,2166;0,0107414
1936,1808;0,0107161
1937,1450;0,0106866
1938,1093;0,0106578
1939,0735;0,0106192
1940,0377;0,0105551
1941,0020;0,0104629
1941,9662;0,0103664
1942,9304;0,0103082
1943,8947;0,0103216
1944,8589;0,0104063
1945,8231;0,0105295
1946,7874;0,0106475
1947,7516;0,0107267
1948,7158;0,0107529
1949,6801;0,0107261
1950,6443;0,010651
1951,6085;0,0105318
1952,5728;0,0103774
1953,5370;0,0102105
1954,5012;0,0100688
1955,4655;0,0099909
1956,4297;0,00999261
1957,3939;0,0100526
1958,3582;0,01012
1959,3224;0,0101428
1960,2866;0,0101004
1961,2509;0,0100158
1962,2151;0,00993786
1963,1793;0,00990761
1964,1436;0,0099342
1965,1078;0,00999631
1966,0720;0,0100642
1967,0363;0,0101242
1968,0005;0,0101867
1968,9647;0,010271
1969,9290;0,0103833
1970,8932;0,010509
1971,8574;0,0106245
1972,8217;0,0107172
1973,7859;0,0107966
1974,7501;0,0108855
1975,7144;0,0109952
1976,6786;0,0111034
1977,6428;0,0111568
1978,6071;0,0111028
1979,5713;0,0109239
1980,5355;0,0106489
1981,4998;0,0103365
1982,4640;0,0100509
1983,4282;0,00984363
1984,3925;0,00974707
1985,3567;0,00977532
1986,3209;0,00992571
1987,2852;0,0101769
1988,2494;0,010484
1989,2136;0,0107768
1990,1779;0,0109729
1991,1421;0,0110073
1992,1063;0,0108686
1993,0706;0,0106099
1994,0348;0,0103218
1994,9990;0,0100844
1995,9633;0,00993433
1996,9275;0,00986425
1997,8917;0,00984616
1998,8560;0,00985879
1999,8202;0,00989906
2000,7844;0,00997077
2001,7487;0,0100631
2002,7129;0,0101417
2003,6771;0,0101648
2004,6414;0,0101158
2005,6056;0,0100251
2006,5698;0,00995749
2007,5341;0,00996512
2008,4983;0,0100432
2009,4625;0,0101306
2010,4268;0,0101593
2011,3910;0,010114
2012,3552;0,010052
2013,3195;0,0100691
2014,2837;0,0102322
2015,2479;0,0105214
2016,2122;0,010825
2017,1764;0,011002
2018,1406;0,010974
2019,1049;0,0107783
2020,0691;0,0105418
2021,0333;0,0103983
2021,9976;0,0104079
2022,9618;0,0105279
2023,9260;0,0106467
2024,8903;0,0106572
2025,8545;0,0105228
2026,8187;0,0102951
2027,7830;0,0100759
2028,7472;0,00995616
2029,7114;0,00997056
2030,6757;0,0100928
2031,6399;0,0102653
2032,6041;0,0104379
2033,5684;0,0105892
2034,5326;0,0107218
2035,4968;0,0108415
2036,4611;0,010941
2037,4253;0,0109987
2038,3895;0,0109938
2039,3538;0,0109232
2040,3180;0,0108129
2041,2822;0,0107117
2042,2465;0,0106698
2043,2107;0,0107123
2044,1749;0,010824
2045,1392;0,0109559
2046,1034;0,0110512
2047,0676;0,011078
2048,0320;0,0110491
2048,9961;0,0110121
2049,9604;0,0110182
2050,9246;0,0110901
2051,8889;0,011213
2052,8530;0,0113458
2053,8174;0,0114442
2054,7815;0,0114824
2055,7458;0,011463
2056,7100;0,0114136
2057,6743;0,01137
2058,6384;0,0113588
2059,6028;0,0113892
2060,5669;0,0114523
2061,5313;0,011528
2062,4954;0,0115912
2063,4597;0,0116184
2064,4238;0,0115962
2065,3882;0,0115296
2066,3523;0,0114454
2067,3167;0,0113837
2068,2808;0,0113784
2069,2451;0,0114363
2070,2092;0,0115283
2071,1736;0,0116014
2072,1377;0,0116068
2073,1021;0,0115287
2074,0662;0,0113952
2075,0305;0,0112639
2075,9946;0,0111904
2076,9590;0,011201
2077,9231;0,0112832
2078,8875;0,0113979
2079,8516;0,0115015
2080,8159;0,0115671
2081,7800;0,0115916
2082,7444;0,0115919
2083,7085;0,0115921
2084,6729;0,0116102
2085,6370;0,0116491
2086,6013;0,0116964
2087,5654;0,011732
2088,5298;0,0117397
2089,4939;0,0117159
2090,4583;0,0116702
2091,4224;0,011618
2092,3867;0,0115715
2093,3508;0,0115356
2094,3152;0,0115113
2095,2793;0,0115008
2096,2437;0,0115091
2097,2078;0,0115383
2098,1721;0,0115824
2099,1362;0,0116272
2100,1006;0,0116578
2101,0647;0,0116688
2102,0291;0,0116653
2102,9932;0,0116577
2103,9575;0,011652
2104,9216;0,0116453
2105,8860;0,0116311
2106,8501;0,011608
2107,8145;0,0115854
2108,7786;0,0115789
2109,7429;0,0116014
2110,7070;0,0116534
2111,6714;0,0117227
2112,6355;0,0117895
2113,5999;0,0118358
2114,5640;0,0118516
2115,5283;0,0118378
2116,4924;0,0118044
2117,4568;0,0117667
2118,4209;0,0117406
2119,3853;0,0117375
2120,3494;0,0117605
2121,3137;0,0118039
2122,2778;0,011855
2123,2422;0,0118979
2124,2063;0,0119164
2125,1707;0,0118976
2126,1348;0,0118348
2127,0991;0,0117319
2128,0632;0,0116065
2129,0276;0,011488
2129,9917;0,0114094
2130,9561;0,0113949
2131,9202;0,011449
2132,8845;0,0115523
2133,8486;0,0116689
2134,8130;0,0117608
2135,7771;0,0118044
2136,7415;0,0117984
2137,7056;0,0117612
2138,6699;0,0117194
2139,6340;0,0116949
2140,5984;0,0116973
2141,5625;0,0117219
2142,5269;0,0117543
2143,4910;0,0117777
2144,4553;0,0117804
2145,4194;0,0117589
2146,3838;0,0117194
2147,3479;0,0116764
2148,3123;0,011651
2149,2764;0,0116647
2150,2407;0,0117274
2151,2048;0,0118228
2152,1692;0,0119015
2153,1333;0,0118941
2154,0977;0,0117449
2155,0618;0,0114561
2156,0261;0,011114
2156,9902;0,0108714
2157,9546;0,010869
2158,9187;0,0111347
2159,8831;0,0115542
2160,8472;0,0119549
2161,8115;0,0122211
2162,7756;0,0123383
2163,7400;0,0123555
2164,7041;0,0123217
2165,6685;0,0122484
2166,6326;0,0121175
2167,5969;0,0119183
2168,5610;0,0116805
2169,5254;0,0114743
2170,4895;0,0113773
2171,4539;0,0114321
2172,4180;0,0116187
2173,3823;0,0118595
2174,3464;0,0120524
2175,3108;0,0121143
2176,2749;0,0120125
2177,2393;0,0117697
2178,2034;0,0114469
2179,1677;0,0111195
2180,1318;0,0108574
2181,0962;0,0107113
2182,0603;0,0107043
2183,0247;0,0108289
2183,9888;0,0110494
2184,9531;0,0113129
2185,9172;0,0115639
2186,8816;0,01176
2187,8457;0,0118834
2188,8101;0,0119448
2189,7742;0,0119767
2190,7385;0,0120153
2191,7026;0,0120792
2192,6670;0,0121563
2193,6311;0,0122084
2194,5955;0,0121925
2195,5596;0,0120883
2196,5239;0,0119155
2197,4880;0,0117284
2198,4524;0,0115919
2199,4165;0,0115522
2200,3809;0,0116191
2201,3450;0,0117683
2202,3093;0,0119572
2203,2734;0,012143
2204,2378;0,0122917
2205,2019;0,0123791
2206,1663;0,012389
2207,1304;0,0123168
2208,0947;0,0121772
2209,0588;0,0120084
2210,0232;0,0118658
2210,9873;0,0118026
2211,9517;0,0118451
2212,9158;0,0119778
2213,8801;0,0121469
2214,8442;0,0122826
2215,8086;0,0123307
2216,7727;0,0122766
2217,7371;0,0121487
2218,7012;0,0120018
2219,6655;0,0118869
2220,6296;0,0118276
2221,5940;0,0118128
2222,5581;0,0118113
2223,5225;0,0117959
2224,4866;0,0117642
2225,4509;0,0117413
2226,4150;0,011764
2227,3794;0,0118556
2228,3435;0,0120077
2229,3079;0,0121794
2230,2720;0,0123159
2231,2363;0,0123754
2232,2004;0,0123479
2233,1648;0,0122575
2234,1289;0,0121458
2235,0933;0,0120501
2236,0574;0,011987
2237,0217;0,0119516
2237,9858;0,011929
2238,9502;0,0119089
2239,9143;0,0118926
2240,8787;0,0118903
2241,8428;0,0119122
2242,8071;0,0119602
2243,7712;0,0120261
2244,7356;0,0120961
2245,6997;0,0121566
2246,6641;0,0121985
2247,6282;0,0122185
2248,5925;0,0122192
2249,5566;0,0122071
2250,5210;0,0121891
2251,4851;0,0121676
2252,4495;0,0121367
2253,4136;0,0120858
2254,3779;0,0120096
2255,3420;0,0119202
2256,3064;0,0118496
2257,2705;0,0118375
2258,2349;0,0119072
2259,1990;0,0120471
2260,1633;0,0122087
2261,1274;0,012328
2262,0918;0,0123578
2263,0559;0,0122917
2264,0203;0,0121666
2264,9844;0,0120409
2265,9487;0,0119635
2266,9128;0,0119523
2267,8772;0,0119928
2268,8413;0,0120529
2269,8057;0,0121028
2270,7698;0,0121269
2271,7341;0,0121252
2272,6982;0,0121074
2273,6626;0,012085
2274,6267;0,012066
2275,5911;0,0120529
2276,5552;0,0120428
2277,5195;0,0120308
2278,4836;0,0120132
2279,4480;0,0119919
2280,4121;0,0119757
2281,3765;0,0119775
2282,3406;0,0120081
2283,3049;0,0120687
2284,2690;0,0121479
2285,2334;0,0122241
2286,1975;0,0122731
2287,1619;0,0122785
2288,1260;0,0122396
2289,0903;0,0121722
2290,0544;0,0121029
2291,0188;0,012059
2291,9829;0,0120581
2292,9473;0,0121032
2293,9114;0,0121832
2294,8757;0,0122785
2295,8398;0,0123689
2296,8042;0,0124396
2297,7683;0,0124849
2298,7327;0,0125076
2299,6968;0,0125168
2300,6611;0,0125232
2301,6252;0,0125348
2302,5896;0,0125543
2303,5537;0,0125789
2304,5181;0,0126032
2305,4822;0,0126226
2306,4465;0,012636
2307,4106;0,0126447
2308,3750;0,01265
2309,3391;0,0126502
2310,3035;0,0126418
2311,2676;0,0126242
2312,2319;0,0126041
2313,1960;0,0125951
2314,1604;0,012609
2315,1245;0,0126463
2316,0889;0,0126907
2317,0530;0,0127143
2318,0173;0,0126905
2318,9814;0,0126115
2319,9458;0,0124993
2320,9099;0,0124002
2321,8743;0,0123595
2322,8384;0,0123914
2323,8027;0,0124683
2324,7668;0,0125379
2325,7312;0,0125522
2326,6953;0,0124903
2327,6597;0,0123673
2328,6238;0,012227
2329,5881;0,0121232
2330,5522;0,0120932
2331,5166;0,0121393
2332,4807;0,0122313
2333,4451;0,0123258
2334,4092;0,0123874
2335,3735;0,0124009
2336,3376;0,0123735
2337,3020;0,0123278
2338,2661;0,012289
2339,2305;0,0122685
2340,1946;0,0122533
2341,1589;0,0122096
2342,1230;0,0121067
2343,0874;0,0119538
2344,0515;0,011818
2345,0159;0,0117836
2345,9800;0,0118821
2346,9443;0,012075
2347,9084;0,0122921
2348,8728;0,0124736
2349,8369;0,0125885
2350,8013;0,0126366
2351,7654;0,0126441
2352,7297;0,0126508
2353,6938;0,0126902
2354,6582;0,0127654
2355,6223;0,0128396
2356,5867;0,0128513
2357,5508;0,012747
2358,5151;0,0125178
2359,4792;0,0122158
2360,4436;0,0119318
2361,4077;0,0117427
2362,3721;0,0116724
2363,3362;0,0116912
2364,3005;0,0117445
2365,2646;0,0117837
2366,2290;0,0117837
2367,1931;0,0117428
2368,1575;0,0116757
2369,1216;0,0116054
2370,0859;0,0115564
2371,0500;0,0115468
2372,0144;0,0115817
2372,9785;0,0116518
2373,9429;0,0117386
2374,9070;0,0118245
2375,8713;0,0119004
2376,8354;0,0119679
2377,7998;0,0120361
2378,7639;0,0121138
2379,7283;0,0122047
2380,6924;0,0123053
2381,6567;0,0124069
2382,6208;0,0124994
2383,5852;0,0125749
2384,5493;0,012629
2385,5137;0,0126609
2386,4778;0,012673
2387,4421;0,0126696
2388,4063;0,0126564
2389,3706;0,0126397
2390,3347;0,0126253
2391,2991;0,0126177
2392,2632;0,012619
2393,2275;0,0126284
2394,1917;0,0126428
2395,1560;0,0126575
2396,1201;0,0126682
2397,0845;0,0126721
2398,0486;0,0126701
2399,0129;0,012666
2399,9771;0,0126655
2400,9414;0,0126742
2401,9055;0,0126944
2402,8699;0,0127241
2403,8340;0,0127574
2404,7983;0,0127863
2405,7625;0,0128037
2406,7268;0,0128069
2407,6909;0,0127982
2408,6553;0,0127842
2409,6194;0,0127726
2410,5837;0,0127696
2411,5479;0,0127775
2412,5122;0,0127945
2413,4763;0,0128162
2414,4407;0,0128376
2415,4048;0,0128556
2416,3691;0,0128705
2417,3333;0,012886
2418,2976;0,0129078
2419,2617;0,0129398
2420,2261;0,0129805
2421,1902;0,0130215
2422,1545;0,0130502
2423,1187;0,0130556
2424,0830;0,0130347
2425,0471;0,0129951
2426,0115;0,012952
2426,9756;0,0129217
2427,9399;0,0129145
2428,9041;0,0129313
2429,8684;0,0129646
2430,8325;0,0130027
2431,7969;0,0130335
2432,7610;0,0130478
2433,7253;0,013042
2434,6895;0,0130194
2435,6538;0,0129902
2436,6179;0,0129691
2437,5823;0,0129697
2438,5464;0,012998
2439,5107;0,0130487
2440,4749;0,013107
2441,4392;0,0131558
2442,4033;0,0131831
2443,3677;0,0131871
2444,3318;0,0131759
2445,2961;0,0131619
2446,2603;0,0131556
2447,2246;0,0131608
2448,1887;0,0131745
2449,1531;0,0131899
2450,1172;0,0132009
2451,0815;0,013205
2452,0457;0,0132036
2453,0100;0,0132003
2453,9741;0,0131985
2454,9385;0,0131997
2455,9026;0,0132043
2456,8669;0,0132127
2457,8311;0,013226
2458,7954;0,0132451
2459,7595;0,0132686
2460,7239;0,0132918
2461,6880;0,0133082
2462,6523;0,0133121
2463,6165;0,0133025
2464,5808;0,013284
2465,5449;0,0132661
2466,5093;0,0132591
2467,4734;0,0132701
2468,4377;0,0132996
2469,4019;0,0133403
2470,3662;0,0133792
2471,3303;0,0134028
2472,2947;0,0134035
2473,2588;0,0133846
2474,2231;0,0133597
2475,1873;0,0133461
2476,1516;0,0133544
2477,1157;0,0133818
2478,0801;0,0134132
2479,0442;0,0134311
2480,0085;0,0134264
2480,9727;0,0134045
2481,9370;0,0133806
2482,9011;0,0133697
2483,8655;0,0133771
2484,8296;0,0133972
2485,7939;0,0134191
2486,7581;0,0134349
2487,7224;0,0134438
2488,6865;0,0134497
2489,6509;0,0134563
2490,6150;0,0134646
2491,5793;0,0134732
2492,5435;0,0134818
2493,5078;0,0134922
2494,4719;0,0135064
2495,4363;0,013524
2496,4004;0,0135418
2497,3647;0,0135564
2498,3289;0,0135677
2499,2932;0,0135798
2500,2573;0,0135976
2501,2217;0,0136211
2502,1858;0,013643
2503,1501;0,0136517
2504,1143;0,0136375
2505,0786;0,0135994
2506,0427;0,0135466
2507,0071;0,013495
2507,9712;0,0134608
2508,9355;0,0134548
2509,8997;0,0134788
2510,8640;0,0135263
2511,8281;0,0135854
2512,7925;0,0136424
2513,7566;0,0136863
2514,7209;0,0137114
2515,6851;0,0137186
2516,6494;0,013713
2517,6135;0,013701
2518,5779;0,0136872
2519,5420;0,0136738
2520,5063;0,0136623
2521,4705;0,0136554
2522,4348;0,0136569
2523,3989;0,0136691
2524,3633;0,0136903
2525,3274;0,0137135
2526,2917;0,0137299
2527,2559;0,0137331
2528,2202;0,0137224
2529,1843;0,0137032
2530,1487;0,0136844
2531,1128;0,0136738
2532,0771;0,0136763
2533,0413;0,0136924
2534,0056;0,0137189
2534,9697;0,0137504
2535,9341;0,0137801
2536,8982;0,0138024
2537,8625;0,0138146
2538,8267;0,0138169
2539,7910;0,013811
2540,7551;0,0137978
2541,7195;0,0137769
2542,6836;0,0137485
2543,6479;0,0137166
2544,6121;0,0136907
2545,5764;0,0136824
2546,5405;0,0136985
2547,5049;0,013735
2548,4690;0,0137774
2549,4333;0,0138073
2550,3975;0,0138127
2551,3618;0,0137946
2552,3259;0,0137652
2553,2903;0,0137399
2554,2544;0,0137287
2555,2188;0,0137309
2556,1829;0,0137388
2557,1472;0,0137435
2558,1113;0,0137412
2559,0757;0,0137348
2560,0398;0,0137308
2561,0042;0,0137356
2561,9683;0,0137521
2562,9326;0,0137784
2563,8967;0,013809
2564,8611;0,0138353
2565,8252;0,0138489
2566,7896;0,0138444
2567,7537;0,0138229
2568,7180;0,0137934
2569,6821;0,013771
2570,6465;0,0137705
2571,6106;0,0137986
2572,5750;0,0138494
2573,5391;0,0139047
2574,5034;0,0139422
2575,4675;0,0139456
2576,4319;0,0139125
2577,3960;0,0138562
2578,3604;0,0137991
2579,3245;0,0137624
2580,2888;0,013757
2581,2529;0,0137802
2582,2173;0,0138193
2583,1814;0,0138586
2584,1458;0,0138866
2585,1099;0,0138993
2586,0742;0,0138992
2587,0383;0,0138923
2588,0027;0,0138844
2588,9668;0,0138802
2589,9312;0,013882
2590,8953;0,0138903
2591,8596;0,013903
2592,8237;0,0139163
2593,7881;0,0139252
2594,7522;0,0139267
2595,7166;0,0139216
2596,6807;0,0139159
2597,6450;0,0139174
2598,6091;0,0139317
2599,5735;0,0139581
2600,5376;0,013989
2601,5020;0,0140137
2602,4661;0,0140243
2603,4304;0,0140202
2604,3945;0,0140082
2605,3589;0,0139988
2606,3230;0,0140009
2607,2874;0,0140176
2608,2515;0,0140463
2609,2158;0,0140814
2610,1799;0,0141167
2611,1443;0,0141471
2612,1084;0,0141684
2613,0728;0,0141777
2614,0369;0,0141747
2615,0012;0,0141627
2615,9653;0,0141494
2616,9297;0,0141439
2617,8938;0,0141523
2618,8582;0,0141742
2619,8223;0,0142032
2620,7866;0,0142296
2621,7507;0,0142461
2622,7151;0,0142499
2623,6792;0,0142438
2624,6436;0,0142331
2625,6077;0,0142238
2626,5720;0,0142208
2627,5361;0,0142273
2628,5005;0,0142448
2629,4646;0,0142716
2630,4290;0,0143032
2631,3931;0,0143329
2632,3574;0,0143547
2633,3215;0,0143652
2634,2859;0,0143647
2635,2500;0,0143564
2636,2144;0,0143445
2637,1785;0,0143331
2638,1428;0,0143264
2639,1069;0,0143281
2640,0713;0,0143412
2641,0354;0,0143658
2641,9998;0,0143983
2642,9639;0,0144318
2643,9282;0,0144593
2644,8923;0,0144765
2645,8567;0,0144834
2646,8208;0,0144832
2647,7852;0,01448
2648,7493;0,0144768
2649,7136;0,0144754
2650,6777;0,0144773
2651,6421;0,0144841
2652,6062;0,0144975
2653,5706;0,0145179
2654,5347;0,0145436
2655,4990;0,014571
2656,4631;0,0145961
2657,4275;0,0146156
2658,3916;0,0146272
2659,3560;0,0146304
2660,3201;0,014626
2661,2844;0,0146168
2662,2485;0,0146077
2663,2129;0,0146041
2664,1770;0,0146104
2665,1414;0,0146272
2666,1055;0,0146511
2667,0698;0,0146763
2668,0339;0,0146972
2668,9983;0,0147106
2669,9624;0,0147168
2670,9268;0,0147182
2671,8909;0,0147181
2672,8552;0,0147187
2673,8193;0,0147209
2674,7837;0,0147249
2675,7478;0,0147302
2676,7122;0,0147359
2677,6763;0,0147415
2678,6406;0,0147468
2679,6047;0,0147529
2680,5691;0,0147622
2681,5332;0,0147773
2682,4976;0,0147996
2683,4617;0,0148284
2684,4260;0,0148597
2685,3901;0,014888
2686,3545;0,0149074
2687,3186;0,0149145
2688,2830;0,0149097
2689,2471;0,0148975
2690,2114;0,0148855
2691,1755;0,0148816
2692,1399;0,0148916
2693,1040;0,0149164
2694,0684;0,0149521
2695,0325;0,0149912
2695,9968;0,0150255
2696,9609;0,0150495
2697,9253;0,015062
2698,8894;0,0150662
2699,8538;0,0150673
2700,8179;0,0150699
2701,7822;0,0150762
2702,7463;0,0150853
2703,7107;0,015095
2704,6748;0,0151035
2705,6392;0,0151109
2706,6033;0,0151195
2707,5676;0,0151322
2708,5317;0,0151508
2709,4961;0,0151746
2710,4602;0,0152002
2711,4246;0,0152231
2712,3887;0,0152399
2713,3530;0,0152499
2714,3171;0,0152551
2715,2815;0,0152596
2716,2456;0,0152671
2717,2100;0,0152799
2718,1741;0,0152986
2719,1384;0,0153224
2720,1025;0,0153493
2721,0669;0,0153764
2722,0310;0,0153999
2722,9954;0,0154165
2723,9595;0,0154252
2724,9238;0,0154283
2725,8879;0,0154307
2726,8523;0,0154373
2727,8164;0,0154507
2728,7808;0,0154698
2729,7449;0,0154906
2730,7092;0,0155093
2731,6733;0,0155242
2732,6377;0,0155357
2733,6018;0,0155453
2734,5662;0,015554
2735,5303;0,0155622
2736,4946;0,0155702
2737,4587;0,015579
2738,4231;0,0155908
2739,3872;0,0156072
2740,3516;0,0156288
2741,3157;0,015654
2742,2800;0,0156794
2743,2441;0,0157003
2744,2085;0,0157124
2745,1726;0,0157135
2746,1370;0,0157051
2747,1011;0,0156933
2748,0654;0,015687
2749,0295;0,0156948
2749,9939;0,0157198
2750,9580;0,0157579
2751,9224;0,0157988
2752,8865;0,0158311
2753,8508;0,0158479
2754,8149;0,0158502
2755,7793;0,0158457
2756,7434;0,0158444
2757,7078;0,0158532
2758,6719;0,0158734
2759,6362;0,0159011
2760,6003;0,0159309
2761,5647;0,0159584
2762,5288;0,0159824
2763,4932;0,0160038
2764,4573;0,0160237
2765,4216;0,0160421
2766,3857;0,0160576
2767,3501;0,0160685
2768,3142;0,0160746
2769,2786;0,0160776
2770,2427;0,0160804
2771,2070;0,0160863
2772,1711;0,016097
2773,1355;0,0161131
2774,0996;0,0161345
2775,0640;0,0161608
2776,0281;0,0161919
2776,9924;0,0162269
2777,9565;0,0162639
2778,9209;0,0163002
2779,8850;0,0163331
2780,8494;0,0163612
2781,8135;0,0163855
2782,7778;0,0164082
2783,7419;0,0164321
2784,7063;0,0164585
2785,6704;0,016487
2786,6348;0,0165154
2787,5989;0,0165417
2788,5632;0,0165651
2789,5273;0,0165865
2790,4917;0,0166079
2791,4558;0,0166312
2792,4202;0,0166574
2793,3843;0,0166865
2794,3486;0,0167179
2795,3127;0,0167516
2796,2771;0,0167881
2797,2412;0,0168275
2798,2056;0,016869
2799,1697;0,0169104
2800,1340;0,0169496
2801,0981;0,0169858
2802,0625;0,0170204
2803,0266;0,0170564
2803,9910;0,0170965
2804,9551;0,0171412
2805,9194;0,0171891
2806,8835;0,0172373
2807,8479;0,0172841
2808,8120;0,0173296
2809,7764;0,0173757
2810,7405;0,0174242
2811,7048;0,0174764
2812,6689;0,0175319
2813,6333;0,0175902
2814,5974;0,0176509
2815,5618;0,0177136
2816,5259;0,0177776
2817,4902;0,0178414
2818,4543;0,0179036
2819,4187;0,0179635
2820,3828;0,0180225
2821,3472;0,0180834
2822,3113;0,0181491
2823,2756;0,0182211
2824,2397;0,0182994
2825,2041;0,0183827
2826,1682;0,0184699
2827,1326;0,0185611
2828,0967;0,0186569
2829,0610;0,0187579
2830,0251;0,0188643
2830,9895;0,0189756
2831,9536;0,0190917
2832,9180;0,0192128
2833,8821;0,0193397
2834,8464;0,0194733
2835,8105;0,0196149
2836,7749;0,0197661
2837,7390;0,0199293
2838,7034;0,0201068
2839,6675;0,0203005
2840,6318;0,020511
2841,5959;0,0207387
2842,5603;0,0209844
2843,5244;0,021249
2844,4888;0,0215322
2845,4529;0,0218289
2846,4172;0,022127
2847,3813;0,0224081
2848,3457;0,0226511
2849,3098;0,0228381
2850,2742;0,022959
2851,2383;0,0230139
2852,2026;0,023012
2853,1667;0,0229686
2854,1311;0,0229008
2855,0952;0,0228235
2856,0596;0,022746
2857,0237;0,0226707
2857,9880;0,0225952
2858,9521;0,0225173
2859,9165;0,0224394
2860,8806;0,0223699
2861,8450;0,0223205
2862,8091;0,0222996
2863,7734;0,0223082
2864,7375;0,0223395
2865,7019;0,0223835
2866,6660;0,0224321
2867,6304;0,0224824
2868,5945;0,0225341
2869,5588;0,0225862
2870,5229;0,0226351
2871,4873;0,0226749
2872,4514;0,0227018
2873,4158;0,0227162
2874,3799;0,0227218
2875,3442;0,0227226
2876,3083;0,0227208
2877,2727;0,022717
2878,2368;0,0227128
2879,2012;0,0227128
2880,1653;0,0227234
2881,1296;0,0227495
2882,0938;0,022792
2883,0581;0,0228469
2884,0222;0,022909
2884,9866;0,0229745
2885,9507;0,023043
2886,9150;0,0231149
2887,8792;0,0231896
2888,8435;0,0232636
2889,8076;0,0233318
2890,7720;0,0233902
2891,7361;0,023438
2892,7004;0,0234785
2893,6646;0,0235176
2894,6289;0,0235619
2895,5930;0,0236163
2896,5574;0,0236835
2897,5215;0,0237623
2898,4858;0,0238483
2899,4500;0,0239355
2900,4143;0,0240185
2901,3784;0,0240954
2902,3428;0,0241681
2903,3069;0,0242416
2904,2712;0,0243212
2905,2354;0,0244104
2906,1997;0,0245108
2907,1638;0,024624
2908,1282;0,0247533
2909,0923;0,0249029
2910,0566;0,0250768
2911,0208;0,0252748
2911,9851;0,0254915
2912,9492;0,0257166
2913,9136;0,0259371
2914,8777;0,0261408
2915,8420;0,0263175
2916,8062;0,0264602
2917,7705;0,0265644
2918,7346;0,0266278
2919,6990;0,0266498
2920,6631;0,0266314
2921,6274;0,0265752
2922,5916;0,0264854
2923,5559;0,0263675
2924,5200;0,0262283
2925,4844;0,0260745
2926,4485;0,0259128
2927,4128;0,0257482
2928,3770;0,0255839
2929,3413;0,0254208
2930,3054;0,0252581
2931,2698;0,0250932
2932,2339;0,024923
2933,1982;0,0247448
2934,1624;0,0245578
2935,1267;0,0243638
2936,0908;0,024167
2937,0552;0,0239728
2938,0193;0,0237858
2938,9836;0,0236082
2939,9478;0,0234399
2940,9121;0,0232792
2941,8762;0,0231246
2942,8406;0,0229761
2943,8047;0,0228356
2944,7690;0,0227058
2945,7332;0,0225887
2946,6975;0,0224848
2947,6616;0,0223935
2948,6260;0,0223131
2949,5901;0,0222422
2950,5544;0,0221794
2951,5186;0,0221229
2952,4829;0,0220696
2953,4470;0,0220153
2954,4114;0,0219548
2955,3755;0,021884
2956,3398;0,0218017
2957,3040;0,0217105
2958,2683;0,021616
2959,2324;0,0215245
2960,1968;0,0214397
2961,1609;0,0213608
2962,1252;0,0212822
2963,0894;0,021196
2964,0537;0,0210959
2965,0178;0,0209809
2965,9822;0,0208556
2966,9463;0,0207282
2967,9106;0,020606
2968,8748;0,0204921
2969,8391;0,0203845
2970,8032;0,0202786
2971,7676;0,0201709
2972,7317;0,0200614
2973,6960;0,0199539
2974,6602;0,0198541
2975,6245;0,019766
2976,5886;0,0196902
2977,5530;0,0196246
2978,5171;0,0195656
2979,4814;0,0195096
2980,4456;0,0194544
2981,4099;0,0193983
2982,3740;0,0193404
2983,3384;0,019281
2984,3025;0,0192222
2985,2668;0,0191678
2986,2310;0,0191223
2987,1953;0,0190893
2988,1594;0,0190692
2989,1238;0,0190592
2990,0879;0,0190544
2991,0522;0,01905
2992,0164;0,019043
2992,9807;0,0190332
2993,9448;0,0190222
2994,9092;0,0190119
2995,8733;0,0190034
2996,8376;0,0189964
2997,8018;0,0189908
2998,7661;0,0189868
2999,7302;0,0189857
3000,6946;0,0189891
3001,6587;0,0189978
3002,6230;0,0190109
3003,5872;0,0190263
3004,5515;0,0190417
3005,5156;0,0190556
3006,4800;0,0190678
3007,4441;0,0190788
3008,4084;0,0190891
3009,3726;0,0190979
3010,3369;0,0191042
3011,3010;0,0191073
3012,2654;0,0191085
3013,2295;0,0191109
3014,1938;0,0191187
3015,1580;0,0191355
3016,1223;0,0191627
3017,0864;0,0191983
3018,0508;0,019238
3019,0149;0,0192767
3019,9792;0,0193108
3020,9434;0,0193404
3021,9077;0,0193684
3022,8718;0,0193993
3023,8362;0,0194358
3024,8003;0,0194771
3025,7646;0,0195192
3026,7288;0,019557
3027,6931;0,0195872
3028,6572;0,0196103
3029,6216;0,0196299
3030,5857;0,0196509
3031,5500;0,0196768
3032,5142;0,0197088
3033,4785;0,0197459
3034,4426;0,0197866
3035,4070;0,0198303
3036,3711;0,0198773
3037,3354;0,0199281
3038,2996;0,0199817
3039,2639;0,0200353
3040,2280;0,0200849
3041,1924;0,020127
3042,1565;0,0201603
3043,1208;0,0201869
3044,0850;0,0202111
3045,0493;0,0202375
3046,0134;0,0202695
3046,9778;0,0203084
3047,9419;0,0203545
3048,9063;0,0204078
3049,8704;0,0204687
3050,8347;0,0205367
3051,7988;0,0206094
3052,7632;0,0206825
3053,7273;0,0207502
3054,6917;0,0208081
3055,6558;0,0208551
3056,6201;0,020895
3057,5842;0,020935
3058,5486;0,0209824
3059,5127;0,0210409
3060,4771;0,0211086
3061,4412;0,0211778
3062,4055;0,021239
3063,3696;0,0212852
3064,3340;0,0213163
3065,2981;0,0213397
3066,2625;0,0213658
3067,2266;0,0214017
3068,1909;0,0214472
3069,1550;0,021496
3070,1194;0,0215408
3071,0835;0,0215794
3072,0479;0,0216159
3073,0120;0,0216569
3073,9763;0,0217052
3074,9404;0,0217569
3075,9048;0,0218029
3076,8689;0,0218365
3077,8333;0,0218586
3078,7974;0,021879
3079,7617;0,0219112
3080,7258;0,0219648
3081,6902;0,0220397
3082,6543;0,0221266
3083,6187;0,0222115
3084,5828;0,0222819
3085,5471;0,0223309
3086,5112;0,0223588
3087,4756;0,0223723
3088,4397;0,0223818
3089,4041;0,0223971
3090,3682;0,0224245
3091,3325;0,0224653
3092,2966;0,0225157
3093,2610;0,0225703
3094,2251;0,0226248
3095,1895;0,0226777
3096,1536;0,02273
3097,1179;0,0227833
3098,0820;0,0228381
3099,0464;0,0228937
3100,0105;0,0229486
3100,9749;0,0230012
3101,9390;0,0230498
3102,9033;0,0230928
3103,8674;0,0231291
3104,8318;0,0231602
3105,7959;0,0231907
3106,7603;0,0232278
3107,7244;0,0232781
3108,6887;0,0233435
3109,6528;0,0234197
3110,6172;0,0234976
3111,5813;0,0235679
3112,5457;0,0236256
3113,5098;0,023672
3114,4741;0,023713
3115,4382;0,0237556
3116,4026;0,0238042
3117,3667;0,0238592
3118,3311;0,0239184
3119,2952;0,0239791
3120,2595;0,0240399
3121,2236;0,0241005
3122,1880;0,0241602
3123,1521;0,0242171
3124,1165;0,0242694
3125,0806;0,0243173
3126,0449;0,0243646
3127,0090;0,0244173
3127,9734;0,0244809
3128,9375;0,024556
3129,9019;0,0246381
3130,8660;0,0247198
3131,8303;0,0247948
3132,7944;0,0248616
3133,7588;0,0249229
3134,7229;0,0249828
3135,6873;0,0250429
3136,6514;0,0251025
3137,6157;0,0251601
3138,5798;0,0252165
3139,5442;0,0252743
3140,5083;0,0253362
3141,4727;0,0254017
3142,4368;0,0254677
3143,4011;0,0255306
3144,3652;0,02559
3145,3296;0,0256502
3146,2937;0,0257168
3147,2581;0,0257927
3148,2222;0,0258745
3149,1865;0,0259537
3150,1506;0,026021
3151,1150;0,0260721
3152,0791;0,0261104
3153,0435;0,0261452
3154,0076;0,0261873
3154,9719;0,0262444
3155,9360;0,0263186
3156,9004;0,0264073
3157,8645;0,0265053
3158,8289;0,0266066
3159,7930;0,0267053
3160,7573;0,0267962
3161,7214;0,0268752
3162,6858;0,0269415
3163,6499;0,0269979
3164,6143;0,0270511
3165,5784;0,0271083
3166,5427;0,0271741
3167,5068;0,0272484
3168,4712;0,0273274
3169,4353;0,0274029
3170,3997;0,027482
3171,3638;0,0275607
3172,3281;0,0276393
3173,2922;0,0277157
3174,2566;0,0277863
3175,2207;0,0278495
3176,1851;0,0279078
3177,1492;0,0279671
3178,1135;0,0280323
3179,0776;0,028103
3180,0420;0,0281735
3181,0061;0,0282378
3181,9705;0,0282947
3182,9346;0,0283504
3183,8989;0,0284132
3184,8630;0,0284873
3185,8274;0,0285684
3186,7915;0,0286463
3187,7559;0,0287122
3188,7200;0,0287657
3189,6843;0,0288154
3190,6484;0,0288727
3191,6128;0,0289441
3192,5769;0,0290263
3193,5413;0,0291084
3194,5054;0,0291781
3195,4697;0,0292295
3196,4338;0,0292661
3197,3982;0,029299
3198,3623;0,0293411
3199,3267;0,0294007
3200,2908;0,0294788
3201,2551;0,0295693
3202,2192;0,0296631
3203,1836;0,0297521
3204,1477;0,0298321
3205,1121;0,029903
3206,0762;0,0299672
3207,0405;0,030027
3208,0046;0,0300828
3208,9690;0,0301332
3209,9331;0,0301774
3210,8975;0,0302168
3211,8616;0,0302563
3212,8259;0,030302
3213,7900;0,0303587
3214,7544;0,0304277
3215,7185;0,0305054
3216,6829;0,0305858
3217,6470;0,030663
3218,6113;0,0307337
3219,5754;0,0307979
3220,5398;0,0308581
3221,5039;0,0309175
3222,4683;0,0309779
3223,4324;0,0310399
3224,3967;0,0311025
3225,3608;0,0311639
3226,3252;0,0312221
3227,2893;0,0312757
3228,2537;0,0313253
3229,2178;0,0313734
3230,1821;0,031425
3231,1462;0,0314856
3232,1106;0,031559
3233,0747;0,0316443
3234,0391;0,0317356
3235,0032;0,0318243
3235,9675;0,0319023
3236,9316;0,0319663
3237,8960;0,032019
3238,8601;0,0320673
3239,8245;0,0321187
3240,7886;0,0321773
3241,7529;0,032243
3242,7170;0,0323126
3243,6814;0,0323829
3244,6455;0,0324523
3245,6099;0,0325218
3246,5740;0,0325923
3247,5383;0,0326638
3248,5024;0,0327344
3249,4668;0,0328017
3250,4309;0,0328649
3251,3953;0,0329255
3252,3594;0,0329872
3253,3237;0,0330535
3254,2878;0,0331262
3255,2522;0,0332035
3256,2163;0,0332808
3257,1807;0,0333529
3258,1448;0,0334165
3259,1091;0,0334726
3260,0732;0,033526
3261,0376;0,0335835
3262,0017;0,0336503
3262,9661;0,0337279
3263,9302;0,0338136
3264,8945;0,0339025
3265,8586;0,0339903
3266,8230;0,0340743
3267,7871;0,0341533
3268,7515;0,0342255
3269,7156;0,0342886
3270,6799;0,0343403
3271,6440;0,0343806
3272,6084;0,0344131
3273,5725;0,034443
3274,5369;0,0344749
3275,5010;0,0345104
3276,4653;0,0345477
3277,4294;0,0345836
3278,3938;0,0346161
3279,3579;0,0346448
3280,3223;0,0346711
3281,2864;0,034696
3282,2507;0,0347202
3283,2148;0,0347442
3284,1792;0,034768
3285,1433;0,0347914
3286,1077;0,0348132
3287,0718;0,0348307
3288,0361;0,0348403
3289,0002;0,0348398
3289,9646;0,0348305
3290,9287;0,0348172
3291,8931;0,0348067
3292,8572;0,0348035
3293,8215;0,0348071
3294,7856;0,0348124
3295,7500;0,0348126
3296,7141;0,0348044
3297,6785;0,0347907
3298,6426;0,03478
3299,6069;0,0347812
3300,5710;0,0347983
3301,5354;0,0348271
3302,4995;0,0348573
3303,4639;0,0348773
3304,4280;0,0348801
3305,3923;0,034866
3306,3564;0,0348415
3307,3208;0,0348153
3308,2849;0,0347939
3309,2493;0,0347801
3310,2134;0,0347731
3311,1777;0,0347706
3312,1418;0,0347709
3313,1062;0,034774
3314,0703;0,0347808
3315,0347;0,0347932
3315,9988;0,0348125
3316,9631;0,0348386
3317,9272;0,0348706
3318,8916;0,0349062
3319,8557;0,0349432
3320,8201;0,0349788
3321,7842;0,0350097
3322,7485;0,0350323
3323,7126;0,0350434
3324,6770;0,0350425
3325,6411;0,0350334
3326,6055;0,0350248
3327,5696;0,035027
3328,5339;0,0350467
3329,4980;0,035083
3330,4624;0,0351271
3331,4265;0,0351659
3332,3909;0,0351886
3333,3550;0,0351914
3334,3193;0,0351783
3335,2834;0,0351578
3336,2478;0,0351377
3337,2119;0,0351206
3338,1763;0,0351037
3339,1404;0,0350819
3340,1047;0,0350513
3341,0688;0,0350124
3342,0332;0,034969
3342,9973;0,0349261
3343,9617;0,0348872
3344,9258;0,0348515
3345,8901;0,0348148
3346,8542;0,0347706
3347,8186;0,0347131
3348,7827;0,0346403
3349,7471;0,0345546
3350,7112;0,0344627
3351,6755;0,0343726
3352,6396;0,034291
3353,6040;0,0342212
3354,5681;0,034163
3355,5325;0,0341141
3356,4966;0,0340716
3357,4609;0,0340333
3358,4250;0,0339974
3359,3894;0,0339619
3360,3535;0,0339237
3361,3179;0,0338791
3362,2820;0,0338242
3363,2463;0,0337573
3364,2104;0,0336797
3365,1748;0,0335961
3366,1389;0,0335128
3367,1033;0,0334361
3368,0674;0,0333693
3369,0317;0,0333116
3369,9958;0,033259
3370,9602;0,0332051
3371,9243;0,0331448
3372,8887;0,0330757
3373,8528;0,0329991
3374,8171;0,0329198
3375,7813;0,0328437
3376,7456;0,032775
3377,7097;0,0327139
3378,6741;0,0326558
3379,6382;0,0325932
3380,6025;0,0325201
3381,5667;0,0324363
3382,5310;0,0323497
3383,4951;0,0322736
3384,4595;0,0322205
3385,4236;0,0321953
3386,3879;0,032191
3387,3521;0,0321923
3388,3164;0,0321814
3389,2805;0,0321457
3390,2449;0,0320821
3391,2090;0,0319963
3392,1733;0,0318988
3393,1375;0,0318003
3394,1018;0,0317079
3395,0659;0,0316242
3396,0303;0,0315493
3396,9944;0,0314828
3397,9587;0,0314243
3398,9229;0,0313735
3399,8872;0,0313283
3400,8513;0,0312842
3401,8157;0,0312348
3402,7798;0,0311734
3403,7441;0,0310963
3404,7083;0,0310047
3405,6726;0,0309048
3406,6367;0,0308058
3407,6011;0,0307154
3408,5652;0,0306378
3409,5295;0,0305722
3410,4937;0,0305144
3411,4580;0,0304586
3412,4221;0,0303993
3413,3865;0,0303321
3414,3506;0,0302549
3415,3149;0,0301684
3416,2791;0,030077
3417,2434;0,0299876
3418,2075;0,0299065
3419,1719;0,0298358
3420,1360;0,0297709
3421,1003;0,0297032
3422,0645;0,0296246
3423,0288;0,0295328
3423,9929;0,0294314
3424,9573;0,0293269
3425,9214;0,0292246
3426,8857;0,0291271
3427,8499;0,0290348
3428,8142;0,0289487
3429,7783;0,02887
3430,7427;0,0287987
3431,7068;0,0287309
3432,6711;0,0286597
3433,6353;0,0285779
3434,5996;0,0284832
3435,5637;0,0283803
3436,5281;0,0282793
3437,4922;0,028191
3438,4565;0,0281209
3439,4207;0,028067
3440,3850;0,0280205
3441,3491;0,0279691
3442,3135;0,0279014
3443,2776;0,0278112
3444,2419;0,0276995
3445,2061;0,0275745
3446,1704;0,0274489
3447,1345;0,0273343
3448,0989;0,0272364
3449,0630;0,0271528
3450,0273;0,0270755
3450,9915;0,0269959
3451,9558;0,0269081
3452,9199;0,0268104
3453,8843;0,0267046
3454,8484;0,0265949
3455,8127;0,0264864
3456,7769;0,0263837
3457,7412;0,0262897
3458,7053;0,0262054
3459,6697;0,0261294
3460,6338;0,0260586
3461,5981;0,0259899
3462,5623;0,0259198
3463,5266;0,0258451
3464,4907;0,0257622
3465,4551;0,0256686
3466,4192;0,0255641
3467,3835;0,0254522
3468,3477;0,0253383
3469,3120;0,0252273
3470,2761;0,0251206
3471,2405;0,0250164
3472,2046;0,0249137
3473,1689;0,0248145
3474,1331;0,0247237
3475,0974;0,0246439
3476,0615;0,0245711
3477,0259;0,024495
3477,9900;0,0244051
3478,9543;0,0242992
3479,9185;0,0241872
3480,8828;0,0240868
3481,8469;0,0240108
3482,8113;0,0239561
3483,7754;0,0239034
3484,7397;0,0238285
3485,7039;0,0237173
3486,6682;0,0235748
3487,6323;0,023423
3488,5967;0,0232896
3489,5608;0,0231921
3490,5251;0,0231297
3491,4893;0,0230856
3492,4536;0,023038
3493,4177;0,0229714
3494,3821;0,0228834
3495,3462;0,0227845
3496,3105;0,0226899
3497,2747;0,0226089
3498,2390;0,0225392
3499,2031;0,0224685
3500,1675;0,0223832
3501,1316;0,0222779
3502,0959;0,0221613
3503,0601;0,0220512
3504,0244;0,0219621
3504,9885;0,0218933
3505,9529;0,0218294
3506,9170;0,0217507
3507,8813;0,0216451
3508,8455;0,0215163
3509,8098;0,0213814
3510,7739;0,02126
3511,7383;0,0211627
3512,7024;0,0210865
3513,6667;0,0210214
3514,6309;0,0209595
3515,5952;0,0208996
3516,5593;0,0208448
3517,5237;0,0207972
3518,4878;0,0207533
3519,4521;0,0207049
3520,4163;0,020644
3521,3806;0,020568
3522,3447;0,0204808
3523,3091;0,0203884
3524,2732;0,0202934
3525,2375;0,0201929
3526,2017;0,0200818
3527,1660;0,0199599
3528,1301;0,0198338
3529,0945;0,0197143
3530,0586;0,0196084
3531,0229;0,0195148
3531,9871;0,0194249
3532,9514;0,0193291
3533,9155;0,0192222
3534,8799;0,0191071
3535,8440;0,0189951
3536,8083;0,0189017
3537,7725;0,0188409
3538,7368;0,0188186
3539,7009;0,0188296
3540,6653;0,0188566
3541,6294;0,0188721
3542,5938;0,0188447
3543,5579;0,0187523
3544,5222;0,0185971
3545,4863;0,0184116
3546,4507;0,0182406
3547,4148;0,0181126
3548,3792;0,0180253
3549,3433;0,0179542
3550,3076;0,017872
3551,2717;0,0177655
3552,2361;0,0176426
3553,2002;0,0175247
3554,1646;0,0174302
3555,1287;0,0173616
3556,0930;0,0173075
3557,0571;0,0172551
3558,0215;0,0172027
3558,9856;0,0171644
3559,9500;0,0171618
3560,9141;0,017206
3561,8784;0,017283
3562,8425;0,0173499
3563,8069;0,0173431
3564,7710;0,0172009
3565,7354;0,0169074
3566,6995;0,0165335
3567,6638;0,0162058
3568,6279;0,0160088
3569,5923;0,0159369
3570,5564;0,0159327
3571,5208;0,0159377
3572,4849;0,0159164
3573,4492;0,0158607
3574,4133;0,0157826
3575,3777;0,0157001
3576,3418;0,0156231
3577,3062;0,0155501
3578,2703;0,0154781
3579,2346;0,0154151
3580,1987;0,0153805
3581,1631;0,0153912
3582,1272;0,015445
3583,0916;0,0155115
3584,0557;0,0155372
3585,0200;0,015465
3585,9841;0,0152717
3586,9485;0,0150074
3587,9126;0,0147774
3588,8770;0,0146575
3589,8411;0,0146434
3590,8054;0,0146777
3591,7695;0,0146975
3592,7339;0,0146634
3593,6980;0,014572
3594,6624;0,0144519
3595,6265;0,0143382
3596,5908;0,0142422
3597,5549;0,0141483
3598,5193;0,0140375
3599,4834;0,0139149
3600,4478;0,0138133
3601,4119;0,0137688
3602,3762;0,0137893
3603,3403;0,0138459
3604,3047;0,0138888
3605,2688;0,0138734
3606,2332;0,013784
3607,1973;0,0136464
3608,1616;0,0135138
3609,1257;0,0134298
3610,0901;0,0133999
3611,0542;0,0134
3612,0186;0,0134026
3612,9827;0,0133933
3613,9470;0,0133673
3614,9111;0,0133148
3615,8755;0,0132122
3616,8396;0,0130321
3617,8040;0,0127724
3618,7681;0,0124873
3619,7324;0,0122775
3620,6965;0,0122253
3621,6609;0,0123419
3622,6250;0,0125769
3623,5894;0,0128558
3624,5535;0,0130969
3625,5178;0,0132089
3626,4819;0,0130993
3627,4463;0,0127316
3628,4104;0,0122146
3629,3748;0,0117663
3630,3389;0,0115214
3631,3032;0,0114523
3632,2673;0,0114657
3633,2317;0,0114893
3634,1958;0,0114918
3635,1602;0,0114717
3636,1243;0,0114393
3637,0886;0,0114025
3638,0527;0,011364
3639,0171;0,0113308
3639,9812;0,0113235
3640,9456;0,0113751
3641,9097;0,0115146
3642,8740;0,0117469
3643,8381;0,0120412
3644,8025;0,0123251
3645,7666;0,0124808
3646,7310;0,0123578
3647,6951;0,0118684
3648,6594;0,0111671
3649,6235;0,0106145
3650,5879;0,0104101
3651,5520;0,0104662
3652,5164;0,0106037
3653,4805;0,0106874
3654,4448;0,0106507
3655,4089;0,0104991
3656,3733;0,0103029
3657,3374;0,0101499
3658,3018;0,0100802
3659,2659;0,0100729
3660,2302;0,0100877
3661,1943;0,010109
3662,1587;0,0101568
3663,1228;0,0102642
3664,0872;0,0104418
3665,0513;0,0106581
3666,0156;0,0108482
3666,9797;0,0109433
3667,9441;0,0109145
3668,9082;0,0108135
3669,8726;0,0107481
3670,8367;0,0107786
3671,8010;0,0108541
3672,7651;0,0108545
3673,7295;0,0106716
3674,6936;0,0102931
3675,6580;0,0098535
3676,6221;0,00954213
3677,5864;0,00943343
3678,5505;0,00947069
3679,5149;0,00957169
3680,4790;0,00969438
3681,4434;0,00983821
3682,4075;0,0100183
3683,3718;0,0102369
3684,3359;0,0104668
3685,3003;0,0106498
3686,2644;0,0107074
3687,2288;0,010571
3688,1929;0,0102434
3689,1572;0,00984679
3690,1213;0,00955144
3691,0857;0,00943495
3692,0498;0,00945996
3693,0142;0,00955554
3693,9783;0,00967312
3694,9426;0,00979232
3695,9067;0,00990653
3696,8711;0,0100074
3697,8352;0,0100771
3698,7996;0,0100922
3699,7637;0,01004
3700,7280;0,00993897
3701,6921;0,00984335
3702,6565;0,00981627
3703,6206;0,00989075
3704,5850;0,0100557
3705,5491;0,0102698
3706,5134;0,0104766
3707,4775;0,0106087
3708,4419;0,010593
3709,4060;0,0103822
3710,3704;0,0100177
3711,3345;0,00964865
3712,2988;0,00942823
3713,2629;0,00940079
3714,2273;0,00951547
3715,1914;0,00969621
3716,1558;0,0098808
3717,1199;0,0100299
3718,0842;0,0101275
3719,0483;0,0101793
3720,0127;0,0102022
3720,9768;0,0102075
3721,9412;0,0101905
3722,9053;0,0101391
3723,8696;0,0100586
3724,8337;0,00998642
3725,7981;0,00997727
3726,7622;0,0100674
3727,7266;0,0102533
3728,6907;0,0104976
3729,6550;0,010746
3730,6191;0,0109361
3731,5835;0,0109996
3732,5476;0,0108737
3733,5120;0,0105426
3734,4761;0,0100999
3735,4404;0,00973587
3736,4045;0,0096038
3737,3689;0,00971941
3738,3330;0,0100004
3739,2974;0,0103417
3740,2615;0,0106449
3741,2258;0,0108198
3742,1899;0,0108002
3743,1543;0,0105998
3744,1184;0,0103575
3745,0828;0,0102488
3746,0469;0,0103189
3747,0112;0,0104596
3747,9753;0,0105069
3748,9397;0,0103325
3749,9038;0,00993616
3750,8682;0,00950635
3751,8323;0,00928335
3752,7966;0,00933165
3753,7607;0,00954145
3754,7251;0,00976939
3755,6892;0,0099114
3756,6536;0,00991729
3757,6177;0,00980188
3758,5820;0,00964437
3759,5461;0,00954238
3760,5105;0,00954549
3761,4746;0,00963611
3762,4390;0,00976182
3763,4031;0,00987177
3764,3674;0,00993343
3765,3315;0,00993409
3766,2959;0,00987461
3767,2600;0,0097632
3768,2244;0,0096165
3769,1885;0,00946715
3770,1528;0,0093628
3771,1169;0,00934554
3772,0813;0,00942557
3773,0454;0,00957412
3774,0098;0,0097377
3774,9739;0,00985811
3775,9382;0,00989052
3776,9023;0,00982237
3777,8667;0,00968809
3778,8308;0,00955762
3779,7952;0,00949125
3780,7593;0,00950007
3781,7236;0,00955094
3782,6877;0,009599
3783,6521;0,00961377
3784,6162;0,00958825
3785,5806;0,00953565
3786,5447;0,00948036
3787,5090;0,0094481
3788,4731;0,00945811
3789,4375;0,00951726
3790,4016;0,00961667
3791,3660;0,00973393
3792,3301;0,00984291
3793,2944;0,00992872
3794,2585;0,00999851
3795,2229;0,0100763
3796,1870;0,0101787
3797,1514;0,0102892
3798,1155;0,0103563
3799,0798;0,0103252
3800,0439;0,0101883
3801,0083;0,010012
3801,9724;0,00988784
3802,9368;0,00984332
3803,9009;0,00981979
3804,8652;0,00973292
3805,8293;0,00954873
3806,7937;0,00932768
3807,7578;0,00919603
3808,7222;0,00924711
3809,6863;0,00947314
3810,6506;0,0097915
3811,6147;0,0101044
3812,5791;0,010335
3813,5432;0,0104468
3814,5076;0,0104579
3815,4717;0,0104285
3816,4360;0,0104047
3817,4001;0,0103705
3818,3645;0,0102678
3819,3286;0,0100626
3820,2930;0,00979941
3821,2571;0,00958611
3822,2214;0,00950403
3823,1855;0,00954632
3824,1499;0,00964977
3825,1140;0,00975386
3826,0784;0,00982846
3827,0425;0,00987365
3828,0068;0,00990759
3828,9709;0,00995181
3829,9353;0,010021
3830,8994;0,01012
3831,8638;0,0102435
3832,8279;0,0103746
3833,7922;0,0104824
3834,7563;0,0105261
3835,7207;0,0104701
3836,6848;0,0103107
3837,6492;0,0100935
3838,6133;0,00989434
3839,5776;0,0097645
3840,5417;0,00969983
3841,5061;0,00966429
3842,4702;0,00963326
3843,4346;0,00961623
3844,3987;0,00964985
3845,3630;0,00977212
3846,3271;0,00999775
3847,2915;0,0103087
3848,2556;0,0106559
3849,2200;0,0109577
3850,1841;0,0110929
3851,1484;0,0109179
3852,1125;0,0103804
3853,0769;0,00969851
3854,0410;0,00924973
3855,0054;0,00917502
3855,9695;0,00935045
3856,9338;0,0096206
3857,8979;0,00989079
3858,8623;0,0101094
3859,8264;0,0102439
3860,7908;0,0102785
3861,7549;0,0102286
3862,7192;0,0101499
3863,6833;0,0101136
3864,6477;0,0101575
3865,6118;0,0102641
3866,5762;0,0103802
3867,5403;0,0104478
3868,5046;0,0104246
3869,4688;0,0102993
3870,4331;0,0100991
3871,3972;0,00988319
3872,3616;0,00971671
3873,3257;0,00964352
3874,2900;0,00967296
3875,2542;0,00978233
3876,2185;0,00992844
3877,1826;0,0100633
3878,1470;0,0101515
3879,1111;0,0101856
3880,0754;0,0101856
3881,0396;0,0101761
3882,0039;0,0101594
3882,9680;0,0101163
3883,9324;0,0100375
3884,8965;0,00994849
3885,8608;0,00989679
3886,8250;0,00990819
3887,7893;0,00995871
3888,7534;0,00998859
3889,7178;0,00994464
3890,6819;0,0098269
3891,6462;0,00970634
3892,6104;0,00967777
3893,5747;0,00978272
3894,5388;0,00998864
3895,5032;0,0102279
3896,4673;0,0104375
3897,4316;0,0105775
3898,3958;0,0106352
3899,3601;0,010618
3900,3242;0,0105347
3901,2886;0,0103827
3902,2527;0,0101623
3903,2170;0,00990431
3904,1812;0,0096686
3905,1455;0,00950813
3906,1096;0,00943769
3907,0740;0,00943782
3908,0381;0,00947885
3909,0024;0,00953971
3909,9666;0,00961302
3910,9309;0,00969929
3911,8950;0,00979573
3912,8594;0,00988799
3913,8235;0,00995136
3914,7878;0,00996279
3915,7520;0,00991876
3916,7163;0,0098463
3917,6804;0,00979169
3918,6448;0,00978875
3919,6089;0,00983509
3920,5732;0,00989756
3921,5374;0,00993646
3922,5017;0,00992966
3923,4658;0,00988613
3924,4302;0,00984084
3925,3943;0,00982992
3926,3586;0,00986434
3927,3228;0,00992386
3928,2871;0,00997123
3929,2512;0,00997301
3930,2156;0,00991755
3931,1797;0,00982331
3932,1440;0,00972908
3933,1082;0,00967027
3934,0725;0,00966135
3935,0366;0,00969658
3936,0010;0,00976
3936,9651;0,0098326
3937,9294;0,00989499
3938,8936;0,00993015
3939,8579;0,00992955
3940,8220;0,0099006
3941,7864;0,00986734
3942,7505;0,00985822
3943,7148;0,00988666
3944,6790;0,0099409
3945,6433;0,00999132
3946,6074;0,0100081
3947,5718;0,00997835
3948,5359;0,00991311
3949,5002;0,00984022
3950,4644;0,00978547
3951,4287;0,00975804
3952,3928;0,00975095
3953,3572;0,0097521
3954,3213;0,00975423
3955,2856;0,00975719
3956,2498;0,00976331
3957,2141;0,00977146
3958,1782;0,00977559
3959,1426;0,00976902
3960,1067;0,00975075
3961,0710;0,00972818
3962,0352;0,00971348
3962,9995;0,00971589
3963,9636;0,0097358
3964,9280;0,00976487
3965,8921;0,00979138
3966,8564;0,00980697
3967,8206;0,00981068
3968,7849;0,0098083
3969,7490;0,00980768
3970,7134;0,00981296
3971,6775;0,0098219
3972,6418;0,00982779
3973,6060;0,00982464
3974,5703;0,00981182
3975,5344;0,00979479
3976,4988;0,0097816
3977,4629;0,00977784
3978,4272;0,00978358
3979,3914;0,00979416
3980,3557;0,00980351
3981,3198;0,00980759
3982,2842;0,00980583
3983,2483;0,00980017
3984,2126;0,00979306
3985,1768;0,00978635
3986,1411;0,0097814
3987,1052;0,00977976
3988,0696;0,00978298
3989,0337;0,00979102
3989,9980;0,00980074
3990,9622;0,00980583
3991,9265;0,00979935
3992,8906;0,00977773
3993,8550;0,00974388
3994,8191;0,00970718
3995,7834;0,00967991
3996,7476;0,009672
3997,7119;0,00968665
3998,6760;0,00971939
3999,6404;0,00976047
4000,6045;0,00976588

##### Extended Information
[Comments]
Sample name
Comment
Username
Division
Organization;UNIVERSIDAD INDUSTRIAL DE SANTANDER

[Detailed Information]
Creation date;17/03/2025 3:00 p.m.

Data array type;Linear data array
Horizontal axis;Wavenumber [cm-1]
Vertical axis;Abs
Start;399,193 cm-1
End;4000,6 cm-1
Data interval;0,964233 cm-1
Data points;3736    

[Measurement Information]
Model name;FT/IR-4X1typeA
Serial No.;A035162111

Accessory;ATR PRO 4X
Accessory S/N;A021162126
Incident angle;45 deg

Measurement date;17/03/2025 2:59 p.m.

Light source;Standard
Detector;TGS
Accumulation;40
Resolution;4 cm-1
Zero filling;On
Apodization;Cosine
Gain;Auto (8)
Aperture;Auto (7 mm)
Scan speed;Auto (2 mm/sec)
Filter;Auto (12800 Hz)

