TITLE;
DATA TYPE;INFRARED SPECTRUM
ORIGIN;JASCO
OWNER;
DATE;25/01/29
TIME;16:13:51
SPECTROMETER/DATA SYSTEM;
LOCALE;9226
RESOLUTION;
DELTAX;0,964233
XUNITS;1/CM
YUNITS;ABSORBANCE
FIRSTX;  399,1927
LASTX; 4000,6047
NPOINTS;    3736
FIRSTY;     0,10037
MAXY;     0,11821
MINY;     0,00253
XYDATA
399,1927;0,100374
400,1569;0,098681
401,1211;0,097399
402,0854;0,0968158
403,0496;0,0969398
404,0138;0,0975796
404,9781;0,0984059
405,9423;0,0990485
406,9065;0,0992469
407,8708;0,0989707
408,8350;0,0984096
409,7992;0,0978445
410,7635;0,0974951
411,7277;0,0974294
412,6919;0,0975802
413,6562;0,0978437
414,6204;0,0981721
415,5846;0,098594
416,5489;0,0991641
417,5131;0,0998629
418,4773;0,100509
419,4416;0,100854
420,4058;0,100865
421,3700;0,100761
422,3343;0,100782
423,2985;0,101021
424,2627;0,101416
425,2270;0,101803
426,1912;0,102002
427,1554;0,101923
428,1197;0,101617
429,0839;0,101246
430,0481;0,101008
431,0124;0,10105
431,9766;0,101408
432,9408;0,101983
433,9051;0,102583
434,8693;0,10301
435,8335;0,103157
436,7978;0,103055
437,7620;0,102841
438,7262;0,102665
439,6905;0,102603
440,6547;0,102639
441,6189;0,102696
442,5832;0,102699
443,5474;0,102628
444,5116;0,102522
445,4759;0,102436
446,4401;0,102399
447,4043;0,102402
448,3686;0,102417
449,3328;0,102419
450,2970;0,102391
451,2613;0,102322
452,2255;0,102212
453,1897;0,102077
454,1540;0,101946
455,1182;0,101852
456,0824;0,101815
457,0467;0,101827
458,0109;0,101862
458,9751;0,101899
459,9394;0,101943
460,9036;0,102011
461,8678;0,102105
462,8321;0,102193
463,7963;0,102216
464,7605;0,102124
465,7248;0,101903
466,6890;0,101589
467,6532;0,101254
468,6175;0,100979
469,5817;0,100833
470,5459;0,100865
471,5102;0,101084
472,4744;0,101437
473,4386;0,101818
474,4029;0,102119
475,3671;0,102287
476,3313;0,102337
477,2956;0,102325
478,2598;0,102309
479,2240;0,102319
480,1883;0,102353
481,1525;0,102388
482,1167;0,102404
483,0810;0,102389
484,0452;0,102344
485,0094;0,102274
485,9737;0,102191
486,9379;0,102109
487,9021;0,102055
488,8664;0,102054
489,8306;0,102117
490,7948;0,10223
491,7591;0,102348
492,7233;0,102412
493,6875;0,102382
494,6518;0,102259
495,6160;0,10209
496,5802;0,101949
497,5445;0,101896
498,5087;0,101955
499,4729;0,102099
500,4372;0,102258
501,4014;0,102352
502,3656;0,102336
503,3299;0,102227
504,2941;0,102084
505,2583;0,101973
506,2226;0,101919
507,1868;0,101908
508,1510;0,101902
509,1153;0,101878
510,0795;0,101849
511,0437;0,101865
512,0080;0,101985
512,9722;0,102251
513,9365;0,102658
514,9007;0,10315
515,8649;0,103618
516,8292;0,103933
517,7934;0,104
518,7576;0,103809
519,7219;0,103446
520,6861;0,103046
521,6503;0,102717
522,6146;0,10251
523,5788;0,102414
524,5430;0,102376
525,5073;0,102329
526,4715;0,102223
527,4357;0,102042
528,4000;0,101804
529,3642;0,10154
530,3284;0,101277
531,2927;0,101033
532,2569;0,100814
533,2211;0,100625
534,1854;0,100467
535,1496;0,100341
536,1138;0,100253
537,0781;0,100209
538,0423;0,100214
539,0065;0,100266
539,9708;0,100359
540,9350;0,100476
541,8992;0,100597
542,8635;0,100697
543,8277;0,100759
544,7919;0,100778
545,7562;0,100769
546,7204;0,100764
547,6846;0,100798
548,6489;0,100895
549,6131;0,10105
550,5773;0,101228
551,5416;0,101381
552,5058;0,10147
553,4700;0,101483
554,4343;0,101432
555,3985;0,10134
556,3627;0,101222
557,3270;0,101066
558,2912;0,100846
559,2554;0,100535
560,2197;0,100118
561,1839;0,0995998
562,1481;0,0990046
563,1124;0,0983631
564,0766;0,097709
565,0408;0,0970747
566,0051;0,0964882
566,9693;0,0959677
567,9335;0,0955168
568,8978;0,0951247
569,8620;0,0947748
570,8262;0,094458
571,7905;0,0941786
572,7547;0,0939491
573,7189;0,0937763
574,6832;0,0936512
575,6474;0,0935492
576,6116;0,0934446
577,5759;0,0933272
578,5401;0,0932084
579,5043;0,0931117
580,4686;0,093055
581,4328;0,0930387
582,3970;0,0930463
583,3613;0,0930561
584,3255;0,093054
585,2897;0,0930386
586,2540;0,0930177
587,2182;0,0930003
588,1824;0,0929908
589,1467;0,092988
590,1109;0,0929858
591,0751;0,0929748
592,0394;0,0929438
593,0036;0,0928822
593,9678;0,0927825
594,9321;0,09264
595,8963;0,0924522
596,8605;0,0922186
597,8248;0,091946
598,7890;0,0916543
599,7532;0,0913765
600,7175;0,0911478
601,6817;0,0909874
602,6459;0,0908849
603,6102;0,0908029
604,5744;0,0906956
605,5386;0,090529
606,5029;0,0902919
607,4671;0,0899908
608,4313;0,0896381
609,3956;0,0892488
610,3598;0,088851
611,3240;0,0884979
612,2883;0,0882606
613,2525;0,0881945
614,2167;0,0882923
615,1810;0,0884545
616,1452;0,088507
617,1094;0,0882758
618,0737;0,0876852
619,0379;0,086806
620,0021;0,0858107
620,9664;0,0848749
621,9306;0,0841003
622,8948;0,0834986
623,8591;0,0830228
624,8233;0,0825737
625,7875;0,0821951
626,7518;0,0818772
627,7160;0,0816194
628,6802;0,0814059
629,6445;0,0812142
630,6087;0,0810239
631,5729;0,0808328
632,5372;0,080654
633,5014;0,0805028
634,4656;0,0803829
635,4299;0,0802833
636,3941;0,0801864
637,3583;0,0800823
638,3226;0,0799766
639,2868;0,0798874
640,2510;0,0798355
641,2153;0,0798347
642,1795;0,0798879
643,1437;0,0799891
644,1080;0,0801254
645,0722;0,0802786
646,0364;0,0804259
647,0007;0,0805417
647,9649;0,0806028
648,9291;0,0805969
649,8934;0,0805304
650,8576;0,0804313
651,8218;0,0803433
652,7861;0,0803115
653,7503;0,0803651
654,7145;0,0805001
655,6788;0,0806738
656,6430;0,0808251
657,6072;0,0809083
658,5715;0,080914
659,5357;0,0808525
660,4999;0,0807097
661,4642;0,0804107
662,4284;0,079825
663,3926;0,0788229
664,3569;0,0773877
665,3211;0,0757788
666,2853;0,0746323
667,2496;0,0746836
668,2138;0,0758758
669,1780;0,0771037
670,1423;0,0776551
671,1065;0,0776551
672,0707;0,0772771
673,0350;0,0765865
673,9992;0,0757065
674,9634;0,0748128
675,9277;0,0740246
676,8919;0,0733392
677,8561;0,0726787
678,8204;0,0719803
679,7846;0,0712459
680,7488;0,0705197
681,7131;0,0698489
682,6773;0,0692491
683,6415;0,0687105
684,6058;0,0682136
685,5700;0,0677443
686,5342;0,067295
687,4985;0,0668622
688,4627;0,0664539
689,4269;0,0660723
690,3912;0,0657242
691,3554;0,0654118
692,3196;0,0651226
693,2839;0,064831
694,2481;0,0645117
695,2123;0,0641543
696,1766;0,0637689
697,1408;0,0633789
698,1050;0,0630056
699,0693;0,0626577
700,0335;0,0623301
700,9977;0,0620105
701,9620;0,061688
702,9262;0,0613567
703,8904;0,0610017
704,8547;0,0606307
705,8189;0,0602518
706,7831;0,0598736
707,7474;0,0595018
708,7116;0,0591373
709,6758;0,0587751
710,6401;0,0584059
711,6043;0,0580201
712,5685;0,057617
713,5328;0,0572123
714,4970;0,0568389
715,4612;0,0556929
716,4255;0,0556516
717,3897;0,0557378
718,3539;0,0558273
719,3182;0,05575
720,2824;0,0553751
721,2466;0,0546925
722,2109;0,0538215
723,1751;0,0529369
724,1393;0,0521734
725,1036;0,0515755
726,0678;0,0511066
727,0320;0,0506979
727,9963;0,0502982
728,9605;0,0498971
729,9247;0,0495137
730,8890;0,0491679
731,8532;0,04886
732,8174;0,0485728
733,7817;0,0482879
734,7459;0,0480006
735,7101;0,0477208
736,6744;0,0474617
737,6386;0,0472267
738,6028;0,0470057
739,5671;0,0467817
740,5313;0,0465429
741,4955;0,0462895
742,4598;0,0460317
743,4240;0,045781
744,3882;0,0455416
745,3525;0,0453089
746,3167;0,0450749
747,2809;0,0448359
748,2452;0,0445948
749,2094;0,044358
750,1736;0,0441283
751,1379;0,0439021
752,1021;0,0436721
753,0663;0,0434348
754,0306;0,0431947
754,9948;0,0429615
755,9590;0,0427412
756,9233;0,0425295
757,8875;0,0423133
758,8517;0,04208
759,8160;0,0418289
760,7802;0,0415735
761,7444;0,041335
762,7087;0,0411296
763,6729;0,0409612
764,6371;0,0408217
765,6014;0,0406993
766,5656;0,0405852
767,5298;0,040476
768,4941;0,0403691
769,4583;0,0402594
770,4225;0,0401391
771,3868;0,0400025
772,3510;0,0398497
773,3152;0,0396857
774,2795;0,0395163
775,2437;0,0393443
776,2079;0,039169
777,1722;0,0389914
778,1364;0,0388172
779,1006;0,038656
780,0649;0,0385156
781,0291;0,0383953
781,9933;0,0382848
782,9576;0,0381687
783,9218;0,0380337
784,8860;0,0378743
785,8503;0,0376936
786,8145;0,0375005
787,7787;0,0373065
788,7430;0,0371242
789,7072;0,036967
790,6714;0,0368455
791,6357;0,0367635
792,5999;0,0367123
793,5641;0,0366714
794,5284;0,0366156
795,4926;0,0365265
796,4568;0,0364028
797,4211;0,0362609
798,3853;0,0361262
799,3495;0,0360182
800,3138;0,03594
801,2780;0,0358774
802,2422;0,0358091
803,2065;0,0357202
804,1707;0,0356114
805,1349;0,0354971
806,0992;0,0353958
807,0634;0,0353182
808,0276;0,0352618
808,9919;0,035215
809,9561;0,035165
810,9203;0,0351061
811,8846;0,0350411
812,8488;0,0349777
813,8130;0,0349219
814,7773;0,0348751
815,7415;0,0348343
816,7057;0,0347966
817,6700;0,0347609
818,6342;0,0347289
819,5984;0,0347009
820,5627;0,0346733
821,5269;0,0346378
822,4911;0,0345847
823,4554;0,0345083
824,4196;0,0344114
825,3839;0,0343057
826,3481;0,0342079
827,3123;0,0341326
828,2766;0,0340859
829,2408;0,0340618
830,2050;0,0340441
831,1693;0,0340117
832,1335;0,0339467
833,0977;0,0338419
834,0620;0,0337041
835,0262;0,0335525
835,9904;0,0334112
836,9547;0,0332994
837,9189;0,0332228
838,8831;0,0331716
839,8474;0,033126
840,8116;0,0330656
841,7758;0,0329796
842,7401;0,0328706
843,7043;0,0327521
844,6685;0,0326414
845,6328;0,032552
846,5970;0,0324894
847,5612;0,0324504
848,5255;0,032426
849,4897;0,0324054
850,4539;0,0323805
851,4182;0,0323487
852,3824;0,0323135
853,3466;0,0322811
854,3109;0,0322559
855,2751;0,0322357
856,2393;0,0322121
857,2036;0,0321751
858,1678;0,032121
859,1320;0,0320558
860,0963;0,0319945
861,0605;0,0319533
862,0247;0,0319418
862,9890;0,0319597
863,9532;0,0319986
864,9174;0,0320489
865,8817;0,0321044
866,8459;0,0321639
867,8101;0,0322279
868,7744;0,0322964
869,7386;0,0323676
870,7028;0,0324409
871,6671;0,032519
872,6313;0,0326079
873,5955;0,0327143
874,5598;0,0328404
875,5240;0,0329822
876,4882;0,0331319
877,4525;0,0332835
878,4167;0,0334383
879,3809;0,0336056
880,3452;0,0337995
881,3094;0,0340324
882,2736;0,0343096
883,2379;0,0346281
884,2021;0,03498
885,1663;0,0353571
886,1306;0,0357556
887,0948;0,036177
888,0590;0,0366252
889,0233;0,0371029
889,9875;0,0376058
890,9517;0,0381202
891,9160;0,0386231
892,8802;0,0390856
893,8444;0,03948
894,8087;0,0397854
895,7729;0,0399915
896,7371;0,0400976
897,7014;0,0401084
898,6656;0,0400305
899,6298;0,0398704
900,5941;0,0396359
901,5583;0,0393388
902,5225;0,0389959
903,4868;0,0386272
904,4510;0,038253
905,4152;0,0378911
906,3795;0,0375558
907,3437;0,0372578
908,3079;0,0370052
909,2722;0,0368024
910,2364;0,0366492
911,2007;0,0365402
912,1649;0,0364665
913,1292;0,0364194
914,0934;0,0363945
915,0576;0,0363946
916,0219;0,0364279
916,9861;0,0365039
917,9503;0,0366269
918,9146;0,0367915
919,8788;0,036983
920,8430;0,0371826
921,8073;0,0373757
922,7715;0,0375564
923,7357;0,0377285
924,7000;0,0378997
925,6642;0,0380746
926,6284;0,0382516
927,5927;0,0384243
928,5569;0,0385873
929,5211;0,0387417
930,4854;0,0388957
931,4496;0,0390611
932,4138;0,0392465
933,3781;0,0394545
934,3423;0,0396827
935,3065;0,0399281
936,2708;0,0401918
937,2350;0,0404804
938,1992;0,0408038
939,1635;0,0411702
940,1277;0,0415832
941,0919;0,0420415
942,0562;0,0425415
943,0204;0,043081
943,9846;0,0436604
944,9489;0,0442812
945,9131;0,0449436
946,8773;0,045644
947,8416;0,0463755
948,8058;0,0471303
949,7700;0,0479033
950,7343;0,0486935
951,6985;0,0495038
952,6627;0,0503384
953,6270;0,0512016
954,5912;0,0520957
955,5554;0,053022
956,5197;0,0539794
957,4839;0,0549646
958,4481;0,055971
959,4124;0,0569894
960,3766;0,0580093
961,3408;0,0590212
962,3051;0,0600188
963,2693;0,0610003
964,2335;0,0619688
965,1978;0,0629318
966,1620;0,0639009
967,1262;0,0648889
968,0905;0,0659077
969,0547;0,0669657
970,0189;0,0680686
970,9832;0,0692212
971,9474;0,0704308
972,9116;0,0717084
973,8759;0,0730669
974,8401;0,0745171
975,8043;0,0760629
976,7686;0,0776993
977,7328;0,0794105
978,6970;0,0811706
979,6613;0,0829433
980,6255;0,0846825
981,5897;0,0863361
982,5540;0,0878542
983,5182;0,0891995
984,4824;0,0903569
985,4467;0,0913377
986,4109;0,0921746
987,3751;0,0929106
988,3394;0,0935849
989,3036;0,0942212
990,2678;0,0948254
991,2321;0,0953893
992,1963;0,095902
993,1605;0,0963596
994,1248;0,0967705
995,0890;0,0971525
996,0532;0,0975247
997,0175;0,0978988
997,9817;0,0982757
998,9459;0,0986496
999,9102;0,099016
1000,8744;0,0993806
1001,8386;0,0997608
1002,8029;0,100182
1003,7671;0,100669
1004,7313;0,101237
1005,6956;0,101892
1006,6598;0,102626
1007,6240;0,10343
1008,5883;0,104291
1009,5525;0,1052
1010,5167;0,106148
1011,4810;0,107125
1012,4452;0,108117
1013,4094;0,109107
1014,3737;0,110073
1015,3379;0,110999
1016,3021;0,111871
1017,2664;0,11268
1018,2306;0,113424
1019,1948;0,114101
1020,1591;0,11471
1021,1233;0,11525
1022,0875;0,115724
1023,0518;0,116141
1024,0160;0,116514
1024,9802;0,116859
1025,9445;0,117187
1026,9087;0,117502
1027,8729;0,117789
1028,8372;0,118026
1029,8014;0,118178
1030,7656;0,118208
1031,7299;0,118083
1032,6941;0,117779
1033,6583;0,117292
1034,6226;0,116636
1035,5868;0,115848
1036,5510;0,114984
1037,5153;0,114106
1038,4795;0,11328
1039,4437;0,112558
1040,4080;0,111979
1041,3722;0,11156
1042,3364;0,111295
1043,3007;0,111157
1044,2649;0,111105
1045,2291;0,111089
1046,1934;0,111064
1047,1576;0,110995
1048,1218;0,110864
1049,0861;0,110664
1050,0503;0,11039
1051,0145;0,110034
1051,9788;0,109587
1052,9430;0,109039
1053,9072;0,108387
1054,8715;0,107632
1055,8357;0,106777
1056,7999;0,105815
1057,7642;0,104731
1058,7284;0,103506
1059,6926;0,10213
1060,6569;0,100617
1061,6211;0,0990083
1062,5853;0,0973633
1063,5496;0,0957469
1064,5138;0,0942113
1065,4780;0,0927862
1066,4423;0,091478
1067,4065;0,090276
1068,3707;0,0891615
1069,3350;0,0881153
1070,2992;0,0871195
1071,2634;0,086157
1072,2277;0,0852097
1073,1919;0,0842581
1074,1561;0,0832845
1075,1204;0,0822776
1076,0846;0,081237
1077,0488;0,0801743
1078,0131;0,0791124
1078,9773;0,0780809
1079,9415;0,077111
1080,9058;0,076231
1081,8700;0,0754609
1082,8342;0,0748089
1083,7985;0,0742688
1084,7627;0,0738213
1085,7269;0,0734403
1086,6912;0,0731017
1087,6554;0,0727918
1088,6196;0,0725102
1089,5839;0,0722665
1090,5481;0,0720721
1091,5123;0,0719318
1092,4766;0,0718415
1093,4408;0,0717909
1094,4050;0,0717696
1095,3693;0,0717711
1096,3335;0,0717931
1097,2977;0,071834
1098,2620;0,0718891
1099,2262;0,0719496
1100,1904;0,0720038
1101,1547;0,0720403
1102,1189;0,0720489
1103,0831;0,0720209
1104,0474;0,0719485
1105,0116;0,0718262
1105,9758;0,0716526
1106,9401;0,071432
1107,9043;0,071171
1108,8685;0,0708712
1109,8328;0,0705226
1110,7970;0,0701018
1111,7612;0,0695809
1112,7255;0,0689431
1113,6897;0,068197
1114,6539;0,0673817
1115,6182;0,0665555
1116,5824;0,0657747
1117,5466;0,0650725
1118,5109;0,0644473
1119,4751;0,0638662
1120,4393;0,0632798
1121,4036;0,0626401
1122,3678;0,0619118
1123,3320;0,0610765
1124,2963;0,0601292
1125,2605;0,0590735
1126,2247;0,0579199
1127,1890;0,0566855
1128,1532;0,0553934
1129,1174;0,0540708
1130,0817;0,0527436
1131,0459;0,0514326
1132,0101;0,0501538
1132,9744;0,0489224
1133,9386;0,0477574
1134,9028;0,0466843
1135,8671;0,0457317
1136,8313;0,0449245
1137,7955;0,044278
1138,7598;0,0437954
1139,7240;0,0434699
1140,6882;0,0432887
1141,6525;0,0432361
1142,6167;0,0432949
1143,5809;0,0434469
1144,5452;0,0436731
1145,5094;0,0439561
1146,4736;0,0442819
1147,4379;0,0446411
1148,4021;0,0450276
1149,3663;0,0454362
1150,3306;0,0458596
1151,2948;0,0462869
1152,2590;0,0467022
1153,2233;0,0470851
1154,1875;0,0474128
1155,1517;0,0476622
1156,1160;0,0478124
1157,0802;0,0478437
1158,0444;0,0477354
1159,0087;0,0474626
1159,9729;0,0469962
1160,9371;0,046308
1161,9014;0,0453811
1162,8656;0,04422
1163,8298;0,0428547
1164,7941;0,041338
1165,7583;0,0397351
1166,7225;0,038112
1167,6868;0,0365264
1168,6510;0,035023
1169,6152;0,0336317
1170,5795;0,0323685
1171,5437;0,0312371
1172,5079;0,0302319
1173,4722;0,0293423
1174,4364;0,028558
1175,4006;0,0278712
1176,3649;0,0272769
1177,3291;0,0267704
1178,2933;0,026344
1179,2576;0,025987
1180,2218;0,025687
1181,1860;0,0254336
1182,1503;0,0252207
1183,1145;0,0250464
1184,0787;0,0249111
1185,0430;0,0248157
1186,0072;0,0247609
1186,9714;0,024748
1187,9357;0,0247798
1188,8999;0,0248611
1189,8641;0,0249969
1190,8284;0,0251898
1191,7926;0,0254387
1192,7568;0,0257384
1193,7211;0,0260806
1194,6853;0,0264555
1195,6495;0,0268527
1196,6138;0,0272618
1197,5780;0,0276732
1198,5422;0,0280793
1199,5065;0,0283321
1200,4707;0,0287342
1201,4349;0,0291265
1202,3992;0,029508
1203,3634;0,0298751
1204,3276;0,0302221
1205,2919;0,0305437
1206,2561;0,0308399
1207,2203;0,0311191
1208,1846;0,0313984
1209,1488;0,0316989
1210,1130;0,0320395
1211,0773;0,0324312
1212,0415;0,0328751
1213,0057;0,0333647
1213,9700;0,0338902
1214,9342;0,0344424
1215,8984;0,0350145
1216,8627;0,0355993
1217,8269;0,0361882
1218,7911;0,0367718
1219,7554;0,0373407
1220,7196;0,0378865
1221,6838;0,0384029
1222,6481;0,0388854
1223,6123;0,0393317
1224,5765;0,0397424
1225,5408;0,0401214
1226,5050;0,0404745
1227,4692;0,0408065
1228,4335;0,0411188
1229,3977;0,0414078
1230,3619;0,0416676
1231,3262;0,0418935
1232,2904;0,0420846
1233,2546;0,0422439
1234,2189;0,0423758
1235,1831;0,0424828
1236,1473;0,0425651
1237,1116;0,0426213
1238,0758;0,0426507
1239,0400;0,0426539
1240,0043;0,0426327
1240,9685;0,0425882
1241,9327;0,04252
1242,8970;0,0424262
1243,8612;0,0423042
1244,8254;0,0421516
1245,7897;0,0419669
1246,7539;0,0417505
1247,7181;0,0415052
1248,6824;0,0412368
1249,6466;0,040953
1250,6108;0,0406615
1251,5751;0,0403685
1252,5393;0,0400782
1253,5035;0,0397929
1254,4678;0,039514
1255,4320;0,0392409
1256,3962;0,0389705
1257,3605;0,0386962
1258,3247;0,0384091
1259,2889;0,0381016
1260,2532;0,0377701
1261,2174;0,0374165
1262,1816;0,037046
1263,1459;0,0366638
1264,1101;0,0362732
1265,0743;0,0358757
1266,0386;0,0354722
1267,0028;0,0350642
1267,9670;0,0346524
1268,9313;0,034236
1269,8955;0,0338122
1270,8597;0,033378
1271,8240;0,0329334
1272,7882;0,0324838
1273,7524;0,0320392
1274,7167;0,031612
1275,6809;0,0312122
1276,6451;0,0308442
1277,6094;0,0305045
1278,5736;0,0301825
1279,5378;0,0298651
1280,5021;0,0295412
1281,4663;0,0292075
1282,4305;0,0288692
1283,3948;0,0285378
1284,3590;0,0282266
1285,3232;0,027946
1286,2875;0,0277018
1287,2517;0,0274951
1288,2159;0,0273241
1289,1802;0,0271864
1290,1444;0,0270799
1291,1086;0,0270041
1292,0729;0,02696
1293,0371;0,0269501
1294,0013;0,0269779
1294,9656;0,0270467
1295,9298;0,0271581
1296,8940;0,0273114
1297,8583;0,0275038
1298,8225;0,0277313
1299,7867;0,0279896
1300,7510;0,0282746
1301,7152;0,0285848
1302,6794;0,028919
1303,6437;0,0292762
1304,6079;0,0296568
1305,5721;0,0300601
1306,5364;0,0304835
1307,5006;0,0309222
1308,4648;0,0313698
1309,4291;0,0318175
1310,3933;0,0322547
1311,3575;0,0326681
1312,3218;0,033043
1313,2860;0,0333665
1314,2502;0,0336293
1315,2145;0,033826
1316,1787;0,0339516
1317,1429;0,0340005
1318,1072;0,0339697
1319,0714;0,0338645
1320,0356;0,0337039
1320,9999;0,0335156
1321,9641;0,0333273
1322,9283;0,0331575
1323,8926;0,0330139
1324,8568;0,0328963
1325,8210;0,0328009
1326,7853;0,0327237
1327,7495;0,0326597
1328,7137;0,032603
1329,6780;0,032545
1330,6422;0,0324767
1331,6064;0,0323918
1332,5707;0,0322898
1333,5349;0,032177
1334,4991;0,0320621
1335,4634;0,0319484
1336,4276;0,0318253
1337,3918;0,031663
1338,3561;0,0314211
1339,3203;0,0310776
1340,2845;0,0306582
1341,2488;0,0302267
1342,2130;0,0298444
1343,1772;0,0295424
1344,1415;0,0293238
1345,1057;0,0291782
1346,0699;0,0290925
1347,0342;0,0290554
1347,9984;0,029061
1348,9626;0,0291085
1349,9269;0,0292
1350,8911;0,0293343
1351,8553;0,029505
1352,8196;0,0297017
1353,7838;0,0299154
1354,7480;0,0301426
1355,7123;0,0303862
1356,6765;0,030652
1357,6407;0,0309441
1358,6050;0,0312644
1359,5692;0,0316107
1360,5334;0,0319697
1361,4977;0,0323093
1362,4619;0,0325933
1363,4261;0,0328129
1364,3904;0,0329935
1365,3546;0,0331653
1366,3188;0,0333395
1367,2831;0,0335082
1368,2473;0,0336552
1369,2115;0,0337644
1370,1758;0,0338256
1371,1400;0,0338335
1372,1042;0,0337825
1373,0685;0,0336622
1374,0327;0,0334609
1374,9969;0,0331804
1375,9612;0,0328383
1376,9254;0,0324499
1377,8896;0,0320132
1378,8539;0,0315191
1379,8181;0,0309741
1380,7823;0,0304094
1381,7466;0,0298646
1382,7108;0,0293612
1383,6750;0,0288892
1384,6393;0,0284193
1385,6035;0,0279268
1386,5677;0,0274166
1387,5320;0,0269368
1388,4962;0,0265544
1389,4604;0,0263009
1390,4247;0,0261525
1391,3889;0,0260648
1392,3531;0,0260126
1393,3174;0,0259951
1394,2816;0,0260114
1395,2458;0,02604
1396,2101;0,0260465
1397,1743;0,026013
1398,1385;0,0259553
1399,1028;0,0259133
1400,0670;0,0259236
1401,0313;0,0259987
1401,9955;0,0261253
1402,9597;0,0262795
1403,9240;0,0264428
1404,8882;0,0266102
1405,8524;0,0267893
1406,8167;0,0269907
1407,7809;0,0272167
1408,7451;0,0274608
1409,7094;0,0277199
1410,6736;0,0280025
1411,6378;0,0283211
1412,6021;0,028675
1413,5663;0,0290409
1414,5305;0,0293833
1415,4948;0,0296772
1416,4590;0,0299181
1417,4232;0,0301083
1418,3875;0,0302484
1419,3517;0,0303607
1420,3159;0,0304879
1421,2802;0,0306332
1422,2444;0,0307406
1423,2086;0,0307449
1424,1729;0,0306204
1425,1371;0,0303876
1426,1013;0,0300858
1427,0656;0,0297422
1428,0298;0,0293629
1428,9940;0,0289483
1429,9583;0,0285133
1430,9225;0,0280825
1431,8867;0,0276612
1432,8510;0,0272181
1433,8152;0,0267068
1434,7794;0,0261056
1435,7437;0,0254523
1436,7079;0,0248598
1437,6721;0,0244704
1438,6364;0,0243409
1439,6006;0,0243986
1440,5648;0,0245233
1441,5291;0,0246391
1442,4933;0,0247367
1443,4575;0,0248455
1444,4218;0,0249928
1445,3860;0,0251805
1446,3502;0,0253894
1447,3145;0,0256016
1448,2787;0,0258207
1449,2429;0,0260663
1450,2072;0,0263429
1451,1714;0,0266148
1452,1356;0,0268199
1453,0999;0,0269149
1454,0641;0,0269127
1455,0283;0,026871
1455,9926;0,0267973
1456,9568;0,0265969
1457,9210;0,026299
1458,8853;0,0261313
1459,8495;0,026163
1460,8137;0,0262453
1461,7780;0,0262145
1462,7422;0,0259911
1463,7064;0,0255746
1464,6707;0,0250267
1465,6349;0,0244581
1466,5991;0,0239636
1467,5634;0,023541
1468,5276;0,0231074
1469,4918;0,0225794
1470,4561;0,0219154
1471,4203;0,0211002
1472,3845;0,0201302
1473,3488;0,0190737
1474,3130;0,0181044
1475,2772;0,0173657
1476,2415;0,0168604
1477,2057;0,0165096
1478,1699;0,016237
1479,1342;0,0159978
1480,0984;0,0157746
1481,0626;0,0155712
1482,0269;0,0154078
1482,9911;0,0153103
1483,9553;0,0152949
1484,9196;0,0153614
1485,8838;0,015497
1486,8480;0,0156734
1487,8123;0,0158255
1488,7765;0,0158666
1489,7407;0,0157933
1490,7050;0,0157319
1491,6692;0,0157958
1492,6334;0,0159843
1493,5977;0,0162423
1494,5619;0,0165377
1495,5261;0,0168738
1496,4904;0,0172523
1497,4546;0,0176547
1498,4188;0,0180792
1499,3831;0,0185443
1500,3473;0,0190219
1501,3115;0,0194232
1502,2758;0,0196641
1503,2400;0,0197349
1504,2042;0,0197349
1505,1685;0,019822
1506,1327;0,0199948
1507,0969;0,0199487
1508,0612;0,0195758
1509,0254;0,0191975
1509,9896;0,0189853
1510,9539;0,0188584
1511,9181;0,0187171
1512,8823;0,0185332
1513,8466;0,0183255
1514,8108;0,0181111
1515,7750;0,0178787
1516,7393;0,0175996
1517,7035;0,0172571
1518,6677;0,0168618
1519,6320;0,0164463
1520,5962;0,0160535
1521,5604;0,0157282
1522,5247;0,0154976
1523,4889;0,0153474
1524,4531;0,0152283
1525,4174;0,0151002
1526,3816;0,014967
1527,3458;0,014865
1528,3101;0,0148197
1529,2743;0,0148206
1530,2385;0,0148405
1531,2028;0,0148657
1532,1670;0,0149031
1533,1312;0,0149651
1534,0955;0,0150553
1535,0597;0,0151553
1536,0239;0,0152267
1536,9882;0,0152588
1537,9524;0,0153243
1538,9166;0,0155494
1539,8809;0,0159142
1540,8451;0,0161222
1541,8093;0,0160172
1542,7736;0,0158251
1543,7378;0,0157289
1544,7020;0,0157335
1545,6663;0,0158068
1546,6305;0,0159343
1547,5947;0,0161008
1548,5590;0,0162772
1549,5232;0,0164351
1550,4874;0,0165691
1551,4517;0,016701
1552,4159;0,0168545
1553,3801;0,0170203
1554,3444;0,0171522
1555,3086;0,0172027
1556,2728;0,0171481
1557,2371;0,0169387
1558,2013;0,0164643
1559,1655;0,015891
1560,1298;0,0157598
1561,0940;0,0162281
1562,0582;0,016988
1563,0225;0,0177268
1563,9867;0,0182947
1564,9509;0,0186702
1565,9152;0,0188994
1566,8794;0,0190516
1567,8436;0,0191902
1568,8079;0,0193597
1569,7721;0,0195885
1570,7363;0,01988
1571,7006;0,0202008
1572,6648;0,0205044
1573,6290;0,020777
1574,5933;0,0210488
1575,5575;0,0213512
1576,5217;0,0216849
1577,4860;0,0220584
1578,4502;0,0224936
1579,4144;0,022974
1580,3787;0,0234537
1581,3429;0,0239055
1582,3071;0,0243332
1583,2714;0,0247556
1584,2356;0,0251877
1585,1998;0,0256353
1586,1641;0,0260947
1587,1283;0,0265535
1588,0925;0,0269919
1589,0568;0,0273866
1590,0210;0,0277171
1590,9852;0,0279697
1591,9495;0,0281349
1592,9137;0,0282038
1593,8779;0,028169
1594,8422;0,0280328
1595,8064;0,0278154
1596,7706;0,0275515
1597,7349;0,0272777
1598,6991;0,0270183
1599,6633;0,0267799
1600,6276;0,0265546
1601,5918;0,0263316
1602,5560;0,0261082
1603,5203;0,0258945
1604,4845;0,0257041
1605,4487;0,0255398
1606,4130;0,0253883
1607,3772;0,0252296
1608,3414;0,0250564
1609,3057;0,0248866
1610,2699;0,0247511
1611,2341;0,0246611
1612,1984;0,0245933
1613,1626;0,0245123
1614,1268;0,0244007
1615,0911;0,0242658
1616,0553;0,0241346
1617,0195;0,0240641
1617,9838;0,024117
1618,9480;0,0242864
1619,9122;0,0244936
1620,8765;0,0246614
1621,8407;0,0247604
1622,8049;0,0248017
1623,7692;0,0248127
1624,7334;0,0248195
1625,6976;0,0248347
1626,6619;0,0248583
1627,6261;0,0248929
1628,5903;0,024949
1629,5546;0,0250275
1630,5188;0,0251025
1631,4830;0,0251366
1632,4473;0,0251195
1633,4115;0,0250901
1634,3757;0,0250936
1635,3400;0,0251029
1636,3042;0,0250644
1637,2684;0,0250307
1638,2327;0,0250807
1639,1969;0,0251993
1640,1611;0,0253206
1641,1254;0,0253939
1642,0896;0,0254042
1643,0538;0,0253726
1644,0181;0,0253495
1644,9823;0,0253773
1645,9465;0,025432
1646,9108;0,0254429
1647,8750;0,0253771
1648,8392;0,0252205
1649,8035;0,0249337
1650,7677;0,024497
1651,7319;0,0239364
1652,6962;0,0232793
1653,6604;0,0226463
1654,6246;0,0223471
1655,5889;0,022473
1656,5531;0,0227747
1657,5173;0,0229927
1658,4816;0,0230138
1659,4458;0,0228434
1660,4100;0,0225403
1661,3743;0,0221701
1662,3385;0,0217993
1663,3027;0,0214967
1664,2670;0,0212964
1665,2312;0,0211707
1666,1954;0,0210598
1667,1597;0,0209106
1668,1239;0,0206855
1669,0881;0,0203627
1670,0524;0,0199631
1671,0166;0,0195481
1671,9808;0,0191504
1672,9451;0,0187429
1673,9093;0,0182988
1674,8735;0,0178579
1675,8378;0,0175296
1676,8020;0,0174098
1677,7662;0,0174869
1678,7305;0,0176426
1679,6947;0,0177349
1680,6589;0,0176669
1681,6232;0,0173941
1682,5874;0,0168931
1683,5516;0,0161919
1684,5159;0,0154918
1685,4801;0,0150666
1686,4443;0,014963
1687,4086;0,0150147
1688,3728;0,0150503
1689,3370;0,0149913
1690,3013;0,0148426
1691,2655;0,0146518
1692,2297;0,0144773
1693,1940;0,0143721
1694,1582;0,0143699
1695,1224;0,0144571
1696,0867;0,0145469
1697,0509;0,0145015
1698,0151;0,0142302
1698,9794;0,0138028
1699,9436;0,0134459
1700,9078;0,0133736
1701,8721;0,0136204
1702,8363;0,01405
1703,8005;0,0144823
1704,7648;0,0147963
1705,7290;0,0149692
1706,6932;0,0150655
1707,6575;0,0151852
1708,6217;0,015396
1709,5859;0,0157032
1710,5502;0,0160714
1711,5144;0,0164621
1712,4786;0,0168523
1713,4429;0,0172306
1714,4071;0,017576
1715,3713;0,0178231
1716,3356;0,0178736
1717,2998;0,01773
1718,2640;0,0175876
1719,2283;0,0176416
1720,1925;0,017901
1721,1567;0,0182544
1722,1210;0,0185951
1723,0852;0,018873
1724,0494;0,0190946
1725,0137;0,0193027
1725,9779;0,0195476
1726,9421;0,0198553
1727,9064;0,0202107
1728,8706;0,0205627
1729,8348;0,0208451
1730,7991;0,0209977
1731,7633;0,0209759
1732,7275;0,0207685
1733,6918;0,0204515
1734,6560;0,0201922
1735,6202;0,020103
1736,5845;0,0201361
1737,5487;0,0201627
1738,5129;0,0200874
1739,4772;0,0198916
1740,4414;0,01962
1741,4056;0,0193392
1742,3699;0,0190924
1743,3341;0,0188785
1744,2983;0,0186664
1745,2626;0,0184186
1746,2268;0,0180955
1747,1910;0,0176391
1748,1553;0,0169731
1749,1195;0,0160627
1750,0837;0,0150061
1751,0480;0,0140151
1752,0122;0,0132538
1752,9764;0,0127322
1753,9407;0,0123526
1754,9049;0,0120081
1755,8691;0,0116411
1756,8334;0,0112491
1757,7976;0,0108541
1758,7618;0,0104645
1759,7261;0,010062
1760,6903;0,00962606
1761,6545;0,00917108
1762,6188;0,00875327
1763,5830;0,00843231
1764,5472;0,00822789
1765,5115;0,00811619
1766,4757;0,00805812
1767,4399;0,0080233
1768,4042;0,00799089
1769,3684;0,00793288
1770,3326;0,00780173
1771,2969;0,00755269
1772,2611;0,00720435
1773,2253;0,00686352
1774,1896;0,00664591
1775,1538;0,0065811
1776,1180;0,00661333
1777,0823;0,00666403
1778,0465;0,00667869
1779,0107;0,00663818
1779,9750;0,00654872
1780,9392;0,00642643
1781,9034;0,00628626
1782,8677;0,00614238
1783,8319;0,00601733
1784,7961;0,00594428
1785,7604;0,00595108
1786,7246;0,00603763
1787,6888;0,00617028
1788,6531;0,00629877
1789,6173;0,00637733
1790,5815;0,0063749
1791,5458;0,00628598
1792,5100;0,00615378
1793,4742;0,00606172
1794,4385;0,00606308
1795,4027;0,00613526
1796,3669;0,00621269
1797,3312;0,00623901
1798,2954;0,00619024
1799,2596;0,00607295
1800,2239;0,00591529
1801,1881;0,00575709
1802,1523;0,00563539
1803,1166;0,00557007
1804,0808;0,00556097
1805,0450;0,00559578
1806,0093;0,00565818
1806,9735;0,00573027
1807,9377;0,00579134
1808,9020;0,00581867
1809,8662;0,00579568
1810,8304;0,00572424
1811,7947;0,00562736
1812,7589;0,00553463
1813,7231;0,00546405
1814,6874;0,00541753
1815,6516;0,00538936
1816,6158;0,0053761
1817,5801;0,00538101
1818,5443;0,00541108
1819,5085;0,00546863
1820,4728;0,00554487
1821,4370;0,00562226
1822,4012;0,00568403
1823,3655;0,00572386
1824,3297;0,00574968
1825,2939;0,00577663
1826,2582;0,00580999
1827,2224;0,00583147
1828,1866;0,00580426
1829,1509;0,00570076
1830,1151;0,00553768
1831,0793;0,00537995
1832,0436;0,00529309
1833,0078;0,00529309
1833,9720;0,00534663
1834,9363;0,00540646
1835,9005;0,00544285
1836,8647;0,00545674
1837,8290;0,00547163
1838,7932;0,00550924
1839,7574;0,00556926
1840,7217;0,00563125
1841,6859;0,00566955
1842,6501;0,00566331
1843,6144;0,00560403
1844,5786;0,00550981
1845,5428;0,00542349
1846,5071;0,00537562
1847,4713;0,00535763
1848,4355;0,00533979
1849,3998;0,00530345
1850,3640;0,00525382
1851,3282;0,00521086
1852,2925;0,0051915
1853,2567;0,00519886
1854,2209;0,00522414
1855,1852;0,00525549
1856,1494;0,00528396
1857,1136;0,00530359
1858,0779;0,00530841
1859,0421;0,00529429
1860,0063;0,00526651
1860,9706;0,00524537
1861,9348;0,00526084
1862,8990;0,00533671
1863,8633;0,00547584
1864,8275;0,00565577
1865,7917;0,00583197
1866,7560;0,0059447
1867,7202;0,00593913
1868,6844;0,00580635
1869,6487;0,00560643
1870,6129;0,00542513
1871,5771;0,00530866
1872,5414;0,00525096
1873,5056;0,00522467
1874,4698;0,00520952
1875,4341;0,00519954
1876,3983;0,00519702
1877,3625;0,00520338
1878,3268;0,00521577
1879,2910;0,00522878
1880,2552;0,00523932
1881,2195;0,00524979
1882,1837;0,00526699
1883,1479;0,00529748
1884,1122;0,00534232
1885,0764;0,00539452
1886,0406;0,00544028
1887,0049;0,00546315
1887,9691;0,00545021
1888,9333;0,00540017
1889,8976;0,00532872
1890,8618;0,00526264
1891,8260;0,00522395
1892,7903;0,00521812
1893,7545;0,00523499
1894,7188;0,00525784
1895,6830;0,00527311
1896,6472;0,00527627
1897,6115;0,00527101
1898,5757;0,00526333
1899,5399;0,00525675
1900,5042;0,00525304
1901,4684;0,00525608
1902,4326;0,00527406
1903,3969;0,00531633
1904,3611;0,00538635
1905,3253;0,00547548
1906,2896;0,00556273
1907,2538;0,0056221
1908,2180;0,00563538
1909,1823;0,00560502
1910,1465;0,00555692
1911,1107;0,0055266
1912,0750;0,00553642
1913,0392;0,00558214
1914,0034;0,00563755
1914,9677;0,00567047
1915,9319;0,00566024
1916,8961;0,00561052
1917,8604;0,00555004
1918,8246;0,00551475
1919,7888;0,00552031
1920,7531;0,00554886
1921,7173;0,00556145
1922,6815;0,00552568
1923,6458;0,00544015
1924,6100;0,00533882
1925,5742;0,00526993
1926,5385;0,00526506
1927,5027;0,00532225
1928,4669;0,00541076
1929,4312;0,00548872
1930,3954;0,00552345
1931,3596;0,00550542
1932,3239;0,00544848
1933,2881;0,0053792
1934,2523;0,00532411
1935,2166;0,00530183
1936,1808;0,00532032
1937,1450;0,00537682
1938,1093;0,00545902
1939,0735;0,0055477
1940,0377;0,00562146
1941,0020;0,00566365
1941,9662;0,00567038
1942,9304;0,00565361
1943,8947;0,00563124
1944,8589;0,00560869
1945,8231;0,00557041
1946,7874;0,0054922
1947,7516;0,00536537
1948,7158;0,00521404
1949,6801;0,00509066
1950,6443;0,00504781
1951,6085;0,00510226
1952,5728;0,00521698
1953,5370;0,00531662
1954,5012;0,00532939
1955,4655;0,00522942
1956,4297;0,00505216
1957,3939;0,00487235
1958,3582;0,00475933
1959,3224;0,00473926
1960,2866;0,00478864
1961,2509;0,00486154
1962,2151;0,00492625
1963,1793;0,00498076
1964,1436;0,00503796
1965,1078;0,00509983
1966,0720;0,00514806
1967,0363;0,00516342
1968,0005;0,00515587
1968,9647;0,00516933
1969,9290;0,00524669
1970,8932;0,0053836
1971,8574;0,00551265
1972,8217;0,00553625
1973,7859;0,00539165
1974,7501;0,00510542
1975,7144;0,00479324
1976,6786;0,0045905
1977,6428;0,00456102
1978,6071;0,00466104
1979,5713;0,00478832
1980,5355;0,00486543
1981,4998;0,00488607
1982,4640;0,00490193
1983,4282;0,00497565
1984,3925;0,00513616
1985,3567;0,00536098
1986,3209;0,00559058
1987,2852;0,00576138
1988,2494;0,0058349
1989,2136;0,00580958
1990,1779;0,00571606
1991,1421;0,00560323
1992,1063;0,00552038
1993,0706;0,00549967
1994,0348;0,00554492
1994,9990;0,00563192
1995,9633;0,00571933
1996,9275;0,00576488
1997,8917;0,00574167
1998,8560;0,00565047
1999,8202;0,00552287
2000,7844;0,00541165
2001,7487;0,00537104
2002,7129;0,00543475
2003,6771;0,00559946
2004,6414;0,0058184
2005,6056;0,0060101
2006,5698;0,006087
2007,5341;0,00599675
2008,4983;0,00575426
2009,4625;0,00544132
2010,4268;0,00517023
2011,3910;0,00503271
2012,3552;0,00506226
2013,3195;0,00522769
2014,2837;0,00545749
2015,2479;0,00568057
2016,2122;0,0058599
2017,1764;0,00599822
2018,1406;0,00611254
2019,1049;0,00620023
2020,0691;0,00622791
2021,0333;0,00615367
2021,9976;0,00596479
2022,9618;0,00570191
2023,9260;0,00545137
2024,8903;0,00530891
2025,8545;0,00533677
2026,8187;0,00553826
2027,7830;0,00585915
2028,7472;0,00620734
2029,7114;0,00647908
2030,6757;0,00658668
2031,6399;0,00648788
2032,6041;0,00620895
2033,5684;0,00584513
2034,5326;0,00552452
2035,4968;0,00534834
2036,4611;0,00534404
2037,4253;0,00546448
2038,3895;0,00562882
2039,3538;0,00577348
2040,3180;0,00587953
2041,2822;0,00596336
2042,2465;0,00604492
2043,2107;0,00612265
2044,1749;0,00617628
2045,1392;0,00619125
2046,1034;0,00618013
2047,0676;0,0061786
2048,0320;0,00621641
2048,9961;0,00628854
2049,9604;0,0063545
2050,9246;0,00636655
2051,8889;0,00630286
2052,8530;0,0061827
2053,8174;0,00605774
2054,7815;0,0059859
2055,7458;0,00600318
2056,7100;0,00610776
2057,6743;0,00626505
2058,6384;0,00642714
2059,6028;0,00655233
2060,5669;0,00661491
2061,5313;0,00660563
2062,4954;0,0065295
2063,4597;0,00640555
2064,4238;0,00626688
2065,3882;0,00615478
2066,3523;0,00610434
2067,3167;0,00612755
2068,2808;0,00620541
2069,2451;0,0062963
2070,2092;0,00635719
2071,1736;0,00636613
2072,1377;0,00633225
2073,1021;0,00628767
2074,0662;0,00626556
2075,0305;0,0062793
2075,9946;0,00631574
2076,9590;0,00634597
2077,9231;0,00634482
2078,8875;0,00630613
2079,8516;0,00624484
2080,8159;0,0061865
2081,7800;0,00615255
2082,7444;0,0061511
2083,7085;0,00617716
2084,6729;0,00621999
2085,6370;0,00627089
2086,6013;0,00632575
2087,5654;0,00638204
2088,5298;0,00643418
2089,4939;0,00647284
2090,4583;0,00648955
2091,4224;0,00648326
2092,3867;0,00646278
2093,3508;0,00644213
2094,3152;0,00643127
2095,2793;0,00642957
2096,2437;0,00642793
2097,2078;0,0064187
2098,1721;0,00640503
2099,1362;0,00640081
2100,1006;0,00642125
2101,0647;0,00646749
2102,0291;0,00652646
2102,9932;0,00657364
2103,9575;0,00658706
2104,9216;0,00655868
2105,8860;0,00649737
2106,8501;0,00642327
2107,8145;0,00635838
2108,7786;0,00631804
2109,7429;0,00630615
2110,7070;0,0063145
2111,6714;0,00632685
2112,6355;0,00632723
2113,5999;0,00631001
2114,5640;0,00628584
2115,5283;0,00627807
2116,4924;0,0063096
2117,4568;0,00638697
2118,4209;0,00649218
2119,3853;0,00658851
2120,3494;0,00663814
2121,3137;0,00662114
2122,2778;0,00654502
2123,2422;0,00644034
2124,2063;0,00634697
2125,1707;0,00629911
2126,1348;0,00631531
2127,0991;0,00639471
2128,0632;0,00651815
2129,0276;0,00665333
2129,9917;0,00676442
2130,9561;0,00682466
2131,9202;0,00682751
2132,8845;0,00678958
2133,8486;0,00674144
2134,8130;0,00670995
2135,7771;0,00670399
2136,7415;0,0067143
2137,7056;0,00672683
2138,6699;0,00673743
2139,6340;0,00675567
2140,5984;0,00679659
2141,5625;0,00686899
2142,5269;0,00697
2143,4910;0,00708803
2144,4553;0,00720854
2145,4194;0,00731617
2146,3838;0,00739336
2147,3479;0,00742172
2148,3123;0,00739105
2149,2764;0,00731212
2150,2407;0,00722251
2151,2048;0,00717702
2152,1692;0,00722502
2153,1333;0,00738689
2154,0977;0,0076428
2155,0618;0,00793784
2156,0261;0,00819863
2156,9902;0,00835551
2157,9546;0,0083665
2158,9187;0,00823565
2159,8831;0,00801255
2160,8472;0,00776947
2161,8115;0,00757297
2162,7756;0,00746577
2163,7400;0,00745954
2164,7041;0,0075329
2165,6685;0,00763547
2166,6326;0,00770248
2167,5969;0,00767853
2168,5610;0,00754087
2169,5254;0,00731084
2170,4895;0,00704797
2171,4539;0,00682888
2172,4180;0,00671812
2173,3823;0,00674154
2174,3464;0,00687395
2175,3108;0,00704906
2176,2749;0,00718931
2177,2393;0,00724058
2178,2034;0,00719366
2179,1677;0,00708276
2180,1318;0,00696421
2181,0962;0,00688721
2182,0603;0,00687128
2183,0247;0,00690215
2183,9888;0,00694721
2184,9531;0,00697868
2185,9172;0,00698828
2186,8816;0,00698548
2187,8457;0,00698414
2188,8101;0,00698917
2189,7742;0,00699242
2190,7385;0,00697905
2191,7026;0,0069383
2192,6670;0,00687084
2193,6311;0,00678931
2194,5955;0,00671369
2195,5596;0,00666528
2196,5239;0,00666109
2197,4880;0,00670846
2198,4524;0,00680009
2199,4165;0,00691258
2200,3809;0,00701208
2201,3450;0,00706731
2202,3093;0,00706372
2203,2734;0,00700995
2204,2378;0,0069315
2205,2019;0,00685499
2206,1663;0,00679343
2207,1304;0,00674166
2208,0947;0,00668384
2209,0588;0,0066065
2210,0232;0,0065079
2210,9873;0,00639897
2211,9517;0,00629744
2212,9158;0,0062204
2213,8801;0,00617912
2214,8442;0,00617627
2215,8086;0,00620463
2216,7727;0,00624733
2217,7371;0,0062818
2218,7012;0,00628801
2219,6655;0,00625836
2220,6296;0,00620323
2221,5940;0,00614766
2222,5581;0,00611985
2223,5225;0,00613774
2224,4866;0,00620116
2225,4509;0,00629384
2226,4150;0,00639294
2227,3794;0,00647921
2228,3435;0,00654539
2229,3079;0,00659429
2230,2720;0,00663249
2231,2363;0,00666341
2232,2004;0,00668383
2233,1648;0,00668574
2234,1289;0,0066622
2235,0933;0,00661395
2236,0574;0,00655273
2237,0217;0,00649907
2237,9858;0,00647472
2238,9502;0,00649325
2239,9143;0,00655344
2240,8787;0,00663907
2241,8428;0,00672568
2242,8071;0,00679087
2243,7712;0,00682307
2244,7356;0,0068246
2245,6997;0,00680827
2246,6641;0,0067905
2247,6282;0,00678518
2248,5925;0,00680109
2249,5566;0,00684232
2250,5210;0,00690913
2251,4851;0,00699677
2252,4495;0,00709338
2253,4136;0,00717982
2254,3779;0,00723475
2255,3420;0,00724394
2256,3064;0,00720856
2257,2705;0,00714664
2258,2349;0,0070856
2259,1990;0,00704989
2260,1633;0,00705071
2261,1274;0,00708334
2262,0918;0,00713238
2263,0559;0,00718093
2264,0203;0,0072181
2264,9844;0,00724101
2265,9487;0,00725208
2266,9128;0,00725461
2267,8772;0,00725011
2268,8413;0,00723841
2269,8057;0,00721926
2270,7698;0,00719354
2271,7341;0,00716317
2272,6982;0,00713008
2273,6626;0,00709528
2274,6267;0,00705903
2275,5911;0,0070216
2276,5552;0,00698394
2277,5195;0,0069477
2278,4836;0,00691467
2279,4480;0,00688678
2280,4121;0,00686736
2281,3765;0,00686288
2282,3406;0,0068835
2283,3049;0,00694073
2284,2690;0,00704242
2285,2334;0,00718779
2286,1975;0,00736593
2287,1619;0,00755969
2288,1260;0,00775313
2289,0903;0,00793773
2290,0544;0,00811313
2291,0188;0,00828199
2291,9829;0,00844341
2292,9473;0,00859021
2293,9114;0,00871208
2294,8757;0,00880143
2295,8398;0,00885678
2296,8042;0,00888023
2297,7683;0,00887187
2298,7327;0,00882664
2299,6968;0,00873836
2300,6611;0,00860932
2301,6252;0,00845879
2302,5896;0,00832218
2303,5537;0,00824029
2304,5181;0,00824107
2305,4822;0,00832277
2306,4465;0,0084467
2307,4106;0,00854541
2308,3750;0,00854542
2309,3391;0,00839655
2310,3035;0,00809497
2311,2676;0,00768807
2312,2319;0,00725637
2313,1960;0,00687892
2314,1604;0,00659974
2315,1245;0,00641384
2316,0889;0,00627958
2317,0530;0,00614829
2318,0173;0,00599512
2318,9814;0,00583751
2319,9458;0,00573375
2320,9099;0,00576049
2321,8743;0,00597518
2322,8384;0,00637871
2323,8027;0,00689921
2324,7668;0,00741136
2325,7312;0,00778468
2326,6953;0,00793663
2327,6597;0,00786505
2328,6238;0,00764738
2329,5881;0,00740925
2330,5522;0,00727499
2331,5166;0,00731822
2332,4807;0,00753404
2333,4451;0,0078497
2334,4092;0,0081703
2335,3735;0,00843289
2336,3376;0,00863803
2337,3020;0,00884293
2338,2661;0,00911858
2339,2305;0,00948745
2340,1946;0,00986847
2341,1589;0,0100621
2342,1230;0,00982392
2343,0874;0,00908328
2344,0515;0,008191
2345,0159;0,00778948
2345,9800;0,00824905
2346,9443;0,00934473
2347,9084;0,0105007
2348,8728;0,0112034
2349,8369;0,0112401
2350,8013;0,0107329
2351,7654;0,0100248
2352,7297;0,00946969
2353,6938;0,0092347
2354,6582;0,00928223
2355,6223;0,00951538
2356,5867;0,00986438
2357,5508;0,0102407
2358,5151;0,010509
2359,4792;0,0105607
2360,4436;0,010394
2361,4077;0,0100844
2362,3721;0,00968177
2363,3362;0,00916526
2364,3005;0,00849312
2365,2646;0,00767136
2366,2290;0,00676421
2367,1931;0,00585212
2368,1575;0,00499388
2369,1216;0,00422364
2370,0859;0,00356662
2371,0500;0,00304881
2372,0144;0,00269539
2372,9785;0,00252621
2373,9429;0,00255404
2374,9070;0,00278289
2375,8713;0,00320336
2376,8354;0,00378651
2377,7998;0,00448104
2378,7639;0,00521726
2379,7283;0,00591792
2380,6924;0,00651306
2381,6567;0,00695411
2382,6208;0,00722305
2383,5852;0,00733375
2384,5493;0,00732503
2385,5137;0,00724774
2386,4778;0,00715001
2387,4421;0,00706573
2388,4063;0,00700975
2389,3706;0,00698046
2390,3347;0,00696725
2391,2991;0,00695874
2392,2632;0,00694829
2393,2275;0,00693522
2394,1917;0,00692288
2395,1560;0,00691563
2396,1201;0,0069167
2397,0845;0,00692731
2398,0486;0,00694841
2399,0129;0,00697687
2399,9771;0,00700637
2400,9414;0,007029
2401,9055;0,00703637
2402,8699;0,00702488
2403,8340;0,00699859
2404,7983;0,00696937
2405,7625;0,00695242
2406,7268;0,00695832
2407,6909;0,0069881
2408,6553;0,00703271
2409,6194;0,00707716
2410,5837;0,00710934
2411,5479;0,00712506
2412,5122;0,00712864
2413,4763;0,00712864
2414,4407;0,00713262
2415,4048;0,00714389
2416,3691;0,00716179
2417,3333;0,00718435
2418,2976;0,00721042
2419,2617;0,0072399
2420,2261;0,00727201
2421,1902;0,00730282
2422,1545;0,00732611
2423,1187;0,00733504
2424,0830;0,00732553
2425,0471;0,00729907
2426,0115;0,00726342
2426,9756;0,00723062
2427,9399;0,00721278
2428,9041;0,00721718
2429,8684;0,00724314
2430,8325;0,0072823
2431,7969;0,00732265
2432,7610;0,00735434
2433,7253;0,00737396
2434,6895;0,00738482
2435,6538;0,0073931
2436,6179;0,00740271
2437,5823;0,0074125
2438,5464;0,00741766
2439,5107;0,00741421
2440,4749;0,00740299
2441,4392;0,00739005
2442,4033;0,00738318
2443,3677;0,00738706
2444,3318;0,00740063
2445,2961;0,00741838
2446,2603;0,00743426
2447,2246;0,0074452
2448,1887;0,00745205
2449,1531;0,00745778
2450,1172;0,0074651
2451,0815;0,00747528
2452,0457;0,00748874
2453,0100;0,00750598
2453,9741;0,00752753
2454,9385;0,00755288
2455,9026;0,00757965
2456,8669;0,00760423
2457,8311;0,00762382
2458,7954;0,00763823
2459,7595;0,00764978
2460,7239;0,00766138
2461,6880;0,00767419
2462,6523;0,00768707
2463,6165;0,00769802
2464,5808;0,00770629
2465,5449;0,00771308
2466,5093;0,00772029
2467,4734;0,00772835
2468,4377;0,00773549
2469,4019;0,0077391
2470,3662;0,00773835
2471,3303;0,00773569
2472,2947;0,00773597
2473,2588;0,0077437
2474,2231;0,00776072
2475,1873;0,00778561
2476,1516;0,00781522
2477,1157;0,00784653
2478,0801;0,00787742
2479,0442;0,00790611
2480,0085;0,00793008
2480,9727;0,00794613
2481,9370;0,00795169
2482,9011;0,00794653
2483,8655;0,00793347
2484,8296;0,00791729
2485,7939;0,0079025
2486,7581;0,00789144
2487,7224;0,00788407
2488,6865;0,00787942
2489,6509;0,0078775
2490,6150;0,00788007
2491,5793;0,00788954
2492,5435;0,00790663
2493,5078;0,00792873
2494,4719;0,00795045
2495,4363;0,00796641
2496,4004;0,00797455
2497,3647;0,0079776
2498,3289;0,00798167
2499,2932;0,00799259
2500,2573;0,00801224
2501,2217;0,00803718
2502,1858;0,00806036
2503,1501;0,00807458
2504,1143;0,00807602
2505,0786;0,00806595
2506,0427;0,00805009
2507,0071;0,00803615
2507,9712;0,0080309
2508,9355;0,0080377
2509,8997;0,00805584
2510,8640;0,00808146
2511,8281;0,00810966
2512,7925;0,00813652
2513,7566;0,0081599
2514,7209;0,00817903
2515,6851;0,00819346
2516,6494;0,00820243
2517,6135;0,00820509
2518,5779;0,0082011
2519,5420;0,00819099
2520,5063;0,00817615
2521,4705;0,0081589
2522,4348;0,00814301
2523,3989;0,0081339
2524,3633;0,00813743
2525,3274;0,00815679
2526,2917;0,00818931
2527,2559;0,00822572
2528,2202;0,00825386
2529,1843;0,00826515
2530,1487;0,00825977
2531,1128;0,00824647
2532,0771;0,00823661
2533,0413;0,00823643
2534,0056;0,0082431
2534,9697;0,00824754
2535,9341;0,00824185
2536,8982;0,00822567
2537,8625;0,00820697
2538,8267;0,0081966
2539,7910;0,00820096
2540,7551;0,00821802
2541,7195;0,00823896
2542,6836;0,00825408
2543,6479;0,00825844
2544,6121;0,00825401
2545,5764;0,00824726
2546,5405;0,00824463
2547,5049;0,00824866
2548,4690;0,00825698
2549,4333;0,00826434
2550,3975;0,00826623
2551,3618;0,00826207
2552,3259;0,00825603
2553,2903;0,00825492
2554,2544;0,00826435
2555,2188;0,00828508
2556,1829;0,0083122
2557,1472;0,00833763
2558,1113;0,00835456
2559,0757;0,00836103
2560,0398;0,00836031
2561,0042;0,00835802
2561,9683;0,00835817
2562,9326;0,00836108
2563,8967;0,00836436
2564,8611;0,00836587
2565,8252;0,00836606
2566,7896;0,00836779
2567,7537;0,00837385
2568,7180;0,00838437
2569,6821;0,00839627
2570,6465;0,00840511
2571,6106;0,0084081
2572,5750;0,0084058
2573,5391;0,00840144
2574,5034;0,00839864
2575,4675;0,00839918
2576,4319;0,00840246
2577,3960;0,00840654
2578,3604;0,00840972
2579,3245;0,00841142
2580,2888;0,00841202
2581,2529;0,00841221
2582,2173;0,00841278
2583,1814;0,00841487
2584,1458;0,00842024
2585,1099;0,00843081
2586,0742;0,00844744
2587,0383;0,00846888
2588,0027;0,00849174
2588,9668;0,00851181
2589,9312;0,00852608
2590,8953;0,008534
2591,8596;0,00853737
2592,8237;0,00853903
2593,7881;0,00854139
2594,7522;0,00854595
2595,7166;0,00855371
2596,6807;0,0085657
2597,6450;0,00858284
2598,6091;0,00860486
2599,5735;0,00862946
2600,5376;0,00865249
2601,5020;0,00866982
2602,4661;0,00867954
2603,4304;0,00868301
2604,3945;0,0086839
2605,3589;0,00868584
2606,3230;0,00869049
2607,2874;0,00869737
2608,2515;0,00870544
2609,2158;0,0087148
2610,1799;0,00872684
2611,1443;0,00874275
2612,1084;0,00876163
2613,0728;0,00878005
2614,0369;0,00879381
2615,0012;0,00880065
2615,9653;0,00880205
2616,9297;0,00880264
2617,8938;0,00880766
2618,8582;0,00882
2619,8223;0,00883873
2620,7866;0,0088595
2621,7507;0,00887663
2622,7151;0,00888559
2623,6792;0,00888497
2624,6436;0,00887732
2625,6077;0,00886852
2626,5720;0,0088656
2627,5361;0,00887396
2628,5005;0,00889504
2629,4646;0,00892579
2630,4290;0,00896025
2631,3931;0,00899227
2632,3574;0,00901779
2633,3215;0,00903546
2634,2859;0,00904603
2635,2500;0,00905135
2636,2144;0,00905407
2637,1785;0,00905772
2638,1428;0,00906623
2639,1069;0,00908247
2640,0713;0,00910633
2641,0354;0,00913412
2641,9998;0,00916016
2642,9639;0,00918004
2643,9282;0,00919328
2644,8923;0,00920343
2645,8567;0,00921541
2646,8208;0,00923186
2647,7852;0,00925114
2648,7493;0,00926861
2649,7136;0,00928
2650,6777;0,00928469
2651,6421;0,00928642
2652,6062;0,00929102
2653,5706;0,00930283
2654,5347;0,0093223
2655,4990;0,00934615
2656,4631;0,00936993
2657,4275;0,0093909
2658,3916;0,00940934
2659,3560;0,00942758
2660,3201;0,00944768
2661,2844;0,00946957
2662,2485;0,00949105
2663,2129;0,00950943
2664,1770;0,00952356
2665,1414;0,00953461
2666,1055;0,00954522
2667,0698;0,00955756
2668,0339;0,00957203
2668,9983;0,00958735
2669,9624;0,00960192
2670,9268;0,00961518
2671,8909;0,00962787
2672,8552;0,00964123
2673,8193;0,00965586
2674,7837;0,00967142
2675,7478;0,00968715
2676,7122;0,00970274
2677,6763;0,00971848
2678,6406;0,00973471
2679,6047;0,00975111
2680,5691;0,00976675
2681,5332;0,00978078
2682,4976;0,00979342
2683,4617;0,00980598
2684,4260;0,00982
2685,3901;0,00983609
2686,3545;0,00985352
2687,3186;0,00987089
2688,2830;0,00988732
2689,2471;0,00990319
2690,2114;0,00991986
2691,1755;0,00993848
2692,1399;0,00995907
2693,1040;0,00998031
2694,0684;0,0100003
2695,0325;0,0100174
2695,9968;0,010031
2696,9609;0,0100413
2697,9253;0,0100494
2698,8894;0,0100569
2699,8538;0,0100661
2700,8179;0,0100799
2701,7822;0,0101005
2702,7463;0,0101291
2703,7107;0,0101642
2704,6748;0,0102024
2705,6392;0,0102387
2706,6033;0,0102686
2707,5676;0,0102896
2708,5317;0,0103026
2709,4961;0,0103111
2710,4602;0,0103197
2711,4246;0,0103324
2712,3887;0,0103509
2713,3530;0,0103745
2714,3171;0,0104003
2715,2815;0,0104253
2716,2456;0,0104473
2717,2100;0,0104658
2718,1741;0,0104818
2719,1384;0,0104967
2720,1025;0,010512
2721,0669;0,0105279
2722,0310;0,0105435
2722,9954;0,0105574
2723,9595;0,0105685
2724,9238;0,0105769
2725,8879;0,0105843
2726,8523;0,0105938
2727,8164;0,0106083
2728,7808;0,0106296
2729,7449;0,0106568
2730,7092;0,0106864
2731,6733;0,0107139
2732,6377;0,0107353
2733,6018;0,0107493
2734,5662;0,0107571
2735,5303;0,0107619
2736,4946;0,010767
2737,4587;0,010774
2738,4231;0,0107832
2739,3872;0,0107938
2740,3516;0,0108057
2741,3157;0,0108191
2742,2800;0,0108341
2743,2441;0,0108497
2744,2085;0,0108632
2745,1726;0,0108721
2746,1370;0,0108758
2747,1011;0,0108769
2748,0654;0,0108804
2749,0295;0,0108917
2749,9939;0,0109132
2750,9580;0,0109433
2751,9224;0,0109764
2752,8865;0,0110061
2753,8508;0,0110282
2754,8149;0,0110424
2755,7793;0,011052
2756,7434;0,011062
2757,7078;0,0110765
2758,6719;0,0110966
2759,6362;0,0111204
2760,6003;0,0111446
2761,5647;0,0111666
2762,5288;0,0111859
2763,4932;0,0112044
2764,4573;0,0112246
2765,4216;0,0112485
2766,3857;0,0112761
2767,3501;0,0113061
2768,3142;0,0113367
2769,2786;0,0113668
2770,2427;0,0113956
2771,2070;0,0114233
2772,1711;0,0114496
2773,1355;0,0114743
2774,0996;0,0114974
2775,0640;0,0115189
2776,0281;0,0115397
2776,9924;0,0115607
2777,9565;0,0115828
2778,9209;0,0116067
2779,8850;0,0116328
2780,8494;0,0116613
2781,8135;0,0116921
2782,7778;0,0117247
2783,7419;0,0117582
2784,7063;0,0117909
2785,6704;0,0118216
2786,6348;0,0118493
2787,5989;0,0118746
2788,5632;0,0118995
2789,5273;0,0119271
2790,4917;0,0119601
2791,4558;0,0119997
2792,4202;0,0120451
2793,3843;0,0120935
2794,3486;0,0121415
2795,3127;0,0121867
2796,2771;0,0122285
2797,2412;0,0122682
2798,2056;0,012308
2799,1697;0,0123507
2800,1340;0,0123981
2801,0981;0,0124511
2802,0625;0,0125095
2803,0266;0,0125714
2803,9910;0,012634
2804,9551;0,0126941
2805,9194;0,0127494
2806,8835;0,0127994
2807,8479;0,012847
2808,8120;0,0128967
2809,7764;0,0129536
2810,7405;0,0130207
2811,7048;0,0130972
2812,6689;0,0131791
2813,6333;0,0132608
2814,5974;0,0133379
2815,5618;0,0134095
2816,5259;0,0134781
2817,4902;0,0135483
2818,4543;0,0136244
2819,4187;0,0137087
2820,3828;0,0138016
2821,3472;0,0139012
2822,3113;0,0140052
2823,2756;0,0141109
2824,2397;0,0142164
2825,2041;0,0143207
2826,1682;0,0144244
2827,1326;0,0145302
2828,0967;0,0146421
2829,0610;0,0147641
2830,0251;0,0148985
2830,9895;0,0150453
2831,9536;0,0152026
2832,9180;0,0153678
2833,8821;0,0155387
2834,8464;0,0157145
2835,8105;0,0158948
2836,7749;0,0160802
2837,7390;0,0162713
2838,7034;0,0164698
2839,6675;0,016678
2840,6318;0,0168991
2841,5959;0,0171367
2842,5603;0,017394
2843,5244;0,017673
2844,4888;0,0179738
2845,4529;0,0182926
2846,4172;0,0186213
2847,3813;0,0189475
2848,3457;0,0192558
2849,3098;0,0195309
2850,2742;0,0197606
2851,2383;0,0199383
2852,2026;0,0200629
2853,1667;0,0201372
2854,1311;0,0201661
2855,0952;0,0201541
2856,0596;0,0201062
2857,0237;0,0200287
2857,9880;0,0199313
2858,9521;0,0198271
2859,9165;0,0197314
2860,8806;0,0196579
2861,8450;0,019615
2862,8091;0,0196051
2863,7734;0,019625
2864,7375;0,0196691
2865,7019;0,0197315
2866,6660;0,0198072
2867,6304;0,0198906
2868,5945;0,0199746
2869,5588;0,0200512
2870,5229;0,0201133
2871,4873;0,0201575
2872,4514;0,020185
2873,4158;0,0202006
2874,3799;0,0202105
2875,3442;0,0202203
2876,3083;0,020234
2877,2727;0,0202549
2878,2368;0,0202857
2879,2012;0,0203283
2880,1653;0,0203826
2881,1296;0,0204458
2882,0938;0,0205134
2883,0581;0,0205805
2884,0222;0,0206448
2884,9866;0,0207066
2885,9507;0,0207689
2886,9150;0,0208358
2887,8792;0,0209098
2888,8435;0,0209913
2889,8076;0,0210779
2890,7720;0,0211657
2891,7361;0,0212505
2892,7004;0,0213303
2893,6646;0,021406
2894,6289;0,021481
2895,5930;0,0215596
2896,5574;0,021644
2897,5215;0,021733
2898,4858;0,0218217
2899,4500;0,0219039
2900,4143;0,021975
2901,3784;0,0220353
2902,3428;0,0220898
2903,3069;0,0221473
2904,2712;0,0222162
2905,2354;0,0223011
2906,1997;0,0224011
2907,1638;0,0225104
2908,1282;0,0226223
2909,0923;0,0227328
2910,0566;0,0228434
2911,0208;0,0229602
2911,9851;0,0230911
2912,9492;0,0232409
2913,9136;0,0234092
2914,8777;0,0235906
2915,8420;0,0237764
2916,8062;0,0239575
2917,7705;0,0241258
2918,7346;0,024274
2919,6990;0,0243949
2920,6631;0,024482
2921,6274;0,0245304
2922,5916;0,0245384
2923,5559;0,0245071
2924,5200;0,0244391
2925,4844;0,0243368
2926,4485;0,0242014
2927,4128;0,0240341
2928,3770;0,0238384
2929,3413;0,0236203
2930,3054;0,0233883
2931,2698;0,0231502
2932,2339;0,0229113
2933,1982;0,0226732
2934,1624;0,0224359
2935,1267;0,0221992
2936,0908;0,0219642
2937,0552;0,021733
2938,0193;0,0215076
2938,9836;0,0212879
2939,9478;0,0210723
2940,9121;0,0208586
2941,8762;0,0206448
2942,8406;0,0204312
2943,8047;0,0202201
2944,7690;0,020016
2945,7332;0,0198244
2946,6975;0,0196504
2947,6616;0,0194973
2948,6260;0,0193656
2949,5901;0,0192525
2950,5544;0,019153
2951,5186;0,0190607
2952,4829;0,01897
2953,4470;0,0188768
2954,4114;0,0187795
2955,3755;0,0186782
2956,3398;0,0185735
2957,3040;0,0184662
2958,2683;0,0183561
2959,2324;0,0182427
2960,1968;0,0181256
2961,1609;0,0180044
2962,1252;0,0178789
2963,0894;0,0177487
2964,0537;0,0176133
2965,0178;0,0174734
2965,9822;0,0173311
2966,9463;0,0171897
2967,9106;0,0170524
2968,8748;0,0169205
2969,8391;0,0167931
2970,8032;0,0166684
2971,7676;0,0165452
2972,7317;0,0164251
2973,6960;0,0163108
2974,6602;0,0162043
2975,6245;0,0161043
2976,5886;0,0160069
2977,5530;0,0159083
2978,5171;0,0158077
2979,4814;0,0157092
2980,4456;0,0156192
2981,4099;0,0155428
2982,3740;0,0154808
2983,3384;0,0154293
2984,3025;0,0153828
2985,2668;0,0153365
2986,2310;0,0152889
2987,1953;0,015241
2988,1594;0,015195
2989,1238;0,0151528
2990,0879;0,0151159
2991,0522;0,0150857
2992,0164;0,0150632
2992,9807;0,0150486
2993,9448;0,0150408
2994,9092;0,0150375
2995,8733;0,015037
2996,8376;0,0150386
2997,8018;0,0150431
2998,7661;0,0150518
2999,7302;0,0150647
3000,6946;0,0150802
3001,6587;0,0150965
3002,6230;0,0151128
3003,5872;0,0151309
3004,5515;0,0151542
3005,5156;0,015185
3006,4800;0,0152228
3007,4441;0,0152627
3008,4084;0,0152976
3009,3726;0,0153214
3010,3369;0,0153312
3011,3010;0,015329
3012,2654;0,0153199
3013,2295;0,0153098
3014,1938;0,0153037
3015,1580;0,0153042
3016,1223;0,0153126
3017,0864;0,0153292
3018,0508;0,0153538
3019,0149;0,0153855
3019,9792;0,0154224
3020,9434;0,015462
3021,9077;0,0155021
3022,8718;0,0155415
3023,8362;0,0155805
3024,8003;0,0156208
3025,7646;0,0156643
3026,7288;0,0157129
3027,6931;0,0157669
3028,6572;0,0158246
3029,6216;0,0158823
3030,5857;0,015935
3031,5500;0,0159791
3032,5142;0,0160142
3033,4785;0,016044
3034,4426;0,0160749
3035,4070;0,0161131
3036,3711;0,0161608
3037,3354;0,0162154
3038,2996;0,0162714
3039,2639;0,0163233
3040,2280;0,0163695
3041,1924;0,0164132
3042,1565;0,0164602
3043,1208;0,0165153
3044,0850;0,0165795
3045,0493;0,0166491
3046,0134;0,016719
3046,9778;0,0167854
3047,9419;0,0168484
3048,9063;0,016912
3049,8704;0,0169809
3050,8347;0,017057
3051,7988;0,0171381
3052,7632;0,017218
3053,7273;0,0172901
3054,6917;0,017351
3055,6558;0,0174019
3056,6201;0,0174487
3057,5842;0,0174992
3058,5486;0,0175598
3059,5127;0,0176336
3060,4771;0,0177197
3061,4412;0,0178138
3062,4055;0,0179089
3063,3696;0,0179966
3064,3340;0,0180689
3065,2981;0,0181214
3066,2625;0,0181553
3067,2266;0,0181783
3068,1909;0,018202
3069,1550;0,0182376
3070,1194;0,0182918
3071,0835;0,018364
3072,0479;0,0184481
3073,0120;0,0185353
3073,9763;0,0186187
3074,9404;0,0186961
3075,9048;0,0187694
3076,8689;0,0188425
3077,8333;0,0189176
3078,7974;0,0189935
3079,7617;0,0190664
3080,7258;0,0191326
3081,6902;0,0191913
3082,6543;0,0192452
3083,6187;0,0192984
3084,5828;0,0193538
3085,5471;0,019411
3086,5112;0,0194676
3087,4756;0,0195221
3088,4397;0,0195761
3089,4041;0,019635
3090,3682;0,0197049
3091,3325;0,0197888
3092,2966;0,0198847
3093,2610;0,0199862
3094,2251;0,0200861
3095,1895;0,0201792
3096,1536;0,0202643
3097,1179;0,0203423
3098,0820;0,020414
3099,0464;0,0204789
3100,0105;0,0205354
3100,9749;0,0205834
3101,9390;0,0206255
3102,9033;0,0206668
3103,8674;0,020713
3104,8318;0,0207682
3105,7959;0,0208342
3106,7603;0,0209103
3107,7244;0,0209949
3108,6887;0,0210861
3109,6528;0,0211817
3110,6172;0,0212799
3111,5813;0,0213786
3112,5457;0,0214761
3113,5098;0,0215704
3114,4741;0,0216594
3115,4382;0,021741
3116,4026;0,0218137
3117,3667;0,0218785
3118,3311;0,0219396
3119,2952;0,022004
3120,2595;0,0220788
3121,2236;0,0221667
3122,1880;0,0222641
3123,1521;0,0223622
3124,1165;0,0224515
3125,0806;0,0225282
3126,0449;0,022596
3127,0090;0,0226642
3127,9734;0,0227412
3128,9375;0,0228291
3129,9019;0,0229229
3130,8660;0,0230137
3131,8303;0,0230954
3132,7944;0,0231683
3133,7588;0,0232392
3134,7229;0,0233156
3135,6873;0,0234013
3136,6514;0,0234941
3137,6157;0,0235873
3138,5798;0,0236748
3139,5442;0,0237538
3140,5083;0,0238267
3141,4727;0,0238984
3142,4368;0,0239745
3143,4011;0,024058
3144,3652;0,0241494
3145,3296;0,0242471
3146,2937;0,0243485
3147,2581;0,0244506
3148,2222;0,0245507
3149,1865;0,0246468
3150,1506;0,0247387
3151,1150;0,0248276
3152,0791;0,0249166
3153,0435;0,0250086
3154,0076;0,025105
3154,9719;0,0252044
3155,9360;0,0253038
3156,9004;0,0254
3157,8645;0,0254924
3158,8289;0,0255836
3159,7930;0,0256774
3160,7573;0,0257764
3161,7214;0,0258799
3162,6858;0,0259836
3163,6499;0,0260828
3164,6143;0,0261755
3165,5784;0,0262634
3166,5427;0,0263509
3167,5068;0,0264418
3168,4712;0,026537
3169,4353;0,0265451
3170,3997;0,0266413
3171,3638;0,0267349
3172,3281;0,0268261
3173,2922;0,026917
3174,2566;0,0270095
3175,2207;0,0271041
3176,1851;0,0272001
3177,1492;0,0272969
3178,1135;0,0273955
3179,0776;0,0274983
3180,0420;0,0276071
3181,0061;0,0277209
3181,9705;0,0278342
3182,9346;0,0279394
3183,8989;0,0280299
3184,8630;0,0281047
3185,8274;0,0281692
3186,7915;0,0282331
3187,7559;0,0283056
3188,7200;0,0283911
3189,6843;0,0284887
3190,6484;0,0285941
3191,6128;0,028703
3192,5769;0,0288126
3193,5413;0,0289209
3194,5054;0,0290248
3195,4697;0,0291205
3196,4338;0,0292045
3197,3982;0,0292768
3198,3623;0,0293419
3199,3267;0,0294058
3200,2908;0,0294732
3201,2551;0,0295446
3202,2192;0,0296171
3203,1836;0,0296885
3204,1477;0,029759
3205,1121;0,0298325
3206,0762;0,0299134
3207,0405;0,0300036
3208,0046;0,0301013
3208,9690;0,0302026
3209,9331;0,030304
3210,8975;0,0304049
3211,8616;0,0305067
3212,8259;0,0306101
3213,7900;0,0307134
3214,7544;0,0308115
3215,7185;0,0308984
3216,6829;0,0309704
3217,6470;0,031029
3218,6113;0,0310798
3219,5754;0,0311313
3220,5398;0,0311906
3221,5039;0,0312613
3222,4683;0,031343
3223,4324;0,031433
3224,3967;0,0315279
3225,3608;0,0316253
3226,3252;0,0317232
3227,2893;0,0318197
3228,2537;0,0319124
3229,2178;0,0319999
3230,1821;0,032082
3231,1462;0,032161
3232,1106;0,0322402
3233,0747;0,0323216
3234,0391;0,0324051
3235,0032;0,0324876
3235,9675;0,0325648
3236,9316;0,0326343
3237,8960;0,0326972
3238,8601;0,0327585
3239,8245;0,0328254
3240,7886;0,0329036
3241,7529;0,0329953
3242,7170;0,0330974
3243,6814;0,0332026
3244,6455;0,0333031
3245,6099;0,0333935
3246,5740;0,0334731
3247,5383;0,0335455
3248,5024;0,0336159
3249,4668;0,0336892
3250,4309;0,0337687
3251,3953;0,0338562
3252,3594;0,0339519
3253,3237;0,0340544
3254,2878;0,0341607
3255,2522;0,0342664
3256,2163;0,0343679
3257,1807;0,034464
3258,1448;0,0345564
3259,1091;0,0346481
3260,0732;0,0347407
3261,0376;0,0348326
3262,0017;0,0349192
3262,9661;0,0349967
3263,9302;0,035065
3264,8945;0,0351295
3265,8586;0,0351985
3266,8230;0,0352789
3267,7871;0,0353723
3268,7515;0,0354735
3269,7156;0,0355727
3270,6799;0,0356592
3271,6440;0,0357264
3272,6084;0,0357736
3273,5725;0,0358062
3274,5369;0,0358335
3275,5010;0,0358643
3276,4653;0,0359038
3277,4294;0,0359513
3278,3938;0,0360013
3279,3579;0,0360463
3280,3223;0,0360808
3281,2864;0,0361038
3282,2507;0,0361191
3283,2148;0,0361327
3284,1792;0,0361494
3285,1433;0,0361709
3286,1077;0,0361954
3287,0718;0,0362203
3288,0361;0,0362451
3289,0002;0,0362714
3289,9646;0,0363018
3290,9287;0,0363363
3291,8931;0,0363706
3292,8572;0,0363965
3293,8215;0,0364064
3294,7856;0,0363972
3295,7500;0,0363729
3296,7141;0,0363433
3297,6785;0,0363198
3298,6426;0,036311
3299,6069;0,0363191
3300,5710;0,0363414
3301,5354;0,0363722
3302,4995;0,0364059
3303,4639;0,036438
3304,4280;0,0364648
3305,3923;0,0364828
3306,3564;0,0364889
3307,3208;0,0364831
3308,2849;0,0364693
3309,2493;0,0364551
3310,2134;0,0364488
3311,1777;0,0364551
3312,1418;0,0364738
3313,1062;0,0365
3314,0703;0,0365275
3315,0347;0,0365518
3315,9988;0,0365723
3316,9631;0,0365916
3317,9272;0,0366144
3318,8916;0,0366451
3319,8557;0,036687
3320,8201;0,0367409
3321,7842;0,0368048
3322,7485;0,0368743
3323,7126;0,0369435
3324,6770;0,037007
3325,6411;0,0370606
3326,6055;0,0371025
3327,5696;0,0371325
3328,5339;0,0371523
3329,4980;0,0371653
3330,4624;0,037177
3331,4265;0,0371945
3332,3909;0,0372241
3333,3550;0,0372681
3334,3193;0,0373214
3335,2834;0,0373717
3336,2478;0,0374031
3337,2119;0,0374026
3338,1763;0,0373652
3339,1404;0,0372961
3340,1047;0,0372078
3341,0688;0,0371147
3342,0332;0,0370287
3342,9973;0,0369557
3343,9617;0,0368956
3344,9258;0,0368442
3345,8901;0,0367962
3346,8542;0,036747
3347,8186;0,0366934
3348,7827;0,0366332
3349,7471;0,0365652
3350,7112;0,0364897
3351,6755;0,0364085
3352,6396;0,0363254
3353,6040;0,0362448
3354,5681;0,0361705
3355,5325;0,0361041
3356,4966;0,0360451
3357,4609;0,0359914
3358,4250;0,0359407
3359,3894;0,0358908
3360,3535;0,0358396
3361,3179;0,035785
3362,2820;0,0357249
3363,2463;0,0356587
3364,2104;0,0355871
3365,1748;0,035512
3366,1389;0,0354349
3367,1033;0,0353553
3368,0674;0,0352716
3369,0317;0,0351817
3369,9958;0,0350859
3370,9602;0,0349875
3371,9243;0,034892
3372,8887;0,0348044
3373,8528;0,0347266
3374,8171;0,0346565
3375,7813;0,0345887
3376,7456;0,0345178
3377,7097;0,0344406
3378,6741;0,0343577
3379,6382;0,0342727
3380,6025;0,0341903
3381,5667;0,0341143
3382,5310;0,0340465
3383,4951;0,0339866
3384,4595;0,0339329
3385,4236;0,0338827
3386,3879;0,0338328
3387,3521;0,03378
3388,3164;0,0337218
3389,2805;0,0336569
3390,2449;0,0335866
3391,2090;0,0335144
3392,1733;0,0334446
3393,1375;0,0333803
3394,1018;0,0333222
3395,0659;0,0332672
3396,0303;0,0332095
3396,9944;0,0331428
3397,9587;0,0330627
3398,9229;0,0329684
3399,8872;0,032863
3400,8513;0,032753
3401,8157;0,0326458
3402,7798;0,0325477
3403,7441;0,0324615
3404,7083;0,0323862
3405,6726;0,0323169
3406,6367;0,0322467
3407,6011;0,0321689
3408,5652;0,0320791
3409,5295;0,031976
3410,4937;0,0318622
3411,4580;0,0317437
3412,4221;0,031628
3413,3865;0,0315224
3414,3506;0,0314309
3415,3149;0,0313528
3416,2791;0,0312832
3417,2434;0,031214
3418,2075;0,0311365
3419,1719;0,0310443
3420,1360;0,0309351
3421,1003;0,0308117
3422,0645;0,0306806
3423,0288;0,0305494
3423,9929;0,0304245
3424,9573;0,0303096
3425,9214;0,0302053
3426,8857;0,0301086
3427,8499;0,0300135
3428,8142;0,0299121
3429,7783;0,0297984
3430,7427;0,0296709
3431,7068;0,0295343
3432,6711;0,0293966
3433,6353;0,0292661
3434,5996;0,0291465
3435,5637;0,0290365
3436,5281;0,0289313
3437,4922;0,0288274
3438,4565;0,0287252
3439,4207;0,0286287
3440,3850;0,0285419
3441,3491;0,028464
3442,3135;0,0283871
3443,2776;0,0282989
3444,2419;0,0281889
3445,2061;0,0280539
3446,1704;0,0279006
3447,1345;0,0277428
3448,0989;0,0275936
3449,0630;0,0274586
3450,0273;0,0273341
3450,9915;0,0272115
3451,9558;0,0270845
3452,9199;0,0269526
3453,8843;0,0268214
3454,8484;0,0266979
3455,8127;0,0265864
3456,7769;0,0264864
3457,7412;0,0263933
3458,7053;0,0263006
3459,6697;0,0262021
3460,6338;0,0260936
3461,5981;0,0259739
3462,5623;0,0258453
3463,5266;0,0257126
3464,4907;0,0255817
3465,4551;0,0254569
3466,4192;0,0253392
3467,3835;0,0252251
3468,3477;0,0251089
3469,3120;0,0249851
3470,2761;0,0248517
3471,2405;0,0247117
3472,2046;0,0245728
3473,1689;0,0244448
3474,1331;0,0243356
3475,0974;0,0242472
3476,0615;0,0241742
3477,0259;0,0241056
3477,9900;0,0240281
3478,9543;0,0239314
3479,9185;0,0238119
3480,8828;0,0236743
3481,8469;0,0235297
3482,8113;0,0233905
3483,7754;0,0232637
3484,7397;0,0231482
3485,7039;0,0230369
3486,6682;0,0229218
3487,6323;0,022799
3488,5967;0,0226708
3489,5608;0,0225436
3490,5251;0,0224236
3491,4893;0,0223124
3492,4536;0,0222069
3493,4177;0,0221033
3494,3821;0,0220008
3495,3462;0,0219043
3496,3105;0,0218223
3497,2747;0,0217602
3498,2390;0,0217149
3499,2031;0,0216731
3500,1675;0,021616
3501,1316;0,0215273
3502,0959;0,021402
3503,0601;0,0212516
3504,0244;0,0210988
3504,9885;0,020962
3505,9529;0,0208445
3506,9170;0,0207348
3507,8813;0,0206168
3508,8455;0,0204796
3509,8098;0,020323
3510,7739;0,0201578
3511,7383;0,0199984
3512,7024;0,0198552
3513,6667;0,0197318
3514,6309;0,0196285
3515,5952;0,0195449
3516,5593;0,0194811
3517,5237;0,019436
3518,4878;0,0194049
3519,4521;0,019381
3520,4163;0,019356
3521,3806;0,0193225
3522,3447;0,0192741
3523,3091;0,0192058
3524,2732;0,0191133
3525,2375;0,0189932
3526,2017;0,0188443
3527,1660;0,0186704
3528,1301;0,0184829
3529,0945;0,0182991
3530,0586;0,0181359
3531,0229;0,0180011
3531,9871;0,0178897
3532,9514;0,0177881
3533,9155;0,0176809
3534,8799;0,0175588
3535,8440;0,0174243
3536,8083;0,0172942
3537,7725;0,0171929
3538,7368;0,01714
3539,7009;0,017139
3540,6653;0,0171739
3541,6294;0,0172133
3542,5938;0,017219
3543,5579;0,017158
3544,5222;0,0170198
3545,4863;0,0168298
3546,4507;0,0166393
3547,4148;0,016491
3548,3792;0,0163903
3549,3433;0,0163079
3550,3076;0,0162043
3551,2717;0,0160567
3552,2361;0,0158735
3553,2002;0,0156897
3554,1646;0,0155432
3555,1287;0,0154495
3556,0930;0,0153981
3557,0571;0,0153699
3558,0215;0,0153579
3558,9856;0,0153744
3559,9500;0,0154398
3560,9141;0,0155605
3561,8784;0,0157125
3562,8425;0,0158417
3563,8069;0,0158759
3564,7710;0,0157404
3565,7354;0,0153945
3566,6995;0,0148935
3567,6638;0,0144005
3568,6279;0,0140721
3569,5923;0,0139409
3570,5564;0,0139329
3571,5208;0,0139544
3572,4849;0,0139489
3573,4492;0,0139065
3574,4133;0,0138448
3575,3777;0,0137847
3576,3418;0,0137346
3577,3062;0,0136936
3578,2703;0,0136661
3579,2346;0,0136706
3580,1987;0,0137306
3581,1631;0,0138525
3582,1272;0,014009
3583,0916;0,0141439
3584,0557;0,0141912
3585,0200;0,0140998
3585,9841;0,0138657
3586,9485;0,0135699
3587,9126;0,0133645
3588,8770;0,0133645
3589,8411;0,0135565
3590,8054;0,0138292
3591,7695;0,0140609
3592,7339;0,0141761
3593,6980;0,0141642
3594,6624;0,0140712
3595,6265;0,0139657
3596,5908;0,0138883
3597,5549;0,0138273
3598,5193;0,0137425
3599,4834;0,01361
3600,4478;0,0134501
3601,4119;0,0133124
3602,3762;0,0132314
3603,3403;0,0131946
3604,3047;0,0131488
3605,2688;0,0130286
3606,2332;0,0127864
3607,1973;0,0124194
3608,1616;0,0119842
3609,1257;0,0115761
3610,0901;0,0112816
3611,0542;0,011143
3612,0186;0,0111558
3612,9827;0,0112805
3613,9470;0,0114521
3614,9111;0,0115938
3615,8755;0,0116361
3616,8396;0,0115413
3617,8040;0,0113317
3618,7681;0,0111076
3619,7324;0,0110194
3620,6965;0,0111771
3621,6609;0,0115679
3622,6250;0,0120701
3623,5894;0,0125274
3624,5535;0,0128068
3625,5178;0,0128159
3626,4819;0,0125019
3627,4463;0,0118795
3628,4104;0,0111077
3629,3748;0,0104729
3630,3389;0,0101572
3631,3032;0,0100914
3632,2673;0,0100839
3633,2317;0,00999185
3634,1958;0,00978095
3635,1602;0,00950018
3636,1243;0,00922237
3637,0886;0,00899141
3638,0527;0,00880903
3639,0171;0,00866169
3639,9812;0,00855436
3640,9456;0,00851739
3641,9097;0,00858097
3642,8740;0,00874279
3643,8381;0,00895757
3644,8025;0,00914914
3645,7666;0,00921936
3646,7310;0,00903855
3647,6951;0,00847667
3648,6594;0,00759315
3649,6235;0,00677562
3650,5879;0,00638751
3651,5520;0,00640836
3652,5164;0,00658177
3653,4805;0,00667546
3654,4448;0,00658501
3655,4089;0,00634025
3656,3733;0,0060658
3657,3374;0,00589279
3658,3018;0,00586483
3659,2659;0,0059274
3660,2302;0,00600241
3661,1943;0,00606156
3662,1587;0,00613824
3663,1228;0,00628145
3664,0872;0,00649747
3665,0513;0,00673446
3666,0156;0,00691574
3666,9797;0,00698988
3667,9441;0,00696383
3668,9082;0,00690698
3669,8726;0,00691079
3670,8367;0,00700544
3671,8010;0,00711355
3672,7651;0,00710123
3673,7295;0,00686966
3674,6936;0,00643416
3675,6580;0,0059641
3676,6221;0,00569027
3677,5864;0,00570527
3678,5505;0,00591605
3679,5149;0,00618285
3680,4790;0,00643514
3681,4434;0,00668025
3682,4075;0,00694955
3683,3718;0,00724356
3684,3359;0,00751695
3685,3003;0,00770499
3686,2644;0,00776173
3687,2288;0,00768342
3688,1929;0,00751666
3689,1572;0,00735802
3690,1213;0,0073151
3691,0857;0,00742593
3692,0498;0,00763826
3693,0142;0,00787423
3693,9783;0,00808765
3694,9426;0,00826928
3695,9067;0,00842274
3696,8711;0,00854233
3697,8352;0,00860943
3698,7996;0,00860659
3699,7637;0,0085385
3700,7280;0,00844596
3701,6921;0,00839913
3702,6565;0,00846308
3703,6206;0,00865621
3704,5850;0,00893923
3705,5491;0,00923895
3706,5134;0,00947431
3707,4775;0,00955984
3708,4419;0,0093934
3709,4060;0,00887454
3710,3704;0,00801263
3711,3345;0,00704788
3712,2988;0,00634165
3713,2629;0,0060947
3714,2273;0,00626178
3715,1914;0,00668352
3716,1558;0,00721422
3717,1199;0,00776557
3718,0842;0,0082977
3719,0483;0,00879414
3720,0127;0,00924135
3720,9768;0,0096215
3721,9412;0,00991771
3722,9053;0,010125
3723,8696;0,0102588
3724,8337;0,0103548
3725,7981;0,0104526
3726,7622;0,0105727
3727,7266;0,0107048
3728,6907;0,0108208
3729,6550;0,0108951
3730,6191;0,0109122
3731,5835;0,0108497
3732,5476;0,0106477
3733,5120;0,0102152
3734,4761;0,00953492
3735,4404;0,00878842
3736,4045;0,00826505
3737,3689;0,00810308
3738,3330;0,00820372
3739,2974;0,00835012
3740,2615;0,00833876
3741,2258;0,00804862
3742,1899;0,00748202
3743,1543;0,0068017
3744,1184;0,00630067
3745,0828;0,00620772
3746,0469;0,0064777
3747,0112;0,00683935
3747,9753;0,00699631
3748,9397;0,00676078
3749,9038;0,00614149
3750,8682;0,00541453
3751,8323;0,00497625
3752,7966;0,00499194
3753,7607;0,00530842
3754,7251;0,00566884
3755,6892;0,00588684
3756,6536;0,00589026
3757,6177;0,00571282
3758,5820;0,0054682
3759,5461;0,00528935
3760,5105;0,00524886
3761,4746;0,00532993
3762,4390;0,00546559
3763,4031;0,00559092
3764,3674;0,00566714
3765,3315;0,00567857
3766,2959;0,00561938
3767,2600;0,00548569
3768,2244;0,00528281
3769,1885;0,00504348
3770,1528;0,00483563
3771,1169;0,00473587
3772,0813;0,00478178
3773,0454;0,00494673
3774,0098;0,00515802
3774,9739;0,00533503
3775,9382;0,00542009
3776,9023;0,00539524
3777,8667;0,00528883
3778,8308;0,00516717
3779,7952;0,00509913
3780,7593;0,00511174
3781,7236;0,00517802
3782,6877;0,00524305
3783,6521;0,00525849
3784,6162;0,00520462
3785,5806;0,00509721
3786,5447;0,00497911
3787,5090;0,00490019
3788,4731;0,0048947
3789,4375;0,00496777
3790,4016;0,00509726
3791,3660;0,0052493
3792,3301;0,00539906
3793,2944;0,00554488
3794,2585;0,00570522
3795,2229;0,00589666
3796,1870;0,00610641
3797,1514;0,00628233
3798,1155;0,00635253
3799,0798;0,00626599
3800,0439;0,00603651
3801,0083;0,00575845
3801,9724;0,0055497
3802,9368;0,00544726
3803,9009;0,0053747
3804,8652;0,00522059
3805,8293;0,00494668
3806,7937;0,00464473
3807,7578;0,00448905
3808,7222;0,0045949
3809,6863;0,00492059
3810,6506;0,00531474
3811,6147;0,00562984
3812,5791;0,00579654
3813,5432;0,00584062
3814,5076;0,00585566
3815,4717;0,00593606
3816,4360;0,00609787
3817,4001;0,00625417
3818,3645;0,0062732
3819,3286;0,00607271
3820,2930;0,00569789
3821,2571;0,00532158
3822,2214;0,00512139
3823,1855;0,00514153
3824,1499;0,00529355
3825,1140;0,00545638
3826,0784;0,00555454
3827,0425;0,00557815
3828,0068;0,00556467
3828,9709;0,00556634
3829,9353;0,0056222
3830,8994;0,00574535
3831,8638;0,00592371
3832,8279;0,0061261
3833,7922;0,00630935
3834,7563;0,00642677
3835,7207;0,00643891
3836,6848;0,00632748
3837,6492;0,00611085
3838,6133;0,00584515
3839,5776;0,00559138
3840,5417;0,0053749
3841,5061;0,00518758
3842,4702;0,00502984
3843,4346;0,00494276
3844,3987;0,00499575
3845,3630;0,00523754
3846,3271;0,00565218
3847,2915;0,0061546
3848,2556;0,00661987
3849,2200;0,00691437
3850,1841;0,00690786
3851,1484;0,00648181
3852,1125;0,00561378
3853,0769;0,00458301
3854,0410;0,00392935
3855,0054;0,0039259
3855,9695;0,00438118
3856,9338;0,00497009
3857,8979;0,0054758
3858,8623;0,00581363
3859,8264;0,00598377
3860,7908;0,00602685
3861,7549;0,00599564
3862,7192;0,00594189
3863,6833;0,00590883
3864,6477;0,00591776
3865,6118;0,00595709
3866,5762;0,0059917
3867,5403;0,00598489
3868,5046;0,00591405
3869,4688;0,00577648
3870,4331;0,00559235
3871,3972;0,00540367
3872,3616;0,00526013
3873,3257;0,00519563
3874,2900;0,00521375
3875,2542;0,00529107
3876,2185;0,00539336
3877,1826;0,00549288
3878,1470;0,00557806
3879,1111;0,00564971
3880,0754;0,00570597
3881,0396;0,00572756
3882,0039;0,00568001
3882,9680;0,00554038
3883,9324;0,00533285
3884,8965;0,00513826
3885,8608;0,00505025
3886,8250;0,00510316
3887,7893;0,00524117
3888,7534;0,00535804
3889,7178;0,00536849
3890,6819;0,005267
3891,6462;0,00514283
3892,6104;0,00512071
3893,5747;0,00525915
3894,5388;0,00551289
3895,5032;0,00578727
3896,4673;0,00600586
3897,4316;0,00613703
3898,3958;0,00618314
3899,3601;0,00615535
3900,3242;0,00605323
3901,2886;0,00586442
3902,2527;0,00558757
3903,2170;0,00526099
3904,1812;0,00496133
3905,1455;0,00475917
3906,1096;0,00467393
3907,0740;0,00467489
3908,0381;0,0047174
3909,0024;0,00477476
3909,9666;0,0048459
3910,9309;0,00494227
3911,8950;0,00506754
3912,8594;0,00520469
3913,8235;0,00531852
3914,7878;0,00537162
3915,7520;0,00534668
3916,7163;0,00526468
3917,6804;0,00518202
3918,6448;0,00515646
3919,6089;0,00520575
3920,5732;0,00529717
3921,5374;0,00537385
3922,5017;0,00539264
3923,4658;0,00535149
3924,4302;0,00529197
3925,3943;0,00527029
3926,3586;0,00531479
3927,3228;0,00540559
3928,2871;0,00548882
3929,2512;0,0055077
3930,2156;0,005432
3931,1797;0,00527619
3932,1440;0,00509506
3933,1082;0,00495231
3934,0725;0,004885
3935,0366;0,0048935
3936,0010;0,0049561
3936,9651;0,00504633
3937,9294;0,00514027
3938,8936;0,00521677
3939,8579;0,0052585
3940,8220;0,00525847
3941,7864;0,00522795
3942,7505;0,00519504
3943,7148;0,00518858
3944,6790;0,00521779
3945,6433;0,00526579
3946,6074;0,00530071
3947,5718;0,00529471
3948,5359;0,00523997
3949,5002;0,00515288
3950,4644;0,00506267
3951,4287;0,00499266
3952,3928;0,00495023
3953,3572;0,004931
3954,3213;0,00492849
3955,2856;0,00493921
3956,2498;0,00496082
3957,2141;0,00498758
3958,1782;0,00500888
3959,1426;0,00501311
3960,1067;0,0049944
3961,0710;0,00495741
3962,0352;0,00491605
3962,9995;0,00488627
3963,9636;0,00487754
3964,9280;0,00488927
3965,8921;0,00491323
3966,8564;0,00493954
3967,8206;0,00496171
3968,7849;0,00497804
3969,7490;0,00498944
3970,7134;0,00499605
3971,6775;0,00499575
3972,6418;0,00498555
3973,6060;0,00496486
3974,5703;0,00493744
3975,5344;0,00491023
3976,4988;0,0048895
3977,4629;0,0048773
3978,4272;0,00487062
3979,3914;0,00486392
3980,3557;0,00485302
3981,3198;0,00483808
3982,2842;0,0048239
3983,2483;0,00481734
3984,2126;0,00482322
3985,1768;0,00484122
3986,1411;0,00486546
3987,1052;0,00488719
3988,0696;0,0048989
3989,0337;0,00489806
3989,9980;0,00488775
3990,9622;0,00487428
3991,9265;0,00486333
3992,8906;0,00485718
3993,8550;0,00485478
3994,8191;0,00485381
3995,7834;0,00485268
3996,7476;0,00485108
3997,7119;0,00484922
3998,6760;0,0048474
3999,6404;0,00484648
4000,6045;0,00496957

##### Extended Information
[Comments]
Sample name
Comment
Username
Division
Organization;UNIVERSIDAD INDUSTRIAL DE SANTANDER

[Detailed Information]
Creation date;29/01/2025 4:13 p.m.

Data array type;Linear data array
Horizontal axis;Wavenumber [cm-1]
Vertical axis;Abs
Start;399,193 cm-1
End;4000,6 cm-1
Data interval;0,964233 cm-1
Data points;3736    

[Measurement Information]
Model name;FT/IR-4X1typeA
Serial No.;A035162111

Accessory;ATR PRO 4X
Accessory S/N;A021162126
Incident angle;45 deg

Measurement date;29/01/2025 4:13 p.m.

Light source;Standard
Detector;TGS
Accumulation;Auto (71)
Resolution;4 cm-1
Zero filling;On
Apodization;Cosine
Gain;Auto (8)
Aperture;Auto (7 mm)
Scan speed;Auto (2 mm/sec)
Filter;Auto (12800 Hz)

