TITLE;
DATA TYPE;INFRARED SPECTRUM
ORIGIN;JASCO
OWNER;
DATE;25/01/29
TIME;15:49:53
SPECTROMETER/DATA SYSTEM;
LOCALE;9226
RESOLUTION;
DELTAX;0,964233
XUNITS;1/CM
YUNITS;ABSORBANCE
FIRSTX;  399,1927
LASTX; 4000,6047
NPOINTS;    3736
FIRSTY;     0,17994
MAXY;     0,25143
MINY;     0,01277
XYDATA
399,1927;0,179939
400,1569;0,18069
401,1211;0,180436
402,0854;0,179624
403,0496;0,178759
404,0138;0,178206
404,9781;0,178113
405,9423;0,178405
406,9065;0,178852
407,8708;0,179226
408,8350;0,179451
409,7992;0,179631
410,7635;0,179949
411,7277;0,180495
412,6919;0,181179
413,6562;0,181775
414,6204;0,182069
415,5846;0,181967
416,5489;0,181577
417,5131;0,181271
418,4773;0,181595
419,4416;0,182838
420,4058;0,184667
421,3700;0,18648
422,3343;0,187908
423,2985;0,188866
424,2627;0,189403
425,2270;0,189598
426,1912;0,18954
427,1554;0,189327
428,1197;0,189068
429,0839;0,188874
430,0481;0,188847
431,0124;0,189042
431,9766;0,189443
432,9408;0,189948
433,9051;0,190406
434,8693;0,190673
435,8335;0,190673
436,7978;0,190413
437,7620;0,189958
438,7262;0,189377
439,6905;0,188716
440,6547;0,188002
441,6189;0,187284
442,5832;0,186653
443,5474;0,186226
444,5116;0,186092
445,4759;0,186253
446,4401;0,18662
447,4043;0,187037
448,3686;0,187334
449,3328;0,18736
450,2970;0,187044
451,2613;0,18642
452,2255;0,185635
453,1897;0,184886
454,1540;0,184335
455,1182;0,184051
456,0824;0,183989
457,0467;0,184023
458,0109;0,184018
458,9751;0,183925
459,9394;0,183792
460,9036;0,183704
461,8678;0,183701
462,8321;0,183757
463,7963;0,183801
464,7605;0,183754
465,7248;0,183565
466,6890;0,183219
467,6532;0,182741
468,6175;0,182175
469,5817;0,181597
470,5459;0,181116
471,5102;0,18086
472,4744;0,180925
473,4386;0,181304
474,4029;0,181889
475,3671;0,182535
476,3313;0,183133
477,2956;0,183624
478,2598;0,183983
479,2240;0,184196
480,1883;0,184253
481,1525;0,18417
482,1167;0,184
483,0810;0,183836
484,0452;0,183788
485,0094;0,183933
485,9737;0,184282
486,9379;0,184772
487,9021;0,1853
488,8664;0,185757
489,8306;0,186056
490,7948;0,186169
491,7591;0,186136
492,7233;0,186061
493,6875;0,186053
494,6518;0,186172
495,6160;0,186388
496,5802;0,186618
497,5445;0,186775
498,5087;0,186825
499,4729;0,186804
500,4372;0,186797
501,4014;0,186888
502,3656;0,18712
503,3299;0,187476
504,2941;0,187904
505,2583;0,188348
506,2226;0,188766
507,1868;0,189126
508,1510;0,189408
509,1153;0,189611
510,0795;0,189773
511,0437;0,189963
512,0080;0,190257
512,9722;0,190703
513,9365;0,191296
514,9007;0,191972
515,8649;0,192636
516,8292;0,193188
517,7934;0,193565
518,7576;0,193761
519,7219;0,19382
520,6861;0,193802
521,6503;0,193759
522,6146;0,193723
523,5788;0,193719
524,5430;0,193761
525,5073;0,193844
526,4715;0,193932
527,4357;0,193966
528,4000;0,193891
529,3642;0,193687
530,3284;0,193383
531,2927;0,193048
532,2569;0,192756
533,2211;0,192554
534,1854;0,192437
535,1496;0,192357
536,1138;0,192254
537,0781;0,192099
538,0423;0,191907
539,0065;0,19173
539,9708;0,191618
540,9350;0,1916
541,8992;0,191672
542,8635;0,191808
543,8277;0,191971
544,7919;0,192128
545,7562;0,192256
546,7204;0,192354
547,6846;0,192451
548,6489;0,192595
549,6131;0,192837
550,5773;0,193201
551,5416;0,19367
552,5058;0,19419
553,4700;0,194697
554,4343;0,195139
555,3985;0,195487
556,3627;0,19571
557,3270;0,19576
558,2912;0,195566
559,2554;0,195064
560,2197;0,194238
561,1839;0,193151
562,1481;0,191927
563,1124;0,190713
564,0766;0,189614
565,0408;0,188674
566,0051;0,187877
566,9693;0,187191
567,9335;0,186592
568,8978;0,186071
569,8620;0,185621
570,8262;0,185224
571,7905;0,184844
572,7547;0,184454
573,7189;0,184046
574,6832;0,183639
575,6474;0,183267
576,6116;0,182962
577,5759;0,182734
578,5401;0,182578
579,5043;0,182477
580,4686;0,182415
581,4328;0,182375
582,3970;0,182339
583,3613;0,182287
584,3255;0,182206
585,2897;0,182101
586,2540;0,181995
587,2182;0,181918
588,1824;0,181893
589,1467;0,181921
590,1109;0,181983
591,0751;0,182046
592,0394;0,18208
593,0036;0,182066
593,9678;0,181994
594,9321;0,181854
595,8963;0,181632
596,8605;0,181319
597,8248;0,180921
598,7890;0,180469
599,7532;0,180008
600,7175;0,179578
601,6817;0,179188
602,6459;0,178815
603,6102;0,178424
604,5744;0,177989
605,5386;0,177505
606,5029;0,176979
607,4671;0,176415
608,4313;0,175798
609,3956;0,175112
610,3598;0,174361
611,3240;0,173581
612,2883;0,172831
613,2525;0,172152
614,2167;0,171538
615,1810;0,170928
616,1452;0,170227
617,1094;0,16936
618,0737;0,168313
619,0379;0,167133
620,0021;0,165896
620,9664;0,164662
621,9306;0,163457
622,8948;0,162292
623,8591;0,161184
624,8233;0,160159
625,7875;0,159243
626,7518;0,158445
627,7160;0,15774
628,6802;0,157086
629,6445;0,156439
630,6087;0,155776
631,5729;0,155098
632,5372;0,154424
633,5014;0,153782
634,4656;0,153192
635,4299;0,152659
636,3941;0,152171
637,3583;0,151703
638,3226;0,151232
639,2868;0,15075
640,2510;0,150266
641,2153;0,149801
642,1795;0,149373
643,1437;0,148982
644,1080;0,148613
645,0722;0,148241
646,0364;0,147853
647,0007;0,147452
647,9649;0,147054
648,9291;0,146682
649,8934;0,146353
650,8576;0,146074
651,8218;0,145853
652,7861;0,145705
653,7503;0,145651
654,7145;0,145709
655,6788;0,145879
656,6430;0,146137
657,6072;0,146428
658,5715;0,146677
659,5357;0,146802
660,4999;0,146749
661,4642;0,146529
662,4284;0,146224
663,3926;0,145941
664,3569;0,145764
665,3211;0,145718
666,2853;0,145717
667,2496;0,14551
668,2138;0,144738
669,1780;0,143323
670,1423;0,141642
671,1065;0,140038
672,0707;0,138565
673,0350;0,137133
673,9992;0,135648
674,9634;0,134078
675,9277;0,132456
676,8919;0,130848
677,8561;0,129304
678,8204;0,12784
679,7846;0,126461
680,7488;0,12518
681,7131;0,124023
682,6773;0,123013
683,6415;0,122154
684,6058;0,121428
685,5700;0,120803
686,5342;0,120238
687,4985;0,119693
688,4627;0,119143
689,4269;0,118589
690,3912;0,118058
691,3554;0,117579
692,3196;0,117159
693,2839;0,116777
694,2481;0,116392
695,2123;0,115973
696,1766;0,115511
697,1408;0,115028
698,1050;0,114551
699,0693;0,114104
700,0335;0,113687
700,9977;0,113288
701,9620;0,11288
702,9262;0,112436
703,8904;0,111935
704,8547;0,111369
705,8189;0,110755
706,7831;0,110126
707,7474;0,10952
708,7116;0,10896
709,6758;0,108438
710,6401;0,107927
711,6043;0,107396
712,5685;0,106832
713,5328;0,106248
714,4970;0,105671
715,4612;0,105124
716,4255;0,10458
717,3897;0,104011
718,3539;0,103376
719,3182;0,10265
720,2824;0,101847
721,2466;0,101008
722,2109;0,100178
723,1751;0,0993819
724,1393;0,0986213
725,1036;0,0978823
726,0678;0,0971519
727,0320;0,0964256
727,9963;0,095707
728,9605;0,0950018
729,9247;0,0943145
730,8890;0,0936487
731,8532;0,0930089
732,8174;0,0924
733,7817;0,0918246
734,7459;0,0912812
735,7101;0,0907655
736,6744;0,0902741
737,6386;0,0898066
738,6028;0,0893649
739,5671;0,0889479
740,5313;0,0885493
741,4955;0,0881573
742,4598;0,0877594
743,4240;0,0873469
744,3882;0,086917
745,3525;0,086472
746,3167;0,0860167
747,2809;0,0855558
748,2452;0,0850943
749,2094;0,0846374
750,1736;0,0841911
751,1379;0,0837616
752,1021;0,0833527
753,0663;0,0829632
754,0306;0,0825856
754,9948;0,0822073
755,9590;0,081815
756,9233;0,0813999
757,8875;0,0809631
758,8517;0,0805159
759,8160;0,080078
760,7802;0,079671
761,7444;0,0793118
762,7087;0,0790072
763,6729;0,0787515
764,6371;0,0785281
765,6014;0,078315
766,5656;0,0780923
767,5298;0,0778491
768,4941;0,0775859
769,4583;0,0773129
770,4225;0,0770443
771,3868;0,0767918
772,3510;0,0765603
773,3152;0,0763459
774,2795;0,0761386
775,2437;0,0759254
776,2079;0,0756954
777,1722;0,0754428
778,1364;0,0751686
779,1006;0,0748784
780,0649;0,0745781
781,0291;0,0742708
781,9933;0,0739556
782,9576;0,0736293
783,9218;0,0732904
784,8860;0,0729413
785,8503;0,0725886
786,8145;0,0722417
787,7787;0,07191
788,7430;0,071601
789,7072;0,0713197
790,6714;0,0710677
791,6357;0,0708432
792,5999;0,0706419
793,5641;0,0704584
794,5284;0,0702882
795,4926;0,0701288
796,4568;0,0699794
797,4211;0,0698392
798,3853;0,0697062
799,3495;0,0695764
800,3138;0,0694446
801,2780;0,0693046
802,2422;0,0691509
803,2065;0,068979
804,1707;0,0687887
805,1349;0,0685858
806,0992;0,0683838
807,0634;0,0682012
808,0276;0,068056
808,9919;0,0679578
809,9561;0,0679032
810,9203;0,0678775
811,8846;0,0678607
812,8488;0,0678357
813,8130;0,0677945
814,7773;0,0677374
815,7415;0,0676702
816,7057;0,0675994
817,6700;0,0675313
818,6342;0,067472
819,5984;0,0674277
820,5627;0,0674021
821,5269;0,0673931
822,4911;0,0673904
823,4554;0,0673791
824,4196;0,0673468
825,3839;0,0672899
826,3481;0,0672148
827,3123;0,067132
828,2766;0,0670478
829,2408;0,0669588
830,2050;0,0668529
831,1693;0,0667166
832,1335;0,066543
833,0977;0,0663363
834,0620;0,0661113
835,0262;0,0658869
835,9904;0,0656797
836,9547;0,0654981
837,9189;0,0653415
838,8831;0,0652027
839,8474;0,0650738
840,8116;0,0649517
841,7758;0,06484
842,7401;0,0647463
843,7043;0,0646762
844,6685;0,0646285
845,6328;0,0645962
846,5970;0,064571
847,5612;0,0645507
848,5255;0,064541
849,4897;0,0645508
850,4539;0,0645848
851,4182;0,0646365
852,3824;0,0646896
853,3466;0,0647238
854,3109;0,0647246
855,2751;0,0646874
856,2393;0,0646177
857,2036;0,0645257
858,1678;0,0644218
859,1320;0,064314
860,0963;0,0642089
861,0605;0,0641128
862,0247;0,0640329
862,9890;0,0639769
863,9532;0,0639509
864,9174;0,0639587
865,8817;0,0640003
866,8459;0,0640726
867,8101;0,0641693
868,7744;0,0642831
869,7386;0,0644071
870,7028;0,0645362
871,6671;0,0646676
872,6313;0,0647995
873,5955;0,0649303
874,5598;0,065058
875,5240;0,065181
876,4882;0,0653
877,4525;0,0654199
878,4167;0,0655504
879,3809;0,065706
880,3452;0,0659041
881,3094;0,0661639
882,2736;0,0665033
883,2379;0,0669369
884,2021;0,0674726
885,1663;0,068109
886,1306;0,0688358
887,0948;0,0696355
888,0590;0,0704885
889,0233;0,0713762
889,9875;0,0722819
890,9517;0,0731876
891,9160;0,0740703
892,8802;0,0748995
893,8444;0,0756391
894,8087;0,0762526
895,7729;0,0767093
896,7371;0,0769884
897,7014;0,0770804
898,6656;0,076986
899,6298;0,0767158
900,5941;0,07629
901,5583;0,0757382
902,5225;0,0750982
903,4868;0,0744122
904,4510;0,0737217
905,4152;0,0730629
906,3795;0,0724637
907,3437;0,0719427
908,3079;0,0715095
909,2722;0,0711659
910,2364;0,0709078
911,2007;0,0707278
912,1649;0,0706182
913,1292;0,0705739
914,0934;0,0705938
915,0576;0,0706801
916,0219;0,0708346
916,9861;0,0710544
917,9503;0,0713292
918,9146;0,0716416
919,8788;0,0719712
920,8430;0,0723006
921,8073;0,0726203
922,7715;0,0729289
923,7357;0,0732292
924,7000;0,0735235
925,6642;0,0738101
926,6284;0,0740841
927,5927;0,0743413
928,5569;0,074582
929,5211;0,0748123
930,4854;0,0750413
931,4496;0,0752779
932,4138;0,0755291
933,3781;0,0758003
934,3423;0,0760974
935,3065;0,0764292
936,2708;0,076807
937,2350;0,0772429
938,1992;0,0777469
939,1635;0,0783248
940,1277;0,0789773
941,0919;0,0797019
942,0562;0,0804949
943,0204;0,081354
943,9846;0,0822799
944,9489;0,0832758
945,9131;0,0843455
946,8773;0,0854922
947,8416;0,0867179
948,8058;0,0880226
949,7700;0,0894048
950,7343;0,0908602
951,6985;0,0923805
952,6627;0,0939545
953,6270;0,0955718
954,5912;0,0972273
955,5554;0,0989237
956,5197;0,100669
957,4839;0,102472
958,4481;0,10433
959,4124;0,106233
960,3766;0,108163
961,3408;0,1101
962,3051;0,112033
963,2693;0,113957
964,2335;0,115877
965,1978;0,117799
966,1620;0,119732
967,1262;0,121689
968,0905;0,123688
969,0547;0,125752
970,0189;0,127908
970,9832;0,130183
971,9474;0,132606
972,9116;0,135204
973,8759;0,138
974,8401;0,141011
975,8043;0,144243
976,7686;0,147684
977,7328;0,151305
978,6970;0,155057
979,6613;0,158876
980,6255;0,16268
981,5897;0,166375
982,5540;0,169863
983,5182;0,173055
984,4824;0,175892
985,4467;0,178355
986,4109;0,180474
987,3751;0,182311
988,3394;0,183933
989,3036;0,185391
990,2678;0,186709
991,2321;0,187892
992,1963;0,188945
993,1605;0,189886
994,1248;0,190755
995,0890;0,191603
996,0532;0,192469
997,0175;0,193374
997,9817;0,194317
998,9459;0,195282
999,9102;0,196261
1000,8744;0,197261
1001,8386;0,198309
1002,8029;0,199445
1003,7671;0,200714
1004,7313;0,202152
1005,6956;0,203782
1006,6598;0,205612
1007,6240;0,207643
1008,5883;0,209865
1009,5525;0,212262
1010,5167;0,214811
1011,4810;0,217477
1012,4452;0,220213
1013,4094;0,222968
1014,3737;0,225684
1015,3379;0,228312
1016,3021;0,230808
1017,2664;0,233141
1018,2306;0,235292
1019,1948;0,237254
1020,1591;0,239033
1021,1233;0,240648
1022,0875;0,242131
1023,0518;0,243514
1024,0160;0,244829
1024,9802;0,246093
1025,9445;0,247311
1026,9087;0,248466
1027,8729;0,249523
1028,8372;0,250423
1029,8014;0,251089
1030,7656;0,251432
1031,7299;0,251363
1032,6941;0,250814
1033,6583;0,249755
1034,6226;0,248211
1035,5868;0,246267
1036,5510;0,244058
1037,5153;0,24175
1038,4795;0,239513
1039,4437;0,23749
1040,4080;0,23578
1041,3722;0,234422
1042,3364;0,233399
1043,3007;0,232647
1044,2649;0,232068
1045,2291;0,23156
1046,1934;0,231034
1047,1576;0,230429
1048,1218;0,229711
1049,0861;0,228861
1050,0503;0,22786
1051,0145;0,226682
1051,9788;0,225302
1052,9430;0,223705
1053,9072;0,221894
1054,8715;0,219886
1055,8357;0,217694
1056,7999;0,215301
1057,7642;0,21266
1058,7284;0,209715
1059,6926;0,206429
1060,6569;0,202826
1061,6211;0,198996
1062,5853;0,195078
1063,5496;0,191227
1064,5138;0,18757
1065,4780;0,184188
1066,4423;0,181106
1067,4065;0,178311
1068,3707;0,17576
1069,3350;0,173405
1070,2992;0,171198
1071,2634;0,169094
1072,2277;0,167053
1073,1919;0,165037
1074,1561;0,163011
1075,1204;0,160949
1076,0846;0,158842
1077,0488;0,156704
1078,0131;0,154573
1078,9773;0,152505
1079,9415;0,150563
1080,9058;0,148798
1081,8700;0,14724
1082,8342;0,145894
1083,7985;0,144741
1084,7627;0,143753
1085,7269;0,142898
1086,6912;0,14215
1087,6554;0,141491
1088,6196;0,140915
1089,5839;0,140422
1090,5481;0,140016
1091,5123;0,139702
1092,4766;0,13948
1093,4408;0,139347
1094,4050;0,139295
1095,3693;0,139317
1096,3335;0,139405
1097,2977;0,139552
1098,2620;0,139748
1099,2262;0,139977
1100,1904;0,140215
1101,1547;0,14043
1102,1189;0,140588
1103,0831;0,140656
1104,0474;0,14061
1105,0116;0,140443
1105,9758;0,140165
1106,9401;0,139797
1107,9043;0,139361
1108,8685;0,138859
1109,8328;0,138268
1110,7970;0,137539
1111,7612;0,136622
1112,7255;0,135488
1113,6897;0,134158
1114,6539;0,132704
1115,6182;0,131228
1116,5824;0,129825
1117,5466;0,128551
1118,5109;0,12741
1119,4751;0,126351
1120,4393;0,125294
1121,4036;0,124149
1122,3678;0,122833
1123,3320;0,121287
1124,2963;0,119482
1125,2605;0,117419
1126,2247;0,11513
1127,1890;0,112669
1128,1532;0,1101
1129,1174;0,107481
1130,0817;0,104858
1131,0459;0,102262
1132,0101;0,0997173
1132,9744;0,0972482
1133,9386;0,0948915
1134,9028;0,0926968
1135,8671;0,0907207
1136,8313;0,0890155
1137,7955;0,0876176
1138,7598;0,0865403
1139,7240;0,0857746
1140,6882;0,0852935
1141,6525;0,0850603
1142,6167;0,0850343
1143,5809;0,0851753
1144,5452;0,0854469
1145,5094;0,0858191
1146,4736;0,0862707
1147,4379;0,0867904
1148,4021;0,0873738
1149,3663;0,0880174
1150,3306;0,0887117
1151,2948;0,0894362
1152,2590;0,0901593
1153,2233;0,0908419
1154,1875;0,0914431
1155,1517;0,0919232
1156,1160;0,0922434
1157,0802;0,0923609
1158,0444;0,0922246
1159,0087;0,0917745
1159,9729;0,0909491
1160,9371;0,0896988
1161,9014;0,0880015
1162,8656;0,0858741
1163,8298;0,0833745
1164,7941;0,0805933
1165,7583;0,0776402
1166,7225;0,0746282
1167,6868;0,0716616
1168,6510;0,0688276
1169,6152;0,0661917
1170,5795;0,0637955
1171,5437;0,0616575
1172,5079;0,0597762
1173,4722;0,0581355
1174,4364;0,0567112
1175,4006;0,0554775
1176,3649;0,0544112
1177,3291;0,0534945
1178,2933;0,0527138
1179,2576;0,052058
1180,2218;0,0515153
1181,1860;0,0510717
1182,1503;0,0507126
1183,1145;0,0504268
1184,0787;0,0502101
1185,0430;0,0500668
1186,0072;0,0500071
1186,9714;0,0500416
1187,9357;0,0501765
1188,8999;0,050411
1189,8641;0,0507402
1190,8284;0,0511581
1191,7926;0,0516616
1192,7568;0,0522492
1193,7211;0,0529181
1194,6853;0,0536604
1195,6495;0,054461
1196,6138;0,0552997
1197,5780;0,0561555
1198,5422;0,0570116
1199,5065;0,0578156
1200,4707;0,0586551
1201,4349;0,0594835
1202,3992;0,0603006
1203,3634;0,0611029
1204,3276;0,0618842
1205,2919;0,0626394
1206,2561;0,0633702
1207,2203;0,0640896
1208,1846;0,064822
1209,1488;0,0655987
1210,1130;0,0664498
1211,0773;0,0673964
1212,0415;0,0684459
1213,0057;0,069591
1213,9700;0,0708142
1214,9342;0,0720919
1215,8984;0,0733989
1216,8627;0,0747102
1217,8269;0,0760024
1218,7911;0,0772564
1219,7554;0,0784586
1220,7196;0,0796015
1221,6838;0,0806828
1222,6481;0,081703
1223,6123;0,0826635
1224,5765;0,083567
1225,5408;0,0844165
1226,5050;0,0852155
1227,4692;0,0859656
1228,4335;0,0866655
1229,3977;0,087311
1230,3619;0,0878974
1231,3262;0,0884217
1232,2904;0,088884
1233,2546;0,0892856
1234,2189;0,0896267
1235,1831;0,0899061
1236,1473;0,0901219
1237,1116;0,0902749
1238,0758;0,0903695
1239,0400;0,0904113
1240,0043;0,0904041
1240,9685;0,090346
1241,9327;0,0902309
1242,8970;0,0900504
1243,8612;0,0897982
1244,8254;0,0894725
1245,7897;0,089076
1246,7539;0,0886152
1247,7181;0,0880989
1248,6824;0,0875376
1249,6466;0,0869422
1250,6108;0,0863232
1251,5751;0,0856902
1252,5393;0,0850516
1253,5035;0,0844143
1254,4678;0,083782
1255,4320;0,0831528
1256,3962;0,082518
1257,3605;0,0818647
1258,3247;0,0811814
1259,2889;0,0804632
1260,2532;0,0797133
1261,2174;0,0789392
1262,1816;0,0781458
1263,1459;0,0773312
1264,1101;0,0764882
1265,0743;0,0756101
1266,0386;0,0746951
1267,0028;0,0737476
1267,9670;0,0727757
1268,9313;0,071787
1269,8955;0,0707875
1270,8597;0,0697828
1271,8240;0,0687792
1272,7882;0,0677851
1273,7524;0,0668096
1274,7167;0,0658618
1275,6809;0,0649491
1276,6451;0,0640763
1277,6094;0,0632437
1278,5736;0,0624463
1279,5378;0,0616744
1280,5021;0,060918
1281,4663;0,0601718
1282,4305;0,0594386
1283,3948;0,0587284
1284,3590;0,0580556
1285,3232;0,057435
1286,2875;0,0568797
1287,2517;0,0564008
1288,2159;0,0560058
1289,1802;0,055697
1290,1444;0,0554704
1291,1086;0,0553177
1292,0729;0,0552306
1293,0371;0,0552058
1294,0013;0,0552466
1294,9656;0,0553605
1295,9298;0,0555545
1296,8940;0,0558311
1297,8583;0,0561876
1298,8225;0,0566183
1299,7867;0,057117
1300,7510;0,0576769
1301,7152;0,0582913
1302,6794;0,0589521
1303,6437;0,0596521
1304,6079;0,0603859
1305,5721;0,0611501
1306,5364;0,0619408
1307,5006;0,0627515
1308,4648;0,063572
1309,4291;0,06439
1310,3933;0,0651914
1311,3575;0,0659603
1312,3218;0,0666776
1313,2860;0,0673209
1314,2502;0,0678661
1315,2145;0,0682897
1316,1787;0,0685723
1317,1429;0,0687033
1318,1072;0,0686866
1319,0714;0,0685455
1320,0356;0,0683187
1320,9999;0,0680495
1321,9641;0,0677725
1322,9283;0,0675075
1323,8926;0,0672632
1324,8568;0,0670435
1325,8210;0,0668523
1326,7853;0,0666924
1327,7495;0,0665625
1328,7137;0,066453
1329,6780;0,066347
1330,6422;0,0662245
1331,6064;0,0660689
1332,5707;0,0658706
1333,5349;0,0656252
1334,4991;0,0653268
1335,4634;0,0649625
1336,4276;0,0645139
1337,3918;0,063969
1338,3561;0,0633434
1339,3203;0,0626916
1340,2845;0,0620893
1341,2488;0,0615923
1342,2130;0,0612115
1343,1772;0,0609237
1344,1415;0,060699
1345,1057;0,0605198
1346,0699;0,0603874
1347,0342;0,0603168
1347,9984;0,0603275
1348,9626;0,0604334
1349,9269;0,0606358
1350,8911;0,0609227
1351,8553;0,0612751
1352,8196;0,0616762
1353,7838;0,0621204
1354,7480;0,0626141
1355,7123;0,0631666
1356,6765;0,063777
1357,6407;0,0644295
1358,6050;0,0650986
1359,5692;0,0657601
1360,5334;0,0663971
1361,4977;0,0670012
1362,4619;0,0675709
1363,4261;0,0681086
1364,3904;0,068614
1365,3546;0,0690788
1366,3188;0,0694884
1367,2831;0,0698279
1368,2473;0,0700877
1369,2115;0,0702628
1370,1758;0,0703472
1371,1400;0,0703258
1372,1042;0,070173
1373,0685;0,0698652
1374,0327;0,0694041
1374,9969;0,0688276
1375,9612;0,068185
1376,9254;0,0674941
1377,8896;0,0667292
1378,8539;0,0658522
1379,8181;0,0648577
1380,7823;0,0637933
1381,7466;0,0627349
1382,7108;0,0617325
1383,6750;0,0607757
1384,6393;0,0598079
1385,6035;0,0587814
1386,5677;0,0577226
1387,5320;0,0567488
1388,4962;0,0559906
1389,4604;0,0554913
1390,4247;0,0551928
1391,3889;0,0549968
1392,3531;0,0548223
1393,3174;0,0546299
1394,2816;0,0544213
1395,2458;0,0542262
1396,2101;0,0540796
1397,1743;0,0540055
1398,1385;0,0540145
1399,1028;0,0541087
1400,0670;0,0542819
1401,0313;0,0545174
1401,9955;0,0547912
1402,9597;0,0550817
1403,9240;0,0553805
1404,8882;0,0556967
1405,8524;0,0560494
1406,8167;0,0564525
1407,7809;0,0569061
1408,7451;0,0574025
1409,7094;0,0579387
1410,6736;0,0585208
1411,6378;0,0591545
1412,6021;0,0598312
1413,5663;0,0605237
1414,5305;0,0611947
1415,4948;0,0618081
1416,4590;0,062333
1417,4232;0,0627463
1418,3875;0,063045
1419,3517;0,0632574
1420,3159;0,0634145
1421,2802;0,0635057
1422,2444;0,0634836
1423,2086;0,0633081
1424,1729;0,0629805
1425,1371;0,0625366
1426,1013;0,0620073
1427,0656;0,061382
1428,0298;0,0606174
1428,9940;0,0596946
1429,9583;0,0586753
1430,9225;0,057683
1431,8867;0,056808
1432,8510;0,0560338
1433,8152;0,0552508
1434,7794;0,0543357
1435,7437;0,0532659
1436,7079;0,0522013
1437,6721;0,0513947
1438,6364;0,050971
1439,6006;0,050862
1440,5648;0,0509302
1441,5291;0,051079
1442,4933;0,0512768
1443,4575;0,0515326
1444,4218;0,0518609
1445,3860;0,0522596
1446,3502;0,0527072
1447,3145;0,0531765
1448,2787;0,053649
1449,2429;0,0541204
1450,2072;0,0545906
1451,1714;0,0550495
1452,1356;0,0554715
1453,0999;0,0558177
1454,0641;0,0560314
1455,0283;0,0560246
1455,9926;0,0556984
1456,9568;0,0550941
1457,9210;0,054525
1458,8853;0,0542811
1459,8495;0,0543316
1460,8137;0,05447
1461,7780;0,0544938
1462,7422;0,0542402
1463,7064;0,0536039
1464,6707;0,0526123
1465,6349;0,0514651
1466,5991;0,0503944
1467,5634;0,0494774
1468,5276;0,0486179
1469,4918;0,0476371
1470,4561;0,0463452
1471,4203;0,0446127
1472,3845;0,0425066
1473,3488;0,0403753
1474,3130;0,0386204
1475,2772;0,0373675
1476,2415;0,036488
1477,2057;0,0358119
1478,1699;0,0352335
1479,1342;0,0347088
1480,0984;0,0342306
1481,0626;0,0338122
1482,0269;0,0334787
1482,9911;0,0332527
1483,9553;0,0331374
1484,9196;0,0331089
1485,8838;0,0331225
1486,8480;0,0331307
1487,8123;0,0331107
1488,7765;0,0330987
1489,7407;0,0331893
1490,7050;0,0334572
1491,6692;0,0338926
1492,6334;0,0344327
1493,5977;0,0350216
1494,5619;0,0356341
1495,5261;0,0362709
1496,4904;0,0369453
1497,4546;0,0376726
1498,4188;0,0384633
1499,3831;0,0393103
1500,3473;0,0401781
1501,3115;0,0410134
1502,2758;0,0417624
1503,2400;0,0423759
1504,2042;0,0427909
1505,1685;0,0428902
1506,1327;0,0425053
1507,0969;0,0416581
1508,0612;0,0407812
1509,0254;0,0402381
1509,9896;0,0399788
1510,9539;0,0398084
1511,9181;0,0395861
1512,8823;0,0392382
1513,8466;0,0387346
1514,8108;0,0380831
1515,7750;0,0373318
1516,7393;0,0365515
1517,7035;0,0357906
1518,6677;0,035045
1519,6320;0,0342776
1520,5962;0,0334795
1521,5604;0,0327137
1522,5247;0,0320768
1523,4889;0,0316156
1524,4531;0,0313043
1525,4174;0,0310946
1526,3816;0,0309657
1527,3458;0,0309256
1528,3101;0,0309788
1529,2743;0,0311024
1530,2385;0,0312533
1531,2028;0,0313926
1532,1670;0,0315122
1533,1312;0,0316484
1534,0955;0,0318594
1535,0597;0,0321723
1536,0239;0,0325608
1536,9882;0,0329703
1537,9524;0,0333396
1538,9166;0,0335888
1539,8809;0,0336158
1540,8451;0,033422
1541,8093;0,0332367
1542,7736;0,0332701
1543,7378;0,0335129
1544,7020;0,0338686
1545,6663;0,0342685
1546,6305;0,0346792
1547,5947;0,0350794
1548,5590;0,03545
1549,5232;0,0357823
1550,4874;0,0360921
1551,4517;0,0364209
1552,4159;0,0368109
1553,3801;0,0372709
1554,3444;0,037764
1555,3086;0,0382198
1556,2728;0,0385432
1557,2371;0,038623
1558,2013;0,0384434
1559,1655;0,0382914
1560,1298;0,0385228
1561,0940;0,0391374
1562,0582;0,0399426
1563,0225;0,0407936
1563,9867;0,0416189
1564,9509;0,042383
1565,9152;0,0430672
1566,8794;0,0436753
1567,8436;0,0442484
1568,8079;0,0448599
1569,7721;0,0455664
1570,7363;0,0463597
1571,7006;0,0471827
1572,6648;0,0479837
1573,6290;0,0487496
1574,5933;0,0495041
1575,5575;0,050281
1576,5217;0,0510949
1577,4860;0,0519394
1578,4502;0,0528081
1579,4144;0,0536994
1580,3787;0,0546113
1581,3429;0,055537
1582,3071;0,0564632
1583,2714;0,057373
1584,2356;0,0582558
1585,1998;0,0591117
1586,1641;0,0599418
1587,1283;0,0607338
1588,0925;0,0614589
1589,0568;0,0620817
1590,0210;0,0625732
1590,9852;0,0629133
1591,9495;0,0630844
1592,9137;0,0630701
1593,8779;0,0628646
1594,8422;0,0624888
1595,8064;0,0619897
1596,7706;0,0614222
1597,7349;0,0608255
1598,6991;0,060215
1599,6633;0,0595896
1600,6276;0,058947
1601,5918;0,0582955
1602,5560;0,0576563
1603,5203;0,0570549
1604,4845;0,0565048
1605,4487;0,0559961
1606,4130;0,0554987
1607,3772;0,0549848
1608,3414;0,0544602
1609,3057;0,0539785
1610,2699;0,0536106
1611,2341;0,0533889
1612,1984;0,0532789
1613,1626;0,0531932
1614,1268;0,0530263
1615,0911;0,0527057
1616,0553;0,0522696
1617,0195;0,051888
1617,9838;0,051722
1618,9480;0,0517753
1619,9122;0,0519311
1620,8765;0,0520626
1621,8407;0,0520947
1622,8049;0,0520247
1623,7692;0,0519125
1624,7334;0,0518274
1625,6976;0,0517922
1626,6619;0,0517854
1627,6261;0,0517899
1628,5903;0,0518238
1629,5546;0,0519208
1630,5188;0,0520894
1631,4830;0,0522905
1632,4473;0,052444
1633,4115;0,0524405
1634,3757;0,0521746
1635,3400;0,0516505
1636,3042;0,0510854
1637,2684;0,0507443
1638,2327;0,0506831
1639,1969;0,0507956
1640,1611;0,0509734
1641,1254;0,0511594
1642,0896;0,0513258
1643,0538;0,0514391
1644,0181;0,0514391
1644,9823;0,0512555
1645,9465;0,0508931
1646,9108;0,0505137
1647,8750;0,0503185
1648,8392;0,0503403
1649,8035;0,0504352
1650,7677;0,050371
1651,7319;0,049869
1652,6962;0,0487755
1653,6604;0,0474731
1654,6246;0,0466518
1655,5889;0,0464472
1656,5531;0,0465478
1657,5173;0,0466722
1658,4816;0,0466691
1659,4458;0,0464614
1660,4100;0,0460131
1661,3743;0,0453556
1662,3385;0,0446241
1663,3027;0,0439997
1664,2670;0,0435774
1665,2312;0,0433151
1666,1954;0,0430831
1667,1597;0,042729
1668,1239;0,0421384
1669,0881;0,0413189
1670,0524;0,0404384
1671,0166;0,0396919
1671,9808;0,0391217
1672,9451;0,0386164
1673,9093;0,0380437
1674,8735;0,0373672
1675,8378;0,036686
1676,8020;0,0361547
1677,7662;0,0358503
1678,7305;0,0357263
1679,6947;0,0356632
1680,6589;0,0355165
1681,6232;0,035127
1682,5874;0,0343615
1683,5516;0,0332727
1684,5159;0,0322064
1685,4801;0,031497
1686,4443;0,031155
1687,4086;0,031004
1688,3728;0,0308986
1689,3370;0,030784
1690,3013;0,0306687
1691,2655;0,0305816
1692,2297;0,0305398
1693,1940;0,0305378
1694,1582;0,0305505
1695,1224;0,0305398
1696,0867;0,0304638
1697,0509;0,0302925
1698,0151;0,0300347
1698,9794;0,0297608
1699,9436;0,0295853
1700,9078;0,0295959
1701,8721;0,0297965
1702,8363;0,0301252
1703,8005;0,0305098
1704,7648;0,0309065
1705,7290;0,0313095
1706,6932;0,0317411
1707,6575;0,03223
1708,6217;0,0327923
1709,5859;0,0334255
1710,5502;0,0341139
1711,5144;0,0348337
1712,4786;0,0355539
1713,4429;0,0362386
1714,4071;0,0368531
1715,3713;0,037378
1716,3356;0,0378312
1717,2998;0,0382809
1718,2640;0,0388045
1719,2283;0,0394265
1720,1925;0,0401197
1721,1567;0,0408451
1722,1210;0,041572
1723,0852;0,0422778
1724,0494;0,042946
1725,0137;0,0435708
1725,9779;0,0441594
1726,9421;0,044726
1727,9064;0,0452767
1728,8706;0,045796
1729,8348;0,046239
1730,7991;0,0465295
1731,7633;0,0465743
1732,7275;0,0463248
1733,6918;0,0458723
1734,6560;0,045425
1735,6202;0,0451139
1736,5845;0,0448935
1737,5487;0,0446259
1738,5129;0,0441868
1739,4772;0,0435226
1740,4414;0,0426728
1741,4056;0,0417441
1742,3699;0,0408352
1743,3341;0,0399769
1744,2983;0,0391412
1745,2626;0,0382803
1746,2268;0,0373415
1747,1910;0,036255
1748,1553;0,034943
1749,1195;0,0333935
1750,0837;0,0317436
1751,0480;0,0302263
1752,0122;0,0289929
1752,9764;0,0280247
1753,9407;0,0271975
1754,9049;0,026387
1755,8691;0,0255356
1756,8334;0,0246624
1757,7976;0,0238194
1758,7618;0,02303
1759,7261;0,0222655
1760,6903;0,0214851
1761,6545;0,0206958
1762,6188;0,0199641
1763,5830;0,0193621
1764,5472;0,0189081
1765,5115;0,018563
1766,4757;0,0182662
1767,4399;0,0179705
1768,4042;0,0176509
1769,3684;0,0172918
1770,3326;0,0168755
1771,2969;0,0163975
1772,2611;0,015903
1773,2253;0,015485
1774,1896;0,0152165
1775,1538;0,0150959
1776,1180;0,0150631
1777,0823;0,0150464
1778,0465;0,0149966
1779,0107;0,0149001
1779,9750;0,0147747
1780,9392;0,0146483
1781,9034;0,0145365
1782,8677;0,0144379
1783,8319;0,0143508
1784,7961;0,0142877
1785,7604;0,0142696
1786,7246;0,0143065
1787,6888;0,0143823
1788,6531;0,014456
1789,6173;0,0144737
1790,5815;0,0143909
1791,5458;0,0142062
1792,5100;0,013986
1793,4742;0,0138272
1794,4385;0,0137799
1795,4027;0,0138224
1796,3669;0,0138963
1797,3312;0,0139442
1798,2954;0,0139285
1799,2596;0,0138407
1800,2239;0,0137048
1801,1881;0,0135661
1802,1523;0,0134658
1803,1166;0,0134217
1804,0808;0,0134284
1805,0450;0,0134691
1806,0093;0,0135252
1806,9735;0,0135786
1807,9377;0,0136115
1808,9020;0,0136084
1809,8662;0,0135622
1810,8304;0,0134805
1811,7947;0,0133843
1812,7589;0,013296
1813,7231;0,0132288
1814,6874;0,0131853
1815,6516;0,0131643
1816,6158;0,0131677
1817,5801;0,0132011
1818,5443;0,0132684
1819,5085;0,0133627
1820,4728;0,0134646
1821,4370;0,0135492
1822,4012;0,0135966
1823,3655;0,013603
1824,3297;0,013582
1825,2939;0,0135536
1826,2582;0,0135263
1827,2224;0,0134879
1828,1866;0,0134169
1829,1509;0,0133067
1830,1151;0,013184
1831,0793;0,0130963
1832,0436;0,0130756
1833,0078;0,013117
1833,9720;0,0131894
1834,9363;0,0132594
1835,9005;0,0133102
1836,8647;0,0133471
1837,8290;0,0133884
1838,7932;0,0134459
1839,7574;0,0135117
1840,7217;0,0135604
1841,6859;0,0135627
1842,6501;0,0135021
1843,6144;0,0133917
1844,5786;0,013275
1845,5428;0,0131977
1846,5071;0,0131732
1847,4713;0,0131827
1848,4355;0,0131999
1849,3998;0,0132107
1850,3640;0,0132162
1851,3282;0,0132248
1852,2925;0,0132413
1853,2567;0,0132628
1854,2209;0,0132817
1855,1852;0,0132934
1856,1494;0,0132998
1857,1136;0,0133066
1858,0779;0,0133173
1859,0421;0,013331
1860,0063;0,0133452
1860,9706;0,0133622
1861,9348;0,0133899
1862,8990;0,0134359
1863,8633;0,0134991
1864,8275;0,0135656
1865,7917;0,0136101
1866,7560;0,013606
1867,7202;0,0135421
1868,6844;0,0134381
1869,6487;0,0133369
1870,6129;0,0132725
1871,5771;0,0132491
1872,5414;0,0132491
1873,5056;0,0132522
1874,4698;0,013248
1875,4341;0,0132391
1876,3983;0,0132359
1877,3625;0,013248
1878,3268;0,0132779
1879,2910;0,0133208
1880,2552;0,0133698
1881,2195;0,0134209
1882,1837;0,0134742
1883,1479;0,0135301
1884,1122;0,0135848
1885,0764;0,0136282
1886,0406;0,0136462
1887,0049;0,013627
1887,9691;0,0135685
1888,9333;0,0134833
1889,8976;0,0133954
1890,8618;0,0133289
1891,8260;0,0132966
1892,7903;0,0132965
1893,7545;0,0133173
1894,7188;0,0133456
1895,6830;0,0133707
1896,6472;0,0133874
1897,6115;0,013395
1898,5757;0,0133959
1899,5399;0,0133938
1900,5042;0,0133929
1901,4684;0,0133983
1902,4326;0,0134155
1903,3969;0,0134485
1904,3611;0,0134967
1905,3253;0,0135529
1906,2896;0,013604
1907,2538;0,0136356
1908,2180;0,013639
1909,1823;0,0136181
1910,1465;0,0135897
1911,1107;0,013574
1912,0750;0,0135823
1913,0392;0,013611
1914,0034;0,0136459
1914,9677;0,0136729
1915,9319;0,0136864
1916,8961;0,0136928
1917,8604;0,0137037
1918,8246;0,0137236
1919,7888;0,013743
1920,7531;0,0137436
1921,7173;0,0137116
1922,6815;0,0136496
1923,6458;0,0135768
1924,6100;0,0135179
1925,5742;0,0134872
1926,5385;0,0134824
1927,5027;0,0134907
1928,4669;0,0135013
1929,4312;0,0135127
1930,3954;0,0135306
1931,3596;0,0135594
1932,3239;0,0135942
1933,2881;0,0136212
1934,2523;0,013627
1935,2166;0,0136091
1936,1808;0,013579
1937,1450;0,0135561
1938,1093;0,0135564
1939,0735;0,0135856
1940,0377;0,0136378
1941,0020;0,0137004
1941,9662;0,0137591
1942,9304;0,0138006
1943,8947;0,0138136
1944,8589;0,0137887
1945,8231;0,01372
1946,7874;0,0136102
1947,7516;0,0134754
1948,7158;0,0133458
1949,6801;0,0132573
1950,6443;0,0132369
1951,6085;0,0132887
1952,5728;0,013389
1953,5370;0,0134946
1954,5012;0,0135603
1955,4655;0,0135584
1956,4297;0,0134899
1957,3939;0,0133831
1958,3582;0,0132788
1959,3224;0,0132107
1960,2866;0,0131913
1961,2509;0,0132092
1962,2151;0,0132401
1963,1793;0,0132607
1964,1436;0,0132583
1965,1078;0,0132342
1966,0720;0,0132032
1967,0363;0,013192
1968,0005;0,0132314
1968,9647;0,0133403
1969,9290;0,0135081
1970,8932;0,0136889
1971,8574;0,0138164
1972,8217;0,0138354
1973,7859;0,0137381
1974,7501;0,0135806
1975,7144;0,01346
1976,6786;0,0134563
1977,6428;0,013578
1978,6071;0,0137582
1979,5713;0,0139059
1980,5355;0,013969
1981,4998;0,0139599
1982,4640;0,0139368
1983,4282;0,013962
1984,3925;0,0140633
1985,3567;0,0142169
1986,3209;0,0143616
1987,2852;0,0144333
1988,2494;0,014403
1989,2136;0,0142951
1990,1779;0,0141809
1991,1421;0,0141441
1992,1063;0,0142363
1993,0706;0,014446
1994,0348;0,0147043
1994,9990;0,0149217
1995,9633;0,0150296
1996,9275;0,0150041
1997,8917;0,0148676
1998,8560;0,014672
1999,8202;0,0144728
2000,7844;0,0143089
2001,7487;0,0141975
2002,7129;0,0141442
2003,6771;0,0141563
2004,6414;0,014244
2005,6056;0,0144095
2006,5698;0,0146318
2007,5341;0,0148638
2008,4983;0,0150491
2009,4625;0,015146
2010,4268;0,0151425
2011,3910;0,0150543
2012,3552;0,0149143
2013,3195;0,0147632
2014,2837;0,0146476
2015,2479;0,0146147
2016,2122;0,0146982
2017,1764;0,0148967
2018,1406;0,0151615
2019,1049;0,0154107
2020,0691;0,0155667
2021,0333;0,0155926
2021,9976;0,0155076
2022,9618;0,0153741
2023,9260;0,0152661
2024,8903;0,0152381
2025,8545;0,0153094
2026,8187;0,0154679
2027,7830;0,0156811
2028,7472;0,0159043
2029,7114;0,0160847
2030,6757;0,0161709
2031,6399;0,0161339
2032,6041;0,0159894
2033,5684;0,0158026
2034,5326;0,0156593
2035,4968;0,015618
2036,4611;0,0156758
2037,4253;0,0157746
2038,3895;0,0158407
2039,3538;0,0158307
2040,3180;0,015754
2041,2822;0,0156621
2042,2465;0,0156145
2043,2107;0,0156476
2044,1749;0,0157646
2045,1392;0,015946
2046,1034;0,016163
2047,0676;0,0163814
2048,0320;0,0165586
2048,9961;0,0166469
2049,9604;0,0166093
2050,9246;0,0164404
2051,8889;0,0161779
2052,8530;0,0158981
2053,8174;0,0156941
2054,7815;0,0156425
2055,7458;0,0157692
2056,7100;0,0160352
2057,6743;0,0163512
2058,6384;0,0166155
2059,6028;0,0167547
2060,5669;0,0167466
2061,5313;0,0166194
2062,4954;0,0164322
2063,4597;0,0162491
2064,4238;0,0161193
2065,3882;0,0160685
2066,3523;0,0161006
2067,3167;0,0162023
2068,2808;0,0163475
2069,2451;0,016501
2070,2092;0,016626
2071,1736;0,0166951
2072,1377;0,0167013
2073,1021;0,0166608
2074,0662;0,0166024
2075,0305;0,0165517
2075,9946;0,0165179
2076,9590;0,016494
2077,9231;0,0164682
2078,8875;0,0164373
2079,8516;0,0164108
2080,8159;0,0164053
2081,7800;0,0164331
2082,7444;0,0164951
2083,7085;0,0165824
2084,6729;0,0166824
2085,6370;0,0167836
2086,6013;0,0168733
2087,5654;0,016934
2088,5298;0,0169443
2089,4939;0,0168888
2090,4583;0,0167717
2091,4224;0,0166242
2092,3867;0,0164966
2093,3508;0,0164374
2094,3152;0,0164701
2095,2793;0,0165812
2096,2437;0,0167291
2097,2078;0,0168672
2098,1721;0,016965
2099,1362;0,0170155
2100,1006;0,0170266
2101,0647;0,01701
2102,0291;0,0169741
2102,9932;0,0169259
2103,9575;0,0168726
2104,9216;0,0168215
2105,8860;0,0167767
2106,8501;0,0167382
2107,8145;0,0167058
2108,7786;0,0166848
2109,7429;0,0166844
2110,7070;0,0167108
2111,6714;0,0167581
2112,6355;0,0168071
2113,5999;0,016837
2114,5640;0,0168398
2115,5283;0,0168275
2116,4924;0,0168235
2117,4568;0,0168439
2118,4209;0,0168836
2119,3853;0,016917
2120,3494;0,016914
2121,3137;0,0168604
2122,2778;0,016768
2123,2422;0,0166681
2124,2063;0,0165961
2125,1707;0,0165742
2126,1348;0,0166047
2127,0991;0,0166711
2128,0632;0,0167456
2129,0276;0,0167997
2129,9917;0,0168159
2130,9561;0,0167976
2131,9202;0,0167734
2132,8845;0,0167864
2133,8486;0,0168721
2134,8130;0,0170319
2135,7771;0,0172256
2136,7415;0,0173902
2137,7056;0,0174758
2138,6699;0,0174731
2139,6340;0,0174126
2140,5984;0,0173432
2141,5625;0,0173076
2142,5269;0,0173311
2143,4910;0,0174247
2144,4553;0,017591
2145,4194;0,0178198
2146,3838;0,0180777
2147,3479;0,0183072
2148,3123;0,0184461
2149,2764;0,0184618
2150,2407;0,0183738
2151,2048;0,0182488
2152,1692;0,0181679
2153,1333;0,0181892
2154,0977;0,0183308
2155,0618;0,0185796
2156,0261;0,0189127
2156,9902;0,0193056
2157,9546;0,0197205
2158,9187;0,0200917
2159,8831;0,0203396
2160,8472;0,0204122
2161,8115;0,0203162
2162,7756;0,0201098
2163,7400;0,0198685
2164,7041;0,0196475
2165,6685;0,0194612
2166,6326;0,0192867
2167,5969;0,0190902
2168,5610;0,0188571
2169,5254;0,0186084
2170,4895;0,0183949
2171,4539;0,0182736
2172,4180;0,0182785
2173,3823;0,0184016
2174,3464;0,0185911
2175,3108;0,0187711
2176,2749;0,0188722
2177,2393;0,0188581
2178,2034;0,0187358
2179,1677;0,0185469
2180,1318;0,0183479
2181,0962;0,0181877
2182,0603;0,0180914
2183,0247;0,0180575
2183,9888;0,018067
2184,9531;0,0180998
2185,9172;0,018144
2186,8816;0,018195
2187,8457;0,0182467
2188,8101;0,018284
2189,7742;0,0182841
2190,7385;0,0182272
2191,7026;0,0181087
2192,6670;0,0179458
2193,6311;0,0177725
2194,5955;0,0176276
2195,5596;0,0175409
2196,5239;0,0175248
2197,4880;0,0175708
2198,4524;0,0176529
2199,4165;0,0177347
2200,3809;0,0177817
2201,3450;0,0177751
2202,3093;0,0177216
2203,2734;0,0176519
2204,2378;0,017606
2205,2019;0,0176116
2206,1663;0,0176699
2207,1304;0,0177556
2208,0947;0,017833
2209,0588;0,017875
2210,0232;0,0178746
2210,9873;0,0178414
2211,9517;0,0177906
2212,9158;0,0177331
2213,8801;0,0176736
2214,8442;0,0176147
2215,8086;0,0175606
2216,7727;0,0175166
2217,7371;0,0174858
2218,7012;0,0174663
2219,6655;0,017453
2220,6296;0,017442
2221,5940;0,0174325
2222,5581;0,0174253
2223,5225;0,0174206
2224,4866;0,0174172
2225,4509;0,0174146
2226,4150;0,0174154
2227,3794;0,0174249
2228,3435;0,0174468
2229,3079;0,0174792
2230,2720;0,0175135
2231,2363;0,0175397
2232,2004;0,0175526
2233,1648;0,0175547
2234,1289;0,0175541
2235,0933;0,017559
2236,0574;0,0175731
2237,0217;0,017596
2237,9858;0,017626
2238,9502;0,0176615
2239,9143;0,0176998
2240,8787;0,0177341
2241,8428;0,0177527
2242,8071;0,0177423
2243,7712;0,0176955
2244,7356;0,0176167
2245,6997;0,0175219
2246,6641;0,0174337
2247,6282;0,0173727
2248,5925;0,0173515
2249,5566;0,0173735
2250,5210;0,0174341
2251,4851;0,0175238
2252,4495;0,0176277
2253,4136;0,0177264
2254,3779;0,0177974
2255,3420;0,0178215
2256,3064;0,0177896
2257,2705;0,0177093
2258,2349;0,0176031
2259,1990;0,0175018
2260,1633;0,0174329
2261,1274;0,0174101
2262,0918;0,0174289
2263,0559;0,01747
2264,0203;0,0175091
2264,9844;0,0175292
2265,9487;0,0175269
2266,9128;0,017512
2267,8772;0,0174982
2268,8413;0,0174936
2269,8057;0,017495
2270,7698;0,0174906
2271,7341;0,0174679
2272,6982;0,0174216
2273,6626;0,0173573
2274,6267;0,0172891
2275,5911;0,0172336
2276,5552;0,0172034
2277,5195;0,0172039
2278,4836;0,0172329
2279,4480;0,0172823
2280,4121;0,0173412
2281,3765;0,0173995
2282,3406;0,0174505
2283,3049;0,0174925
2284,2690;0,0175277
2285,2334;0,0175596
2286,1975;0,0175908
2287,1619;0,017622
2288,1260;0,0176528
2289,0903;0,0176826
2290,0544;0,0177106
2291,0188;0,017735
2291,9829;0,0177528
2292,9473;0,0177609
2293,9114;0,0177589
2294,8757;0,0177513
2295,8398;0,0177461
2296,8042;0,0177508
2297,7683;0,0177681
2298,7327;0,0177942
2299,6968;0,0178211
2300,6611;0,0178419
2301,6252;0,0178546
2302,5896;0,0178623
2303,5537;0,0178703
2304,5181;0,0178825
2305,4822;0,0178985
2306,4465;0,0179126
2307,4106;0,0179161
2308,3750;0,0178994
2309,3391;0,0178558
2310,3035;0,0177859
2311,2676;0,0177003
2312,2319;0,0176177
2313,1960;0,0175592
2314,1604;0,0175376
2315,1245;0,0175522
2316,0889;0,0175892
2317,0530;0,0176301
2318,0173;0,0176613
2318,9814;0,0176797
2319,9458;0,0176922
2320,9099;0,0177085
2321,8743;0,0177341
2322,8384;0,0177661
2323,8027;0,0177944
2324,7668;0,0178069
2325,7312;0,0177947
2326,6953;0,0177563
2327,6597;0,0176986
2328,6238;0,017634
2329,5881;0,0175777
2330,5522;0,0175459
2331,5166;0,0175536
2332,4807;0,0176062
2333,4451;0,0176909
2334,4092;0,0177772
2335,3735;0,0178292
2336,3376;0,0178252
2337,3020;0,0177714
2338,2661;0,0176998
2339,2305;0,0176449
2340,1946;0,0176119
2341,1589;0,0175618
2342,1230;0,0174368
2343,0874;0,0172288
2344,0515;0,0170413
2345,0159;0,0170413
2345,9800;0,0173097
2346,9443;0,0177692
2347,9084;0,0182543
2348,8728;0,018618
2349,8369;0,0187909
2350,8013;0,0187906
2351,7654;0,018699
2352,7297;0,0186164
2353,6938;0,0186095
2354,6582;0,018686
2355,6223;0,0188065
2356,5867;0,0189095
2357,5508;0,0189299
2358,5151;0,0188204
2359,4792;0,0185768
2360,4436;0,0182456
2361,4077;0,0178965
2362,3721;0,0175849
2363,3362;0,017334
2364,3005;0,01714
2365,2646;0,0169842
2366,2290;0,016843
2367,1931;0,016696
2368,1575;0,0165351
2369,1216;0,016368
2370,0859;0,0162149
2371,0500;0,0160969
2372,0144;0,0160266
2372,9785;0,0160064
2373,9429;0,0160333
2374,9070;0,0161043
2375,8713;0,016219
2376,8354;0,016377
2377,7998;0,0165746
2378,7639;0,0168017
2379,7283;0,0170417
2380,6924;0,0172747
2381,6567;0,0174818
2382,6208;0,0176505
2383,5852;0,0177771
2384,5493;0,017868
2385,5137;0,0179355
2386,4778;0,017993
2387,4421;0,0180492
2388,4063;0,0181053
2389,3706;0,0181563
2390,3347;0,0181956
2391,2991;0,0182192
2392,2632;0,0182287
2393,2275;0,0182298
2394,1917;0,0182295
2395,1560;0,0182333
2396,1201;0,0182446
2397,0845;0,0182656
2398,0486;0,0182976
2399,0129;0,0183399
2399,9771;0,0183875
2400,9414;0,0184313
2401,9055;0,0184614
2402,8699;0,0184718
2403,8340;0,0184661
2404,7983;0,0184566
2405,7625;0,0184601
2406,7268;0,0184887
2407,6909;0,0185437
2408,6553;0,018615
2409,6194;0,0186854
2410,5837;0,0187393
2411,5479;0,0187691
2412,5122;0,0187772
2413,4763;0,0187733
2414,4407;0,0187693
2415,4048;0,0187738
2416,3691;0,0187908
2417,3333;0,0188197
2418,2976;0,0188574
2419,2617;0,0189003
2420,2261;0,0189446
2421,1902;0,0189862
2422,1545;0,0190213
2423,1187;0,0190468
2424,0830;0,0190625
2425,0471;0,0190713
2426,0115;0,0190788
2426,9756;0,0190909
2427,9399;0,0191117
2428,9041;0,019142
2429,8684;0,0191796
2430,8325;0,0192205
2431,7969;0,0192599
2432,7610;0,0192943
2433,7253;0,0193217
2434,6895;0,0193427
2435,6538;0,0193601
2436,6179;0,0193775
2437,5823;0,019397
2438,5464;0,0194182
2439,5107;0,0194389
2440,4749;0,0194577
2441,4392;0,0194759
2442,4033;0,0194982
2443,3677;0,0195285
2444,3318;0,0195672
2445,2961;0,019609
2446,2603;0,019646
2447,2246;0,0196724
2448,1887;0,0196891
2449,1531;0,0197032
2450,1172;0,0197234
2451,0815;0,0197539
2452,0457;0,0197918
2453,0100;0,0198289
2453,9741;0,019857
2454,9385;0,0198727
2455,9026;0,0198787
2456,8669;0,0198817
2457,8311;0,0198879
2458,7954;0,0199001
2459,7595;0,0199172
2460,7239;0,0199353
2461,6880;0,0199508
2462,6523;0,019962
2463,6165;0,0199702
2464,5808;0,0199787
2465,5449;0,0199913
2466,5093;0,0200103
2467,4734;0,0200348
2468,4377;0,0200611
2469,4019;0,0200846
2470,3662;0,0201026
2471,3303;0,0201163
2472,2947;0,0201304
2473,2588;0,020151
2474,2231;0,0201814
2475,1873;0,0202202
2476,1516;0,0202613
2477,1157;0,0202968
2478,0801;0,0203213
2479,0442;0,0203346
2480,0085;0,0203424
2480,9727;0,020353
2481,9370;0,0203734
2482,9011;0,0204056
2483,8655;0,0204456
2484,8296;0,0204854
2485,7939;0,0205173
2486,7581;0,0205369
2487,7224;0,0205452
2488,6865;0,020547
2489,6509;0,0205483
2490,6150;0,020553
2491,5793;0,0205614
2492,5435;0,0205712
2493,5078;0,0205794
2494,4719;0,0205852
2495,4363;0,0205907
2496,4004;0,0205997
2497,3647;0,0206156
2498,3289;0,0206395
2499,2932;0,0206689
2500,2573;0,0206998
2501,2217;0,0207278
2502,1858;0,0207498
2503,1501;0,0207643
2504,1143;0,0207705
2505,0786;0,0207694
2506,0427;0,0207641
2507,0071;0,0207605
2507,9712;0,0207657
2508,9355;0,0207845
2509,8997;0,0208164
2510,8640;0,0208547
2511,8281;0,0208901
2512,7925;0,0209156
2513,7566;0,0209307
2514,7209;0,0209401
2515,6851;0,0209498
2516,6494;0,0209618
2517,6135;0,0209727
2518,5779;0,0209764
2519,5420;0,0209696
2520,5063;0,020955
2521,4705;0,0209405
2522,4348;0,0209356
2523,3989;0,0209467
2524,3633;0,0209743
2525,3274;0,0210135
2526,2917;0,0210561
2527,2559;0,0210934
2528,2202;0,0211196
2529,1843;0,0211329
2530,1487;0,0211359
2531,1128;0,0211342
2532,0771;0,0211325
2533,0413;0,0211329
2534,0056;0,021134
2534,9697;0,0211339
2535,9341;0,021133
2536,8982;0,021135
2537,8625;0,0211447
2538,8267;0,021164
2539,7910;0,0211893
2540,7551;0,0212134
2541,7195;0,0212301
2542,6836;0,0212383
2543,6479;0,0212429
2544,6121;0,0212505
2545,5764;0,0212648
2546,5405;0,0212837
2547,5049;0,0213009
2548,4690;0,0213102
2549,4333;0,0213099
2550,3975;0,0213039
2551,3618;0,0212997
2552,3259;0,0213046
2553,2903;0,0213219
2554,2544;0,0213497
2555,2188;0,0213818
2556,1829;0,0214101
2557,1472;0,0214281
2558,1113;0,0214328
2559,0757;0,0214256
2560,0398;0,0214112
2561,0042;0,0213954
2561,9683;0,0213838
2562,9326;0,0213804
2563,8967;0,0213876
2564,8611;0,0214056
2565,8252;0,0214319
2566,7896;0,0214616
2567,7537;0,0214881
2568,7180;0,0215059
2569,6821;0,0215126
2570,6465;0,0215094
2571,6106;0,0215012
2572,5750;0,0214939
2573,5391;0,0214937
2574,5034;0,0215048
2575,4675;0,0215296
2576,4319;0,0215669
2577,3960;0,021612
2578,3604;0,0216569
2579,3245;0,0216929
2580,2888;0,0217138
2581,2529;0,0217184
2582,2173;0,0217111
2583,1814;0,0217002
2584,1458;0,0216946
2585,1099;0,0217009
2586,0742;0,0217215
2587,0383;0,0217537
2588,0027;0,0217909
2588,9668;0,0218246
2589,9312;0,0218483
2590,8953;0,0218605
2591,8596;0,0218656
2592,8237;0,0218722
2593,7881;0,0218875
2594,7522;0,021914
2595,7166;0,0219479
2596,6807;0,0219819
2597,6450;0,0220098
2598,6091;0,02203
2599,5735;0,0220453
2600,5376;0,0220605
2601,5020;0,0220795
2602,4661;0,0221033
2603,4304;0,022131
2604,3945;0,0221607
2605,3589;0,0221906
2606,3230;0,02222
2607,2874;0,0222489
2608,2515;0,022278
2609,2158;0,0223083
2610,1799;0,0223405
2611,1443;0,0223738
2612,1084;0,0224052
2613,0728;0,022431
2614,0369;0,0224489
2615,0012;0,0224601
2615,9653;0,0224697
2616,9297;0,0224844
2617,8938;0,022509
2618,8582;0,0225435
2619,8223;0,022583
2620,7866;0,0226202
2621,7507;0,0226492
2622,7151;0,0226683
2623,6792;0,0226799
2624,6436;0,0226892
2625,6077;0,0227008
2626,5720;0,0227178
2627,5361;0,0227409
2628,5005;0,0227693
2629,4646;0,022802
2630,4290;0,0228374
2631,3931;0,0228741
2632,3574;0,0229105
2633,3215;0,0229452
2634,2859;0,0229781
2635,2500;0,0230098
2636,2144;0,023042
2637,1785;0,023076
2638,1428;0,0231118
2639,1069;0,0231481
2640,0713;0,0231828
2641,0354;0,0232138
2641,9998;0,0232407
2642,9639;0,0232647
2643,9282;0,023289
2644,8923;0,0233168
2645,8567;0,02335
2646,8208;0,0233875
2647,7852;0,0234254
2648,7493;0,0234578
2649,7136;0,0234802
2650,6777;0,0234915
2651,6421;0,0234951
2652,6062;0,0234978
2653,5706;0,0235066
2654,5347;0,0235254
2655,4990;0,0235543
2656,4631;0,0235888
2657,4275;0,0236234
2658,3916;0,0236531
2659,3560;0,023676
2660,3201;0,0236932
2661,2844;0,0237077
2662,2485;0,0237223
2663,2129;0,0237387
2664,1770;0,0237567
2665,1414;0,0237751
2666,1055;0,0237924
2667,0698;0,0238082
2668,0339;0,0238235
2668,9983;0,02384
2669,9624;0,0238597
2670,9268;0,0238837
2671,8909;0,0239121
2672,8552;0,0239437
2673,8193;0,023977
2674,7837;0,0240099
2675,7478;0,0240408
2676,7122;0,0240691
2677,6763;0,0240951
2678,6406;0,0241204
2679,6047;0,0241474
2680,5691;0,0241781
2681,5332;0,0242136
2682,4976;0,0242536
2683,4617;0,0242961
2684,4260;0,024339
2685,3901;0,0243802
2686,3545;0,0244185
2687,3186;0,0244538
2688,2830;0,0244864
2689,2471;0,0245168
2690,2114;0,0245455
2691,1755;0,0245733
2692,1399;0,024601
2693,1040;0,02463
2694,0684;0,0246614
2695,0325;0,0246956
2695,9968;0,0247323
2696,9609;0,0247707
2697,9253;0,0248094
2698,8894;0,0248476
2699,8538;0,0248847
2700,8179;0,0249206
2701,7822;0,0249563
2702,7463;0,0249928
2703,7107;0,0250313
2704,6748;0,0250719
2705,6392;0,0251133
2706,6033;0,0251531
2707,5676;0,0251891
2708,5317;0,0252206
2709,4961;0,0252491
2710,4602;0,025278
2711,4246;0,0253103
2712,3887;0,0253474
2713,3530;0,0253885
2714,3171;0,0254315
2715,2815;0,025474
2716,2456;0,0255148
2717,2100;0,0255534
2718,1741;0,0255897
2719,1384;0,0256235
2720,1025;0,0256545
2721,0669;0,0256825
2722,0310;0,0257073
2722,9954;0,0257289
2723,9595;0,0257475
2724,9238;0,0257646
2725,8879;0,025783
2726,8523;0,0258069
2727,8164;0,0258404
2728,7808;0,0258856
2729,7449;0,0259409
2730,7092;0,026001
2731,6733;0,0260583
2732,6377;0,0261054
2733,6018;0,0261376
2734,5662;0,0261547
2735,5303;0,0261602
2736,4946;0,0261609
2737,4587;0,0261639
2738,4231;0,0261754
2739,3872;0,0261985
2740,3516;0,0262334
2741,3157;0,0262765
2742,2800;0,0263218
2743,2441;0,0263619
2744,2085;0,02639
2745,1726;0,0264024
2746,1370;0,0264009
2747,1011;0,0263932
2748,0654;0,0263905
2749,0295;0,0264036
2749,9939;0,0264375
2750,9580;0,0264885
2751,9224;0,0265462
2752,8865;0,0265983
2753,8508;0,0266368
2754,8149;0,0266617
2755,7793;0,0266801
2756,7434;0,0267019
2757,7078;0,0267341
2758,6719;0,0267777
2759,6362;0,0268285
2760,6003;0,0268795
2761,5647;0,0269256
2762,5288;0,0269645
2763,4932;0,0269977
2764,4573;0,0270284
2765,4216;0,0270607
2766,3857;0,0270976
2767,3501;0,0271409
2768,3142;0,0271898
2769,2786;0,0272416
2770,2427;0,0272919
2771,2070;0,0273372
2772,1711;0,0273766
2773,1355;0,0274131
2774,0996;0,0274517
2775,0640;0,027497
2776,0281;0,0275504
2776,9924;0,0276096
2777,9565;0,0276701
2778,9209;0,0277279
2779,8850;0,027782
2780,8494;0,0278337
2781,8135;0,0278861
2782,7778;0,0279417
2783,7419;0,0280007
2784,7063;0,0280618
2785,6704;0,0281224
2786,6348;0,02818
2787,5989;0,028234
2788,5632;0,0282857
2789,5273;0,0283389
2790,4917;0,0283983
2791,4558;0,0284673
2792,4202;0,0285465
2793,3843;0,0286322
2794,3486;0,0287184
2795,3127;0,0287993
2796,2771;0,0288725
2797,2412;0,0289406
2798,2056;0,0290101
2799,1697;0,0290884
2800,1340;0,0291802
2801,0981;0,029286
2802,0625;0,0294023
2803,0266;0,0295231
2803,9910;0,0296422
2804,9551;0,0297545
2805,9194;0,0298574
2806,8835;0,0299513
2807,8479;0,0300394
2808,8120;0,0301276
2809,7764;0,0302228
2810,7405;0,0303302
2811,7048;0,0304512
2812,6689;0,0305837
2813,6333;0,0307227
2814,5974;0,0308635
2815,5618;0,031004
2816,5259;0,0311448
2817,4902;0,0312883
2818,4543;0,0314366
2819,4187;0,031591
2820,3828;0,0317523
2821,3472;0,0319214
2822,3113;0,0320996
2823,2756;0,0322882
2824,2397;0,0324868
2825,2041;0,0326935
2826,1682;0,0329053
2827,1326;0,0331203
2828,0967;0,0333384
2829,0610;0,033562
2830,0251;0,0337948
2830,9895;0,0340401
2831,9536;0,0343002
2832,9180;0,0345755
2833,8821;0,034865
2834,8464;0,0351669
2835,8105;0,0354795
2836,7749;0,0358036
2837,7390;0,0361431
2838,7034;0,0365052
2839,6675;0,0368993
2840,6318;0,0373336
2841,5959;0,0378126
2842,5603;0,0383358
2843,5244;0,0388971
2844,4888;0,0394858
2845,4529;0,0400861
2846,4172;0,040677
2847,3813;0,0412324
2848,3457;0,0417245
2849,3098;0,0421281
2850,2742;0,0424272
2851,2383;0,0426178
2852,2026;0,0427087
2853,1667;0,0427166
2854,1311;0,042661
2855,0952;0,0425598
2856,0596;0,0424277
2857,0237;0,0422783
2857,9880;0,042126
2858,9521;0,041987
2859,9165;0,0418777
2860,8806;0,0418111
2861,8450;0,0417932
2862,8091;0,0418224
2863,7734;0,0418913
2864,7375;0,0419912
2865,7019;0,0421143
2866,6660;0,0422538
2867,6304;0,0424026
2868,5945;0,0425505
2869,5588;0,0426849
2870,5229;0,0427948
2871,4873;0,0428749
2872,4514;0,0429285
2873,4158;0,0429667
2874,3799;0,043003
2875,3442;0,0430484
2876,3083;0,0431077
2877,2727;0,0431801
2878,2368;0,0432616
2879,2012;0,0433484
2880,1653;0,0434384
2881,1296;0,0435314
2882,0938;0,0436279
2883,0581;0,043728
2884,0222;0,0438315
2884,9866;0,0439385
2885,9507;0,0440499
2886,9150;0,0441679
2887,8792;0,0442948
2888,8435;0,0444318
2889,8076;0,0445766
2890,7720;0,0447237
2891,7361;0,0448661
2892,7004;0,0449983
2893,6646;0,04512
2894,6289;0,0452363
2895,5930;0,0453556
2896,5574;0,0454854
2897,5215;0,0456278
2898,4858;0,0457787
2899,4500;0,0459294
2900,4143;0,0460712
2901,3784;0,0461999
2902,3428;0,0463175
2903,3069;0,0464324
2904,2712;0,0465554
2905,2354;0,0466961
2906,1997;0,0468598
2907,1638;0,0470474
2908,1282;0,0472575
2909,0923;0,0474895
2910,0566;0,047746
2911,0208;0,0480311
2911,9851;0,0483469
2912,9492;0,0486882
2913,9136;0,0490405
2914,8777;0,0493816
2915,8420;0,0496875
2916,8062;0,0499383
2917,7705;0,0501218
2918,7346;0,0502339
2919,6990;0,0502755
2920,6631;0,0502502
2921,6274;0,0501636
2922,5916;0,0500223
2923,5559;0,0498342
2924,5200;0,0496059
2925,4844;0,0493419
2926,4485;0,049044
2927,4128;0,0487138
2928,3770;0,0483561
2929,3413;0,0479804
2930,3054;0,0475989
2931,2698;0,0472223
2932,2339;0,0468559
2933,1982;0,0464988
2934,1624;0,0461462
2935,1267;0,0457939
2936,0908;0,0454401
2937,0552;0,0450856
2938,0193;0,044732
2938,9836;0,0443793
2939,9478;0,0440257
2940,9121;0,0436691
2941,8762;0,0433087
2942,8406;0,0429468
2943,8047;0,0425889
2944,7690;0,0422431
2945,7332;0,0419186
2946,6975;0,0416228
2947,6616;0,0413594
2948,6260;0,0411268
2949,5901;0,0409182
2950,5544;0,0407243
2951,5186;0,0405361
2952,4829;0,0403475
2953,4470;0,0401562
2954,4114;0,0399634
2955,3755;0,0397711
2956,3398;0,0395806
2957,3040;0,0393911
2958,2683;0,0391999
2959,2324;0,0390039
2960,1968;0,0388008
2961,1609;0,0385907
2962,1252;0,0383757
2963,0894;0,0381589
2964,0537;0,0379427
2965,0178;0,0377283
2965,9822;0,0375158
2966,9463;0,0373047
2967,9106;0,0370946
2968,8748;0,036885
2969,8391;0,036675
2970,8032;0,0364637
2971,7676;0,0362516
2972,7317;0,0360416
2973,6960;0,0358392
2974,6602;0,0356498
2975,6245;0,0354762
2976,5886;0,0353164
2977,5530;0,0351656
2978,5171;0,0350198
2979,4814;0,0348781
2980,4456;0,0347438
2981,4099;0,0346214
2982,3740;0,0345133
2983,3384;0,034418
2984,3025;0,0343314
2985,2668;0,0342491
2986,2310;0,0341682
2987,1953;0,0340881
2988,1594;0,0340092
2989,1238;0,0339319
2990,0879;0,033857
2991,0522;0,0337861
2992,0164;0,033722
2992,9807;0,0336688
2993,9448;0,0336301
2994,9092;0,0336084
2995,8733;0,0336039
2996,8376;0,0336143
2997,8018;0,033635
2998,7661;0,03366
2999,7302;0,0336831
3000,6946;0,0337001
3001,6587;0,0337112
3002,6230;0,0337205
3003,5872;0,0337348
3004,5515;0,0337592
3005,5156;0,0337944
3006,4800;0,0338349
3007,4441;0,0338721
3008,4084;0,033898
3009,3726;0,0339096
3010,3369;0,0339103
3011,3010;0,0339081
3012,2654;0,0339116
3013,2295;0,0339264
3014,1938;0,0339535
3015,1580;0,0339909
3016,1223;0,034036
3017,0864;0,0340873
3018,0508;0,034144
3019,0149;0,0342049
3019,9792;0,0342676
3020,9434;0,0343296
3021,9077;0,0343905
3022,8718;0,0344532
3023,8362;0,0345234
3024,8003;0,0346062
3025,7646;0,0347024
3026,7288;0,0348068
3027,6931;0,0349098
3028,6572;0,0350012
3029,6216;0,0350748
3030,5857;0,0351313
3031,5500;0,035178
3032,5142;0,0352267
3033,4785;0,0352885
3034,4426;0,0353705
3035,4070;0,0354726
3036,3711;0,0355886
3037,3354;0,0357084
3038,2996;0,035822
3039,2639;0,0359245
3040,2280;0,0360177
3041,1924;0,036109
3042,1565;0,0362073
3043,1208;0,0363177
3044,0850;0,0364384
3045,0493;0,0365619
3046,0134;0,0366798
3046,9778;0,0367886
3047,9419;0,036892
3048,9063;0,0369993
3049,8704;0,0371188
3050,8347;0,0372525
3051,7988;0,0373937
3052,7632;0,0375305
3053,7273;0,0376528
3054,6917;0,0377574
3055,6558;0,0378509
3056,6201;0,0379452
3057,5842;0,0380521
3058,5486;0,0381776
3059,5127;0,0383199
3060,4771;0,0384723
3061,4412;0,0386256
3062,4055;0,0387715
3063,3696;0,0389043
3064,3340;0,0390213
3065,2981;0,0391243
3066,2625;0,0392187
3067,2266;0,0393128
3068,1909;0,0394144
3069,1550;0,0395289
3070,1194;0,0396575
3071,0835;0,0397979
3072,0479;0,0399457
3073,0120;0,0400966
3073,9763;0,0402463
3074,9404;0,0403909
3075,9048;0,0405266
3076,8689;0,0406505
3077,8333;0,0407618
3078,7974;0,0408623
3079,7617;0,0409566
3080,7258;0,041051
3081,6902;0,0411511
3082,6543;0,0412614
3083,6187;0,0413833
3084,5828;0,0415156
3085,5471;0,0416542
3086,5112;0,0417936
3087,4756;0,041929
3088,4397;0,0420581
3089,4041;0,0421823
3090,3682;0,0423057
3091,3325;0,0424332
3092,2966;0,0425677
3093,2610;0,0427092
3094,2251;0,042854
3095,1895;0,0429969
3096,1536;0,0431326
3097,1179;0,0432586
3098,0820;0,0433759
3099,0464;0,0434896
3100,0105;0,0436066
3100,9749;0,0437328
3101,9390;0,0438703
3102,9033;0,044016
3103,8674;0,0441635
3104,8318;0,0443062
3105,7959;0,0444415
3106,7603;0,0445721
3107,7244;0,0447042
3108,6887;0,0448436
3109,6528;0,0449921
3110,6172;0,0451464
3111,5813;0,0453007
3112,5457;0,0454497
3113,5098;0,0455921
3114,4741;0,0457304
3115,4382;0,0458687
3116,4026;0,0460103
3117,3667;0,0461555
3118,3311;0,0463031
3119,2952;0,0464516
3120,2595;0,046601
3121,2236;0,0467521
3122,1880;0,0469053
3123,1521;0,0470599
3124,1165;0,0472143
3125,0806;0,047368
3126,0449;0,0475228
3127,0090;0,047682
3127,9734;0,0478481
3128,9375;0,0480206
3129,9019;0,0481956
3130,8660;0,0483683
3131,8303;0,048536
3132,7944;0,0486994
3133,7588;0,0488613
3134,7229;0,0490243
3135,6873;0,0491884
3136,6514;0,0493515
3137,6157;0,0495115
3138,5798;0,0496685
3139,5442;0,0498245
3140,5083;0,049983
3141,4727;0,0501469
3142,4368;0,0503179
3143,4011;0,0504966
3144,3652;0,0506825
3145,3296;0,0508734
3146,2937;0,0510642
3147,2581;0,051248
3148,2222;0,0514183
3149,1865;0,051573
3150,1506;0,0517168
3151,1150;0,0518597
3152,0791;0,052013
3153,0435;0,0521837
3154,0076;0,0523716
3154,9719;0,0525694
3155,9360;0,0527674
3156,9004;0,052958
3157,8645;0,0531401
3158,8289;0,0533185
3159,7930;0,0535014
3160,7573;0,0536943
3161,7214;0,0538966
3162,6858;0,054101
3163,6499;0,0542973
3164,6143;0,0544788
3165,5784;0,0546464
3166,5427;0,0548085
3167,5068;0,0549753
3168,4712;0,0551532
3169,4353;0,0553274
3170,3997;0,0555177
3171,3638;0,0557037
3172,3281;0,0558825
3173,2922;0,0560565
3174,2566;0,0562304
3175,2207;0,0564075
3176,1851;0,0565879
3177,1492;0,0567707
3178,1135;0,0569558
3179,0776;0,0571446
3180,0420;0,0573384
3181,0061;0,057535
3181,9705;0,0577288
3182,9346;0,0579127
3183,8989;0,0580829
3184,8630;0,0582421
3185,8274;0,0583983
3186,7915;0,0585607
3187,7559;0,0587346
3188,7200;0,058919
3189,6843;0,0591089
3190,6484;0,0592981
3191,6128;0,0594827
3192,5769;0,059662
3193,5413;0,0598365
3194,5054;0,0600068
3195,4697;0,0601732
3196,4338;0,0603358
3197,3982;0,0604953
3198,3623;0,0606531
3199,3267;0,0608104
3200,2908;0,0609671
3201,2551;0,0611235
3202,2192;0,0612804
3203,1836;0,0614403
3204,1477;0,0616061
3205,1121;0,0617788
3206,0762;0,0619562
3207,0405;0,0621336
3208,0046;0,0623055
3208,9690;0,0624692
3209,9331;0,062626
3210,8975;0,0627809
3211,8616;0,0629402
3212,8259;0,0631085
3213,7900;0,0632863
3214,7544;0,0634691
3215,7185;0,0636486
3216,6829;0,0638163
3217,6470;0,0639672
3218,6113;0,0641035
3219,5754;0,064234
3220,5398;0,0643708
3221,5039;0,0645235
3222,4683;0,0646946
3223,4324;0,0648791
3224,3967;0,0650676
3225,3608;0,0652508
3226,3252;0,0654233
3227,2893;0,0655846
3228,2537;0,0657366
3229,2178;0,0658817
3230,1821;0,0660207
3231,1462;0,0661539
3232,1106;0,0662825
3233,0747;0,0664107
3234,0391;0,0665455
3235,0032;0,0666942
3235,9675;0,066861
3236,9316;0,0670446
3237,8960;0,0672371
3238,8601;0,0674279
3239,8245;0,0676075
3240,7886;0,067771
3241,7529;0,0679196
3242,7170;0,068059
3243,6814;0,0681972
3244,6455;0,0683422
3245,6099;0,0685012
3246,5740;0,0686784
3247,5383;0,0688739
3248,5024;0,0690822
3249,4668;0,0692938
3250,4309;0,0694983
3251,3953;0,0696894
3252,3594;0,0698677
3253,3237;0,0700398
3254,2878;0,0702139
3255,2522;0,070395
3256,2163;0,070583
3257,1807;0,0707741
3258,1448;0,0709647
3259,1091;0,0711538
3260,0732;0,0713423
3261,0376;0,0715306
3262,0017;0,0717168
3262,9661;0,0718977
3263,9302;0,0720706
3264,8945;0,0722349
3265,8586;0,0723919
3266,8230;0,0725438
3267,7871;0,0726916
3268,7515;0,0728347
3269,7156;0,0729709
3270,6799;0,0730974
3271,6440;0,073212
3272,6084;0,0733144
3273,5725;0,073407
3274,5369;0,0734961
3275,5010;0,073589
3276,4653;0,073691
3277,4294;0,0738019
3278,3938;0,0739148
3279,3579;0,0740191
3280,3223;0,0741056
3281,2864;0,0741712
3282,2507;0,0742207
3283,2148;0,0742641
3284,1792;0,0743115
3285,1433;0,0743685
3286,1077;0,074434
3287,0718;0,0745012
3288,0361;0,0745623
3289,0002;0,0746116
3289,9646;0,0746475
3290,9287;0,0746722
3291,8931;0,0746888
3292,8572;0,0746994
3293,8215;0,0747043
3294,7856;0,0747043
3295,7500;0,0747015
3296,7141;0,0747007
3297,6785;0,074707
3298,6426;0,0747239
3299,6069;0,0747515
3300,5710;0,0747871
3301,5354;0,0748263
3302,4995;0,0748648
3303,4639;0,0748984
3304,4280;0,0749229
3305,3923;0,0749353
3306,3564;0,0749353
3307,3208;0,0749271
3308,2849;0,0749189
3309,2493;0,0749197
3310,2134;0,0749357
3311,1777;0,074968
3312,1418;0,075013
3313,1062;0,0750651
3314,0703;0,0751198
3315,0347;0,0751748
3315,9988;0,0752307
3316,9631;0,0752907
3317,9272;0,0753595
3318,8916;0,075442
3319,8557;0,0755403
3320,8201;0,075652
3321,7842;0,0757697
3322,7485;0,0758843
3323,7126;0,0759894
3324,6770;0,0760839
3325,6411;0,0761716
3326,6055;0,0762576
3327,5696;0,076344
3328,5339;0,0764292
3329,4980;0,0765096
3330,4624;0,0765821
3331,4265;0,0766456
3332,3909;0,0767
3333,3550;0,0767444
3334,3193;0,0767763
3335,2834;0,0767922
3336,2478;0,0767889
3337,2119;0,076764
3338,1763;0,076715
3339,1404;0,0766398
3340,1047;0,0765377
3341,0688;0,0764123
3342,0332;0,0762727
3342,9973;0,0761319
3343,9617;0,076002
3344,9258;0,0758896
3345,8901;0,0757932
3346,8542;0,0757043
3347,8186;0,0756119
3348,7827;0,0755061
3349,7471;0,0753814
3350,7112;0,0752368
3351,6755;0,0750756
3352,6396;0,0749036
3353,6040;0,0747278
3354,5681;0,0745547
3355,5325;0,0743889
3356,4966;0,0742327
3357,4609;0,0740864
3358,4250;0,073949
3359,3894;0,0738189
3360,3535;0,0736936
3361,3179;0,0735692
3362,2820;0,0734402
3363,2463;0,0733017
3364,2104;0,0731507
3365,1748;0,0729884
3366,1389;0,0728194
3367,1033;0,0726499
3368,0674;0,0724838
3369,0317;0,0723218
3369,9958;0,0721618
3370,9602;0,0720015
3371,9243;0,0718406
3372,8887;0,0716809
3373,8528;0,0715239
3374,8171;0,0713695
3375,7813;0,0712154
3376,7456;0,0710588
3377,7097;0,0708996
3378,6741;0,0707405
3379,6382;0,0705849
3380,6025;0,0704333
3381,5667;0,0702819
3382,5310;0,0701256
3383,4951;0,0699631
3384,4595;0,0697998
3385,4236;0,0696463
3386,3879;0,0695107
3387,3521;0,0693921
3388,3164;0,0692793
3389,2805;0,0691567
3390,2449;0,0690138
3391,2090;0,0688516
3392,1733;0,0686823
3393,1375;0,0685209
3394,1018;0,0683762
3395,0659;0,0682455
3396,0303;0,0681178
3396,9944;0,06798
3397,9587;0,067824
3398,9229;0,067649
3399,8872;0,0674608
3400,8513;0,0672675
3401,8157;0,0670765
3402,7798;0,0668924
3403,7441;0,0667164
3404,7083;0,0665476
3405,6726;0,0663842
3406,6367;0,0662239
3407,6011;0,0660636
3408,5652;0,0658985
3409,5295;0,0657221
3410,4937;0,0655289
3411,4580;0,0653193
3412,4221;0,065102
3413,3865;0,0648907
3414,3506;0,0646964
3415,3149;0,0645186
3416,2791;0,0643428
3417,2434;0,0641476
3418,2075;0,063917
3419,1719;0,0636521
3420,1360;0,0633723
3421,1003;0,0631057
3422,0645;0,0628733
3423,0288;0,062678
3423,9929;0,0625063
3424,9573;0,0623378
3425,9214;0,0621563
3426,8857;0,0619559
3427,8499;0,061739
3428,8142;0,0615117
3429,7783;0,0612784
3430,7427;0,0610392
3431,7068;0,0607928
3432,6711;0,0605401
3433,6353;0,0602868
3434,5996;0,0600424
3435,5637;0,059815
3436,5281;0,0596067
3437,4922;0,059412
3438,4565;0,0592217
3439,4207;0,0590277
3440,3850;0,0588268
3441,3491;0,0586181
3442,3135;0,0583983
3443,2776;0,0581585
3444,2419;0,057888
3445,2061;0,0575846
3446,1704;0,0572621
3447,1345;0,0569485
3448,0989;0,0566716
3449,0630;0,0564426
3450,0273;0,05625
3450,9915;0,0560686
3451,9558;0,0558751
3452,9199;0,0556592
3453,8843;0,0554253
3454,8484;0,0551853
3455,8127;0,0549476
3456,7769;0,054712
3457,7412;0,0544717
3458,7053;0,0542207
3459,6697;0,0539588
3460,6338;0,0536922
3461,5981;0,0534289
3462,5623;0,0531736
3463,5266;0,0529256
3464,4907;0,052681
3465,4551;0,0524362
3466,4192;0,0521912
3467,3835;0,0519494
3468,3477;0,0517145
3469,3120;0,0514868
3470,2761;0,0512617
3471,2405;0,0510317
3472,2046;0,0507925
3473,1689;0,0505466
3474,1331;0,0503039
3475,0974;0,0500751
3476,0615;0,0498625
3477,0259;0,049656
3477,9900;0,0494371
3478,9543;0,0491902
3479,9185;0,0489133
3480,8828;0,0486221
3481,8469;0,0483403
3482,8113;0,0480851
3483,7754;0,0478556
3484,7397;0,0476361
3485,7039;0,0474083
3486,6682;0,0471644
3487,6323;0,046912
3488,5967;0,0466681
3489,5608;0,046446
3490,5251;0,0462458
3491,4893;0,0460529
3492,4536;0,0458473
3493,4177;0,0456161
3494,3821;0,0453632
3495,3462;0,0451092
3496,3105;0,0448797
3497,2747;0,0446881
3498,2390;0,0445239
3499,2031;0,0443559
3500,1675;0,044148
3501,1316;0,043881
3502,0959;0,043568
3503,0601;0,0432505
3504,0244;0,0429714
3504,9885;0,0427456
3505,9529;0,042552
3506,9170;0,0423513
3507,8813;0,0421123
3508,8455;0,0418311
3509,8098;0,0415335
3510,7739;0,0412566
3511,7383;0,0410241
3512,7024;0,0408337
3513,6667;0,0406658
3514,6309;0,0405002
3515,5952;0,0403287
3516,5593;0,0401559
3517,5237;0,0399893
3518,4878;0,0398295
3519,4521;0,039667
3520,4163;0,039488
3521,3806;0,0392849
3522,3447;0,0390613
3523,3091;0,0388269
3524,2732;0,038588
3525,2375;0,0383396
3526,2017;0,0380717
3527,1660;0,0377828
3528,1301;0,0374901
3529,0945;0,0372249
3530,0586;0,0370126
3531,0229;0,036855
3531,9871;0,0367258
3532,9514;0,036585
3533,9155;0,0363989
3534,8799;0,0361584
3535,8440;0,0358856
3536,8083;0,0356235
3537,7725;0,0354133
3538,7368;0,0352733
3539,7009;0,0351914
3540,6653;0,035131
3541,6294;0,0350431
3542,5938;0,0348813
3543,5579;0,0346218
3544,5222;0,0342822
3545,4863;0,0339234
3546,4507;0,0336166
3547,4148;0,0333976
3548,3792;0,0332474
3549,3433;0,0331106
3550,3076;0,0329307
3551,2717;0,0326834
3552,2361;0,0323914
3553,2002;0,0321104
3554,1646;0,0318896
3555,1287;0,031739
3556,0930;0,0316304
3557,0571;0,0315242
3558,0215;0,0314013
3558,9856;0,0312786
3559,9500;0,0311964
3560,9141;0,0311824
3561,8784;0,0312178
3562,8425;0,0312282
3563,8069;0,0311015
3564,7710;0,0307362
3565,7354;0,0301222
3566,6995;0,0294045
3567,6638;0,0288141
3568,6279;0,0284895
3569,5923;0,0283996
3570,5564;0,0284218
3571,5208;0,0284386
3572,4849;0,028382
3573,4492;0,0282406
3574,4133;0,028045
3575,3777;0,0278391
3576,3418;0,0276504
3577,3062;0,0274823
3578,2703;0,0273314
3579,2346;0,0272093
3580,1987;0,0271445
3581,1631;0,0271588
3582,1272;0,0272359
3583,0916;0,0273088
3584,0557;0,0272704
3585,0200;0,0270163
3585,9841;0,0265224
3586,9485;0,0259165
3587,9126;0,0254273
3588,8770;0,0252051
3589,8411;0,0252216
3590,8054;0,0253373
3591,7695;0,0254083
3592,7339;0,0253487
3593,6980;0,0251564
3594,6624;0,0249023
3595,6265;0,024672
3596,5908;0,024497
3597,5549;0,0243416
3598,5193;0,0241508
3599,4834;0,0239114
3600,4478;0,0236727
3601,4119;0,0235087
3602,3762;0,0234561
3603,3403;0,023484
3604,3047;0,0235137
3605,2688;0,0234608
3606,2332;0,0232774
3607,1973;0,0229786
3608,1616;0,0226334
3609,1257;0,0223164
3610,0901;0,022064
3611,0542;0,0218761
3612,0186;0,0217457
3612,9827;0,0216742
3613,9470;0,0216566
3614,9111;0,0216569
3615,8755;0,0216017
3616,8396;0,0214081
3617,8040;0,021041
3618,7681;0,0205742
3619,7324;0,020182
3620,6965;0,0200287
3621,6609;0,0201587
3622,6250;0,0204971
3623,5894;0,0209131
3624,5535;0,0212611
3625,5178;0,0213855
3626,4819;0,0211378
3627,4463;0,0204695
3628,4104;0,0195697
3629,3748;0,0188021
3630,3389;0,0183861
3631,3032;0,0182649
3632,2673;0,0182659
3633,2317;0,0182549
3634,1958;0,0181786
3635,1602;0,0180477
3636,1243;0,0179002
3637,0886;0,0177654
3638,0527;0,0176494
3639,0171;0,0175497
3639,9812;0,0174785
3640,9456;0,0174707
3641,9097;0,0175663
3642,8740;0,0177798
3643,8381;0,018077
3644,8025;0,0183644
3645,7666;0,0184839
3646,7310;0,0182322
3647,6951;0,0174896
3648,6594;0,0164612
3649,6235;0,0156397
3650,5879;0,0153167
3651,5520;0,0153813
3652,5164;0,0155726
3653,4805;0,0156803
3654,4448;0,0155952
3655,4089;0,0153238
3656,3733;0,0149806
3657,3374;0,0147135
3658,3018;0,0145959
3659,2659;0,0145961
3660,2302;0,0146408
3661,1943;0,0146893
3662,1587;0,0147586
3663,1228;0,014895
3664,0872;0,0151192
3665,0513;0,0153917
3666,0156;0,0156209
3666,9797;0,0157057
3667,9441;0,0156028
3668,9082;0,0153906
3669,8726;0,0152369
3670,8367;0,0152445
3671,8010;0,0153466
3672,7651;0,0153632
3673,7295;0,0151227
3674,6936;0,0145918
3675,6580;0,0139565
3676,6221;0,0134982
3677,5864;0,0133408
3678,5505;0,0134067
3679,5149;0,0135671
3680,4790;0,0137503
3681,4434;0,0139531
3682,4075;0,014203
3683,3718;0,0145118
3684,3359;0,014846
3685,3003;0,0151245
3686,2644;0,0152385
3687,2288;0,0150964
3688,1929;0,0147054
3689,1572;0,0142289
3690,1213;0,0138886
3691,0857;0,0137804
3692,0498;0,0138473
3693,0142;0,0139891
3693,9783;0,0141405
3694,9426;0,0142801
3695,9067;0,0144075
3696,8711;0,0145185
3697,8352;0,0145911
3698,7996;0,0145925
3699,7637;0,0145044
3700,7280;0,0143536
3701,6921;0,0142193
3702,6565;0,0141931
3703,6206;0,0143206
3704,5850;0,01458
3705,5491;0,0149031
3706,5134;0,0151998
3707,4775;0,015366
3708,4419;0,0152931
3709,4060;0,0149146
3710,3704;0,0142991
3711,3345;0,0136793
3712,2988;0,0132979
3713,2629;0,0132329
3714,2273;0,0134099
3715,1914;0,0137104
3716,1558;0,0140362
3717,1199;0,0143249
3718,0842;0,0145469
3719,0483;0,0147
3720,0127;0,0147982
3720,9768;0,0148547
3721,9412;0,0148702
3722,9053;0,0148402
3723,8696;0,0147767
3724,8337;0,0147229
3725,7981;0,0147372
3726,7622;0,0148589
3727,7266;0,0150854
3728,6907;0,0153784
3729,6550;0,0156788
3730,6191;0,0159146
3731,5835;0,0159986
3732,5476;0,0158378
3733,5120;0,0153878
3734,4761;0,0147468
3735,4404;0,0141675
3736,4045;0,0138872
3737,3689;0,0139615
3738,3330;0,0142877
3739,2974;0,0147103
3740,2615;0,0150786
3741,2258;0,0152615
3742,1899;0,0151738
3743,1543;0,0148536
3744,1184;0,0145138
3745,0828;0,0144036
3746,0469;0,014572
3747,0112;0,0148459
3747,9753;0,0149753
3748,9397;0,0147624
3749,9038;0,0141893
3750,8682;0,013516
3751,8323;0,0131088
3752,7966;0,0131026
3753,7607;0,0133616
3754,7251;0,0136753
3755,6892;0,0138816
3756,6536;0,0138981
3757,6177;0,0137383
3758,5820;0,013509
3759,5461;0,0133487
3760,5105;0,013335
3761,4746;0,0134531
3762,4390;0,013636
3763,4031;0,0138142
3764,3674;0,0139393
3765,3315;0,0139853
3766,2959;0,0139411
3767,2600;0,0138048
3768,2244;0,0135907
3769,1885;0,0133438
3770,1528;0,0131404
3771,1169;0,0130569
3772,0813;0,0131252
3773,0454;0,0133159
3774,0098;0,0135562
3774,9739;0,0137607
3775,9382;0,0138586
3776,9023;0,0138209
3777,8667;0,0136809
3778,8308;0,0135243
3779,7952;0,0134328
3780,7593;0,0134295
3781,7236;0,013477
3782,6877;0,013518
3783,6521;0,013513
3784,6162;0,0134569
3785,5806;0,013374
3786,5447;0,0133022
3787,5090;0,0132749
3788,4731;0,0133109
3789,4375;0,013411
3790,4016;0,0135594
3791,3660;0,0137289
3792,3301;0,0138922
3793,2944;0,0140359
3794,2585;0,0141694
3795,2229;0,0143156
3796,1870;0,0144836
3797,1514;0,0146414
3798,1155;0,0147174
3799,0798;0,0146411
3800,0439;0,0144073
3801,0083;0,0141137
3801,9724;0,0138973
3802,9368;0,0138116
3803,9009;0,0137873
3804,8652;0,0137075
3805,8293;0,0135112
3806,7937;0,0132579
3807,7578;0,0131006
3808,7222;0,0131619
3809,6863;0,0134393
3810,6506;0,0138281
3811,6147;0,0142002
3812,5791;0,0144578
3813,5432;0,0145668
3814,5076;0,0145743
3815,4717;0,0145786
3816,4360;0,0146374
3817,4001;0,014701
3818,3645;0,0146502
3819,3286;0,0144014
3820,2930;0,0139995
3821,2571;0,013614
3822,2214;0,0134061
3823,1855;0,0134063
3824,1499;0,013535
3825,1140;0,0136928
3826,0784;0,0138183
3827,0425;0,0138981
3828,0068;0,013953
3828,9709;0,0140147
3829,9353;0,0141083
3830,8994;0,0142459
3831,8638;0,0144271
3832,8279;0,0146369
3833,7922;0,0148382
3834,7563;0,0149709
3835,7207;0,0149666
3836,6848;0,0147844
3837,6492;0,0144518
3838,6133;0,0140659
3839,5776;0,0137314
3840,5417;0,013496
3841,5061;0,0133506
3842,4702;0,0132765
3843,4346;0,0132826
3844,3987;0,0134048
3845,3630;0,0136766
3846,3271;0,0140996
3847,2915;0,0146333
3848,2556;0,0151983
3849,2200;0,0156744
3850,1841;0,015888
3851,1484;0,0156297
3852,1125;0,0148094
3853,0769;0,0137272
3854,0410;0,012957
3855,0054;0,0127651
3855,9695;0,0129983
3856,9338;0,0134142
3857,8979;0,0138491
3858,8623;0,0142104
3859,8264;0,0144418
3860,7908;0,014516
3861,7549;0,0144515
3862,7192;0,0143266
3863,6833;0,0142463
3864,6477;0,0142723
3865,6118;0,0143847
3866,5762;0,0145072
3867,5403;0,0145546
3868,5046;0,0144723
3869,4688;0,0142617
3870,4331;0,0139856
3871,3972;0,0137395
3872,3616;0,0136022
3873,3257;0,0136026
3874,2900;0,0137206
3875,2542;0,0139061
3876,2185;0,014098
3877,1826;0,0142417
3878,1470;0,0143061
3879,1111;0,0142964
3880,0754;0,0142484
3881,0396;0,0141956
3882,0039;0,0141392
3882,9680;0,0140571
3883,9324;0,0139468
3884,8965;0,0138526
3885,8608;0,0138375
3886,8250;0,0139213
3887,7893;0,0140492
3888,7534;0,0141215
3889,7178;0,0140589
3890,6819;0,0138699
3891,6462;0,0136715
3892,6104;0,0136146
3893,5747;0,0137652
3894,5388;0,0140719
3895,5032;0,0144267
3896,4673;0,0147297
3897,4316;0,0149172
3898,3958;0,0149683
3899,3601;0,0148943
3900,3242;0,0147144
3901,2886;0,0144397
3902,2527;0,0140907
3903,2170;0,0137282
3904,1812;0,0134425
3905,1455;0,0132991
3906,1096;0,0132989
3907,0740;0,0133922
3908,0381;0,0135204
3909,0024;0,0136453
3909,9666;0,0137578
3910,9309;0,0138683
3911,8950;0,0139864
3912,8594;0,0141035
3913,8235;0,0141898
3914,7878;0,0142102
3915,7520;0,0141512
3916,7163;0,014042
3917,6804;0,0139449
3918,6448;0,0139126
3919,6089;0,0139501
3920,5732;0,0140163
3921,5374;0,014057
3922,5017;0,0140414
3923,4658;0,0139831
3924,4302;0,0139325
3925,3943;0,0139388
3926,3586;0,0140119
3927,3228;0,0141147
3928,2871;0,0141873
3929,2512;0,0141805
3930,2156;0,0140834
3931,1797;0,013933
3932,1440;0,0137943
3933,1082;0,0137206
3934,0725;0,0137275
3935,0366;0,0137987
3936,0010;0,0139057
3936,9651;0,0140207
3937,9294;0,0141185
3938,8936;0,0141765
3939,8579;0,0141799
3940,8220;0,0141316
3941,7864;0,0140586
3942,7505;0,0140008
3943,7148;0,0139864
3944,6790;0,0140133
3945,6433;0,0140517
3946,6074;0,0140647
3947,5718;0,0140324
3948,5359;0,0139646
3949,5002;0,0138939
3950,4644;0,013852
3951,4287;0,0138493
3952,3928;0,0138735
3953,3572;0,0139047
3954,3213;0,0139301
3955,2856;0,0139496
3956,2498;0,0139695
3957,2141;0,0139928
3958,1782;0,0140131
3959,1426;0,0140197
3960,1067;0,0140064
3961,0710;0,0139786
3962,0352;0,0139515
3962,9995;0,0139402
3963,9636;0,0139501
3964,9280;0,0139753
3965,8921;0,0140032
3966,8564;0,0140229
3967,8206;0,0140303
3968,7849;0,0140269
3969,7490;0,0140169
3970,7134;0,0140028
3971,6775;0,0139856
3972,6418;0,0139667
3973,6060;0,01395
3974,5703;0,013941
3975,5344;0,013944
3976,4988;0,0139586
3977,4629;0,0139802
3978,4272;0,0140012
3979,3914;0,0140151
3980,3557;0,0140182
3981,3198;0,014011
3982,2842;0,0139975
3983,2483;0,013984
3984,2126;0,0139763
3985,1768;0,0139776
3986,1411;0,013987
3987,1052;0,014
3988,0696;0,0140114
3989,0337;0,0140186
3989,9980;0,0140225
3990,9622;0,0140264
3991,9265;0,0140331
3992,8906;0,0140421
3993,8550;0,0140502
3994,8191;0,0140542
3995,7834;0,0140529
3996,7476;0,0140479
3997,7119;0,0140425
3998,6760;0,0140398
3999,6404;0,0140424
4000,6045;0,0140258

##### Extended Information
[Comments]
Sample name
Comment
Username
Division
Organization;UNIVERSIDAD INDUSTRIAL DE SANTANDER

[Detailed Information]
Creation date;29/01/2025 3:49 p.m.

Data array type;Linear data array
Horizontal axis;Wavenumber [cm-1]
Vertical axis;Abs
Start;399,193 cm-1
End;4000,6 cm-1
Data interval;0,964233 cm-1
Data points;3736    

[Measurement Information]
Model name;FT/IR-4X1typeA
Serial No.;A035162111

Accessory;ATR PRO 4X
Accessory S/N;A021162126
Incident angle;45 deg

Measurement date;29/01/2025 3:49 p.m.

Light source;Standard
Detector;TGS
Accumulation;Auto (75)
Resolution;4 cm-1
Zero filling;On
Apodization;Cosine
Gain;Auto (8)
Aperture;Auto (7 mm)
Scan speed;Auto (2 mm/sec)
Filter;Auto (12800 Hz)

