TITLE;
DATA TYPE;INFRARED SPECTRUM
ORIGIN;JASCO
OWNER;
DATE;25/02/05
TIME;11:48:35
SPECTROMETER/DATA SYSTEM;
LOCALE;9226
RESOLUTION;
DELTAX;0,964233
XUNITS;1/CM
YUNITS;ABSORBANCE
FIRSTX;  399,1927
LASTX; 4000,6047
NPOINTS;    3736
FIRSTY;     0,13409
MAXY;     0,20016
MINY;    -0,01335
XYDATA
399,1927;0,134086
400,1569;0,131503
401,1211;0,129566
402,0854;0,128304
403,0496;0,127493
404,0138;0,126935
404,9781;0,126556
405,9423;0,126396
406,9065;0,126504
407,8708;0,126819
408,8350;0,127138
409,7992;0,127208
410,7635;0,126926
411,7277;0,126473
412,6919;0,126273
413,6562;0,126775
414,6204;0,128242
415,5846;0,130673
416,5489;0,133746
417,5131;0,136702
418,4773;0,138464
419,4416;0,138441
420,4058;0,137225
421,3700;0,135916
422,3343;0,135133
423,2985;0,134937
424,2627;0,135149
425,2270;0,135568
426,1912;0,136045
427,1554;0,136485
428,1197;0,136817
429,0839;0,136987
430,0481;0,13699
431,0124;0,136892
431,9766;0,136813
432,9408;0,136849
433,9051;0,137001
434,8693;0,13717
435,8335;0,137236
436,7978;0,137166
437,7620;0,137046
438,7262;0,137018
439,6905;0,137173
440,6547;0,137496
441,6189;0,137862
442,5832;0,138102
443,5474;0,138078
444,5116;0,137745
445,4759;0,137145
446,4401;0,136367
447,4043;0,135511
448,3686;0,134678
449,3328;0,133973
450,2970;0,133488
451,2613;0,133281
452,2255;0,133361
453,1897;0,133689
454,1540;0,134193
455,1182;0,134761
456,0824;0,135235
457,0467;0,135421
458,0109;0,135181
458,9751;0,134542
459,9394;0,133706
460,9036;0,132913
461,8678;0,13232
462,8321;0,131966
463,7963;0,131818
464,7605;0,131813
465,7248;0,131897
466,6890;0,132039
467,6532;0,13222
468,6175;0,132429
469,5817;0,132646
470,5459;0,13285
471,5102;0,133008
472,4744;0,13308
473,4386;0,13302
474,4029;0,132794
475,3671;0,132406
476,3313;0,131911
477,2956;0,131407
478,2598;0,131006
479,2240;0,130802
480,1883;0,130833
481,1525;0,13107
482,1167;0,131439
483,0810;0,131854
484,0452;0,132253
485,0094;0,132607
485,9737;0,13293
486,9379;0,133258
487,9021;0,133634
488,8664;0,134084
489,8306;0,134598
490,7948;0,135116
491,7591;0,135545
492,7233;0,135796
493,6875;0,135839
494,6518;0,135718
495,6160;0,135538
496,5802;0,135418
497,5445;0,135444
498,5087;0,135656
499,4729;0,136035
500,4372;0,136518
501,4014;0,13701
502,3656;0,137415
503,3299;0,137669
504,2941;0,137769
505,2583;0,13776
506,2226;0,13771
507,1868;0,137674
508,1510;0,137679
509,1153;0,137729
510,0795;0,137828
511,0437;0,138003
512,0080;0,138312
512,9722;0,138821
513,9365;0,139567
514,9007;0,140514
515,8649;0,141539
516,8292;0,142451
517,7934;0,143074
518,7576;0,143341
519,7219;0,143331
520,6861;0,143209
521,6503;0,143116
522,6146;0,143107
523,5788;0,143156
524,5430;0,143195
525,5073;0,143171
526,4715;0,143077
527,4357;0,142946
528,4000;0,142809
529,3642;0,142662
530,3284;0,142475
531,2927;0,142221
532,2569;0,141908
533,2211;0,141579
534,1854;0,14129
535,1496;0,141071
536,1138;0,140918
537,0781;0,140804
538,0423;0,140704
539,0065;0,14062
539,9708;0,140571
540,9350;0,140585
541,8992;0,140674
542,8635;0,140834
543,8277;0,141048
544,7919;0,141295
545,7562;0,141553
546,7204;0,141803
547,6846;0,142032
548,6489;0,142234
549,6131;0,142412
550,5773;0,14258
551,5416;0,142763
552,5058;0,142993
553,4700;0,143295
554,4343;0,143673
555,3985;0,144093
556,3627;0,144478
557,3270;0,144725
558,2912;0,144743
559,2554;0,144482
560,2197;0,143958
561,1839;0,143244
562,1481;0,142439
563,1124;0,141639
564,0766;0,140899
565,0408;0,140228
566,0051;0,139602
566,9693;0,138987
567,9335;0,138372
568,8978;0,137778
569,8620;0,137258
570,8262;0,136865
571,7905;0,136632
572,7547;0,136558
573,7189;0,136614
574,6832;0,136754
575,6474;0,136928
576,6116;0,137092
577,5759;0,137215
578,5401;0,137272
579,5043;0,137252
580,4686;0,137157
581,4328;0,137007
582,3970;0,13683
583,3613;0,136661
584,3255;0,136525
585,2897;0,136439
586,2540;0,136416
587,2182;0,13647
588,1824;0,13661
589,1467;0,13683
590,1109;0,137089
591,0751;0,137317
592,0394;0,137436
593,0036;0,1374
593,9678;0,137222
594,9321;0,136961
595,8963;0,13668
596,8605;0,136413
597,8248;0,136152
598,7890;0,135864
599,7532;0,135525
600,7175;0,135143
601,6817;0,134758
602,6459;0,134414
603,6102;0,134134
604,5744;0,133909
605,5386;0,133709
606,5029;0,133494
607,4671;0,133218
608,4313;0,132838
609,3956;0,132327
610,3598;0,131708
611,3240;0,131067
612,2883;0,130545
613,2525;0,130278
614,2167;0,130303
615,1810;0,130505
616,1452;0,130619
617,1094;0,130344
618,0737;0,129499
619,0379;0,128136
620,0021;0,126499
620,9664;0,124879
621,9306;0,123484
622,8948;0,122382
623,8591;0,121526
624,8233;0,120758
625,7875;0,120114
626,7518;0,119553
627,7160;0,119066
628,6802;0,118642
629,6445;0,118275
630,6087;0,117954
631,5729;0,117677
632,5372;0,117443
633,5014;0,117241
634,4656;0,117051
635,4299;0,116852
636,3941;0,116639
637,3583;0,116432
638,3226;0,116263
639,2868;0,116152
640,2510;0,116091
641,2153;0,116043
642,1795;0,115971
643,1437;0,115865
644,1080;0,115754
645,0722;0,115688
646,0364;0,115703
647,0007;0,115797
647,9649;0,115917
648,9291;0,115984
649,8934;0,115936
650,8576;0,115758
651,8218;0,115498
652,7861;0,115243
653,7503;0,115075
654,7145;0,115039
655,6788;0,115109
656,6430;0,115208
657,6072;0,115258
658,5715;0,115218
659,5357;0,1151
660,4999;0,11491
661,4642;0,114593
662,4284;0,113993
663,3926;0,112913
664,3569;0,111279
665,3211;0,109384
666,2853;0,108009
667,2496;0,108009
668,2138;0,109186
669,1780;0,110228
670,1423;0,110542
671,1065;0,110384
672,0707;0,109832
673,0350;0,108821
673,9992;0,107453
674,9634;0,10599
675,9277;0,104658
676,8919;0,103514
677,8561;0,102464
678,8204;0,101383
679,7846;0,100222
680,7488;0,0990115
681,7131;0,0978269
682,6773;0,0967265
683,6415;0,0957417
684,6058;0,0948818
685,5700;0,0941457
686,5342;0,0935205
687,4985;0,0929753
688,4627;0,0924779
689,4269;0,0919835
690,3912;0,0914732
691,3554;0,0909532
692,3196;0,0904373
693,2839;0,0899287
694,2481;0,0894169
695,2123;0,0888888
696,1766;0,0883421
697,1408;0,0877899
698,1050;0,0872535
699,0693;0,0867506
700,0335;0,0862872
700,9977;0,0858565
701,9620;0,0854428
702,9262;0,0850259
703,8904;0,084565
704,8547;0,0840551
705,8189;0,0835025
706,7831;0,0829293
707,7474;0,0823655
708,7116;0,0818363
709,6758;0,0813476
710,6401;0,0808783
711,6043;0,0803898
712,5685;0,0798512
713,5328;0,0792712
714,4970;0,0787092
715,4612;0,0769872
716,4255;0,076966
717,3897;0,0771908
718,3539;0,0774587
719,3182;0,0774683
720,2824;0,076969
721,2466;0,0759123
722,2109;0,0744845
723,1751;0,0729943
724,1393;0,0717071
725,1036;0,0707409
726,0678;0,0700607
727,0320;0,0695426
727,9963;0,0690573
728,9605;0,0685299
729,9247;0,0679525
730,8890;0,067359
731,8532;0,066791
732,8174;0,0662744
733,7817;0,0658145
734,7459;0,0654018
735,7101;0,0650218
736,6744;0,0646643
737,6386;0,0643268
738,6028;0,0640108
739,5671;0,0637133
740,5313;0,0634184
741,4955;0,0630979
742,4598;0,0627238
743,4240;0,0622833
744,3882;0,0617886
745,3525;0,0612704
746,3167;0,0607625
747,2809;0,0602861
748,2452;0,0598445
749,2094;0,0594293
750,1736;0,0590309
751,1379;0,058644
752,1021;0,0582676
753,0663;0,0579006
754,0306;0,0575387
754,9948;0,0571758
755,9590;0,0568073
756,9233;0,0564318
757,8875;0,0560512
758,8517;0,0556702
759,8160;0,0552943
760,7802;0,05493
761,7444;0,0545839
762,7087;0,0542618
763,6729;0,0539684
764,6371;0,0537058
765,6014;0,0534729
766,5656;0,053263
767,5298;0,0530627
768,4941;0,0528526
769,4583;0,0526134
770,4225;0,0523346
771,3868;0,0520207
772,3510;0,0516917
773,3152;0,0513747
774,2795;0,0510932
775,2437;0,0508584
776,2079;0,0506678
777,1722;0,0505093
778,1364;0,0503654
779,1006;0,0502161
780,0649;0,0500409
781,0291;0,0498226
781,9933;0,0495532
782,9576;0,0492401
783,9218;0,0489048
784,8860;0,0485746
785,8503;0,0482701
786,8145;0,0479963
787,7787;0,0477436
788,7430;0,0474979
789,7072;0,0472524
790,6714;0,047014
791,6357;0,0467996
792,5999;0,0466251
793,5641;0,0464948
794,5284;0,0463966
795,4926;0,0463055
796,4568;0,0461948
797,4211;0,0460475
798,3853;0,0458643
799,3495;0,0456632
800,3138;0,0454712
801,2780;0,045312
802,2422;0,0451948
803,2065;0,0451094
804,1707;0,0450303
805,1349;0,0449285
806,0992;0,0447837
807,0634;0,0445937
808,0276;0,0443738
808,9919;0,0441488
809,9561;0,0439407
810,9203;0,0437597
811,8846;0,0436027
812,8488;0,0434587
813,8130;0,0433167
814,7773;0,0431712
815,7415;0,0430231
816,7057;0,042876
817,6700;0,0427334
818,6342;0,0425968
819,5984;0,042467
820,5627;0,0423447
821,5269;0,0422303
822,4911;0,0421237
823,4554;0,0420245
824,4196;0,0419326
825,3839;0,0418487
826,3481;0,0417723
827,3123;0,0416989
828,2766;0,0416186
829,2408;0,0415195
830,2050;0,0413933
831,1693;0,0412408
832,1335;0,0410707
833,0977;0,0408941
834,0620;0,0407174
835,0262;0,0405404
835,9904;0,040359
836,9547;0,0401714
837,9189;0,0399814
838,8831;0,039796
839,8474;0,03962
840,8116;0,0394522
841,7758;0,0392871
842,7401;0,0391203
843,7043;0,0389538
844,6685;0,0387965
845,6328;0,0386596
846,5970;0,0385511
847,5612;0,038472
848,5255;0,038417
849,4897;0,0383778
850,4539;0,0383467
851,4182;0,0383178
852,3824;0,0382873
853,3466;0,0382529
854,3109;0,0382143
855,2751;0,0381738
856,2393;0,0381374
857,2036;0,0381122
858,1678;0,038105
859,1320;0,0381189
860,0963;0,0381532
861,0605;0,0382043
862,0247;0,0382684
862,9890;0,0383438
863,9532;0,0384317
864,9174;0,038536
865,8817;0,0386614
866,8459;0,0388123
867,8101;0,0389916
868,7744;0,0391998
869,7386;0,0394334
870,7028;0,0396842
871,6671;0,0399387
872,6313;0,0401812
873,5955;0,0403963
874,5598;0,0405728
875,5240;0,0407055
876,4882;0,0407953
877,4525;0,0408499
878,4167;0,0408844
879,3809;0,0409222
880,3452;0,040993
881,3094;0,0411276
882,2736;0,0413495
883,2379;0,0416686
884,2021;0,0420811
885,1663;0,0425758
886,1306;0,0431422
887,0948;0,0437764
888,0590;0,0444786
889,0233;0,0452459
889,9875;0,046064
890,9517;0,0469057
891,9160;0,0477355
892,8802;0,0485172
893,8444;0,0492193
894,8087;0,0498157
895,7729;0,0502816
896,7371;0,0505922
897,7014;0,0507253
898,6656;0,0506684
899,6298;0,0504259
900,5941;0,0500208
901,5583;0,0494905
902,5225;0,0488769
903,4868;0,0482183
904,4510;0,0475452
905,4152;0,046882
906,3795;0,046251
907,3437;0,045674
908,3079;0,0451691
909,2722;0,044746
910,2364;0,0444022
911,2007;0,0441257
912,1649;0,0439035
913,1292;0,0437293
914,0934;0,0436058
915,0576;0,043539
916,0219;0,0435285
916,9861;0,0435632
917,9503;0,0436246
918,9146;0,0436981
919,8788;0,0437827
920,8430;0,0438911
921,8073;0,0440397
922,7715;0,0442346
923,7357;0,0444638
924,7000;0,0447012
925,6642;0,0449202
926,6284;0,0451075
927,5927;0,0452683
928,5569;0,0454212
929,5211;0,045586
930,4854;0,0457737
931,4496;0,0459844
932,4138;0,0462115
933,3781;0,0464506
934,3423;0,0467037
935,3065;0,0469797
936,2708;0,0472883
937,2350;0,0476348
938,1992;0,0480179
939,1635;0,0484319
940,1277;0,0488731
941,0919;0,0493442
942,0562;0,0498566
943,0204;0,0504267
943,9846;0,0510703
944,9489;0,0517967
945,9131;0,0526046
946,8773;0,0534828
947,8416;0,0544132
948,8058;0,0553773
949,7700;0,0563644
950,7343;0,0573772
951,6985;0,0584324
952,6627;0,0595548
953,6270;0,0607656
954,5912;0,0620722
955,5554;0,0634638
956,5197;0,0649171
957,4839;0,0664068
958,4481;0,0679153
959,4124;0,0694353
960,3766;0,0709649
961,3408;0,0724997
962,3051;0,0740302
963,2693;0,0755457
964,2335;0,0770419
965,1978;0,0785262
966,1620;0,0800164
967,1262;0,0815334
968,0905;0,0830947
969,0547;0,084712
970,0189;0,0863967
970,9832;0,0881669
971,9474;0,0900499
972,9116;0,09208
973,8759;0,0942891
974,8401;0,0966998
975,8043;0,0993211
976,7686;0,10215
977,7328;0,105172
978,6970;0,10836
979,6613;0,11167
980,6255;0,115032
981,5897;0,118357
982,5540;0,121542
983,5182;0,124498
984,4824;0,12716
985,4467;0,129507
986,4109;0,131557
987,3751;0,133356
988,3394;0,134959
989,3036;0,136412
990,2678;0,137749
991,2321;0,138984
992,1963;0,140121
993,1605;0,141168
994,1248;0,142141
995,0890;0,143068
996,0532;0,143983
997,0175;0,144916
997,9817;0,145881
998,9459;0,146872
999,9102;0,14787
1000,8744;0,148854
1001,8386;0,149816
1002,8029;0,150768
1003,7671;0,151748
1004,7313;0,152803
1005,6956;0,153982
1006,6598;0,155326
1007,6240;0,156864
1008,5883;0,158609
1009,5525;0,160562
1010,5167;0,162709
1011,4810;0,16502
1012,4452;0,167451
1013,4094;0,169941
1014,3737;0,17243
1015,3379;0,174858
1016,3021;0,177183
1017,2664;0,179382
1018,2306;0,181449
1019,1948;0,183391
1020,1591;0,185221
1021,1233;0,186954
1022,0875;0,188602
1023,0518;0,190178
1024,0160;0,191695
1024,9802;0,193163
1025,9445;0,194584
1026,9087;0,195947
1027,8729;0,197221
1028,8372;0,198354
1029,8014;0,199275
1030,7656;0,199904
1031,7299;0,20016
1032,6941;0,199984
1033,6583;0,199345
1034,6226;0,198259
1035,5868;0,196794
1036,5510;0,195062
1037,5153;0,193212
1038,4795;0,191403
1039,4437;0,189776
1040,4080;0,188433
1041,3722;0,18742
1042,3364;0,186724
1043,3007;0,186285
1044,2649;0,186013
1045,2291;0,185811
1046,1934;0,185596
1047,1576;0,185304
1048,1218;0,184897
1049,0861;0,184352
1050,0503;0,183649
1051,0145;0,182768
1051,9788;0,181685
1052,9430;0,180385
1053,9072;0,178866
1054,8715;0,177141
1055,8357;0,175227
1056,7999;0,173122
1057,7642;0,170803
1058,7284;0,168225
1059,6926;0,165354
1060,6569;0,16219
1061,6211;0,15879
1062,5853;0,155265
1063,5496;0,151753
1064,5138;0,148381
1065,4780;0,145239
1066,4423;0,142365
1067,4065;0,139752
1068,3707;0,13737
1069,3350;0,135177
1070,2992;0,133133
1071,2634;0,131201
1072,2277;0,129346
1073,1919;0,127528
1074,1561;0,125706
1075,1204;0,123847
1076,0846;0,121935
1077,0488;0,11998
1078,0131;0,118018
1078,9773;0,116104
1079,9415;0,1143
1080,9058;0,112656
1081,8700;0,111203
1082,8342;0,109946
1083,7985;0,10887
1084,7627;0,107949
1085,7269;0,107149
1086,6912;0,106442
1087,6554;0,105805
1088,6196;0,105229
1089,5839;0,104717
1090,5481;0,104279
1091,5123;0,103933
1092,4766;0,103688
1093,4408;0,103541
1094,4050;0,103478
1095,3693;0,103481
1096,3335;0,103533
1097,2977;0,103629
1098,2620;0,103766
1099,2262;0,103942
1100,1904;0,104141
1101,1547;0,104333
1102,1189;0,10448
1103,0831;0,104549
1104,0474;0,104515
1105,0116;0,10437
1105,9758;0,104112
1106,9401;0,103743
1107,9043;0,103264
1108,8685;0,102668
1109,8328;0,101944
1110,7970;0,101074
1111,7612;0,100042
1112,7255;0,0988401
1113,6897;0,0974855
1114,6539;0,0960239
1115,6182;0,0945261
1116,5824;0,0930702
1117,5466;0,0917182
1118,5109;0,0904974
1119,4751;0,089394
1120,4393;0,0883599
1121,4036;0,0873282
1122,3678;0,086229
1123,3320;0,0850028
1124,2963;0,0836084
1125,2605;0,0820285
1126,2247;0,0802727
1127,1890;0,0783753
1128,1532;0,0763877
1129,1174;0,0743662
1130,0817;0,0723599
1131,0459;0,0704043
1132,0101;0,0685226
1132,9744;0,0667335
1133,9386;0,0650589
1134,9028;0,0635274
1135,8671;0,0621715
1136,8313;0,0610201
1137,7955;0,0600912
1138,7598;0,0593889
1139,7240;0,0589044
1140,6882;0,05862
1141,6525;0,0585136
1142,6167;0,0585615
1143,5809;0,058741
1144,5452;0,0590311
1145,5094;0,0594142
1146,4736;0,0598765
1147,4379;0,0604085
1148,4021;0,0610026
1149,3663;0,061651
1150,3306;0,0623426
1151,2948;0,063062
1152,2590;0,0637886
1153,2233;0,0644973
1154,1875;0,0651594
1155,1517;0,0657421
1156,1160;0,0662078
1157,0802;0,0665123
1158,0444;0,0666042
1159,0087;0,0664262
1159,9729;0,06592
1160,9371;0,0650355
1161,9014;0,0637426
1162,8656;0,0620419
1163,8298;0,0599712
1164,7941;0,0576031
1165,7583;0,055036
1166,7225;0,0523791
1167,6868;0,0497368
1168,6510;0,0471956
1169,6152;0,0448158
1170,5795;0,0426302
1171,5437;0,0406487
1172,5079;0,0388663
1173,4722;0,0372729
1174,4364;0,0358581
1175,4006;0,0346135
1176,3649;0,03353
1177,3291;0,0325952
1178,2933;0,0317933
1179,2576;0,0311079
1180,2218;0,0305252
1181,1860;0,030037
1182,1503;0,0296389
1183,1145;0,0293277
1184,0787;0,0290983
1185,0430;0,0289439
1186,0072;0,0288588
1186,9714;0,0288411
1187,9357;0,0288938
1188,8999;0,0290235
1189,8641;0,0292366
1190,8284;0,0295367
1191,7926;0,0299228
1192,7568;0,0303904
1193,7211;0,0309314
1194,6853;0,0315342
1195,6495;0,032183
1196,6138;0,032858
1197,5780;0,0335374
1198,5422;0,0342019
1199,5065;0,0345394
1200,4707;0,0351802
1201,4349;0,0357953
1202,3992;0,0363904
1203,3634;0,0369709
1204,3276;0,0375393
1205,2919;0,0380954
1206,2561;0,0386403
1207,2203;0,03918
1208,1846;0,0397273
1209,1488;0,0403009
1210,1130;0,0409203
1211,0773;0,0416002
1212,0415;0,0423464
1213,0057;0,0431552
1213,9700;0,0440165
1214,9342;0,0449177
1215,8984;0,0458481
1216,8627;0,046797
1217,8269;0,0477524
1218,7911;0,0487035
1219,7554;0,0496389
1220,7196;0,0505474
1221,6838;0,0514195
1222,6481;0,0522486
1223,6123;0,0530319
1224,5765;0,05377
1225,5408;0,054467
1226,5050;0,0551289
1227,4692;0,0557605
1228,4335;0,0563633
1229,3977;0,0569334
1230,3619;0,0574624
1231,3262;0,0579399
1232,2904;0,0583575
1233,2546;0,0587115
1234,2189;0,0590038
1235,1831;0,0592412
1236,1473;0,0594329
1237,1116;0,0595881
1238,0758;0,0597139
1239,0400;0,0598131
1240,0043;0,0598843
1240,9685;0,0599208
1241,9327;0,0599129
1242,8970;0,0598501
1243,8612;0,059723
1244,8254;0,0595258
1245,7897;0,0592571
1246,7539;0,0589213
1247,7181;0,0585281
1248,6824;0,058092
1249,6466;0,0576291
1250,6108;0,0571535
1251,5751;0,056675
1252,5393;0,0561987
1253,5035;0,0557268
1254,4678;0,0552593
1255,4320;0,0547938
1256,3962;0,0543226
1257,3605;0,0538327
1258,3247;0,0533086
1259,2889;0,052739
1260,2532;0,0521233
1261,2174;0,051472
1262,1816;0,0508013
1263,1459;0,0501244
1264,1101;0,0494457
1265,0743;0,0487615
1266,0386;0,0480636
1267,0028;0,0473438
1267,9670;0,0465954
1268,9313;0,0458126
1269,8955;0,0449911
1270,8597;0,0441306
1271,8240;0,0432381
1272,7882;0,0423301
1273,7524;0,0414298
1274,7167;0,0405623
1275,6809;0,0397483
1276,6451;0,0389992
1277,6094;0,0383152
1278,5736;0,0376855
1279,5378;0,0370937
1280,5021;0,0365246
1281,4663;0,0359709
1282,4305;0,035436
1283,3948;0,0349305
1284,3590;0,0344655
1285,3232;0,0340456
1286,2875;0,0336672
1287,2517;0,0333213
1288,2159;0,0330004
1289,1802;0,0327045
1290,1444;0,0324425
1291,1086;0,0322285
1292,0729;0,0320761
1293,0371;0,0319934
1294,0013;0,0319817
1294,9656;0,032036
1295,9298;0,0321483
1296,8940;0,0323108
1297,8583;0,0325191
1298,8225;0,0327734
1299,7867;0,0330777
1300,7510;0,0334362
1301,7152;0,0338536
1302,6794;0,034328
1303,6437;0,0348512
1304,6079;0,0354139
1305,5721;0,0360085
1306,5364;0,0366318
1307,5006;0,0372859
1308,4648;0,0379742
1309,4291;0,0386942
1310,3933;0,0394334
1311,3575;0,0401678
1312,3218;0,0408677
1313,2860;0,0415054
1314,2502;0,0420601
1315,2145;0,0425133
1316,1787;0,0428417
1317,1429;0,043015
1318,1072;0,043008
1319,0714;0,0428217
1320,0356;0,0424967
1320,9999;0,0421028
1321,9641;0,0417109
1322,9283;0,0413672
1323,8926;0,0410874
1324,8568;0,0408659
1325,8210;0,0406898
1326,7853;0,0405491
1327,7495;0,0404362
1328,7137;0,0403429
1329,6780;0,0402563
1330,6422;0,0401635
1331,6064;0,0400616
1332,5707;0,0399615
1333,5349;0,0398882
1334,4991;0,0398628
1335,4634;0,0398814
1336,4276;0,0398946
1337,3918;0,0398003
1338,3561;0,0394761
1339,3203;0,038861
1340,2845;0,0380273
1341,2488;0,0371469
1342,2130;0,0363793
1343,1772;0,0357989
1344,1415;0,0354028
1345,1057;0,0351533
1346,0699;0,0350099
1347,0342;0,0349435
1347,9984;0,0349433
1348,9626;0,0350149
1349,9269;0,0351704
1350,8911;0,0354153
1351,8553;0,035741
1352,8196;0,0361267
1353,7838;0,0365503
1354,7480;0,0370007
1355,7123;0,0374835
1356,6765;0,0380146
1357,6407;0,0386065
1358,6050;0,039259
1359,5692;0,0399522
1360,5334;0,0406352
1361,4977;0,0412261
1362,4619;0,0416608
1363,4261;0,0419601
1364,3904;0,0422167
1365,3546;0,0425097
1366,3188;0,0428541
1367,2831;0,0432183
1368,2473;0,0435597
1369,2115;0,0438463
1370,1758;0,0440591
1371,1400;0,0441819
1372,1042;0,0441861
1373,0685;0,0440288
1374,0327;0,0436794
1374,9969;0,0431591
1375,9612;0,0425379
1376,9254;0,0418706
1377,8896;0,0411502
1378,8539;0,0403368
1379,8181;0,0394206
1380,7823;0,038454
1381,7466;0,0375224
1382,7108;0,0366802
1383,6750;0,035913
1384,6393;0,0351533
1385,6035;0,0343294
1386,5677;0,033427
1387,5320;0,0325354
1388,4962;0,0318073
1389,4604;0,0313313
1390,4247;0,0310715
1391,3889;0,030936
1392,3531;0,0308674
1393,3174;0,0308598
1394,2816;0,03091
1395,2458;0,0309689
1396,2101;0,0309543
1397,1743;0,0308158
1398,1385;0,030583
1399,1028;0,0303514
1400,0670;0,0302196
1401,0313;0,0302288
1401,9955;0,0303505
1402,9597;0,0305195
1403,9240;0,0306824
1404,8882;0,0308321
1405,8524;0,0310128
1406,8167;0,0312821
1407,7809;0,0316596
1408,7451;0,0321153
1409,7094;0,0326094
1410,6736;0,0331341
1411,6378;0,0337165
1412,6021;0,0343786
1413,5663;0,035095
1414,5305;0,0357914
1415,4948;0,0363858
1416,4590;0,0368221
1417,4232;0,0370708
1418,3875;0,0371547
1419,3517;0,0372118
1420,3159;0,0374237
1421,2802;0,0378172
1422,2444;0,0382316
1423,2086;0,0384733
1424,1729;0,0384497
1425,1371;0,0381904
1426,1013;0,0377837
1427,0656;0,0372994
1428,0298;0,0367602
1428,9940;0,0361679
1429,9583;0,0355439
1430,9225;0,0349263
1431,8867;0,0343132
1432,8510;0,0336277
1433,8152;0,0327597
1434,7794;0,031647
1435,7437;0,0303528
1436,7079;0,0291214
1437,6721;0,0282889
1438,6364;0,0280116
1439,6006;0,0281398
1440,5648;0,0283988
1441,5291;0,0286048
1442,4933;0,0287266
1443,4575;0,0288276
1444,4218;0,0289751
1445,3860;0,0291828
1446,3502;0,029418
1447,3145;0,0296562
1448,2787;0,0299299
1449,2429;0,0303123
1450,2072;0,030832
1451,1714;0,0314071
1452,1356;0,0318807
1453,0999;0,0321263
1454,0641;0,0321335
1455,0283;0,0319812
1455,9926;0,0316484
1456,9568;0,0309659
1457,9210;0,0301496
1458,8853;0,0298099
1459,8495;0,0300596
1460,8137;0,0304845
1461,7780;0,0306731
1462,7422;0,0304382
1463,7064;0,0297909
1464,6707;0,0288887
1465,6349;0,0279888
1466,5991;0,0272932
1467,5634;0,0267818
1468,5276;0,0262683
1469,4918;0,0255831
1470,4561;0,0246591
1471,4203;0,0234698
1472,3845;0,021958
1473,3488;0,0201736
1474,3130;0,0184338
1475,2772;0,0170705
1476,2415;0,0161418
1477,2057;0,015514
1478,1699;0,0150434
1479,1342;0,0146442
1480,0984;0,0142819
1481,0626;0,013959
1482,0269;0,0137065
1482,9911;0,013568
1483,9553;0,0135764
1484,9196;0,0137426
1485,8838;0,0140611
1486,8480;0,0144892
1487,8123;0,0148774
1488,7765;0,014985
1489,7407;0,0147456
1490,7050;0,0144302
1491,6692;0,014327
1492,6334;0,0144713
1493,5977;0,0147584
1494,5619;0,0151257
1495,5261;0,0155924
1496,4904;0,0161833
1497,4546;0,0168784
1498,4188;0,0176778
1499,3831;0,0186018
1500,3473;0,0195574
1501,3115;0,0203285
1502,2758;0,0207278
1503,2400;0,0207571
1504,2042;0,020697
1505,1685;0,0210108
1506,1327;0,0218041
1507,0969;0,0223008
1508,0612;0,0219586
1509,0254;0,0213596
1509,9896;0,0209624
1510,9539;0,0206874
1511,9181;0,0203738
1512,8823;0,0199887
1513,8466;0,0195836
1514,8108;0,0191894
1515,7750;0,0187592
1516,7393;0,0182056
1517,7035;0,0174832
1518,6677;0,0166294
1519,6320;0,0157416
1520,5962;0,0149327
1521,5604;0,0142956
1522,5247;0,0138704
1523,4889;0,0136098
1524,4531;0,0134035
1525,4174;0,0131671
1526,3816;0,0129096
1527,3458;0,0127059
1528,3101;0,0126078
1529,2743;0,0126006
1530,2385;0,0126499
1531,2028;0,0127637
1532,1670;0,0129853
1533,1312;0,013326
1534,0955;0,0137263
1535,0597;0,014073
1536,0239;0,0142512
1536,9882;0,0142512
1537,9524;0,0142772
1538,9166;0,0146736
1539,8809;0,0154443
1540,8451;0,0158737
1541,8093;0,0155129
1542,7736;0,014863
1543,7378;0,014366
1544,7020;0,0140557
1545,6663;0,0138833
1546,6305;0,0138424
1547,5947;0,0139184
1548,5590;0,0140537
1549,5232;0,0141794
1550,4874;0,0142693
1551,4517;0,014355
1552,4159;0,0144751
1553,3801;0,0146018
1554,3444;0,0146309
1555,3086;0,0144606
1556,2728;0,0140526
1557,2371;0,0133272
1558,2013;0,0120761
1559,1655;0,0106904
1560,1298;0,0103482
1561,0940;0,0113245
1562,0582;0,0128858
1563,0225;0,0143314
1563,9867;0,0153456
1564,9509;0,0159052
1565,9152;0,0161378
1566,8794;0,0162162
1567,8436;0,0162871
1568,8079;0,0164443
1569,7721;0,0167442
1570,7363;0,0171915
1571,7006;0,0177026
1572,6648;0,0181529
1573,6290;0,0184824
1574,5933;0,0187342
1575,5575;0,0189849
1576,5217;0,0192948
1577,4860;0,0197584
1578,4502;0,020442
1579,4144;0,0212617
1580,3787;0,0220612
1581,3429;0,0227552
1582,3071;0,0233626
1583,2714;0,0239555
1584,2356;0,0245961
1585,1998;0,0253063
1586,1641;0,026071
1587,1283;0,0268575
1588,0925;0,0276311
1589,0568;0,0283614
1590,0210;0,029022
1590,9852;0,029589
1591,9495;0,0300358
1592,9137;0,0303318
1593,8779;0,0304508
1594,8422;0,0303915
1595,8064;0,0301924
1596,7706;0,029923
1597,7349;0,0296535
1598,6991;0,0294256
1599,6633;0,0292417
1600,6276;0,0290761
1601,5918;0,0289002
1602,5560;0,028707
1603,5203;0,0285166
1604,4845;0,0283535
1605,4487;0,028217
1606,4130;0,028075
1607,3772;0,0278902
1608,3414;0,0276616
1609,3057;0,0274443
1610,2699;0,0273087
1611,2341;0,0272627
1612,1984;0,0272282
1613,1626;0,0271043
1614,1268;0,0268457
1615,0911;0,0264904
1616,0553;0,0261554
1617,0195;0,0260316
1617,9838;0,0262715
1618,9480;0,0268078
1619,9122;0,0273927
1620,8765;0,0278003
1621,8407;0,0279417
1622,8049;0,0278596
1623,7692;0,0276742
1624,7334;0,0275128
1625,6976;0,027438
1626,6619;0,0274426
1627,6261;0,0275097
1628,5903;0,0276467
1629,5546;0,0278462
1630,5188;0,0280371
1631,4830;0,0281115
1632,4473;0,0280145
1633,4115;0,0278006
1634,3757;0,0275589
1635,3400;0,0272774
1636,3042;0,0269577
1637,2684;0,0268132
1638,2327;0,0269971
1639,1969;0,0273906
1640,1611;0,0277799
1641,1254;0,0280208
1642,0896;0,0280699
1643,0538;0,0279751
1644,0181;0,0278569
1644,9823;0,0278302
1645,9465;0,0278766
1646,9108;0,0278724
1647,8750;0,0277506
1648,8392;0,0274428
1649,8035;0,026802
1650,7677;0,0257318
1651,7319;0,0242728
1652,6962;0,0225695
1653,6604;0,0211021
1654,6246;0,0206824
1655,5889;0,0213824
1656,5531;0,0224748
1657,5173;0,0233013
1658,4816;0,0235945
1659,4458;0,0233825
1660,4100;0,0228323
1661,3743;0,0221365
1662,3385;0,0214783
1663,3027;0,0210141
1664,2670;0,0207949
1665,2312;0,0207334
1666,1954;0,0206913
1667,1597;0,0205691
1668,1239;0,0203097
1669,0881;0,0198753
1670,0524;0,0192906
1671,0166;0,0186606
1671,9808;0,0180453
1672,9451;0,017398
1673,9093;0,0166877
1674,8735;0,0160327
1675,8378;0,0156819
1676,8020;0,0158186
1677,7662;0,0163649
1678,7305;0,0170134
1679,6947;0,0174276
1680,6589;0,0173977
1681,6232;0,0168619
1682,5874;0,0158421
1683,5516;0,0144838
1684,5159;0,0132646
1685,4801;0,0127408
1686,4443;0,0129337
1687,4086;0,0134194
1688,3728;0,0137925
1689,3370;0,0138677
1690,3013;0,013652
1691,2655;0,0132572
1692,2297;0,0128331
1693,1940;0,0125314
1694,1582;0,0124681
1695,1224;0,0126518
1696,0867;0,0129103
1697,0509;0,0129317
1698,0151;0,0124923
1698,9794;0,0117274
1699,9436;0,0111213
1700,9078;0,011121
1701,8721;0,0117734
1702,8363;0,0127639
1703,8005;0,0137003
1704,7648;0,014333
1705,7290;0,0146329
1706,6932;0,0147618
1707,6575;0,0149521
1708,6217;0,0153562
1709,5859;0,0159819
1710,5502;0,016747
1711,5144;0,017562
1712,4786;0,01837
1713,4429;0,0191368
1714,4071;0,0198028
1715,3713;0,0202115
1716,3356;0,0201479
1717,2998;0,0196621
1718,2640;0,0192524
1719,2283;0,0193629
1720,1925;0,0199653
1721,1567;0,0207572
1722,1210;0,0214698
1723,0852;0,0219874
1724,0494;0,0223417
1725,0137;0,0226578
1725,9779;0,0230747
1726,9421;0,0236637
1727,9064;0,024383
1728,8706;0,0250925
1729,8348;0,0256089
1730,7991;0,0257621
1731,7633;0,0254333
1732,7275;0,0246261
1733,6918;0,023607
1734,6560;0,0228558
1735,6202;0,0226407
1736,5845;0,0227874
1737,5487;0,0229332
1738,5129;0,0228288
1739,4772;0,0224395
1740,4414;0,0219
1741,4056;0,0213952
1742,3699;0,0210293
1743,3341;0,0207736
1744,2983;0,0205193
1745,2626;0,0201588
1746,2268;0,0196105
1747,1910;0,0187842
1748,1553;0,0175611
1749,1195;0,0158882
1750,0837;0,0139513
1751,0480;0,0121535
1752,0122;0,0108112
1752,9764;0,00994439
1753,9407;0,00936405
1754,9049;0,00885956
1755,8691;0,00830881
1756,8334;0,00769076
1757,7976;0,00703745
1758,7618;0,00637238
1759,7261;0,00568534
1760,6903;0,00496293
1761,6545;0,00423987
1762,6188;0,00360582
1763,5830;0,00314358
1764,5472;0,00286247
1765,5115;0,00269972
1766,4757;0,00257487
1767,4399;0,00243524
1768,4042;0,00226114
1769,3684;0,00203907
1770,3326;0,0017337
1771,2969;0,00130479
1772,2611;0,00078859
1773,2253;0,00033963
1774,1896;0,000112611
1775,1538;0,000117068
1776,1180;0,000232547
1777,0823;0,000323337
1778,0465;0,00031546
1779,0107;0,00020151
1779,9750;7,39575E-06
1780,9392;-0,000239583
1781,9034;-0,000520973
1782,8677;-0,000814584
1783,8319;-0,00107513
1784,7961;-0,00123652
1785,7604;-0,00124871
1786,7246;-0,00112013
1787,6888;-0,0009196
1788,6531;-0,000732696
1789,6173;-0,000617871
1790,5815;-0,000601326
1791,5458;-0,000688248
1792,5100;-0,000834099
1793,4742;-0,000929121
1794,4385;-0,000895069
1795,4027;-0,000771428
1796,3669;-0,000664135
1797,3312;-0,000651318
1798,2954;-0,000748865
1799,2596;-0,000932915
1800,2239;-0,00117058
1801,1881;-0,00142692
1802,1523;-0,0016608
1803,1166;-0,00183328
1804,0808;-0,00192092
1805,0450;-0,00191938
1806,0093;-0,00184109
1806,9735;-0,00171449
1807,9377;-0,00158432
1808,9020;-0,00150527
1809,8662;-0,00152144
1810,8304;-0,00163856
1811,7947;-0,00181721
1812,7589;-0,00200272
1813,7231;-0,00216181
1814,6874;-0,00228985
1815,6516;-0,00239308
1816,6158;-0,00247125
1817,5801;-0,00251342
1818,5443;-0,00250545
1819,5085;-0,00244275
1820,4728;-0,00233755
1821,4370;-0,0022125
1822,4012;-0,00208748
1823,3655;-0,00197173
1824,3297;-0,00186396
1825,2939;-0,00175982
1826,2582;-0,00166771
1827,2224;-0,00162294
1828,1866;-0,00168105
1829,1509;-0,00187868
1830,1151;-0,00217844
1831,0793;-0,00246248
1832,0436;-0,00261676
1833,0078;-0,00261933
1833,9720;-0,0025339
1834,9363;-0,00244104
1835,9005;-0,0023854
1836,8647;-0,00236284
1837,8290;-0,00234103
1838,7932;-0,00229752
1839,7574;-0,00224293
1840,7217;-0,00220497
1841,6859;-0,00219793
1842,6501;-0,00221876
1843,6144;-0,00226454
1844,5786;-0,00232754
1845,5428;-0,00238039
1846,5071;-0,00240777
1847,4713;-0,00244103
1848,4355;-0,00252925
1849,3998;-0,00268726
1850,3640;-0,00287958
1851,3282;-0,00304565
1852,2925;-0,00313924
1853,2567;-0,0031499
1854,2209;-0,00309705
1855,1852;-0,0030105
1856,1494;-0,00291746
1857,1136;-0,00283958
1858,0779;-0,00279549
1859,0421;-0,00279499
1860,0063;-0,00282621
1860,9706;-0,00284961
1861,9348;-0,00281213
1862,8990;-0,00267533
1863,8633;-0,00243656
1864,8275;-0,00213044
1865,7917;-0,00182306
1866,7560;-0,00161168
1867,7202;-0,00160502
1868,6844;-0,001847
1869,6487;-0,002247
1870,6129;-0,00264059
1871,5771;-0,00292197
1872,5414;-0,00308506
1873,5056;-0,00317078
1874,4698;-0,00321337
1875,4341;-0,00322779
1876,3983;-0,00321979
1877,3625;-0,00319768
1878,3268;-0,00317202
1879,2910;-0,00315091
1880,2552;-0,00313449
1881,2195;-0,00311481
1882,1837;-0,0030811
1883,1479;-0,00302715
1884,1122;-0,00295576
1885,0764;-0,00287794
1886,0406;-0,00280809
1887,0049;-0,00275967
1887,9691;-0,00274275
1888,9333;-0,00275929
1889,8976;-0,00279648
1890,8618;-0,00282998
1891,8260;-0,00284186
1892,7903;-0,00283593
1893,7545;-0,00283556
1894,7188;-0,00286815
1895,6830;-0,00294699
1896,6472;-0,0030599
1897,6115;-0,0031739
1898,5757;-0,00325476
1899,5399;-0,00328592
1900,5042;-0,00327367
1901,4684;-0,00323846
1902,4326;-0,00319941
1903,3969;-0,0031613
1904,3611;-0,003113
1905,3253;-0,00303983
1906,2896;-0,0029418
1907,2538;-0,00284528
1908,2180;-0,00279748
1909,1823;-0,0028401
1910,1465;-0,00297608
1911,1107;-0,00315987
1912,0750;-0,00332476
1913,0392;-0,00342209
1914,0034;-0,00343953
1914,9677;-0,00339491
1915,9319;-0,00332001
1916,8961;-0,00324152
1917,8604;-0,00316283
1918,8246;-0,00306399
1919,7888;-0,0029305
1920,7531;-0,00278603
1921,7173;-0,00269488
1922,6815;-0,00272917
1923,6458;-0,00292071
1924,6100;-0,00323054
1925,5742;-0,00356452
1926,5385;-0,00382501
1927,5027;-0,00395632
1928,4669;-0,00395824
1929,4312;-0,00387523
1930,3954;-0,00377273
1931,3596;-0,00370943
1932,3239;-0,00371873
1933,2881;-0,00380291
1934,2523;-0,00393806
1935,2166;-0,00408303
1936,1808;-0,00419074
1937,1450;-0,00422144
1938,1093;-0,00415443
1939,0735;-0,00399399
1940,0377;-0,00377044
1941,0020;-0,00353751
1941,9662;-0,00335956
1942,9304;-0,0032856
1943,8947;-0,00332807
1944,8589;-0,00346938
1945,8231;-0,00368554
1946,7874;-0,00395687
1947,7516;-0,00425816
1948,7158;-0,0045461
1949,6801;-0,00476281
1950,6443;-0,00485895
1951,6085;-0,00482272
1952,5728;-0,00469379
1953,5370;-0,00454991
1954,5012;-0,00447143
1955,4655;-0,00450298
1956,4297;-0,00463458
1957,3939;-0,00481259
1958,3582;-0,0049725
1959,3224;-0,00507276
1960,2866;-0,00510962
1961,2509;-0,00510582
1962,2151;-0,00508505
1963,1793;-0,00505429
1964,1436;-0,00500783
1965,1078;-0,00494727
1966,0720;-0,00489838
1967,0363;-0,00490556
1968,0005;-0,00500303
1968,9647;-0,00518778
1969,9290;-0,0054207
1970,8932;-0,00565298
1971,8574;-0,0058525
1972,8217;-0,00601051
1973,7859;-0,00612728
1974,7501;-0,00619348
1975,7144;-0,00618355
1976,6786;-0,00607863
1977,6428;-0,00590092
1978,6071;-0,00572308
1979,5713;-0,00563396
1980,5355;-0,00568545
1981,4998;-0,00586144
1982,4640;-0,00608533
1983,4282;-0,00625632
1984,3925;-0,00629372
1985,3567;-0,00616889
1986,3209;-0,0059101
1987,2852;-0,00558038
1988,2494;-0,00524561
1989,2136;-0,00495329
1990,1779;-0,00472873
1991,1421;-0,00458083
1992,1063;-0,00450659
1993,0706;-0,0044934
1994,0348;-0,00452451
1994,9990;-0,00458825
1995,9633;-0,00468373
1996,9275;-0,00481729
1997,8917;-0,00499049
1998,8560;-0,0051865
1999,8202;-0,00536551
2000,7844;-0,00547694
2001,7487;-0,00548395
2002,7129;-0,00538497
2003,6771;-0,005218
2004,6414;-0,00504457
2005,6056;-0,00492283
2006,5698;-0,00488329
2007,5341;-0,00492319
2008,4983;-0,00501867
2009,4625;-0,00514071
2010,4268;-0,00526135
2011,3910;-0,00535071
2012,3552;-0,00537729
2013,3195;-0,00531879
2014,2837;-0,00517895
2015,2479;-0,00499641
2016,2122;-0,00483286
2017,1764;-0,00474281
2018,1406;-0,00474555
2019,1049;-0,0048221
2020,0691;-0,00493817
2021,0333;-0,00507128
2021,9976;-0,00522101
2022,9618;-0,00539802
2023,9260;-0,00560357
2024,8903;-0,00581637
2025,8545;-0,00599778
2026,8187;-0,00611225
2027,7830;-0,00614909
2028,7472;-0,0061302
2029,7114;-0,00609808
2030,6757;-0,00609058
2031,6399;-0,00611672
2032,6041;-0,00614895
2033,5684;-0,00613654
2034,5326;-0,00603442
2035,4968;-0,00582926
2036,4611;-0,00554828
2037,4253;-0,00524378
2038,3895;-0,00496897
2039,3538;-0,00475738
2040,3180;-0,00461418
2041,2822;-0,00452063
2042,2465;-0,00444804
2043,2107;-0,00437455
2044,1749;-0,0042953
2045,1392;-0,00422098
2046,1034;-0,00416527
2047,0676;-0,00412897
2048,0320;-0,00409293
2048,9961;-0,00402831
2049,9604;-0,00391862
2050,9246;-0,00377593
2051,8889;-0,00363829
2052,8530;-0,00354921
2053,8174;-0,00353076
2054,7815;-0,00356715
2055,7458;-0,00360885
2056,7100;-0,0036013
2057,6743;-0,00351909
2058,6384;-0,00338195
2059,6028;-0,00324123
2060,5669;-0,003148
2061,5313;-0,00312521
2062,4954;-0,00316089
2063,4597;-0,00322323
2064,4238;-0,00328331
2065,3882;-0,00332898
2066,3523;-0,00336312
2067,3167;-0,00339283
2068,2808;-0,00342079
2069,2451;-0,00344385
2070,2092;-0,00345628
2071,1736;-0,00345252
2072,1377;-0,00342949
2073,1021;-0,00338792
2074,0662;-0,00333589
2075,0305;-0,00329006
2075,9946;-0,00327102
2076,9590;-0,00329228
2077,9231;-0,00335025
2078,8875;-0,0034231
2079,8516;-0,00348101
2080,8159;-0,00350115
2081,7800;-0,00347715
2082,7444;-0,00341765
2083,7085;-0,00333711
2084,6729;-0,00324777
2085,6370;-0,00315757
2086,6013;-0,00307433
2087,5654;-0,00300905
2088,5298;-0,00297397
2089,4939;-0,00297597
2090,4583;-0,003011
2091,4224;-0,0030646
2092,3867;-0,00311835
2093,3508;-0,00315773
2094,3152;-0,00317639
2095,2793;-0,00317512
2096,2437;-0,0031577
2097,2078;-0,0031275
2098,1721;-0,00308664
2099,1362;-0,00303773
2100,1006;-0,00298376
2101,0647;-0,00293683
2102,0291;-0,00290314
2102,9932;-0,00288966
2103,9575;-0,00289835
2104,9216;-0,00292393
2105,8860;-0,00295444
2106,8501;-0,00297559
2107,8145;-0,00297721
2108,7786;-0,00295877
2109,7429;-0,00293016
2110,7070;-0,00290715
2111,6714;-0,00290412
2112,6355;-0,00292815
2113,5999;-0,00297744
2114,5640;-0,00304328
2115,5283;-0,00311279
2116,4924;-0,00317069
2117,4568;-0,00320048
2118,4209;-0,00318769
2119,3853;-0,003126
2120,3494;-0,00302395
2121,3137;-0,00290733
2122,2778;-0,00281347
2123,2422;-0,0027785
2124,2063;-0,00282288
2125,1707;-0,00294265
2126,1348;-0,00311023
2127,0991;-0,00328398
2128,0632;-0,00342181
2129,0276;-0,00349313
2129,9917;-0,00348615
2130,9561;-0,0034102
2131,9202;-0,00329398
2132,8845;-0,00317984
2133,8486;-0,00311342
2134,8130;-0,00312965
2135,7771;-0,00324004
2136,7415;-0,00342774
2137,7056;-0,0036532
2138,6699;-0,00386701
2139,6340;-0,0040236
2140,5984;-0,00409233
2141,5625;-0,00406528
2142,5269;-0,003961
2143,4910;-0,00382118
2144,4553;-0,00369731
2145,4194;-0,00362935
2146,3838;-0,00362584
2147,3479;-0,0036591
2148,3123;-0,00368277
2149,2764;-0,00366474
2150,2407;-0,00361571
2151,2048;-0,00359343
2152,1692;-0,0036767
2153,1333;-0,00392155
2154,0977;-0,00432228
2155,0618;-0,00479602
2156,0261;-0,0051994
2156,9902;-0,00537931
2157,9546;-0,00524947
2158,9187;-0,00485281
2159,8831;-0,00434988
2160,8472;-0,00392756
2161,8115;-0,0037042
2162,7756;-0,00369624
2163,7400;-0,00383932
2164,7041;-0,0040289
2165,6685;-0,00416124
2166,6326;-0,00416872
2167,5969;-0,00404107
2168,5610;-0,00382413
2169,5254;-0,00359627
2170,4895;-0,00343307
2171,4539;-0,00337522
2172,4180;-0,0034127
2173,3823;-0,00349278
2174,3464;-0,00354953
2175,3108;-0,00354081
2176,2749;-0,00347171
2177,2393;-0,00339019
2178,2034;-0,00335823
2179,1677;-0,00341648
2180,1318;-0,00356164
2181,0962;-0,00374764
2182,0603;-0,00390939
2183,0247;-0,00399661
2183,9888;-0,00399826
2184,9531;-0,00394379
2185,9172;-0,00388217
2186,8816;-0,00385244
2187,8457;-0,00386263
2188,8101;-0,00388737
2189,7742;-0,00388431
2190,7385;-0,00381949
2191,7026;-0,00368708
2192,6670;-0,0035127
2193,6311;-0,00334028
2194,5955;-0,00321193
2195,5596;-0,0031528
2196,5239;-0,00316758
2197,4880;-0,00324571
2198,4524;-0,00336801
2199,4165;-0,00350978
2200,3809;-0,00364181
2201,3450;-0,00373441
2202,3093;-0,00376606
2203,2734;-0,00373206
2204,2378;-0,00364602
2205,2019;-0,00353183
2206,1663;-0,00341193
2207,1304;-0,00330109
2208,0947;-0,0032096
2209,0588;-0,00315066
2210,0232;-0,00314179
2210,9873;-0,0031954
2211,9517;-0,00330437
2212,9158;-0,00343592
2213,8801;-0,00354293
2214,8442;-0,00358888
2215,8086;-0,0035707
2216,7727;-0,00352298
2217,7371;-0,00349889
2218,7012;-0,0035389
2219,6655;-0,00364615
2220,6296;-0,00378307
2221,5940;-0,00389039
2222,5581;-0,00391732
2223,5225;-0,00384716
2224,4866;-0,00370581
2225,4509;-0,00355028
2226,4150;-0,00344325
2227,3794;-0,00342643
2228,3435;-0,00349982
2229,3079;-0,00362434
2230,2720;-0,0037413
2231,2363;-0,00379998
2232,2004;-0,003779
2233,1648;-0,00368996
2234,1289;-0,00356403
2235,0933;-0,00343155
2236,0574;-0,0033089
2237,0217;-0,00319896
2237,9858;-0,00310094
2238,9502;-0,00301885
2239,9143;-0,00296081
2240,8787;-0,0029311
2241,8428;-0,00292343
2242,8071;-0,00292273
2243,7712;-0,0029142
2244,7356;-0,00289169
2245,6997;-0,00285768
2246,6641;-0,00281532
2247,6282;-0,0027607
2248,5925;-0,00268372
2249,5566;-0,00257824
2250,5210;-0,00245299
2251,4851;-0,00233312
2252,4495;-0,00224852
2253,4136;-0,00221602
2254,3779;-0,00222784
2255,3420;-0,00225492
2256,3064;-0,0022635
2257,2705;-0,00223372
2258,2349;-0,00216839
2259,1990;-0,00208803
2260,1633;-0,002017
2261,1274;-0,00196999
2262,0918;-0,00194583
2263,0559;-0,00193076
2264,0203;-0,00190809
2264,9844;-0,00186848
2265,9487;-0,00181546
2266,9128;-0,00176344
2267,8772;-0,00172984
2268,8413;-0,00172567
2269,8057;-0,00175001
2270,7698;-0,00179098
2271,7341;-0,0018322
2272,6982;-0,0018605
2273,6626;-0,0018709
2274,6267;-0,00186654
2275,5911;-0,00185527
2276,5552;-0,00184549
2277,5195;-0,00184312
2278,4836;-0,0018494
2279,4480;-0,00185881
2280,4121;-0,0018576
2281,3765;-0,00182545
2282,3406;-0,00174183
2283,3049;-0,00159551
2284,2690;-0,00139175
2285,2334;-0,0011516
2286,1975;-0,0009017
2287,1619;-0,000659373
2288,1260;-0,00042234
2289,0903;-0,000171289
2290,0544;0,000115028
2291,0188;0,000441472
2291,9829;0,000788054
2292,9473;0,00111785
2293,9114;0,0013965
2294,8757;0,00160969
2295,8398;0,00176663
2296,8042;0,00188737
2297,7683;0,00198451
2298,7327;0,00205354
2299,6968;0,00207959
2300,6611;0,00205567
2301,6252;0,00199873
2302,5896;0,00195005
2303,5537;0,00195987
2304,5181;0,00206192
2305,4822;0,00225131
2306,4465;0,00247611
2307,4106;0,00264852
2308,3750;0,00267348
2309,3391;0,00248516
2310,3035;0,00207642
2311,2676;0,00150744
2312,2319;0,000885675
2313,1960;0,000322967
2314,1604;-0,000110192
2315,1245;-0,000407753
2316,0889;-0,000616711
2317,0530;-0,000800738
2318,0173;-0,00100068
2318,9814;-0,00121067
2319,9458;-0,00137819
2320,9099;-0,0014263
2321,8743;-0,00129081
2322,8384;-0,000961155
2323,8027;-0,00050621
2324,7668;-6,31535E-05
2325,7312;0,000214119
2326,6953;0,000221554
2327,6597;-4,94512E-05
2328,6238;-0,000508324
2329,5881;-0,0010016
2330,5522;-0,00137301
2331,5166;-0,00152588
2332,4807;-0,00146155
2333,4451;-0,00126935
2334,4092;-0,00106747
2335,3735;-0,000928675
2336,3376;-0,000835897
2337,3020;-0,000693811
2338,2661;-0,000392791
2339,2305;0,000103278
2340,1946;0,000687551
2341,1589;0,00110079
2342,1230;0,0010342
2343,0874;0,000405804
2344,0515;-0,000336733
2345,0159;-0,000398733
2345,9800;0,000632922
2346,9443;0,00238652
2347,9084;0,00404584
2348,8728;0,00490946
2349,8369;0,00471571
2350,8013;0,00368998
2351,7654;0,00238359
2352,7297;0,00136056
2353,6938;0,00088763
2354,6582;0,000887644
2355,6223;0,00117211
2356,5867;0,0016125
2357,5508;0,00208828
2358,5151;0,00241993
2359,4792;0,00244862
2360,4436;0,00215667
2361,4077;0,0016489
2362,3721;0,00101749
2363,3362;0,000266119
2364,3005;-0,000637325
2365,2646;-0,00167184
2366,2290;-0,00274379
2367,1931;-0,00374011
2368,1575;-0,00458474
2369,1216;-0,00525235
2370,0859;-0,00575016
2371,0500;-0,00609441
2372,0144;-0,00629294
2372,9785;-0,00633433
2373,9429;-0,00618675
2374,9070;-0,00581176
2375,8713;-0,00519053
2376,8354;-0,00434911
2377,7998;-0,00336751
2378,7639;-0,00236587
2379,7283;-0,00147363
2380,6924;-0,000795028
2381,6567;-0,00038495
2382,6208;-0,000241973
2383,5852;-0,000318243
2384,5493;-0,000539896
2385,5137;-0,000829688
2386,4778;-0,0011246
2387,4421;-0,00138437
2388,4063;-0,0015909
2389,3706;-0,00174191
2390,3347;-0,00184357
2391,2991;-0,00190502
2392,2632;-0,00193558
2393,2275;-0,00194353
2394,1917;-0,0019356
2395,1560;-0,00191687
2396,1201;-0,0018912
2397,0845;-0,00186184
2398,0486;-0,00182941
2399,0129;-0,00179678
2399,9771;-0,00176694
2400,9414;-0,00174112
2401,9055;-0,00172084
2402,8699;-0,0017063
2403,8340;-0,00169726
2404,7983;-0,00169268
2405,7625;-0,00169039
2406,7268;-0,00168804
2407,6909;-0,00168247
2408,6553;-0,00167081
2409,6194;-0,00165312
2410,5837;-0,00163148
2411,5479;-0,00160973
2412,5122;-0,00159133
2413,4763;-0,00157711
2414,4407;-0,00156387
2415,4048;-0,00154579
2416,3691;-0,00151746
2417,3333;-0,00147728
2418,2976;-0,00142929
2419,2617;-0,00138181
2420,2261;-0,00134425
2421,1902;-0,00132419
2422,1545;-0,0013233
2423,1187;-0,00133755
2424,0830;-0,00135846
2425,0471;-0,00137591
2426,0115;-0,0013811
2426,9756;-0,00136909
2427,9399;-0,00134029
2428,9041;-0,00130028
2429,8684;-0,00125787
2430,8325;-0,00122167
2431,7969;-0,00119655
2432,7610;-0,00118158
2433,7253;-0,00117097
2434,6895;-0,0011576
2435,6538;-0,00113747
2436,6179;-0,00111246
2437,5823;-0,00108947
2438,5464;-0,00107614
2439,5107;-0,00107547
2440,4749;-0,00108275
2441,4392;-0,00108697
2442,4033;-0,00107649
2443,3677;-0,00104572
2444,3318;-0,000999074
2445,2961;-0,000949351
2446,2603;-0,000911503
2447,2246;-0,000895095
2448,1887;-0,000899838
2449,1531;-0,000916522
2450,1172;-0,000932478
2451,0815;-0,000938167
2452,0457;-0,00093121
2453,0100;-0,000916085
2453,9741;-0,000900301
2454,9385;-0,000889576
2455,9026;-0,000884558
2456,8669;-0,000880491
2457,8311;-0,000869777
2458,7954;-0,000846224
2459,7595;-0,000809069
2460,7239;-0,00076468
2461,6880;-0,000724573
2462,6523;-0,000700182
2463,6165;-0,000696911
2464,5808;-0,00071101
2465,5449;-0,000731426
2466,5093;-0,000745645
2467,4734;-0,000745807
2468,4377;-0,000731289
2469,4019;-0,00070672
2470,3662;-0,000677833
2471,3303;-0,000648738
2472,2947;-0,000622184
2473,2588;-0,000601185
2474,2231;-0,000589119
2475,1873;-0,000587353
2476,1516;-0,000592653
2477,1157;-0,000597723
2478,0801;-0,00059573
2479,0442;-0,00058571
2480,0085;-0,000574108
2480,9727;-0,000570394
2481,9370;-0,0005796
2482,9011;-0,000597551
2483,8655;-0,00061271
2484,8296;-0,000613386
2485,7939;-0,000594914
2486,7581;-0,000561687
2487,7224;-0,000523148
2488,6865;-0,000487394
2489,6509;-0,000457277
2490,6150;-0,000431234
2491,5793;-0,000407173
2492,5435;-0,000385698
2493,5078;-0,000370099
2494,4719;-0,000363366
2495,4363;-0,000364752
2496,4004;-0,000368655
2497,3647;-0,000366979
2498,3289;-0,000353842
2499,2932;-0,000329835
2500,2573;-0,000302837
2501,2217;-0,000284075
2502,1858;-0,000281089
2503,1501;-0,000291839
2504,1143;-0,000304341
2505,0786;-0,00030318
2506,0427;-0,000279427
2507,0071;-0,000237438
2507,9712;-0,000193321
2508,9355;-0,000165375
2509,8997;-0,000162552
2510,8640;-0,000178782
2511,8281;-0,000197096
2512,7925;-0,000200664
2513,7566;-0,000183187
2514,7209;-0,000151825
2515,6851;-0,000121369
2516,6494;-0,000104317
2517,6135;-0,000103784
2518,5779;-0,000113388
2519,5420;-0,000123122
2520,5063;-0,000126445
2521,4705;-0,000123848
2522,4348;-0,0001213
2523,3989;-0,000125495
2524,3633;-0,000139465
2525,3274;-0,000160987
2526,2917;-0,000183973
2527,2559;-0,000201227
2528,2202;-0,000206899
2529,1843;-0,000197904
2530,1487;-0,000174556
2531,1128;-0,000140714
2532,0771;-0,000103266
2533,0413;-7,0447E-05
2534,0056;-4,90807E-05
2534,9697;-4,18553E-05
2535,9341;-4,62994E-05
2536,8982;-5,63903E-05
2537,8625;-6,60475E-05
2538,8267;-7,23421E-05
2539,7910;-7,63067E-05
2540,7551;-8,087E-05
2541,7195;-8,7526E-05
2542,6836;-9,43125E-05
2543,6479;-9,67427E-05
2544,6121;-9,1143E-05
2545,5764;-7,79742E-05
2546,5405;-6,25431E-05
2547,5049;-5,22302E-05
2548,4690;-5,18267E-05
2549,4333;-6,00863E-05
2550,3975;-7,00437E-05
2551,3618;-7,32784E-05
2552,3259;-6,55989E-05
2553,2903;-5,04069E-05
2554,2544;-3,72429E-05
2555,2188;-3,60684E-05
2556,1829;-5,07551E-05
2557,1472;-7,59984E-05
2558,1113;-9,98114E-05
2559,0757;-0,000110152
2560,0398;-0,000101537
2561,0042;-7,75426E-05
2561,9683;-4,78973E-05
2562,9326;-2,23889E-05
2563,8967;-5,69216E-06
2564,8611;3,75217E-06
2565,8252;1,06618E-05
2566,7896;1,83225E-05
2567,7537;2,59211E-05
2568,7180;2,95582E-05
2569,6821;2,58872E-05
2570,6465;1,54328E-05
2571,6106;2,95138E-06
2572,5750;-5,54204E-06
2573,5391;-6,90967E-06
2574,5034;-3,05862E-06
2575,4675;6,16079E-07
2576,4319;-4,86707E-07
2577,3960;-6,27227E-06
2578,3604;-1,13498E-05
2579,3245;-8,24401E-06
2580,2888;7,87884E-06
2581,2529;3,6282E-05
2582,2173;7,13092E-05
2583,1814;0,000105655
2584,1458;0,000133601
2585,1099;0,000152193
2586,0742;0,000160487
2587,0383;0,000158598
2588,0027;0,000147888
2588,9668;0,000131873
2589,9312;0,000116183
2590,8953;0,000106607
2591,8596;0,000106282
2592,8237;0,000114303
2593,7881;0,000127139
2594,7522;0,000141749
2595,7166;0,00015769
2596,6807;0,000176315
2597,6450;0,000197905
2598,6091;0,000219693
2599,5735;0,000237094
2600,5376;0,000247515
2601,5020;0,000253433
2602,4661;0,000261617
2603,4304;0,000278476
2604,3945;0,000304947
2605,3589;0,00033509
2606,3230;0,000359804
2607,2874;0,000373045
2608,2515;0,000375898
2609,2158;0,000375499
2610,1799;0,000379774
2611,1443;0,000392025
2612,1084;0,000409276
2613,0728;0,000425225
2614,0369;0,000435225
2615,0012;0,000439518
2615,9653;0,000442615
2616,9297;0,000449731
2617,8938;0,000463121
2618,8582;0,000480818
2619,8223;0,00049825
2620,7866;0,000511247
2621,7507;0,000518359
2622,7151;0,000521341
2623,6792;0,000524009
2624,6436;0,00053042
2625,6077;0,000543276
2626,5720;0,000563016
2627,5361;0,000587741
2628,5005;0,000614091
2629,4646;0,000638893
2630,4290;0,000660862
2631,3931;0,000681236
2632,3574;0,000702557
2633,3215;0,000726135
2634,2859;0,000749972
2635,2500;0,000769097
2636,2144;0,000778657
2637,1785;0,000777891
2638,1428;0,000771995
2639,1069;0,000770071
2640,0713;0,000780168
2641,0354;0,00080474
2641,9998;0,000839671
2642,9639;0,000877403
2643,9282;0,000911667
2644,8923;0,000940284
2645,8567;0,000964329
2646,8208;0,00098498
2647,7852;0,00100118
2648,7493;0,00101027
2649,7136;0,00101111
2650,6777;0,00100677
2651,6421;0,00100441
2652,6062;0,00101183
2653,5706;0,0010331
2654,5347;0,00106626
2655,4990;0,00110457
2656,4631;0,00114029
2657,4275;0,00116845
2658,3916;0,00118837
2659,3560;0,00120252
2660,3201;0,00121412
2661,2844;0,00122526
2662,2485;0,00123653
2663,2129;0,00124797
2664,1770;0,00126026
2665,1414;0,00127495
2666,1055;0,00129371
2667,0698;0,00131703
2668,0339;0,0013435
2668,9983;0,00137012
2669,9624;0,00139378
2670,9268;0,00141289
2671,8909;0,00142834
2672,8552;0,00144301
2673,8193;0,00146015
2674,7837;0,00148148
2675,7478;0,00150617
2676,7122;0,00153131
2677,6763;0,00155365
2678,6406;0,0015716
2679,6047;0,00158632
2680,5691;0,00160118
2681,5332;0,0016199
2682,4976;0,00164452
2683,4617;0,00167438
2684,4260;0,00170658
2685,3901;0,0017375
2686,3545;0,0017644
2687,3186;0,0017862
2688,2830;0,00180328
2689,2471;0,00181694
2690,2114;0,00182904
2691,1755;0,00184198
2692,1399;0,0018586
2693,1040;0,00188137
2694,0684;0,0019112
2695,0325;0,00194642
2695,9968;0,0019831
2696,9609;0,00201663
2697,9253;0,00204394
2698,8894;0,0020649
2699,8538;0,00208214
2700,8179;0,00209937
2701,7822;0,00211942
2702,7463;0,00214304
2703,7107;0,00216914
2704,6748;0,00219591
2705,6392;0,00222213
2706,6033;0,00224771
2707,5676;0,00227338
2708,5317;0,00229979
2709,4961;0,00232691
2710,4602;0,002354
2711,4246;0,00238033
2712,3887;0,00240592
2713,3530;0,00243163
2714,3171;0,00245846
2715,2815;0,00248655
2716,2456;0,00251483
2717,2100;0,00254176
2718,1741;0,00256659
2719,1384;0,0025899
2720,1025;0,00261268
2721,0669;0,00263462
2722,0310;0,00265326
2722,9954;0,00266536
2723,9595;0,00266996
2724,9238;0,00267078
2725,8879;0,00267565
2726,8523;0,00269257
2727,8164;0,00272486
2728,7808;0,00276881
2729,7449;0,00281561
2730,7092;0,00285621
2731,6733;0,00288572
2732,6377;0,00290447
2733,6018;0,00291574
2734,5662;0,00292245
2735,5303;0,0029257
2736,4946;0,00292596
2737,4587;0,00292538
2738,4231;0,00292873
2739,3872;0,00294198
2740,3516;0,00296907
2741,3157;0,00300932
2742,2800;0,00305691
2743,2441;0,00310278
2744,2085;0,00313787
2745,1726;0,00315615
2746,1370;0,00315663
2747,1011;0,00314376
2748,0654;0,00312604
2749,0295;0,00311327
2749,9939;0,00311321
2750,9580;0,00312889
2751,9224;0,00315806
2752,8865;0,00319477
2753,8508;0,00323231
2754,8149;0,00326576
2755,7793;0,00329306
2756,7434;0,00331448
2757,7078;0,0033315
2758,6719;0,00334593
2759,6362;0,00335968
2760,6003;0,00337465
2761,5647;0,00339225
2762,5288;0,00341292
2763,4932;0,00343606
2764,4573;0,00346101
2765,4216;0,00348839
2766,3857;0,00352055
2767,3501;0,00356019
2768,3142;0,00360777
2769,2786;0,00365941
2770,2427;0,00370741
2771,2070;0,00374365
2772,1711;0,00376415
2773,1355;0,00377191
2774,0996;0,00377579
2775,0640;0,00378606
2776,0281;0,00380927
2776,9924;0,00384549
2777,9565;0,00388974
2778,9209;0,00393606
2779,8850;0,00398139
2780,8494;0,00402672
2781,8135;0,00407502
2782,7778;0,00412781
2783,7419;0,00418283
2784,7063;0,00423457
2785,6704;0,00427719
2786,6348;0,00430806
2787,5989;0,00432985
2788,5632;0,00435004
2789,5273;0,00437801
2790,4917;0,00442116
2791,4558;0,00448177
2792,4202;0,00455599
2793,3843;0,00463547
2794,3486;0,00471092
2795,3127;0,00477606
2796,2771;0,00482999
2797,2412;0,00487706
2798,2056;0,00492442
2799,1697;0,00497863
2800,1340;0,00504327
2801,0981;0,00511829
2802,0625;0,005201
2803,0266;0,00528741
2803,9910;0,00537314
2804,9551;0,00545384
2805,9194;0,00552589
2806,8835;0,00558764
2807,8479;0,00564086
2808,8120;0,005691
2809,7764;0,00574585
2810,7405;0,00581269
2811,7048;0,00589556
2812,6689;0,0059941
2813,6333;0,00610442
2814,5974;0,00622122
2815,5618;0,00633987
2816,5259;0,00645757
2817,4902;0,00657358
2818,4543;0,00668889
2819,4187;0,00680571
2820,3828;0,00692654
2821,3472;0,00705311
2822,3113;0,00718529
2823,2756;0,0073211
2824,2397;0,0074579
2825,2041;0,00759441
2826,1682;0,00773232
2827,1326;0,00787639
2828,0967;0,00803297
2829,0610;0,00820763
2830,0251;0,00840317
2830,9895;0,00861879
2831,9536;0,00885037
2832,9180;0,00909176
2833,8821;0,0093367
2834,8464;0,00958106
2835,8105;0,00982495
2836,7749;0,0100739
2837,7390;0,0103384
2838,7034;0,010632
2839,6675;0,0109687
2840,6318;0,0113601
2841,5959;0,0118139
2842,5603;0,0123318
2843,5244;0,0129069
2844,4888;0,0135199
2845,4529;0,0141371
2846,4172;0,0147121
2847,3813;0,015193
2848,3457;0,0155345
2849,3098;0,0157099
2850,2742;0,0157198
2851,2383;0,0155916
2852,2026;0,0153711
2853,1667;0,0151103
2854,1311;0,0148536
2855,0952;0,0146302
2856,0596;0,0144528
2857,0237;0,0143214
2857,9880;0,0142309
2858,9521;0,0141772
2859,9165;0,014159
2860,8806;0,0141764
2861,8450;0,0142272
2862,8091;0,014306
2863,7734;0,0144049
2864,7375;0,0145177
2865,7019;0,0146421
2866,6660;0,0147783
2867,6304;0,0149255
2868,5945;0,0150774
2869,5588;0,0152214
2870,5229;0,0153439
2871,4873;0,0154363
2872,4514;0,0155009
2873,4158;0,0155503
2874,3799;0,0156007
2875,3442;0,0156643
2876,3083;0,0157434
2877,2727;0,0158315
2878,2368;0,0159188
2879,2012;0,0159989
2880,1653;0,016072
2881,1296;0,0161439
2882,0938;0,0162209
2883,0581;0,0163061
2884,0222;0,0163983
2884,9866;0,0164939
2885,9507;0,016591
2886,9150;0,0166908
2887,8792;0,0167973
2888,8435;0,0169135
2889,8076;0,0170385
2890,7720;0,0171663
2891,7361;0,0172878
2892,7004;0,0173947
2893,6646;0,0174839
2894,6289;0,0175586
2895,5930;0,0176277
2896,5574;0,0177014
2897,5215;0,017787
2898,4858;0,0178855
2899,4500;0,0179916
2900,4143;0,018096
2901,3784;0,0181904
2902,3428;0,0182717
2903,3069;0,0183453
2904,2712;0,018424
2905,2354;0,0185243
2906,1997;0,0186613
2907,1638;0,018845
2908,1282;0,0190798
2909,0923;0,0193656
2910,0566;0,0196999
2911,0208;0,0200768
2911,9851;0,0204839
2912,9492;0,0208986
2913,9136;0,0212874
2914,8777;0,0216107
2915,8420;0,0218308
2916,8062;0,0219216
2917,7705;0,0218748
2918,7346;0,0217002
2919,6990;0,021422
2920,6631;0,0210715
2921,6274;0,0206806
2922,5916;0,0202761
2923,5559;0,0198763
2924,5200;0,0194893
2925,4844;0,0191153
2926,4485;0,0187508
2927,4128;0,0183942
2928,3770;0,0180491
2929,3413;0,0177232
2930,3054;0,017424
2931,2698;0,0171533
2932,2339;0,0169061
2933,1982;0,016673
2934,1624;0,0164466
2935,1267;0,0162251
2936,0908;0,0160122
2937,0552;0,015812
2938,0193;0,0156241
2938,9836;0,0154413
2939,9478;0,0152527
2940,9121;0,0150482
2941,8762;0,0148244
2942,8406;0,0145858
2943,8047;0,0143427
2944,7690;0,0141071
2945,7332;0,0138882
2946,6975;0,0136894
2947,6616;0,0135082
2948,6260;0,0133382
2949,5901;0,0131716
2950,5544;0,0130021
2951,5186;0,0128268
2952,4829;0,0126461
2953,4470;0,0124631
2954,4114;0,0122816
2955,3755;0,0121043
2956,3398;0,0119318
2957,3040;0,0117628
2958,2683;0,0115953
2959,2324;0,0114284
2960,1968;0,0112635
2961,1609;0,0111043
2962,1252;0,0109542
2963,0894;0,0108134
2964,0537;0,0106776
2965,0178;0,0105388
2965,9822;0,0103899
2966,9463;0,0102288
2967,9106;0,01006
2968,8748;0,00989205
2969,8391;0,00973235
2970,8032;0,00958336
2971,7676;0,00944194
2972,7317;0,0093025
2973,6960;0,00916125
2974,6602;0,00901853
2975,6245;0,00887798
2976,5886;0,00874361
2977,5530;0,00861733
2978,5171;0,00849846
2979,4814;0,00838538
2980,4456;0,0082776
2981,4099;0,00817674
2982,3740;0,00808569
2983,3384;0,00800672
2984,3025;0,00793966
2985,2668;0,00788151
2986,2310;0,00782794
2987,1953;0,00777587
2988,1594;0,00772575
2989,1238;0,00768166
2990,0879;0,00764849
2991,0522;0,00762771
2992,0164;0,00761437
2992,9807;0,00759829
2993,9448;0,00756957
2994,9092;0,00752561
2995,8733;0,00747492
2996,8376;0,00743444
2997,8018;0,00742123
2998,7661;0,00744316
2999,7302;0,00749426
3000,6946;0,00755753
3001,6587;0,00761369
3002,6230;0,00765096
3003,5872;0,00767023
3004,5515;0,00768305
3005,5156;0,00770395
3006,4800;0,00774195
3007,4441;0,00779624
3008,4084;0,00785764
3009,3726;0,00791419
3010,3369;0,00795693
3011,3010;0,00798272
3012,2654;0,00799344
3013,2295;0,00799317
3014,1938;0,00798621
3015,1580;0,00797708
3016,1223;0,00797167
3017,0864;0,00797737
3018,0508;0,00800085
3019,0149;0,00804475
3019,9792;0,00810556
3020,9434;0,00817473
3021,9077;0,00824293
3022,8718;0,00830516
3023,8362;0,00836387
3024,8003;0,00842811
3025,7646;0,00850898
3026,7288;0,00861325
3027,6931;0,00873838
3028,6572;0,008871
3029,6216;0,00899045
3030,5857;0,00907642
3031,5500;0,00911806
3032,5142;0,00911983
3033,4785;0,00910031
3034,4426;0,00908373
3035,4070;0,00908911
3036,3711;0,00912285
3037,3354;0,0091788
3038,2996;0,00924469
3039,2639;0,00931079
3040,2280;0,00937551
3041,1924;0,00944527
3042,1565;0,00952921
3043,1208;0,0096325
3044,0850;0,00975216
3045,0493;0,00987757
3046,0134;0,0099951
3046,9778;0,0100943
3047,9419;0,0101727
3048,9063;0,0102372
3049,8704;0,0103007
3050,8347;0,0103758
3051,7988;0,0104685
3052,7632;0,0105762
3053,7273;0,0106888
3054,6917;0,0107946
3055,6558;0,0108867
3056,6201;0,0109662
3057,5842;0,0110425
3058,5486;0,0111283
3059,5127;0,0112338
3060,4771;0,0113618
3061,4412;0,0115058
3062,4055;0,0116515
3063,3696;0,0117811
3064,3340;0,0118805
3065,2981;0,0119448
3066,2625;0,011981
3067,2266;0,0120056
3068,1909;0,0120374
3069,1550;0,0120909
3070,1194;0,0121723
3071,0835;0,0122798
3072,0479;0,0124067
3073,0120;0,0125457
3073,9763;0,01269
3074,9404;0,0128342
3075,9048;0,012973
3076,8689;0,0131014
3077,8333;0,0132155
3078,7974;0,0133131
3079,7617;0,013395
3080,7258;0,0134644
3081,6902;0,0135265
3082,6543;0,0135871
3083,6187;0,0136512
3084,5828;0,0137221
3085,5471;0,0138
3086,5112;0,0138833
3087,4756;0,0139704
3088,4397;0,0140619
3089,4041;0,0141613
3090,3682;0,0142732
3091,3325;0,0143994
3092,2966;0,0145367
3093,2610;0,0146774
3094,2251;0,014813
3095,1895;0,0149385
3096,1536;0,0150543
3097,1179;0,0151642
3098,0820;0,0152712
3099,0464;0,0153742
3100,0105;0,0154696
3100,9749;0,0155539
3101,9390;0,0156279
3102,9033;0,0156971
3103,8674;0,015769
3104,8318;0,0158494
3105,7959;0,0159408
3106,7603;0,0160431
3107,7244;0,0161565
3108,6887;0,0162829
3109,6528;0,0164248
3110,6172;0,016583
3111,5813;0,0167536
3112,5457;0,0169277
3113,5098;0,0170942
3114,4741;0,0172434
3115,4382;0,017371
3116,4026;0,0174787
3117,3667;0,0175723
3118,3311;0,0176592
3119,2952;0,0177457
3120,2595;0,017836
3121,2236;0,0179327
3122,1880;0,0180364
3123,1521;0,0181448
3124,1165;0,0182536
3125,0806;0,0183582
3126,0449;0,0184578
3127,0090;0,0185579
3127,9734;0,0186681
3128,9375;0,0187978
3129,9019;0,0189486
3130,8660;0,0191116
3131,8303;0,0192704
3132,7944;0,0194094
3133,7588;0,019522
3134,7229;0,0196138
3135,6873;0,0196988
3136,6514;0,0197905
3137,6157;0,0198961
3138,5798;0,0200147
3139,5442;0,0201412
3140,5083;0,0202715
3141,4727;0,0204059
3142,4368;0,0205487
3143,4011;0,0207036
3144,3652;0,0208705
3145,3296;0,0210432
3146,2937;0,0212113
3147,2581;0,0213647
3148,2222;0,0214984
3149,1865;0,0216146
3150,1506;0,0217225
3151,1150;0,0218336
3152,0791;0,0219578
3153,0435;0,022099
3154,0076;0,0222554
3154,9719;0,0224213
3155,9360;0,0225895
3156,9004;0,0227539
3157,8645;0,0229105
3158,8289;0,0230582
3159,7930;0,0231991
3160,7573;0,0233379
3161,7214;0,0234801
3162,6858;0,0236291
3163,6499;0,0237839
3164,6143;0,0239391
3165,5784;0,0240879
3166,5427;0,0242261
3167,5068;0,0243553
3168,4712;0,024482
3169,4353;0,0244332
3170,3997;0,024582
3171,3638;0,0247498
3172,3281;0,0249335
3173,2922;0,0251248
3174,2566;0,0253138
3175,2207;0,0254907
3176,1851;0,025649
3177,1492;0,0257872
3178,1135;0,0259099
3179,0776;0,0260262
3180,0420;0,0261462
3181,0061;0,0262763
3181,9705;0,0264176
3182,9346;0,026566
3183,8989;0,026715
3184,8630;0,0268594
3185,8274;0,0269973
3186,7915;0,0271298
3187,7559;0,0272606
3188,7200;0,0273944
3189,6843;0,0275357
3190,6484;0,0276882
3191,6128;0,0278533
3192,5769;0,0280286
3193,5413;0,0282073
3194,5054;0,0283804
3195,4697;0,0285399
3196,4338;0,0286825
3197,3982;0,0288113
3198,3623;0,0289345
3199,3267;0,0290609
3200,2908;0,0291962
3201,2551;0,0293411
3202,2192;0,0294924
3203,1836;0,0296453
3204,1477;0,0297959
3205,1121;0,0299423
3206,0762;0,0300849
3207,0405;0,030226
3208,0046;0,0303689
3208,9690;0,0305158
3209,9331;0,0306673
3210,8975;0,0308211
3211,8616;0,0309738
3212,8259;0,031123
3213,7900;0,0312687
3214,7544;0,0314131
3215,7185;0,0315588
3216,6829;0,0317062
3217,6470;0,0318522
3218,6113;0,0319926
3219,5754;0,0321246
3220,5398;0,0322492
3221,5039;0,0323715
3222,4683;0,0324981
3223,4324;0,0326344
3224,3967;0,0327829
3225,3608;0,0329427
3226,3252;0,0331098
3227,2893;0,0332773
3228,2537;0,033437
3229,2178;0,0335818
3230,1821;0,0337088
3231,1462;0,0338207
3232,1106;0,0339255
3233,0747;0,0340331
3234,0391;0,0341508
3235,0032;0,0342813
3235,9675;0,0344233
3236,9316;0,0345748
3237,8960;0,0347346
3238,8601;0,0349022
3239,8245;0,035075
3240,7886;0,0352466
3241,7529;0,0354069
3242,7170;0,0355471
3243,6814;0,0356636
3244,6455;0,0357618
3245,6099;0,0358548
3246,5740;0,0359588
3247,5383;0,0360861
3248,5024;0,0362402
3249,4668;0,0364149
3250,4309;0,0365981
3251,3953;0,0367761
3252,3594;0,0369403
3253,3237;0,03709
3254,2878;0,0372321
3255,2522;0,0373765
3256,2163;0,0375298
3257,1807;0,0376913
3258,1448;0,0378539
3259,1091;0,0380094
3260,0732;0,0381542
3261,0376;0,0382926
3262,0017;0,0384343
3262,9661;0,0385884
3263,9302;0,0387577
3264,8945;0,0389368
3265,8586;0,0391154
3266,8230;0,039283
3267,7871;0,0394353
3268,7515;0,0395738
3269,7156;0,0397039
3270,6799;0,0398301
3271,6440;0,0399531
3272,6084;0,0400691
3273,5725;0,0401725
3274,5369;0,0402587
3275,5010;0,0403264
3276,4653;0,0403782
3277,4294;0,0404194
3278,3938;0,0404567
3279,3579;0,0404971
3280,3223;0,0405466
3281,2864;0,0406091
3282,2507;0,0406846
3283,2148;0,0407694
3284,1792;0,0408575
3285,1433;0,0409436
3286,1077;0,0410243
3287,0718;0,0410981
3288,0361;0,0411635
3289,0002;0,0412167
3289,9646;0,0412527
3290,9287;0,0412679
3291,8931;0,0412639
3292,8572;0,0412487
3293,8215;0,0412342
3294,7856;0,0412316
3295,7500;0,0412467
3296,7141;0,0412786
3297,6785;0,041321
3298,6426;0,0413655
3299,6069;0,0414042
3300,5710;0,0414322
3301,5354;0,0414483
3302,4995;0,0414553
3303,4639;0,0414594
3304,4280;0,0414677
3305,3923;0,0414852
3306,3564;0,0415123
3307,3208;0,0415442
3308,2849;0,0415732
3309,2493;0,0415932
3310,2134;0,041603
3311,1777;0,0416077
3312,1418;0,0416166
3313,1062;0,0416386
3314,0703;0,0416792
3315,0347;0,0417389
3315,9988;0,0418146
3316,9631;0,0419018
3317,9272;0,0419967
3318,8916;0,0420961
3319,8557;0,042197
3320,8201;0,0422961
3321,7842;0,0423906
3322,7485;0,04248
3323,7126;0,0425666
3324,6770;0,042654
3325,6411;0,0427442
3326,6055;0,0428358
3327,5696;0,0429249
3328,5339;0,043008
3329,4980;0,043085
3330,4624;0,0431574
3331,4265;0,0432263
3332,3909;0,0432884
3333,3550;0,0433372
3334,3193;0,0433657
3335,2834;0,043371
3336,2478;0,0433556
3337,2119;0,0433238
3338,1763;0,0432778
3339,1404;0,0432158
3340,1047;0,043135
3341,0688;0,0430369
3342,0332;0,0429286
3342,9973;0,0428201
3343,9617;0,0427179
3344,9258;0,0426206
3345,8901;0,0425205
3346,8542;0,0424105
3347,8186;0,0422894
3348,7827;0,0421635
3349,7471;0,0420414
3350,7112;0,0419279
3351,6755;0,04182
3352,6396;0,0417104
3353,6040;0,0415919
3354,5681;0,0414636
3355,5325;0,0413312
3356,4966;0,0412041
3357,4609;0,0410905
3358,4250;0,0409944
3359,3894;0,0409141
3360,3535;0,0408434
3361,3179;0,0407721
3362,2820;0,0406886
3363,2463;0,0405813
3364,2104;0,0404431
3365,1748;0,040274
3366,1389;0,0400828
3367,1033;0,0398846
3368,0674;0,0396955
3369,0317;0,0395263
3369,9958;0,039379
3370,9602;0,0392472
3371,9243;0,0391202
3372,8887;0,0389884
3373,8528;0,0388474
3374,8171;0,0386985
3375,7813;0,0385477
3376,7456;0,0384019
3377,7097;0,0382665
3378,6741;0,0381439
3379,6382;0,0380325
3380,6025;0,0379279
3381,5667;0,0378235
3382,5310;0,0377123
3383,4951;0,0375901
3384,4595;0,0374574
3385,4236;0,037321
3386,3879;0,0371907
3387,3521;0,0370741
3388,3164;0,0369722
3389,2805;0,0368784
3390,2449;0,0367826
3391,2090;0,0366768
3392,1733;0,0365596
3393,1375;0,036436
3394,1018;0,0363116
3395,0659;0,0361874
3396,0303;0,036057
3396,9944;0,0359119
3397,9587;0,0357473
3398,9229;0,0355666
3399,8872;0,0353797
3400,8513;0,0351986
3401,8157;0,0350312
3402,7798;0,0348794
3403,7441;0,0347396
3404,7083;0,0346053
3405,6726;0,0344695
3406,6367;0,0343258
3407,6011;0,0341691
3408,5652;0,0339967
3409,5295;0,0338094
3410,4937;0,0336121
3411,4580;0,0334131
3412,4221;0,0332232
3413,3865;0,0330524
3414,3506;0,0329065
3415,3149;0,032784
3416,2791;0,0326768
3417,2434;0,032569
3418,2075;0,0324413
3419,1719;0,0322768
3420,1360;0,0320681
3421,1003;0,0318218
3422,0645;0,031556
3423,0288;0,031292
3423,9929;0,0310447
3424,9573;0,0308191
3425,9214;0,0306112
3426,8857;0,0304135
3427,8499;0,0302186
3428,8142;0,0300212
3429,7783;0,0298183
3430,7427;0,0296078
3431,7068;0,0293882
3432,6711;0,0291602
3433,6353;0,0289281
3434,5996;0,0286999
3435,5637;0,0284851
3436,5281;0,0282908
3437,4922;0,0281193
3438,4565;0,027969
3439,4207;0,0278367
3440,3850;0,0277191
3441,3491;0,0276114
3442,3135;0,0275036
3443,2776;0,0273782
3444,2419;0,0272128
3445,2061;0,0269888
3446,1704;0,0267026
3447,1345;0,0263733
3448,0989;0,0260361
3449,0630;0,0257255
3450,0273;0,0254589
3450,9915;0,025233
3451,9558;0,0250329
3452,9199;0,0248437
3453,8843;0,0246579
3454,8484;0,024476
3455,8127;0,0243027
3456,7769;0,0241413
3457,7412;0,0239913
3458,7053;0,0238475
3459,6697;0,0237027
3460,6338;0,0235486
3461,5981;0,0233781
3462,5623;0,0231854
3463,5266;0,0229668
3464,4907;0,0227206
3465,4551;0,0224493
3466,4192;0,0221614
3467,3835;0,0218726
3468,3477;0,021602
3469,3120;0,0213655
3470,2761;0,0211679
3471,2405;0,0209996
3472,2046;0,0208419
3473,1689;0,0206779
3474,1331;0,0205044
3475,0974;0,0203347
3476,0615;0,0201894
3477,0259;0,0200806
3477,9900;0,0199994
3478,9543;0,019917
3479,9185;0,0197971
3480,8828;0,0196172
3481,8469;0,0193829
3482,8113;0,0191248
3483,7754;0,0188768
3484,7397;0,0186545
3485,7039;0,018449
3486,6682;0,018238
3487,6323;0,0180058
3488,5967;0,0177568
3489,5608;0,0175149
3490,5251;0,0173069
3491,4893;0,0171448
3492,4536;0,0170186
3493,4177;0,0169041
3494,3821;0,0167799
3495,3462;0,0166441
3496,3105;0,0165178
3497,2747;0,0164311
3498,2390;0,0163993
3499,2031;0,0164067
3500,1675;0,0164068
3501,1316;0,0163393
3502,0959;0,0161607
3503,0601;0,0158764
3504,0244;0,015544
3504,9885;0,0152358
3505,9529;0,0149934
3506,9170;0,0148103
3507,8813;0,0146454
3508,8455;0,0144506
3509,8098;0,0141983
3510,7739;0,013898
3511,7383;0,0135867
3512,7024;0,0133033
3513,6667;0,0130696
3514,6309;0,0128893
3515,5952;0,0127577
3516,5593;0,0126718
3517,5237;0,0126327
3518,4878;0,0126418
3519,4521;0,0126932
3520,4163;0,0127689
3521,3806;0,0128393
3522,3447;0,0128704
3523,3091;0,0128343
3524,2732;0,0127167
3525,2375;0,0125156
3526,2017;0,0122348
3527,1660;0,0118828
3528,1301;0,011479
3529,0945;0,0110594
3530,0586;0,0106704
3531,0229;0,0103493
3531,9871;0,010109
3532,9514;0,00993603
3533,9155;0,0097985
3534,8799;0,00966011
3535,8440;0,00949761
3536,8083;0,00931652
3537,7725;0,00915286
3538,7368;0,00905471
3539,7009;0,00905577
3540,6653;0,0091583
3541,6294;0,0093286
3542,5938;0,00949922
3543,5579;0,00957931
3544,5222;0,00948961
3545,4863;0,00921474
3546,4507;0,00882568
3547,4148;0,00843252
3548,3792;0,00810784
3549,3433;0,00785435
3550,3076;0,00762669
3551,2717;0,00737373
3552,2361;0,00707545
3553,2002;0,00675916
3554,1646;0,0064815
3555,1287;0,00628889
3556,0930;0,00619381
3557,0571;0,00618349
3558,0215;0,00624184
3558,9856;0,00636217
3559,9500;0,00654456
3560,9141;0,00678282
3561,8784;0,00705144
3562,8425;0,00730094
3563,8069;0,00745439
3564,7710;0,00739654
3565,7354;0,00699618
3566,6995;0,00623128
3567,6638;0,00531199
3568,6279;0,00455079
3569,5923;0,00409949
3570,5564;0,00389696
3571,5208;0,0038043
3572,4849;0,0037217
3573,4492;0,00361757
3574,4133;0,00350394
3575,3777;0,00340163
3576,3418;0,00332063
3577,3062;0,00326181
3578,2703;0,00323035
3579,2346;0,00324341
3580,1987;0,00332067
3581,1631;0,00346364
3582,1272;0,00364358
3583,0916;0,00381031
3584,0557;0,00390971
3585,0200;0,00388733
3585,9841;0,00369177
3586,9485;0,00333294
3587,9126;0,0029584
3588,8770;0,00277518
3589,8411;0,00286174
3590,8054;0,00312463
3591,7695;0,0034065
3592,7339;0,00358493
3593,6980;0,00360846
3594,6624;0,00349968
3595,6265;0,00333274
3596,5908;0,00317561
3597,5549;0,00303724
3598,5193;0,00287294
3599,4834;0,00263914
3600,4478;0,00234461
3601,4119;0,0020509
3602,3762;0,00181818
3603,3403;0,00165251
3604,3047;0,00150392
3605,2688;0,00129977
3606,2332;0,000978874
3607,1973;0,000524334
3608,1616;-4,61756E-06
3609,1257;-0,000481438
3610,0901;-0,00078213
3611,0542;-0,00085657
3612,0186;-0,000743899
3612,9827;-0,000541576
3613,9470;-0,000361267
3614,9111;-0,000291823
3615,8755;-0,000378273
3616,8396;-0,000615261
3617,8040;-0,000945517
3618,7681;-0,00125547
3619,7324;-0,00139021
3620,6965;-0,00123333
3621,6609;-0,000812059
3622,6250;-0,000304132
3623,5894;6,54994E-05
3624,5535;0,00013614
3625,5178;-0,000137843
3626,4819;-0,000705889
3627,4463;-0,00147524
3628,4104;-0,00230249
3629,3748;-0,00294471
3630,3389;-0,00321884
3631,3032;-0,00321332
3632,2673;-0,00318668
3633,2317;-0,00333605
3634,1958;-0,00369525
3635,1602;-0,00416849
3636,1243;-0,00462391
3637,0886;-0,00497686
3638,0527;-0,00521356
3639,0171;-0,00535675
3639,9812;-0,00542156
3640,9456;-0,00540546
3641,9097;-0,005313
3642,8740;-0,0051795
3643,8381;-0,00505953
3644,8025;-0,00498628
3645,7666;-0,00495281
3646,7310;-0,00498678
3647,6951;-0,00529284
3648,6594;-0,00612029
3649,6235;-0,00724294
3650,5879;-0,0080762
3651,5520;-0,00841567
3652,5164;-0,00850296
3653,4805;-0,00863029
3654,4448;-0,00891707
3655,4089;-0,00929998
3656,3733;-0,00962231
3657,3374;-0,00975783
3658,3018;-0,00970201
3659,2659;-0,00955754
3660,2302;-0,00943259
3661,1943;-0,00935611
3662,1587;-0,00927942
3663,1228;-0,00914744
3664,0872;-0,00896743
3665,0513;-0,00880303
3666,0156;-0,00870979
3666,9797;-0,0086779
3667,9441;-0,00865104
3668,9082;-0,00860077
3669,8726;-0,00855187
3670,8367;-0,00854252
3671,8010;-0,00861059
3672,7651;-0,00878319
3673,7295;-0,00904301
3674,6936;-0,00933055
3675,6580;-0,00956268
3676,6221;-0,00963595
3677,5864;-0,00950443
3678,5505;-0,00925164
3679,5149;-0,00900418
3680,4790;-0,00881369
3681,4434;-0,00864809
3682,4075;-0,00846672
3683,3718;-0,00828616
3684,3359;-0,00817173
3685,3003;-0,00816549
3686,2644;-0,00822107
3687,2288;-0,00822106
3688,1929;-0,00808944
3689,1572;-0,00786966
3690,1213;-0,00763591
3691,0857;-0,00740356
3692,0498;-0,00717907
3693,0142;-0,00699195
3693,9783;-0,00686169
3694,9426;-0,00678298
3695,9067;-0,00674465
3696,8711;-0,00674736
3697,8352;-0,00679712
3698,7996;-0,00688351
3699,7637;-0,00696693
3700,7280;-0,0069893
3701,6921;-0,00690015
3702,6565;-0,00668265
3703,6206;-0,0063703
3704,5850;-0,00604135
3705,5491;-0,00578453
3706,5134;-0,00566014
3707,4775;-0,0056924
3708,4419;-0,00591016
3709,4060;-0,00639826
3710,3704;-0,00723396
3711,3345;-0,00827254
3712,2988;-0,00912309
3713,2629;-0,00948519
3714,2273;-0,00936491
3715,1914;-0,00894983
3716,1558;-0,00841757
3717,1199;-0,00785377
3718,0842;-0,00726548
3719,0483;-0,00663496
3720,0127;-0,00596846
3720,9768;-0,00531222
3721,9412;-0,00473552
3722,9053;-0,00430116
3723,8696;-0,00404146
3724,8337;-0,00394484
3725,7981;-0,00396279
3726,7622;-0,00404372
3727,7266;-0,00416633
3728,6907;-0,00433456
3729,6550;-0,00454058
3730,6191;-0,00473934
3731,5835;-0,00487251
3732,5476;-0,00494635
3733,5120;-0,00509787
3734,4761;-0,00549703
3735,4404;-0,00608723
3736,4045;-0,00656142
3737,3689;-0,00671791
3738,3330;-0,00667971
3739,2974;-0,0067552
3740,2615;-0,00720459
3741,2258;-0,00809356
3742,1899;-0,00923959
3743,1543;-0,0102593
3744,1184;-0,0107569
3745,0828;-0,0105943
3746,0469;-0,0100001
3747,0112;-0,00938583
3747,9753;-0,00908304
3748,9397;-0,0092312
3749,9038;-0,00978069
3750,8682;-0,0104716
3751,8323;-0,0108989
3752,7966;-0,0108437
3753,7607;-0,010458
3754,7251;-0,0100504
3755,6892;-0,00983809
3756,6536;-0,00987893
3757,6177;-0,0101116
3758,5820;-0,0104111
3759,5461;-0,0106414
3760,5105;-0,0107192
3761,4746;-0,0106534
3762,4390;-0,0105172
3763,4031;-0,0103907
3764,3674;-0,0103274
3765,3315;-0,0103512
3766,2959;-0,0104632
3767,2600;-0,0106471
3768,2244;-0,0108719
3769,1885;-0,0110939
3770,1528;-0,0112585
3771,1169;-0,0113172
3772,0813;-0,0112586
3773,0454;-0,0111247
3774,0098;-0,0109876
3774,9739;-0,0109054
3775,9382;-0,0108934
3776,9023;-0,0109301
3777,8667;-0,0109804
3778,8308;-0,0110067
3779,7952;-0,0109707
3780,7593;-0,010854
3781,7236;-0,0106824
3782,6877;-0,0105209
3783,6521;-0,0104431
3784,6162;-0,0104972
3785,5806;-0,0106779
3786,5447;-0,0109245
3787,5090;-0,0111497
3788,4731;-0,0112862
3789,4375;-0,0113157
3790,4016;-0,0112614
3791,3660;-0,0111539
3792,3301;-0,0109985
3793,2944;-0,0107701
3794,2585;-0,0104447
3795,2229;-0,0100443
3796,1870;-0,00965226
3797,1514;-0,00937791
3798,1155;-0,00929863
3799,0798;-0,00942494
3800,0439;-0,00970465
3801,0083;-0,0100473
3801,9724;-0,0103627
3802,9368;-0,0106251
3803,9009;-0,0108981
3804,8652;-0,011259
3805,8293;-0,0116887
3806,7937;-0,0120368
3807,7578;-0,0121105
3808,7222;-0,0118411
3809,6863;-0,0113643
3810,6506;-0,0109222
3811,6147;-0,0106911
3812,5791;-0,0106796
3813,5432;-0,0107425
3814,5076;-0,0106912
3815,4717;-0,0104348
3816,4360;-0,0100445
3817,4001;-0,00969734
3818,3645;-0,00957086
3819,3286;-0,00975531
3820,2930;-0,0101918
3821,2571;-0,010664
3822,2214;-0,0109257
3823,1855;-0,0108939
3824,1499;-0,0106837
3825,1140;-0,010473
3826,0784;-0,0103746
3827,0425;-0,0103966
3828,0068;-0,0104713
3828,9709;-0,0105115
3829,9353;-0,0104625
3830,8994;-0,0103247
3831,8638;-0,0101448
3832,8279;-0,009986
3833,7922;-0,00989288
3834,7563;-0,00987033
3835,7207;-0,00989014
3836,6848;-0,00992409
3837,6492;-0,00997321
3838,6133;-0,0100565
3839,5776;-0,0101824
3840,5417;-0,0103491
3841,5061;-0,0105525
3842,4702;-0,010763
3843,4346;-0,0109029
3844,3987;-0,0108707
3845,3630;-0,0106135
3846,3271;-0,0101873
3847,2915;-0,00975237
3848,2556;-0,00950533
3849,2200;-0,00959553
3850,1841;-0,0100707
3851,1484;-0,0108797
3852,1125;-0,0119072
3853,0769;-0,012891
3854,0410;-0,0133482
3855,0054;-0,0130076
3855,9695;-0,012145
3856,9338;-0,011239
3857,8979;-0,0105987
3858,8623;-0,0102888
3859,8264;-0,010203
3860,7908;-0,0101759
3861,7549;-0,0100957
3862,7192;-0,00996782
3863,6833;-0,00987394
3864,6477;-0,0098744
3865,6118;-0,00996607
3866,5762;-0,0101064
3867,5403;-0,0102434
3868,5046;-0,0103398
3869,4688;-0,0103964
3870,4331;-0,0104525
3871,3972;-0,0105447
3872,3616;-0,0106702
3873,3257;-0,0107968
3874,2900;-0,0108969
3875,2542;-0,0109623
3876,2185;-0,0109882
3877,1826;-0,0109566
3878,1470;-0,0108413
3879,1111;-0,0106424
3880,0754;-0,0104184
3881,0396;-0,0102722
3882,0039;-0,0102942
3882,9680;-0,0105097
3883,9324;-0,0108585
3884,8965;-0,0112144
3885,8608;-0,0114477
3886,8250;-0,0115028
3887,7893;-0,0114253
3888,7534;-0,0113099
3889,7178;-0,0112242
3890,6819;-0,0111726
3891,6462;-0,0111061
3892,6104;-0,0109626
3893,5747;-0,0107282
3894,5388;-0,0104642
3895,5032;-0,0102565
3896,4673;-0,010145
3897,4316;-0,0101064
3898,3958;-0,0100952
3899,3601;-0,0100959
3900,3242;-0,0101351
3901,2886;-0,0102545
3902,2527;-0,0104809
3903,2170;-0,0108016
3904,1812;-0,0111531
3905,1455;-0,0114519
3906,1096;-0,0116516
3907,0740;-0,0117626
3908,0381;-0,0118194
3909,0024;-0,0118411
3909,9666;-0,0118206
3910,9309;-0,0117421
3911,8950;-0,0116039
3912,8594;-0,0114269
3913,8235;-0,0112483
3914,7878;-0,0111079
3915,7520;-0,0110356
3916,7163;-0,0110356
3917,6804;-0,011071
3918,6448;-0,0110772
3919,6089;-0,0110085
3920,5732;-0,0108757
3921,5374;-0,0107361
3922,5017;-0,0106557
3923,4658;-0,0106688
3924,4302;-0,0107545
3925,3943;-0,0108457
3926,3586;-0,0108767
3927,3228;-0,0108282
3928,2871;-0,0107354
3929,2512;-0,0106636
3930,2156;-0,0106782
3931,1797;-0,0108109
3932,1440;-0,0110336
3933,1082;-0,0112701
3934,0725;-0,0114472
3935,0366;-0,0115349
3936,0010;-0,0115438
3936,9651;-0,0114996
3937,9294;-0,0114229
3938,8936;-0,0113265
3939,8579;-0,0112228
3940,8220;-0,0111291
3941,7864;-0,0110613
3942,7505;-0,0110206
3943,7148;-0,0109891
3944,6790;-0,0109466
3945,6433;-0,0108902
3946,6074;-0,0108408
3947,5718;-0,0108345
3948,5359;-0,0109016
3949,5002;-0,0110445
3950,4644;-0,0112308
3951,4287;-0,0114128
3952,3928;-0,0115555
3953,3572;-0,011648
3954,3213;-0,0116968
3955,2856;-0,0117132
3956,2498;-0,0117062
3957,2141;-0,0116808
3958,1782;-0,0116432
3959,1426;-0,0116057
3960,1067;-0,0115865
3961,0710;-0,0116026
3962,0352;-0,0116579
3962,9995;-0,0117378
3963,9636;-0,0118153
3964,9280;-0,0118644
3965,8921;-0,011873
3966,8564;-0,011846
3967,8206;-0,0118002
3968,7849;-0,0117536
3969,7490;-0,0117165
3970,7134;-0,0116896
3971,6775;-0,0116698
3972,6418;-0,0116571
3973,6060;-0,0116582
3974,5703;-0,0116816
3975,5344;-0,0117301
3976,4988;-0,011796
3977,4629;-0,011864
3978,4272;-0,0119194
3979,3914;-0,0119553
3980,3557;-0,0119755
3981,3198;-0,0119906
3982,2842;-0,0120101
3983,2483;-0,012035
3984,2126;-0,0120569
3985,1768;-0,0120629
3986,1411;-0,0120438
3987,1052;-0,0120005
3988,0696;-0,0119443
3989,0337;-0,0118914
3989,9980;-0,0118565
3990,9622;-0,0118471
3991,9265;-0,0118631
3992,8906;-0,0118997
3993,8550;-0,0119501
3994,8191;-0,0120073
3995,7834;-0,0120638
3996,7476;-0,0121118
3997,7119;-0,0121451
3998,6760;-0,0121606
3999,6404;-0,0121594
4000,6045;-0,011748

##### Extended Information
[Comments]
Sample name
Comment
Username
Division
Organization;UNIVERSIDAD INDUSTRIAL DE SANTANDER

[Detailed Information]
Creation date;5/02/2025 11:48 a.m.

Data array type;Linear data array
Horizontal axis;Wavenumber [cm-1]
Vertical axis;Abs
Start;399,193 cm-1
End;4000,6 cm-1
Data interval;0,964233 cm-1
Data points;3736    

[Measurement Information]
Model name;FT/IR-4X1typeA
Serial No.;A035162111

Accessory;ATR PRO 4X
Accessory S/N;A021162126
Incident angle;45 deg

Measurement date;5/02/2025 11:48 a.m.

Light source;Standard
Detector;TGS
Accumulation;Auto (75)
Resolution;4 cm-1
Zero filling;On
Apodization;Cosine
Gain;Auto (8)
Aperture;Auto (7 mm)
Scan speed;Auto (2 mm/sec)
Filter;Auto (12800 Hz)

