TITLE;
DATA TYPE;INFRARED SPECTRUM
ORIGIN;JASCO
OWNER;
DATE;25/01/29
TIME;16:00:40
SPECTROMETER/DATA SYSTEM;
LOCALE;9226
RESOLUTION;
DELTAX;0,964233
XUNITS;1/CM
YUNITS;ABSORBANCE
FIRSTX;  399,1927
LASTX; 4000,6047
NPOINTS;    3736
FIRSTY;     0,16386
MAXY;     0,24148
MINY;     0,01084
XYDATA
399,1927;0,163863
400,1569;0,162441
401,1211;0,161351
402,0854;0,160816
403,0496;0,16081
404,0138;0,161178
404,9781;0,161721
405,9423;0,16226
406,9065;0,162703
407,8708;0,163064
408,8350;0,163434
409,7992;0,1639
410,7635;0,164478
411,7277;0,165098
412,6919;0,165645
413,6562;0,166045
414,6204;0,166308
415,5846;0,166521
416,5489;0,16682
417,5131;0,167345
418,4773;0,168145
419,4416;0,169109
420,4058;0,170058
421,3700;0,170925
422,3343;0,171734
423,2985;0,172481
424,2627;0,173078
425,2270;0,173389
426,1912;0,173329
427,1554;0,172947
428,1197;0,172431
429,0839;0,172026
430,0481;0,17194
431,0124;0,172262
431,9766;0,172923
432,9408;0,173715
433,9051;0,174362
434,8693;0,174638
435,8335;0,174467
436,7978;0,173965
437,7620;0,17337
438,7262;0,17291
439,6905;0,172685
440,6547;0,172646
441,6189;0,172646
442,5832;0,172545
443,5474;0,172315
444,5116;0,172058
445,4759;0,171925
446,4401;0,171993
447,4043;0,172206
448,3686;0,172412
449,3328;0,17244
450,2970;0,17219
451,2613;0,171688
452,2255;0,171076
453,1897;0,170547
454,1540;0,170256
455,1182;0,170259
456,0824;0,170489
457,0467;0,170778
458,0109;0,170932
458,9751;0,170853
459,9394;0,170592
460,9036;0,170273
461,8678;0,16999
462,8321;0,169762
463,7963;0,169558
464,7605;0,169344
465,7248;0,169119
466,6890;0,168912
467,6532;0,16875
468,6175;0,168627
469,5817;0,168502
470,5459;0,168342
471,5102;0,168148
472,4744;0,167974
473,4386;0,167888
474,4029;0,167934
475,3671;0,168107
476,3313;0,168383
477,2956;0,16873
478,2598;0,169112
479,2240;0,169485
480,1883;0,169794
481,1525;0,169993
482,1167;0,170071
483,0810;0,170069
484,0452;0,170067
485,0094;0,170152
485,9737;0,170375
486,9379;0,170737
487,9021;0,171193
488,8664;0,171669
489,8306;0,172077
490,7948;0,172344
491,7591;0,17244
492,7233;0,172408
493,6875;0,172355
494,6518;0,172397
495,6160;0,1726
496,5802;0,172949
497,5445;0,173361
498,5087;0,173736
499,4729;0,174006
500,4372;0,174166
501,4014;0,174272
502,3656;0,174408
503,3299;0,174638
504,2941;0,174973
505,2583;0,175377
506,2226;0,175788
507,1868;0,176149
508,1510;0,176433
509,1153;0,176657
510,0795;0,176877
511,0437;0,177165
512,0080;0,177577
512,9722;0,178122
513,9365;0,178761
514,9007;0,179417
515,8649;0,180002
516,8292;0,180459
517,7934;0,180779
518,7576;0,181003
519,7219;0,181185
520,6861;0,181357
521,6503;0,181514
522,6146;0,181632
523,5788;0,18169
524,5430;0,181691
525,5073;0,181658
526,4715;0,18162
527,4357;0,181586
528,4000;0,181533
529,3642;0,181424
530,3284;0,181231
531,2927;0,180952
532,2569;0,180608
533,2211;0,180239
534,1854;0,179888
535,1496;0,179593
536,1138;0,179376
537,0781;0,179243
538,0423;0,179177
539,0065;0,179144
539,9708;0,179111
540,9350;0,179066
541,8992;0,17903
542,8635;0,179051
543,8277;0,179171
544,7919;0,179396
545,7562;0,179693
546,7204;0,180017
547,6846;0,180342
548,6489;0,180679
549,6131;0,18106
550,5773;0,181499
551,5416;0,181972
552,5058;0,182435
553,4700;0,182859
554,4343;0,183249
555,3985;0,183631
556,3627;0,184002
557,3270;0,184287
558,2912;0,184352
559,2554;0,184061
560,2197;0,183356
561,1839;0,182303
562,1481;0,181069
563,1124;0,179855
564,0766;0,178804
565,0408;0,177962
566,0051;0,177289
566,9693;0,176705
567,9335;0,176146
568,8978;0,175592
569,8620;0,175064
570,8262;0,174595
571,7905;0,174206
572,7547;0,173897
573,7189;0,17365
574,6832;0,173446
575,6474;0,173269
576,6116;0,173109
577,5759;0,17296
578,5401;0,172818
579,5043;0,17268
580,4686;0,172542
581,4328;0,172402
582,3970;0,172264
583,3613;0,172132
584,3255;0,172018
585,2897;0,171936
586,2540;0,171907
587,2182;0,171943
588,1824;0,172049
589,1467;0,172206
590,1109;0,17237
591,0751;0,172487
592,0394;0,172507
593,0036;0,172412
593,9678;0,172219
594,9321;0,171965
595,8963;0,171677
596,8605;0,171361
597,8248;0,171007
598,7890;0,170609
599,7532;0,170185
600,7175;0,169776
601,6817;0,169422
602,6459;0,169134
603,6102;0,168891
604,5744;0,168642
605,5386;0,168337
606,5029;0,167942
607,4671;0,167445
608,4313;0,16685
609,3956;0,166175
610,3598;0,165463
611,3240;0,164782
612,2883;0,164218
613,2525;0,163833
614,2167;0,163621
615,1810;0,16348
616,1452;0,163223
617,1094;0,162662
618,0737;0,161698
619,0379;0,160384
620,0021;0,158886
620,9664;0,157391
621,9306;0,156027
622,8948;0,154842
623,8591;0,153821
624,8233;0,152887
625,7875;0,152094
626,7518;0,15143
627,7160;0,150881
628,6802;0,150413
629,6445;0,149976
630,6087;0,149517
631,5729;0,148998
632,5372;0,148416
633,5014;0,147797
634,4656;0,147191
635,4299;0,146647
636,3941;0,146195
637,3583;0,145842
638,3226;0,145567
639,2868;0,145339
640,2510;0,145124
641,2153;0,144896
642,1795;0,144649
643,1437;0,144395
644,1080;0,14416
645,0722;0,143966
646,0364;0,143819
647,0007;0,143696
647,9649;0,143557
648,9291;0,143364
649,8934;0,143111
650,8576;0,142834
651,8218;0,142599
652,7861;0,14248
653,7503;0,142524
654,7145;0,142732
655,6788;0,143047
656,6430;0,143378
657,6072;0,143641
658,5715;0,143794
659,5357;0,143833
660,4999;0,143756
661,4642;0,143523
662,4284;0,143028
663,3926;0,142129
664,3569;0,140748
665,3211;0,139041
666,2853;0,137497
667,2496;0,13672
668,2138;0,136745
669,1780;0,136927
670,1423;0,136926
671,1065;0,136755
672,0707;0,13627
673,0350;0,135316
673,9992;0,133932
674,9634;0,132329
675,9277;0,130737
676,8919;0,129278
677,8561;0,127941
678,8204;0,126659
679,7846;0,125397
680,7488;0,124174
681,7131;0,12304
682,6773;0,122021
683,6415;0,121108
684,6058;0,120275
685,5700;0,119498
686,5342;0,118766
687,4985;0,118077
688,4627;0,117443
689,4269;0,116864
690,3912;0,116347
691,3554;0,115891
692,3196;0,115474
693,2839;0,115057
694,2481;0,114599
695,2123;0,114082
696,1766;0,113522
697,1408;0,112957
698,1050;0,112429
699,0693;0,111956
700,0335;0,111532
700,9977;0,111135
701,9620;0,110736
702,9262;0,110307
703,8904;0,109814
704,8547;0,109254
705,8189;0,108642
706,7831;0,108011
707,7474;0,107399
708,7116;0,106832
709,6758;0,106305
710,6401;0,105789
711,6043;0,105242
712,5685;0,104637
713,5328;0,103982
714,4970;0,103325
715,4612;0,101827
716,4255;0,101496
717,3897;0,101295
718,3539;0,101091
719,3182;0,1007
720,2824;0,0999848
721,2466;0,0989395
722,2109;0,097693
723,1751;0,0964302
724,1393;0,0952937
725,1036;0,0943332
726,0678;0,0935164
727,0320;0,0927765
727,9963;0,0920602
728,9605;0,0913522
729,9247;0,0906672
730,8890;0,0900267
731,8532;0,0894393
732,8174;0,0888978
733,7817;0,0883878
734,7459;0,0878977
735,7101;0,0874217
736,6744;0,0869563
737,6386;0,0864972
738,6028;0,0860388
739,5671;0,085578
740,5313;0,0851172
741,4955;0,0846643
742,4598;0,084228
743,4240;0,0838123
744,3882;0,083413
745,3525;0,0830194
746,3167;0,0826191
747,2809;0,0822032
748,2452;0,0817688
749,2094;0,0813179
750,1736;0,0808536
751,1379;0,0803789
752,1021;0,0798974
753,0663;0,0794148
754,0306;0,0789402
754,9948;0,0784828
755,9590;0,0780478
756,9233;0,0776343
757,8875;0,077237
758,8517;0,0768516
759,8160;0,0764786
760,7802;0,0761224
761,7444;0,0757875
762,7087;0,0754732
763,6729;0,0751736
764,6371;0,074882
765,6014;0,0745959
766,5656;0,0743185
767,5298;0,0740536
768,4941;0,0738002
769,4583;0,0735493
770,4225;0,0732889
771,3868;0,0730124
772,3510;0,0727242
773,3152;0,0724379
774,2795;0,072167
775,2437;0,0719153
776,2079;0,0716742
777,1722;0,0714286
778,1364;0,0711676
779,1006;0,0708907
780,0649;0,0706079
781,0291;0,0703316
781,9933;0,0700684
782,9576;0,0698157
783,9218;0,0695639
784,8860;0,0693023
785,8503;0,0690248
786,8145;0,0687326
787,7787;0,0684346
788,7430;0,0681454
789,7072;0,0678824
790,6714;0,0676619
791,6357;0,0674932
792,5999;0,0673737
793,5641;0,0672867
794,5284;0,0672057
795,4926;0,0671038
796,4568;0,066964
797,4211;0,0667874
798,3853;0,0665917
799,3495;0,0664024
800,3138;0,0662391
801,2780;0,0661057
802,2422;0,0659887
803,2065;0,0658658
804,1707;0,0657192
805,1349;0,0655463
806,0992;0,0653607
807,0634;0,0651837
808,0276;0,0650308
808,9919;0,0649029
809,9561;0,064787
810,9203;0,0646658
811,8846;0,0645309
812,8488;0,0643889
813,8130;0,0642574
814,7773;0,0641535
815,7415;0,0640825
816,7057;0,0640337
817,6700;0,0639872
818,6342;0,0639246
819,5984;0,0638375
820,5627;0,063728
821,5269;0,0636033
822,4911;0,0634698
823,4554;0,0633319
824,4196;0,0631951
825,3839;0,0630689
826,3481;0,0629648
827,3123;0,0628892
828,2766;0,0628364
829,2408;0,0627877
830,2050;0,0627188
831,1693;0,0626103
832,1335;0,0624557
833,0977;0,0622622
834,0620;0,0620451
835,0262;0,0618198
835,9904;0,0615969
836,9547;0,0613817
837,9189;0,061176
838,8831;0,0609807
839,8474;0,060797
840,8116;0,0606273
841,7758;0,0604748
842,7401;0,0603422
843,7043;0,0602299
844,6685;0,0601341
845,6328;0,0600471
846,5970;0,059961
847,5612;0,0598722
848,5255;0,0597842
849,4897;0,0597059
850,4539;0,0596456
851,4182;0,0596048
852,3824;0,0595751
853,3466;0,0595421
854,3109;0,0594926
855,2751;0,0594215
856,2393;0,0593344
857,2036;0,0592434
858,1678;0,0591611
859,1320;0,059095
860,0963;0,0590462
861,0605;0,059012
862,0247;0,0589904
862,9890;0,058983
863,9532;0,0589945
864,9174;0,0590306
865,8817;0,0590942
866,8459;0,0591844
867,8101;0,0592961
868,7744;0,0594218
869,7386;0,0595541
870,7028;0,0596879
871,6671;0,0598217
872,6313;0,0599581
873,5955;0,0601017
874,5598;0,0602555
875,5240;0,0604174
876,4882;0,0605809
877,4525;0,0607388
878,4167;0,0608908
879,3809;0,0610479
880,3452;0,0612321
881,3094;0,0614693
882,2736;0,0617808
883,2379;0,0621767
884,2021;0,062656
885,1663;0,0632116
886,1306;0,0638368
887,0948;0,064529
888,0590;0,0652881
889,0233;0,0661104
889,9875;0,0669825
890,9517;0,0678764
891,9160;0,068751
892,8802;0,0695589
893,8444;0,0702564
894,8087;0,0708124
895,7729;0,0712126
896,7371;0,0714559
897,7014;0,0715461
898,6656;0,0714852
899,6298;0,0712715
900,5941;0,0709055
901,5583;0,0703981
902,5225;0,0697762
903,4868;0,0690818
904,4510;0,0683644
905,4152;0,0676714
906,3795;0,0670412
907,3437;0,0664992
908,3079;0,0660581
909,2722;0,0657186
910,2364;0,0654715
911,2007;0,0652995
912,1649;0,0651828
913,1292;0,0651055
914,0934;0,0650611
915,0576;0,065054
916,0219;0,0650958
916,9861;0,0651966
917,9503;0,0653574
918,9146;0,0655677
919,8788;0,0658089
920,8430;0,0660631
921,8073;0,0663197
922,7715;0,0665768
923,7357;0,066836
924,7000;0,067095
925,6642;0,0673449
926,6284;0,0675731
927,5927;0,0677723
928,5569;0,0679466
929,5211;0,0681124
930,4854;0,0682905
931,4496;0,0684973
932,4138;0,0687381
933,3781;0,0690084
934,3423;0,0693011
935,3065;0,0696135
936,2708;0,0699515
937,2350;0,0703277
938,1992;0,0707569
939,1635;0,0712507
940,1277;0,0718145
941,0919;0,0724467
942,0562;0,0731411
943,0204;0,0738909
943,9846;0,0746927
944,9489;0,0755496
945,9131;0,0764701
946,8773;0,0774643
947,8416;0,0785367
948,8058;0,0796834
949,7700;0,080893
950,7343;0,0821524
951,6985;0,0834541
952,6627;0,0847994
953,6270;0,0861964
954,5912;0,0876547
955,5554;0,0891792
956,5197;0,0907678
957,4839;0,0924124
958,4481;0,0941028
959,4124;0,0958295
960,3766;0,0975849
961,3408;0,0993627
962,3051;0,101156
963,2693;0,102958
964,2335;0,104759
965,1978;0,106556
966,1620;0,108351
967,1262;0,110156
968,0905;0,111994
969,0547;0,113897
970,0189;0,115896
970,9832;0,118023
971,9474;0,120304
972,9116;0,122765
973,8759;0,125429
974,8401;0,128316
975,8043;0,131442
976,7686;0,134808
977,7328;0,138399
978,6970;0,142173
979,6613;0,14606
980,6255;0,149964
981,5897;0,153772
982,5540;0,157367
983,5182;0,160646
984,4824;0,163546
985,4467;0,166049
986,4109;0,168185
987,3751;0,170018
988,3394;0,171622
989,3036;0,173067
990,2678;0,174397
991,2321;0,175635
992,1963;0,176787
993,1605;0,177856
994,1248;0,178855
995,0890;0,179808
996,0532;0,180748
997,0175;0,181705
997,9817;0,182694
998,9459;0,183716
999,9102;0,184758
1000,8744;0,185811
1001,8386;0,186883
1002,8029;0,188001
1003,7671;0,189209
1004,7313;0,190552
1005,6956;0,192069
1006,6598;0,193781
1007,6240;0,195698
1008,5883;0,197821
1009,5525;0,200138
1010,5167;0,202629
1011,4810;0,205259
1012,4452;0,207979
1013,4094;0,210727
1014,3737;0,213441
1015,3379;0,21607
1016,3021;0,218571
1017,2664;0,22092
1018,2306;0,223106
1019,1948;0,225133
1020,1591;0,227012
1021,1233;0,228765
1022,0875;0,230416
1023,0518;0,23199
1024,0160;0,233505
1024,9802;0,234969
1025,9445;0,236383
1026,9087;0,237729
1027,8729;0,238974
1028,8372;0,24006
1029,8014;0,240906
1030,7656;0,241414
1031,7299;0,24148
1032,6941;0,241024
1033,6583;0,240008
1034,6226;0,238456
1035,5868;0,236462
1036,5510;0,234174
1037,5153;0,231774
1038,4795;0,229448
1039,4437;0,227357
1040,4080;0,225615
1041,3722;0,224279
1042,3364;0,223345
1043,3007;0,222754
1044,2649;0,222409
1045,2291;0,222197
1046,1934;0,222011
1047,1576;0,221768
1048,1218;0,22141
1049,0861;0,220897
1050,0503;0,2202
1051,0145;0,219291
1051,9788;0,218154
1052,9430;0,216787
1053,9072;0,215205
1054,8715;0,213428
1055,8357;0,211452
1056,7999;0,209241
1057,7642;0,206727
1058,7284;0,203839
1059,6926;0,200544
1060,6569;0,196877
1061,6211;0,192946
1062,5853;0,188909
1063,5496;0,184932
1064,5138;0,18115
1065,4780;0,177647
1066,4423;0,17445
1067,4065;0,171547
1068,3707;0,168901
1069,3350;0,166469
1070,2992;0,16421
1071,2634;0,162085
1072,2277;0,160054
1073,1919;0,15807
1074,1561;0,156088
1075,1204;0,154068
1076,0846;0,151996
1077,0488;0,149883
1078,0131;0,14777
1078,9773;0,145714
1079,9415;0,143778
1080,9058;0,142013
1081,8700;0,140453
1082,8342;0,139108
1083,7985;0,137972
1084,7627;0,137022
1085,7269;0,136225
1086,6912;0,135544
1087,6554;0,134949
1088,6196;0,134423
1089,5839;0,133965
1090,5481;0,13359
1091,5123;0,133318
1092,4766;0,133162
1093,4408;0,133124
1094,4050;0,133192
1095,3693;0,133347
1096,3335;0,133568
1097,2977;0,133839
1098,2620;0,134146
1099,2262;0,134476
1100,1904;0,13481
1101,1547;0,135123
1102,1189;0,135379
1103,0831;0,135546
1104,0474;0,135595
1105,0116;0,135515
1105,9758;0,13531
1106,9401;0,134995
1107,9043;0,134583
1108,8685;0,134071
1109,8328;0,13343
1110,7970;0,132612
1111,7612;0,131567
1112,7255;0,130274
1113,6897;0,128765
1114,6539;0,127122
1115,6182;0,125458
1116,5824;0,123881
1117,5466;0,122457
1118,5109;0,121192
1119,4751;0,12004
1120,4393;0,118913
1121,4036;0,117719
1122,3678;0,116374
1123,3320;0,114823
1124,2963;0,113041
1125,2605;0,111034
1126,2247;0,108833
1127,1890;0,106484
1128,1532;0,104041
1129,1174;0,101553
1130,0817;0,0990597
1131,0459;0,0965923
1132,0101;0,0941769
1132,9744;0,0918443
1133,9386;0,0896346
1134,9028;0,0875973
1135,8671;0,0857844
1136,8313;0,0842395
1137,7955;0,0829898
1138,7598;0,082042
1139,7240;0,0813842
1140,6882;0,0809912
1141,6525;0,08083
1142,6167;0,0808645
1143,5809;0,0810584
1144,5452;0,0813784
1145,5094;0,0817968
1146,4736;0,0822947
1147,4379;0,0828624
1148,4021;0,0834971
1149,3663;0,084197
1150,3306;0,0849545
1151,2948;0,0857515
1152,2590;0,086559
1153,2233;0,0873407
1154,1875;0,088058
1155,1517;0,0886733
1156,1160;0,0891478
1157,0802;0,0894361
1158,0444;0,0894815
1159,0087;0,089216
1159,9729;0,088568
1160,9371;0,0874769
1161,9014;0,0859094
1162,8656;0,0838725
1163,8298;0,0814183
1164,7941;0,0786394
1165,7583;0,0756556
1166,7225;0,0725968
1167,6868;0,0695845
1168,6510;0,0667175
1169,6152;0,0640626
1170,5795;0,0616547
1171,5437;0,0595026
1172,5079;0,0575985
1173,4722;0,0559267
1174,4364;0,0544695
1175,4006;0,0532084
1176,3649;0,0521253
1177,3291;0,0512017
1178,2933;0,0504198
1179,2576;0,0497631
1180,2218;0,0492161
1181,1860;0,0487646
1182,1503;0,0483961
1183,1145;0,0481015
1184,0787;0,047876
1185,0430;0,04772
1186,0072;0,0476376
1186,9714;0,047635
1187,9357;0,0477178
1188,8999;0,0478902
1189,8641;0,0481545
1190,8284;0,0485113
1191,7926;0,0489596
1192,7568;0,0494956
1193,7211;0,0501119
1194,6853;0,050797
1195,6495;0,0515356
1196,6138;0,0523102
1197,5780;0,0531031
1198,5422;0,0538988
1199,5065;0,0545685
1200,4707;0,055353
1201,4349;0,0561181
1202,3992;0,0568602
1203,3634;0,0575752
1204,3276;0,058258
1205,2919;0,0589056
1206,2561;0,0595205
1207,2203;0,0601149
1208,1846;0,0607114
1209,1488;0,0613399
1210,1130;0,0620313
1211,0773;0,0628096
1212,0415;0,0636868
1213,0057;0,0646605
1213,9700;0,0657165
1214,9342;0,0668335
1215,8984;0,0679878
1216,8627;0,0691554
1217,8269;0,0703135
1218,7911;0,0714432
1219,7554;0,0725307
1220,7196;0,0735678
1221,6838;0,0745519
1222,6481;0,0754837
1223,6123;0,0763658
1224,5765;0,0772004
1225,5408;0,0779892
1226,5050;0,0787337
1227,4692;0,0794348
1228,4335;0,080093
1229,3977;0,0807075
1230,3619;0,0812771
1231,3262;0,0817998
1232,2904;0,0822732
1233,2546;0,0826931
1234,2189;0,0830539
1235,1831;0,0833505
1236,1473;0,0835805
1237,1116;0,0837473
1238,0758;0,0838595
1239,0400;0,0839273
1240,0043;0,0839574
1240,9685;0,0839481
1241,9327;0,0838902
1242,8970;0,083771
1243,8612;0,0835801
1244,8254;0,0833136
1245,7897;0,0829757
1246,7539;0,082576
1247,7181;0,082126
1248,6824;0,081636
1249,6466;0,0811139
1250,6108;0,0805666
1251,5751;0,0800019
1252,5393;0,0794306
1253,5035;0,0788651
1254,4678;0,0783143
1255,4320;0,0777778
1256,3962;0,0772437
1257,3605;0,0766921
1258,3247;0,0761037
1259,2889;0,0754689
1260,2532;0,0747904
1261,2174;0,0740789
1262,1816;0,0733436
1263,1459;0,0725861
1264,1101;0,0718016
1265,0743;0,0709845
1266,0386;0,0701346
1267,0028;0,0692579
1267,9670;0,0683627
1268,9313;0,067456
1269,8955;0,0665418
1270,8597;0,0656234
1271,8240;0,0647067
1272,7882;0,0638009
1273,7524;0,0629166
1274,7167;0,0620632
1275,6809;0,061247
1276,6451;0,0604702
1277,6094;0,0597303
1278,5736;0,0590199
1279,5378;0,0583285
1280,5021;0,0576462
1281,4663;0,0569683
1282,4305;0,0562978
1283,3948;0,0556447
1284,3590;0,0550223
1285,3232;0,0544438
1286,2875;0,0539202
1287,2517;0,0534602
1288,2159;0,0530702
1289,1802;0,052753
1290,1444;0,052507
1291,1086;0,052327
1292,0729;0,0522081
1293,0371;0,0521495
1294,0013;0,052157
1294,9656;0,0522399
1295,9298;0,0524072
1296,8940;0,052662
1297,8583;0,0530008
1298,8225;0,0534161
1299,7867;0,0538989
1300,7510;0,054441
1301,7152;0,0550358
1302,6794;0,0556762
1303,6437;0,0563548
1304,6079;0,0570665
1305,5721;0,0578079
1306,5364;0,0585763
1307,5006;0,059368
1308,4648;0,0601762
1309,4291;0,0609901
1310,3933;0,0617937
1311,3575;0,0625666
1312,3218;0,0632845
1313,2860;0,0639218
1314,2502;0,0644542
1315,2145;0,0648601
1316,1787;0,0651205
1317,1429;0,0652226
1318,1072;0,0651672
1319,0714;0,0649756
1320,0356;0,06469
1320,9999;0,064361
1321,9641;0,0640317
1322,9283;0,0637279
1323,8926;0,0634599
1324,8568;0,0632298
1325,8210;0,0630371
1326,7853;0,0628808
1327,7495;0,0627564
1328,7137;0,0626536
1329,6780;0,0625563
1330,6422;0,0624469
1331,6064;0,0623121
1332,5707;0,0621457
1333,5349;0,0619467
1334,4991;0,0617109
1335,4634;0,0614228
1336,4276;0,0610528
1337,3918;0,060567
1338,3561;0,0599533
1339,3203;0,0592491
1340,2845;0,0585412
1341,2488;0,0579187
1342,2130;0,0574245
1343,1772;0,0570497
1344,1415;0,0567622
1345,1057;0,0565361
1346,0699;0,0563645
1347,0342;0,0562577
1347,9984;0,0562337
1348,9626;0,0563068
1349,9269;0,056479
1350,8911;0,0567379
1351,8553;0,0570621
1352,8196;0,0574312
1353,7838;0,0578367
1354,7480;0,0582848
1355,7123;0,0587893
1356,6765;0,0593569
1357,6407;0,0599775
1358,6050;0,0606265
1359,5692;0,0612738
1360,5334;0,0618904
1361,4977;0,0624532
1362,4619;0,0629562
1363,4261;0,0634179
1364,3904;0,0638647
1365,3546;0,0643034
1366,3188;0,0647172
1367,2831;0,0650816
1368,2473;0,0653792
1369,2115;0,0656028
1370,1758;0,0657459
1371,1400;0,0657907
1372,1042;0,0657048
1373,0685;0,0654544
1374,0327;0,0650333
1374,9969;0,0644814
1375,9612;0,0638596
1376,9254;0,063195
1377,8896;0,062461
1378,8539;0,0616131
1379,8181;0,0606441
1380,7823;0,0596081
1381,7466;0,0585893
1382,7108;0,0576394
1383,6750;0,0567399
1384,6393;0,0558206
1385,6035;0,0548215
1386,5677;0,0537645
1387,5320;0,0527784
1388,4962;0,0520181
1389,4604;0,051543
1390,4247;0,0512897
1391,3889;0,0511455
1392,3531;0,0510225
1393,3174;0,0508848
1394,2816;0,050736
1395,2458;0,0505944
1396,2101;0,0504757
1397,1743;0,0503916
1398,1385;0,0503598
1399,1028;0,050406
1400,0670;0,050549
1401,0313;0,0507829
1401,9955;0,0510763
1402,9597;0,0513886
1403,9240;0,0516931
1404,8882;0,0519918
1405,8524;0,0523128
1406,8167;0,0526865
1407,7809;0,053122
1408,7451;0,0536062
1409,7094;0,0541266
1410,6736;0,0546891
1411,6378;0,0553117
1412,6021;0,0559992
1413,5663;0,056723
1414,5305;0,0574258
1415,4948;0,058045
1416,4590;0,0585318
1417,4232;0,0588635
1418,3875;0,0590654
1419,3517;0,0592255
1420,3159;0,0594286
1421,2802;0,0596619
1422,2444;0,0598264
1423,2086;0,0598264
1424,1729;0,0596337
1425,1371;0,0592845
1426,1013;0,0588266
1427,0656;0,0582689
1428,0298;0,0575824
1428,9940;0,0567553
1429,9583;0,0558483
1430,9225;0,0549748
1431,8867;0,0542064
1432,8510;0,0535043
1433,8152;0,0527436
1434,7794;0,0518006
1435,7437;0,0506678
1436,7079;0,0495398
1437,6721;0,0487194
1438,6364;0,0483596
1439,6006;0,0483686
1440,5648;0,0485576
1441,5291;0,0487913
1442,4933;0,0490275
1443,4575;0,0492838
1444,4218;0,049586
1445,3860;0,0499349
1446,3502;0,0503078
1447,3145;0,050685
1448,2787;0,0510759
1449,2429;0,051514
1450,2072;0,0520173
1451,1714;0,0525555
1452,1356;0,0530569
1453,0999;0,0534436
1454,0641;0,0536521
1455,0283;0,0536143
1455,9926;0,0532275
1456,9568;0,0524877
1457,9210;0,0517493
1458,8853;0,0514438
1459,8495;0,0515714
1460,8137;0,0518345
1461,7780;0,0519423
1462,7422;0,0517047
1463,7064;0,0510392
1464,6707;0,0500168
1465,6349;0,0488767
1466,5991;0,0478644
1467,5634;0,0470322
1468,5276;0,046243
1469,4918;0,0452966
1470,4561;0,0440123
1471,4203;0,042276
1472,3845;0,0401403
1473,3488;0,0379316
1474,3130;0,0360839
1475,2772;0,0347854
1476,2415;0,0339296
1477,2057;0,0333257
1478,1699;0,0328376
1479,1342;0,0324001
1480,0984;0,0319961
1481,0626;0,031639
1482,0269;0,0313618
1482,9911;0,0311982
1483,9553;0,0311601
1484,9196;0,0312264
1485,8838;0,0313506
1486,8480;0,0314715
1487,8123;0,0315256
1488,7765;0,0314922
1489,7407;0,0314641
1490,7050;0,0316005
1491,6692;0,0319697
1492,6334;0,0325125
1493,5977;0,0331353
1494,5619;0,0337813
1495,5261;0,0344362
1496,4904;0,0351009
1497,4546;0,0357854
1498,4188;0,0365297
1499,3831;0,0373729
1500,3473;0,0382816
1501,3115;0,0391534
1502,2758;0,0398834
1503,2400;0,0404177
1504,2042;0,0407595
1505,1685;0,0409025
1506,1327;0,0407016
1507,0969;0,0399959
1508,0612;0,0391
1509,0254;0,0385186
1509,9896;0,0383024
1510,9539;0,0382273
1511,9181;0,0381087
1512,8823;0,0378664
1513,8466;0,0374872
1514,8108;0,0369874
1515,7750;0,036396
1516,7393;0,0357472
1517,7035;0,035066
1518,6677;0,0343547
1519,6320;0,0336049
1520,5962;0,0328361
1521,5604;0,0321219
1522,5247;0,0315513
1523,4889;0,0311528
1524,4531;0,0308812
1525,4174;0,0306824
1526,3816;0,0305488
1527,3458;0,0305097
1528,3101;0,0305781
1529,2743;0,0307201
1530,2385;0,0308756
1531,2028;0,0309994
1532,1670;0,0310899
1533,1312;0,0311937
1534,0955;0,0313748
1535,0597;0,0316523
1536,0239;0,0319782
1536,9882;0,0322908
1537,9524;0,0325732
1538,9166;0,032829
1539,8809;0,032967
1540,8451;0,0328353
1541,8093;0,0325557
1542,7736;0,0324325
1543,7378;0,0325442
1544,7020;0,0327992
1545,6663;0,0331189
1546,6305;0,03347
1547,5947;0,0338291
1548,5590;0,0341638
1549,5232;0,0344469
1550,4874;0,0346851
1551,4517;0,0349255
1552,4159;0,0352219
1553,3801;0,0355829
1554,3444;0,0359537
1555,3086;0,0362397
1556,2728;0,0363228
1557,2371;0,0360347
1558,2013;0,0352701
1559,1655;0,0344455
1560,1298;0,0342965
1561,0940;0,0349216
1562,0582;0,0359163
1563,0225;0,0369282
1563,9867;0,0377907
1564,9509;0,0384611
1565,9152;0,0389562
1566,8794;0,0393214
1567,8436;0,0396259
1568,8079;0,0399623
1569,7721;0,0404182
1570,7363;0,0410172
1571,7006;0,0416983
1572,6648;0,0423682
1573,6290;0,0429675
1574,5933;0,0434942
1575,5575;0,043987
1576,5217;0,0445103
1577,4860;0,0451436
1578,4502;0,0459232
1579,4144;0,0468043
1580,3787;0,0477109
1581,3429;0,048595
1582,3071;0,0494476
1583,2714;0,0502826
1584,2356;0,0511178
1585,1998;0,0519639
1586,1641;0,0528168
1587,1283;0,0536562
1588,0925;0,05445
1589,0568;0,055163
1590,0210;0,0557642
1590,9852;0,056227
1591,9495;0,0565261
1592,9137;0,056639
1593,8779;0,0565578
1594,8422;0,0563042
1595,8064;0,0559289
1596,7706;0,0554921
1597,7349;0,0550375
1598,6991;0,0545816
1599,6633;0,054121
1600,6276;0,0536484
1601,5918;0,0531689
1602,5560;0,0527051
1603,5203;0,0522867
1604,4845;0,051929
1605,4487;0,0516165
1606,4130;0,0513093
1607,3772;0,050971
1608,3414;0,0506081
1609,3057;0,0502836
1610,2699;0,0500777
1611,2341;0,0500184
1612,1984;0,0500538
1613,1626;0,0500821
1614,1268;0,0500023
1615,0911;0,049763
1616,0553;0,0494238
1617,0195;0,0491752
1617,9838;0,0491949
1618,9480;0,0494755
1619,9122;0,0498605
1620,8765;0,0501881
1621,8407;0,0503728
1622,8049;0,0504188
1623,7692;0,0503979
1624,7334;0,0503931
1625,6976;0,0504402
1626,6619;0,0505277
1627,6261;0,0506474
1628,5903;0,0508219
1629,5546;0,051076
1630,5188;0,0513915
1631,4830;0,051701
1632,4473;0,051918
1633,4115;0,0519613
1634,3757;0,0517588
1635,3400;0,0513044
1636,3042;0,050787
1637,2684;0,050505
1638,2327;0,0505608
1639,1969;0,050837
1640,1611;0,0511817
1641,1254;0,0515022
1642,0896;0,0517556
1643,0538;0,0519162
1644,0181;0,0519522
1644,9823;0,0518217
1645,9465;0,0515253
1646,9108;0,0511953
1647,8750;0,0510185
1648,8392;0,0510134
1649,8035;0,0510035
1650,7677;0,0507401
1651,7319;0,04996
1652,6962;0,0485329
1653,6604;0,0469292
1654,6246;0,0460331
1655,5889;0,0460235
1656,5531;0,0464236
1657,5173;0,0467865
1658,4816;0,0468899
1659,4458;0,0466636
1660,4100;0,0461187
1661,3743;0,0453418
1662,3385;0,0445155
1663,3027;0,0438528
1664,2670;0,0434508
1665,2312;0,0432399
1666,1954;0,0430586
1667,1597;0,0427369
1668,1239;0,0421531
1669,0881;0,0413054
1670,0524;0,0403597
1671,0166;0,0395305
1671,9808;0,0388771
1672,9451;0,0382863
1673,9093;0,037625
1674,8735;0,0368833
1675,8378;0,0362076
1676,8020;0,0357836
1677,7662;0,0356654
1678,7305;0,0357377
1679,6947;0,0358098
1680,6589;0,0356991
1681,6232;0,0352449
1682,5874;0,0343244
1683,5516;0,033007
1684,5159;0,0317208
1685,4801;0,0309249
1686,4443;0,0306533
1687,4086;0,0306455
1688,3728;0,0306639
1689,3370;0,0306063
1690,3013;0,030476
1691,2655;0,0303212
1692,2297;0,030189
1693,1940;0,030107
1694,1582;0,0300782
1695,1224;0,03007
1696,0867;0,0300057
1697,0509;0,0297883
1698,0151;0,029377
1698,9794;0,0288737
1699,9436;0,0285084
1700,9078;0,0284809
1701,8721;0,0288112
1702,8363;0,0293574
1703,8005;0,0299404
1704,7648;0,0304425
1705,7290;0,0308423
1706,6932;0,031202
1707,6575;0,0316141
1708,6217;0,0321373
1709,5859;0,0327703
1710,5502;0,033473
1711,5144;0,034197
1712,4786;0,0348988
1713,4429;0,0355353
1714,4071;0,0360505
1715,3713;0,0363702
1716,3356;0,0364543
1717,2998;0,036418
1718,2640;0,0365209
1719,2283;0,0369247
1720,1925;0,0375779
1721,1567;0,0383331
1722,1210;0,0390669
1723,0852;0,0397179
1724,0494;0,0402815
1725,0137;0,0407946
1725,9779;0,0413112
1726,9421;0,0418703
1727,9064;0,0424694
1728,8706;0,0430581
1729,8348;0,0435482
1730,7991;0,0438288
1731,7633;0,0437906
1732,7275;0,0433987
1733,6918;0,0428079
1734,6560;0,0423233
1735,6202;0,0421226
1736,5845;0,0421155
1737,5487;0,0420843
1738,5129;0,0418514
1739,4772;0,0413523
1740,4414;0,0406428
1741,4056;0,0398528
1742,3699;0,0390968
1743,3341;0,038407
1744,2983;0,0377437
1745,2626;0,0370426
1746,2268;0,0362343
1747,1910;0,0352293
1748,1553;0,0339261
1749,1195;0,0322998
1750,0837;0,0305156
1751,0480;0,0288745
1752,0122;0,0275852
1752,9764;0,0266354
1753,9407;0,0258711
1754,9049;0,0251339
1755,8691;0,0243455
1756,8334;0,0235185
1757,7976;0,0227069
1758,7618;0,0219381
1759,7261;0,0211871
1760,6903;0,0204174
1761,6545;0,0196436
1762,6188;0,0189429
1763,5830;0,0183954
1764,5472;0,0180181
1765,5115;0,0177622
1766,4757;0,0175575
1767,4399;0,0173517
1768,4042;0,0171184
1769,3684;0,0168386
1770,3326;0,0164831
1771,2969;0,0160312
1772,2611;0,0155267
1773,2253;0,0150911
1774,1896;0,0148345
1775,1538;0,014766
1776,1180;0,014806
1777,0823;0,014856
1778,0465;0,0148494
1779,0107;0,0147663
1779,9750;0,0146242
1780,9392;0,0144543
1781,9034;0,0142796
1782,8677;0,0141132
1783,8319;0,0139732
1784,7961;0,013893
1785,7604;0,0139049
1786,7246;0,0140117
1787,6888;0,0141742
1788,6531;0,0143259
1789,6173;0,0143968
1790,5815;0,0143356
1791,5458;0,0141412
1792,5100;0,0138949
1793,4742;0,0137259
1794,4385;0,0137069
1795,4027;0,013805
1796,3669;0,0139318
1797,3312;0,0140062
1798,2954;0,0139835
1799,2596;0,0138605
1800,2239;0,0136725
1801,1881;0,0134796
1802,1523;0,0133393
1803,1166;0,0132802
1804,0808;0,0132985
1805,0450;0,0133713
1806,0093;0,0134696
1806,9735;0,0135632
1807,9377;0,0136223
1808,9020;0,0136215
1809,8662;0,0135511
1810,8304;0,0134282
1811,7947;0,0132916
1812,7589;0,013179
1813,7231;0,0131065
1814,6874;0,0130685
1815,6516;0,0130523
1816,6158;0,0130527
1817,5801;0,0130762
1818,5443;0,0131327
1819,5085;0,0132211
1820,4728;0,0133217
1821,4370;0,0134049
1822,4012;0,0134487
1823,3655;0,0134549
1824,3297;0,0134501
1825,2939;0,0134661
1826,2582;0,0135095
1827,2224;0,0135473
1828,1866;0,0135236
1829,1509;0,0134031
1830,1151;0,0132132
1831,0793;0,0130378
1832,0436;0,0129537
1833,0078;0,0129736
1833,9720;0,0130542
1834,9363;0,0131393
1835,9005;0,0131975
1836,8647;0,0132351
1837,8290;0,0132818
1838,7932;0,0133591
1839,7574;0,0134566
1840,7217;0,0135379
1841,6859;0,0135608
1842,6501;0,0134972
1843,6144;0,0133512
1844,5786;0,0131716
1845,5428;0,0130296
1846,5071;0,0129648
1847,4713;0,0129627
1848,4355;0,012984
1849,3998;0,0130011
1850,3640;0,0130102
1851,3282;0,0130209
1852,2925;0,0130412
1853,2567;0,0130694
1854,2209;0,0130978
1855,1852;0,01312
1856,1494;0,0131345
1857,1136;0,0131411
1858,0779;0,0131378
1859,0421;0,0131229
1860,0063;0,0131031
1860,9706;0,0130985
1861,9348;0,0131347
1862,8990;0,0132273
1863,8633;0,0133682
1864,8275;0,0135252
1865,7917;0,0136507
1866,7560;0,0136954
1867,7202;0,0136311
1868,6844;0,0134801
1869,6487;0,0133146
1870,6129;0,0132036
1871,5771;0,0131636
1872,5414;0,0131635
1873,5056;0,0131618
1874,4698;0,0131346
1875,4341;0,0130839
1876,3983;0,0130304
1877,3625;0,0129984
1878,3268;0,0130024
1879,2910;0,0130414
1880,2552;0,0131034
1881,2195;0,0131741
1882,1837;0,0132445
1883,1479;0,0133117
1884,1122;0,0133746
1885,0764;0,0134289
1886,0406;0,0134647
1887,0049;0,01347
1887,9691;0,0134379
1888,9333;0,0133748
1889,8976;0,0133023
1890,8618;0,013246
1891,8260;0,0132195
1892,7903;0,0132177
1893,7545;0,0132237
1894,7188;0,0132219
1895,6830;0,0132084
1896,6472;0,0131911
1897,6115;0,0131823
1898,5757;0,0131885
1899,5399;0,0132063
1900,5042;0,0132266
1901,4684;0,0132429
1902,4326;0,0132571
1903,3969;0,0132787
1904,3611;0,0133181
1905,3253;0,0133777
1906,2896;0,0134468
1907,2538;0,0135046
1908,2180;0,0135306
1909,1823;0,0135188
1910,1465;0,013485
1911,1107;0,013459
1912,0750;0,0134639
1913,0392;0,013501
1914,0034;0,0135508
1914,9677;0,0135859
1915,9319;0,0135867
1916,8961;0,0135522
1917,8604;0,0134997
1918,8246;0,0134517
1919,7888;0,0134184
1920,7531;0,0133922
1921,7173;0,0133606
1922,6815;0,0133217
1923,6458;0,0132892
1924,6100;0,0132812
1925,5742;0,0133034
1926,5385;0,0133427
1927,5027;0,0133776
1928,4669;0,0133942
1929,4312;0,0133943
1930,3954;0,0133902
1931,3596;0,0133902
1932,3239;0,0133886
1933,2881;0,0133697
1934,2523;0,0133255
1935,2166;0,0132707
1936,1808;0,013241
1937,1450;0,0132725
1938,1093;0,0133767
1939,0735;0,0135281
1940,0377;0,0136712
1941,0020;0,0137438
1941,9662;0,0137098
1942,9304;0,0135832
1943,8947;0,0134195
1944,8589;0,0132774
1945,8231;0,0131832
1946,7874;0,0131283
1947,7516;0,0130901
1948,7158;0,0130565
1949,6801;0,0130329
1950,6443;0,0130313
1951,6085;0,0130497
1952,5728;0,0130621
1953,5370;0,0130294
1954,5012;0,0129272
1955,4655;0,0127697
1956,4297;0,0126101
1957,3939;0,0125129
1958,3582;0,0125142
1959,3224;0,0125965
1960,2866;0,0126973
1961,2509;0,0127485
1962,2151;0,0127184
1963,1793;0,0126249
1964,1436;0,0125155
1965,1078;0,0124328
1966,0720;0,0123918
1967,0363;0,0123807
1968,0005;0,0123815
1968,9647;0,0123885
1969,9290;0,0124088
1970,8932;0,0124484
1971,8574;0,0125019
1972,8217;0,0125549
1973,7859;0,0125964
1974,7501;0,012626
1975,7144;0,0126515
1976,6786;0,0126758
1977,6428;0,0126893
1978,6071;0,0126784
1979,5713;0,0126421
1980,5355;0,0126009
1981,4998;0,012589
1982,4640;0,012638
1983,4282;0,0127613
1984,3925;0,0129462
1985,3567;0,013157
1986,3209;0,0133481
1987,2852;0,01348
1988,2494;0,0135326
1989,2136;0,0135115
1990,1779;0,013446
1991,1421;0,0133792
1992,1063;0,0133527
1993,0706;0,0133894
1994,0348;0,0134857
1994,9990;0,0136156
1995,9633;0,0137432
1996,9275;0,0138353
1997,8917;0,0138703
1998,8560;0,0138423
1999,8202;0,0137624
2000,7844;0,0136544
2001,7487;0,0135476
2002,7129;0,0134676
2003,6771;0,0134307
2004,6414;0,0134392
2005,6056;0,0134813
2006,5698;0,0135345
2007,5341;0,0135741
2008,4983;0,013583
2009,4625;0,0135594
2010,4268;0,0135169
2011,3910;0,0134802
2012,3552;0,013477
2013,3195;0,0135319
2014,2837;0,0136598
2015,2479;0,0138586
2016,2122;0,0141014
2017,1764;0,0143358
2018,1406;0,0144961
2019,1049;0,0145283
2020,0691;0,0144156
2021,0333;0,0141921
2021,9976;0,0139351
2022,9618;0,0137389
2023,9260;0,0136777
2024,8903;0,0137747
2025,8545;0,0139938
2026,8187;0,0142592
2027,7830;0,0144899
2028,7472;0,0146308
2029,7114;0,0146647
2030,6757;0,0146084
2031,6399;0,0144991
2032,6041;0,0143805
2033,5684;0,0142925
2034,5326;0,0142613
2035,4968;0,0142913
2036,4611;0,0143636
2037,4253;0,014444
2038,3895;0,0144984
2039,3538;0,0145078
2040,3180;0,0144764
2041,2822;0,0144282
2042,2465;0,0143938
2043,2107;0,0143956
2044,1749;0,0144412
2045,1392;0,0145245
2046,1034;0,0146319
2047,0676;0,0147472
2048,0320;0,0148528
2048,9961;0,0149321
2049,9604;0,0149746
2050,9246;0,014981
2051,8889;0,0149666
2052,8530;0,0149568
2053,8174;0,0149781
2054,7815;0,0150446
2055,7458;0,0151499
2056,7100;0,0152693
2057,6743;0,0153734
2058,6384;0,0154425
2059,6028;0,0154736
2060,5669;0,0154741
2061,5313;0,0154495
2062,4954;0,0153969
2063,4597;0,0153093
2064,4238;0,0151897
2065,3882;0,0150622
2066,3523;0,0149681
2067,3167;0,0149468
2068,2808;0,0150132
2069,2451;0,0151471
2070,2092;0,0153016
2071,1736;0,0154265
2072,1377;0,0154919
2073,1021;0,0154997
2074,0662;0,0154757
2075,0305;0,0154503
2075,9946;0,0154407
2076,9590;0,0154463
2077,9231;0,0154568
2078,8875;0,0154657
2079,8516;0,0154769
2080,8159;0,0155003
2081,7800;0,0155423
2082,7444;0,0155993
2083,7085;0,0156601
2084,6729;0,0157145
2085,6370;0,0157605
2086,6013;0,0158027
2087,5654;0,0158426
2088,5298;0,0158706
2089,4939;0,0158674
2090,4583;0,0158172
2091,4224;0,0157243
2092,3867;0,0156191
2093,3508;0,0155465
2094,3152;0,0155418
2095,2793;0,015609
2096,2437;0,0157173
2097,2078;0,015821
2098,1721;0,0158872
2099,1362;0,0159117
2100,1006;0,0159142
2101,0647;0,0159154
2102,0291;0,0159238
2102,9932;0,0159295
2103,9575;0,0159163
2104,9216;0,0158775
2105,8860;0,0158231
2106,8501;0,0157754
2107,8145;0,015756
2108,7786;0,0157743
2109,7429;0,0158228
2110,7070;0,015881
2111,6714;0,0159248
2112,6355;0,0159372
2113,5999;0,0159162
2114,5640;0,0158762
2115,5283;0,0158419
2116,4924;0,0158365
2117,4568;0,0158692
2118,4209;0,0159293
2119,3853;0,0159904
2120,3494;0,0160232
2121,3137;0,0160101
2122,2778;0,015953
2123,2422;0,0158718
2124,2063;0,0157948
2125,1707;0,0157474
2126,1348;0,0157439
2127,0991;0,0157827
2128,0632;0,015847
2129,0276;0,0159103
2129,9917;0,0159479
2130,9561;0,0159512
2131,9202;0,0159385
2132,8845;0,0159519
2133,8486;0,016036
2134,8130;0,0162063
2135,7771;0,0164282
2136,7415;0,0166271
2137,7056;0,0167271
2138,6699;0,016694
2139,6340;0,0165549
2140,5984;0,0163834
2141,5625;0,0162619
2142,5269;0,0162442
2143,4910;0,0163376
2144,4553;0,0165096
2145,4194;0,0167087
2146,3838;0,0168857
2147,3479;0,0170059
2148,3123;0,0170536
2149,2764;0,0170309
2150,2407;0,0169563
2151,2048;0,0168604
2152,1692;0,0167804
2153,1333;0,0167529
2154,0977;0,0168094
2155,0618;0,0169705
2156,0261;0,0172391
2156,9902;0,0175879
2157,9546;0,0179546
2158,9187;0,018259
2159,8831;0,0184421
2160,8472;0,0184945
2161,8115;0,0184491
2162,7756;0,018351
2163,7400;0,0182325
2164,7041;0,0181067
2165,6685;0,017973
2166,6326;0,0178254
2167,5969;0,0176588
2168,5610;0,0174737
2169,5254;0,0172823
2170,4895;0,0171142
2171,4539;0,0170132
2172,4180;0,0170195
2173,3823;0,0171404
2174,3464;0,0173293
2175,3108;0,0174942
2176,2749;0,0175414
2177,2393;0,0174294
2178,2034;0,0171937
2179,1677;0,0169251
2180,1318;0,0167151
2181,0962;0,0166037
2182,0603;0,0165663
2183,0247;0,0165472
2183,9888;0,0165126
2184,9531;0,016479
2185,9172;0,016496
2186,8816;0,0165994
2187,8457;0,016774
2188,8101;0,0169531
2189,7742;0,0170534
2190,7385;0,0170213
2191,7026;0,0168584
2192,6670;0,0166156
2193,6311;0,0163638
2194,5955;0,0161638
2195,5596;0,0160503
2196,5239;0,0160324
2197,4880;0,0161003
2198,4524;0,016231
2199,4165;0,0163918
2200,3809;0,0165454
2201,3450;0,0166605
2202,3093;0,0167228
2203,2734;0,01674
2204,2378;0,0167339
2205,2019;0,016725
2206,1663;0,0167191
2207,1304;0,016704
2208,0947;0,0166606
2209,0588;0,016578
2210,0232;0,0164645
2210,9873;0,0163474
2211,9517;0,016262
2212,9158;0,0162369
2213,8801;0,0162811
2214,8442;0,0163784
2215,8086;0,0164906
2216,7727;0,0165689
2217,7371;0,0165706
2218,7012;0,0164766
2219,6655;0,016301
2220,6296;0,0160891
2221,5940;0,0159018
2222,5581;0,0157932
2223,5225;0,015792
2224,4866;0,0158933
2225,4509;0,0160629
2226,4150;0,0162516
2227,3794;0,0164112
2228,3435;0,0165105
2229,3079;0,0165408
2230,2720;0,0165151
2231,2363;0,0164591
2232,2004;0,0163994
2233,1648;0,0163538
2234,1289;0,0163287
2235,0933;0,0163232
2236,0574;0,0163375
2237,0217;0,0163761
2237,9858;0,0164443
2238,9502;0,0165392
2239,9143;0,0166449
2240,8787;0,0167356
2241,8428;0,016788
2242,8071;0,0167935
2243,7712;0,0167627
2244,7356;0,0167184
2245,6997;0,016682
2246,6641;0,016664
2247,6282;0,0166637
2248,5925;0,0166768
2249,5566;0,0167038
2250,5210;0,0167511
2251,4851;0,0168251
2252,4495;0,0169231
2253,4136;0,0170296
2254,3779;0,0171211
2255,3420;0,0171765
2256,3064;0,0171861
2257,2705;0,0171548
2258,2349;0,0170979
2259,1990;0,0170352
2260,1633;0,016985
2261,1274;0,0169606
2262,0918;0,0169677
2263,0559;0,0170032
2264,0203;0,0170553
2264,9844;0,0171075
2265,9487;0,017146
2266,9128;0,0171654
2267,8772;0,01717
2268,8413;0,0171685
2269,8057;0,0171672
2270,7698;0,0171662
2271,7341;0,0171611
2272,6982;0,0171491
2273,6626;0,0171314
2274,6267;0,017112
2275,5911;0,0170913
2276,5552;0,0170629
2277,5195;0,0170169
2278,4836;0,0169485
2279,4480;0,0168658
2280,4121;0,0167913
2281,3765;0,016753
2282,3406;0,016773
2283,3049;0,0168589
2284,2690;0,017002
2285,2334;0,0171833
2286,1975;0,0173811
2287,1619;0,0175781
2288,1260;0,0177649
2289,0903;0,0179394
2290,0544;0,0181038
2291,0188;0,0182608
2291,9829;0,0184104
2292,9473;0,0185496
2293,9114;0,0186739
2294,8757;0,0187795
2295,8398;0,0188638
2296,8042;0,0189231
2297,7683;0,0189504
2298,7327;0,0189351
2299,6968;0,0188696
2300,6611;0,0187579
2301,6252;0,0186222
2302,5896;0,0185005
2303,5537;0,0184342
2304,5181;0,0184491
2305,4822;0,0185388
2306,4465;0,0186593
2307,4106;0,01874
2308,3750;0,01871
2309,3391;0,018528
2310,3035;0,0182025
2311,2676;0,0177908
2312,2319;0,0173759
2313,1960;0,0170309
2314,1604;0,0167903
2315,1245;0,0166421
2316,0889;0,0165438
2317,0530;0,016451
2318,0173;0,0163429
2318,9814;0,016236
2319,9458;0,0161802
2320,9099;0,0162393
2321,8743;0,0164621
2322,8384;0,0168509
2323,8027;0,0173446
2324,7668;0,0178304
2325,7312;0,0181846
2326,6953;0,0183231
2327,6597;0,0182384
2328,6238;0,0180055
2329,5881;0,0177576
2330,5522;0,0176341
2331,5166;0,0177209
2332,4807;0,0180089
2333,4451;0,0184028
2334,4092;0,0187755
2335,3735;0,0190386
2336,3376;0,019187
2337,3020;0,0192961
2338,2661;0,0194699
2339,2305;0,0197594
2340,1946;0,0200917
2341,1589;0,0202548
2342,1230;0,0199879
2343,0874;0,0192187
2344,0515;0,0183136
2345,0159;0,0179295
2345,9800;0,0184351
2346,9443;0,0195935
2347,9084;0,0208174
2348,8728;0,0215868
2349,8369;0,0216875
2350,8013;0,0212445
2351,7654;0,0206095
2352,7297;0,0201473
2353,6938;0,0200283
2354,6582;0,0201973
2355,6223;0,0205221
2356,5867;0,0209017
2357,5508;0,0212401
2358,5151;0,0214159
2359,4792;0,0213373
2360,4436;0,0210067
2361,4077;0,0204968
2362,3721;0,0198705
2363,3362;0,0191489
2364,3005;0,0183472
2365,2646;0,0175084
2366,2290;0,0166876
2367,1931;0,0159154
2368,1575;0,0151901
2369,1216;0,0145062
2370,0859;0,0138815
2371,0500;0,0133583
2372,0144;0,0129833
2372,9785;0,0127887
2373,9429;0,0127887
2374,9070;0,0129845
2375,8713;0,0133676
2376,8354;0,0139167
2377,7998;0,0145923
2378,7639;0,0153347
2379,7283;0,0160697
2380,6924;0,0167221
2381,6567;0,017233
2382,6208;0,017573
2383,5852;0,0177478
2384,5493;0,0177933
2385,5137;0,0177616
2386,4778;0,0177038
2387,4421;0,0176557
2388,4063;0,0176314
2389,3706;0,0176266
2390,3347;0,0176293
2391,2991;0,0176299
2392,2632;0,0176272
2393,2275;0,0176272
2394,1917;0,0176367
2395,1560;0,017658
2396,1201;0,0176868
2397,0845;0,0177162
2398,0486;0,0177421
2399,0129;0,0177635
2399,9771;0,0177814
2400,9414;0,0177973
2401,9055;0,0178094
2402,8699;0,0178155
2403,8340;0,0178154
2404,7983;0,0178139
2405,7625;0,0178196
2406,7268;0,0178395
2407,6909;0,0178755
2408,6553;0,0179224
2409,6194;0,0179695
2410,5837;0,0180069
2411,5479;0,0180299
2412,5122;0,0180405
2413,4763;0,0180463
2414,4407;0,0180562
2415,4048;0,0180767
2416,3691;0,0181095
2417,3333;0,0181512
2418,2976;0,0181953
2419,2617;0,0182347
2420,2261;0,0182641
2421,1902;0,0182809
2422,1545;0,018286
2423,1187;0,0182828
2424,0830;0,0182766
2425,0471;0,0182736
2426,0115;0,0182795
2426,9756;0,0182972
2427,9399;0,0183261
2428,9041;0,0183612
2429,8684;0,0183947
2430,8325;0,0184194
2431,7969;0,0184322
2432,7610;0,0184358
2433,7253;0,0184376
2434,6895;0,0184468
2435,6538;0,0184696
2436,6179;0,0185059
2437,5823;0,0185501
2438,5464;0,0185931
2439,5107;0,0186266
2440,4749;0,0186467
2441,4392;0,0186545
2442,4033;0,018655
2443,3677;0,0186545
2444,3318;0,0186583
2445,2961;0,0186696
2446,2603;0,0186897
2447,2246;0,0187174
2448,1887;0,0187493
2449,1531;0,0187803
2450,1172;0,018805
2451,0815;0,0188209
2452,0457;0,0188305
2453,0100;0,0188409
2453,9741;0,0188603
2454,9385;0,0188937
2455,9026;0,018939
2456,8669;0,0189883
2457,8311;0,0190316
2458,7954;0,0190621
2459,7595;0,0190788
2460,7239;0,0190857
2461,6880;0,0190885
2462,6523;0,0190915
2463,6165;0,0190969
2464,5808;0,0191053
2465,5449;0,0191172
2466,5093;0,0191323
2467,4734;0,0191498
2468,4377;0,0191678
2469,4019;0,0191851
2470,3662;0,0192022
2471,3303;0,0192225
2472,2947;0,0192503
2473,2588;0,0192884
2474,2231;0,0193351
2475,1873;0,0193844
2476,1516;0,019428
2477,1157;0,0194586
2478,0801;0,0194721
2479,0442;0,0194689
2480,0085;0,0194541
2480,9727;0,0194359
2481,9370;0,0194235
2482,9011;0,0194241
2483,8655;0,0194398
2484,8296;0,0194662
2485,7939;0,0194947
2486,7581;0,0195166
2487,7224;0,0195278
2488,6865;0,0195307
2489,6509;0,0195323
2490,6150;0,0195396
2491,5793;0,0195555
2492,5435;0,0195772
2493,5078;0,019599
2494,4719;0,0196155
2495,4363;0,0196251
2496,4004;0,0196301
2497,3647;0,0196355
2498,3289;0,0196463
2499,2932;0,0196656
2500,2573;0,019693
2501,2217;0,0197247
2502,1858;0,0197546
2503,1501;0,0197768
2504,1143;0,0197882
2505,0786;0,0197902
2506,0427;0,0197887
2507,0071;0,0197911
2507,9712;0,0198027
2508,9355;0,0198239
2509,8997;0,0198502
2510,8640;0,0198749
2511,8281;0,0198934
2512,7925;0,019905
2513,7566;0,0199132
2514,7209;0,0199222
2515,6851;0,0199337
2516,6494;0,0199461
2517,6135;0,019955
2518,5779;0,0199568
2519,5420;0,0199509
2520,5063;0,0199398
2521,4705;0,019928
2522,4348;0,0199203
2523,3989;0,0199208
2524,3633;0,0199322
2525,3274;0,0199552
2526,2917;0,0199878
2527,2559;0,0200242
2528,2202;0,0200569
2529,1843;0,0200791
2530,1487;0,020089
2531,1128;0,02009
2532,0771;0,0200888
2533,0413;0,0200906
2534,0056;0,0200956
2534,9697;0,0201001
2535,9341;0,0201001
2536,8982;0,0200953
2537,8625;0,0200899
2538,8267;0,0200895
2539,7910;0,0200974
2540,7551;0,0201135
2541,7195;0,020135
2542,6836;0,0201592
2543,6479;0,0201841
2544,6121;0,0202075
2545,5764;0,0202254
2546,5405;0,0202333
2547,5049;0,0202284
2548,4690;0,0202121
2549,4333;0,0201906
2550,3975;0,0201725
2551,3618;0,0201648
2552,3259;0,0201709
2553,2903;0,0201899
2554,2544;0,0202174
2555,2188;0,0202472
2556,1829;0,0202727
2557,1472;0,0202897
2558,1113;0,020298
2559,0757;0,0203027
2560,0398;0,0203109
2561,0042;0,0203276
2561,9683;0,0203514
2562,9326;0,0203741
2563,8967;0,0203858
2564,8611;0,0203807
2565,8252;0,020361
2566,7896;0,020336
2567,7537;0,0203163
2568,7180;0,0203089
2569,6821;0,0203148
2570,6465;0,0203304
2571,6106;0,0203506
2572,5750;0,0203713
2573,5391;0,0203905
2574,5034;0,0204076
2575,4675;0,0204237
2576,4319;0,0204399
2577,3960;0,0204575
2578,3604;0,0204767
2579,3245;0,0204968
2580,2888;0,0205165
2581,2529;0,0205349
2582,2173;0,0205519
2583,1814;0,0205681
2584,1458;0,0205842
2585,1099;0,0206008
2586,0742;0,0206175
2587,0383;0,020634
2588,0027;0,0206493
2588,9668;0,0206626
2589,9312;0,0206735
2590,8953;0,0206836
2591,8596;0,0206957
2592,8237;0,0207134
2593,7881;0,0207383
2594,7522;0,0207681
2595,7166;0,0207972
2596,6807;0,0208202
2597,6450;0,0208354
2598,6091;0,0208462
2599,5735;0,0208589
2600,5376;0,0208784
2601,5020;0,0209053
2602,4661;0,0209357
2603,4304;0,0209643
2604,3945;0,0209874
2605,3589;0,0210039
2606,3230;0,0210146
2607,2874;0,0210212
2608,2515;0,0210259
2609,2158;0,0210317
2610,1799;0,0210426
2611,1443;0,021062
2612,1084;0,0210906
2613,0728;0,0211256
2614,0369;0,0211615
2615,0012;0,0211931
2615,9653;0,0212182
2616,9297;0,0212381
2617,8938;0,0212568
2618,8582;0,0212779
2619,8223;0,0213025
2620,7866;0,0213287
2621,7507;0,0213521
2622,7151;0,0213692
2623,6792;0,0213788
2624,6436;0,0213838
2625,6077;0,02139
2626,5720;0,0214036
2627,5361;0,0214277
2628,5005;0,0214612
2629,4646;0,0214994
2630,4290;0,021537
2631,3931;0,0215705
2632,3574;0,0215999
2633,3215;0,021627
2634,2859;0,0216533
2635,2500;0,0216792
2636,2144;0,0217041
2637,1785;0,0217278
2638,1428;0,0217516
2639,1069;0,0217774
2640,0713;0,0218068
2641,0354;0,0218394
2641,9998;0,0218737
2642,9639;0,0219083
2643,9282;0,0219432
2644,8923;0,0219799
2645,8567;0,0220192
2646,8208;0,02206
2647,7852;0,0220986
2648,7493;0,0221295
2649,7136;0,0221495
2650,6777;0,0221591
2651,6421;0,0221635
2652,6062;0,0221705
2653,5706;0,0221868
2654,5347;0,0222151
2655,4990;0,0222538
2656,4631;0,0222979
2657,4275;0,0223421
2658,3916;0,0223828
2659,3560;0,0224185
2660,3201;0,0224491
2661,2844;0,0224753
2662,2485;0,0224972
2663,2129;0,022516
2664,1770;0,0225334
2665,1414;0,0225521
2666,1055;0,022574
2667,0698;0,0225994
2668,0339;0,0226262
2668,9983;0,0226512
2669,9624;0,0226726
2670,9268;0,0226912
2671,8909;0,0227101
2672,8552;0,0227331
2673,8193;0,0227621
2674,7837;0,0227957
2675,7478;0,0228297
2676,7122;0,0228597
2677,6763;0,0228834
2678,6406;0,0229021
2679,6047;0,0229204
2680,5691;0,0229437
2681,5332;0,0229755
2682,4976;0,0230159
2683,4617;0,0230614
2684,4260;0,0231063
2685,3901;0,0231459
2686,3545;0,0231783
2687,3186;0,0232048
2688,2830;0,0232285
2689,2471;0,0232524
2690,2114;0,0232776
2691,1755;0,0233038
2692,1399;0,0233302
2693,1040;0,0233571
2694,0684;0,0233861
2695,0325;0,023419
2695,9968;0,0234563
2696,9609;0,0234968
2697,9253;0,0235379
2698,8894;0,0235773
2699,8538;0,023614
2700,8179;0,0236492
2701,7822;0,0236848
2702,7463;0,0237224
2703,7107;0,0237621
2704,6748;0,0238023
2705,6392;0,0238401
2706,6033;0,0238734
2707,5676;0,0239022
2708,5317;0,0239295
2709,4961;0,0239597
2710,4602;0,0239967
2711,4246;0,0240415
2712,3887;0,0240913
2713,3530;0,0241409
2714,3171;0,0241853
2715,2815;0,0242219
2716,2456;0,0242516
2717,2100;0,0242771
2718,1741;0,0243018
2719,1384;0,0243278
2720,1025;0,0243559
2721,0669;0,0243848
2722,0310;0,0244126
2722,9954;0,0244368
2723,9595;0,0244563
2724,9238;0,0244721
2725,8879;0,0244881
2726,8523;0,0245097
2727,8164;0,0245417
2728,7808;0,0245862
2729,7449;0,0246411
2730,7092;0,0247012
2731,6733;0,0247596
2732,6377;0,0248097
2733,6018;0,024847
2734,5662;0,0248701
2735,5303;0,0248814
2736,4946;0,0248862
2737,4587;0,024892
2738,4231;0,0249052
2739,3872;0,0249291
2740,3516;0,0249627
2741,3157;0,0250011
2742,2800;0,0250382
2743,2441;0,0250691
2744,2085;0,0250913
2745,1726;0,0251053
2746,1370;0,0251136
2747,1011;0,0251202
2748,0654;0,0251301
2749,0295;0,0251481
2749,9939;0,0251771
2750,9580;0,0252162
2751,9224;0,0252613
2752,8865;0,0253064
2753,8508;0,0253466
2754,8149;0,0253808
2755,7793;0,0254117
2756,7434;0,0254447
2757,7078;0,0254842
2758,6719;0,0255313
2759,6362;0,025584
2760,6003;0,0256374
2761,5647;0,0256866
2762,5288;0,0257285
2763,4932;0,0257622
2764,4573;0,0257895
2765,4216;0,0258142
2766,3857;0,0258409
2767,3501;0,025874
2768,3142;0,025916
2769,2786;0,0259664
2770,2427;0,0260218
2771,2070;0,0260771
2772,1711;0,0261277
2773,1355;0,0261721
2774,0996;0,0262127
2775,0640;0,0262544
2776,0281;0,0263024
2776,9924;0,0263591
2777,9565;0,0264224
2778,9209;0,026487
2779,8850;0,0265474
2780,8494;0,0266016
2781,8135;0,0266525
2782,7778;0,0267057
2783,7419;0,0267664
2784,7063;0,026835
2785,6704;0,0269065
2786,6348;0,0269732
2787,5989;0,0270299
2788,5632;0,0270777
2789,5273;0,0271239
2790,4917;0,0271784
2791,4558;0,0272482
2792,4202;0,0273333
2793,3843;0,0274275
2794,3486;0,0275224
2795,3127;0,0276114
2796,2771;0,0276931
2797,2412;0,0277708
2798,2056;0,0278495
2799,1697;0,0279338
2800,1340;0,028026
2801,0981;0,0281264
2802,0625;0,0282334
2803,0266;0,0283445
2803,9910;0,0284566
2804,9551;0,0285664
2805,9194;0,0286714
2806,8835;0,0287712
2807,8479;0,0288683
2808,8120;0,0289675
2809,7764;0,0290738
2810,7405;0,0291909
2811,7048;0,0293192
2812,6689;0,0294566
2813,6333;0,0295995
2814,5974;0,0297454
2815,5618;0,0298933
2816,5259;0,0300438
2817,4902;0,0301976
2818,4543;0,0303553
2819,4187;0,0305174
2820,3828;0,0306851
2821,3472;0,0308603
2822,3113;0,031045
2823,2756;0,0312404
2824,2397;0,031446
2825,2041;0,0316601
2826,1682;0,0318806
2827,1326;0,0321065
2828,0967;0,032338
2829,0610;0,0325772
2830,0251;0,0328278
2830,9895;0,0330947
2831,9536;0,0333825
2832,9180;0,0336938
2833,8821;0,0340273
2834,8464;0,0343772
2835,8105;0,0347364
2836,7749;0,0351006
2837,7390;0,0354728
2838,7034;0,0358644
2839,6675;0,0362916
2840,6318;0,0367708
2841,5959;0,0373124
2842,5603;0,0379186
2843,5244;0,038583
2844,4888;0,0392924
2845,4529;0,0400275
2846,4172;0,0407635
2847,3813;0,0414709
2848,3457;0,0421178
2849,3098;0,0426738
2850,2742;0,0431143
2851,2383;0,0434241
2852,2026;0,0435996
2853,1667;0,0436482
2854,1311;0,0435857
2855,0952;0,0434335
2856,0596;0,0432157
2857,0237;0,0429574
2857,9880;0,0426836
2858,9521;0,0424191
2859,9165;0,0421859
2860,8806;0,0420014
2861,8450;0,0418748
2862,8091;0,0418069
2863,7734;0,0417923
2864,7375;0,0418236
2865,7019;0,0418942
2866,6660;0,0419983
2867,6304;0,0421271
2868,5945;0,0422664
2869,5588;0,0423969
2870,5229;0,0425
2871,4873;0,0425647
2872,4514;0,0425928
2873,4158;0,0425975
2874,3799;0,0425978
2875,3442;0,0426102
2876,3083;0,0426441
2877,2727;0,0427013
2878,2368;0,0427782
2879,2012;0,0428701
2880,1653;0,042973
2881,1296;0,0430841
2882,0938;0,0432017
2883,0581;0,0433248
2884,0222;0,043453
2884,9866;0,0435866
2885,9507;0,0437274
2886,9150;0,0438781
2887,8792;0,0440422
2888,8435;0,0442218
2889,8076;0,0444159
2890,7720;0,0446186
2891,7361;0,0448201
2892,7004;0,0450105
2893,6646;0,0451851
2894,6289;0,0453473
2895,5930;0,0455072
2896,5574;0,0456761
2897,5215;0,0458603
2898,4858;0,0460576
2899,4500;0,0462588
2900,4143;0,0464535
2901,3784;0,0466359
2902,3428;0,0468071
2903,3069;0,0469744
2904,2712;0,0471477
2905,2354;0,0473359
2906,1997;0,0475455
2907,1638;0,0477808
2908,1282;0,048045
2909,0923;0,0483404
2910,0566;0,0486689
2911,0208;0,049031
2911,9851;0,0494253
2912,9492;0,0498467
2913,9136;0,0502861
2914,8777;0,0507297
2915,8420;0,0511605
2916,8062;0,05156
2917,7705;0,0519104
2918,7346;0,0521959
2919,6990;0,0524037
2920,6631;0,0525244
2921,6274;0,0525531
2922,5916;0,0524894
2923,5559;0,0523372
2924,5200;0,052103
2925,4844;0,0517935
2926,4485;0,0514152
2927,4128;0,0509758
2928,3770;0,0504868
2929,3413;0,0499644
2930,3054;0,0494275
2931,2698;0,0488924
2932,2339;0,0483682
2933,1982;0,0478558
2934,1624;0,0473505
2935,1267;0,0468473
2936,0908;0,0463447
2937,0552;0,0458453
2938,0193;0,0453537
2938,9836;0,0448741
2939,9478;0,0444086
2940,9121;0,0439581
2941,8762;0,0435235
2942,8406;0,0431066
2943,8047;0,0427106
2944,7690;0,0423395
2945,7332;0,041998
2946,6975;0,04169
2947,6616;0,0414176
2948,6260;0,0411795
2949,5901;0,0409709
2950,5544;0,0407843
2951,5186;0,0406109
2952,4829;0,0404428
2953,4470;0,0402738
2954,4114;0,040099
2955,3755;0,0399149
2956,3398;0,0397187
2957,3040;0,0395096
2958,2683;0,039288
2959,2324;0,0390561
2960,1968;0,0388164
2961,1609;0,0385707
2962,1252;0,038319
2963,0894;0,0380601
2964,0537;0,0377927
2965,0178;0,0375166
2965,9822;0,0372344
2966,9463;0,0369503
2967,9106;0,0366687
2968,8748;0,0363909
2969,8391;0,0361156
2970,8032;0,0358398
2971,7676;0,0355637
2972,7317;0,0352932
2973,6960;0,0350389
2974,6602;0,0348109
2975,6245;0,0346125
2976,5886;0,0344375
2977,5530;0,0342735
2978,5171;0,0341096
2979,4814;0,0339432
2980,4456;0,0337809
2981,4099;0,0336337
2982,3740;0,0335093
2983,3384;0,0334075
2984,3025;0,0333211
2985,2668;0,0332409
2986,2310;0,0331605
2987,1953;0,0330784
2988,1594;0,0329962
2989,1238;0,0329171
2990,0879;0,0328435
2991,0522;0,0327778
2992,0164;0,0327227
2992,9807;0,0326814
2993,9448;0,0326565
2994,9092;0,0326489
2995,8733;0,0326571
2996,8376;0,0326778
2997,8018;0,0327068
2998,7661;0,0327388
2999,7302;0,0327693
3000,6946;0,0327947
3001,6587;0,0328151
3002,6230;0,0328341
3003,5872;0,0328588
3004,5515;0,0328958
3005,5156;0,0329477
3006,4800;0,0330107
3007,4441;0,0330748
3008,4084;0,0331283
3009,3726;0,0331622
3010,3369;0,0331744
3011,3010;0,0331704
3012,2654;0,0331602
3013,2295;0,0331543
3014,1938;0,0331594
3015,1580;0,0331777
3016,1223;0,0332084
3017,0864;0,03325
3018,0508;0,0333015
3019,0149;0,033362
3019,9792;0,0334297
3020,9434;0,0335014
3021,9077;0,0335737
3022,8718;0,0336454
3023,8362;0,0337186
3024,8003;0,0337976
3025,7646;0,0338868
3026,7288;0,0339867
3027,6931;0,0340931
3028,6572;0,0341982
3029,6216;0,0342932
3030,5857;0,0343722
3031,5500;0,0344349
3032,5142;0,0344874
3033,4785;0,0345407
3034,4426;0,0346063
3035,4070;0,0346917
3036,3711;0,0347969
3037,3354;0,0349138
3038,2996;0,0350301
3039,2639;0,0351349
3040,2280;0,0352244
3041,1924;0,0353041
3042,1565;0,0353855
3043,1208;0,0354801
3044,0850;0,035593
3045,0493;0,0357206
3046,0134;0,035854
3046,9778;0,0359838
3047,9419;0,0361061
3048,9063;0,0362233
3049,8704;0,0363414
3050,8347;0,0364654
3051,7988;0,036595
3052,7632;0,0367254
3053,7273;0,0368502
3054,6917;0,0369658
3055,6558;0,0370741
3056,6201;0,037182
3057,5842;0,0372974
3058,5486;0,0374262
3059,5127;0,0375689
3060,4771;0,0377213
3061,4412;0,0378759
3062,4055;0,0380244
3063,3696;0,0381593
3064,3340;0,0382765
3065,2981;0,038376
3066,2625;0,0384625
3067,2266;0,0385441
3068,1909;0,0386299
3069,1550;0,038728
3070,1194;0,0388428
3071,0835;0,0389749
3072,0479;0,0391212
3073,0120;0,0392755
3073,9763;0,03943
3074,9404;0,0395775
3075,9048;0,0397134
3076,8689;0,0398366
3077,8333;0,0399494
3078,7974;0,0400556
3079,7617;0,0401589
3080,7258;0,0402619
3081,6902;0,0403664
3082,6543;0,0404742
3083,6187;0,0405867
3084,5828;0,0407038
3085,5471;0,0408232
3086,5112;0,040942
3087,4756;0,0410587
3088,4397;0,0411754
3089,4041;0,0412975
3090,3682;0,0414299
3091,3325;0,0415744
3092,2966;0,0417276
3093,2610;0,0418835
3094,2251;0,0420366
3095,1895;0,0421844
3096,1536;0,0423267
3097,1179;0,0424634
3098,0820;0,0425926
3099,0464;0,0427119
3100,0105;0,042821
3100,9749;0,0429242
3101,9390;0,0430293
3102,9033;0,0431432
3103,8674;0,0432685
3104,8318;0,043403
3105,7959;0,0435417
3106,7603;0,043682
3107,7244;0,0438258
3108,6887;0,043978
3109,6528;0,0441423
3110,6172;0,044317
3111,5813;0,0444948
3112,5457;0,0446657
3113,5098;0,0448221
3114,4741;0,0449631
3115,4382;0,0450937
3116,4026;0,045222
3117,3667;0,0453543
3118,3311;0,0454935
3119,2952;0,0456393
3120,2595;0,0457906
3121,2236;0,045947
3122,1880;0,0461076
3123,1521;0,0462699
3124,1165;0,04643
3125,0806;0,0465839
3126,0449;0,0467309
3127,0090;0,0468742
3127,9734;0,0470193
3128,9375;0,0471705
3129,9019;0,0473285
3130,8660;0,0474914
3131,8303;0,0476566
3132,7944;0,0478237
3133,7588;0,0479944
3134,7229;0,04817
3135,6873;0,0483495
3136,6514;0,0485289
3137,6157;0,0487037
3138,5798;0,048871
3139,5442;0,0490309
3140,5083;0,0491862
3141,4727;0,0493405
3142,4368;0,0494982
3143,4011;0,049663
3144,3652;0,0498383
3145,3296;0,0500254
3146,2937;0,0502223
3147,2581;0,0504233
3148,2222;0,0506206
3149,1865;0,0508083
3150,1506;0,0509845
3151,1150;0,0511525
3152,0791;0,0513182
3153,0435;0,0514875
3154,0076;0,0516633
3154,9719;0,0518453
3155,9360;0,0520307
3156,9004;0,0522158
3157,8645;0,0523986
3158,8289;0,0525794
3159,7930;0,0527609
3160,7573;0,0529475
3161,7214;0,0531426
3162,6858;0,0533458
3163,6499;0,0535531
3164,6143;0,0537575
3165,5784;0,0539527
3166,5427;0,0541362
3167,5068;0,0543102
3168,4712;0,0544811
3169,4353;0,0546117
3170,3997;0,054797
3171,3638;0,0549951
3172,3281;0,0552033
3173,2922;0,0554152
3174,2566;0,0556221
3175,2207;0,0558168
3176,1851;0,0559973
3177,1492;0,0561682
3178,1135;0,0563392
3179,0776;0,0565195
3180,0420;0,0567125
3181,0061;0,0569137
3181,9705;0,057113
3182,9346;0,0573012
3183,8989;0,057475
3184,8630;0,057639
3185,8274;0,0578019
3186,7915;0,0579715
3187,7559;0,0581505
3188,7200;0,0583367
3189,6843;0,0585266
3190,6484;0,0587183
3191,6128;0,0589126
3192,5769;0,0591108
3193,5413;0,0593115
3194,5054;0,0595102
3195,4697;0,0597
3196,4338;0,0598765
3197,3982;0,0600394
3198,3623;0,060194
3199,3267;0,0603481
3200,2908;0,0605086
3201,2551;0,0606787
3202,2192;0,060857
3203,1836;0,0610391
3204,1477;0,0612197
3205,1121;0,0613952
3206,0762;0,0615652
3207,0405;0,0617323
3208,0046;0,0619
3208,9690;0,062071
3209,9331;0,062246
3210,8975;0,0624244
3211,8616;0,0626069
3212,8259;0,0627949
3213,7900;0,0629895
3214,7544;0,0631872
3215,7185;0,0633787
3216,6829;0,0635521
3217,6470;0,0636993
3218,6113;0,0638233
3219,5754;0,0639388
3220,5398;0,0640657
3221,5039;0,0642184
3222,4683;0,0643983
3223,4324;0,0645947
3224,3967;0,0647922
3225,3608;0,0649809
3226,3252;0,0651598
3227,2893;0,0653342
3228,2537;0,065509
3229,2178;0,0656843
3230,1821;0,0658558
3231,1462;0,06602
3232,1106;0,0661775
3233,0747;0,0663327
3234,0391;0,0664905
3235,0032;0,0666527
3235,9675;0,0668176
3236,9316;0,0669835
3237,8960;0,0671519
3238,8601;0,0673272
3239,8245;0,0675134
3240,7886;0,06771
3241,7529;0,0679101
3242,7170;0,0681036
3243,6814;0,0682829
3244,6455;0,0684478
3245,6099;0,0686062
3246,5740;0,0687699
3247,5383;0,0689483
3248,5024;0,0691437
3249,4668;0,0693514
3250,4309;0,0695631
3251,3953;0,0697718
3252,3594;0,0699747
3253,3237;0,0701731
3254,2878;0,0703698
3255,2522;0,0705668
3256,2163;0,0707638
3257,1807;0,07096
3258,1448;0,0711555
3259,1091;0,0713519
3260,0732;0,071551
3261,0376;0,0717533
3262,0017;0,0719567
3262,9661;0,0721577
3263,9302;0,0723537
3264,8945;0,0725448
3265,8586;0,0727337
3266,8230;0,0729231
3267,7871;0,0731132
3268,7515;0,0733
3269,7156;0,0734761
3270,6799;0,0736339
3271,6440;0,0737691
3272,6084;0,0738826
3273,5725;0,0739806
3274,5369;0,0740715
3275,5010;0,0741633
3276,4653;0,0742598
3277,4294;0,0743604
3278,3938;0,074461
3279,3579;0,0745559
3280,3223;0,0746414
3281,2864;0,0747167
3282,2507;0,074785
3283,2148;0,0748519
3284,1792;0,0749224
3285,1433;0,0749986
3286,1077;0,0750773
3287,0718;0,0751515
3288,0361;0,0752134
3289,0002;0,0752584
3289,9646;0,0752875
3290,9287;0,075306
3291,8931;0,0753199
3292,8572;0,0753314
3293,8215;0,0753383
3294,7856;0,0753368
3295,7500;0,0753262
3296,7141;0,0753118
3297,6785;0,0753039
3298,6426;0,0753124
3299,6069;0,0753413
3300,5710;0,0753872
3301,5354;0,0754409
3302,4995;0,0754919
3303,4639;0,0755316
3304,4280;0,0755543
3305,3923;0,0755574
3306,3564;0,0755418
3307,3208;0,0755122
3308,2849;0,0754786
3309,2493;0,0754533
3310,2134;0,0754473
3311,1777;0,075466
3312,1418;0,0755073
3313,1062;0,075564
3314,0703;0,0756285
3315,0347;0,0756963
3315,9988;0,0757674
3316,9631;0,0758446
3317,9272;0,0759307
3318,8916;0,0760262
3319,8557;0,0761292
3320,8201;0,076236
3321,7842;0,0763424
3322,7485;0,0764453
3323,7126;0,0765427
3324,6770;0,0766347
3325,6411;0,0767227
3326,6055;0,0768087
3327,5696;0,0768948
3328,5339;0,0769828
3329,4980;0,0770729
3330,4624;0,0771642
3331,4265;0,0772533
3332,3909;0,0773347
3333,3550;0,0774013
3334,3193;0,0774459
3335,2834;0,0774634
3336,2478;0,0774529
3337,2119;0,0774164
3338,1763;0,0773572
3339,1404;0,0772773
3340,1047;0,0771778
3341,0688;0,0770611
3342,0332;0,0769329
3342,9973;0,0768027
3343,9617;0,0766799
3344,9258;0,0765693
3345,8901;0,0764683
3346,8542;0,0763683
3347,8186;0,0762589
3348,7827;0,076133
3349,7471;0,0759884
3350,7112;0,0758264
3351,6755;0,0756505
3352,6396;0,075465
3353,6040;0,0752756
3354,5681;0,07509
3355,5325;0,074916
3356,4966;0,0747582
3357,4609;0,0746154
3358,4250;0,0744816
3359,3894;0,0743487
3360,3535;0,0742107
3361,3179;0,0740641
3362,2820;0,0739075
3363,2463;0,0737394
3364,2104;0,0735587
3365,1748;0,0733665
3366,1389;0,0731681
3367,1033;0,0729718
3368,0674;0,0727843
3369,0317;0,0726077
3369,9958;0,0724394
3370,9602;0,0722755
3371,9243;0,0721147
3372,8887;0,071959
3373,8528;0,07181
3374,8171;0,0716649
3375,7813;0,0715168
3376,7456;0,0713588
3377,7097;0,07119
3378,6741;0,071017
3379,6382;0,0708492
3380,6025;0,0706908
3381,5667;0,0705373
3382,5310;0,0703789
3383,4951;0,0702098
3384,4595;0,070036
3385,4236;0,069873
3386,3879;0,0697357
3387,3521;0,0696254
3388,3164;0,0695267
3389,2805;0,0694148
3390,2449;0,06927
3391,2090;0,0690896
3392,1733;0,0688887
3393,1375;0,0686908
3394,1018;0,0685133
3395,0659;0,0683595
3396,0303;0,0682196
3396,9944;0,068079
3397,9587;0,0679259
3398,9229;0,0677551
3399,8872;0,0675671
3400,8513;0,0673666
3401,8157;0,0671606
3402,7798;0,0669577
3403,7441;0,0667665
3404,7083;0,0665917
3405,6726;0,0664319
3406,6367;0,0662794
3407,6011;0,0661226
3408,5652;0,0659501
3409,5295;0,0657545
3410,4937;0,0655348
3411,4580;0,0652983
3412,4221;0,0650596
3413,3865;0,0648365
3414,3506;0,0646423
3415,3149;0,064477
3416,2791;0,0643244
3417,2434;0,0641573
3418,2075;0,0639502
3419,1719;0,0636941
3420,1360;0,0634032
3421,1003;0,0631088
3422,0645;0,0628416
3423,0288;0,0626149
3423,9929;0,0624204
3424,9573;0,0622361
3425,9214;0,0620406
3426,8857;0,0618237
3427,8499;0,0615878
3428,8142;0,0613428
3429,7783;0,0610974
3430,7427;0,0608541
3431,7068;0,06061
3432,6711;0,0603618
3433,6353;0,0601109
3434,5996;0,0598637
3435,5637;0,0596273
3436,5281;0,0594049
3437,4922;0,059194
3438,4565;0,0589898
3439,4207;0,05879
3440,3850;0,0585958
3441,3491;0,0584075
3442,3135;0,0582168
3443,2776;0,0580052
3444,2419;0,0577508
3445,2061;0,057443
3446,1704;0,0570949
3447,1345;0,0567424
3448,0989;0,0564256
3449,0630;0,0561658
3450,0273;0,0559543
3450,9915;0,0557619
3451,9558;0,0555593
3452,9199;0,055333
3453,8843;0,0550906
3454,8484;0,0548508
3455,8127;0,0546284
3456,7769;0,0544234
3457,7412;0,0542218
3458,7053;0,0540052
3459,6697;0,0537621
3460,6338;0,0534938
3461,5981;0,0532126
3462,5623;0,0529338
3463,5266;0,0526674
3464,4907;0,0524148
3465,4551;0,0521708
3466,4192;0,0519298
3467,3835;0,0516906
3468,3477;0,0514561
3469,3120;0,0512291
3470,2761;0,0510073
3471,2405;0,0507825
3472,2046;0,0505476
3473,1689;0,0503037
3474,1331;0,0500636
3475,0974;0,0498439
3476,0615;0,0496519
3477,0259;0,0494759
3477,9900;0,0492885
3478,9543;0,0490615
3479,9185;0,0487843
3480,8828;0,0484734
3481,8469;0,0481636
3482,8113;0,0478863
3483,7754;0,0476491
3484,7397;0,0474349
3485,7039;0,0472163
3486,6682;0,0469769
3487,6323;0,0467218
3488,5967;0,0464738
3489,5608;0,0462552
3490,5251;0,0460709
3491,4893;0,0459023
3492,4536;0,0457189
3493,4177;0,0454981
3494,3821;0,0452423
3495,3462;0,0449826
3496,3105;0,0447613
3497,2747;0,0446032
3498,2390;0,0444954
3499,2031;0,0443898
3500,1675;0,0442277
3501,1316;0,0439728
3502,0959;0,0436379
3503,0601;0,0432811
3504,0244;0,0429692
3504,9885;0,0427313
3505,9529;0,0425438
3506,9170;0,0423532
3507,8813;0,0421139
3508,8455;0,0418176
3509,8098;0,0414964
3510,7739;0,0412001
3511,7383;0,0409604
3512,7024;0,0407745
3513,6667;0,0406152
3514,6309;0,0404566
3515,5952;0,0402915
3516,5593;0,0401328
3517,5237;0,0399976
3518,4878;0,0398898
3519,4521;0,0397927
3520,4163;0,0396777
3521,3806;0,0395209
3522,3447;0,039316
3523,3091;0,0390743
3524,2732;0,0388124
3525,2375;0,0385377
3526,2017;0,0382467
3527,1660;0,0379366
3528,1301;0,0376199
3529,0945;0,0373256
3530,0586;0,0370826
3531,0229;0,0368987
3531,9871;0,0367524
3532,9514;0,0366041
3533,9155;0,0364167
3534,8799;0,036176
3535,8440;0,0359021
3536,8083;0,0356426
3537,7725;0,0354492
3538,7368;0,0353511
3539,7009;0,03534
3540,6653;0,0353714
3541,6294;0,0353772
3542,5938;0,0352854
3543,5579;0,0350479
3544,5222;0,0346739
3545,4863;0,0342409
3546,4507;0,0338571
3547,4148;0,0335917
3548,3792;0,0334354
3549,3433;0,0333181
3550,3076;0,0331582
3551,2717;0,0329112
3552,2361;0,0325953
3553,2002;0,0322779
3554,1646;0,032027
3555,1287;0,0318659
3556,0930;0,0317678
3557,0571;0,0316885
3558,0215;0,031607
3558,9856;0,0315441
3559,9500;0,0315475
3560,9141;0,031648
3561,8784;0,0318186
3562,8425;0,0319638
3563,8069;0,0319389
3564,7710;0,0315989
3565,7354;0,0308936
3566,6995;0,0299726
3567,6638;0,0291433
3568,6279;0,0286423
3569,5923;0,0284822
3570,5564;0,0285214
3571,5208;0,0286005
3572,4849;0,0286183
3573,4492;0,0285455
3574,4133;0,0284057
3575,3777;0,0282395
3576,3418;0,0280747
3577,3062;0,0279203
3578,2703;0,027786
3579,2346;0,0277016
3580,1987;0,02771
3581,1631;0,027834
3582,1272;0,0280434
3583,0916;0,0282476
3584,0557;0,0283174
3585,0200;0,0281304
3585,9841;0,0276526
3586,9485;0,0270239
3587,9126;0,0265185
3588,8770;0,0263395
3589,8411;0,0264741
3590,8054;0,0267546
3591,7695;0,0269929
3592,7339;0,0270659
3593,6980;0,0269523
3594,6624;0,0267261
3595,6265;0,0264971
3596,5908;0,0263237
3597,5549;0,0261795
3598,5193;0,0259975
3599,4834;0,0257454
3600,4478;0,0254653
3601,4119;0,0252423
3602,3762;0,0251305
3603,3403;0,0251061
3604,3047;0,0250798
3605,2688;0,0249451
3606,2332;0,0246316
3607,1973;0,0241458
3608,1616;0,0235771
3609,1257;0,0230474
3610,0901;0,0226445
3611,0542;0,0223991
3612,0186;0,0223056
3612,9827;0,0223423
3613,9470;0,0224656
3614,9111;0,0225998
3615,8755;0,0226435
3616,8396;0,0225071
3617,8040;0,0221722
3618,7681;0,0217493
3619,7324;0,0214556
3620,6965;0,0214785
3621,6609;0,021845
3622,6250;0,0224286
3623,5894;0,0230405
3624,5535;0,0234934
3625,5178;0,0236146
3626,4819;0,0232559
3627,4463;0,022381
3628,4104;0,0212218
3629,3748;0,0202287
3630,3389;0,0196886
3631,3032;0,0195231
3632,2673;0,019485
3633,2317;0,0193822
3634,1958;0,019151
3635,1602;0,0188312
3636,1243;0,0185015
3637,0886;0,0182168
3638,0527;0,0179858
3639,0171;0,0177963
3639,9812;0,0176553
3640,9456;0,0176017
3641,9097;0,0176804
3642,8740;0,0179013
3643,8381;0,0182165
3644,8025;0,0185184
3645,7666;0,0186401
3646,7310;0,0183581
3647,6951;0,0174949
3648,6594;0,0162101
3649,6235;0,0150836
3650,5879;0,014565
3651,5520;0,0145878
3652,5164;0,0148211
3653,4805;0,0149725
3654,4448;0,0148915
3655,4089;0,0145872
3656,3733;0,0142043
3657,3374;0,0139232
3658,3018;0,0138272
3659,2659;0,0138669
3660,2302;0,0139431
3661,1943;0,0140051
3662,1587;0,0140809
3663,1228;0,0142353
3664,0872;0,0144963
3665,0513;0,0148163
3666,0156;0,0150921
3666,9797;0,0152197
3667,9441;0,0151599
3668,9082;0,0149905
3669,8726;0,0148755
3670,8367;0,0149171
3671,8010;0,0150446
3672,7651;0,0150666
3673,7295;0,0148042
3674,6936;0,0142271
3675,6580;0,0135425
3676,6221;0,0130734
3677,5864;0,0129709
3678,5505;0,0131394
3679,5149;0,0134112
3680,4790;0,0136921
3681,4434;0,0139797
3682,4075;0,0143103
3683,3718;0,0146947
3684,3359;0,0150895
3685,3003;0,0154092
3686,2644;0,0155603
3687,2288;0,0154809
3688,1929;0,0151924
3689,1572;0,0148399
3690,1213;0,014621
3691,0857;0,0146275
3692,0498;0,0148054
3693,0142;0,0150529
3693,9783;0,0153037
3694,9426;0,0155374
3695,9067;0,015752
3696,8711;0,0159357
3697,8352;0,0160574
3698,7996;0,0160811
3699,7637;0,0159962
3700,7280;0,0158462
3701,6921;0,015729
3702,6565;0,0157491
3703,6206;0,0159521
3704,5850;0,016302
3705,5491;0,0167088
3706,5134;0,0170593
3707,4775;0,017223
3708,4419;0,0170469
3709,4060;0,0164018
3710,3704;0,0153289
3711,3345;0,0141577
3712,2988;0,0133259
3713,2629;0,0130479
3714,2273;0,013252
3715,1914;0,0137469
3716,1558;0,0143602
3717,1199;0,0149831
3718,0842;0,0155647
3719,0483;0,0160902
3720,0127;0,0165569
3720,9768;0,0169545
3721,9412;0,0172597
3722,9053;0,0174509
3723,8696;0,0175358
3724,8337;0,0175668
3725,7981;0,0176206
3726,7622;0,0177516
3727,7266;0,0179606
3728,6907;0,0182037
3729,6550;0,0184213
3730,6191;0,0185527
3731,5835;0,0185272
3732,5476;0,0182489
3733,5120;0,0176292
3734,4761;0,0167132
3735,4404;0,015777
3736,4045;0,0151697
3737,3689;0,0150331
3738,3330;0,015247
3739,2974;0,015569
3740,2615;0,0157601
3741,2258;0,0156433
3742,1899;0,0151533
3743,1543;0,0144191
3744,1184;0,0137876
3745,0828;0,013598
3746,0469;0,0138664
3747,0112;0,0142929
3747,9753;0,0145
3748,9397;0,0142157
3749,9038;0,0134229
3750,8682;0,0124781
3751,8323;0,0119001
3752,7966;0,0119001
3753,7607;0,0122873
3754,7251;0,0127452
3755,6892;0,013036
3756,6536;0,013054
3757,6177;0,0128308
3758,5820;0,0125166
3759,5461;0,012296
3760,5105;0,0122704
3761,4746;0,0124175
3762,4390;0,0126453
3763,4031;0,0128622
3764,3674;0,0130098
3765,3315;0,0130608
3766,2959;0,013004
3767,2600;0,0128343
3768,2244;0,0125623
3769,1885;0,0122383
3770,1528;0,011961
3771,1169;0,0118378
3772,0813;0,0119204
3773,0454;0,0121727
3774,0098;0,0124947
3774,9739;0,0127698
3775,9382;0,0129064
3776,9023;0,0128689
3777,8667;0,0126981
3778,8308;0,0124998
3779,7952;0,0123808
3780,7593;0,0123778
3781,7236;0,0124466
3782,6877;0,0125086
3783,6521;0,0125036
3784,6162;0,0124174
3785,5806;0,0122819
3786,5447;0,0121552
3787,5090;0,012093
3788,4731;0,0121258
3789,4375;0,0122509
3790,4016;0,0124375
3791,3660;0,0126428
3792,3301;0,0128326
3793,2944;0,0129993
3794,2585;0,0131649
3795,2229;0,0133599
3796,1870;0,0135859
3797,1514;0,0137905
3798,1155;0,0138803
3799,0798;0,0137738
3800,0439;0,0134738
3801,0083;0,0131037
3801,9724;0,0128321
3802,9368;0,0127216
3803,9009;0,012677
3804,8652;0,012545
3805,8293;0,0122543
3806,7937;0,0119
3807,7578;0,011697
3808,7222;0,0118063
3809,6863;0,0122029
3810,6506;0,0127184
3811,6147;0,0131678
3812,5791;0,0134386
3813,5432;0,0135238
3814,5076;0,013517
3815,4717;0,013548
3816,4360;0,0136695
3817,4001;0,0137946
3818,3645;0,0137584
3819,3286;0,0134511
3820,2930;0,012933
3821,2571;0,0124325
3822,2214;0,0121749
3823,1855;0,0122081
3824,1499;0,0124172
3825,1140;0,0126528
3826,0784;0,0128231
3827,0425;0,0129134
3828,0068;0,0129625
3828,9709;0,0130241
3829,9353;0,0131355
3830,8994;0,0133068
3831,8638;0,013524
3832,8279;0,013754
3833,7922;0,0139467
3834,7563;0,0140404
3835,7207;0,013979
3836,6848;0,0137416
3837,6492;0,013373
3838,6133;0,0129771
3839,5776;0,0126513
3840,5417;0,0124244
3841,5061;0,0122679
3842,4702;0,0121603
3843,4346;0,0121317
3844,3987;0,0122534
3845,3630;0,0125837
3846,3271;0,0131162
3847,2915;0,0137694
3848,2556;0,0144085
3849,2200;0,0148676
3850,1841;0,0149509
3851,1484;0,0144495
3852,1125;0,0132952
3853,0769;0,0118754
3854,0410;0,0109362
3855,0054;0,0108411
3855,9695;0,0113525
3856,9338;0,0120763
3857,8979;0,0127449
3858,8623;0,0132333
3859,8264;0,0135042
3860,7908;0,0135711
3861,7549;0,0134886
3862,7192;0,0133496
3863,6833;0,0132573
3864,6477;0,0132673
3865,6118;0,0133565
3866,5762;0,0134477
3867,5403;0,0134595
3868,5046;0,0133435
3869,4688;0,013105
3870,4331;0,0128056
3871,3972;0,0125403
3872,3616;0,0123928
3873,3257;0,0123981
3874,2900;0,0125356
3875,2542;0,0127463
3876,2185;0,012959
3877,1826;0,013115
3878,1470;0,0131873
3879,1111;0,0131884
3880,0754;0,013154
3881,0396;0,0131064
3882,0039;0,0130285
3882,9680;0,0128861
3883,9324;0,012684
3884,8965;0,0124982
3885,8608;0,0124314
3886,8250;0,012523
3887,7893;0,0127026
3888,7534;0,0128339
3889,7178;0,0128063
3890,6819;0,0126203
3891,6462;0,0124131
3892,6104;0,0123687
3893,5747;0,0125691
3894,5388;0,0129459
3895,5032;0,0133578
3896,4673;0,0136828
3897,4316;0,0138573
3898,3958;0,0138738
3899,3601;0,0137566
3900,3242;0,0135294
3901,2886;0,013201
3902,2527;0,012789
3903,2170;0,0123582
3904,1812;0,012014
3905,1455;0,0118393
3906,1096;0,0118397
3907,0740;0,0119554
3908,0381;0,012113
3909,0024;0,0122675
3909,9666;0,0124119
3910,9309;0,0125608
3911,8950;0,0127232
3912,8594;0,0128825
3913,8235;0,0129965
3914,7878;0,0130196
3915,7520;0,0129364
3916,7163;0,0127866
3917,6804;0,0126551
3918,6448;0,0126176
3919,6089;0,0126863
3920,5732;0,012805
3921,5374;0,0128925
3922,5017;0,0128955
3923,4658;0,012823
3924,4302;0,0127424
3925,3943;0,012731
3926,3586;0,0128171
3927,3228;0,0129597
3928,2871;0,0130766
3929,2512;0,0130909
3930,2156;0,0129723
3931,1797;0,0127578
3932,1440;0,0125335
3933,1082;0,012384
3934,0725;0,0123472
3935,0366;0,0124106
3936,0010;0,0125365
3936,9651;0,0126844
3937,9294;0,0128187
3938,8936;0,0129093
3939,8579;0,0129359
3940,8220;0,0128987
3941,7864;0,0128273
3942,7505;0,0127698
3943,7148;0,0127641
3944,6790;0,0128114
3945,6433;0,0128758
3946,6074;0,0129089
3947,5718;0,0128799
3948,5359;0,0127938
3949,5002;0,0126873
3950,4644;0,0126023
3951,4287;0,0125601
3952,3928;0,0125549
3953,3572;0,0125695
3954,3213;0,0125916
3955,2856;0,0126202
3956,2498;0,0126582
3957,2141;0,012702
3958,1782;0,0127381
3959,1426;0,0127495
3960,1067;0,0127282
3961,0710;0,0126823
3962,0352;0,0126333
3962,9995;0,0126033
3963,9636;0,0126028
3964,9280;0,0126268
3965,8921;0,0126607
3966,8564;0,0126904
3967,8206;0,0127098
3968,7849;0,0127209
3969,7490;0,0127294
3970,7134;0,0127378
3971,6775;0,012743
3972,6418;0,0127392
3973,6060;0,0127235
3974,5703;0,012699
3975,5344;0,0126736
3976,4988;0,0126549
3977,4629;0,0126449
3978,4272;0,0126396
3979,3914;0,0126323
3980,3557;0,0126188
3981,3198;0,0126004
3982,2842;0,0125838
3983,2483;0,0125771
3984,2126;0,0125852
3985,1768;0,0126076
3986,1411;0,0126384
3987,1052;0,0126696
3988,0696;0,0126949
3989,0337;0,0127118
3989,9980;0,0127214
3990,9622;0,0127266
3991,9265;0,0127295
3992,8906;0,0127301
3993,8550;0,0127276
3994,8191;0,012722
3995,7834;0,0127147
3996,7476;0,0127079
3997,7119;0,0127029
3998,6760;0,0126998
3999,6404;0,0126989
4000,6045;0,0128008

##### Extended Information
[Comments]
Sample name
Comment
Username
Division
Organization;UNIVERSIDAD INDUSTRIAL DE SANTANDER

[Detailed Information]
Creation date;29/01/2025 4:00 p.m.

Data array type;Linear data array
Horizontal axis;Wavenumber [cm-1]
Vertical axis;Abs
Start;399,193 cm-1
End;4000,6 cm-1
Data interval;0,964233 cm-1
Data points;3736    

[Measurement Information]
Model name;FT/IR-4X1typeA
Serial No.;A035162111

Accessory;ATR PRO 4X
Accessory S/N;A021162126
Incident angle;45 deg

Measurement date;29/01/2025 4:00 p.m.

Light source;Standard
Detector;TGS
Accumulation;Auto (75)
Resolution;4 cm-1
Zero filling;On
Apodization;Cosine
Gain;Auto (8)
Aperture;Auto (7 mm)
Scan speed;Auto (2 mm/sec)
Filter;Auto (12800 Hz)

