TITLE;
DATA TYPE;INFRARED SPECTRUM
ORIGIN;JASCO
OWNER;
DATE;25/02/05
TIME;11:51:38
SPECTROMETER/DATA SYSTEM;
LOCALE;9226
RESOLUTION;
DELTAX;0,964233
XUNITS;1/CM
YUNITS;ABSORBANCE
FIRSTX;  399,1927
LASTX; 4000,6047
NPOINTS;    3736
FIRSTY;     0,24968
MAXY;     0,37337
MINY;    -0,01223
XYDATA
399,1927;0,249682
400,1569;0,247088
401,1211;0,246096
402,0854;0,246183
403,0496;0,246641
404,0138;0,246903
404,9781;0,246696
405,9423;0,246101
406,9065;0,245453
407,8708;0,245077
408,8350;0,245073
409,7992;0,24531
410,7635;0,245646
411,7277;0,246147
412,6919;0,247082
413,6562;0,248716
414,6204;0,251066
415,5846;0,253812
416,5489;0,256292
417,5131;0,257659
418,4773;0,257452
419,4416;0,256328
420,4058;0,255631
421,3700;0,25605
422,3343;0,257285
423,2985;0,258649
424,2627;0,259569
425,2270;0,259811
426,1912;0,259514
427,1554;0,259055
428,1197;0,258805
429,0839;0,258955
430,0481;0,259479
431,0124;0,260193
431,9766;0,260839
432,9408;0,26117
433,9051;0,261033
434,8693;0,260421
435,8335;0,259488
436,7978;0,258495
437,7620;0,257695
438,7262;0,257243
439,6905;0,257186
440,6547;0,257494
441,6189;0,25807
442,5832;0,25873
443,5474;0,259185
444,5116;0,259124
445,4759;0,258372
446,4401;0,256999
447,4043;0,255293
448,3686;0,253624
449,3328;0,252302
450,2970;0,251471
451,2613;0,251103
452,2255;0,251082
453,1897;0,251304
454,1540;0,251719
455,1182;0,252284
456,0824;0,252866
457,0467;0,253208
458,0109;0,253044
458,9751;0,252317
459,9394;0,251258
460,9036;0,250225
461,8678;0,249471
462,8321;0,249071
463,7963;0,248956
464,7605;0,249008
465,7248;0,24913
466,6890;0,249279
467,6532;0,24944
468,6175;0,249584
469,5817;0,249645
470,5459;0,249548
471,5102;0,249271
472,4744;0,24889
473,4386;0,248559
474,4029;0,248417
475,3671;0,248514
476,3313;0,248806
477,2956;0,249201
478,2598;0,249597
479,2240;0,249916
480,1883;0,250132
481,1525;0,250274
482,1167;0,250425
483,0810;0,250674
484,0452;0,251075
485,0094;0,251608
485,9737;0,252202
486,9379;0,252792
487,9021;0,25337
488,8664;0,253977
489,8306;0,254653
490,7948;0,255376
491,7591;0,256041
492,7233;0,256499
493,6875;0,256659
494,6518;0,256555
495,6160;0,256346
496,5802;0,25623
497,5445;0,256351
498,5087;0,256738
499,4729;0,257305
500,4372;0,257905
501,4014;0,25841
502,3656;0,25877
503,3299;0,259028
504,2941;0,259261
505,2583;0,259513
506,2226;0,259778
507,1868;0,260028
508,1510;0,260259
509,1153;0,260525
510,0795;0,260912
511,0437;0,261499
512,0080;0,262317
512,9722;0,263342
513,9365;0,264508
514,9007;0,265719
515,8649;0,266846
516,8292;0,267739
517,7934;0,268266
518,7576;0,268394
519,7219;0,268234
520,6861;0,267987
521,6503;0,267848
522,6146;0,267919
523,5788;0,268182
524,5430;0,268521
525,5073;0,268784
526,4715;0,268864
527,4357;0,268745
528,4000;0,268483
529,3642;0,268132
530,3284;0,267711
531,2927;0,267207
532,2569;0,266622
533,2211;0,265996
534,1854;0,265401
535,1496;0,264901
536,1138;0,264516
537,0781;0,264218
538,0423;0,263969
539,0065;0,26376
539,9708;0,263621
540,9350;0,263603
541,8992;0,263736
542,8635;0,264001
543,8277;0,264344
544,7919;0,264713
545,7562;0,265096
546,7204;0,265527
547,6846;0,266047
548,6489;0,266663
549,6131;0,267318
550,5773;0,267923
551,5416;0,268412
552,5058;0,26879
553,4700;0,269123
554,4343;0,269488
555,3985;0,269901
556,3627;0,270283
557,3270;0,270475
558,2912;0,270311
559,2554;0,269691
560,2197;0,268622
561,1839;0,267211
562,1481;0,265625
563,1124;0,264036
564,0766;0,262573
565,0408;0,2613
566,0051;0,260215
566,9693;0,259278
567,9335;0,258441
568,8978;0,257679
569,8620;0,257004
570,8262;0,256451
571,7905;0,256053
572,7547;0,25582
573,7189;0,255723
574,6832;0,25571
575,6474;0,255718
576,6116;0,255701
577,5759;0,255649
578,5401;0,255577
579,5043;0,255512
580,4686;0,255467
581,4328;0,255428
582,3970;0,255359
583,3613;0,255225
584,3255;0,25501
585,2897;0,254738
586,2540;0,254464
587,2182;0,254249
588,1824;0,254139
589,1467;0,254138
590,1109;0,254213
591,0751;0,2543
592,0394;0,254327
593,0036;0,254237
593,9678;0,254001
594,9321;0,253617
595,8963;0,2531
596,8605;0,252474
597,8248;0,251773
598,7890;0,251037
599,7532;0,250312
600,7175;0,249639
601,6817;0,249035
602,6459;0,2485
603,6102;0,248013
604,5744;0,247543
605,5386;0,24705
606,5029;0,246476
607,4671;0,245754
608,4313;0,244828
609,3956;0,243697
610,3598;0,242439
611,3240;0,241209
612,2883;0,240181
613,2525;0,239463
614,2167;0,239026
615,1810;0,238679
616,1452;0,238134
617,1094;0,23712
618,0737;0,235531
619,0379;0,233473
620,0021;0,231199
620,9664;0,228978
621,9306;0,226994
622,8948;0,225316
623,8591;0,223923
624,8233;0,222681
625,7875;0,221621
626,7518;0,220673
627,7160;0,219794
628,6802;0,218957
629,6445;0,218159
630,6087;0,217396
631,5729;0,216659
632,5372;0,215927
633,5014;0,215177
634,4656;0,214406
635,4299;0,213643
636,3941;0,212946
637,3583;0,212369
638,3226;0,211935
639,2868;0,211609
640,2510;0,211312
641,2153;0,210956
642,1795;0,210493
643,1437;0,209936
644,1080;0,209351
645,0722;0,208816
646,0364;0,208374
647,0007;0,208013
647,9649;0,207678
648,9291;0,207314
649,8934;0,206907
650,8576;0,206501
651,8218;0,206172
652,7861;0,205993
653,7503;0,205996
654,7145;0,206148
655,6788;0,206363
656,6430;0,20654
657,6072;0,206615
658,5715;0,206591
659,5357;0,206512
660,4999;0,20639
661,4642;0,206129
662,4284;0,205516
663,3926;0,204289
664,3569;0,202305
665,3211;0,19976
666,2853;0,197322
667,2496;0,195839
668,2138;0,195464
669,1780;0,195464
670,1423;0,195366
671,1065;0,195038
672,0707;0,194197
673,0350;0,192616
673,9992;0,190385
674,9634;0,187838
675,9277;0,185343
676,8919;0,183093
677,8561;0,181064
678,8204;0,179133
679,7846;0,177223
680,7488;0,17535
681,7131;0,173595
682,6773;0,172025
683,6415;0,170669
684,6058;0,169524
685,5700;0,168578
686,5342;0,167802
687,4985;0,167146
688,4627;0,166544
689,4269;0,165921
690,3912;0,165241
691,3554;0,164518
692,3196;0,163793
693,2839;0,163101
694,2481;0,162453
695,2123;0,161837
696,1766;0,161228
697,1408;0,160608
698,1050;0,159969
699,0693;0,159316
700,0335;0,158665
700,9977;0,158034
701,9620;0,157429
702,9262;0,156842
703,8904;0,156224
704,8547;0,155553
705,8189;0,15482
706,7831;0,15404
707,7474;0,153248
708,7116;0,152475
709,6758;0,151723
710,6401;0,150964
711,6043;0,150152
712,5685;0,14926
713,5328;0,148308
714,4970;0,14737
715,4612;0,145298
716,4255;0,144881
717,3897;0,144681
718,3539;0,144492
719,3182;0,144031
720,2824;0,143077
721,2466;0,14161
722,2109;0,139818
723,1751;0,137989
724,1393;0,136355
725,1036;0,135013
726,0678;0,133931
727,0320;0,133
727,9963;0,132113
728,9605;0,131208
729,9247;0,130274
730,8890;0,129332
731,8532;0,128412
732,8174;0,127533
733,7817;0,126699
734,7459;0,125912
735,7101;0,125169
736,6744;0,124476
737,6386;0,12384
738,6028;0,123262
739,5671;0,122725
740,5313;0,122195
741,4955;0,121633
742,4598;0,121012
743,4240;0,120327
744,3882;0,119597
745,3525;0,11885
746,3167;0,118109
747,2809;0,117386
748,2452;0,11668
749,2094;0,115986
750,1736;0,115298
751,1379;0,114607
752,1021;0,113903
753,0663;0,113186
754,0306;0,112464
754,9948;0,111759
755,9590;0,111093
756,9233;0,110474
757,8875;0,109894
758,8517;0,109329
759,8160;0,108759
760,7802;0,108176
761,7444;0,107592
762,7087;0,107026
763,6729;0,106493
764,6371;0,105998
765,6014;0,105533
766,5656;0,10508
767,5298;0,104621
768,4941;0,104141
769,4583;0,103635
770,4225;0,103106
771,3868;0,10257
772,3510;0,102047
773,3152;0,101553
774,2795;0,101094
775,2437;0,100666
776,2079;0,100263
777,1722;0,099878
778,1364;0,0995098
779,1006;0,0991535
780,0649;0,0987964
781,0291;0,0984177
781,9933;0,0979957
782,9576;0,097518
783,9218;0,0969876
784,8860;0,0964218
785,8503;0,0958449
786,8145;0,0952817
787,7787;0,0947535
788,7430;0,0942771
789,7072;0,0938642
790,6714;0,093518
791,6357;0,0932316
792,5999;0,0929886
793,5641;0,0927678
794,5284;0,0925503
795,4926;0,0923232
796,4568;0,0920821
797,4211;0,0918295
798,3853;0,0915737
799,3495;0,0913263
800,3138;0,0910981
801,2780;0,0908935
802,2422;0,0907061
803,2065;0,090519
804,1707;0,0903114
805,1349;0,0900695
806,0992;0,0897937
807,0634;0,0894988
808,0276;0,089206
808,9919;0,0889323
809,9561;0,0886831
810,9203;0,088452
811,8846;0,0882267
812,8488;0,0879957
813,8130;0,0877521
814,7773;0,0874937
815,7415;0,0872206
816,7057;0,0869338
817,6700;0,0866367
818,6342;0,0863353
819,5984;0,0860388
820,5627;0,085756
821,5269;0,0854931
822,4911;0,085252
823,4554;0,0850316
824,4196;0,0848298
825,3839;0,0846436
826,3481;0,0844674
827,3123;0,0842903
828,2766;0,0840986
829,2408;0,0838803
830,2050;0,0836311
831,1693;0,0833563
832,1335;0,0830661
833,0977;0,0827682
834,0620;0,0824625
835,0262;0,0821429
835,9904;0,0818039
836,9547;0,0814471
837,9189;0,081082
838,8831;0,0807208
839,8474;0,0803712
840,8116;0,0800339
841,7758;0,0797058
842,7401;0,0793874
843,7043;0,0790862
844,6685;0,0788153
845,6328;0,078586
846,5970;0,0784013
847,5612;0,0782546
848,5255;0,0781341
849,4897;0,0780296
850,4539;0,0779373
851,4182;0,0778596
852,3824;0,0778009
853,3466;0,0777629
854,3109;0,0777416
855,2751;0,0777297
856,2393;0,0777204
857,2036;0,0777119
858,1678;0,077709
859,1320;0,0777216
860,0963;0,0777612
861,0605;0,0778365
862,0247;0,077951
862,9890;0,0781034
863,9532;0,07829
864,9174;0,0785089
865,8817;0,0787623
866,8459;0,0790576
867,8101;0,0794041
868,7744;0,0798075
869,7386;0,0802642
870,7028;0,0807566
871,6671;0,0812541
872,6313;0,0817197
873,5955;0,0821203
874,5598;0,0824362
875,5240;0,0826662
876,4882;0,0828259
877,4525;0,0829421
878,4167;0,0830479
879,3809;0,0831799
880,3452;0,0833772
881,3094;0,08368
882,2736;0,0841233
883,2379;0,0847304
884,2021;0,0855082
885,1663;0,086449
886,1306;0,0875381
887,0948;0,0887605
888,0590;0,0901034
889,0233;0,0915514
889,9875;0,0930775
890,9517;0,0946381
891,9160;0,0961738
892,8802;0,0976167
893,8444;0,0988998
894,8087;0,0999637
895,7729;0,10076
896,7371;0,101254
897,7014;0,101424
898,6656;0,101264
899,6298;0,100785
900,5941;0,100018
901,5583;0,0990082
902,5225;0,0978173
903,4868;0,0965161
904,4510;0,0951783
905,4152;0,0938722
906,3795;0,0926534
907,3437;0,0915611
908,3079;0,090618
909,2722;0,0898326
910,2364;0,0892016
911,2007;0,0887124
912,1649;0,088346
913,1292;0,088083
914,0934;0,0879087
915,0576;0,0878177
916,0219;0,0878108
916,9861;0,0878895
917,9503;0,0880485
918,9146;0,0882754
919,8788;0,0885543
920,8430;0,0888731
921,8073;0,0892256
922,7715;0,0896085
923,7357;0,0900156
924,7000;0,0904353
925,6642;0,0908551
926,6284;0,0912695
927,5927;0,0916848
928,5569;0,0921153
929,5211;0,0925747
930,4854;0,0930668
931,4496;0,0935841
932,4138;0,0941147
933,3781;0,0946521
934,3423;0,0952024
935,3065;0,0957837
936,2708;0,0964199
937,2350;0,0971333
938,1992;0,09794
939,1635;0,0988488
940,1277;0,0998634
941,0919;0,100984
942,0562;0,102211
943,0204;0,103546
943,9846;0,104993
944,9489;0,106558
945,9131;0,108245
946,8773;0,110051
947,8416;0,111968
948,8058;0,113986
949,7700;0,116098
950,7343;0,118312
951,6985;0,12064
952,6627;0,123099
953,6270;0,125696
954,5912;0,128422
955,5554;0,131255
956,5197;0,13417
957,4839;0,137145
958,4481;0,140165
959,4124;0,143219
960,3766;0,146291
961,3408;0,149364
962,3051;0,152416
963,2693;0,155435
964,2335;0,15842
965,1978;0,161386
966,1620;0,164358
967,1262;0,167368
968,0905;0,170454
969,0547;0,173651
970,0189;0,176998
970,9832;0,180536
971,9474;0,184304
972,9116;0,18834
973,8759;0,192681
974,8401;0,19736
975,8043;0,2024
976,7686;0,207811
977,7328;0,213575
978,6970;0,219632
979,6613;0,225872
980,6255;0,232137
981,5897;0,238238
982,5540;0,243989
983,5182;0,249245
984,4824;0,253929
985,4467;0,258043
986,4109;0,261651
987,3751;0,264848
988,3394;0,267724
989,3036;0,270343
990,2678;0,272736
991,2321;0,274913
992,1963;0,276885
993,1605;0,278678
994,1248;0,280341
995,0890;0,281937
996,0532;0,283525
997,0175;0,285142
997,9817;0,286797
998,9459;0,288478
999,9102;0,290167
1000,8744;0,291858
1001,8386;0,293572
1002,8029;0,29535
1003,7671;0,29725
1004,7313;0,299341
1005,6956;0,30169
1006,6598;0,304359
1007,6240;0,307397
1008,5883;0,310829
1009,5525;0,314647
1010,5167;0,318806
1011,4810;0,323221
1012,4452;0,327783
1013,4094;0,332369
1014,3737;0,336862
1015,3379;0,341164
1016,3021;0,345208
1017,2664;0,34895
1018,2306;0,352364
1019,1948;0,355441
1020,1591;0,358181
1021,1233;0,360607
1022,0875;0,362763
1023,0518;0,364705
1024,0160;0,366488
1024,9802;0,368142
1025,9445;0,369663
1026,9087;0,371015
1027,8729;0,372137
1028,8372;0,372953
1029,8014;0,373371
1030,7656;0,373285
1031,7299;0,37259
1032,6941;0,371207
1033,6583;0,369119
1034,6226;0,366398
1035,5868;0,363206
1036,5510;0,359767
1037,5153;0,356322
1038,4795;0,353084
1039,4437;0,350213
1040,4080;0,347805
1041,3722;0,345885
1042,3364;0,344417
1043,3007;0,343308
1044,2649;0,342422
1045,2291;0,341603
1046,1934;0,3407
1047,1576;0,339599
1048,1218;0,338228
1049,0861;0,336554
1050,0503;0,334564
1051,0145;0,332246
1051,9788;0,329588
1052,9430;0,326588
1053,9072;0,323265
1054,8715;0,319659
1055,8357;0,315802
1056,7999;0,311698
1057,7642;0,307302
1058,7284;0,302547
1059,6926;0,297382
1060,6569;0,291826
1061,6211;0,285989
1062,5853;0,280059
1063,5496;0,274249
1064,5138;0,268743
1065,4780;0,263656
1066,4423;0,259028
1067,4065;0,254835
1068,3707;0,251019
1069,3350;0,247506
1070,2992;0,244219
1071,2634;0,24108
1072,2277;0,238012
1073,1919;0,234944
1074,1561;0,231819
1075,1204;0,228605
1076,0846;0,225306
1077,0488;0,221958
1078,0131;0,218633
1078,9773;0,215417
1079,9415;0,212397
1080,9058;0,209644
1081,8700;0,207202
1082,8342;0,205078
1083,7985;0,203253
1084,7627;0,201685
1085,7269;0,200323
1086,6912;0,199122
1087,6554;0,198049
1088,6196;0,197088
1089,5839;0,19624
1090,5481;0,195516
1091,5123;0,194925
1092,4766;0,194466
1093,4408;0,19413
1094,4050;0,193901
1095,3693;0,193763
1096,3335;0,193705
1097,2977;0,193722
1098,2620;0,193811
1099,2262;0,193953
1100,1904;0,194115
1101,1547;0,194244
1102,1189;0,194276
1103,0831;0,194154
1104,0474;0,193844
1105,0116;0,193337
1105,9758;0,192651
1106,9401;0,191812
1107,9043;0,190842
1108,8685;0,189736
1109,8328;0,188463
1110,7970;0,186973
1111,7612;0,18522
1112,7255;0,183189
1113,6897;0,180921
1114,6539;0,17851
1115,6182;0,176086
1116,5824;0,173772
1117,5466;0,171653
1118,5109;0,169749
1119,4751;0,16801
1120,4393;0,166339
1121,4036;0,164615
1122,3678;0,162724
1123,3320;0,160577
1124,2963;0,158121
1125,2605;0,155346
1126,2247;0,152282
1127,1890;0,148993
1128,1532;0,145563
1129,1174;0,142081
1130,0817;0,138621
1131,0459;0,135238
1132,0101;0,131974
1132,9744;0,128866
1133,9386;0,12596
1134,9028;0,123313
1135,8671;0,120985
1136,8313;0,119024
1137,7955;0,117452
1138,7598;0,11627
1139,7240;0,115454
1140,6882;0,114971
1141,6525;0,114784
1142,6167;0,114855
1143,5809;0,115146
1144,5452;0,11562
1145,5094;0,116246
1146,4736;0,117002
1147,4379;0,117875
1148,4021;0,118855
1149,3663;0,119932
1150,3306;0,121083
1151,2948;0,122269
1152,2590;0,123441
1153,2233;0,124539
1154,1875;0,125501
1155,1517;0,126266
1156,1160;0,126775
1157,0802;0,12696
1158,0444;0,126746
1159,0087;0,126051
1159,9729;0,124791
1160,9371;0,1229
1161,9014;0,120348
1162,8656;0,117157
1163,8298;0,113406
1164,7941;0,109223
1165,7583;0,104771
1166,7225;0,10022
1167,6868;0,095734
1168,6510;0,0914478
1169,6152;0,0874574
1170,5795;0,0838151
1171,5437;0,080534
1172,5079;0,0776001
1173,4722;0,074988
1174,4364;0,0726731
1175,4006;0,0706366
1176,3649;0,0688623
1177,3291;0,0673316
1178,2933;0,0660212
1179,2576;0,0649051
1180,2218;0,0639592
1181,1860;0,0631658
1182,1503;0,0625138
1183,1145;0,061996
1184,0787;0,0616069
1185,0430;0,0613422
1186,0072;0,0612014
1186,9714;0,0611889
1187,9357;0,061314
1188,8999;0,0615865
1189,8641;0,0620124
1190,8284;0,0625903
1191,7926;0,0633117
1192,7568;0,064164
1193,7211;0,0651339
1194,6853;0,0662082
1195,6495;0,0673721
1196,6138;0,0686056
1197,5780;0,0698815
1198,5422;0,0711681
1199,5065;0,0721374
1200,4707;0,0733996
1201,4349;0,0746152
1202,3992;0,0757862
1203,3634;0,076921
1204,3276;0,0780277
1205,2919;0,079111
1206,2561;0,0801746
1207,2203;0,0812276
1208,1846;0,0822904
1209,1488;0,0833962
1210,1130;0,0845858
1211,0773;0,0858957
1212,0415;0,0873469
1213,0057;0,0889373
1213,9700;0,0906431
1214,9342;0,092427
1215,8984;0,0942504
1216,8627;0,0960798
1217,8269;0,0978898
1218,7911;0,0996657
1219,7554;0,101398
1220,7196;0,103078
1221,6838;0,104695
1222,6481;0,106239
1223,6123;0,107699
1224,5765;0,109067
1225,5408;0,110343
1226,5050;0,11153
1227,4692;0,112636
1228,4335;0,113668
1229,3977;0,114625
1230,3619;0,115503
1231,3262;0,116292
1232,2904;0,11698
1233,2546;0,117562
1234,2189;0,118037
1235,1831;0,118414
1236,1473;0,118707
1237,1116;0,118934
1238,0758;0,119111
1239,0400;0,119245
1240,0043;0,119333
1240,9685;0,119361
1241,9327;0,119309
1242,8970;0,119156
1243,8612;0,118892
1244,8254;0,118513
1245,7897;0,118028
1246,7539;0,117452
1247,7181;0,116799
1248,6824;0,116089
1249,6466;0,115337
1250,6108;0,11456
1251,5751;0,113771
1252,5393;0,112982
1253,5035;0,112199
1254,4678;0,111423
1255,4320;0,110646
1256,3962;0,109854
1257,3605;0,109027
1258,3247;0,108146
1259,2889;0,107199
1260,2532;0,106188
1261,2174;0,10512
1262,1816;0,104006
1263,1459;0,102852
1264,1101;0,101654
1265,0743;0,100409
1266,0386;0,0991075
1267,0028;0,0977468
1267,9670;0,0963234
1268,9313;0,094834
1269,8955;0,0932778
1270,8597;0,0916601
1271,8240;0,0899961
1272,7882;0,0883114
1273,7524;0,0866384
1274,7167;0,0850101
1275,6809;0,0834545
1276,6451;0,0819887
1277,6094;0,0806146
1278,5736;0,0793187
1279,5378;0,0780773
1280,5021;0,0768691
1281,4663;0,0756862
1282,4305;0,0745393
1283,3948;0,0734516
1284,3590;0,0724466
1285,3232;0,071537
1286,2875;0,0707223
1287,2517;0,0699939
1288,2159;0,0693445
1289,1802;0,0687738
1290,1444;0,0682887
1291,1086;0,0678989
1292,0729;0,067612
1293,0371;0,0674329
1294,0013;0,0673641
1294,9656;0,067406
1295,9298;0,0675568
1296,8940;0,0678123
1297,8583;0,0681675
1298,8225;0,0686191
1299,7867;0,0691668
1300,7510;0,0698105
1301,7152;0,0705514
1302,6794;0,0713832
1303,6437;0,0722942
1304,6079;0,0732724
1305,5721;0,074308
1306,5364;0,0753956
1307,5006;0,0765336
1308,4648;0,0777202
1309,4291;0,0789476
1310,3933;0,0801973
1311,3575;0,0814375
1312,3218;0,0826255
1313,2860;0,0837159
1314,2502;0,0846668
1315,2145;0,0854408
1316,1787;0,0860004
1317,1429;0,0863089
1318,1072;0,0863437
1319,0714;0,086119
1320,0356;0,085697
1320,9999;0,0851731
1321,9641;0,0846404
1322,9283;0,084161
1323,8926;0,083758
1324,8568;0,0834274
1325,8210;0,0831537
1326,7853;0,0829217
1327,7495;0,0827183
1328,7137;0,082529
1329,6780;0,0823334
1330,6422;0,0821098
1331,6064;0,0818457
1332,5707;0,0815444
1333,5349;0,081226
1334,4991;0,0809105
1335,4634;0,0805938
1336,4276;0,080228
1337,3918;0,0797176
1338,3561;0,0789573
1339,3203;0,077915
1340,2845;0,0766921
1341,2488;0,0754764
1342,2130;0,0744264
1343,1772;0,0736065
1344,1415;0,0730057
1345,1057;0,0725848
1346,0699;0,0723091
1347,0342;0,0721601
1347,9984;0,072138
1348,9626;0,0722554
1349,9269;0,0725243
1350,8911;0,0729438
1351,8553;0,0734949
1352,8196;0,074148
1353,7838;0,0748765
1354,7480;0,0756674
1355,7123;0,0765236
1356,6765;0,0774541
1357,6407;0,0784643
1358,6050;0,0795518
1359,5692;0,0807019
1360,5334;0,0818692
1361,4977;0,0829643
1362,4619;0,0838943
1363,4261;0,0846419
1364,3904;0,0852772
1365,3546;0,085882
1366,3188;0,0864873
1367,2831;0,0870738
1368,2473;0,0876
1369,2115;0,0880255
1370,1758;0,0883214
1371,1400;0,0884641
1372,1042;0,0884203
1373,0685;0,0881424
1374,0327;0,0875954
1374,9969;0,0868003
1375,9612;0,0858303
1376,9254;0,0847389
1377,8896;0,0835099
1378,8539;0,0820929
1379,8181;0,0804825
1380,7823;0,0787604
1381,7466;0,0770574
1382,7108;0,0754638
1383,6750;0,0739725
1384,6393;0,0724973
1385,6035;0,0709472
1386,5677;0,0693187
1387,5320;0,0677505
1388,4962;0,0664497
1389,4604;0,0655227
1390,4247;0,0649111
1391,3889;0,0644878
1392,3531;0,0641698
1393,3174;0,0639445
1394,2816;0,0638172
1395,2458;0,063752
1396,2101;0,0636717
1397,1743;0,063519
1398,1385;0,0633119
1399,1028;0,0631378
1400,0670;0,0630917
1401,0313;0,0632144
1401,9955;0,0634794
1402,9597;0,0638266
1403,9240;0,0642086
1404,8882;0,0646202
1405,8524;0,0650984
1406,8167;0,0656881
1407,7809;0,066402
1408,7451;0,0672168
1409,7094;0,0681084
1410,6736;0,0690801
1411,6378;0,0701509
1412,6021;0,0713164
1413,5663;0,0725231
1414,5305;0,073686
1415,4948;0,0747343
1416,4590;0,0756331
1417,4232;0,0763613
1418,3875;0,0769134
1419,3517;0,0773676
1420,3159;0,0778574
1421,2802;0,0783985
1422,2444;0,0788405
1423,2086;0,0790018
1424,1729;0,0788027
1425,1371;0,0782878
1426,1013;0,0775557
1427,0656;0,0766704
1428,0298;0,0756354
1428,9940;0,0744444
1429,9583;0,0731499
1430,9225;0,0718561
1431,8867;0,0706188
1432,8510;0,069372
1433,8152;0,0679712
1434,7794;0,0663075
1435,7437;0,0644328
1436,7079;0,0626459
1437,6721;0,0613669
1438,6364;0,0607893
1439,6006;0,0607403
1440,5648;0,0609079
1441,5291;0,0610874
1442,4933;0,0612458
1443,4575;0,0614538
1444,4218;0,0617845
1445,3860;0,0622514
1446,3502;0,0628132
1447,3145;0,0634248
1448,2787;0,0640837
1449,2429;0,0648214
1450,2072;0,0656351
1451,1714;0,0664326
1452,1356;0,0670622
1453,0999;0,0674064
1454,0641;0,0674589
1455,0283;0,0672979
1455,9926;0,0669116
1456,9568;0,0661697
1457,9210;0,065336
1458,8853;0,0650217
1459,8495;0,065304
1460,8137;0,0657335
1461,7780;0,0658619
1462,7422;0,0654488
1463,7064;0,0644423
1464,6707;0,062972
1465,6349;0,0613484
1466,5991;0,059873
1467,5634;0,0585827
1468,5276;0,0572716
1469,4918;0,0556982
1470,4561;0,053705
1471,4203;0,0512086
1472,3845;0,0482141
1473,3488;0,0449833
1474,3130;0,0420362
1475,2772;0,0397351
1476,2415;0,0380533
1477,2057;0,0367795
1478,1699;0,0357339
1479,1342;0,0348209
1480,0984;0,0340046
1481,0626;0,0332874
1482,0269;0,032702
1482,9911;0,0322939
1483,9553;0,0320931
1484,9196;0,0321015
1485,8838;0,0323048
1486,8480;0,0326636
1487,8123;0,0330566
1488,7765;0,0332839
1489,7407;0,0332864
1490,7050;0,0332868
1491,6692;0,0335163
1492,6334;0,033991
1493,5977;0,0346242
1494,5619;0,0353939
1495,5261;0,0363697
1496,4904;0,0376133
1497,4546;0,0390842
1498,4188;0,0406894
1499,3831;0,0423476
1500,3473;0,043921
1501,3115;0,0451969
1502,2758;0,0460054
1503,2400;0,0463608
1504,2042;0,0465482
1505,1685;0,0470293
1506,1327;0,0478989
1507,0969;0,0483644
1508,0612;0,0478805
1509,0254;0,0470503
1509,9896;0,0463534
1510,9539;0,045717
1511,9181;0,0449714
1512,8823;0,0440613
1513,8466;0,0430112
1514,8108;0,0418424
1515,7750;0,0405387
1516,7393;0,0390806
1517,7035;0,0374868
1518,6677;0,0358153
1519,6320;0,0341443
1520,5962;0,0325725
1521,5604;0,0312251
1522,5247;0,0302028
1523,4889;0,0294911
1524,4531;0,0289606
1525,4174;0,0284814
1526,3816;0,0280244
1527,3458;0,0276492
1528,3101;0,0274099
1529,2743;0,0272991
1530,2385;0,0272876
1531,2028;0,0273875
1532,1670;0,0276432
1533,1312;0,0280586
1534,0955;0,0285524
1535,0597;0,0289852
1536,0239;0,0292257
1536,9882;0,029259
1537,9524;0,0292895
1538,9166;0,0296691
1539,8809;0,0304266
1540,8451;0,0308836
1541,8093;0,030595
1542,7736;0,0300256
1543,7378;0,0295945
1544,7020;0,0293357
1545,6663;0,0292067
1546,6305;0,0292038
1547,5947;0,0293125
1548,5590;0,0294754
1549,5232;0,0296272
1550,4874;0,0297486
1551,4517;0,029877
1552,4159;0,0300497
1553,3801;0,030228
1554,3444;0,0302946
1555,3086;0,030139
1556,2728;0,0297322
1557,2371;0,0290401
1558,2013;0,0279356
1559,1655;0,0268237
1560,1298;0,026778
1561,0940;0,0280038
1562,0582;0,0297792
1563,0225;0,0314321
1563,9867;0,0326602
1564,9509;0,0334413
1565,9152;0,033903
1566,8794;0,0342323
1567,8436;0,0346062
1568,8079;0,0351396
1569,7721;0,0358652
1570,7363;0,0367292
1571,7006;0,0376085
1572,6648;0,0383905
1573,6290;0,0390765
1574,5933;0,039798
1575,5575;0,0406947
1576,5217;0,0417841
1577,4860;0,0430193
1578,4502;0,04437
1579,4144;0,0457723
1580,3787;0,0471432
1581,3429;0,048456
1582,3071;0,0497482
1583,2714;0,0510739
1584,2356;0,0524621
1585,1998;0,053913
1586,1641;0,0554086
1587,1283;0,0569174
1588,0925;0,0583938
1589,0568;0,059781
1590,0210;0,0610232
1590,9852;0,0620743
1591,9495;0,0628942
1592,9137;0,0634434
1593,8779;0,0636916
1594,8422;0,0636438
1595,8064;0,0633587
1596,7706;0,0629333
1597,7349;0,0624615
1598,6991;0,0619999
1599,6633;0,0615605
1600,6276;0,0611277
1601,5918;0,0606859
1602,5560;0,0602413
1603,5203;0,0598224
1604,4845;0,0594549
1605,4487;0,0591331
1606,4130;0,0588183
1607,3772;0,0584679
1608,3414;0,0580808
1609,3057;0,0577178
1610,2699;0,0574562
1611,2341;0,0573067
1612,1984;0,0571886
1613,1626;0,0569955
1614,1268;0,0566802
1615,0911;0,0562887
1616,0553;0,0559531
1617,0195;0,0558709
1617,9838;0,05618
1618,9480;0,0567918
1619,9122;0,0574495
1620,8765;0,0579306
1621,8407;0,0581545
1622,8049;0,0581674
1623,7692;0,0580823
1624,7334;0,0580127
1625,6976;0,0580127
1626,6619;0,0580772
1627,6261;0,0581971
1628,5903;0,0583853
1629,5546;0,0586334
1630,5188;0,0588658
1631,4830;0,0589681
1632,4473;0,0588786
1633,4115;0,058645
1634,3757;0,0583575
1635,3400;0,0580253
1636,3042;0,0576843
1637,2684;0,0575569
1638,2327;0,0577724
1639,1969;0,0581871
1640,1611;0,0585763
1641,1254;0,0587953
1642,0896;0,0588027
1643,0538;0,0586433
1644,0181;0,0584249
1644,9823;0,0582452
1645,9465;0,0580895
1646,9108;0,0578793
1647,8750;0,0575988
1648,8392;0,0571854
1649,8035;0,0564551
1650,7677;0,0552531
1651,7319;0,0535545
1652,6962;0,0514817
1653,6604;0,0496182
1654,6246;0,0489067
1655,5889;0,049414
1656,5531;0,0503425
1657,5173;0,0509879
1658,4816;0,0510604
1659,4458;0,050574
1660,4100;0,0496853
1661,3743;0,0485944
1662,3385;0,0475236
1663,3027;0,0466814
1664,2670;0,0461439
1665,2312;0,0458066
1666,1954;0,0454861
1667,1597;0,0450304
1668,1239;0,0443486
1669,0881;0,0434225
1670,0524;0,0423563
1671,0166;0,0413284
1671,9808;0,040401
1672,9451;0,0394758
1673,9093;0,0384692
1674,8735;0,0374808
1675,8378;0,0367811
1676,8020;0,0365906
1677,7662;0,0368513
1678,7305;0,0372474
1679,6947;0,0374163
1680,6589;0,037114
1681,6232;0,0362414
1682,5874;0,0348015
1683,5516;0,0329872
1684,5159;0,0313856
1685,4801;0,0306131
1686,4443;0,0306541
1687,4086;0,0310245
1688,3728;0,0312842
1689,3370;0,0312396
1690,3013;0,0309035
1691,2655;0,030396
1692,2297;0,0298695
1693,1940;0,0294702
1694,1582;0,0293041
1695,1224;0,0293738
1696,0867;0,0295167
1697,0509;0,0294522
1698,0151;0,0289981
1698,9794;0,0283122
1699,9436;0,0278611
1700,9078;0,0280484
1701,8721;0,0288913
1702,8363;0,0300796
1703,8005;0,0312485
1704,7648;0,0321781
1705,7290;0,032849
1706,6932;0,0334022
1707,6575;0,034033
1708,6217;0,0348675
1709,5859;0,0359113
1710,5502;0,0370911
1711,5144;0,038321
1712,4786;0,0395387
1713,4429;0,0407095
1714,4071;0,0418031
1715,3713;0,0427367
1716,3356;0,0433685
1717,2998;0,0437136
1718,2640;0,0441193
1719,2283;0,0449185
1720,1925;0,0460887
1721,1567;0,0473883
1722,1210;0,0485985
1723,0852;0,0496198
1724,0494;0,05047
1725,0137;0,0512475
1725,9779;0,0520719
1726,9421;0,0530106
1727,9064;0,0540276
1728,8706;0,0549871
1729,8348;0,0557036
1730,7991;0,0559976
1731,7633;0,0557379
1732,7275;0,0549211
1733,6918;0,0538234
1734,6560;0,0529466
1735,6202;0,0525687
1736,5845;0,0525011
1737,5487;0,0523531
1738,5129;0,0518497
1739,4772;0,0509483
1740,4414;0,0498035
1741,4056;0,0486389
1742,3699;0,0475899
1743,3341;0,0466339
1744,2983;0,0456551
1745,2626;0,0445419
1746,2268;0,0432118
1747,1910;0,0415626
1748,1553;0,0394491
1749,1195;0,0368073
1750,0837;0,0338697
1751,0480;0,0311281
1752,0122;0,0289571
1752,9764;0,0273646
1753,9407;0,0261051
1754,9049;0,0249143
1755,8691;0,0236511
1756,8334;0,0223164
1757,7976;0,0209802
1758,7618;0,0196833
1759,7261;0,0183988
1760,6903;0,017085
1761,6545;0,0157718
1762,6188;0,0145755
1763,5830;0,0136098
1764,5472;0,0128896
1765,5115;0,0123306
1766,4757;0,0118244
1767,4399;0,0113022
1768,4042;0,0107456
1769,3684;0,0101528
1770,3326;0,00949845
1771,2969;0,00874719
1772,2611;0,0079432
1773,2253;0,00725509
1774,1896;0,00684557
1775,1538;0,00671551
1776,1180;0,00672339
1777,0823;0,00671066
1778,0465;0,00658688
1779,0107;0,00633922
1779,9750;0,00599983
1780,9392;0,00560849
1781,9034;0,00519391
1782,8677;0,00478153
1783,8319;0,00441431
1784,7961;0,00415402
1785,7604;0,00404647
1786,7246;0,00407969
1787,6888;0,00418273
1788,6531;0,00427019
1789,6173;0,00428713
1790,5815;0,00421409
1791,5458;0,00405237
1792,5100;0,00384556
1793,4742;0,00369286
1794,4385;0,00366108
1795,4027;0,00370725
1796,3669;0,00373004
1797,3312;0,00366012
1798,2954;0,00349125
1799,2596;0,00325469
1800,2239;0,00298433
1801,1881;0,00270782
1802,1523;0,00245411
1803,1166;0,00225184
1804,0808;0,00212014
1805,0450;0,00206489
1806,0093;0,00207933
1806,9735;0,00214269
1807,9377;0,00221737
1808,9020;0,00225163
1809,8662;0,00219699
1810,8304;0,00203704
1811,7947;0,00180111
1812,7589;0,0015426
1813,7231;0,00130477
1814,6874;0,00110917
1815,6516;0,000965859
1816,6158;0,000882978
1817,5801;0,000865641
1818,5443;0,000910029
1819,5085;0,000999829
1820,4728;0,00110893
1821,4370;0,001211
1822,4012;0,00128964
1823,3655;0,00134201
1824,3297;0,00137646
1825,2939;0,00140474
1826,2582;0,00142685
1827,2224;0,00141697
1828,1866;0,00132862
1829,1509;0,00112909
1830,1151;0,000849271
1831,0793;0,000591164
1832,0436;0,000453505
1833,0078;0,000452354
1833,9720;0,000527512
1834,9363;0,000605801
1835,9005;0,000648175
1836,8647;0,000659272
1837,8290;0,000667042
1838,7932;0,000688677
1839,7574;0,000711724
1840,7217;0,000711719
1841,6859;0,00068223
1842,6501;0,000637396
1843,6144;0,000590336
1844,5786;0,000550423
1845,5428;0,000534263
1846,5071;0,000540879
1847,4713;0,000526758
1848,4355;0,000437815
1849,3998;0,000259698
1850,3640;3,20969E-05
1851,3282;-0,000177637
1852,2925;-0,000315542
1853,2567;-0,00036421
1854,2209;-0,000337706
1855,1852;-0,000261661
1856,1494;-0,000160064
1857,1136;-5,37064E-05
1858,0779;3,45792E-05
1859,0421;8,36583E-05
1860,0063;8,81274E-05
1860,9706;7,00822E-05
1861,9348;7,30058E-05
1862,8990;0,000139026
1863,8633;0,000287502
1864,8275;0,000508896
1865,7917;0,00076404
1866,7560;0,000975212
1867,7202;0,00103249
1868,6844;0,000862211
1869,6487;0,000511662
1870,6129;0,000118858
1871,5771;-0,000206505
1872,5414;-0,000435637
1873,5056;-0,000584849
1874,4698;-0,00067213
1875,4341;-0,000708316
1876,3983;-0,000705702
1877,3625;-0,000683311
1878,3268;-0,000658364
1879,2910;-0,000637473
1880,2552;-0,000614241
1881,2195;-0,000576574
1882,1837;-0,000518027
1883,1479;-0,000444952
1884,1122;-0,000374151
1885,0764;-0,00032307
1886,0406;-0,000299795
1887,0049;-0,000299942
1887,9691;-0,000311734
1888,9333;-0,000323024
1889,8976;-0,000324216
1890,8618;-0,000310455
1891,8260;-0,000287264
1892,7903;-0,000272735
1893,7545;-0,000289997
1894,7188;-0,000354447
1895,6830;-0,000463191
1896,6472;-0,000592519
1897,6115;-0,000707614
1898,5757;-0,000780129
1899,5399;-0,000800684
1900,5042;-0,000778847
1901,4684;-0,000734173
1902,4326;-0,000684741
1903,3969;-0,000638352
1904,3611;-0,000590922
1905,3253;-0,000533397
1906,2896;-0,000462976
1907,2538;-0,000392249
1908,2180;-0,000349689
1909,1823;-0,00036665
1910,1465;-0,000455471
1911,1107;-0,00059724
1912,0750;-0,00075246
1913,0392;-0,000882585
1914,0034;-0,000961957
1914,9677;-0,000978073
1915,9319;-0,000930944
1916,8961;-0,000833404
1917,8604;-0,000705044
1918,8246;-0,00056359
1919,7888;-0,000427722
1920,7531;-0,000328242
1921,7173;-0,000308764
1922,6815;-0,000407792
1923,6458;-0,000631365
1924,6100;-0,000937126
1925,5742;-0,0012484
1926,5385;-0,0014905
1927,5027;-0,00162025
1928,4669;-0,00163336
1929,4312;-0,00155799
1930,3954;-0,00144103
1931,3596;-0,00133046
1932,3239;-0,00126209
1933,2881;-0,00125358
1934,2523;-0,00130514
1935,2166;-0,00140187
1936,1808;-0,00151589
1937,1450;-0,00161057
1938,1093;-0,0016486
1939,0735;-0,00160243
1940,0377;-0,00146691
1941,0020;-0,00127147
1941,9662;-0,00107976
1942,9304;-0,000964093
1943,8947;-0,000968572
1944,8589;-0,00109507
1945,8231;-0,00131894
1946,7874;-0,0016073
1947,7516;-0,00192143
1948,7158;-0,00221171
1949,6801;-0,0024221
1950,6443;-0,00251057
1951,6085;-0,00247525
1952,5728;-0,00236598
1953,5370;-0,00226706
1954,5012;-0,002256
1955,4655;-0,00236118
1956,4297;-0,00254582
1957,3939;-0,00273057
1958,3582;-0,00284121
1959,3224;-0,00285104
1960,2866;-0,00279059
1961,2509;-0,00271793
1962,2151;-0,00267325
1963,1793;-0,00265316
1964,1436;-0,00262269
1965,1078;-0,00255314
1966,0720;-0,00245715
1967,0363;-0,00239369
1968,0005;-0,00243531
1968,9647;-0,00262288
1969,9290;-0,00294471
1970,8932;-0,00334883
1971,8574;-0,00376698
1972,8217;-0,00412786
1973,7859;-0,00435742
1974,7501;-0,00438251
1975,7144;-0,00415096
1976,6786;-0,0036743
1977,6428;-0,0030593
1978,6071;-0,00248539
1979,5713;-0,00212481
1980,5355;-0,00205826
1981,4998;-0,00224355
1982,4640;-0,00254713
1983,4282;-0,00281157
1984,3925;-0,00292273
1985,3567;-0,00284674
1986,3209;-0,00262086
1987,2852;-0,00230969
1988,2494;-0,00196234
1989,2136;-0,00160255
1990,1779;-0,0012527
1991,1421;-0,00096116
1992,1063;-0,000797615
1993,0706;-0,000812684
1994,0348;-0,000998498
1994,9990;-0,00128765
1995,9633;-0,00158995
1996,9275;-0,0018379
1997,8917;-0,00201309
1998,8560;-0,00214018
1999,8202;-0,0022539
2000,7844;-0,00236362
2001,7487;-0,00244335
2002,7129;-0,0024539
2003,6771;-0,00237761
2004,6414;-0,00223805
2005,6056;-0,00209026
2006,5698;-0,00198635
2007,5341;-0,00194441
2008,4983;-0,00194461
2009,4625;-0,00195238
2010,4268;-0,0019441
2011,3910;-0,00191306
2012,3552;-0,00185821
2013,3195;-0,0017741
2014,2837;-0,00165621
2015,2479;-0,00151818
2016,2122;-0,0014009
2017,1764;-0,00135585
2018,1406;-0,00140854
2019,1049;-0,00153224
2020,0691;-0,00165765
2021,0333;-0,0017134
2021,9976;-0,00166907
2022,9618;-0,00155266
2023,9260;-0,00143212
2024,8903;-0,00137374
2025,8545;-0,00140598
2026,8187;-0,00151289
2027,7830;-0,00165721
2028,7472;-0,00180938
2029,7114;-0,00195704
2030,6757;-0,00208971
2031,6399;-0,0021767
2032,6041;-0,00216462
2033,5684;-0,00200251
2034,5326;-0,00167899
2035,4968;-0,00123985
2036,4611;-0,000772119
2037,4253;-0,000364038
2038,3895;-7,3762E-05
2039,3538;7,91883E-05
2040,3180;0,000104425
2041,2822;2,83131E-05
2042,2465;-0,000111095
2043,2107;-0,000263928
2044,1749;-0,000371566
2045,1392;-0,000379966
2046,1034;-0,000260651
2047,0676;-2,7841E-05
2048,0320;0,000263302
2048,9961;0,000541761
2049,9604;0,000753148
2050,9246;0,000877047
2051,8889;0,000923116
2052,8530;0,000916944
2053,8174;0,00088746
2054,7815;0,000857636
2055,7458;0,000840134
2056,7100;0,000834893
2057,6743;0,000832667
2058,6384;0,000824759
2059,6028;0,00081403
2060,5669;0,000818595
2061,5313;0,000862631
2062,4954;0,000957626
2063,4597;0,00108641
2064,4238;0,00120373
2065,3882;0,00125697
2066,3523;0,00121481
2067,3167;0,00108464
2068,2808;0,000908244
2069,2451;0,000741608
2070,2092;0,000632752
2071,1736;0,000608033
2072,1377;0,000667589
2073,1021;0,00078925
2074,0662;0,000935354
2075,0305;0,00106295
2075,9946;0,00113661
2076,9590;0,00114134
2077,9231;0,00108899
2078,8875;0,00101306
2079,8516;0,00095345
2080,8159;0,00093932
2081,7800;0,000979361
2082,7444;0,00106328
2083,7085;0,00117067
2084,6729;0,00127941
2085,6370;0,00137012
2086,6013;0,00142615
2087,5654;0,00143433
2088,5298;0,00138863
2089,4939;0,00129504
2090,4583;0,00117319
2091,4224;0,0010518
2092,3867;0,00095927
2093,3508;0,000914171
2094,3152;0,000920027
2095,2793;0,000966413
2096,2437;0,00103537
2097,2078;0,00110925
2098,1721;0,00117648
2099,1362;0,00123241
2100,1006;0,00127854
2101,0647;0,00131095
2102,0291;0,00133202
2102,9932;0,00134211
2103,9575;0,00134433
2104,9216;0,00134566
2105,8860;0,00135473
2106,8501;0,00137688
2107,8145;0,00140969
2108,7786;0,00144256
2109,7429;0,00146148
2110,7070;0,00145625
2111,6714;0,00142512
2112,6355;0,00137408
2113,5999;0,00131216
2114,5640;0,00124756
2115,5283;0,00118784
2116,4924;0,00114313
2117,4568;0,00112722
2118,4209;0,00115209
2119,3853;0,00121758
2120,3494;0,00130322
2121,3137;0,00137096
2122,2778;0,00138059
2123,2422;0,0013104
2124,2063;0,00117015
2125,1707;0,000997575
2126,1348;0,000839808
2127,0991;0,000731415
2128,0632;0,000682108
2129,0276;0,000680061
2129,9917;0,000705648
2130,9561;0,000744209
2131,9202;0,000789103
2132,8845;0,000834982
2133,8486;0,000869193
2134,8130;0,000870906
2135,7771;0,000821156
2136,7415;0,000717
2137,7056;0,00057842
2138,6699;0,000442091
2139,6340;0,000346043
2140,5984;0,0003144
2141,5625;0,000349354
2142,5269;0,000432246
2143,4910;0,000531499
2144,4553;0,000613958
2145,4194;0,000656773
2146,3838;0,00065704
2147,3479;0,000634962
2148,3123;0,000625909
2149,2764;0,000660995
2150,2407;0,000743982
2151,2048;0,000838808
2152,1692;0,000879985
2153,1333;0,000806068
2154,0977;0,000601341
2155,0618;0,000323182
2156,0261;9,52096E-05
2156,9902;5,61171E-05
2157,9546;0,000276919
2158,9187;0,000700067
2159,8831;0,00116581
2160,8472;0,00151509
2161,8115;0,00167396
2162,7756;0,00165936
2163,7400;0,0015344
2164,7041;0,00136465
2165,6685;0,0011971
2166,6326;0,00105768
2167,5969;0,000956948
2168,5610;0,000896942
2169,5254;0,000878158
2170,4895;0,000905873
2171,4539;0,000992021
2172,4180;0,00114729
2173,3823;0,00136395
2174,3464;0,0016008
2175,3108;0,00178678
2176,2749;0,00184934
2177,2393;0,00175246
2178,2034;0,00151756
2179,1677;0,00121221
2180,1318;0,000914986
2181,0962;0,000680502
2182,0603;0,000525751
2183,0247;0,000441894
2183,9888;0,000415773
2184,9531;0,000440939
2185,9172;0,000512617
2186,8816;0,000618462
2187,8457;0,000738862
2188,8101;0,000857431
2189,7742;0,000969775
2190,7385;0,00107965
2191,7026;0,00118494
2192,6670;0,00126752
2193,6311;0,00129895
2194,5955;0,00125939
2195,5596;0,00115456
2196,5239;0,00101658
2197,4880;0,00088767
2198,4524;0,000799684
2199,4165;0,000763543
2200,3809;0,000772563
2201,3450;0,000812423
2202,3093;0,000868565
2203,2734;0,000928687
2204,2378;0,000984412
2205,2019;0,00103474
2206,1663;0,00108734
2207,1304;0,0011514
2208,0947;0,00122293
2209,0588;0,00127412
2210,0232;0,00126026
2210,9873;0,00114627
2211,9517;0,000936931
2212,9158;0,000686646
2213,8801;0,000476234
2214,8442;0,000368058
2215,8086;0,000369389
2216,7727;0,000430427
2217,7371;0,000479365
2218,7012;0,000470329
2219,6655;0,000411403
2220,6296;0,000355142
2221,5940;0,000360548
2222,5581;0,000453712
2223,5225;0,000612162
2224,4866;0,000779317
2225,4509;0,000895612
2226,4150;0,000924965
2227,3794;0,000862557
2228,3435;0,000729547
2229,3079;0,00055814
2230,2720;0,000381858
2231,2363;0,000231987
2232,2004;0,000135666
2233,1648;0,000111189
2234,1289;0,000161034
2235,0933;0,000268151
2236,0574;0,000400387
2237,0217;0,000522773
2237,9858;0,000611472
2238,9502;0,000661752
2239,9143;0,000686251
2240,8787;0,000705494
2241,8428;0,000736693
2242,8071;0,000786444
2243,7712;0,000849772
2244,7356;0,000914408
2245,6997;0,000967602
2246,6641;0,00100255
2247,6282;0,00102205
2248,5925;0,00103762
2249,5566;0,00106378
2250,5210;0,00110955
2251,4851;0,00117186
2252,4495;0,00123544
2253,4136;0,00128094
2254,3779;0,00129709
2255,3420;0,00128899
2256,3064;0,00127546
2257,2705;0,00127631
2258,2349;0,00129809
2259,1990;0,00132909
2260,1633;0,00134787
2261,1274;0,00133994
2262,0918;0,00131093
2263,0559;0,00128595
2264,0203;0,00129457
2264,9844;0,00135103
2265,9487;0,00144365
2266,9128;0,00154062
2267,8772;0,00160819
2268,8413;0,00162829
2269,8057;0,00160501
2270,7698;0,00155786
2271,7341;0,00150904
2272,6982;0,00147372
2273,6626;0,00145758
2274,6267;0,00145984
2275,5911;0,00147639
2276,5552;0,00150096
2277,5195;0,00152552
2278,4836;0,00154327
2279,4480;0,00155425
2280,4121;0,00156981
2281,3765;0,00161108
2282,3406;0,00170003
2283,3049;0,00184762
2284,2690;0,0020462
2285,2334;0,00227155
2286,1975;0,0024946
2287,1619;0,00269685
2288,1260;0,00288054
2289,0903;0,00306672
2290,0544;0,0032813
2291,0188;0,00353718
2291,9829;0,00382394
2292,9473;0,00411202
2293,9114;0,00436911
2294,8757;0,00457794
2295,8398;0,00474321
2296,8042;0,00488304
2297,7683;0,00501185
2298,7327;0,00512806
2299,6968;0,00521685
2300,6611;0,00526667
2301,6252;0,00528726
2302,5896;0,00531378
2303,5537;0,00539338
2304,5181;0,00555894
2305,4822;0,00580516
2306,4465;0,0060803
2307,4106;0,00629985
2308,3750;0,00637769
2309,3391;0,00626147
2310,3035;0,00595569
2311,2676;0,00552173
2312,2319;0,00505331
2313,1960;0,00463788
2314,1604;0,00432287
2315,1245;0,00410491
2316,0889;0,00394696
2317,0530;0,00381128
2318,0173;0,00368794
2318,9814;0,0036024
2319,9458;0,00359804
2320,9099;0,00370531
2321,8743;0,00391791
2322,8384;0,00418834
2323,8027;0,00443916
2324,7668;0,00458314
2325,7312;0,00455099
2326,6953;0,00432008
2327,6597;0,00392908
2328,6238;0,00346692
2329,5881;0,00304049
2330,5522;0,00273714
2331,5166;0,00259606
2332,4807;0,00259653
2333,4451;0,00267061
2334,4092;0,00274143
2335,3735;0,00277028
2336,3376;0,00278385
2337,3020;0,00286234
2338,2661;0,00309014
2339,2305;0,00349036
2340,1946;0,00397463
2341,1589;0,00433803
2342,1230;0,00433804
2343,0874;0,00390588
2344,0515;0,00338216
2345,0159;0,00338216
2345,9800;0,00423188
2346,9443;0,0056453
2347,9084;0,00698272
2348,8728;0,0076897
2349,8369;0,0075563
2350,8013;0,00675688
2351,7654;0,00572478
2352,7297;0,00490844
2353,6938;0,0045312
2354,6582;0,00455201
2355,6223;0,00483391
2356,5867;0,00526441
2357,5508;0,00571579
2358,5151;0,00600844
2359,4792;0,00599388
2360,4436;0,00566274
2361,4077;0,00512827
2362,3721;0,00450598
2363,3362;0,00383715
2364,3005;0,00311656
2365,2646;0,00235555
2366,2290;0,00160037
2367,1931;0,000902605
2368,1575;0,000290048
2369,1216;-0,00023323
2370,0859;-0,000669754
2371,0500;-0,00101533
2372,0144;-0,00125494
2372,9785;-0,00136305
2373,9429;-0,0013069
2374,9070;-0,00105674
2375,8713;-0,000602969
2376,8354;2,7565E-05
2377,7998;0,000766451
2378,7639;0,00151494
2379,7283;0,0021678
2380,6924;0,00264024
2381,6567;0,00288745
2382,6208;0,00291096
2383,5852;0,00275152
2384,5493;0,00247312
2385,5137;0,00214436
2386,4778;0,00182344
2387,4421;0,00154975
2388,4063;0,00134263
2389,3706;0,00120462
2390,3347;0,0011263
2391,2991;0,00109141
2392,2632;0,00108193
2393,2275;0,00108329
2394,1917;0,0010882
2395,1560;0,00109721
2396,1201;0,00111512
2397,0845;0,00114544
2398,0486;0,00118823
2399,0129;0,0012361
2399,9771;0,00127958
2400,9414;0,00131318
2401,9055;0,00133611
2402,8699;0,0013523
2403,8340;0,0013663
2404,7983;0,00138093
2405,7625;0,00139751
2406,7268;0,00141742
2407,6909;0,00144437
2408,6553;0,001483
2409,6194;0,00153377
2410,5837;0,00159105
2411,5479;0,00164345
2412,5122;0,00167934
2413,4763;0,00169354
2414,4407;0,00169118
2415,4048;0,00168529
2416,3691;0,00168985
2417,3333;0,00171273
2418,2976;0,00175304
2419,2617;0,00180412
2420,2261;0,00185875
2421,1902;0,00191204
2422,1545;0,0019623
2423,1187;0,00200793
2424,0830;0,00204582
2425,0471;0,00207259
2426,0115;0,00208756
2426,9756;0,00209468
2427,9399;0,00210108
2428,9041;0,00211324
2429,8684;0,00213382
2430,8325;0,0021617
2431,7969;0,00219471
2432,7610;0,00223216
2433,7253;0,00227469
2434,6895;0,00232141
2435,6538;0,0023675
2436,6179;0,00240504
2437,5823;0,00242747
2438,5464;0,00243463
2439,5107;0,00243459
2440,4749;0,00244047
2441,4392;0,00246411
2442,4033;0,00251048
2443,3677;0,00257574
2444,3318;0,0026495
2445,2961;0,00271932
2446,2603;0,00277495
2447,2246;0,00281109
2448,1887;0,00282829
2449,1531;0,00283235
2450,1172;0,00283248
2451,0815;0,00283821
2452,0457;0,00285583
2453,0100;0,00288581
2453,9741;0,0029226
2454,9385;0,00295723
2455,9026;0,00298192
2456,8669;0,00299412
2457,8311;0,00299789
2458,7954;0,00300168
2459,7595;0,00301331
2460,7239;0,00303532
2461,6880;0,00306332
2462,6523;0,00308876
2463,6165;0,00310446
2464,5808;0,00310929
2465,5449;0,00310877
2466,5093;0,00311123
2467,4734;0,00312255
2468,4377;0,00314348
2469,4019;0,00317127
2470,3662;0,00320372
2471,3303;0,00324154
2472,2947;0,00328653
2473,2588;0,00333718
2474,2231;0,00338614
2475,1873;0,00342284
2476,1516;0,00344016
2477,1157;0,0034402
2478,0801;0,00343414
2479,0442;0,00343565
2480,0085;0,00345231
2480,9727;0,00348136
2481,9370;0,00351257
2482,9011;0,00353592
2483,8655;0,00354824
2484,8296;0,00355447
2485,7939;0,00356347
2486,7581;0,00358211
2487,7224;0,00361212
2488,6865;0,00365101
2489,6509;0,00369541
2490,6150;0,00374334
2491,5793;0,00379357
2492,5435;0,00384331
2493,5078;0,00388674
2494,4719;0,0039167
2495,4363;0,00392912
2496,4004;0,00392692
2497,3647;0,0039202
2498,3289;0,00392127
2499,2932;0,00393737
2500,2573;0,00396575
2501,2217;0,00399522
2502,1858;0,00401367
2503,1501;0,0040169
2504,1143;0,00401225
2505,0786;0,00401427
2506,0427;0,00403485
2507,0071;0,00407498
2507,9712;0,00412369
2508,9355;0,00416519
2509,8997;0,00418888
2510,8640;0,0041954
2511,8281;0,00419471
2512,7925;0,00419852
2513,7566;0,00421248
2514,7209;0,00423354
2515,6851;0,00425336
2516,6494;0,00426444
2517,6135;0,00426455
2518,5779;0,00425701
2519,5420;0,00424789
2520,5063;0,00424255
2521,4705;0,00424392
2522,4348;0,00425241
2523,3989;0,0042663
2524,3633;0,00428197
2525,3274;0,00429423
2526,2917;0,00429804
2527,2559;0,00429172
2528,2202;0,00427982
2529,1843;0,00427301
2530,1487;0,00428346
2531,1128;0,00431777
2532,0771;0,00437176
2533,0413;0,00443142
2534,0056;0,00448014
2534,9697;0,00450788
2535,9341;0,00451613
2536,8982;0,00451518
2537,8625;0,00451601
2538,8267;0,00452299
2539,7910;0,00453278
2540,7551;0,00453971
2541,7195;0,0045426
2542,6836;0,00454688
2543,6479;0,00456017
2544,6121;0,00458494
2545,5764;0,00461471
2546,5405;0,00463739
2547,5049;0,00464343
2548,4690;0,00463271
2549,4333;0,00461476
2550,3975;0,00460244
2551,3618;0,0046037
2552,3259;0,00461757
2553,2903;0,00463647
2554,2544;0,00465257
2555,2188;0,0046631
2556,1829;0,00467101
2557,1472;0,00468144
2558,1113;0,00469719
2559,0757;0,00471669
2560,0398;0,00473547
2561,0042;0,00474953
2561,9683;0,00475796
2562,9326;0,00476303
2563,8967;0,00476826
2564,8611;0,00477606
2565,8252;0,00478635
2566,7896;0,00479685
2567,7537;0,00480455
2568,7180;0,00480732
2569,6821;0,00480515
2570,6465;0,00480033
2571,6106;0,00479657
2572,5750;0,00479744
2573,5391;0,00480474
2574,5034;0,00481789
2575,4675;0,00483483
2576,4319;0,00485385
2577,3960;0,00487501
2578,3604;0,00489989
2579,3245;0,00492981
2580,2888;0,00496395
2581,2529;0,00499913
2582,2173;0,00503165
2583,1814;0,00505964
2584,1458;0,00508379
2585,1099;0,00510569
2586,0742;0,00512537
2587,0383;0,00514071
2588,0027;0,00514959
2588,9668;0,00515337
2589,9312;0,00515804
2590,8953;0,00517122
2591,8596;0,0051968
2592,8237;0,00523132
2593,7881;0,00526571
2594,7522;0,00529148
2595,7166;0,00530699
2596,6807;0,00531867
2597,6450;0,00533626
2598,6091;0,0053656
2599,5735;0,00540468
2600,5376;0,0054458
2601,5020;0,00548185
2602,4661;0,00551134
2603,4304;0,00553847
2604,3945;0,00556867
2605,3589;0,00560371
2606,3230;0,00564069
2607,2874;0,00567546
2608,2515;0,00570712
2609,2158;0,00573953
2610,1799;0,00577826
2611,1443;0,00582542
2612,1084;0,00587673
2613,0728;0,00592329
2614,0369;0,00595706
2615,0012;0,00597627
2615,9653;0,00598693
2616,9297;0,00599966
2617,8938;0,00602392
2618,8582;0,00606326
2619,8223;0,00611397
2620,7866;0,00616746
2621,7507;0,00621456
2622,7151;0,0062496
2623,6792;0,00627256
2624,6436;0,00628862
2625,6077;0,00630547
2626,5720;0,00632967
2627,5361;0,00636377
2628,5005;0,00640563
2629,4646;0,00645038
2630,4290;0,0064938
2631,3931;0,00653484
2632,3574;0,00657551
2633,3215;0,00661815
2634,2859;0,00666248
2635,2500;0,00670484
2636,2144;0,00674057
2637,1785;0,00676778
2638,1428;0,00678949
2639,1069;0,00681211
2640,0713;0,0068415
2641,0354;0,00687951
2641,9998;0,00692379
2642,9639;0,00697059
2643,9282;0,00701801
2644,8923;0,00706663
2645,8567;0,00711734
2646,8208;0,00716847
2647,7852;0,00721535
2648,7493;0,00725313
2649,7136;0,00728055
2650,6777;0,00730134
2651,6421;0,00732192
2652,6062;0,00734698
2653,5706;0,00737664
2654,5347;0,00740738
2655,4990;0,00743576
2656,4631;0,00746168
2657,4275;0,00748848
2658,3916;0,00751978
2659,3560;0,00755588
2660,3201;0,0075926
2661,2844;0,00762356
2662,2485;0,00764417
2663,2129;0,00765448
2664,1770;0,00765928
2665,1414;0,00766562
2666,1055;0,00767969
2667,0698;0,00770448
2668,0339;0,00773931
2668,9983;0,00778067
2669,9624;0,00782393
2670,9268;0,00786533
2671,8909;0,0079035
2672,8552;0,00793986
2673,8193;0,00797749
2674,7837;0,00801877
2675,7478;0,00806331
2676,7122;0,0081078
2677,6763;0,00814811
2678,6406;0,00818255
2679,6047;0,00821391
2680,5691;0,00824857
2681,5332;0,00829311
2682,4976;0,00835047
2683,4617;0,00841815
2684,4260;0,00848944
2685,3901;0,00855656
2686,3545;0,00861374
2687,3186;0,00865879
2688,2830;0,00869295
2689,2471;0,00872003
2690,2114;0,00874548
2691,1755;0,00877522
2692,1399;0,00881407
2693,1040;0,00886381
2694,0684;0,0089221
2695,0325;0,00898332
2695,9968;0,0090414
2696,9609;0,00909309
2697,9253;0,00913948
2698,8894;0,00918475
2699,8538;0,00923313
2700,8179;0,00928612
2701,7822;0,00934199
2702,7463;0,00939747
2703,7107;0,00945014
2704,6748;0,00949981
2705,6392;0,00954821
2706,6033;0,00959768
2707,5676;0,00965007
2708,5317;0,00970621
2709,4961;0,00976604
2710,4602;0,00982875
2711,4246;0,009893
2712,3887;0,00995724
2713,3530;0,0100202
2714,3171;0,0100811
2715,2815;0,0101391
2716,2456;0,0101931
2717,2100;0,0102419
2718,1741;0,010285
2719,1384;0,0103238
2720,1025;0,010361
2721,0669;0,010399
2722,0310;0,0104374
2722,9954;0,0104727
2723,9595;0,0105013
2724,9238;0,0105232
2725,8879;0,0105448
2726,8523;0,0105763
2727,8164;0,0106265
2728,7808;0,0106963
2729,7449;0,0107775
2730,7092;0,0108566
2731,6733;0,0109213
2732,6377;0,0109656
2733,6018;0,0109913
2734,5662;0,0110047
2735,5303;0,0110133
2736,4946;0,0110234
2737,4587;0,0110402
2738,4231;0,0110682
2739,3872;0,0111103
2740,3516;0,0111663
2741,3157;0,0112316
2742,2800;0,0112973
2743,2441;0,011353
2744,2085;0,0113902
2745,1726;0,0114052
2746,1370;0,0114008
2747,1011;0,0113862
2748,0654;0,0113736
2749,0295;0,0113751
2749,9939;0,0113984
2750,9580;0,0114445
2751,9224;0,0115076
2752,8865;0,0115782
2753,8508;0,0116472
2754,8149;0,0117088
2755,7793;0,0117617
2756,7434;0,0118073
2757,7078;0,0118483
2758,6719;0,0118872
2759,6362;0,011926
2760,6003;0,0119661
2761,5647;0,0120081
2762,5288;0,0120517
2763,4932;0,0120965
2764,4573;0,0121428
2765,4216;0,0121926
2766,3857;0,0122496
2767,3501;0,0123164
2768,3142;0,0123917
2769,2786;0,0124694
2770,2427;0,0125403
2771,2070;0,0125973
2772,1711;0,0126397
2773,1355;0,0126746
2774,0996;0,0127137
2775,0640;0,0127673
2776,0281;0,0128386
2776,9924;0,0129236
2777,9565;0,0130137
2778,9209;0,0131018
2779,8850;0,0131861
2780,8494;0,0132695
2781,8135;0,0133562
2782,7778;0,0134474
2783,7419;0,0135398
2784,7063;0,013627
2785,6704;0,0137036
2786,6348;0,0137682
2787,5989;0,0138251
2788,5632;0,0138827
2789,5273;0,0139508
2790,4917;0,0140375
2791,4558;0,0141461
2792,4202;0,0142736
2793,3843;0,0144113
2794,3486;0,0145476
2795,3127;0,0146732
2796,2771;0,0147853
2797,2412;0,0148892
2798,2056;0,0149953
2799,1697;0,0151136
2800,1340;0,0152487
2801,0981;0,0153987
2802,0625;0,0155575
2803,0266;0,0157185
2803,9910;0,0158773
2804,9551;0,0160314
2805,9194;0,0161794
2806,8835;0,0163207
2807,8479;0,0164568
2808,8120;0,016593
2809,7764;0,0167369
2810,7405;0,0168959
2811,7048;0,017073
2812,6689;0,0172666
2813,6333;0,0174723
2814,5974;0,0176855
2815,5618;0,0179042
2816,5259;0,018128
2817,4902;0,0183567
2818,4543;0,0185902
2819,4187;0,0188284
2820,3828;0,0190733
2821,3472;0,019328
2822,3113;0,019595
2823,2756;0,0198746
2824,2397;0,0201649
2825,2041;0,0204639
2826,1682;0,0207728
2827,1326;0,0210964
2828,0967;0,0214413
2829,0610;0,0218133
2830,0251;0,0222155
2830,9895;0,0226475
2831,9536;0,0231074
2832,9180;0,0235918
2833,8821;0,0240963
2834,8464;0,0246165
2835,8105;0,0251503
2836,7749;0,0257016
2837,7390;0,0262825
2838,7034;0,0269131
2839,6675;0,0276182
2840,6318;0,0284217
2841,5959;0,0293425
2842,5603;0,0303907
2843,5244;0,0315623
2844,4888;0,0328323
2845,4529;0,0341469
2846,4172;0,0354222
2847,3813;0,0365533
2848,3457;0,037437
2849,3098;0,0380004
2850,2742;0,0382232
2851,2383;0,038144
2852,2026;0,0378461
2853,1667;0,0374312
2854,1311;0,0369911
2855,0952;0,0365903
2856,0596;0,0362617
2857,0237;0,036014
2857,9880;0,035843
2858,9521;0,0357421
2859,9165;0,0357064
2860,8806;0,0357333
2861,8450;0,0358196
2862,8091;0,0359606
2863,7734;0,0361492
2864,7375;0,0363774
2865,7019;0,0366374
2866,6660;0,036921
2867,6304;0,0372177
2868,5945;0,0375137
2869,5588;0,0377925
2870,5229;0,0380385
2871,4873;0,0382428
2872,4514;0,0384075
2873,4158;0,0385448
2874,3799;0,0386728
2875,3442;0,0388071
2876,3083;0,0389555
2877,2727;0,0391164
2878,2368;0,0392831
2879,2012;0,0394498
2880,1653;0,0396153
2881,1296;0,0397835
2882,0938;0,0399594
2883,0581;0,0401458
2884,0222;0,0403412
2884,9866;0,0405419
2885,9507;0,0407444
2886,9150;0,0409483
2887,8792;0,0411557
2888,8435;0,0413686
2889,8076;0,0415862
2890,7720;0,0418039
2891,7361;0,042015
2892,7004;0,0422144
2893,6646;0,0424014
2894,6289;0,0425809
2895,5930;0,0427614
2896,5574;0,0429515
2897,5215;0,0431555
2898,4858;0,0433714
2899,4500;0,0435912
2900,4143;0,0438035
2901,3784;0,0439999
2902,3428;0,0441798
2903,3069;0,044354
2904,2712;0,0445436
2905,2354;0,0447753
2906,1997;0,0450741
2907,1638;0,0454586
2908,1282;0,045939
2909,0923;0,0465197
2910,0566;0,0472014
2911,0208;0,0479791
2911,9851;0,0488365
2912,9492;0,0497374
2913,9136;0,0506224
2914,8777;0,0514145
2915,8420;0,052034
2916,8062;0,052418
2917,7705;0,052536
2918,7346;0,052396
2919,6990;0,0520377
2920,6631;0,0515185
2921,6274;0,0508971
2922,5916;0,0502211
2923,5559;0,0495209
2924,5200;0,0488108
2925,4844;0,0480953
2926,4485;0,047377
2927,4128;0,0466623
2928,3770;0,0459627
2929,3413;0,045292
2930,3054;0,0446599
2931,2698;0,0440683
2932,2339;0,0435112
2933,1982;0,0429782
2934,1624;0,0424604
2935,1267;0,0419531
2936,0908;0,0414557
2937,0552;0,0409682
2938,0193;0,0404878
2938,9836;0,0400082
2939,9478;0,0395213
2940,9121;0,039021
2941,8762;0,038507
2942,8406;0,0379856
2943,8047;0,0374691
2944,7690;0,0369717
2945,7332;0,0365041
2946,6975;0,0360706
2947,6616;0,0356678
2948,6260;0,0352868
2949,5901;0,0349176
2950,5544;0,0345524
2951,5186;0,0341868
2952,4829;0,0338192
2953,4470;0,0334493
2954,4114;0,0330768
2955,3755;0,0327017
2956,3398;0,0323246
2957,3040;0,0319468
2958,2683;0,0315697
2959,2324;0,0311948
2960,1968;0,0308233
2961,1609;0,0304561
2962,1252;0,0300935
2963,0894;0,0297336
2964,0537;0,0293722
2965,0178;0,0290047
2965,9822;0,028629
2966,9463;0,0282476
2967,9106;0,0278671
2968,8748;0,0274941
2969,8391;0,0271308
2970,8032;0,0267739
2971,7676;0,026418
2972,7317;0,0260604
2973,6960;0,0257049
2974,6602;0,0253602
2975,6245;0,0250348
2976,5886;0,0247321
2977,5530;0,0244489
2978,5171;0,0241784
2979,4814;0,0239156
2980,4456;0,0236608
2981,4099;0,023419
2982,3740;0,0231968
2983,3384;0,0229994
2984,3025;0,0228274
2985,2668;0,0226775
2986,2310;0,0225432
2987,1953;0,0224175
2988,1594;0,0222958
2989,1238;0,0221772
2990,0879;0,0220646
2991,0522;0,0219621
2992,0164;0,0218712
2992,9807;0,0217892
2993,9448;0,0217111
2994,9092;0,0216339
2995,8733;0,0215617
2996,8376;0,0215052
2997,8018;0,0214774
2998,7661;0,0214857
2999,7302;0,0215266
3000,6946;0,0215865
3001,6587;0,0216482
3002,6230;0,0216994
3003,5872;0,0217379
3004,5515;0,0217708
3005,5156;0,0218083
3006,4800;0,0218567
3007,4441;0,0219152
3008,4084;0,0219768
3009,3726;0,0220338
3010,3369;0,0220811
3011,3010;0,022119
3012,2654;0,0221506
3013,2295;0,0221798
3014,1938;0,0222095
3015,1580;0,0222413
3016,1223;0,0222776
3017,0864;0,0223221
3018,0508;0,0223785
3019,0149;0,0224492
3019,9792;0,0225332
3020,9434;0,022627
3021,9077;0,0227265
3022,8718;0,0228302
3023,8362;0,0229408
3024,8003;0,023064
3025,7646;0,0232057
3026,7288;0,0233672
3027,6931;0,0235426
3028,6572;0,0237186
3029,6216;0,0238781
3030,5857;0,0240072
3031,5500;0,0241012
3032,5142;0,0241681
3033,4785;0,0242255
3034,4426;0,0242932
3035,4070;0,0243848
3036,3711;0,0245037
3037,3354;0,0246439
3038,2996;0,0247956
3039,2639;0,0249507
3040,2280;0,0251063
3041,1924;0,0252649
3042,1565;0,025432
3043,1208;0,0256126
3044,0850;0,025808
3045,0493;0,0260144
3046,0134;0,0262237
3046,9778;0,026427
3047,9419;0,0266193
3048,9063;0,0268018
3049,8704;0,0269824
3050,8347;0,0271701
3051,7988;0,0273696
3052,7632;0,027578
3053,7273;0,0277862
3054,6917;0,0279851
3055,6558;0,0281713
3056,6201;0,0283506
3057,5842;0,028535
3058,5486;0,0287371
3059,5127;0,0289638
3060,4771;0,0292138
3061,4412;0,0294771
3062,4055;0,0297383
3063,3696;0,029981
3064,3340;0,030193
3065,2981;0,0303712
3066,2625;0,0305234
3067,2266;0,0306655
3068,1909;0,0308154
3069,1550;0,0309865
3070,1194;0,0311843
3071,0835;0,0314073
3072,0479;0,0316502
3073,0120;0,0319077
3073,9763;0,0321753
3074,9404;0,0324479
3075,9048;0,0327187
3076,8689;0,0329788
3077,8333;0,0332191
3078,7974;0,0334334
3079,7617;0,0336203
3080,7258;0,0337844
3081,6902;0,0339353
3082,6543;0,0340856
3083,6187;0,0342478
3084,5828;0,0344307
3085,5471;0,0346362
3086,5112;0,0348593
3087,4756;0,0350909
3088,4397;0,0353231
3089,4041;0,0355538
3090,3682;0,0357867
3091,3325;0,0360279
3092,2966;0,0362802
3093,2610;0,0365406
3094,2251;0,0368015
3095,1895;0,0370561
3096,1536;0,0373019
3097,1179;0,0375413
3098,0820;0,037778
3099,0464;0,0380128
3100,0105;0,038243
3100,9749;0,0384646
3101,9390;0,0386765
3102,9033;0,0388825
3103,8674;0,0390903
3104,8318;0,0393073
3105,7959;0,0395388
3106,7603;0,0397868
3107,7244;0,0400512
3108,6887;0,0403312
3109,6528;0,0406253
3110,6172;0,0409313
3111,5813;0,041245
3112,5457;0,0415606
3113,5098;0,0418714
3114,4741;0,0421712
3115,4382;0,0424553
3116,4026;0,0427217
3117,3667;0,0429712
3118,3311;0,0432078
3119,2952;0,0434372
3120,2595;0,043666
3121,2236;0,0439
3122,1880;0,0441422
3123,1521;0,0443923
3124,1165;0,0446478
3125,0806;0,0449055
3126,0449;0,0451645
3127,0090;0,0454273
3127,9734;0,0456996
3128,9375;0,0459868
3129,9019;0,0462906
3130,8660;0,0466067
3131,8303;0,0469253
3132,7944;0,0472353
3133,7588;0,0475295
3134,7229;0,0478076
3135,6873;0,0480754
3136,6514;0,0483407
3137,6157;0,04861
3138,5798;0,048886
3139,5442;0,0491693
3140,5083;0,0494599
3141,4727;0,0497587
3142,4368;0,0500675
3143,4011;0,0503868
3144,3652;0,0507151
3145,3296;0,0510482
3146,2937;0,0513805
3147,2581;0,0517071
3148,2222;0,052025
3149,1865;0,0523341
3150,1506;0,0526375
3151,1150;0,0529399
3152,0791;0,053246
3153,0435;0,0535588
3154,0076;0,0538785
3154,9719;0,0542035
3155,9360;0,0545316
3156,9004;0,054862
3157,8645;0,0551952
3158,8289;0,0555321
3159,7930;0,0558719
3160,7573;0,056212
3161,7214;0,0565494
3162,6858;0,0568823
3163,6499;0,0572117
3164,6143;0,0575402
3165,5784;0,0578704
3166,5427;0,0582025
3167,5068;0,0585347
3168,4712;0,0588653
3169,4353;0,0590643
3170,3997;0,0593988
3171,3638;0,0597449
3172,3281;0,0601052
3173,2922;0,0604766
3174,2566;0,0608498
3175,2207;0,0612133
3176,1851;0,0615584
3177,1492;0,0618835
3178,1135;0,0621945
3179,0776;0,0625014
3180,0420;0,0628129
3181,0061;0,0631335
3181,9705;0,0634622
3182,9346;0,0637958
3183,8989;0,0641308
3184,8630;0,0644648
3185,8274;0,0647962
3186,7915;0,0651227
3187,7559;0,0654428
3188,7200;0,0657572
3189,6843;0,0660714
3190,6484;0,0663946
3191,6128;0,0667351
3192,5769;0,067094
3193,5413;0,0674619
3194,5054;0,0678215
3195,4697;0,0681559
3196,4338;0,068458
3197,3982;0,0687352
3198,3623;0,069006
3199,3267;0,0692895
3200,2908;0,0695958
3201,2551;0,0699221
3202,2192;0,0702566
3203,1836;0,0705867
3204,1477;0,070906
3205,1121;0,0712164
3206,0762;0,0715245
3207,0405;0,0718372
3208,0046;0,0721576
3208,9690;0,0724834
3209,9331;0,0728098
3210,8975;0,0731312
3211,8616;0,0734445
3212,8259;0,0737505
3213,7900;0,0740535
3214,7544;0,0743595
3215,7185;0,0746727
3216,6829;0,0749928
3217,6470;0,0753138
3218,6113;0,0756269
3219,5754;0,0759252
3220,5398;0,0762084
3221,5039;0,076483
3222,4683;0,0767605
3223,4324;0,0770506
3224,3967;0,0773581
3225,3608;0,0776813
3226,3252;0,0780139
3227,2893;0,0783473
3228,2537;0,0786729
3229,2178;0,0789839
3230,1821;0,0792767
3231,1462;0,0795521
3232,1106;0,079815
3233,0747;0,0800739
3234,0391;0,0803374
3235,0032;0,0806116
3235,9675;0,0808989
3236,9316;0,0811991
3237,8960;0,0815109
3238,8601;0,0818321
3239,8245;0,0821591
3240,7886;0,0824844
3241,7529;0,0827975
3242,7170;0,0830885
3243,6814;0,0833534
3244,6455;0,0835983
3245,6099;0,0838385
3246,5740;0,0840928
3247,5383;0,0843744
3248,5024;0,0846861
3249,4668;0,0850196
3250,4309;0,0853611
3251,3953;0,0856978
3252,3594;0,0860229
3253,3237;0,0863368
3254,2878;0,0866446
3255,2522;0,0869516
3256,2163;0,0872597
3257,1807;0,0875663
3258,1448;0,0878676
3259,1091;0,0881627
3260,0732;0,088456
3261,0376;0,0887561
3262,0017;0,0890715
3262,9661;0,0894047
3263,9302;0,0897497
3264,8945;0,0900938
3265,8586;0,0904239
3266,8230;0,0907325
3267,7871;0,0910208
3268,7515;0,0912951
3269,7156;0,0915612
3270,6799;0,0918184
3271,6440;0,09206
3272,6084;0,0922767
3273,5725;0,092464
3274,5369;0,0926255
3275,5010;0,0927716
3276,4653;0,0929144
3277,4294;0,0930622
3278,3938;0,0932168
3279,3579;0,0933752
3280,3223;0,0935319
3281,2864;0,0936823
3282,2507;0,0938243
3283,2148;0,0939586
3284,1792;0,0940891
3285,1433;0,094221
3286,1077;0,0943591
3287,0718;0,0945035
3288,0361;0,0946487
3289,0002;0,0947835
3289,9646;0,0948963
3290,9287;0,0949801
3291,8931;0,0950362
3292,8572;0,0950729
3293,8215;0,0951016
3294,7856;0,0951319
3295,7500;0,0951692
3296,7141;0,0952154
3297,6785;0,0952702
3298,6426;0,0953327
3299,6069;0,0954006
3300,5710;0,095471
3301,5354;0,0955418
3302,4995;0,0956125
3303,4639;0,0956843
3304,4280;0,0957577
3305,3923;0,0958302
3306,3564;0,0958949
3307,3208;0,095944
3308,2849;0,0959738
3309,2493;0,0959887
3310,2134;0,0960015
3311,1777;0,0960277
3312,1418;0,0960796
3313,1062;0,0961615
3314,0703;0,0962697
3315,0347;0,0963966
3315,9988;0,0965359
3316,9631;0,0966858
3317,9272;0,0968489
3318,8916;0,0970291
3319,8557;0,0972275
3320,8201;0,0974398
3321,7842;0,0976571
3322,7485;0,0978685
3323,7126;0,0980651
3324,6770;0,0982421
3325,6411;0,0983996
3326,6055;0,0985414
3327,5696;0,0986733
3328,5339;0,0988026
3329,4980;0,0989359
3330,4624;0,0990763
3331,4265;0,0992211
3332,3909;0,0993607
3333,3550;0,09948
3334,3193;0,0995644
3335,2834;0,0996052
3336,2478;0,099603
3337,2119;0,0995652
3338,1763;0,0995008
3339,1404;0,0994155
3340,1047;0,0993113
3341,0688;0,0991891
3342,0332;0,0990519
3342,9973;0,0989048
3343,9617;0,0987524
3344,9258;0,0985962
3345,8901;0,0984344
3346,8542;0,0982653
3347,8186;0,0980901
3348,7827;0,097913
3349,7471;0,0977382
3350,7112;0,0975649
3351,6755;0,0973876
3352,6396;0,0971987
3353,6040;0,0969944
3354,5681;0,096779
3355,5325;0,0965631
3356,4966;0,0963585
3357,4609;0,0961717
3358,4250;0,0960008
3359,3894;0,0958377
3360,3535;0,0956729
3361,3179;0,0954995
3362,2820;0,0953143
3363,2463;0,0951166
3364,2104;0,0949057
3365,1748;0,0946802
3366,1389;0,094439
3367,1033;0,0941838
3368,0674;0,0939192
3369,0317;0,0936528
3369,9958;0,0933917
3370,9602;0,0931412
3371,9243;0,0929024
3372,8887;0,0926729
3373,8528;0,0924474
3374,8171;0,09222
3375,7813;0,0919868
3376,7456;0,0917481
3377,7097;0,091509
3378,6741;0,0912763
3379,6382;0,0910548
3380,6025;0,0908432
3381,5667;0,0906347
3382,5310;0,0904211
3383,4951;0,0901994
3384,4595;0,0899759
3385,4236;0,0897637
3386,3879;0,0895753
3387,3521;0,0894129
3388,3164;0,0892651
3389,2805;0,0891116
3390,2449;0,0889325
3391,2090;0,0887188
3392,1733;0,0884757
3393,1375;0,0882191
3394,1018;0,087965
3395,0659;0,0877214
3396,0303;0,0874851
3396,9944;0,0872461
3397,9587;0,0869943
3398,9229;0,0867236
3399,8872;0,0864338
3400,8513;0,0861293
3401,8157;0,0858174
3402,7798;0,0855073
3403,7441;0,0852074
3404,7083;0,084923
3405,6726;0,0846535
3406,6367;0,0843912
3407,6011;0,0841242
3408,5652;0,08384
3409,5295;0,0835309
3410,4937;0,0831965
3411,4580;0,0828445
3412,4221;0,08249
3413,3865;0,0821506
3414,3506;0,0818402
3415,3149;0,0815623
3416,2791;0,0813071
3417,2434;0,0810518
3418,2075;0,0807687
3419,1719;0,0804361
3420,1360;0,0800489
3421,1003;0,0796216
3422,0645;0,0791814
3423,0288;0,0787539
3423,9929;0,078353
3424,9573;0,077978
3425,9214;0,0776189
3426,8857;0,0772637
3427,8499;0,0769034
3428,8142;0,0765335
3429,7783;0,0761532
3430,7427;0,0757632
3431,7068;0,0753652
3432,6711;0,0749619
3433,6353;0,074559
3434,5996;0,0741641
3435,5637;0,0737853
3436,5281;0,0734272
3437,4922;0,0730889
3438,4565;0,0727658
3439,4207;0,0724532
3440,3850;0,0721482
3441,3491;0,071849
3442,3135;0,0715487
3443,2776;0,0712314
3444,2419;0,0708737
3445,2061;0,0704549
3446,1704;0,0699709
3447,1345;0,069443
3448,0989;0,0689098
3449,0630;0,0684078
3450,0273;0,0679526
3450,9915;0,0675359
3451,9558;0,0671376
3452,9199;0,0667405
3453,8843;0,0663393
3454,8484;0,0659405
3455,8127;0,0655553
3456,7769;0,0651916
3457,7412;0,064849
3458,7053;0,064519
3459,6697;0,0641883
3460,6338;0,0638429
3461,5981;0,0634727
3462,5623;0,0630735
3463,5266;0,062647
3464,4907;0,0621993
3465,4551;0,0617377
3466,4192;0,0612705
3467,3835;0,0608076
3468,3477;0,06036
3469,3120;0,0599365
3470,2761;0,0595386
3471,2405;0,0591578
3472,2046;0,05878
3473,1689;0,0583954
3474,1331;0,0580087
3475,0974;0,05764
3476,0615;0,0573125
3477,0259;0,0570339
3477,9900;0,0567854
3478,9543;0,0565265
3479,9185;0,0562137
3480,8828;0,0558255
3481,8469;0,0553764
3482,8113;0,0549069
3483,7754;0,0544553
3484,7397;0,054034
3485,7039;0,0536268
3486,6682;0,0532067
3487,6323;0,0527597
3488,5967;0,0522976
3489,5608;0,0518521
3490,5251;0,0514533
3491,4893;0,0511088
3492,4536;0,0508
3493,4177;0,0504957
3494,3821;0,0501741
3495,3462;0,0498405
3496,3105;0,0495269
3497,2747;0,04927
3498,2390;0,0490811
3499,2031;0,0489301
3500,1675;0,0487532
3501,1316;0,0484795
3502,0959;0,0480709
3503,0601;0,0475525
3504,0244;0,0470032
3504,9885;0,0465043
3505,9529;0,0460902
3506,9170;0,0457372
3507,8813;0,045388
3508,8455;0,044988
3509,8098;0,0445155
3510,7739;0,0439921
3511,7383;0,0434655
3512,7024;0,0429784
3513,6667;0,042551
3514,6309;0,042184
3515,5952;0,0418711
3516,5593;0,0416085
3517,5237;0,0413968
3518,4878;0,0412348
3519,4521;0,0411129
3520,4163;0,0410097
3521,3806;0,0408944
3522,3447;0,0407345
3523,3091;0,0405057
3524,2732;0,0401964
3525,2375;0,039805
3526,2017;0,0393331
3527,1660;0,038787
3528,1301;0,0381865
3529,0945;0,037571
3530,0586;0,0369922
3531,0229;0,0364903
3531,9871;0,036077
3532,9514;0,0357324
3533,9155;0,0354159
3534,8799;0,0350845
3535,8440;0,0347149
3536,8083;0,0343208
3537,7725;0,0339512
3538,7368;0,0336661
3539,7009;0,0335047
3540,6653;0,0334648
3541,6294;0,0334982
3542,5938;0,0335163
3543,5579;0,0334089
3544,5222;0,0330904
3545,4863;0,0325587
3546,4507;0,0319112
3547,4148;0,0312813
3548,3792;0,030751
3549,3433;0,0303168
3550,3076;0,0299179
3551,2717;0,0294872
3552,2361;0,0289966
3553,2002;0,0284764
3554,1646;0,0279938
3555,1287;0,0276045
3556,0930;0,0273229
3557,0571;0,0271308
3558,0215;0,0270051
3558,9856;0,0269383
3559,9500;0,0269407
3560,9141;0,0270224
3561,8784;0,0271683
3562,8425;0,0273219
3563,8069;0,027377
3564,7710;0,0271748
3565,7354;0,0265516
3566,6995;0,0254941
3567,6638;0,0242605
3568,6279;0,023211
3569,5923;0,0225162
3570,5564;0,02211
3571,5208;0,0218373
3572,4849;0,0215808
3573,4492;0,0212962
3574,4133;0,0209921
3575,3777;0,0206931
3576,3418;0,0204136
3577,3062;0,0201553
3578,2703;0,0199219
3579,2346;0,0197332
3580,1987;0,019619
3581,1631;0,0195947
3582,1272;0,0196398
3583,0916;0,0196973
3584,0557;0,0196871
3585,0200;0,0195149
3585,9841;0,0190966
3586,9485;0,0184453
3587,9126;0,0177511
3588,8770;0,0172695
3589,8411;0,0171026
3590,8054;0,0171547
3591,7695;0,0172523
3592,7339;0,0172528
3593,6980;0,0170914
3594,6624;0,0167899
3595,6265;0,0164302
3596,5908;0,0160856
3597,5549;0,0157615
3598,5193;0,0154049
3599,4834;0,0149685
3600,4478;0,0144687
3601,4119;0,0139845
3602,3762;0,0135928
3603,3403;0,0133066
3604,3047;0,013071
3605,2688;0,0128002
3606,2332;0,0124187
3607,1973;0,0119003
3608,1616;0,0113001
3609,1257;0,0107393
3610,0901;0,0103319
3611,0542;0,010118
3612,0186;0,0100571
3612,9827;0,0100634
3613,9470;0,0100448
3614,9111;0,0099276
3615,8755;0,00966552
3616,8396;0,00924438
3617,8040;0,00869462
3618,7681;0,00811602
3619,7324;0,00767769
3620,6965;0,00753167
3621,6609;0,00768787
3622,6250;0,00799411
3623,5894;0,00823618
3624,5535;0,00824693
3625,5178;0,0079527
3626,4819;0,00735413
3627,4463;0,00648964
3628,4104;0,00548202
3629,3748;0,00460663
3630,3389;0,00409879
3631,3032;0,00390397
3632,2673;0,00377328
3633,2317;0,00350319
3634,1958;0,00304633
3635,1602;0,00248572
3636,1243;0,00194564
3637,0886;0,00150724
3638,0527;0,00118077
3639,0171;0,000938443
3639,9812;0,000762131
3640,9456;0,000659156
3641,9097;0,000639237
3642,8740;0,000685242
3643,8381;0,000754387
3644,8025;0,000808999
3645,7666;0,000829417
3646,7310;0,000743811
3647,6951;0,000313358
3648,6594;-0,000695697
3649,6235;-0,00200481
3650,5879;-0,00299947
3651,5520;-0,00347318
3652,5164;-0,00367039
3653,4805;-0,00389043
3654,4448;-0,00426862
3655,4089;-0,00476011
3656,3733;-0,00521611
3657,3374;-0,00550154
3658,3018;-0,00559454
3659,2659;-0,00558565
3660,2302;-0,00558212
3661,1943;-0,00561969
3662,1587;-0,0056551
3663,1228;-0,00562946
3664,0872;-0,00553726
3665,0513;-0,00543001
3666,0156;-0,0053629
3666,9797;-0,00534326
3667,9441;-0,00534326
3668,9082;-0,00535521
3669,8726;-0,00539886
3670,8367;-0,00548681
3671,8010;-0,00563428
3672,7651;-0,00586532
3673,7295;-0,00617976
3674,6936;-0,00654185
3675,6580;-0,00687921
3676,6221;-0,0070794
3677,5864;-0,00707927
3678,5505;-0,00694856
3679,5149;-0,00680811
3680,4790;-0,00671149
3681,4434;-0,0066309
3682,4075;-0,00652544
3683,3718;-0,00640435
3684,3359;-0,0063233
3685,3003;-0,00632184
3686,2644;-0,00636653
3687,2288;-0,00636939
3688,1929;-0,00628701
3689,1572;-0,00617353
3690,1213;-0,00607981
3691,0857;-0,00598355
3692,0498;-0,00586503
3693,0142;-0,00574637
3693,9783;-0,00565294
3694,9426;-0,00559036
3695,9067;-0,00555655
3696,8711;-0,00555648
3697,8352;-0,00559836
3698,7996;-0,0056778
3699,7637;-0,00576895
3700,7280;-0,00583113
3701,6921;-0,00582247
3702,6565;-0,00571537
3703,6206;-0,00551634
3704,5850;-0,00527467
3705,5491;-0,00505988
3706,5134;-0,00492574
3707,4775;-0,00489961
3708,4419;-0,00501864
3709,4060;-0,00537902
3710,3704;-0,00607701
3711,3345;-0,00700004
3712,2988;-0,00779002
3713,2629;-0,00815691
3714,2273;-0,00809301
3715,1914;-0,00776515
3716,1558;-0,00733634
3717,1199;-0,00688619
3718,0842;-0,00642035
3719,0483;-0,00591861
3720,0127;-0,00538055
3720,9768;-0,00484303
3721,9412;-0,00436769
3722,9053;-0,00401477
3723,8696;-0,00381897
3724,8337;-0,00377337
3725,7981;-0,00383267
3726,7622;-0,00394412
3727,7266;-0,0040807
3728,6907;-0,004239
3729,6550;-0,00440655
3730,6191;-0,00454005
3731,5835;-0,00459057
3732,5476;-0,00457932
3733,5120;-0,00465746
3734,4761;-0,00500092
3735,4404;-0,00555064
3736,4045;-0,00599446
3737,3689;-0,00612337
3738,3330;-0,00604829
3739,2974;-0,00606383
3740,2615;-0,00642162
3741,2258;-0,0071898
3742,1899;-0,00820306
3743,1543;-0,00910777
3744,1184;-0,00953729
3745,0828;-0,00936146
3746,0469;-0,00878974
3747,0112;-0,00820415
3747,9753;-0,00791579
3748,9397;-0,00805857
3749,9038;-0,00858766
3750,8682;-0,00925459
3751,8323;-0,00966895
3752,7966;-0,00961737
3753,7607;-0,00924194
3754,7251;-0,00883632
3755,6892;-0,00860956
3756,6536;-0,00862221
3757,6177;-0,00882421
3758,5820;-0,0091044
3759,5461;-0,00933491
3760,5105;-0,00943088
3761,4746;-0,00939168
3762,4390;-0,00927915
3763,4031;-0,00916486
3764,3674;-0,00909849
3765,3315;-0,00910452
3766,2959;-0,00918898
3767,2600;-0,00934417
3768,2244;-0,00955006
3769,1885;-0,00977214
3770,1528;-0,00995892
3771,1169;-0,0100563
3772,0813;-0,0100411
3773,0454;-0,00994267
3774,0098;-0,00982473
3774,9739;-0,00974346
3775,9382;-0,00971908
3776,9023;-0,00973911
3777,8667;-0,00977791
3778,8308;-0,0098027
3779,7952;-0,00977323
3780,7593;-0,00966393
3781,7236;-0,00949301
3782,6877;-0,00932109
3783,6521;-0,00922257
3784,6162;-0,0092508
3785,5806;-0,00940881
3786,5447;-0,00964288
3787,5090;-0,00986888
3788,4731;-0,0100177
3789,4375;-0,0100656
3790,4016;-0,0100306
3791,3660;-0,00994071
3792,3301;-0,00980308
3793,2944;-0,00959716
3794,2585;-0,00930256
3795,2229;-0,00893994
3796,1870;-0,008585
3797,1514;-0,00833667
3798,1155;-0,00826473
3799,0798;-0,00837936
3800,0439;-0,00863624
3801,0083;-0,00895726
3801,9724;-0,00926107
3802,9368;-0,00952004
3803,9009;-0,00978724
3804,8652;-0,0101302
3805,8293;-0,0105294
3806,7937;-0,0108452
3807,7578;-0,0109021
3808,7222;-0,0106412
3809,6863;-0,0101943
3810,6506;-0,00979094
3811,6147;-0,00959595
3812,5791;-0,00961266
3813,5432;-0,00969547
3814,5076;-0,00965741
3815,4717;-0,0094088
3816,4360;-0,00902077
3817,4001;-0,00867053
3818,3645;-0,00853544
3819,3286;-0,00870669
3820,2930;-0,00912813
3821,2571;-0,00958703
3822,2214;-0,009839
3823,1855;-0,00979917
3824,1499;-0,00957818
3825,1140;-0,00935195
3826,0784;-0,00923577
3827,0425;-0,00924417
3828,0068;-0,00931637
3828,9709;-0,0093686
3829,9353;-0,00934326
3830,8994;-0,00923344
3831,8638;-0,00907774
3832,8279;-0,00893347
3833,7922;-0,00884383
3834,7563;-0,00881623
3835,7207;-0,00882749
3836,6848;-0,0088549
3837,6492;-0,00890325
3838,6133;-0,00899173
3839,5776;-0,00912489
3840,5417;-0,00929486
3841,5061;-0,00949276
3842,4702;-0,00968923
3843,4346;-0,00981217
3844,3987;-0,00976968
3845,3630;-0,00951701
3846,3271;-0,00911315
3847,2915;-0,00871486
3848,2556;-0,008511
3849,2200;-0,00864139
3850,1841;-0,00914236
3851,1484;-0,00994863
3852,1125;-0,0109331
3853,0769;-0,0118435
3854,0410;-0,0122335
3855,0054;-0,0118587
3855,9695;-0,0109907
3856,9338;-0,0100921
3857,8979;-0,00946155
3858,8623;-0,00916107
3859,8264;-0,0090864
3860,7908;-0,00907489
3861,7549;-0,00901465
3862,7192;-0,00890651
3863,6833;-0,00882585
3864,6477;-0,0088295
3865,6118;-0,00891574
3866,5762;-0,00904598
3867,5403;-0,00917187
3868,5046;-0,00925781
3869,4688;-0,00930508
3870,4331;-0,00935261
3871,3972;-0,00943763
3872,3616;-0,00955811
3873,3257;-0,00968182
3874,2900;-0,00978044
3875,2542;-0,00984392
3876,2185;-0,00986645
3877,1826;-0,00982985
3878,1470;-0,00970907
3879,1111;-0,00950604
3880,0754;-0,00928069
3881,0396;-0,00913621
3882,0039;-0,00916229
3882,9680;-0,00938307
3883,9324;-0,00973819
3884,8965;-0,0101016
3885,8608;-0,0103421
3886,8250;-0,0104014
3887,7893;-0,0103209
3888,7534;-0,0101919
3889,7178;-0,0100819
3890,6819;-0,0100005
3891,6462;-0,00990965
3892,6104;-0,00975859
3893,5747;-0,00953789
3894,5388;-0,00930525
3895,5032;-0,00913953
3896,4673;-0,00907265
3897,4316;-0,00907211
3898,3958;-0,0090832
3899,3601;-0,00908311
3900,3242;-0,0090974
3901,2886;-0,00917439
3902,2527;-0,00935128
3903,2170;-0,00962507
3904,1812;-0,00993816
3905,1455;-0,010208
3906,1096;-0,0103864
3907,0740;-0,010482
3908,0381;-0,0105289
3909,0024;-0,0105465
3909,9666;-0,0105283
3910,9309;-0,0104582
3911,8950;-0,0103326
3912,8594;-0,0101697
3913,8235;-0,0100036
3914,7878;-0,00987201
3915,7520;-0,0098049
3916,7163;-0,00980849
3917,6804;-0,00984925
3918,6448;-0,0098648
3919,6089;-0,00980914
3920,5732;-0,0096902
3921,5374;-0,00956154
3922,5017;-0,00948548
3923,4658;-0,00949537
3924,4302;-0,00957241
3925,3943;-0,00965414
3926,3586;-0,0096784
3927,3228;-0,0096267
3928,2871;-0,00953121
3929,2512;-0,00945341
3930,2156;-0,00945631
3931,1797;-0,00957323
3932,1440;-0,00978061
3933,1082;-0,0100061
3934,0725;-0,010177
3935,0366;-0,0102621
3936,0010;-0,0102712
3936,9651;-0,0102306
3937,9294;-0,0101632
3938,8936;-0,0100828
3939,8579;-0,00999938
3940,8220;-0,00992402
3941,7864;-0,0098658
3942,7505;-0,00982275
3943,7148;-0,00977991
3944,6790;-0,0097237
3945,6433;-0,00965707
3946,6074;-0,00960278
3947,5718;-0,009594
3948,5359;-0,00965666
3949,5002;-0,00979018
3950,4644;-0,00996253
3951,4287;-0,0101288
3952,3928;-0,0102565
3953,3572;-0,010336
3954,3213;-0,0103736
3955,2856;-0,0103807
3956,2498;-0,0103669
3957,2141;-0,0103392
3958,1782;-0,0103053
3959,1426;-0,0102775
3960,1067;-0,0102719
3961,0710;-0,0103012
3962,0352;-0,0103653
3962,9995;-0,0104474
3963,9636;-0,0105214
3964,9280;-0,0105648
3965,8921;-0,0105689
3966,8564;-0,0105408
3967,8206;-0,0104969
3968,7849;-0,0104527
3969,7490;-0,0104159
3970,7134;-0,0103865
3971,6775;-0,0103632
3972,6418;-0,0103501
3973,6060;-0,0103564
3974,5703;-0,0103907
3975,5344;-0,0104521
3976,4988;-0,0105275
3977,4629;-0,0105975
3978,4272;-0,0106458
3979,3914;-0,0106684
3980,3557;-0,0106737
3981,3198;-0,0106772
3982,2842;-0,0106907
3983,2483;-0,0107147
3984,2126;-0,010738
3985,1768;-0,0107451
3986,1411;-0,0107261
3987,1052;-0,0106823
3988,0696;-0,0106263
3989,0337;-0,0105749
3989,9980;-0,0105422
3990,9622;-0,0105349
3991,9265;-0,0105524
3992,8906;-0,0105908
3993,8550;-0,0106449
3994,8191;-0,0107092
3995,7834;-0,0107759
3996,7476;-0,0108355
3997,7119;-0,0108795
3998,6760;-0,0109033
3999,6404;-0,0109075
4000,6045;-0,0104778

##### Extended Information
[Comments]
Sample name
Comment
Username
Division
Organization;UNIVERSIDAD INDUSTRIAL DE SANTANDER

[Detailed Information]
Creation date;5/02/2025 11:51 a.m.

Data array type;Linear data array
Horizontal axis;Wavenumber [cm-1]
Vertical axis;Abs
Start;399,193 cm-1
End;4000,6 cm-1
Data interval;0,964233 cm-1
Data points;3736    

[Measurement Information]
Model name;FT/IR-4X1typeA
Serial No.;A035162111

Accessory;ATR PRO 4X
Accessory S/N;A021162126
Incident angle;45 deg

Measurement date;5/02/2025 11:51 a.m.

Light source;Standard
Detector;TGS
Accumulation;Auto (79)
Resolution;4 cm-1
Zero filling;On
Apodization;Cosine
Gain;Auto (8)
Aperture;Auto (7 mm)
Scan speed;Auto (2 mm/sec)
Filter;Auto (12800 Hz)

