TITLE;
DATA TYPE;INFRARED SPECTRUM
ORIGIN;JASCO
OWNER;
DATE;25/02/05
TIME;12:00:12
SPECTROMETER/DATA SYSTEM;
LOCALE;9226
RESOLUTION;
DELTAX;0,964233
XUNITS;1/CM
YUNITS;ABSORBANCE
FIRSTX;  399,1927
LASTX; 4000,6047
NPOINTS;    3736
FIRSTY;     0,14054
MAXY;     0,18955
MINY;     0,00935
XYDATA
399,1927;0,140542
400,1569;0,139888
401,1211;0,138798
402,0854;0,137659
403,0496;0,136808
404,0138;0,136502
404,9781;0,136859
405,9423;0,137772
406,9065;0,138895
407,8708;0,13977
408,8350;0,14005
409,7992;0,139654
410,7635;0,138808
411,7277;0,137927
412,6919;0,137394
413,6562;0,137381
414,6204;0,137824
415,5846;0,138528
416,5489;0,139244
417,5131;0,139719
418,4773;0,139797
419,4416;0,139574
420,4058;0,13934
421,3700;0,139299
422,3343;0,139462
423,2985;0,139763
424,2627;0,14015
425,2270;0,140607
426,1912;0,141135
427,1554;0,141725
428,1197;0,142338
429,0839;0,14292
430,0481;0,14342
431,0124;0,143824
431,9766;0,144162
432,9408;0,144482
433,9051;0,144813
434,8693;0,145134
435,8335;0,145387
436,7978;0,145532
437,7620;0,145572
438,7262;0,145561
439,6905;0,14556
440,6547;0,145612
441,6189;0,145735
442,5832;0,145929
443,5474;0,146188
444,5116;0,146492
445,4759;0,146792
446,4401;0,147016
447,4043;0,147098
448,3686;0,147005
449,3328;0,146749
450,2970;0,146378
451,2613;0,145943
452,2255;0,14548
453,1897;0,145013
454,1540;0,144585
455,1182;0,144288
456,0824;0,144263
457,0467;0,144627
458,0109;0,145355
458,9751;0,146224
459,9394;0,146929
460,9036;0,147271
461,8678;0,14723
462,8321;0,146929
463,7963;0,146555
464,7605;0,146276
465,7248;0,146182
466,6890;0,146237
467,6532;0,146316
468,6175;0,146267
469,5817;0,145998
470,5459;0,145526
471,5102;0,144986
472,4744;0,144586
473,4386;0,14449
474,4029;0,14473
475,3671;0,145204
476,3313;0,14575
477,2956;0,146223
478,2598;0,146529
479,2240;0,14664
480,1883;0,14659
481,1525;0,146448
482,1167;0,146292
483,0810;0,146181
484,0452;0,146139
485,0094;0,146159
485,9737;0,146216
486,9379;0,146284
487,9021;0,14635
488,8664;0,146415
489,8306;0,146488
490,7948;0,146585
491,7591;0,146707
492,7233;0,14683
493,6875;0,146913
494,6518;0,146913
495,6160;0,146815
496,5802;0,146647
497,5445;0,146473
498,5087;0,146363
499,4729;0,146366
500,4372;0,146493
501,4014;0,146718
502,3656;0,146986
503,3299;0,147245
504,2941;0,147453
505,2583;0,147584
506,2226;0,147627
507,1868;0,147592
508,1510;0,147522
509,1153;0,147488
510,0795;0,147552
511,0437;0,147737
512,0080;0,148008
512,9722;0,148296
513,9365;0,14854
514,9007;0,148726
515,8649;0,148893
516,8292;0,149104
517,7934;0,149383
518,7576;0,149682
519,7219;0,149905
520,6861;0,149972
521,6503;0,149869
522,6146;0,149648
523,5788;0,149393
524,5430;0,149185
525,5073;0,14907
526,4715;0,149042
527,4357;0,149057
528,4000;0,149063
529,3642;0,149027
530,3284;0,148936
531,2927;0,148793
532,2569;0,148606
533,2211;0,148384
534,1854;0,148136
535,1496;0,147874
536,1138;0,14761
537,0781;0,147365
538,0423;0,147169
539,0065;0,147053
539,9708;0,147034
540,9350;0,147099
541,8992;0,147209
542,8635;0,147311
543,8277;0,147366
544,7919;0,147374
545,7562;0,147376
546,7204;0,147428
547,6846;0,147573
548,6489;0,147819
549,6131;0,148142
550,5773;0,148505
551,5416;0,148885
552,5058;0,149274
553,4700;0,14967
554,4343;0,150054
555,3985;0,15038
556,3627;0,150585
557,3270;0,150598
558,2912;0,150368
559,2554;0,149879
560,2197;0,149151
561,1839;0,148242
562,1481;0,14723
563,1124;0,146199
564,0766;0,145217
565,0408;0,144331
566,0051;0,143561
566,9693;0,142909
567,9335;0,142366
568,8978;0,141913
569,8620;0,141529
570,8262;0,141193
571,7905;0,14089
572,7547;0,140619
573,7189;0,140383
574,6832;0,140186
575,6474;0,14002
576,6116;0,139867
577,5759;0,139709
578,5401;0,139542
579,5043;0,139384
580,4686;0,139267
581,4328;0,13922
582,3970;0,139254
583,3613;0,139359
584,3255;0,139505
585,2897;0,139657
586,2540;0,139784
587,2182;0,139865
588,1824;0,139888
589,1467;0,139852
590,1109;0,13977
591,0751;0,139669
592,0394;0,139573
593,0036;0,139493
593,9678;0,139416
594,9321;0,139314
595,8963;0,139154
596,8605;0,138922
597,8248;0,138625
598,7890;0,138289
599,7532;0,13795
600,7175;0,137637
601,6817;0,13737
602,6459;0,137153
603,6102;0,136975
604,5744;0,136809
605,5386;0,13662
606,5029;0,136366
607,4671;0,136023
608,4313;0,135586
609,3956;0,135079
610,3598;0,134538
611,3240;0,133995
612,2883;0,133469
613,2525;0,132959
614,2167;0,132454
615,1810;0,131937
616,1452;0,13139
617,1094;0,13079
618,0737;0,13012
619,0379;0,129371
620,0021;0,128558
620,9664;0,127713
621,9306;0,12688
622,8948;0,126102
623,8591;0,125406
624,8233;0,124804
625,7875;0,124268
626,7518;0,123765
627,7160;0,123265
628,6802;0,122744
629,6445;0,122193
630,6087;0,121614
631,5729;0,121024
632,5372;0,12045
633,5014;0,119925
634,4656;0,11947
635,4299;0,119085
636,3941;0,118743
637,3583;0,118401
638,3226;0,118022
639,2868;0,117593
640,2510;0,117127
641,2153;0,116656
642,1795;0,116209
643,1437;0,115796
644,1080;0,115404
645,0722;0,115012
646,0364;0,114603
647,0007;0,11418
647,9649;0,113764
648,9291;0,11339
649,8934;0,113088
650,8576;0,112871
651,8218;0,112733
652,7861;0,112656
653,7503;0,112628
654,7145;0,11265
655,6788;0,112732
656,6430;0,112877
657,6072;0,113062
658,5715;0,113234
659,5357;0,11333
660,4999;0,113312
661,4642;0,113204
662,4284;0,11308
663,3926;0,113012
664,3569;0,113011
665,3211;0,112979
666,2853;0,112679
667,2496;0,111823
668,2138;0,110399
669,1780;0,108898
670,1423;0,107772
671,1065;0,106983
672,0707;0,106289
673,0350;0,105497
673,9992;0,104503
674,9634;0,103306
675,9277;0,102007
676,8919;0,100758
677,8561;0,0996682
678,8204;0,0987556
679,7846;0,0979777
680,7488;0,0972837
681,7131;0,0966427
682,6773;0,0960434
683,6415;0,095486
684,6058;0,0949786
685,5700;0,094536
686,5342;0,0941716
687,4985;0,093886
688,4627;0,0936583
689,4269;0,0934571
690,3912;0,0932547
691,3554;0,0930405
692,3196;0,0928217
693,2839;0,0926116
694,2481;0,0924158
695,2123;0,0922254
696,1766;0,0920195
697,1408;0,0917771
698,1050;0,0914889
699,0693;0,0911653
700,0335;0,0908329
700,9977;0,0905227
701,9620;0,0902547
702,9262;0,0900269
703,8904;0,0898174
704,8547;0,0895908
705,8189;0,0893182
706,7831;0,0889903
707,7474;0,0886187
708,7116;0,0882262
709,6758;0,0878337
710,6401;0,0874515
711,6043;0,087079
712,5685;0,0867103
713,5328;0,086339
714,4970;0,0859588
715,4612;0,0856918
716,4255;0,0852344
717,3897;0,0847222
718,3539;0,0841612
719,3182;0,0835801
720,2824;0,0830229
721,2466;0,0825243
722,2109;0,0820875
723,1751;0,0816795
724,1393;0,0812507
725,1036;0,0807625
726,0678;0,080207
727,0320;0,0796094
727,9963;0,0790122
728,9605;0,0784518
729,9247;0,0779416
730,8890;0,0774722
731,8532;0,0770258
732,8174;0,0765911
733,7817;0,0761699
734,7459;0,0757723
735,7101;0,075406
736,6744;0,0750694
737,6386;0,0747515
738,6028;0,0744378
739,5671;0,074118
740,5313;0,0737894
741,4955;0,073455
742,4598;0,0731193
743,4240;0,0727839
744,3882;0,0724474
745,3525;0,0721082
746,3167;0,071766
747,2809;0,0714221
748,2452;0,0710773
749,2094;0,0707293
750,1736;0,0703738
751,1379;0,070007
752,1021;0,0696285
753,0663;0,0692422
754,0306;0,0688542
754,9948;0,0684712
755,9590;0,0680996
756,9233;0,0677461
757,8875;0,0674182
758,8517;0,0671214
759,8160;0,0668568
760,7802;0,0666196
761,7444;0,0664008
762,7087;0,0661901
763,6729;0,0659783
764,6371;0,0657576
765,6014;0,0655206
766,5656;0,0652626
767,5298;0,0649848
768,4941;0,0646971
769,4583;0,0644162
770,4225;0,0641582
771,3868;0,0639289
772,3510;0,0637209
773,3152;0,0635175
774,2795;0,0633033
775,2437;0,0630731
776,2079;0,0628341
777,1722;0,0625992
778,1364;0,0623779
779,1006;0,0621697
780,0649;0,0619644
781,0291;0,0617473
781,9933;0,0615066
782,9576;0,0612373
783,9218;0,0609425
784,8860;0,0606319
785,8503;0,0603193
786,8145;0,0600193
787,7787;0,0597442
788,7430;0,0595009
789,7072;0,0592896
790,6714;0,0591054
791,6357;0,0589416
792,5999;0,0587932
793,5641;0,0586565
794,5284;0,0585278
795,4926;0,0584009
796,4568;0,0582685
797,4211;0,0581256
798,3853;0,0579731
799,3495;0,0578183
800,3138;0,0576691
801,2780;0,0575283
802,2422;0,0573911
803,2065;0,0572483
804,1707;0,0570946
805,1349;0,0569332
806,0992;0,0567753
807,0634;0,056633
808,0276;0,0565121
808,9919;0,0564097
809,9561;0,0563171
810,9203;0,0562264
811,8846;0,0561339
812,8488;0,0560392
813,8130;0,0559407
814,7773;0,0558335
815,7415;0,0557097
816,7057;0,0555635
817,6700;0,0553958
818,6342;0,0552156
819,5984;0,0550377
820,5627;0,0548768
821,5269;0,0547424
822,4911;0,0546349
823,4554;0,0545461
824,4196;0,0544628
825,3839;0,0543718
826,3481;0,0542645
827,3123;0,0541398
828,2766;0,0540042
829,2408;0,0538683
830,2050;0,0537427
831,1693;0,0536332
832,1335;0,0535389
833,0977;0,0534514
834,0620;0,0533578
835,0262;0,0532443
835,9904;0,0531003
836,9547;0,0529219
837,9189;0,0527119
838,8831;0,0524786
839,8474;0,0522323
840,8116;0,0519839
841,7758;0,0517446
842,7401;0,0515264
843,7043;0,051341
844,6685;0,0511965
845,6328;0,0510927
846,5970;0,0510199
847,5612;0,0509611
848,5255;0,0508993
849,4897;0,0508246
850,4539;0,0507367
851,4182;0,0506425
852,3824;0,0505502
853,3466;0,0504655
854,3109;0,0503913
855,2751;0,0503299
856,2393;0,0502852
857,2036;0,050263
858,1678;0,0502677
859,1320;0,0503001
860,0963;0,0503566
861,0605;0,0504313
862,0247;0,0505179
862,9890;0,050612
863,9532;0,0507119
864,9174;0,0508191
865,8817;0,0509384
866,8459;0,0510775
867,8101;0,0512445
868,7744;0,0514448
869,7386;0,0516777
870,7028;0,0519353
871,6671;0,0522031
872,6313;0,0524635
873,5955;0,0526987
874,5598;0,0528948
875,5240;0,0530449
876,4882;0,0531513
877,4525;0,0532269
878,4167;0,0532915
879,3809;0,053368
880,3452;0,0534754
881,3094;0,0536266
882,2736;0,0538291
883,2379;0,0540894
884,2021;0,0544159
885,1663;0,0548194
886,1306;0,0553082
887,0948;0,0558831
888,0590;0,0565338
889,0233;0,0572402
889,9875;0,0579771
890,9517;0,0587184
891,9160;0,0594393
892,8802;0,0601158
893,8444;0,0607229
894,8087;0,0612352
895,7729;0,0616279
896,7371;0,0618801
897,7014;0,0619768
898,6656;0,0619103
899,6298;0,0616818
900,5941;0,0613036
901,5583;0,0608003
902,5225;0,0602091
903,4868;0,0595743
904,4510;0,0589394
905,4152;0,0583381
906,3795;0,0577908
907,3437;0,0573055
908,3079;0,0568842
909,2722;0,0565282
910,2364;0,0562393
911,2007;0,0560174
912,1649;0,0558575
913,1292;0,0557505
914,0934;0,0556869
915,0576;0,0556626
916,0219;0,0556799
916,9861;0,0557433
917,9503;0,0558533
918,9146;0,0560025
919,8788;0,0561775
920,8430;0,0563662
921,8073;0,0565627
922,7715;0,0567684
923,7357;0,056987
924,7000;0,0572187
925,6642;0,0574577
926,6284;0,0576952
927,5927;0,0579254
928,5569;0,0581487
929,5211;0,058372
930,4854;0,0586051
931,4496;0,0588571
932,4138;0,059135
933,3781;0,0594435
934,3423;0,0597852
935,3065;0,0601596
936,2708;0,0605631
937,2350;0,0609916
938,1992;0,0614446
939,1635;0,0619292
940,1277;0,0624588
941,0919;0,0630476
942,0562;0,0637025
943,0204;0,0644198
943,9846;0,0651883
944,9489;0,0659975
945,9131;0,0668467
946,8773;0,0677462
947,8416;0,0687126
948,8058;0,0697582
949,7700;0,0708839
950,7343;0,0720784
951,6985;0,0733246
952,6627;0,0746097
953,6270;0,0759305
954,5912;0,0772937
955,5554;0,0787084
956,5197;0,0801781
957,4839;0,0816965
958,4481;0,0832489
959,4124;0,0848183
960,3766;0,0863911
961,3408;0,0879596
962,3051;0,0895206
963,2693;0,0910718
964,2335;0,0926116
965,1978;0,0941409
966,1620;0,095666
967,1262;0,0972013
968,0905;0,0987668
969,0547;0,100386
970,0189;0,102082
970,9832;0,103878
971,9474;0,105795
972,9116;0,10785
973,8759;0,110056
974,8401;0,112414
975,8043;0,11492
976,7686;0,117565
977,7328;0,120335
978,6970;0,12321
979,6613;0,126153
980,6255;0,129102
981,5897;0,131975
982,5540;0,134677
983,5182;0,137125
984,4824;0,139269
985,4467;0,141101
986,4109;0,142653
987,3751;0,143982
988,3394;0,145146
989,3036;0,146191
990,2678;0,147147
991,2321;0,148026
992,1963;0,148836
993,1605;0,149586
994,1248;0,150294
995,0890;0,150983
996,0532;0,151675
997,0175;0,152385
997,9817;0,153118
998,9459;0,153866
999,9102;0,154622
1000,8744;0,155383
1001,8386;0,156153
1002,8029;0,156948
1003,7671;0,157786
1004,7313;0,158691
1005,6956;0,159685
1006,6598;0,160794
1007,6240;0,162039
1008,5883;0,163435
1009,5525;0,16498
1010,5167;0,166653
1011,4810;0,168412
1012,4452;0,17021
1013,4094;0,171998
1014,3737;0,173734
1015,3379;0,175392
1016,3021;0,176953
1017,2664;0,178407
1018,2306;0,179749
1019,1948;0,180984
1020,1591;0,18212
1021,1233;0,183169
1022,0875;0,184143
1023,0518;0,18505
1024,0160;0,185894
1024,9802;0,186677
1025,9445;0,187399
1026,9087;0,188056
1027,8729;0,188633
1028,8372;0,189102
1029,8014;0,189423
1030,7656;0,189546
1031,7299;0,189424
1032,6941;0,189021
1033,6583;0,188324
1034,6226;0,187351
1035,5868;0,186153
1036,5510;0,184815
1037,5153;0,183437
1038,4795;0,182128
1039,4437;0,180978
1040,4080;0,180044
1041,3722;0,179343
1042,3364;0,178857
1043,3007;0,17854
1044,2649;0,178336
1045,2291;0,178187
1046,1934;0,178037
1047,1576;0,177839
1048,1218;0,177552
1049,0861;0,177145
1050,0503;0,176597
1051,0145;0,175894
1051,9788;0,175034
1052,9430;0,174018
1053,9072;0,172854
1054,8715;0,171551
1055,8357;0,17011
1056,7999;0,168525
1057,7642;0,166771
1058,7284;0,164818
1059,6926;0,162641
1060,6569;0,160245
1061,6211;0,157673
1062,5853;0,15501
1063,5496;0,152362
1064,5138;0,14983
1065,4780;0,147485
1066,4423;0,145353
1067,4065;0,143422
1068,3707;0,141655
1069,3350;0,140009
1070,2992;0,138446
1071,2634;0,136937
1072,2277;0,135459
1073,1919;0,13399
1074,1561;0,132509
1075,1204;0,130997
1076,0846;0,129448
1077,0488;0,127868
1078,0131;0,126283
1078,9773;0,124733
1079,9415;0,123263
1080,9058;0,121915
1081,8700;0,120715
1082,8342;0,119675
1083,7985;0,118786
1084,7627;0,118026
1085,7269;0,117369
1086,6912;0,11679
1087,6554;0,116274
1088,6196;0,115815
1089,5839;0,115418
1090,5481;0,11509
1091,5123;0,114839
1092,4766;0,114664
1093,4408;0,114559
1094,4050;0,114512
1095,3693;0,114509
1096,3335;0,11454
1097,2977;0,114599
1098,2620;0,114677
1099,2262;0,114764
1100,1904;0,114845
1101,1547;0,1149
1102,1189;0,114908
1103,0831;0,11485
1104,0474;0,114709
1105,0116;0,114479
1105,9758;0,114156
1106,9401;0,113745
1107,9043;0,113248
1108,8685;0,112662
1109,8328;0,111974
1110,7970;0,111166
1111,7612;0,110221
1112,7255;0,109136
1113,6897;0,107936
1114,6539;0,106668
1115,6182;0,105392
1116,5824;0,10417
1117,5466;0,10304
1118,5109;0,102013
1119,4751;0,101069
1120,4393;0,100162
1121,4036;0,0992299
1122,3678;0,0982129
1123,3320;0,0970607
1124,2963;0,0957434
1125,2605;0,0942548
1126,2247;0,0926111
1127,1890;0,0908457
1128,1532;0,0890011
1129,1174;0,0871215
1130,0817;0,085245
1131,0459;0,0834011
1132,0101;0,0816111
1132,9744;0,0798929
1133,9386;0,0782682
1134,9028;0,0767665
1135,8671;0,075424
1136,8313;0,0742764
1137,7955;0,0733482
1138,7598;0,0726456
1139,7240;0,072156
1140,6882;0,0718541
1141,6525;0,0717117
1142,6167;0,0717036
1143,5809;0,0718102
1144,5452;0,0720154
1145,5094;0,0723049
1146,4736;0,0726661
1147,4379;0,0730896
1148,4021;0,0735688
1149,3663;0,0740971
1150,3306;0,0746633
1151,2948;0,0752483
1152,2590;0,0758255
1153,2233;0,076365
1154,1875;0,0768377
1155,1517;0,0772164
1156,1160;0,0774732
1157,0802;0,0775748
1158,0444;0,0774794
1159,0087;0,0771394
1159,9729;0,0765084
1160,9371;0,075552
1161,9014;0,0742566
1162,8656;0,0726348
1163,8298;0,0707245
1164,7941;0,068584
1165,7583;0,0662848
1166,7225;0,0639055
1167,6868;0,0615256
1168,6510;0,0592191
1169,6152;0,0570475
1170,5795;0,0550536
1171,5437;0,0532578
1172,5079;0,0516608
1173,4722;0,0502497
1174,4364;0,0490074
1175,4006;0,0479197
1176,3649;0,046977
1177,3291;0,0461717
1178,2933;0,0454938
1179,2576;0,0449281
1180,2218;0,0444547
1181,1860;0,0440534
1182,1503;0,0437096
1183,1145;0,0434172
1184,0787;0,0431795
1185,0430;0,0430056
1186,0072;0,0429064
1186,9714;0,04289
1187,9357;0,0429593
1188,8999;0,0431124
1189,8641;0,0433444
1190,8284;0,043649
1191,7926;0,0440207
1192,7568;0,0444541
1193,7211;0,0449439
1194,6853;0,0454833
1195,6495;0,0460637
1196,6138;0,0466744
1197,5780;0,0473029
1198,5422;0,0479361
1199,5065;0,0485922
1200,4707;0,0491959
1201,4349;0,0497755
1202,3992;0,05033
1203,3634;0,0508616
1204,3276;0,0513735
1205,2919;0,0518685
1206,2561;0,0523496
1207,2203;0,0528231
1208,1846;0,053302
1209,1488;0,053807
1210,1130;0,0543631
1211,0773;0,054992
1212,0415;0,0557044
1213,0057;0,0564965
1213,9700;0,0573517
1214,9342;0,0582471
1215,8984;0,0591608
1216,8627;0,0600752
1217,8269;0,060978
1218,7911;0,0618597
1219,7554;0,0627136
1220,7196;0,0635359
1221,6838;0,0643259
1222,6481;0,0650851
1223,6123;0,0658146
1224,5765;0,0665126
1225,5408;0,0671743
1226,5050;0,0677937
1227,4692;0,0683665
1228,4335;0,0688918
1229,3977;0,0693715
1230,3619;0,0698077
1231,3262;0,0702016
1232,2904;0,0705519
1233,2546;0,0708562
1234,2189;0,0711125
1235,1831;0,0713208
1236,1473;0,0714839
1237,1116;0,0716063
1238,0758;0,0716927
1239,0400;0,0717453
1240,0043;0,0717633
1240,9685;0,071743
1241,9327;0,0716799
1242,8970;0,0715711
1243,8612;0,0714161
1244,8254;0,0712162
1245,7897;0,0709723
1246,7539;0,0706851
1247,7181;0,0703553
1248,6824;0,0699869
1249,6466;0,0695874
1250,6108;0,069168
1251,5751;0,0687398
1252,5393;0,0683111
1253,5035;0,0678852
1254,4678;0,0674602
1255,4320;0,0670313
1256,3962;0,0665931
1257,3605;0,0661413
1258,3247;0,0656737
1259,2889;0,0651895
1260,2532;0,0646874
1261,2174;0,0641645
1262,1816;0,0636159
1263,1459;0,0630362
1264,1101;0,0624224
1265,0743;0,0617745
1266,0386;0,0610955
1267,0028;0,0603886
1267,9670;0,0596563
1268,9313;0,0589011
1269,8955;0,0581281
1270,8597;0,0573469
1271,8240;0,0565699
1272,7882;0,0558088
1273,7524;0,0550704
1274,7167;0,054356
1275,6809;0,0536637
1276,6451;0,0529919
1277,6094;0,0523404
1278,5736;0,0517098
1279,5378;0,0510993
1280,5021;0,0505062
1281,4663;0,0499272
1282,4305;0,0493607
1283,3948;0,0488085
1284,3590;0,0482765
1285,3232;0,0477741
1286,2875;0,0473129
1287,2517;0,046905
1288,2159;0,0465599
1289,1802;0,0462805
1290,1444;0,0460623
1291,1086;0,0458949
1292,0729;0,0457684
1293,0371;0,0456782
1294,0013;0,045628
1294,9656;0,0456272
1295,9298;0,0456861
1296,8940;0,0458105
1297,8583;0,0460007
1298,8225;0,0462522
1299,7867;0,0465592
1300,7510;0,0469152
1301,7152;0,0473139
1302,6794;0,0477498
1303,6437;0,0482187
1304,6079;0,0487183
1305,5721;0,0492475
1306,5364;0,0498036
1307,5006;0,0503806
1308,4648;0,0509699
1309,4291;0,051562
1310,3933;0,0521489
1311,3575;0,0527233
1312,3218;0,0532753
1313,2860;0,0537891
1314,2502;0,0542414
1315,2145;0,0546051
1316,1787;0,0548553
1317,1429;0,0549779
1318,1072;0,0549763
1319,0714;0,054874
1320,0356;0,0547077
1320,9999;0,0545143
1321,9641;0,054319
1322,9283;0,054133
1323,8926;0,0539584
1324,8568;0,0537956
1325,8210;0,0536469
1326,7853;0,0535151
1327,7495;0,0533988
1328,7137;0,0532901
1329,6780;0,0531759
1330,6422;0,053043
1331,6064;0,0528839
1332,5707;0,0526983
1333,5349;0,0524881
1334,4991;0,0522488
1335,4634;0,0519629
1336,4276;0,0516032
1337,3918;0,0511481
1338,3561;0,0506065
1339,3203;0,0500304
1340,2845;0,0494943
1341,2488;0,0490523
1342,2130;0,048715
1343,1772;0,0484603
1344,1415;0,0482582
1345,1057;0,0480886
1346,0699;0,0479485
1347,0342;0,047851
1347,9984;0,0478168
1348,9626;0,0478641
1349,9269;0,0479995
1350,8911;0,048215
1351,8553;0,0484925
1352,8196;0,0488137
1353,7838;0,0491684
1354,7480;0,049558
1355,7123;0,0499894
1356,6765;0,0504645
1357,6407;0,0509736
1358,6050;0,0514968
1359,5692;0,0520106
1360,5334;0,0524961
1361,4977;0,0529452
1362,4619;0,0533627
1363,4261;0,0537577
1364,3904;0,0541354
1365,3546;0,0544951
1366,3188;0,0548326
1367,2831;0,0551421
1368,2473;0,0554153
1369,2115;0,0556394
1370,1758;0,0557938
1371,1400;0,0558492
1372,1042;0,0557729
1373,0685;0,0555466
1374,0327;0,0551865
1374,9969;0,0547452
1375,9612;0,0542752
1376,9254;0,0537892
1377,8896;0,0532555
1378,8539;0,0526318
1379,8181;0,0519055
1380,7823;0,0511126
1381,7466;0,0503171
1382,7108;0,0495643
1383,6750;0,0488474
1384,6393;0,0481152
1385,6035;0,0473202
1386,5677;0,0464797
1387,5320;0,0456927
1388,4962;0,0450723
1389,4604;0,044659
1390,4247;0,0444106
1391,3889;0,0442501
1392,3531;0,044109
1393,3174;0,0439482
1394,2816;0,0437663
1395,2458;0,0435918
1396,2101;0,0434597
1397,1743;0,0433895
1398,1385;0,0433837
1399,1028;0,0434361
1400,0670;0,043537
1401,0313;0,0436722
1401,9955;0,0438244
1402,9597;0,0439808
1403,9240;0,0441421
1404,8882;0,0443273
1405,8524;0,0445621
1406,8167;0,0448594
1407,7809;0,0452107
1408,7451;0,0455985
1409,7094;0,0460131
1410,6736;0,0464604
1411,6378;0,0469549
1412,6021;0,0475042
1413,5663;0,0480975
1414,5305;0,048706
1415,4948;0,0492893
1416,4590;0,0498013
1417,4232;0,0502066
1418,3875;0,0505051
1419,3517;0,0507336
1420,3159;0,0509234
1421,2802;0,0510682
1422,2444;0,0511375
1423,2086;0,0511072
1424,1729;0,0509763
1425,1371;0,0507615
1426,1013;0,0504727
1427,0656;0,0500918
1428,0298;0,0495829
1428,9940;0,0489377
1429,9583;0,0482172
1430,9225;0,0475308
1431,8867;0,0469563
1432,8510;0,0464775
1433,8152;0,0459906
1434,7794;0,0453672
1435,7437;0,0445588
1436,7079;0,0436858
1437,6721;0,0429683
1438,6364;0,042531
1439,6006;0,0423418
1440,5648;0,0423072
1441,5291;0,042354
1442,4933;0,042448
1443,4575;0,0425812
1444,4218;0,0427531
1445,3860;0,0429583
1446,3502;0,043185
1447,3145;0,043423
1448,2787;0,0436725
1449,2429;0,0439439
1450,2072;0,0442489
1451,1714;0,0445912
1452,1356;0,0449592
1453,0999;0,0453151
1454,0641;0,0455756
1455,0283;0,0455997
1455,9926;0,045255
1456,9568;0,044632
1457,9210;0,0441037
1458,8853;0,0439145
1459,8495;0,0439871
1460,8137;0,0441449
1461,7780;0,044234
1462,7422;0,0441158
1463,7064;0,0436832
1464,6707;0,042943
1465,6349;0,0420599
1466,5991;0,0412349
1467,5634;0,0405441
1468,5276;0,0399198
1469,4918;0,0392109
1470,4561;0,0382346
1471,4203;0,0368494
1472,3845;0,0351056
1473,3488;0,0333289
1474,3130;0,0318776
1475,2772;0,0308385
1476,2415;0,0300863
1477,2057;0,0294843
1478,1699;0,0289576
1479,1342;0,0284786
1480,0984;0,0280435
1481,0626;0,027662
1482,0269;0,0273535
1482,9911;0,0271377
1483,9553;0,0270201
1484,9196;0,0269822
1485,8838;0,0269822
1486,8480;0,0269703
1487,8123;0,0269234
1488,7765;0,0268851
1489,7407;0,0269467
1490,7050;0,027156
1491,6692;0,027486
1492,6334;0,0278883
1493,5977;0,0283301
1494,5619;0,028794
1495,5261;0,0292744
1496,4904;0,0297824
1497,4546;0,0303438
1498,4188;0,0309729
1499,3831;0,031652
1500,3473;0,0323511
1501,3115;0,0330487
1502,2758;0,0337241
1503,2400;0,0343343
1504,2042;0,0347832
1505,1685;0,0348985
1506,1327;0,0345144
1507,0969;0,033761
1508,0612;0,0330929
1509,0254;0,0327279
1509,9896;0,0325477
1510,9539;0,0324035
1511,9181;0,0322073
1512,8823;0,0319045
1513,8466;0,0314609
1514,8108;0,0308766
1515,7750;0,0302007
1516,7393;0,0295094
1517,7035;0,0288517
1518,6677;0,0282135
1519,6320;0,0275427
1520,5962;0,0268215
1521,5604;0,0261128
1522,5247;0,0255185
1523,4889;0,0250929
1524,4531;0,0248205
1525,4174;0,02466
1526,3816;0,0245857
1527,3458;0,0245919
1528,3101;0,0246728
1529,2743;0,0248092
1530,2385;0,0249712
1531,2028;0,0251344
1532,1670;0,025302
1533,1312;0,0255123
1534,0955;0,0258088
1535,0597;0,0261972
1536,0239;0,0266404
1536,9882;0,0270747
1537,9524;0,0274037
1538,9166;0,0274899
1539,8809;0,0272323
1540,8451;0,0267669
1541,8093;0,0264186
1542,7736;0,0263051
1543,7378;0,0263247
1544,7020;0,026385
1545,6663;0,0264586
1546,6305;0,0265494
1547,5947;0,0266615
1548,5590;0,0267882
1549,5232;0,0269167
1550,4874;0,0270438
1551,4517;0,0271856
1552,4159;0,0273702
1553,3801;0,0276155
1554,3444;0,0279092
1555,3086;0,0281955
1556,2728;0,0283634
1557,2371;0,0282705
1558,2013;0,027916
1559,1655;0,0276102
1560,1298;0,0276106
1561,0940;0,0278496
1562,0582;0,0281991
1563,0225;0,0285996
1563,9867;0,0290233
1564,9509;0,0294408
1565,9152;0,0298184
1566,8794;0,0301365
1567,8436;0,0304182
1568,8079;0,030733
1569,7721;0,0311452
1570,7363;0,0316541
1571,7006;0,032206
1572,6648;0,0327446
1573,6290;0,033236
1574,5933;0,0336747
1575,5575;0,0340933
1576,5217;0,0345539
1577,4860;0,0350947
1578,4502;0,0357011
1579,4144;0,0363453
1580,3787;0,0370146
1581,3429;0,0377039
1582,3071;0,0384051
1583,2714;0,0391075
1584,2356;0,0398057
1585,1998;0,0405016
1586,1641;0,0411987
1587,1283;0,0418922
1588,0925;0,0425648
1589,0568;0,0431909
1590,0210;0,0437441
1590,9852;0,0442005
1591,9495;0,0445382
1592,9137;0,0447405
1593,8779;0,0448042
1594,8422;0,0447478
1595,8064;0,0446076
1596,7706;0,0444193
1597,7349;0,0442028
1598,6991;0,0439602
1599,6633;0,0436877
1600,6276;0,0433895
1601,5918;0,0430846
1602,5560;0,0428004
1603,5203;0,0425582
1604,4845;0,0423581
1605,4487;0,0421778
1606,4130;0,041984
1607,3772;0,0417561
1608,3414;0,0415099
1609,3057;0,0412992
1610,2699;0,0411827
1611,2341;0,0411799
1612,1984;0,0412551
1613,1626;0,0413319
1614,1268;0,0413206
1615,0911;0,0411681
1616,0553;0,0409287
1617,0195;0,0407593
1617,9838;0,0407746
1618,9480;0,0409486
1619,9122;0,0411788
1620,8765;0,0413697
1621,8407;0,0414661
1622,8049;0,041468
1623,7692;0,0414266
1624,7334;0,0414021
1625,6976;0,0414178
1626,6619;0,0414652
1627,6261;0,0415412
1628,5903;0,0416651
1629,5546;0,0418605
1630,5188;0,042125
1631,4830;0,0424152
1632,4473;0,042645
1633,4115;0,0426898
1634,3757;0,0424349
1635,3400;0,0419141
1636,3042;0,0413934
1637,2684;0,0411286
1638,2327;0,0411286
1639,1969;0,0412738
1640,1611;0,041473
1641,1254;0,0416849
1642,0896;0,0418812
1643,0538;0,0420099
1644,0181;0,0419792
1644,9823;0,0416985
1645,9465;0,0412058
1646,9108;0,0407453
1647,8750;0,0405657
1648,8392;0,04068
1649,8035;0,0409043
1650,7677;0,040963
1651,7319;0,0405314
1652,6962;0,0394653
1653,6604;0,0382359
1654,6246;0,0375285
1655,5889;0,0373877
1656,5531;0,0374978
1657,5173;0,0376279
1658,4816;0,0376589
1659,4458;0,037517
1660,4100;0,0371592
1661,3743;0,0366164
1662,3385;0,0360238
1663,3027;0,0355458
1664,2670;0,0352497
1665,2312;0,0350792
1666,1954;0,0349091
1667,1597;0,0346018
1668,1239;0,034067
1669,0881;0,0333467
1670,0524;0,0326324
1671,0166;0,0321067
1671,9808;0,0317792
1672,9451;0,0315221
1673,9093;0,0312
1674,8735;0,0307668
1675,8378;0,0302934
1676,8020;0,0299062
1677,7662;0,0296796
1678,7305;0,0295953
1679,6947;0,0295701
1680,6589;0,0294812
1681,6232;0,0291754
1682,5874;0,0285291
1683,5516;0,0276197
1684,5159;0,0267833
1685,4801;0,0262786
1686,4443;0,0260629
1687,4086;0,0259793
1688,3728;0,0259265
1689,3370;0,0258779
1690,3013;0,025846
1691,2655;0,0258476
1692,2297;0,0258812
1693,1940;0,0259218
1694,1582;0,0259321
1695,1224;0,0258798
1696,0867;0,0257566
1697,0509;0,0255848
1698,0151;0,0254079
1698,9794;0,0252737
1699,9436;0,0252182
1700,9078;0,0252537
1701,8721;0,0253693
1702,8363;0,0255455
1703,8005;0,025768
1704,7648;0,0260344
1705,7290;0,0263521
1706,6932;0,0267311
1707,6575;0,0271745
1708,6217;0,0276777
1709,5859;0,0282333
1710,5502;0,028832
1711,5144;0,0294562
1712,4786;0,0300739
1713,4429;0,0306398
1714,4071;0,0311102
1715,3713;0,0314776
1716,3356;0,0318101
1717,2998;0,0322231
1718,2640;0,0327649
1719,2283;0,0333845
1720,1925;0,0340182
1721,1567;0,0346377
1722,1210;0,0352362
1723,0852;0,0358079
1724,0494;0,0363429
1725,0137;0,0368335
1725,9779;0,0372822
1726,9421;0,0377014
1727,9064;0,0381027
1728,8706;0,0384804
1729,8348;0,0387969
1730,7991;0,038975
1731,7633;0,0389166
1732,7275;0,0385803
1733,6918;0,038081
1734,6560;0,0376345
1735,6202;0,0373519
1736,5845;0,0371722
1737,5487;0,0369601
1738,5129;0,0365979
1739,4772;0,0360317
1740,4414;0,0352958
1741,4056;0,0344925
1742,3699;0,033719
1743,3341;0,0330058
1744,2983;0,0323229
1745,2626;0,0316199
1746,2268;0,0308455
1747,1910;0,0299462
1748,1553;0,02888
1749,1195;0,0276707
1750,0837;0,0264486
1751,0480;0,025381
1752,0122;0,0245449
1752,9764;0,0238922
1753,9407;0,023315
1754,9049;0,0227198
1755,8691;0,0220704
1756,8334;0,0213907
1757,7976;0,0207283
1758,7618;0,020104
1759,7261;0,0194956
1760,6903;0,0188728
1761,6545;0,0182469
1762,6188;0,0176765
1763,5830;0,0172192
1764,5472;0,0168841
1765,5115;0,016631
1766,4757;0,016402
1767,4399;0,0161496
1768,4042;0,0158463
1769,3684;0,0154793
1770,3326;0,0150473
1771,2969;0,0145755
1772,2611;0,0141327
1773,2253;0,013803
1774,1896;0,0136242
1775,1538;0,0135663
1776,1180;0,0135639
1777,0823;0,0135541
1778,0465;0,0134986
1779,0107;0,0133921
1779,9750;0,0132593
1780,9392;0,013134
1781,9034;0,0130341
1782,8677;0,012956
1783,8319;0,012891
1784,7961;0,0128413
1785,7604;0,0128191
1786,7246;0,0128311
1787,6888;0,0128641
1788,6531;0,0128832
1789,6173;0,0128416
1790,5815;0,0127051
1791,5458;0,0124877
1792,5100;0,0122653
1793,4742;0,0121232
1794,4385;0,0120882
1795,4027;0,0121266
1796,3669;0,0121847
1797,3312;0,0122168
1798,2954;0,0121957
1799,2596;0,0121189
1800,2239;0,01201
1801,1881;0,011906
1802,1523;0,0118356
1803,1166;0,0118072
1804,0808;0,0118126
1805,0450;0,0118371
1806,0093;0,0118644
1806,9735;0,0118782
1807,9377;0,0118642
1808,9020;0,0118151
1809,8662;0,0117379
1810,8304;0,0116547
1811,7947;0,0115914
1812,7589;0,0115621
1813,7231;0,0115629
1814,6874;0,0115776
1815,6516;0,0115893
1816,6158;0,0115914
1817,5801;0,0115911
1818,5443;0,0116027
1819,5085;0,0116337
1820,4728;0,0116766
1821,4370;0,0117121
1822,4012;0,0117216
1823,3655;0,0116995
1824,3297;0,0116568
1825,2939;0,0116105
1826,2582;0,0115664
1827,2224;0,0115126
1828,1866;0,0114322
1829,1509;0,0113261
1830,1151;0,0112245
1831,0793;0,0111679
1832,0436;0,011174
1833,0078;0,0112261
1833,9720;0,0112878
1834,9363;0,0113258
1835,9005;0,0113263
1836,8647;0,0113034
1837,8290;0,0112898
1838,7932;0,0113135
1839,7574;0,0113782
1840,7217;0,0114625
1841,6859;0,0115295
1842,6501;0,0115451
1843,6144;0,0114986
1844,5786;0,011416
1845,5428;0,0113402
1846,5071;0,0112966
1847,4713;0,0112815
1848,4355;0,0112773
1849,3998;0,0112695
1850,3640;0,0112558
1851,3282;0,0112439
1852,2925;0,0112459
1853,2567;0,0112695
1854,2209;0,011315
1855,1852;0,0113747
1856,1494;0,0114359
1857,1136;0,0114837
1858,0779;0,011504
1859,0421;0,0114907
1860,0063;0,0114515
1860,9706;0,0114094
1861,9348;0,0113927
1862,8990;0,0114193
1863,8633;0,0114837
1864,8275;0,0115555
1865,7917;0,0115889
1866,7560;0,011545
1867,7202;0,0114211
1868,6844;0,0112675
1869,6487;0,0111577
1870,6129;0,0111343
1871,5771;0,0111884
1872,5414;0,0112821
1873,5056;0,0113756
1874,4698;0,0114414
1875,4341;0,0114683
1876,3983;0,0114613
1877,3625;0,0114358
1878,3268;0,0114094
1879,2910;0,011394
1880,2552;0,0113935
1881,2195;0,0114047
1882,1837;0,0114211
1883,1479;0,0114358
1884,1122;0,0114437
1885,0764;0,0114422
1886,0406;0,011431
1887,0049;0,0114122
1887,9691;0,0113906
1888,9333;0,011372
1889,8976;0,0113597
1890,8618;0,0113509
1891,8260;0,0113385
1892,7903;0,0113166
1893,7545;0,0112872
1894,7188;0,0112619
1895,6830;0,0112574
1896,6472;0,0112846
1897,6115;0,0113395
1898,5757;0,011403
1899,5399;0,0114509
1900,5042;0,0114655
1901,4684;0,0114438
1902,4326;0,0113983
1903,3969;0,0113499
1904,3611;0,0113178
1905,3253;0,0113115
1906,2896;0,0113297
1907,2538;0,0113643
1908,2180;0,0114051
1909,1823;0,0114443
1910,1465;0,0114781
1911,1107;0,0115057
1912,0750;0,0115279
1913,0392;0,0115455
1914,0034;0,0115598
1914,9677;0,0115727
1915,9319;0,0115856
1916,8961;0,0115958
1917,8604;0,0115947
1918,8246;0,0115693
1919,7888;0,0115125
1920,7531;0,0114319
1921,7173;0,011352
1922,6815;0,0113048
1923,6458;0,011311
1924,6100;0,0113632
1925,5742;0,0114252
1926,5385;0,0114531
1927,5027;0,0114208
1928,4669;0,0113351
1929,4312;0,0112323
1930,3954;0,0111583
1931,3596;0,011143
1932,3239;0,0111841
1933,2881;0,0112513
1934,2523;0,0113078
1935,2166;0,0113329
1936,1808;0,0113318
1937,1450;0,011329
1938,1093;0,0113496
1939,0735;0,0114035
1940,0377;0,0114779
1941,0020;0,0115412
1941,9662;0,0115575
1942,9304;0,0115073
1943,8947;0,0113996
1944,8589;0,0112682
1945,8231;0,0111538
1946,7874;0,0110892
1947,7516;0,0110926
1948,7158;0,0111658
1949,6801;0,0112938
1950,6443;0,0114471
1951,6085;0,0115874
1952,5728;0,011677
1953,5370;0,0116894
1954,5012;0,0116172
1955,4655;0,0114745
1956,4297;0,0112938
1957,3939;0,0111177
1958,3582;0,010991
1959,3224;0,0109511
1960,2866;0,0110191
1961,2509;0,0111903
1962,2151;0,0114319
1963,1793;0,011691
1964,1436;0,0119127
1965,1078;0,0120609
1966,0720;0,0121317
1967,0363;0,0121512
1968,0005;0,0121499
1968,9647;0,0121319
1969,9290;0,0120662
1970,8932;0,0119127
1971,8574;0,0116668
1972,8217;0,0113911
1973,7859;0,0112041
1974,7501;0,0112211
1975,7144;0,0114732
1976,6786;0,0118663
1977,6428;0,0122258
1978,6071;0,0124045
1979,5713;0,0123674
1980,5355;0,0121894
1981,4998;0,0119857
1982,4640;0,0118391
1983,4282;0,0117684
1984,3925;0,0117429
1985,3567;0,0117221
1986,3209;0,0116911
1987,2852;0,0116692
1988,2494;0,0116911
1989,2136;0,0117766
1990,1779;0,0119104
1991,1421;0,0120458
1992,1063;0,0121304
1993,0706;0,0121384
1994,0348;0,0120879
1994,9990;0,0120314
1995,9633;0,0120282
1996,9275;0,0121148
1997,8917;0,0122838
1998,8560;0,0124804
1999,8202;0,012623
2000,7844;0,0126431
2001,7487;0,0125234
2002,7129;0,0123105
2003,6771;0,012095
2004,6414;0,0119677
2005,6056;0,0119722
2006,5698;0,0120819
2007,5341;0,0122186
2008,4983;0,0123026
2009,4625;0,0122995
2010,4268;0,0122303
2011,3910;0,0121451
2012,3552;0,0120865
2013,3195;0,0120695
2014,2837;0,0120863
2015,2479;0,0121263
2016,2122;0,0121927
2017,1764;0,0123016
2018,1406;0,0124642
2019,1049;0,0126684
2020,0691;0,0128762
2021,0333;0,0130397
2021,9976;0,0131232
2022,9618;0,0131187
2023,9260;0,0130458
2024,8903;0,0129365
2025,8545;0,0128175
2026,8187;0,0126994
2027,7830;0,0125824
2028,7472;0,0124729
2029,7114;0,0123969
2030,6757;0,012398
2031,6399;0,0125151
2032,6041;0,0127514
2033,5684;0,0130558
2034,5326;0,0133345
2035,4968;0,0134935
2036,4611;0,0134849
2037,4253;0,0133295
2038,3895;0,0131016
2039,3538;0,0128896
2040,3180;0,0127565
2041,2822;0,0127189
2042,2465;0,0127535
2043,2107;0,0128233
2044,1749;0,012903
2045,1392;0,0129871
2046,1034;0,0130808
2047,0676;0,0131837
2048,0320;0,0132808
2048,9961;0,0133476
2049,9604;0,0133622
2050,9246;0,0133172
2051,8889;0,0132231
2052,8530;0,013107
2053,8174;0,0130056
2054,7815;0,0129514
2055,7458;0,0129571
2056,7100;0,0130042
2057,6743;0,0130498
2058,6384;0,0130502
2059,6028;0,0129879
2060,5669;0,0128848
2061,5313;0,0127896
2062,4954;0,0127486
2063,4597;0,012777
2064,4238;0,0128517
2065,3882;0,01293
2066,3523;0,0129773
2067,3167;0,0129842
2068,2808;0,0129617
2069,2451;0,012925
2070,2092;0,0128829
2071,1736;0,0128407
2072,1377;0,012809
2073,1021;0,0128079
2074,0662;0,012857
2075,0305;0,0129599
2075,9946;0,0130961
2076,9590;0,0132279
2077,9231;0,0133179
2078,8875;0,0133451
2079,8516;0,0133093
2080,8159;0,013226
2081,7800;0,0131175
2082,7444;0,0130094
2083,7085;0,0129276
2084,6729;0,0128941
2085,6370;0,0129179
2086,6013;0,0129869
2087,5654;0,013069
2088,5298;0,0131259
2089,4939;0,0131337
2090,4583;0,0130971
2091,4224;0,0130474
2092,3867;0,0130238
2093,3508;0,0130493
2094,3152;0,0131159
2095,2793;0,0131886
2096,2437;0,0132258
2097,2078;0,013205
2098,1721;0,0131361
2099,1362;0,0130559
2100,1006;0,013007
2101,0647;0,0130158
2102,0291;0,0130802
2102,9932;0,013173
2103,9575;0,013257
2104,9216;0,013305
2105,8860;0,0133108
2106,8501;0,0132895
2107,8145;0,013266
2108,7786;0,0132613
2109,7429;0,0132829
2110,7070;0,0133241
2111,6714;0,0133689
2112,6355;0,0133989
2113,5999;0,0133989
2114,5640;0,0133612
2115,5283;0,0132876
2116,4924;0,0131911
2117,4568;0,0130942
2118,4209;0,013022
2119,3853;0,0129934
2120,3494;0,0130128
2121,3137;0,0130676
2122,2778;0,0131342
2123,2422;0,013188
2124,2063;0,0132138
2125,1707;0,0132104
2126,1348;0,0131882
2127,0991;0,013164
2128,0632;0,0131539
2129,0276;0,0131683
2129,9917;0,0132089
2130,9561;0,0132681
2131,9202;0,0133331
2132,8845;0,0133933
2133,8486;0,0134494
2134,8130;0,0135169
2135,7771;0,0136169
2136,7415;0,0137585
2137,7056;0,013923
2138,6699;0,014066
2139,6340;0,0141406
2140,5984;0,0141269
2141,5625;0,0140485
2142,5269;0,0139622
2143,4910;0,0139253
2144,4553;0,0139609
2145,4194;0,0140471
2146,3838;0,0141367
2147,3479;0,0141931
2148,3123;0,0142149
2149,2764;0,0142317
2150,2407;0,0142768
2151,2048;0,0143604
2152,1692;0,0144637
2153,1333;0,0145555
2154,0977;0,0146177
2155,0618;0,0146605
2156,0261;0,0147188
2156,9902;0,0148319
2157,9546;0,0150173
2158,9187;0,0152554
2159,8831;0,015497
2160,8472;0,0156901
2161,8115;0,015801
2162,7756;0,01582
2163,7400;0,0157566
2164,7041;0,0156306
2165,6685;0,0154631
2166,6326;0,0152689
2167,5969;0,0150539
2168,5610;0,014822
2169,5254;0,0145862
2170,4895;0,0143734
2171,4539;0,0142179
2172,4180;0,0141446
2173,3823;0,0141535
2174,3464;0,014217
2175,3108;0,0142956
2176,2749;0,0143607
2177,2393;0,0144081
2178,2034;0,014451
2179,1677;0,0144989
2180,1318;0,0145401
2181,0962;0,0145444
2182,0603;0,0144849
2183,0247;0,0143657
2183,9888;0,0142287
2184,9531;0,0141336
2185,9172;0,01412
2186,8816;0,0141806
2187,8457;0,0142627
2188,8101;0,0142981
2189,7742;0,0142437
2190,7385;0,0141072
2191,7026;0,0139436
2192,6670;0,0138234
2193,6311;0,0137936
2194,5955;0,0138515
2195,5596;0,0139491
2196,5239;0,0140211
2197,4880;0,0140213
2198,4524;0,0139452
2199,4165;0,0138286
2200,3809;0,0137243
2201,3450;0,0136735
2202,3093;0,0136877
2203,2734;0,0137499
2204,2378;0,0138293
2205,2019;0,0138981
2206,1663;0,0139391
2207,1304;0,0139446
2208,0947;0,0139111
2209,0588;0,0138384
2210,0232;0,0137347
2210,9873;0,0136197
2211,9517;0,0135225
2212,9158;0,0134702
2213,8801;0,0134748
2214,8442;0,013526
2215,8086;0,0135956
2216,7727;0,0136513
2217,7371;0,0136718
2218,7012;0,013657
2219,6655;0,0136265
2220,6296;0,0136092
2221,5940;0,013627
2222,5581;0,013681
2223,5225;0,0137474
2224,4866;0,0137871
2225,4509;0,0137648
2226,4150;0,0136694
2227,3794;0,0135229
2228,3435;0,0133724
2229,3079;0,0132682
2230,2720;0,0132411
2231,2363;0,0132892
2232,2004;0,0133824
2233,1648;0,0134782
2234,1289;0,0135419
2235,0933;0,0135599
2236,0574;0,0135422
2237,0217;0,0135145
2237,9858;0,0135037
2238,9502;0,0135243
2239,9143;0,0135722
2240,8787;0,0136271
2241,8428;0,0136649
2242,8071;0,0136704
2243,7712;0,0136448
2244,7356;0,0136028
2245,6997;0,0135627
2246,6641;0,0135362
2247,6282;0,0135237
2248,5925;0,0135174
2249,5566;0,0135069
2250,5210;0,013484
2251,4851;0,0134447
2252,4495;0,01339
2253,4136;0,013327
2254,3779;0,0132679
2255,3420;0,0132258
2256,3064;0,0132079
2257,2705;0,0132107
2258,2349;0,0132217
2259,1990;0,013227
2260,1633;0,0132193
2261,1274;0,0132008
2262,0918;0,0131784
2263,0559;0,0131573
2264,0203;0,013138
2264,9844;0,0131203
2265,9487;0,0131081
2266,9128;0,0131092
2267,8772;0,0131285
2268,8413;0,0131596
2269,8057;0,0131842
2270,7698;0,0131826
2271,7341;0,0131477
2272,6982;0,013093
2273,6626;0,0130466
2274,6267;0,0130343
2275,5911;0,013064
2276,5552;0,0131222
2277,5195;0,0131843
2278,4836;0,0132303
2279,4480;0,0132562
2280,4121;0,0132714
2281,3765;0,0132886
2282,3406;0,0133126
2283,3049;0,0133366
2284,2690;0,0133479
2285,2334;0,0133368
2286,1975;0,0133033
2287,1619;0,0132569
2288,1260;0,013211
2289,0903;0,0131766
2290,0544;0,0131575
2291,0188;0,0131522
2291,9829;0,0131567
2292,9473;0,0131682
2293,9114;0,0131855
2294,8757;0,0132073
2295,8398;0,0132302
2296,8042;0,0132494
2297,7683;0,0132614
2298,7327;0,013268
2299,6968;0,0132769
2300,6611;0,0132998
2301,6252;0,0133471
2302,5896;0,0134236
2303,5537;0,013526
2304,5181;0,0136447
2305,4822;0,0137656
2306,4465;0,0138745
2307,4106;0,0139601
2308,3750;0,0140168
2309,3391;0,0140476
2310,3035;0,0140642
2311,2676;0,0140839
2312,2319;0,0141232
2313,1960;0,0141901
2314,1604;0,0142815
2315,1245;0,0143866
2316,0889;0,0144928
2317,0530;0,0145911
2318,0173;0,0146772
2318,9814;0,0147485
2319,9458;0,0147988
2320,9099;0,0148141
2321,8743;0,0147764
2322,8384;0,0146742
2323,8027;0,0145138
2324,7668;0,0143212
2325,7312;0,0141328
2326,6953;0,0139819
2327,6597;0,0138867
2328,6238;0,0138459
2329,5881;0,013841
2330,5522;0,0138453
2331,5166;0,0138361
2332,4807;0,0138036
2333,4451;0,0137491
2334,4092;0,013676
2335,3735;0,0135821
2336,3376;0,0134624
2337,3020;0,0133176
2338,2661;0,013161
2339,2305;0,0130137
2340,1946;0,0128919
2341,1589;0,0128036
2342,1230;0,0127579
2343,0874;0,0127699
2344,0515;0,0128395
2345,0159;0,0129346
2345,9800;0,0130237
2346,9443;0,0131163
2347,9084;0,0132521
2348,8728;0,0134601
2349,8369;0,0137283
2350,8013;0,0140007
2351,7654;0,0142016
2352,7297;0,0142849
2353,6938;0,0142736
2354,6582;0,0142403
2355,6223;0,0142326
2356,5867;0,0142326
2357,5508;0,0141901
2358,5151;0,0140769
2359,4792;0,0139058
2360,4436;0,0137122
2361,4077;0,0135305
2362,3721;0,0133865
2363,3362;0,0133006
2364,3005;0,0132842
2365,2646;0,0133332
2366,2290;0,0134286
2367,1931;0,0135454
2368,1575;0,0136622
2369,1216;0,0137641
2370,0859;0,0138412
2371,0500;0,013887
2372,0144;0,0138996
2372,9785;0,0138825
2373,9429;0,0138428
2374,9070;0,0137878
2375,8713;0,0137216
2376,8354;0,0136451
2377,7998;0,0135596
2378,7639;0,0134701
2379,7283;0,0133875
2380,6924;0,0133262
2381,6567;0,0132987
2382,6208;0,0133099
2383,5852;0,0133546
2384,5493;0,0134189
2385,5137;0,0134853
2386,4778;0,0135394
2387,4421;0,0135744
2388,4063;0,0135919
2389,3706;0,0135988
2390,3347;0,0136033
2391,2991;0,0136102
2392,2632;0,0136204
2393,2275;0,0136319
2394,1917;0,013643
2395,1560;0,0136533
2396,1201;0,0136643
2397,0845;0,0136773
2398,0486;0,0136922
2399,0129;0,0137083
2399,9771;0,0137248
2400,9414;0,0137424
2401,9055;0,0137628
2402,8699;0,0137879
2403,8340;0,0138183
2404,7983;0,0138522
2405,7625;0,0138867
2406,7268;0,0139188
2407,6909;0,0139455
2408,6553;0,0139642
2409,6194;0,0139728
2410,5837;0,0139703
2411,5479;0,0139591
2412,5122;0,0139458
2413,4763;0,0139399
2414,4407;0,0139496
2415,4048;0,0139772
2416,3691;0,0140166
2417,3333;0,0140553
2418,2976;0,0140819
2419,2617;0,0140916
2420,2261;0,0140892
2421,1902;0,014086
2422,1545;0,0140924
2423,1187;0,014112
2424,0830;0,01414
2425,0471;0,0141676
2426,0115;0,0141882
2426,9756;0,0142023
2427,9399;0,0142169
2428,9041;0,01424
2429,8684;0,0142746
2430,8325;0,0143153
2431,7969;0,0143509
2432,7610;0,0143706
2433,7253;0,0143706
2434,6895;0,0143573
2435,6538;0,0143437
2436,6179;0,0143425
2437,5823;0,0143591
2438,5464;0,0143894
2439,5107;0,0144225
2440,4749;0,0144481
2441,4392;0,0144621
2442,4033;0,0144682
2443,3677;0,0144747
2444,3318;0,014489
2445,2961;0,0145136
2446,2603;0,0145452
2447,2246;0,0145775
2448,1887;0,0146046
2449,1531;0,0146238
2450,1172;0,0146361
2451,0815;0,0146444
2452,0457;0,014652
2453,0100;0,0146602
2453,9741;0,0146674
2454,9385;0,0146704
2455,9026;0,0146661
2456,8669;0,0146543
2457,8311;0,0146385
2458,7954;0,0146251
2459,7595;0,0146205
2460,7239;0,0146285
2461,6880;0,0146485
2462,6523;0,0146775
2463,6165;0,0147115
2464,5808;0,0147474
2465,5449;0,0147821
2466,5093;0,0148127
2467,4734;0,0148355
2468,4377;0,014848
2469,4019;0,0148508
2470,3662;0,0148472
2471,3303;0,0148417
2472,2947;0,0148375
2473,2588;0,014835
2474,2231;0,0148342
2475,1873;0,014837
2476,1516;0,0148476
2477,1157;0,0148707
2478,0801;0,0149063
2479,0442;0,014948
2480,0085;0,0149844
2480,9727;0,0150049
2481,9370;0,0150053
2482,9011;0,0149896
2483,8655;0,0149673
2484,8296;0,0149478
2485,7939;0,0149369
2486,7581;0,0149359
2487,7224;0,0149443
2488,6865;0,0149612
2489,6509;0,0149866
2490,6150;0,0150189
2491,5793;0,0150545
2492,5435;0,0150878
2493,5078;0,0151132
2494,4719;0,0151282
2495,4363;0,0151344
2496,4004;0,0151362
2497,3647;0,0151383
2498,3289;0,0151431
2499,2932;0,0151497
2500,2573;0,0151553
2501,2217;0,0151572
2502,1858;0,0151559
2503,1501;0,0151552
2504,1143;0,0151611
2505,0786;0,0151783
2506,0427;0,015207
2507,0071;0,0152413
2507,9712;0,0152714
2508,9355;0,0152878
2509,8997;0,0152867
2510,8640;0,0152721
2511,8281;0,0152548
2512,7925;0,0152475
2513,7566;0,015258
2514,7209;0,0152851
2515,6851;0,0153188
2516,6494;0,0153451
2517,6135;0,0153533
2518,5779;0,0153413
2519,5420;0,0153168
2520,5063;0,0152931
2521,4705;0,0152822
2522,4348;0,0152901
2523,3989;0,015315
2524,3633;0,0153493
2525,3274;0,0153843
2526,2917;0,0154129
2527,2559;0,0154316
2528,2202;0,0154399
2529,1843;0,0154404
2530,1487;0,015437
2531,1128;0,0154332
2532,0771;0,0154303
2533,0413;0,0154261
2534,0056;0,0154165
2534,9697;0,0153991
2535,9341;0,0153773
2536,8982;0,0153604
2537,8625;0,0153597
2538,8267;0,0153822
2539,7910;0,0154246
2540,7551;0,0154738
2541,7195;0,0155124
2542,6836;0,0155276
2543,6479;0,0155175
2544,6121;0,0154915
2545,5764;0,0154655
2546,5405;0,0154538
2547,5049;0,0154629
2548,4690;0,0154889
2549,4333;0,0155204
2550,3975;0,0155445
2551,3618;0,0155525
2552,3259;0,0155445
2553,2903;0,0155285
2554,2544;0,0155166
2555,2188;0,0155188
2556,1829;0,0155386
2557,1472;0,0155716
2558,1113;0,0156083
2559,0757;0,0156397
2560,0398;0,0156606
2561,0042;0,0156718
2561,9683;0,0156774
2562,9326;0,015682
2563,8967;0,0156875
2564,8611;0,0156926
2565,8252;0,0156939
2566,7896;0,0156888
2567,7537;0,0156775
2568,7180;0,0156639
2569,6821;0,0156531
2570,6465;0,0156493
2571,6106;0,0156532
2572,5750;0,0156623
2573,5391;0,0156725
2574,5034;0,0156816
2575,4675;0,01569
2576,4319;0,0157
2577,3960;0,0157125
2578,3604;0,0157257
2579,3245;0,0157358
2580,2888;0,0157399
2581,2529;0,0157395
2582,2173;0,01574
2583,1814;0,0157476
2584,1458;0,0157652
2585,1099;0,0157903
2586,0742;0,0158162
2587,0383;0,0158367
2588,0027;0,0158485
2588,9668;0,0158523
2589,9312;0,0158505
2590,8953;0,0158457
2591,8596;0,0158395
2592,8237;0,0158339
2593,7881;0,0158313
2594,7522;0,0158337
2595,7166;0,0158418
2596,6807;0,0158538
2597,6450;0,0158673
2598,6091;0,0158813
2599,5735;0,0158976
2600,5376;0,015919
2601,5020;0,0159468
2602,4661;0,0159787
2603,4304;0,0160095
2604,3945;0,016034
2605,3589;0,0160506
2606,3230;0,0160615
2607,2874;0,0160715
2608,2515;0,0160846
2609,2158;0,0161022
2610,1799;0,016123
2611,1443;0,0161452
2612,1084;0,0161675
2613,0728;0,0161897
2614,0369;0,0162117
2615,0012;0,0162326
2615,9653;0,016251
2616,9297;0,0162657
2617,8938;0,0162775
2618,8582;0,0162885
2619,8223;0,0163015
2620,7866;0,0163177
2621,7507;0,0163361
2622,7151;0,016354
2623,6792;0,0163696
2624,6436;0,0163834
2625,6077;0,0163984
2626,5720;0,016418
2627,5361;0,0164431
2628,5005;0,0164716
2629,4646;0,0164989
2630,4290;0,0165218
2631,3931;0,0165399
2632,3574;0,0165561
2633,3215;0,0165735
2634,2859;0,0165934
2635,2500;0,0166138
2636,2144;0,0166316
2637,1785;0,0166451
2638,1428;0,0166558
2639,1069;0,0166676
2640,0713;0,0166836
2641,0354;0,0167049
2641,9998;0,0167296
2642,9639;0,016755
2643,9282;0,0167792
2644,8923;0,0168023
2645,8567;0,0168252
2646,8208;0,0168481
2647,7852;0,0168694
2648,7493;0,0168869
2649,7136;0,0168992
2650,6777;0,0169072
2651,6421;0,0169135
2652,6062;0,0169211
2653,5706;0,016932
2654,5347;0,0169463
2655,4990;0,0169629
2656,4631;0,0169806
2657,4275;0,0169995
2658,3916;0,0170203
2659,3560;0,0170428
2660,3201;0,0170652
2661,2844;0,0170835
2662,2485;0,0170936
2663,2129;0,0170937
2664,1770;0,0170861
2665,1414;0,0170773
2666,1055;0,0170751
2667,0698;0,0170851
2668,0339;0,0171074
2668,9983;0,0171368
2669,9624;0,0171653
2670,9268;0,0171873
2671,8909;0,0172021
2672,8552;0,0172148
2673,8193;0,0172324
2674,7837;0,0172591
2675,7478;0,0172933
2676,7122;0,0173282
2677,6763;0,017356
2678,6406;0,0173731
2679,6047;0,0173823
2680,5691;0,0173919
2681,5332;0,0174107
2682,4976;0,0174433
2683,4617;0,0174877
2684,4260;0,0175373
2685,3901;0,0175844
2686,3545;0,0176232
2687,3186;0,0176518
2688,2830;0,0176711
2689,2471;0,0176833
2690,2114;0,0176912
2691,1755;0,0176983
2692,1399;0,0177088
2693,1040;0,0177265
2694,0684;0,0177533
2695,0325;0,0177882
2695,9968;0,0178273
2696,9609;0,0178655
2697,9253;0,0178991
2698,8894;0,0179271
2699,8538;0,0179508
2700,8179;0,0179724
2701,7822;0,0179939
2702,7463;0,0180164
2703,7107;0,0180408
2704,6748;0,0180674
2705,6392;0,0180963
2706,6033;0,0181267
2707,5676;0,0181575
2708,5317;0,0181879
2709,4961;0,0182181
2710,4602;0,0182487
2711,4246;0,0182799
2712,3887;0,018311
2713,3530;0,0183402
2714,3171;0,0183662
2715,2815;0,0183895
2716,2456;0,0184127
2717,2100;0,0184391
2718,1741;0,0184708
2719,1384;0,0185064
2720,1025;0,0185417
2721,0669;0,0185713
2722,0310;0,0185908
2722,9954;0,0185994
2723,9595;0,0186001
2724,9238;0,018599
2725,8879;0,0186036
2726,8523;0,0186202
2727,8164;0,0186518
2728,7808;0,0186969
2729,7449;0,0187498
2730,7092;0,0188023
2731,6733;0,0188462
2732,6377;0,0188764
2733,6018;0,0188921
2734,5662;0,0188972
2735,5303;0,0188983
2736,4946;0,0189022
2737,4587;0,0189133
2738,4231;0,0189325
2739,3872;0,0189574
2740,3516;0,0189842
2741,3157;0,0190094
2742,2800;0,0190316
2743,2441;0,0190507
2744,2085;0,0190674
2745,1726;0,0190815
2746,1370;0,0190925
2747,1011;0,0191004
2748,0654;0,0191066
2749,0295;0,0191143
2749,9939;0,0191272
2750,9580;0,0191485
2751,9224;0,019179
2752,8865;0,0192173
2753,8508;0,01926
2754,8149;0,0193026
2755,7793;0,0193411
2756,7434;0,0193726
2757,7078;0,0193969
2758,6719;0,0194162
2759,6362;0,0194345
2760,6003;0,0194551
2761,5647;0,0194797
2762,5288;0,0195071
2763,4932;0,0195349
2764,4573;0,0195617
2765,4216;0,019588
2766,3857;0,0196164
2767,3501;0,0196497
2768,3142;0,0196888
2769,2786;0,019732
2770,2427;0,0197749
2771,2070;0,0198125
2772,1711;0,0198413
2773,1355;0,019861
2774,0996;0,0198756
2775,0640;0,0198922
2776,0281;0,0199185
2776,9924;0,0199596
2777,9565;0,0200149
2778,9209;0,0200786
2779,8850;0,0201419
2780,8494;0,0201974
2781,8135;0,0202428
2782,7778;0,020281
2783,7419;0,0203178
2784,7063;0,0203573
2785,6704;0,0203998
2786,6348;0,020442
2787,5989;0,0204801
2788,5632;0,020514
2789,5273;0,020548
2790,4917;0,0205889
2791,4558;0,0206425
2792,4202;0,0207093
2793,3843;0,0207846
2794,3486;0,0208608
2795,3127;0,0209315
2796,2771;0,0209951
2797,2412;0,0210544
2798,2056;0,0211148
2799,1697;0,0211805
2800,1340;0,0212519
2801,0981;0,0213263
2802,0625;0,0213996
2803,0266;0,0214692
2803,9910;0,0215357
2804,9551;0,0216019
2805,9194;0,0216712
2806,8835;0,021746
2807,8479;0,0218264
2808,8120;0,0219118
2809,7764;0,0220014
2810,7405;0,0220954
2811,7048;0,0221948
2812,6689;0,0222999
2813,6333;0,0224095
2814,5974;0,0225212
2815,5618;0,0226327
2816,5259;0,0227433
2817,4902;0,0228548
2818,4543;0,0229704
2819,4187;0,0230928
2820,3828;0,0232224
2821,3472;0,0233574
2822,3113;0,0234952
2823,2756;0,0236347
2824,2397;0,0237776
2825,2041;0,0239271
2826,1682;0,0240859
2827,1326;0,0242546
2828,0967;0,0244319
2829,0610;0,0246159
2830,0251;0,0248068
2830,9895;0,0250072
2831,9536;0,0252201
2832,9180;0,0254472
2833,8821;0,0256868
2834,8464;0,0259349
2835,8105;0,0261884
2836,7749;0,0264482
2837,7390;0,0267204
2838,7034;0,0270149
2839,6675;0,0273435
2840,6318;0,0277165
2841,5959;0,0281416
2842,5603;0,0286221
2843,5244;0,0291549
2844,4888;0,0297269
2845,4529;0,030312
2846,4172;0,0308721
2847,3813;0,0313628
2848,3457;0,0317439
2849,3098;0,0319907
2850,2742;0,0321002
2851,2383;0,0320913
2852,2026;0,0319977
2853,1667;0,0318581
2854,1311;0,0317066
2855,0952;0,0315676
2856,0596;0,0314539
2857,0237;0,0313696
2857,9880;0,0313147
2858,9521;0,0312893
2859,9165;0,0312959
2860,8806;0,0313375
2861,8450;0,0314146
2862,8091;0,0315226
2863,7734;0,0316519
2864,7375;0,0317916
2865,7019;0,0319338
2866,6660;0,0320748
2867,6304;0,0322143
2868,5945;0,0323511
2869,5588;0,032481
2870,5229;0,0325977
2871,4873;0,0326962
2872,4514;0,0327767
2873,4158;0,0328447
2874,3799;0,0329082
2875,3442;0,0329741
2876,3083;0,0330455
2877,2727;0,0331219
2878,2368;0,0332012
2879,2012;0,0332814
2880,1653;0,0333617
2881,1296;0,0334418
2882,0938;0,0335228
2883,0581;0,0336062
2884,0222;0,0336942
2884,9866;0,033788
2885,9507;0,0338864
2886,9150;0,033986
2887,8792;0,0340833
2888,8435;0,0341767
2889,8076;0,0342686
2890,7720;0,0343633
2891,7361;0,0344637
2892,7004;0,0345694
2893,6646;0,0346762
2894,6289;0,0347797
2895,5930;0,0348785
2896,5574;0,0349749
2897,5215;0,0350731
2898,4858;0,0351751
2899,4500;0,0352789
2900,4143;0,0353792
2901,3784;0,0354708
2902,3428;0,0355533
2903,3069;0,0356317
2904,2712;0,035716
2905,2354;0,0358172
2906,1997;0,0359443
2907,1638;0,0361034
2908,1282;0,0362989
2909,0923;0,036535
2910,0566;0,036816
2911,0208;0,0371442
2911,9851;0,0375148
2912,9492;0,0379113
2913,9136;0,0383037
2914,8777;0,0386524
2915,8420;0,0389177
2916,8062;0,0390702
2917,7705;0,0390992
2918,7346;0,039014
2919,6990;0,0388386
2920,6631;0,0386025
2921,6274;0,0383323
2922,5916;0,0380466
2923,5559;0,037756
2924,5200;0,0374643
2925,4844;0,0371723
2926,4485;0,0368799
2927,4128;0,0365883
2928,3770;0,0363008
2929,3413;0,0360223
2930,3054;0,0357576
2931,2698;0,0355089
2932,2339;0,0352742
2933,1982;0,0350488
2934,1624;0,0348282
2935,1267;0,0346105
2936,0908;0,0343966
2937,0552;0,0341884
2938,0193;0,0339853
2938,9836;0,0337827
2939,9478;0,0335737
2940,9121;0,0333522
2941,8762;0,0331163
2942,8406;0,0328694
2943,8047;0,0326186
2944,7690;0,0323723
2945,7332;0,032138
2946,6975;0,0319216
2947,6616;0,031726
2948,6260;0,0315509
2949,5901;0,0313926
2950,5544;0,031244
2951,5186;0,0310974
2952,4829;0,0309465
2953,4470;0,030789
2954,4114;0,0306263
2955,3755;0,0304613
2956,3398;0,0302963
2957,3040;0,0301308
2958,2683;0,0299628
2959,2324;0,0297904
2960,1968;0,0296136
2961,1609;0,029435
2962,1252;0,0292577
2963,0894;0,0290844
2964,0537;0,0289156
2965,0178;0,0287501
2965,9822;0,0285856
2966,9463;0,0284192
2967,9106;0,0282478
2968,8748;0,0280691
2969,8391;0,0278821
2970,8032;0,0276883
2971,7676;0,0274923
2972,7317;0,0273013
2973,6960;0,0271219
2974,6602;0,0269583
2975,6245;0,0268105
2976,5886;0,0266751
2977,5530;0,026548
2978,5171;0,0264265
2979,4814;0,0263102
2980,4456;0,0261999
2981,4099;0,0260959
2982,3740;0,0259971
2983,3384;0,0259018
2984,3025;0,0258094
2985,2668;0,0257214
2986,2310;0,0256407
2987,1953;0,0255697
2988,1594;0,0255089
2989,1238;0,0254566
2990,0879;0,0254103
2991,0522;0,0253685
2992,0164;0,0253319
2992,9807;0,0253022
2993,9448;0,0252813
2994,9092;0,0252692
2995,8733;0,0252649
2996,8376;0,0252668
2997,8018;0,0252735
2998,7661;0,0252842
2999,7302;0,0252981
3000,6946;0,0253143
3001,6587;0,0253321
3002,6230;0,0253513
3003,5872;0,0253722
3004,5515;0,0253955
3005,5156;0,0254201
3006,4800;0,0254439
3007,4441;0,0254642
3008,4084;0,0254793
3009,3726;0,0254904
3010,3369;0,025501
3011,3010;0,0255149
3012,2654;0,0255344
3013,2295;0,0255594
3014,1938;0,0255886
3015,1580;0,0256213
3016,1223;0,0256594
3017,0864;0,0257061
3018,0508;0,0257636
3019,0149;0,0258303
3019,9792;0,025901
3020,9434;0,0259688
3021,9077;0,0260294
3022,8718;0,0260834
3023,8362;0,0261358
3024,8003;0,0261924
3025,7646;0,0262561
3026,7288;0,0263251
3027,6931;0,026394
3028,6572;0,0264571
3029,6216;0,0265122
3030,5857;0,0265612
3031,5500;0,0266093
3032,5142;0,0266629
3033,4785;0,0267268
3034,4426;0,0268033
3035,4070;0,0268917
3036,3711;0,0269881
3037,3354;0,0270871
3038,2996;0,0271827
3039,2639;0,0272709
3040,2280;0,0273513
3041,1924;0,0274272
3042,1565;0,0275039
3043,1208;0,0275863
3044,0850;0,0276764
3045,0493;0,0277728
3046,0134;0,027872
3046,9778;0,027971
3047,9419;0,028069
3048,9063;0,0281669
3049,8704;0,0282664
3050,8347;0,0283679
3051,7988;0,0284695
3052,7632;0,0285682
3053,7273;0,0286619
3054,6917;0,028752
3055,6558;0,0288433
3056,6201;0,0289425
3057,5842;0,0290545
3058,5486;0,0291792
3059,5127;0,0293111
3060,4771;0,0294412
3061,4412;0,0295607
3062,4055;0,0296646
3063,3696;0,0297533
3064,3340;0,0298324
3065,2981;0,0299106
3066,2625;0,0299967
3067,2266;0,0300974
3068,1909;0,030215
3069,1550;0,0303476
3070,1194;0,0304895
3071,0835;0,0306336
3072,0479;0,0307726
3073,0120;0,0309009
3073,9763;0,0310156
3074,9404;0,0311163
3075,9048;0,0312054
3076,8689;0,0312873
3077,8333;0,0313676
3078,7974;0,0314519
3079,7617;0,0315435
3080,7258;0,0316432
3081,6902;0,0317486
3082,6543;0,0318561
3083,6187;0,031963
3084,5828;0,0320681
3085,5471;0,0321718
3086,5112;0,0322756
3087,4756;0,0323805
3088,4397;0,0324869
3089,4041;0,0325954
3090,3682;0,0327064
3091,3325;0,0328207
3092,2966;0,032939
3093,2610;0,0330609
3094,2251;0,033185
3095,1895;0,033309
3096,1536;0,0334304
3097,1179;0,0335474
3098,0820;0,0336594
3099,0464;0,0337667
3100,0105;0,0338709
3100,9749;0,033974
3101,9390;0,0340779
3102,9033;0,034184
3103,8674;0,0342933
3104,8318;0,0344064
3105,7959;0,0345244
3106,7603;0,0346488
3107,7244;0,0347808
3108,6887;0,0349207
3109,6528;0,0350664
3110,6172;0,035214
3111,5813;0,0353583
3112,5457;0,0354952
3113,5098;0,035623
3114,4741;0,0357431
3115,4382;0,0358591
3116,4026;0,0359749
3117,3667;0,0360925
3118,3311;0,0362121
3119,2952;0,0363325
3120,2595;0,0364529
3121,2236;0,0365749
3122,1880;0,0367019
3123,1521;0,0368384
3124,1165;0,0369874
3125,0806;0,0371477
3126,0449;0,0373133
3127,0090;0,0374749
3127,9734;0,0376234
3128,9375;0,0377549
3129,9019;0,037873
3130,8660;0,037988
3131,8303;0,0381118
3132,7944;0,0382515
3133,7588;0,0384051
3134,7229;0,0385631
3135,6873;0,0387142
3136,6514;0,0388528
3137,6157;0,0389822
3138,5798;0,0391116
3139,5442;0,0392502
3140,5083;0,039401
3141,4727;0,0395595
3142,4368;0,0397168
3143,4011;0,0398663
3144,3652;0,040007
3145,3296;0,040144
3146,2937;0,0402843
3147,2581;0,0404331
3148,2222;0,0405903
3149,1865;0,0407518
3150,1506;0,0409119
3151,1150;0,041066
3152,0791;0,041213
3153,0435;0,0413551
3154,0076;0,0414966
3154,9719;0,0416419
3155,9360;0,0417946
3156,9004;0,0419559
3157,8645;0,0421253
3158,8289;0,0423001
3159,7930;0,0424767
3160,7573;0,0426509
3161,7214;0,0428194
3162,6858;0,0429807
3163,6499;0,0431357
3164,6143;0,0432871
3165,5784;0,0434376
3166,5427;0,0435885
3167,5068;0,0437394
3168,4712;0,043889
3169,4353;0,0440559
3170,3997;0,0442068
3171,3638;0,0443631
3172,3281;0,0445265
3173,2922;0,0446946
3174,2566;0,0448612
3175,2207;0,0450202
3176,1851;0,0451694
3177,1492;0,0453121
3178,1135;0,0454555
3179,0776;0,0456056
3180,0420;0,0457634
3181,0061;0,0459241
3181,9705;0,0460814
3182,9346;0,0462316
3183,8989;0,0463765
3184,8630;0,0465224
3185,8274;0,0466754
3186,7915;0,0468384
3187,7559;0,0470098
3188,7200;0,047185
3189,6843;0,0473599
3190,6484;0,0475318
3191,6128;0,0476995
3192,5769;0,0478611
3193,5413;0,048014
3194,5054;0,0481554
3195,4697;0,0482851
3196,4338;0,0484072
3197,3982;0,0485297
3198,3623;0,0486623
3199,3267;0,0488119
3200,2908;0,0489798
3201,2551;0,0491607
3202,2192;0,0493448
3203,1836;0,0495215
3204,1477;0,0496839
3205,1121;0,0498309
3206,0762;0,0499668
3207,0405;0,0500981
3208,0046;0,0502294
3208,9690;0,0503625
3209,9331;0,0504964
3210,8975;0,0506313
3211,8616;0,0507698
3212,8259;0,0509158
3213,7900;0,0510713
3214,7544;0,0512323
3215,7185;0,0513898
3216,6829;0,0515341
3217,6470;0,0516611
3218,6113;0,0517753
3219,5754;0,0518878
3220,5398;0,0520097
3221,5039;0,0521462
3222,4683;0,0522942
3223,4324;0,052446
3224,3967;0,052595
3225,3608;0,0527395
3226,3252;0,0528826
3227,2893;0,0530283
3228,2537;0,0531776
3229,2178;0,0533275
3230,1821;0,053473
3231,1462;0,0536105
3232,1106;0,0537404
3233,0747;0,0538656
3234,0391;0,0539903
3235,0032;0,0541172
3235,9675;0,0542476
3236,9316;0,0543822
3237,8960;0,0545223
3238,8601;0,0546691
3239,8245;0,0548224
3240,7886;0,054979
3241,7529;0,055134
3242,7170;0,0552822
3243,6814;0,0554219
3244,6455;0,0555564
3245,6099;0,0556933
3246,5740;0,0558409
3247,5383;0,0560033
3248,5024;0,0561772
3249,4668;0,0563532
3250,4309;0,0565188
3251,3953;0,0566649
3252,3594;0,0567895
3253,3237;0,0568998
3254,2878;0,0570081
3255,2522;0,057127
3256,2163;0,0572633
3257,1807;0,0574167
3258,1448;0,0575813
3259,1091;0,0577497
3260,0732;0,0579165
3261,0376;0,0580797
3262,0017;0,05824
3262,9661;0,0583994
3263,9302;0,0585595
3264,8945;0,0587203
3265,8586;0,0588806
3266,8230;0,0590375
3267,7871;0,0591864
3268,7515;0,0593214
3269,7156;0,0594366
3270,6799;0,0595285
3271,6440;0,0595989
3272,6084;0,0596557
3273,5725;0,0597113
3274,5369;0,059778
3275,5010;0,0598623
3276,4653;0,0599619
3277,4294;0,0600674
3278,3938;0,0601674
3279,3579;0,0602546
3280,3223;0,0603284
3281,2864;0,0603944
3282,2507;0,0604598
3283,2148;0,060529
3284,1792;0,0606016
3285,1433;0,0606725
3286,1077;0,0607352
3287,0718;0,0607855
3288,0361;0,0608233
3289,0002;0,0608532
3289,9646;0,060882
3290,9287;0,0609143
3291,8931;0,0609499
3292,8572;0,0609833
3293,8215;0,061008
3294,7856;0,0610216
3295,7500;0,061029
3296,7141;0,0610406
3297,6785;0,0610662
3298,6426;0,0611095
3299,6069;0,0611663
3300,5710;0,0612277
3301,5354;0,0612858
3302,4995;0,0613362
3303,4639;0,0613773
3304,4280;0,0614074
3305,3923;0,0614234
3306,3564;0,0614235
3307,3208;0,061411
3308,2849;0,0613957
3309,2493;0,06139
3310,2134;0,0614032
3311,1777;0,0614361
3312,1418;0,0614822
3313,1062;0,0615329
3314,0703;0,0615834
3315,0347;0,0616355
3315,9988;0,0616953
3316,9631;0,0617685
3317,9272;0,0618564
3318,8916;0,0619553
3319,8557;0,0620577
3320,8201;0,0621559
3321,7842;0,0622446
3322,7485;0,0623217
3323,7126;0,0623887
3324,6770;0,06245
3325,6411;0,0625113
3326,6055;0,0625777
3327,5696;0,0626526
3328,5339;0,0627361
3329,4980;0,0628242
3330,4624;0,06291
3331,4265;0,0629847
3332,3909;0,0630402
3333,3550;0,0630717
3334,3193;0,0630801
3335,2834;0,0630714
3336,2478;0,0630539
3337,2119;0,063034
3338,1763;0,0630124
3339,1404;0,0629846
3340,1047;0,0629445
3341,0688;0,0628886
3342,0332;0,062819
3342,9973;0,0627421
3343,9617;0,0626642
3344,9258;0,0625882
3345,8901;0,0625117
3346,8542;0,0624295
3347,8186;0,062337
3348,7827;0,0622331
3349,7471;0,0621206
3350,7112;0,0620049
3351,6755;0,0618918
3352,6396;0,0617858
3353,6040;0,0616894
3354,5681;0,0616024
3355,5325;0,0615217
3356,4966;0,0614414
3357,4609;0,0613545
3358,4250;0,0612563
3359,3894;0,0611464
3360,3535;0,0610296
3361,3179;0,0609135
3362,2820;0,0608046
3363,2463;0,0607048
3364,2104;0,0606102
3365,1748;0,0605135
3366,1389;0,060408
3367,1033;0,0602912
3368,0674;0,0601666
3369,0317;0,060041
3369,9958;0,0599217
3370,9602;0,0598127
3371,9243;0,0597126
3372,8887;0,0596161
3373,8528;0,0595162
3374,8171;0,0594088
3375,7813;0,0592952
3376,7456;0,0591821
3377,7097;0,059078
3378,6741;0,0589878
3379,6382;0,058908
3380,6025;0,0588277
3381,5667;0,0587332
3382,5310;0,0586166
3383,4951;0,0584818
3384,4595;0,0583439
3385,4236;0,0582205
3386,3879;0,0581211
3387,3521;0,0580412
3388,3164;0,057965
3389,2805;0,057876
3390,2449;0,0577663
3391,2090;0,0576417
3392,1733;0,0575159
3393,1375;0,0574014
3394,1018;0,0573009
3395,0659;0,0572069
3396,0303;0,0571081
3396,9944;0,0569962
3397,9587;0,0568703
3398,9229;0,0567352
3399,8872;0,0565974
3400,8513;0,0564617
3401,8157;0,0563305
3402,7798;0,0562051
3403,7441;0,0560863
3404,7083;0,0559739
3405,6726;0,0558657
3406,6367;0,0557569
3407,6011;0,0556409
3408,5652;0,0555108
3409,5295;0,0553621
3410,4937;0,0551954
3411,4580;0,0550178
3412,4221;0,054842
3413,3865;0,0546813
3414,3506;0,054543
3415,3149;0,0544226
3416,2791;0,0543032
3417,2434;0,0541626
3418,2075;0,0539843
3419,1719;0,0537678
3420,1360;0,0535315
3421,1003;0,0533038
3422,0645;0,0531089
3423,0288;0,0529542
3423,9929;0,0528282
3424,9573;0,0527086
3425,9214;0,0525742
3426,8857;0,052415
3427,8499;0,0522347
3428,8142;0,0520469
3429,7783;0,0518654
3430,7427;0,0516967
3431,7068;0,0515369
3432,6711;0,0513763
3433,6353;0,0512062
3434,5996;0,0510244
3435,5637;0,0508352
3436,5281;0,050646
3437,4922;0,050463
3438,4565;0,0502894
3439,4207;0,0501261
3440,3850;0,0499715
3441,3491;0,0498203
3442,3135;0,0496618
3443,2776;0,0494811
3444,2419;0,0492661
3445,2061;0,0490172
3446,1704;0,0487523
3447,1345;0,0485012
3448,0989;0,0482897
3449,0630;0,0481247
3450,0273;0,0479921
3450,9915;0,0478666
3451,9558;0,047726
3452,9199;0,0475608
3453,8843;0,0473751
3454,8484;0,04718
3455,8127;0,0469856
3456,7769;0,046795
3457,7412;0,0466058
3458,7053;0,046414
3459,6697;0,0462176
3460,6338;0,0460178
3461,5981;0,0458169
3462,5623;0,0456159
3463,5266;0,0454136
3464,4907;0,0452081
3465,4551;0,0449994
3466,4192;0,0447911
3467,3835;0,0445899
3468,3477;0,044401
3469,3120;0,0442245
3470,2761;0,0440536
3471,2405;0,0438785
3472,2046;0,0436933
3473,1689;0,0435013
3474,1331;0,043314
3475,0974;0,0431425
3476,0615;0,0429876
3477,0259;0,0428363
3477,9900;0,0426676
3478,9543;0,0424662
3479,9185;0,0422331
3480,8828;0,0419884
3481,8469;0,0417595
3482,8113;0,0415642
3483,7754;0,0413995
3484,7397;0,0412457
3485,7039;0,0410796
3486,6682;0,0408883
3487,6323;0,0406762
3488,5967;0,0404607
3489,5608;0,04026
3490,5251;0,0400808
3491,4893;0,0399148
3492,4536;0,0397452
3493,4177;0,0395605
3494,3821;0,0393651
3495,3462;0,0391799
3496,3105;0,0390281
3497,2747;0,0389154
3498,2390;0,0388189
3499,2031;0,0386946
3500,1675;0,0385011
3501,1316;0,0382267
3502,0959;0,037905
3503,0601;0,0376002
3504,0244;0,0373655
3504,9885;0,0372082
3505,9529;0,0370899
3506,9170;0,0369562
3507,8813;0,0367714
3508,8455;0,0365386
3509,8098;0,0362951
3510,7739;0,0360852
3511,7383;0,0359296
3512,7024;0,0358154
3513,6667;0,0357111
3514,6309;0,0355898
3515,5952;0,0354434
3516,5593;0,0352825
3517,5237;0,0351237
3518,4878;0,0349755
3519,4521;0,0348321
3520,4163;0,0346793
3521,3806;0,0345056
3522,3447;0,0343093
3523,3091;0,0340969
3524,2732;0,0338739
3525,2375;0,0336393
3526,2017;0,0333893
3527,1660;0,0331285
3528,1301;0,0328773
3529,0945;0,0326641
3530,0586;0,0325067
3531,0229;0,032398
3531,9871;0,0323064
3532,9514;0,0321914
3533,9155;0,0320242
3534,8799;0,0318043
3535,8440;0,0315633
3536,8083;0,0313492
3537,7725;0,0312003
3538,7368;0,0311244
3539,7009;0,031096
3540,6653;0,0310681
3541,6294;0,0309888
3542,5938;0,0308182
3543,5579;0,0305486
3544,5222;0,0302162
3545,4863;0,0298893
3546,4507;0,0296278
3547,4148;0,029445
3548,3792;0,0293057
3549,3433;0,0291549
3550,3076;0,0289521
3551,2717;0,0286956
3552,2361;0,028425
3553,2002;0,0281976
3554,1646;0,0280485
3555,1287;0,0279681
3556,0930;0,027914
3557,0571;0,0278408
3558,0215;0,0277296
3558,9856;0,0275999
3559,9500;0,027496
3560,9141;0,0274521
3561,8784;0,0274577
3562,8425;0,0274472
3563,8069;0,0273165
3564,7710;0,0269709
3565,7354;0,0264056
3566,6995;0,02576
3567,6638;0,0252397
3568,6279;0,0249523
3569,5923;0,0248599
3570,5564;0,0248599
3571,5208;0,0248613
3572,4849;0,0248108
3573,4492;0,0246941
3574,4133;0,0245277
3575,3777;0,0243401
3576,3418;0,0241524
3577,3062;0,0239718
3578,2703;0,0238031
3579,2346;0,0236624
3580,1987;0,0235758
3581,1631;0,0235599
3582,1272;0,0235981
3583,0916;0,0236304
3584,0557;0,0235628
3585,0200;0,0233041
3585,9841;0,022836
3586,9485;0,0222735
3587,9126;0,0218089
3588,8770;0,0215564
3589,8411;0,0214842
3590,8054;0,0214825
3591,7695;0,0214442
3592,7339;0,0213072
3593,6980;0,0210719
3594,6624;0,0207921
3595,6265;0,0205307
3596,5908;0,0203092
3597,5549;0,0201052
3598,5193;0,0198927
3599,4834;0,0196829
3600,4478;0,0195252
3601,4119;0,0194663
3602,3762;0,0195061
3603,3403;0,0195922
3604,3047;0,0196486
3605,2688;0,0196136
3606,2332;0,0194719
3607,1973;0,0192661
3608,1616;0,0190685
3609,1257;0,0189238
3610,0901;0,018821
3611,0542;0,0187209
3612,0186;0,0186004
3612,9827;0,0184693
3613,9470;0,0183488
3614,9111;0,0182355
3615,8755;0,018085
3616,8396;0,0178314
3617,8040;0,0174409
3618,7681;0,0169688
3619,7324;0,0165544
3620,6965;0,0163297
3621,6609;0,0163346
3622,6250;0,0165218
3623,5894;0,0168011
3624,5535;0,0170591
3625,5178;0,0171539
3626,4819;0,0169368
3627,4463;0,0163548
3628,4104;0,0155855
3629,3748;0,0149542
3630,3389;0,014633
3631,3032;0,014556
3632,2673;0,0145808
3633,2317;0,0146052
3634,1958;0,0145861
3635,1602;0,0145244
3636,1243;0,0144421
3637,0886;0,0143594
3638,0527;0,0142855
3639,0171;0,0142252
3639,9812;0,0141941
3640,9456;0,0142227
3641,9097;0,0143436
3642,8740;0,014569
3643,8381;0,0148697
3644,8025;0,0151599
3645,7666;0,0152852
3646,7310;0,015046
3647,6951;0,0143399
3648,6594;0,0133956
3649,6235;0,0126809
3650,5879;0,0124156
3651,5520;0,0124669
3652,5164;0,0126195
3653,4805;0,0127171
3654,4448;0,0126733
3655,4089;0,0124782
3656,3733;0,0122063
3657,3374;0,01197
3658,3018;0,0118366
3659,2659;0,0117967
3660,2302;0,0118044
3661,1943;0,0118299
3662,1587;0,0118823
3663,1228;0,0119942
3664,0872;0,012184
3665,0513;0,0124228
3666,0156;0,0126298
3666,9797;0,0127001
3667,9441;0,0125691
3668,9082;0,0122944
3669,8726;0,0120464
3670,8367;0,0119553
3671,8010;0,01199
3672,7651;0,0119971
3673,7295;0,0118113
3674,6936;0,011378
3675,6580;0,0108361
3676,6221;0,0104166
3677,5864;0,0102267
3678,5505;0,010215
3679,5149;0,010291
3680,4790;0,0104019
3681,4434;0,0105408
3682,4075;0,0107257
3683,3718;0,0109688
3684,3359;0,0112493
3685,3003;0,0114986
3686,2644;0,0116051
3687,2288;0,011457
3688,1929;0,0110373
3689,1572;0,0105019
3690,1213;0,0100801
3691,0857;0,00987553
3692,0498;0,00983925
3693,0142;0,00988328
3693,9783;0,00995344
3694,9426;0,0100349
3695,9067;0,0101307
3696,8711;0,0102366
3697,8352;0,0103254
3698,7996;0,0103511
3699,7637;0,010276
3700,7280;0,0101112
3701,6921;0,00993273
3702,6565;0,00984331
3703,6206;0,00990595
3704,5850;0,0101138
3705,5491;0,0104074
3706,5134;0,0106993
3707,4775;0,0108858
3708,4419;0,0108648
3709,4060;0,0105899
3710,3704;0,0101494
3711,3345;0,00975131
3712,2988;0,00955866
3713,2629;0,00957922
3714,2273;0,00972937
3715,1914;0,00992444
3716,1558;0,0101063
3717,1199;0,0102397
3718,0842;0,0103099
3719,0483;0,0103224
3720,0127;0,0102949
3720,9768;0,0102394
3721,9412;0,0101497
3722,9053;0,0100134
3723,8696;0,00984158
3724,8337;0,00968755
3725,7981;0,00962612
3726,7622;0,00970898
3727,7266;0,00993769
3728,6907;0,0102699
3729,6550;0,0106372
3730,6191;0,0109538
3731,5835;0,0111202
3732,5476;0,0110401
3733,5120;0,0106794
3734,4761;0,0101469
3735,4404;0,00967776
3736,4045;0,0094697
3737,3689;0,00956552
3738,3330;0,00989887
3739,2974;0,0103722
3740,2615;0,0108774
3741,2258;0,0112865
3742,1899;0,0114669
3743,1543;0,0113643
3744,1184;0,0111015
3745,0828;0,0109116
3746,0469;0,0109153
3747,0112;0,011037
3747,9753;0,0110956
3748,9397;0,0109191
3749,9038;0,0104755
3750,8682;0,0099662
3751,8323;0,00966977
3752,7966;0,00966978
3753,7607;0,00985571
3754,7251;0,01008
3755,6892;0,0102313
3756,6536;0,0102493
3757,6177;0,0101421
3758,5820;0,00999112
3759,5461;0,00990016
3760,5105;0,00992081
3761,4746;0,0100335
3762,4390;0,010184
3763,4031;0,0103208
3764,3674;0,0104105
3765,3315;0,0104376
3766,2959;0,0103964
3767,2600;0,0102842
3768,2244;0,0101076
3769,1885;0,00989911
3770,1528;0,00972153
3771,1169;0,00964227
3772,0813;0,00969392
3773,0454;0,00985724
3774,0098;0,0100736
3774,9739;0,0102675
3775,9382;0,0103695
3776,9023;0,0103444
3777,8667;0,0102175
3778,8308;0,010068
3779,7952;0,00997306
3780,7593;0,0099525
3781,7236;0,0099711
3782,6877;0,00997973
3783,6521;0,0099505
3784,6162;0,0098879
3785,5806;0,00981918
3786,5447;0,00977515
3787,5090;0,00977584
3788,4731;0,00982785
3789,4375;0,00992746
3790,4016;0,0100619
3791,3660;0,0102092
3792,3301;0,0103437
3793,2944;0,0104484
3794,2585;0,0105295
3795,2229;0,0106146
3796,1870;0,0107263
3797,1514;0,0108476
3798,1155;0,0109124
3799,0798;0,0108418
3800,0439;0,0106165
3801,0083;0,0103261
3801,9724;0,010112
3802,9368;0,0100396
3803,9009;0,0100521
3804,8652;0,0100383
3805,8293;0,00992651
3806,7937;0,00974703
3807,7578;0,00962001
3808,7222;0,00965746
3809,6863;0,0098782
3810,6506;0,0102151
3811,6147;0,0105648
3812,5791;0,0108261
3813,5432;0,0109347
3814,5076;0,0109052
3815,4717;0,0108301
3816,4360;0,0107959
3817,4001;0,0107944
3818,3645;0,0107357
3819,3286;0,0105407
3820,2930;0,0102317
3821,2571;0,00993264
3822,2214;0,00976085
3823,1855;0,00973616
3824,1499;0,00980523
3825,1140;0,00990834
3826,0784;0,0100129
3827,0425;0,0101143
3828,0068;0,0102216
3828,9709;0,0103431
3829,9353;0,0104795
3830,8994;0,0106278
3831,8638;0,0107866
3832,8279;0,0109512
3833,7922;0,0110986
3834,7563;0,0111783
3835,7207;0,011125
3836,6848;0,0109
3837,6492;0,0105401
3838,6133;0,0101559
3839,5776;0,00985779
3840,5417;0,00968518
3841,5061;0,00961184
3842,4702;0,00959849
3843,4346;0,00963237
3844,3987;0,00973338
3845,3630;0,00993556
3846,3271;0,0102625
3847,2915;0,0107111
3848,2556;0,0112403
3849,2200;0,0117555
3850,1841;0,0120851
3851,1484;0,0119947
3852,1125;0,0113475
3853,0769;0,010388
3854,0410;0,00963894
3855,0054;0,00935217
3855,9695;0,00942325
3856,9338;0,00968254
3857,8979;0,0100155
3858,8623;0,0103425
3859,8264;0,0105926
3860,7908;0,0107096
3861,7549;0,0106845
3862,7192;0,0105806
3863,6833;0,0105045
3864,6477;0,0105273
3865,6118;0,0106387
3866,5762;0,0107678
3867,5403;0,0108293
3868,5046;0,0107626
3869,4688;0,0105603
3870,4331;0,0102786
3871,3972;0,0100128
3872,3616;0,00984715
3873,3257;0,00982101
3874,2900;0,00992577
3875,2542;0,0101193
3876,2185;0,0103415
3877,1826;0,0105297
3878,1470;0,0106384
3879,1111;0,0106592
3880,0754;0,0106232
3881,0396;0,0105702
3882,0039;0,0105107
3882,9680;0,0104253
3883,9324;0,0103061
3884,8965;0,0101897
3885,8608;0,0101389
3886,8250;0,0101852
3887,7893;0,0102913
3888,7534;0,0103691
3889,7178;0,0103358
3890,6819;0,0101795
3891,6462;0,00999262
3892,6104;0,00991323
3893,5747;0,0100161
3894,5388;0,0102736
3895,5032;0,0106009
3896,4673;0,0109068
3897,4316;0,0111212
3898,3958;0,0112092
3899,3601;0,0111711
3900,3242;0,011022
3901,2886;0,0107715
3902,2527;0,0104378
3903,2170;0,010078
3904,1812;0,0097808
3905,1455;0,0096141
3906,1096;0,00958683
3907,0740;0,00966055
3908,0381;0,00978431
3909,0024;0,00991996
3909,9666;0,0100508
3910,9309;0,0101771
3911,8950;0,0103022
3912,8594;0,010418
3913,8235;0,0104997
3914,7878;0,0105167
3915,7520;0,010456
3916,7163;0,010343
3917,6804;0,010234
3918,6448;0,0101785
3919,6089;0,0101842
3920,5732;0,0102185
3921,5374;0,0102352
3922,5017;0,0102065
3923,4658;0,0101428
3924,4302;0,0100889
3925,3943;0,0100909
3926,3586;0,0101609
3927,3228;0,0102675
3928,2871;0,0103545
3929,2512;0,0103701
3930,2156;0,0102944
3931,1797;0,0101547
3932,1440;0,0100118
3933,1082;0,00992285
3934,0725;0,00991239
3935,0366;0,00997303
3936,0010;0,0100806
3936,9651;0,0102051
3937,9294;0,0103151
3938,8936;0,0103807
3939,8579;0,0103832
3940,8220;0,0103277
3941,7864;0,0102474
3942,7505;0,010189
3943,7148;0,0101832
3944,6790;0,010225
3945,6433;0,0102796
3946,6074;0,0103048
3947,5718;0,0102771
3948,5359;0,0102046
3949,5002;0,0101209
3950,4644;0,0100608
3951,4287;0,0100386
3952,3928;0,0100467
3953,3572;0,010069
3954,3213;0,0100943
3955,2856;0,0101212
3956,2498;0,0101527
3957,2141;0,0101883
3958,1782;0,0102198
3959,1426;0,0102365
3960,1067;0,0102326
3961,0710;0,0102133
3962,0352;0,010192
3962,9995;0,0101819
3963,9636;0,0101878
3964,9280;0,010204
3965,8921;0,0102195
3966,8564;0,0102255
3967,8206;0,0102205
3968,7849;0,0102103
3969,7490;0,0102033
3970,7134;0,0102037
3971,6775;0,0102089
3972,6418;0,0102113
3973,6060;0,0102042
3974,5703;0,0101874
3975,5344;0,0101674
3976,4988;0,0101535
3977,4629;0,0101516
3978,4272;0,010161
3979,3914;0,0101753
3980,3557;0,010188
3981,3198;0,0101958
3982,2842;0,0102008
3983,2483;0,0102071
3984,2126;0,0102171
3985,1768;0,0102297
3986,1411;0,0102409
3987,1052;0,0102478
3988,0696;0,0102503
3989,0337;0,0102505
3989,9980;0,0102504
3990,9622;0,0102492
3991,9265;0,0102436
3992,8906;0,0102304
3993,8550;0,0102099
3994,8191;0,0101871
3995,7834;0,0101689
3996,7476;0,0101605
3997,7119;0,0101629
3998,6760;0,0101737
3999,6404;0,0101898
4000,6045;0,0101188

##### Extended Information
[Comments]
Sample name
Comment
Username
Division
Organization;UNIVERSIDAD INDUSTRIAL DE SANTANDER

[Detailed Information]
Creation date;5/02/2025 12:00 p.m.

Data array type;Linear data array
Horizontal axis;Wavenumber [cm-1]
Vertical axis;Abs
Start;399,193 cm-1
End;4000,6 cm-1
Data interval;0,964233 cm-1
Data points;3736    

[Measurement Information]
Model name;FT/IR-4X1typeA
Serial No.;A035162111

Accessory;ATR PRO 4X
Accessory S/N;A021162126
Incident angle;45 deg

Measurement date;5/02/2025 12:00 p.m.

Light source;Standard
Detector;TGS
Accumulation;Auto (75)
Resolution;4 cm-1
Zero filling;On
Apodization;Cosine
Gain;Auto (8)
Aperture;Auto (7 mm)
Scan speed;Auto (2 mm/sec)
Filter;Auto (12800 Hz)

