TITLE;
DATA TYPE;INFRARED SPECTRUM
ORIGIN;JASCO
OWNER;
DATE;25/03/26
TIME;17:39:31
SPECTROMETER/DATA SYSTEM;
LOCALE;9226
RESOLUTION;
DELTAX;0,964233
XUNITS;1/CM
YUNITS;ABSORBANCE
FIRSTX;  399,1927
LASTX; 4000,6047
NPOINTS;    3736
FIRSTY;     0,19280
MAXY;     0,29527
MINY;     0,01168
XYDATA
399,1927;0,1928
400,1569;0,191861
401,1211;0,19248
402,0854;0,193945
403,0496;0,195537
404,0138;0,196775
404,9781;0,197466
405,9423;0,197672
406,9065;0,197611
407,8708;0,197488
408,8350;0,197386
409,7992;0,197289
410,7635;0,197204
411,7277;0,197254
412,6919;0,197627
413,6562;0,198446
414,6204;0,199672
415,5846;0,201103
416,5489;0,2024
417,5131;0,203166
418,4773;0,203203
419,4416;0,202847
420,4058;0,202759
421,3700;0,203273
422,3343;0,204256
423,2985;0,205396
424,2627;0,206412
425,2270;0,207132
426,1912;0,207514
427,1554;0,20764
428,1197;0,207655
429,0839;0,207715
430,0481;0,207939
431,0124;0,208378
431,9766;0,208989
432,9408;0,209631
433,9051;0,210121
434,8693;0,210315
435,8335;0,21019
436,7978;0,209849
437,7620;0,209455
438,7262;0,209141
439,6905;0,208969
440,6547;0,208957
441,6189;0,209106
442,5832;0,209392
443,5474;0,209722
444,5116;0,209917
445,4759;0,209768
446,4401;0,209145
447,4043;0,208077
448,3686;0,206752
449,3328;0,205459
450,2970;0,204485
451,2613;0,204004
452,2255;0,204022
453,1897;0,204403
454,1540;0,204954
455,1182;0,205509
456,0824;0,205966
457,0467;0,206278
458,0109;0,206428
458,9751;0,206405
459,9394;0,206198
460,9036;0,205806
461,8678;0,205245
462,8321;0,204559
463,7963;0,203836
464,7605;0,203202
465,7248;0,202794
466,6890;0,202704
467,6532;0,202932
468,6175;0,203379
469,5817;0,203876
470,5459;0,204231
471,5102;0,204305
472,4744;0,204093
473,4386;0,203744
474,4029;0,203472
475,3671;0,203425
476,3313;0,203616
477,2956;0,203955
478,2598;0,204305
479,2240;0,204553
480,1883;0,20465
481,1525;0,204622
482,1167;0,204552
483,0810;0,204545
484,0452;0,204694
485,0094;0,205046
485,9737;0,205583
486,9379;0,206228
487,9021;0,206867
488,8664;0,207384
489,8306;0,207692
490,7948;0,207759
491,7591;0,207623
492,7233;0,207368
493,6875;0,207075
494,6518;0,206785
495,6160;0,206502
496,5802;0,206238
497,5445;0,206058
498,5087;0,206084
499,4729;0,206452
500,4372;0,207228
501,4014;0,20833
502,3656;0,209526
503,3299;0,210528
504,2941;0,211144
505,2583;0,211354
506,2226;0,211281
507,1868;0,211105
508,1510;0,210985
509,1153;0,211019
510,0795;0,211247
511,0437;0,211673
512,0080;0,212292
512,9722;0,213082
513,9365;0,214002
514,9007;0,214973
515,8649;0,215883
516,8292;0,216604
517,7934;0,217031
518,7576;0,217137
519,7219;0,216992
520,6861;0,216733
521,6503;0,2165
522,6146;0,216396
523,5788;0,216456
524,5430;0,216635
525,5073;0,216823
526,4715;0,216885
527,4357;0,216749
528,4000;0,216439
529,3642;0,21606
530,3284;0,215728
531,2927;0,215515
532,2569;0,215418
533,2211;0,215364
534,1854;0,215245
535,1496;0,214978
536,1138;0,214553
537,0781;0,214044
538,0423;0,213575
539,0065;0,21326
539,9708;0,213146
540,9350;0,21321
541,8992;0,213384
542,8635;0,213608
543,8277;0,21387
544,7919;0,2142
545,7562;0,214637
546,7204;0,215176
547,6846;0,215751
548,6489;0,216261
549,6131;0,216625
550,5773;0,216835
551,5416;0,216963
552,5058;0,217132
553,4700;0,217459
554,4343;0,217994
555,3985;0,218679
556,3627;0,219357
557,3270;0,219811
558,2912;0,219845
559,2554;0,219366
560,2197;0,218421
561,1839;0,217188
562,1481;0,215903
563,1124;0,214761
564,0766;0,213848
565,0408;0,213119
566,0051;0,212457
566,9693;0,211747
567,9335;0,210953
568,8978;0,210144
569,8620;0,209444
570,8262;0,208964
571,7905;0,208733
572,7547;0,208693
573,7189;0,208729
574,6832;0,208722
575,6474;0,208604
576,6116;0,208378
577,5759;0,208116
578,5401;0,207906
579,5043;0,207802
580,4686;0,207798
581,4328;0,20783
582,3970;0,207809
583,3613;0,207664
584,3255;0,207387
585,2897;0,207035
586,2540;0,206713
587,2182;0,206527
588,1824;0,206547
589,1467;0,206774
590,1109;0,207134
591,0751;0,207499
592,0394;0,207731
593,0036;0,207736
593,9678;0,207502
594,9321;0,207087
595,8963;0,206573
596,8605;0,206027
597,8248;0,205475
598,7890;0,204924
599,7532;0,204377
600,7175;0,203858
601,6817;0,203402
602,6459;0,203027
603,6102;0,202713
604,5744;0,202396
605,5386;0,201991
606,5029;0,201432
607,4671;0,200694
608,4313;0,199809
609,3956;0,19884
610,3598;0,197868
611,3240;0,196963
612,2883;0,196178
613,2525;0,195534
614,2167;0,195016
615,1810;0,194556
616,1452;0,194032
617,1094;0,193298
618,0737;0,192243
619,0379;0,190845
620,0021;0,189184
620,9664;0,187404
621,9306;0,185666
622,8948;0,184102
623,8591;0,182796
624,8233;0,181744
625,7875;0,180932
626,7518;0,180264
627,7160;0,179637
628,6802;0,178979
629,6445;0,178263
630,6087;0,177507
631,5729;0,176749
632,5372;0,176021
633,5014;0,17534
634,4656;0,174697
635,4299;0,174077
636,3941;0,173469
637,3583;0,172875
638,3226;0,172314
639,2868;0,171812
640,2510;0,171382
641,2153;0,171019
642,1795;0,17069
643,1437;0,170349
644,1080;0,169956
645,0722;0,169489
646,0364;0,168949
647,0007;0,168354
647,9649;0,167732
648,9291;0,167121
649,8934;0,166566
650,8576;0,166125
651,8218;0,165855
652,7861;0,165791
653,7503;0,165926
654,7145;0,166205
655,6788;0,16654
656,6430;0,16684
657,6072;0,167048
658,5715;0,167148
659,5357;0,167148
660,4999;0,167044
661,4642;0,166805
662,4284;0,166382
663,3926;0,16572
664,3569;0,164789
665,3211;0,163643
666,2853;0,16245
667,2496;0,161428
668,2138;0,160637
669,1780;0,15995
670,1423;0,159304
671,1065;0,158615
672,0707;0,157689
673,0350;0,156366
673,9992;0,154635
674,9634;0,15263
675,9277;0,150564
676,8919;0,148621
677,8561;0,146878
678,8204;0,145314
679,7846;0,14389
680,7488;0,142597
681,7131;0,141459
682,6773;0,140489
683,6415;0,139672
684,6058;0,138968
685,5700;0,138333
686,5342;0,137732
687,4985;0,137139
688,4627;0,136547
689,4269;0,135956
690,3912;0,135386
691,3554;0,134866
692,3196;0,134417
693,2839;0,134042
694,2481;0,133725
695,2123;0,133439
696,1766;0,133152
697,1408;0,132832
698,1050;0,132448
699,0693;0,131983
700,0335;0,131436
700,9977;0,130835
701,9620;0,130224
702,9262;0,129645
703,8904;0,129111
704,8547;0,128612
705,8189;0,128119
706,7831;0,127608
707,7474;0,12707
708,7116;0,126516
709,6758;0,125965
710,6401;0,125422
711,6043;0,124879
712,5685;0,124315
713,5328;0,123719
714,4970;0,123097
715,4612;0,122099
716,4255;0,121574
717,3897;0,121097
718,3539;0,120612
719,3182;0,120029
720,2824;0,119268
721,2466;0,118312
722,2109;0,117216
723,1751;0,11608
724,1393;0,114997
725,1036;0,114021
726,0678;0,113162
727,0320;0,112391
727,9963;0,111663
728,9605;0,110936
729,9247;0,110182
730,8890;0,109396
731,8532;0,108593
732,8174;0,107802
733,7817;0,107056
734,7459;0,106383
735,7101;0,105796
736,6744;0,105294
737,6386;0,104858
738,6028;0,104462
739,5671;0,104073
740,5313;0,103659
741,4955;0,103204
742,4598;0,102706
743,4240;0,102179
744,3882;0,101644
745,3525;0,101118
746,3167;0,100608
747,2809;0,100109
748,2452;0,0996136
749,2094;0,0991166
750,1736;0,0986203
751,1379;0,0981325
752,1021;0,0976601
753,0663;0,0972038
754,0306;0,0967553
754,9948;0,0962993
755,9590;0,0958184
756,9233;0,0953012
757,8875;0,0947484
758,8517;0,0941753
759,8160;0,0936084
760,7802;0,093077
761,7444;0,0926023
762,7087;0,0921892
763,6729;0,091826
764,6371;0,0914899
765,6014;0,0911571
766,5656;0,0908102
767,5298;0,0904412
768,4941;0,0900499
769,4583;0,089641
770,4225;0,0892232
771,3868;0,08881
772,3510;0,0884192
773,3152;0,0880694
774,2795;0,0877729
775,2437;0,0875288
776,2079;0,0873222
777,1722;0,0871295
778,1364;0,0869277
779,1006;0,0867018
780,0649;0,0864461
781,0291;0,0861597
781,9933;0,0858404
782,9576;0,0854829
783,9218;0,0850826
784,8860;0,0846427
785,8503;0,0841793
786,8145;0,0837208
787,7787;0,0833005
788,7430;0,0829465
789,7072;0,0826713
790,6714;0,0824677
791,6357;0,0823112
792,5999;0,0821692
793,5641;0,0820136
794,5284;0,0818318
795,4926;0,0816311
796,4568;0,081434
797,4211;0,0812649
798,3853;0,0811357
799,3495;0,0810373
800,3138;0,080942
801,2780;0,0808164
802,2422;0,0806385
803,2065;0,08041
804,1707;0,0801569
805,1349;0,0799191
806,0992;0,0797324
807,0634;0,0796127
808,0276;0,0795489
808,9919;0,0795081
809,9561;0,0794509
810,9203;0,0793496
811,8846;0,0791991
812,8488;0,0790166
813,8130;0,0788289
814,7773;0,0786562
815,7415;0,078502
816,7057;0,0783547
817,6700;0,0781986
818,6342;0,0780272
819,5984;0,0778491
820,5627;0,0776837
821,5269;0,07755
822,4911;0,0774566
823,4554;0,0773986
824,4196;0,0773624
825,3839;0,0773335
826,3481;0,0773021
827,3123;0,0772642
828,2766;0,0772192
829,2408;0,0771653
830,2050;0,0770981
831,1693;0,0770101
832,1335;0,0768936
833,0977;0,076743
834,0620;0,076557
835,0262;0,0763394
835,9904;0,0760969
836,9547;0,0758376
837,9189;0,0755681
838,8831;0,0752937
839,8474;0,0750184
840,8116;0,0747472
841,7758;0,0744868
842,7401;0,0742452
843,7043;0,0740308
844,6685;0,0738504
845,6328;0,0737083
846,5970;0,0736049
847,5612;0,0735363
848,5255;0,073494
849,4897;0,0734662
850,4539;0,0734398
851,4182;0,0734034
852,3824;0,0733502
853,3466;0,0732802
854,3109;0,0731998
855,2751;0,0731198
856,2393;0,0730527
857,2036;0,07301
858,1678;0,0729998
859,1320;0,0730264
860,0963;0,0730894
861,0605;0,0731838
862,0247;0,0733021
862,9890;0,0734364
863,9532;0,0735816
864,9174;0,0737379
865,8817;0,0739101
866,8459;0,0741038
867,8101;0,0743209
868,7744;0,0745573
869,7386;0,074804
870,7028;0,0750505
871,6671;0,0752886
872,6313;0,0755126
873,5955;0,0757166
874,5598;0,0758932
875,5240;0,0760352
876,4882;0,0761415
877,4525;0,0762234
878,4167;0,0763055
879,3809;0,0764205
880,3452;0,0766
881,3094;0,0768668
882,2736;0,0772331
883,2379;0,0777026
884,2021;0,0782757
885,1663;0,0789514
886,1306;0,0797265
887,0948;0,0805931
888,0590;0,0815379
889,0233;0,0825432
889,9875;0,0835884
890,9517;0,084649
891,9160;0,0856951
892,8802;0,0866889
893,8444;0,0875868
894,8087;0,0883437
895,7729;0,0889203
896,7371;0,0892893
897,7014;0,0894381
898,6656;0,0893683
899,6298;0,0890927
900,5941;0,0886323
901,5583;0,0880141
902,5225;0,0872704
903,4868;0,0864394
904,4510;0,0855658
905,4152;0,0847011
906,3795;0,0838999
907,3437;0,0832127
908,3079;0,0826755
909,2722;0,0823011
910,2364;0,082076
911,2007;0,081967
912,1649;0,0819343
913,1292;0,0819475
914,0934;0,0819947
915,0576;0,082082
916,0219;0,0822232
916,9861;0,0824267
917,9503;0,082688
918,9146;0,0829901
919,8788;0,0833122
920,8430;0,0836378
921,8073;0,0839582
922,7715;0,0842704
923,7357;0,084572
924,7000;0,084859
925,6642;0,0851277
926,6284;0,0853778
927,5927;0,0856124
928,5569;0,0858359
929,5211;0,0860508
930,4854;0,0862577
931,4496;0,0864607
932,4138;0,0866722
933,3781;0,0869124
934,3423;0,0872022
935,3065;0,0875531
936,2708;0,0879624
937,2350;0,0884173
938,1992;0,0889066
939,1635;0,0894311
940,1277;0,0900061
941,0919;0,0906548
942,0562;0,0913969
943,0204;0,0922392
943,9846;0,0931739
944,9489;0,0941841
945,9131;0,0952526
946,8773;0,0963701
947,8416;0,09754
948,8058;0,098777
949,7700;0,100102
950,7343;0,101536
951,6985;0,10309
952,6627;0,104762
953,6270;0,106539
954,5912;0,108402
955,5554;0,110332
956,5197;0,112319
957,4839;0,114359
958,4481;0,116453
959,4124;0,118604
960,3766;0,120811
961,3408;0,123067
962,3051;0,12536
963,2693;0,127675
964,2335;0,130002
965,1978;0,132336
966,1620;0,134683
967,1262;0,137061
968,0905;0,139495
969,0547;0,142018
970,0189;0,144666
970,9832;0,147475
971,9474;0,150482
972,9116;0,153717
973,8759;0,157202
974,8401;0,160951
975,8043;0,16497
976,7686;0,169256
977,7328;0,17379
978,6970;0,178531
979,6613;0,183399
980,6255;0,188281
981,5897;0,19304
982,5540;0,197533
983,5182;0,201639
984,4824;0,205282
985,4467;0,208437
986,4109;0,211123
987,3751;0,213394
988,3394;0,215318
989,3036;0,216959
990,2678;0,218373
991,2321;0,219601
992,1963;0,220679
993,1605;0,22164
994,1248;0,222516
995,0890;0,223345
996,0532;0,224158
997,0175;0,224982
997,9817;0,225836
998,9459;0,226734
999,9102;0,22769
1000,8744;0,228721
1001,8386;0,229848
1002,8029;0,231096
1003,7671;0,232498
1004,7313;0,234092
1005,6956;0,235922
1006,6598;0,238032
1007,6240;0,240452
1008,5883;0,243197
1009,5525;0,246258
1010,5167;0,2496
1011,4810;0,253168
1012,4452;0,256878
1013,4094;0,260623
1014,3737;0,264276
1015,3379;0,267719
1016,3021;0,270857
1017,2664;0,273649
1018,2306;0,276103
1019,1948;0,278267
1020,1591;0,280209
1021,1233;0,281992
1022,0875;0,283672
1023,0518;0,285293
1024,0160;0,286887
1024,9802;0,288467
1025,9445;0,290023
1026,9087;0,291514
1027,8729;0,292872
1028,8372;0,294013
1029,8014;0,294843
1030,7656;0,295269
1031,7299;0,295209
1032,6941;0,294595
1033,6583;0,293403
1034,6226;0,29166
1035,5868;0,289465
1036,5510;0,286974
1037,5153;0,284384
1038,4795;0,281893
1039,4437;0,279666
1040,4080;0,277806
1041,3722;0,27634
1042,3364;0,275229
1043,3007;0,274382
1044,2649;0,273686
1045,2291;0,273029
1046,1934;0,272317
1047,1576;0,271486
1048,1218;0,270487
1049,0861;0,269284
1050,0503;0,267841
1051,0145;0,26613
1051,9788;0,264137
1052,9430;0,261876
1053,9072;0,259385
1054,8715;0,256708
1055,8357;0,253872
1056,7999;0,250859
1057,7642;0,24761
1058,7284;0,244044
1059,6926;0,240109
1060,6569;0,235818
1061,6211;0,231273
1062,5853;0,226635
1063,5496;0,222087
1064,5138;0,21778
1065,4780;0,213803
1066,4423;0,210182
1067,4065;0,206892
1068,3707;0,203885
1069,3350;0,201109
1070,2992;0,198511
1071,2634;0,196042
1072,2277;0,193652
1073,1919;0,191294
1074,1561;0,18893
1075,1204;0,186535
1076,0846;0,184106
1077,0488;0,181656
1078,0131;0,179219
1078,9773;0,176843
1079,9415;0,174579
1080,9058;0,17248
1081,8700;0,170586
1082,8342;0,168918
1083,7985;0,167474
1084,7627;0,166236
1085,7269;0,165173
1086,6912;0,164252
1087,6554;0,16345
1088,6196;0,162749
1089,5839;0,162143
1090,5481;0,161631
1091,5123;0,161216
1092,4766;0,160897
1093,4408;0,16067
1094,4050;0,160523
1095,3693;0,160442
1096,3335;0,160413
1097,2977;0,16043
1098,2620;0,160493
1099,2262;0,160602
1100,1904;0,160745
1101,1547;0,160891
1102,1189;0,160996
1103,0831;0,16101
1104,0474;0,160899
1105,0116;0,160647
1105,9758;0,160258
1106,9401;0,159745
1107,9043;0,159115
1108,8685;0,15836
1109,8328;0,157457
1110,7970;0,156376
1111,7612;0,155092
1112,7255;0,153604
1113,6897;0,151947
1114,6539;0,150194
1115,6182;0,14844
1116,5824;0,146779
1117,5466;0,145277
1118,5109;0,143947
1119,4751;0,142752
1120,4393;0,141609
1121,4036;0,140418
1122,3678;0,139075
1123,3320;0,1375
1124,2963;0,135642
1125,2605;0,13349
1126,2247;0,131074
1127,1890;0,128458
1128,1532;0,125722
1129,1174;0,12295
1130,0817;0,120206
1131,0459;0,117536
1132,0101;0,114968
1132,9744;0,112527
1133,9386;0,110239
1134,9028;0,108141
1135,8671;0,106267
1136,8313;0,10465
1137,7955;0,103307
1138,7598;0,102244
1139,7240;0,101453
1140,6882;0,100912
1141,6525;0,100595
1142,6167;0,100468
1143,5809;0,100492
1144,5452;0,100636
1145,5094;0,100877
1146,4736;0,101206
1147,4379;0,101627
1148,4021;0,102148
1149,3663;0,102769
1150,3306;0,103478
1151,2948;0,104245
1152,2590;0,105028
1153,2233;0,105781
1154,1875;0,106455
1155,1517;0,107
1156,1160;0,107369
1157,0802;0,107509
1158,0444;0,107359
1159,0087;0,106858
1159,9729;0,105938
1160,9371;0,104548
1161,9014;0,102656
1162,8656;0,100272
1163,8298;0,0974485
1164,7941;0,0942816
1165,7583;0,0908937
1166,7225;0,0874166
1167,6868;0,0839741
1168,6510;0,0806708
1169,6152;0,0775858
1170,5795;0,0747707
1171,5437;0,0722489
1172,5079;0,0700191
1173,4722;0,068061
1174,4364;0,0663451
1175,4006;0,0648422
1176,3649;0,0635302
1177,3291;0,0623945
1178,2933;0,0614257
1179,2576;0,0606143
1180,2218;0,0599487
1181,1860;0,0594147
1182,1503;0,0589975
1183,1145;0,0586839
1184,0787;0,0584643
1185,0430;0,0583333
1186,0072;0,0582908
1186,9714;0,0583415
1187,9357;0,0584933
1188,8999;0,0587541
1189,8641;0,0591286
1190,8284;0,0596155
1191,7926;0,060208
1192,7568;0,0608945
1193,7211;0,0616598
1194,6853;0,0624862
1195,6495;0,0633532
1196,6138;0,0642384
1197,5780;0,0651204
1198,5422;0,0659825
1199,5065;0,0666139
1200,4707;0,0674456
1201,4349;0,0682607
1202,3992;0,069069
1203,3634;0,0698775
1204,3276;0,0706882
1205,2919;0,0714991
1206,2561;0,0723088
1207,2203;0,0731217
1208,1846;0,0739508
1209,1488;0,0748162
1210,1130;0,0757407
1211,0773;0,0767435
1212,0415;0,0778354
1213,0057;0,0790164
1213,9700;0,0802763
1214,9342;0,0815963
1215,8984;0,0829518
1216,8627;0,0843138
1217,8269;0,0856538
1218,7911;0,0869513
1219,7554;0,088197
1220,7196;0,0893912
1221,6838;0,090539
1222,6481;0,0916425
1223,6123;0,0926982
1224,5765;0,0936985
1225,5408;0,0946379
1226,5050;0,0955173
1227,4692;0,0963435
1228,4335;0,0971223
1229,3977;0,097853
1230,3619;0,0985253
1231,3262;0,0991243
1232,2904;0,0996377
1233,2546;0,100063
1234,2189;0,100406
1235,1831;0,100682
1236,1473;0,100904
1237,1116;0,101082
1238,0758;0,101221
1239,0400;0,10132
1240,0043;0,101372
1240,9685;0,101371
1241,9327;0,101305
1242,8970;0,101165
1243,8612;0,100946
1244,8254;0,100647
1245,7897;0,100272
1246,7539;0,0998301
1247,7181;0,0993297
1248,6824;0,0987806
1249,6466;0,0981915
1250,6108;0,0975698
1251,5751;0,0969226
1252,5393;0,0962584
1253,5035;0,0955877
1254,4678;0,0949206
1255,4320;0,0942627
1256,3962;0,0936097
1257,3605;0,0929472
1258,3247;0,0922537
1259,2889;0,0915091
1260,2532;0,0907013
1261,2174;0,0898298
1262,1816;0,0889027
1263,1459;0,0879323
1264,1101;0,0869307
1265,0743;0,0859081
1266,0386;0,0848704
1267,0028;0,0838176
1267,9670;0,0827412
1268,9313;0,0816272
1269,8955;0,0804632
1270,8597;0,0792471
1271,8240;0,0779921
1272,7882;0,0767247
1273,7524;0,0754754
1274,7167;0,0742702
1275,6809;0,0731254
1276,6451;0,0720471
1277,6094;0,0710324
1278,5736;0,0700709
1279,5378;0,069148
1280,5021;0,0682502
1281,4663;0,0673721
1282,4305;0,0665209
1283,3948;0,0657148
1284,3590;0,0649749
1285,3232;0,0643159
1286,2875;0,0637399
1287,2517;0,0632375
1288,2159;0,0627954
1289,1802;0,0624074
1290,1444;0,0620794
1291,1086;0,0618276
1292,0729;0,061671
1293,0371;0,0616218
1294,0013;0,0616813
1294,9656;0,0618397
1295,9298;0,062082
1296,8940;0,062395
1297,8583;0,0627725
1298,8225;0,0632149
1299,7867;0,063726
1300,7510;0,0643078
1301,7152;0,0649609
1302,6794;0,065681
1303,6437;0,0664606
1304,6079;0,0672917
1305,5721;0,0681655
1306,5364;0,0690745
1307,5006;0,0700152
1308,4648;0,0709882
1309,4291;0,0719938
1310,3933;0,073023
1311,3575;0,0740505
1312,3218;0,0750356
1313,2860;0,0759331
1314,2502;0,0767067
1315,2145;0,0773319
1316,1787;0,0777887
1317,1429;0,0780532
1318,1072;0,0781021
1319,0714;0,0779335
1320,0356;0,0775851
1320,9999;0,0771309
1321,9641;0,0766539
1322,9283;0,0762168
1323,8926;0,0758489
1324,8568;0,075551
1325,8210;0,0753101
1326,7853;0,0751109
1327,7495;0,0749403
1328,7137;0,0747837
1329,6780;0,0746214
1330,6422;0,0744322
1331,6064;0,0742055
1332,5707;0,0739512
1333,5349;0,0737008
1334,4991;0,073489
1335,4634;0,0733263
1336,4276;0,0731731
1337,3918;0,0729298
1338,3561;0,0724684
1339,3203;0,0717196
1340,2845;0,0707482
1341,2488;0,0697247
1342,2130;0,0688149
1343,1772;0,0681045
1344,1415;0,0676033
1345,1057;0,0672816
1346,0699;0,0671003
1347,0342;0,0670266
1347,9984;0,0670428
1348,9626;0,0671478
1349,9269;0,0673493
1350,8911;0,0676518
1351,8553;0,0680477
1352,8196;0,0685186
1353,7838;0,0690439
1354,7480;0,0696133
1355,7123;0,0702328
1356,6765;0,0709215
1357,6407;0,0716989
1358,6050;0,072573
1359,5692;0,0735258
1360,5334;0,074494
1361,4977;0,0753643
1362,4619;0,0760296
1363,4261;0,0764777
1364,3904;0,0767996
1365,3546;0,0771025
1366,3188;0,077438
1367,2831;0,0777997
1368,2473;0,0781531
1369,2115;0,0784628
1370,1758;0,0787045
1371,1400;0,0788573
1372,1042;0,0788871
1373,0685;0,0787418
1374,0327;0,0783787
1374,9969;0,0778093
1375,9612;0,0770995
1376,9254;0,0763046
1377,8896;0,0754173
1378,8539;0,0743916
1379,8181;0,0732118
1380,7823;0,0719384
1381,7466;0,0706878
1382,7108;0,0695579
1383,6750;0,0685666
1384,6393;0,0676475
1385,6035;0,0666946
1386,5677;0,0656407
1387,5320;0,0645382
1388,4962;0,0635432
1389,4604;0,0627858
1390,4247;0,0622826
1391,3889;0,0619772
1392,3531;0,061816
1393,3174;0,0617728
1394,2816;0,0618181
1395,2458;0,0618876
1396,2101;0,0618977
1397,1743;0,0618005
1398,1385;0,0616237
1399,1028;0,0614577
1400,0670;0,0613998
1401,0313;0,0615009
1401,9955;0,0617489
1402,9597;0,0620899
1403,9240;0,0624627
1404,8882;0,0628318
1405,8524;0,0632063
1406,8167;0,0636271
1407,7809;0,0641266
1408,7451;0,0647051
1409,7094;0,0653437
1410,6736;0,0660302
1411,6378;0,0667696
1412,6021;0,0675716
1413,5663;0,0684292
1414,5305;0,0693108
1415,4948;0,0701686
1416,4590;0,0709384
1417,4232;0,0715264
1418,3875;0,0718551
1419,3517;0,0719839
1420,3159;0,0720921
1421,2802;0,0722739
1422,2444;0,0724501
1423,2086;0,0724761
1424,1729;0,0722666
1425,1371;0,0718339
1426,1013;0,071242
1427,0656;0,0705341
1428,0298;0,0697064
1428,9940;0,0687469
1429,9583;0,0676994
1430,9225;0,0666654
1431,8867;0,0657209
1432,8510;0,0648407
1433,8152;0,0639135
1434,7794;0,0628176
1435,7437;0,0615244
1436,7079;0,0602028
1437,6721;0,0591729
1438,6364;0,058637
1439,6006;0,0585257
1440,5648;0,0586363
1441,5291;0,0588172
1442,4933;0,0590272
1443,4575;0,0592974
1444,4218;0,0596647
1445,3860;0,0601252
1446,3502;0,0606317
1447,3145;0,0611293
1448,2787;0,0616003
1449,2429;0,0620757
1450,2072;0,0625898
1451,1714;0,0631247
1452,1356;0,0636114
1453,0999;0,0639866
1454,0641;0,0642404
1455,0283;0,0643843
1455,9926;0,0643082
1456,9568;0,063795
1457,9210;0,0630304
1458,8853;0,0625881
1459,8495;0,0626334
1460,8137;0,0628773
1461,7780;0,0629897
1462,7422;0,0627643
1463,7064;0,062112
1464,6707;0,0610788
1465,6349;0,0598813
1466,5991;0,0587765
1467,5634;0,0578437
1468,5276;0,05697
1469,4918;0,0559907
1470,4561;0,054774
1471,4203;0,0532104
1472,3845;0,0512317
1473,3488;0,0489775
1474,3130;0,0468433
1475,2772;0,0451479
1476,2415;0,0439123
1477,2057;0,0429971
1478,1699;0,0422692
1479,1342;0,0416486
1480,0984;0,0410959
1481,0626;0,0406023
1482,0269;0,0401899
1482,9911;0,0399019
1483,9553;0,03978
1484,9196;0,0398479
1485,8838;0,040109
1486,8480;0,0405276
1487,8123;0,0409738
1488,7765;0,0412337
1489,7407;0,0412231
1490,7050;0,041139
1491,6692;0,0412238
1492,6334;0,0415452
1493,5977;0,0420622
1494,5619;0,0427508
1495,5261;0,0436253
1496,4904;0,0446674
1497,4546;0,0457811
1498,4188;0,0468747
1499,3831;0,0479279
1500,3473;0,0489066
1501,3115;0,0497113
1502,2758;0,0502523
1503,2400;0,0505565
1504,2042;0,0508358
1505,1685;0,0514204
1506,1327;0,0523408
1507,0969;0,0528846
1508,0612;0,0525179
1509,0254;0,0517484
1509,9896;0,0510729
1510,9539;0,0505183
1511,9181;0,0499754
1512,8823;0,0493809
1513,8466;0,048711
1514,8108;0,0479397
1515,7750;0,047035
1516,7393;0,0459925
1517,7035;0,0448532
1518,6677;0,0436785
1519,6320;0,0425237
1520,5962;0,0414498
1521,5604;0,0405471
1522,5247;0,0399026
1523,4889;0,0395168
1524,4531;0,0392876
1525,4174;0,0390944
1526,3816;0,0388895
1527,3458;0,0387095
1528,3101;0,0386117
1529,2743;0,0386176
1530,2385;0,0387183
1531,2028;0,0389046
1532,1670;0,0391638
1533,1312;0,0394568
1534,0955;0,0397268
1535,0597;0,0399211
1536,0239;0,0399948
1536,9882;0,0399525
1537,9524;0,0399196
1538,9166;0,0401264
1539,8809;0,0406442
1540,8451;0,0411057
1541,8093;0,0411936
1542,7736;0,0410938
1543,7378;0,0410006
1544,7020;0,0409268
1545,6663;0,040872
1546,6305;0,0408714
1547,5947;0,040945
1548,5590;0,0410642
1549,5232;0,0411715
1550,4874;0,0412266
1551,4517;0,0412359
1552,4159;0,0412355
1553,3801;0,0412383
1554,3444;0,0412102
1555,3086;0,0411075
1556,2728;0,0409141
1557,2371;0,040571
1558,2013;0,0399096
1559,1655;0,0391447
1560,1298;0,0390381
1561,0940;0,0397895
1562,0582;0,0409504
1563,0225;0,0420851
1563,9867;0,0429892
1564,9509;0,043632
1565,9152;0,0440741
1566,8794;0,0444118
1567,8436;0,0447398
1568,8079;0,0451294
1569,7721;0,0456212
1570,7363;0,0462096
1571,7006;0,0468356
1572,6648;0,047431
1573,6290;0,0479867
1574,5933;0,048561
1575,5575;0,0492051
1576,5217;0,0499039
1577,4860;0,0506453
1578,4502;0,051456
1579,4144;0,0523241
1580,3787;0,053198
1581,3429;0,0540463
1582,3071;0,0548755
1583,2714;0,0557079
1584,2356;0,05656
1585,1998;0,0574378
1586,1641;0,058337
1587,1283;0,0592412
1588,0925;0,0601215
1589,0568;0,0609411
1590,0210;0,0616625
1590,9852;0,0622512
1591,9495;0,0626733
1592,9137;0,0628934
1593,8779;0,0628879
1594,8422;0,0626663
1595,8064;0,0622827
1596,7706;0,0618185
1597,7349;0,0613475
1598,6991;0,0609108
1599,6633;0,060514
1600,6276;0,0601423
1601,5918;0,0597826
1602,5560;0,0594385
1603,5203;0,0591294
1604,4845;0,0588701
1605,4487;0,0586493
1606,4130;0,0584284
1607,3772;0,0581657
1608,3414;0,0578557
1609,3057;0,0575498
1610,2699;0,0573237
1611,2341;0,0572078
1612,1984;0,057159
1613,1626;0,0571002
1614,1268;0,0569769
1615,0911;0,0567851
1616,0553;0,0565856
1617,0195;0,0565174
1617,9838;0,0567097
1618,9480;0,0571366
1619,9122;0,0576372
1620,8765;0,0580536
1621,8407;0,0583087
1622,8049;0,0584071
1623,7692;0,0584114
1624,7334;0,058404
1625,6976;0,0584346
1626,6619;0,0585024
1627,6261;0,058593
1628,5903;0,0587091
1629,5546;0,0588545
1630,5188;0,0590008
1631,4830;0,0590919
1632,4473;0,0590903
1633,4115;0,0590084
1634,3757;0,0588693
1635,3400;0,058651
1636,3042;0,0583928
1637,2684;0,0582864
1638,2327;0,0584384
1639,1969;0,058748
1640,1611;0,0590587
1641,1254;0,059274
1642,0896;0,0593689
1643,0538;0,0593653
1644,0181;0,0592996
1644,9823;0,0591673
1645,9465;0,0588967
1646,9108;0,0584711
1647,8750;0,0580218
1648,8392;0,0576324
1649,8035;0,0572223
1650,7677;0,0566688
1651,7319;0,0558743
1652,6962;0,0547453
1653,6604;0,0534944
1654,6246;0,0527995
1655,5889;0,0528915
1656,5531;0,0533487
1657,5173;0,0537239
1658,4816;0,0538018
1659,4458;0,0535403
1660,4100;0,052972
1661,3743;0,0521658
1662,3385;0,0512636
1663,3027;0,0504713
1664,2670;0,0499222
1665,2312;0,0495851
1666,1954;0,049324
1667,1597;0,0489886
1668,1239;0,0484571
1669,0881;0,047684
1670,0524;0,0467719
1671,0166;0,045916
1671,9808;0,0452038
1672,9451;0,0445567
1673,9093;0,0438712
1674,8735;0,0431661
1675,8378;0,042605
1676,8020;0,0423609
1677,7662;0,0424421
1678,7305;0,0426752
1679,6947;0,0428298
1680,6589;0,0427227
1681,6232;0,0422299
1682,5874;0,0412674
1683,5516;0,0399126
1684,5159;0,0386191
1685,4801;0,0379042
1686,4443;0,0377918
1687,4086;0,0379386
1688,3728;0,0380298
1689,3370;0,0379321
1690,3013;0,037665
1691,2655;0,0373216
1692,2297;0,0370045
1693,1940;0,0367918
1694,1582;0,0367173
1695,1224;0,0367434
1696,0867;0,0367428
1697,0509;0,0365467
1698,0151;0,0360834
1698,9794;0,035507
1699,9436;0,0351424
1700,9078;0,0352388
1701,8721;0,0357865
1702,8363;0,0365735
1703,8005;0,0373572
1704,7648;0,0379825
1705,7290;0,0384192
1706,6932;0,0387486
1707,6575;0,0391049
1708,6217;0,0395907
1709,5859;0,0402313
1710,5502;0,0409942
1711,5144;0,0418317
1712,4786;0,0427051
1713,4429;0,043583
1714,4071;0,0444169
1715,3713;0,0450945
1716,3356;0,0454593
1717,2998;0,0455227
1718,2640;0,0455994
1719,2283;0,0459881
1720,1925;0,0466929
1721,1567;0,047537
1722,1210;0,0483485
1723,0852;0,049035
1724,0494;0,0495892
1725,0137;0,0500715
1725,9779;0,0505715
1726,9421;0,0511542
1727,9064;0,0518191
1728,8706;0,0524967
1729,8348;0,053073
1730,7991;0,0534144
1731,7633;0,0533827
1732,7275;0,0528959
1733,6918;0,0520848
1734,6560;0,0513176
1735,6202;0,0508688
1736,5845;0,0506856
1737,5487;0,0505406
1738,5129;0,0502534
1739,4772;0,0497779
1740,4414;0,0491825
1741,4056;0,0485733
1742,3699;0,0480066
1743,3341;0,0474594
1744,2983;0,0468737
1745,2626;0,0462098
1746,2268;0,045446
1747,1910;0,0445272
1748,1553;0,0433296
1749,1195;0,0417437
1750,0837;0,0398622
1751,0480;0,0380111
1752,0122;0,0364954
1752,9764;0,0353845
1753,9407;0,0345529
1754,9049;0,0338294
1755,8691;0,0331008
1756,8334;0,0323372
1757,7976;0,0315568
1758,7618;0,0307648
1759,7261;0,029926
1760,6903;0,0290023
1761,6545;0,028023
1762,6188;0,0271039
1763,5830;0,0263747
1764,5472;0,0258875
1765,5115;0,0255975
1766,4757;0,0254119
1767,4399;0,0252422
1768,4042;0,0250265
1769,3684;0,0247234
1770,3326;0,0243013
1771,2969;0,0237553
1772,2611;0,0231582
1773,2253;0,0226637
1774,1896;0,0223991
1775,1538;0,0223649
1776,1180;0,0224606
1777,0823;0,0225715
1778,0465;0,0226231
1779,0107;0,0225913
1779,9750;0,0224877
1780,9392;0,022338
1781,9034;0,0221625
1782,8677;0,0219733
1783,8319;0,0217884
1784,7961;0,0216459
1785,7604;0,0215924
1786,7246;0,0216511
1787,6888;0,021803
1788,6531;0,0219972
1789,6173;0,0221693
1790,5815;0,0222493
1791,5458;0,0221806
1792,5100;0,021983
1793,4742;0,0217769
1794,4385;0,0216778
1795,4027;0,0216969
1796,3669;0,021771
1797,3312;0,0218379
1798,2954;0,0218667
1799,2596;0,0218453
1800,2239;0,0217628
1801,1881;0,0216161
1802,1523;0,0214263
1803,1166;0,0212379
1804,0808;0,021099
1805,0450;0,0210436
1806,0093;0,0210806
1806,9735;0,0211891
1807,9377;0,0213199
1808,9020;0,0214075
1809,8662;0,0213992
1810,8304;0,0212878
1811,7947;0,0211188
1812,7589;0,0209574
1813,7231;0,0208461
1814,6874;0,0207905
1815,6516;0,0207714
1816,6158;0,020765
1817,5801;0,0207584
1818,5443;0,0207578
1819,5085;0,0207812
1820,4728;0,020842
1821,4370;0,0209378
1822,4012;0,0210494
1823,3655;0,0211494
1824,3297;0,0212158
1825,2939;0,0212442
1826,2582;0,0212428
1827,2224;0,0212145
1828,1866;0,0211466
1829,1509;0,0210259
1830,1151;0,0208711
1831,0793;0,0207429
1832,0436;0,0206988
1833,0078;0,0207426
1833,9720;0,020826
1834,9363;0,0208886
1835,9005;0,0208956
1836,8647;0,0208565
1837,8290;0,0208177
1838,7932;0,0208297
1839,7574;0,0209138
1840,7217;0,0210601
1841,6859;0,0212412
1842,6501;0,0214142
1843,6144;0,0215218
1844,5786;0,021526
1845,5428;0,0214469
1846,5071;0,0213333
1847,4713;0,0212055
1848,4355;0,0210531
1849,3998;0,0208706
1850,3640;0,0206779
1851,3282;0,0205124
1852,2925;0,0204064
1853,2567;0,02037
1854,2209;0,0203927
1855,1852;0,0204543
1856,1494;0,0205346
1857,1136;0,020615
1858,0779;0,0206751
1859,0421;0,0206973
1860,0063;0,0206783
1860,9706;0,0206414
1861,9348;0,0206332
1862,8990;0,0207034
1863,8633;0,0208805
1864,8275;0,0211578
1865,7917;0,0214846
1866,7560;0,0217608
1867,7202;0,0218591
1868,6844;0,0217075
1869,6487;0,0213695
1870,6129;0,020999
1871,5771;0,0207149
1872,5414;0,020547
1873,5056;0,0204695
1874,4698;0,0204462
1875,4341;0,0204509
1876,3983;0,0204703
1877,3625;0,0204986
1878,3268;0,0205334
1879,2910;0,0205716
1880,2552;0,02061
1881,2195;0,0206482
1882,1837;0,0206906
1883,1479;0,0207454
1884,1122;0,0208183
1885,0764;0,0209066
1886,0406;0,0209964
1887,0049;0,0210647
1887,9691;0,021087
1888,9333;0,0210522
1889,8976;0,0209761
1890,8618;0,020897
1891,8260;0,0208516
1892,7903;0,0208516
1893,7545;0,0208799
1894,7188;0,0209043
1895,6830;0,0208974
1896,6472;0,0208538
1897,6115;0,020791
1898,5757;0,0207342
1899,5399;0,020698
1900,5042;0,0206803
1901,4684;0,0206704
1902,4326;0,0206634
1903,3969;0,0206692
1904,3611;0,0207076
1905,3253;0,0207936
1906,2896;0,0209219
1907,2538;0,0210616
1908,2180;0,0211661
1909,1823;0,021196
1910,1465;0,0211412
1911,1107;0,0210249
1912,0750;0,0208845
1913,0392;0,0207492
1914,0034;0,0206344
1914,9677;0,0205515
1915,9319;0,0205169
1916,8961;0,0205512
1917,8604;0,0206661
1918,8246;0,02085
1919,7888;0,0210607
1920,7531;0,0212353
1921,7173;0,021314
1922,6815;0,021268
1923,6458;0,0211185
1924,6100;0,0209296
1925,5742;0,0207723
1926,5385;0,020685
1927,5027;0,0206604
1928,4669;0,0206624
1929,4312;0,0206553
1930,3954;0,0206245
1931,3596;0,020581
1932,3239;0,0205449
1933,2881;0,0205263
1934,2523;0,0205189
1935,2166;0,020513
1936,1808;0,020514
1937,1450;0,0205487
1938,1093;0,020652
1939,0735;0,0208405
1940,0377;0,0210897
1941,0020;0,0213299
1941,9662;0,0214727
1942,9304;0,021466
1943,8947;0,0213338
1944,8589;0,0211581
1945,8231;0,0210182
1946,7874;0,0209438
1947,7516;0,0209114
1948,7158;0,0208721
1949,6801;0,0207888
1950,6443;0,0206598
1951,6085;0,0205149
1952,5728;0,0203902
1953,5370;0,0203028
1954,5012;0,0202452
1955,4655;0,0202013
1956,4297;0,0201659
1957,3939;0,0201495
1958,3582;0,0201635
1959,3224;0,0202002
1960,2866;0,0202302
1961,2509;0,020223
1962,2151;0,0201752
1963,1793;0,0201161
1964,1436;0,0200859
1965,1078;0,0201031
1966,0720;0,0201509
1967,0363;0,0201985
1968,0005;0,0202408
1968,9647;0,0203156
1969,9290;0,0204729
1970,8932;0,0207215
1971,8574;0,0209999
1972,8217;0,0211961
1973,7859;0,0212097
1974,7501;0,0210172
1975,7144;0,0206976
1976,6786;0,0203886
1977,6428;0,0202018
1978,6071;0,0201623
1979,5713;0,0202183
1980,5355;0,0202988
1981,4998;0,0203647
1982,4640;0,0204217
1983,4282;0,0205041
1984,3925;0,020649
1985,3567;0,0208763
1986,3209;0,0211793
1987,2852;0,021525
1988,2494;0,0218597
1989,2136;0,0221182
1990,1779;0,0222395
1991,1421;0,0221897
1992,1063;0,0219835
1993,0706;0,0216844
1994,0348;0,0213767
1994,9990;0,0211269
1995,9633;0,0209608
1996,9275;0,0208634
1997,8917;0,0207948
1998,8560;0,0207126
1999,8202;0,0205949
2000,7844;0,0204525
2001,7487;0,0203289
2002,7129;0,0202852
2003,6771;0,0203769
2004,6414;0,0206266
2005,6056;0,0210002
2006,5698;0,0214034
2007,5341;0,0217097
2008,4983;0,0218147
2009,4625;0,0216899
2010,4268;0,0213985
2011,3910;0,0210663
2012,3552;0,0208215
2013,3195;0,0207386
2014,2837;0,0208107
2015,2479;0,0209629
2016,2122;0,0211003
2017,1764;0,021165
2018,1406;0,0211667
2019,1049;0,0211655
2020,0691;0,021224
2021,0333;0,0213646
2021,9976;0,0215568
2022,9618;0,0217339
2023,9260;0,0218245
2024,8903;0,0217828
2025,8545;0,0216069
2026,8187;0,0213395
2027,7830;0,021054
2028,7472;0,0208304
2029,7114;0,020729
2030,6757;0,0207702
2031,6399;0,0209273
2032,6041;0,0211387
2033,5684;0,0213355
2034,5326;0,0214711
2035,4968;0,0215363
2036,4611;0,0215534
2037,4253;0,0215562
2038,3895;0,0215675
2039,3538;0,0215872
2040,3180;0,0215945
2041,2822;0,0215636
2042,2465;0,0214876
2043,2107;0,021395
2044,1749;0,0213461
2045,1392;0,0214058
2046,1034;0,0216021
2047,0676;0,0218965
2048,0320;0,0221925
2048,9961;0,0223871
2049,9604;0,0224321
2050,9246;0,0223579
2051,8889;0,0222474
2052,8530;0,0221854
2053,8174;0,0222144
2054,7815;0,0223171
2055,7458;0,0224325
2056,7100;0,0224954
2057,6743;0,0224734
2058,6384;0,0223814
2059,6028;0,0222682
2060,5669;0,0221887
2061,5313;0,0221794
2062,4954;0,0222453
2063,4597;0,0223611
2064,4238;0,022484
2065,3882;0,0225724
2066,3523;0,022605
2067,3167;0,0225902
2068,2808;0,0225608
2069,2451;0,0225547
2070,2092;0,0225929
2071,1736;0,0226672
2072,1377;0,0227452
2073,1021;0,0227903
2074,0662;0,0227852
2075,0305;0,0227423
2075,9946;0,0226953
2076,9590;0,0226792
2077,9231;0,0227114
2078,8875;0,0227844
2079,8516;0,0228726
2080,8159;0,0229474
2081,7800;0,022989
2082,7444;0,0229914
2083,7085;0,0229596
2084,6729;0,0229028
2085,6370;0,0228314
2086,6013;0,0227566
2087,5654;0,0226929
2088,5298;0,0226574
2089,4939;0,0226641
2090,4583;0,0227158
2091,4224;0,0227997
2092,3867;0,02289
2093,3508;0,0229595
2094,3152;0,0229908
2095,2793;0,0229826
2096,2437;0,0229449
2097,2078;0,0228896
2098,1721;0,0228246
2099,1362;0,0227549
2100,1006;0,0226907
2101,0647;0,0226447
2102,0291;0,0226332
2102,9932;0,0226605
2103,9575;0,0227146
2104,9216;0,0227721
2105,8860;0,0228116
2106,8501;0,0228266
2107,8145;0,0228287
2108,7786;0,0228391
2109,7429;0,0228748
2110,7070;0,0229381
2111,6714;0,0230163
2112,6355;0,0230883
2113,5999;0,0231364
2114,5640;0,0231534
2115,5283;0,0231444
2116,4924;0,0231221
2117,4568;0,0230989
2118,4209;0,0230807
2119,3853;0,0230663
2120,3494;0,0230524
2121,3137;0,0230403
2122,2778;0,0230394
2123,2422;0,0230619
2124,2063;0,0231128
2125,1707;0,0231808
2126,1348;0,0232388
2127,0991;0,0232561
2128,0632;0,023216
2129,0276;0,0231274
2129,9917;0,0230232
2130,9561;0,0229461
2131,9202;0,0229291
2132,8845;0,0229835
2133,8486;0,0230967
2134,8130;0,0232423
2135,7771;0,0233903
2136,7415;0,023514
2137,7056;0,0235899
2138,6699;0,0235987
2139,6340;0,0235334
2140,5984;0,0234115
2141,5625;0,0232809
2142,5269;0,0232094
2143,4910;0,0232578
2144,4553;0,0234497
2145,4194;0,023756
2146,3838;0,0241042
2147,3479;0,0244071
2148,3123;0,0245915
2149,2764;0,0246149
2150,2407;0,0244695
2151,2048;0,0241831
2152,1692;0,0238254
2153,1333;0,0235101
2154,0977;0,0233763
2155,0618;0,0235393
2156,0261;0,0240178
2156,9902;0,0246764
2157,9546;0,025247
2158,9187;0,0254684
2159,8831;0,0252619
2160,8472;0,0247781
2161,8115;0,0242727
2162,7756;0,0239425
2163,7400;0,0238458
2164,7041;0,0239212
2165,6685;0,0240583
2166,6326;0,0241668
2167,5969;0,0242089
2168,5610;0,0241885
2169,5254;0,0241212
2170,4895;0,0240146
2171,4539;0,0238719
2172,4180;0,0237084
2173,3823;0,02356
2174,3464;0,0234701
2175,3108;0,0234624
2176,2749;0,0235187
2177,2393;0,0235836
2178,2034;0,0235945
2179,1677;0,0235172
2180,1318;0,0233656
2181,0962;0,023193
2182,0603;0,0230632
2183,0247;0,0230184
2183,9888;0,0230641
2184,9531;0,023177
2185,9172;0,0233217
2186,8816;0,0234645
2187,8457;0,0235747
2188,8101;0,0236229
2189,7742;0,0235851
2190,7385;0,0234533
2191,7026;0,0232478
2192,6670;0,0230186
2193,6311;0,0228298
2194,5955;0,0227342
2195,5596;0,0227497
2196,5239;0,0228526
2197,4880;0,0229913
2198,4524;0,0231116
2199,4165;0,0231807
2200,3809;0,0231983
2201,3450;0,0231905
2202,3093;0,0231951
2203,2734;0,0232445
2204,2378;0,0233541
2205,2019;0,023516
2206,1663;0,0236994
2207,1304;0,023857
2208,0947;0,0239405
2209,0588;0,0239197
2210,0232;0,0237991
2210,9873;0,0236179
2211,9517;0,0234333
2212,9158;0,0232939
2213,8801;0,0232213
2214,8442;0,0232099
2215,8086;0,0232424
2216,7727;0,0233047
2217,7371;0,0233875
2218,7012;0,0234752
2219,6655;0,0235388
2220,6296;0,0235439
2221,5940;0,0234729
2222,5581;0,0233431
2223,5225;0,023203
2224,4866;0,0231055
2225,4509;0,023078
2226,4150;0,0231112
2227,3794;0,0231732
2228,3435;0,0232367
2229,3079;0,0232934
2230,2720;0,0233462
2231,2363;0,0233908
2232,2004;0,0234065
2233,1648;0,0233674
2234,1289;0,0232666
2235,0933;0,0231316
2236,0574;0,023017
2237,0217;0,0229753
2237,9858;0,0230276
2238,9502;0,0231521
2239,9143;0,0232963
2240,8787;0,0234057
2241,8428;0,0234491
2242,8071;0,02343
2243,7712;0,0233788
2244,7356;0,0233331
2245,6997;0,0233181
2246,6641;0,0233349
2247,6282;0,0233646
2248,5925;0,0233833
2249,5566;0,0233801
2250,5210;0,0233656
2251,4851;0,0233669
2252,4495;0,0234096
2253,4136;0,0234995
2254,3779;0,0236132
2255,3420;0,0237071
2256,3064;0,0237384
2257,2705;0,0236869
2258,2349;0,0235666
2259,1990;0,0234204
2260,1633;0,0233014
2261,1274;0,0232498
2262,0918;0,0232756
2263,0559;0,0233553
2264,0203;0,0234445
2264,9844;0,0235002
2265,9487;0,0235007
2266,9128;0,0234515
2267,8772;0,0233773
2268,8413;0,0233049
2269,8057;0,0232501
2270,7698;0,0232152
2271,7341;0,0231958
2272,6982;0,0231898
2273,6626;0,0231999
2274,6267;0,0232312
2275,5911;0,0232853
2276,5552;0,0233582
2277,5195;0,0234418
2278,4836;0,0235283
2279,4480;0,0236137
2280,4121;0,0236986
2281,3765;0,0237871
2282,3406;0,0238843
2283,3049;0,023994
2284,2690;0,0241157
2285,2334;0,0242438
2286,1975;0,0243688
2287,1619;0,0244826
2288,1260;0,0245849
2289,0903;0,0246867
2290,0544;0,0248073
2291,0188;0,0249656
2291,9829;0,0251688
2292,9473;0,0254075
2293,9114;0,025659
2294,8757;0,0258976
2295,8398;0,0261065
2296,8042;0,0262833
2297,7683;0,0264377
2298,7327;0,026583
2299,6968;0,026729
2300,6611;0,0268796
2301,6252;0,0270367
2302,5896;0,0272054
2303,5537;0,0273958
2304,5181;0,0276199
2305,4822;0,0278827
2306,4465;0,0281742
2307,4106;0,0284648
2308,3750;0,0287094
2309,3391;0,0288601
2310,3035;0,0288847
2311,2676;0,0287823
2312,2319;0,0285879
2313,1960;0,0283605
2314,1604;0,0281592
2315,1245;0,0280227
2316,0889;0,0279606
2317,0530;0,0279606
2318,0173;0,0280006
2318,9814;0,0280583
2319,9458;0,0281136
2320,9099;0,0281472
2321,8743;0,0281419
2322,8384;0,0280886
2323,8027;0,0279902
2324,7668;0,0278589
2325,7312;0,0277113
2326,6953;0,0275629
2327,6597;0,0274218
2328,6238;0,0272821
2329,5881;0,0271239
2330,5522;0,0269256
2331,5166;0,02668
2332,4807;0,0263982
2333,4451;0,0260991
2334,4092;0,0258001
2335,3735;0,0255215
2336,3376;0,0252976
2337,3020;0,0251809
2338,2661;0,0252233
2339,2305;0,0254418
2340,1946;0,0257861
2341,1589;0,0261348
2342,1230;0,0263385
2343,0874;0,0263252
2344,0515;0,0262087
2345,0159;0,0262374
2345,9800;0,0265685
2346,9443;0,0271376
2347,9084;0,0277436
2348,8728;0,0281947
2349,8369;0,0283933
2350,8013;0,0283523
2351,7654;0,028167
2352,7297;0,0279599
2353,6938;0,0278176
2354,6582;0,0277637
2355,6223;0,0277739
2356,5867;0,0278033
2357,5508;0,0278032
2358,5151;0,0277416
2359,4792;0,0276203
2360,4436;0,0274665
2361,4077;0,0272989
2362,3721;0,0271085
2363,3362;0,0268793
2364,3005;0,0266211
2365,2646;0,0263738
2366,2290;0,0261777
2367,1931;0,0260439
2368,1575;0,0259537
2369,1216;0,0258814
2370,0859;0,0258144
2371,0500;0,0257553
2372,0144;0,0257118
2372,9785;0,0256889
2373,9429;0,0256889
2374,9070;0,0257154
2375,8713;0,0257723
2376,8354;0,0258588
2377,7998;0,0259622
2378,7639;0,0260565
2379,7283;0,0261079
2380,6924;0,0260848
2381,6567;0,0259682
2382,6208;0,0257575
2383,5852;0,0254707
2384,5493;0,0251397
2385,5137;0,0248029
2386,4778;0,0244968
2387,4421;0,0242485
2388,4063;0,0240715
2389,3706;0,0239643
2390,3347;0,0239134
2391,2991;0,0238994
2392,2632;0,0239028
2393,2275;0,0239086
2394,1917;0,023908
2395,1560;0,0238983
2396,1201;0,0238816
2397,0845;0,0238639
2398,0486;0,0238543
2399,0129;0,0238619
2399,9771;0,0238926
2400,9414;0,0239462
2401,9055;0,0240149
2402,8699;0,0240858
2403,8340;0,0241462
2404,7983;0,0241884
2405,7625;0,0242124
2406,7268;0,0242235
2407,6909;0,0242293
2408,6553;0,0242355
2409,6194;0,0242455
2410,5837;0,0242616
2411,5479;0,0242862
2412,5122;0,024321
2413,4763;0,024365
2414,4407;0,0244129
2415,4048;0,0244561
2416,3691;0,0244871
2417,3333;0,0245024
2418,2976;0,0245035
2419,2617;0,0244943
2420,2261;0,0244786
2421,1902;0,0244584
2422,1545;0,0244363
2423,1187;0,0244182
2424,0830;0,0244129
2425,0471;0,0244278
2426,0115;0,0244632
2426,9756;0,024511
2427,9399;0,0245581
2428,9041;0,0245949
2429,8684;0,0246212
2430,8325;0,0246456
2431,7969;0,0246782
2432,7610;0,0247218
2433,7253;0,0247688
2434,6895;0,0248057
2435,6538;0,0248221
2436,6179;0,0248176
2437,5823;0,0248018
2438,5464;0,0247884
2439,5107;0,0247875
2440,4749;0,0248022
2441,4392;0,0248299
2442,4033;0,024866
2443,3677;0,0249069
2444,3318;0,0249497
2445,2961;0,024991
2446,2603;0,0250275
2447,2246;0,0250579
2448,1887;0,0250843
2449,1531;0,0251104
2450,1172;0,0251378
2451,0815;0,0251622
2452,0457;0,0251749
2453,0100;0,0251695
2453,9741;0,0251489
2454,9385;0,0251278
2455,9026;0,0251261
2456,8669;0,0251583
2457,8311;0,0252233
2458,7954;0,0253038
2459,7595;0,0253744
2460,7239;0,025415
2461,6880;0,0254203
2462,6523;0,025401
2463,6165;0,025376
2464,5808;0,0253615
2465,5449;0,0253631
2466,5093;0,0253766
2467,4734;0,0253938
2468,4377;0,0254102
2469,4019;0,025428
2470,3662;0,0254517
2471,3303;0,0254817
2472,2947;0,0255108
2473,2588;0,0255274
2474,2231;0,0255244
2475,1873;0,0255066
2476,1516;0,0254898
2477,1157;0,0254914
2478,0801;0,0255178
2479,0442;0,0255597
2480,0085;0,0255988
2480,9727;0,025621
2481,9370;0,0256278
2482,9011;0,0256341
2483,8655;0,0256565
2484,8296;0,0256991
2485,7939;0,0257496
2486,7581;0,0257884
2487,7224;0,0258031
2488,6865;0,0257973
2489,6509;0,025787
2490,6150;0,0257882
2491,5793;0,025806
2492,5435;0,0258333
2493,5078;0,0258585
2494,4719;0,0258759
2495,4363;0,0258892
2496,4004;0,0259064
2497,3647;0,025932
2498,3289;0,0259626
2499,2932;0,0259895
2500,2573;0,0260058
2501,2217;0,0260113
2502,1858;0,0260123
2503,1501;0,0260165
2504,1143;0,026027
2505,0786;0,0260404
2506,0427;0,0260487
2507,0071;0,0260435
2507,9712;0,0260212
2508,9355;0,0259846
2509,8997;0,0259439
2510,8640;0,0259124
2511,8281;0,0259022
2512,7925;0,0259183
2513,7566;0,0259553
2514,7209;0,0259993
2515,6851;0,0260344
2516,6494;0,0260512
2517,6135;0,0260519
2518,5779;0,0260478
2519,5420;0,0260519
2520,5063;0,02607
2521,4705;0,0260982
2522,4348;0,0261273
2523,3989;0,0261506
2524,3633;0,0261696
2525,3274;0,0261927
2526,2917;0,0262273
2527,2559;0,0262728
2528,2202;0,0263189
2529,1843;0,0263506
2530,1487;0,026357
2531,1128;0,0263364
2532,0771;0,0262973
2533,0413;0,026254
2534,0056;0,0262214
2534,9697;0,0262117
2535,9341;0,0262313
2536,8982;0,0262784
2537,8625;0,0263417
2538,8267;0,0264024
2539,7910;0,0264415
2540,7551;0,0264488
2541,7195;0,0264287
2542,6836;0,0263977
2543,6479;0,0263736
2544,6121;0,0263643
2545,5764;0,0263639
2546,5405;0,0263597
2547,5049;0,0263438
2548,4690;0,0263206
2549,4333;0,026304
2550,3975;0,0263074
2551,3618;0,026333
2552,3259;0,02637
2553,2903;0,0264025
2554,2544;0,02642
2555,2188;0,0264228
2556,1829;0,0264202
2557,1472;0,0264222
2558,1113;0,0264328
2559,0757;0,0264485
2560,0398;0,0264618
2561,0042;0,0264659
2561,9683;0,0264581
2562,9326;0,0264401
2563,8967;0,0264165
2564,8611;0,0263933
2565,8252;0,026377
2566,7896;0,0263722
2567,7537;0,0263807
2568,7180;0,0264007
2569,6821;0,0264281
2570,6465;0,026459
2571,6106;0,0264909
2572,5750;0,0265238
2573,5391;0,0265574
2574,5034;0,0265904
2575,4675;0,0266193
2576,4319;0,0266396
2577,3960;0,026648
2578,3604;0,0266434
2579,3245;0,0266286
2580,2888;0,0266097
2581,2529;0,0265955
2582,2173;0,0265947
2583,1814;0,0266126
2584,1458;0,0266478
2585,1099;0,0266921
2586,0742;0,026734
2587,0383;0,0267642
2588,0027;0,026781
2588,9668;0,0267905
2589,9312;0,0268019
2590,8953;0,0268208
2591,8596;0,0268449
2592,8237;0,0268653
2593,7881;0,0268719
2594,7522;0,0268611
2595,7166;0,0268387
2596,6807;0,0268178
2597,6450;0,0268125
2598,6091;0,0268313
2599,5735;0,0268739
2600,5376;0,026932
2601,5020;0,026994
2602,4661;0,0270489
2603,4304;0,0270896
2604,3945;0,0271138
2605,3589;0,0271233
2606,3230;0,027123
2607,2874;0,0271197
2608,2515;0,02712
2609,2158;0,0271284
2610,1799;0,0271454
2611,1443;0,0271678
2612,1084;0,0271909
2613,0728;0,0272121
2614,0369;0,027233
2615,0012;0,0272591
2615,9653;0,0272958
2616,9297;0,0273442
2617,8938;0,0273986
2618,8582;0,0274493
2619,8223;0,0274869
2620,7866;0,0275076
2621,7507;0,0275144
2622,7151;0,0275148
2623,6792;0,0275166
2624,6436;0,0275246
2625,6077;0,0275401
2626,5720;0,0275622
2627,5361;0,0275896
2628,5005;0,027621
2629,4646;0,027655
2630,4290;0,0276889
2631,3931;0,0277205
2632,3574;0,0277488
2633,3215;0,0277751
2634,2859;0,0278024
2635,2500;0,0278324
2636,2144;0,0278641
2637,1785;0,0278935
2638,1428;0,0279165
2639,1069;0,027932
2640,0713;0,0279435
2641,0354;0,0279576
2641,9998;0,0279807
2642,9639;0,0280157
2643,9282;0,0280605
2644,8923;0,0281101
2645,8567;0,0281594
2646,8208;0,0282055
2647,7852;0,0282476
2648,7493;0,0282856
2649,7136;0,0283184
2650,6777;0,0283444
2651,6421;0,0283624
2652,6062;0,0283738
2653,5706;0,0283827
2654,5347;0,0283941
2655,4990;0,0284116
2656,4631;0,028436
2657,4275;0,0284656
2658,3916;0,0284978
2659,3560;0,0285312
2660,3201;0,028566
2661,2844;0,0286031
2662,2485;0,0286423
2663,2129;0,028681
2664,1770;0,0287155
2665,1414;0,0287423
2666,1055;0,0287603
2667,0698;0,0287711
2668,0339;0,0287782
2668,9983;0,0287852
2669,9624;0,0287943
2670,9268;0,0288068
2671,8909;0,0288237
2672,8552;0,0288462
2673,8193;0,0288752
2674,7837;0,0289102
2675,7478;0,0289487
2676,7122;0,0289871
2677,6763;0,0290232
2678,6406;0,0290574
2679,6047;0,0290929
2680,5691;0,029133
2681,5332;0,0291785
2682,4976;0,0292266
2683,4617;0,0292727
2684,4260;0,029313
2685,3901;0,0293474
2686,3545;0,0293788
2687,3186;0,0294108
2688,2830;0,0294451
2689,2471;0,0294803
2690,2114;0,0295134
2691,1755;0,0295419
2692,1399;0,0295662
2693,1040;0,0295889
2694,0684;0,0296133
2695,0325;0,0296419
2695,9968;0,0296756
2696,9609;0,0297138
2697,9253;0,0297555
2698,8894;0,0297992
2699,8538;0,0298435
2700,8179;0,0298873
2701,7822;0,0299297
2702,7463;0,0299708
2703,7107;0,0300114
2704,6748;0,0300524
2705,6392;0,0300942
2706,6033;0,0301365
2707,5676;0,0301783
2708,5317;0,0302189
2709,4961;0,030258
2710,4602;0,0302959
2711,4246;0,0303336
2712,3887;0,0303718
2713,3530;0,0304108
2714,3171;0,0304504
2715,2815;0,0304895
2716,2456;0,0305269
2717,2100;0,0305611
2718,1741;0,0305915
2719,1384;0,030618
2720,1025;0,0306408
2721,0669;0,0306604
2722,0310;0,0306778
2722,9954;0,0306945
2723,9595;0,0307136
2724,9238;0,0307386
2725,8879;0,0307728
2726,8523;0,0308172
2727,8164;0,0308702
2728,7808;0,0309279
2729,7449;0,0309851
2730,7092;0,0310371
2731,6733;0,0310802
2732,6377;0,031112
2733,6018;0,0311318
2734,5662;0,0311412
2735,5303;0,031144
2736,4946;0,0311458
2737,4587;0,031152
2738,4231;0,0311664
2739,3872;0,0311902
2740,3516;0,0312226
2741,3157;0,0312615
2742,2800;0,0313038
2743,2441;0,0313454
2744,2085;0,0313815
2745,1726;0,0314071
2746,1370;0,0314202
2747,1011;0,0314238
2748,0654;0,031426
2749,0295;0,0314375
2749,9939;0,0314664
2750,9580;0,0315144
2751,9224;0,0315754
2752,8865;0,0316387
2753,8508;0,0316935
2754,8149;0,0317342
2755,7793;0,0317621
2756,7434;0,0317832
2757,7078;0,0318048
2758,6719;0,0318316
2759,6362;0,0318646
2760,6003;0,031902
2761,5647;0,0319412
2762,5288;0,031981
2763,4932;0,0320217
2764,4573;0,0320637
2765,4216;0,032107
2766,3857;0,0321504
2767,3501;0,0321927
2768,3142;0,0322334
2769,2786;0,0322734
2770,2427;0,0323143
2771,2070;0,0323576
2772,1711;0,0324044
2773,1355;0,0324554
2774,0996;0,0325113
2775,0640;0,0325718
2776,0281;0,0326354
2776,9924;0,0326986
2777,9565;0,0327579
2778,9209;0,032811
2779,8850;0,0328588
2780,8494;0,0329058
2781,8135;0,0329576
2782,7778;0,0330184
2783,7419;0,0330882
2784,7063;0,0331633
2785,6704;0,0332377
2786,6348;0,0333059
2787,5989;0,0333659
2788,5632;0,0334199
2789,5273;0,0334738
2790,4917;0,0335347
2791,4558;0,0336078
2792,4202;0,0336942
2793,3843;0,0337897
2794,3486;0,0338865
2795,3127;0,0339771
2796,2771;0,0340569
2797,2412;0,0341264
2798,2056;0,0341911
2799,1697;0,0342584
2800,1340;0,0343355
2801,0981;0,0344272
2802,0625;0,0345355
2803,0266;0,0346592
2803,9910;0,0347942
2804,9551;0,0349337
2805,9194;0,0350698
2806,8835;0,0351963
2807,8479;0,0353105
2808,8120;0,0354152
2809,7764;0,0355171
2810,7405;0,0356235
2811,7048;0,035739
2812,6689;0,0358647
2813,6333;0,0359985
2814,5974;0,0361383
2815,5618;0,0362838
2816,5259;0,0364366
2817,4902;0,0365988
2818,4543;0,0367711
2819,4187;0,0369518
2820,3828;0,0371373
2821,3472;0,0373232
2822,3113;0,0375069
2823,2756;0,0376885
2824,2397;0,0378724
2825,2041;0,0380659
2826,1682;0,0382775
2827,1326;0,0385141
2828,0967;0,0387784
2829,0610;0,0390675
2830,0251;0,0393746
2830,9895;0,0396919
2831,9536;0,0400139
2832,9180;0,0403398
2833,8821;0,0406728
2834,8464;0,0410192
2835,8105;0,0413862
2836,7749;0,041781
2837,7390;0,0422109
2838,7034;0,0426842
2839,6675;0,0432116
2840,6318;0,0438081
2841,5959;0,0444917
2842,5603;0,0452791
2843,5244;0,0461759
2844,4888;0,0471639
2845,4529;0,0481925
2846,4172;0,0491788
2847,3813;0,0500232
2848,3457;0,0506355
2849,3098;0,0509626
2850,2742;0,0510044
2851,2383;0,0508109
2852,2026;0,0504615
2853,1667;0,0500393
2854,1311;0,0496093
2855,0952;0,0492112
2856,0596;0,0488629
2857,0237;0,0485707
2857,9880;0,0483375
2858,9521;0,0481669
2859,9165;0,0480615
2860,8806;0,04802
2861,8450;0,0480355
2862,8091;0,0480975
2863,7734;0,0481948
2864,7375;0,0483186
2865,7019;0,0484635
2866,6660;0,048625
2867,6304;0,0487975
2868,5945;0,0489721
2869,5588;0,049138
2870,5229;0,0492854
2871,4873;0,0494097
2872,4514;0,0495129
2873,4158;0,0496022
2874,3799;0,0496868
2875,3442;0,049774
2876,3083;0,0498681
2877,2727;0,0499701
2878,2368;0,0500792
2879,2012;0,0501932
2880,1653;0,0503093
2881,1296;0,0504248
2882,0938;0,0505383
2883,0581;0,0506517
2884,0222;0,0507699
2884,9866;0,0508992
2885,9507;0,0510438
2886,9150;0,0512028
2887,8792;0,0513701
2888,8435;0,0515363
2889,8076;0,0516931
2890,7720;0,0518366
2891,7361;0,0519685
2892,7004;0,0520951
2893,6646;0,0522248
2894,6289;0,0523646
2895,5930;0,0525188
2896,5574;0,0526869
2897,5215;0,0528646
2898,4858;0,0530447
2899,4500;0,0532196
2900,4143;0,0533835
2901,3784;0,0535358
2902,3428;0,0536823
2903,3069;0,053835
2904,2712;0,0540105
2905,2354;0,0542266
2906,1997;0,0545
2907,1638;0,0548448
2908,1282;0,0552733
2909,0923;0,0557951
2910,0566;0,0564139
2911,0208;0,0571208
2911,9851;0,0578871
2912,9492;0,0586619
2913,9136;0,0593775
2914,8777;0,0599632
2915,8420;0,0603616
2916,8062;0,0605411
2917,7705;0,0604997
2918,7346;0,0602594
2919,6990;0,0598571
2920,6631;0,0593359
2921,6274;0,0587397
2922,5916;0,0581093
2923,5559;0,0574787
2924,5200;0,05687
2925,4844;0,0562914
2926,4485;0,0557391
2927,4128;0,0552038
2928,3770;0,0546796
2929,3413;0,0541671
2930,3054;0,0536728
2931,2698;0,0532031
2932,2339;0,0527586
2933,1982;0,0523332
2934,1624;0,0519168
2935,1267;0,0515006
2936,0908;0,0510812
2937,0552;0,0506609
2938,0193;0,0502464
2938,9836;0,0498448
2939,9478;0,0494608
2940,9121;0,0490942
2941,8762;0,0487399
2942,8406;0,0483903
2943,8047;0,0480384
2944,7690;0,0476816
2945,7332;0,0473236
2946,6975;0,0469737
2947,6616;0,0466428
2948,6260;0,0463394
2949,5901;0,0460665
2950,5544;0,0458216
2951,5186;0,045598
2952,4829;0,045387
2953,4470;0,04518
2954,4114;0,044969
2955,3755;0,0447478
2956,3398;0,0445131
2957,3040;0,0442652
2958,2683;0,0440085
2959,2324;0,0437503
2960,1968;0,043498
2961,1609;0,0432562
2962,1252;0,0430244
2963,0894;0,0427979
2964,0537;0,0425697
2965,0178;0,0423342
2965,9822;0,0420898
2966,9463;0,0418393
2967,9106;0,0415877
2968,8748;0,0413398
2969,8391;0,0410975
2970,8032;0,0408597
2971,7676;0,0406243
2972,7317;0,0403902
2973,6960;0,0401595
2974,6602;0,0399374
2975,6245;0,0397294
2976,5886;0,039539
2977,5530;0,039365
2978,5171;0,0392027
2979,4814;0,0390461
2980,4456;0,0388911
2981,4099;0,0387383
2982,3740;0,0385917
2983,3384;0,0384569
2984,3025;0,0383376
2985,2668;0,0382339
2986,2310;0,0381428
2987,1953;0,0380602
2988,1594;0,0379829
2989,1238;0,0379099
2990,0879;0,0378424
2991,0522;0,0377828
2992,0164;0,0377332
2992,9807;0,0376942
2993,9448;0,0376645
2994,9092;0,037642
2995,8733;0,0376251
2996,8376;0,0376149
2997,8018;0,0376147
2998,7661;0,0376281
2999,7302;0,0376554
3000,6946;0,0376919
3001,6587;0,0377294
3002,6230;0,0377607
3003,5872;0,0377842
3004,5515;0,0378055
3005,5156;0,0378335
3006,4800;0,0378736
3007,4441;0,0379235
3008,4084;0,0379736
3009,3726;0,038013
3010,3369;0,0380357
3011,3010;0,0380446
3012,2654;0,0380488
3013,2295;0,0380586
3014,1938;0,0380796
3015,1580;0,0381117
3016,1223;0,0381517
3017,0864;0,0381975
3018,0508;0,0382499
3019,0149;0,0383116
3019,9792;0,0383838
3020,9434;0,0384634
3021,9077;0,0385435
3022,8718;0,0386173
3023,8362;0,0386823
3024,8003;0,0387435
3025,7646;0,0388116
3026,7288;0,0388971
3027,6931;0,0390039
3028,6572;0,0391259
3029,6216;0,0392481
3030,5857;0,039354
3031,5500;0,0394328
3032,5142;0,0394852
3033,4785;0,0395235
3034,4426;0,0395652
3035,4070;0,039626
3036,3711;0,0397133
3037,3354;0,0398243
3038,2996;0,039948
3039,2639;0,0400706
3040,2280;0,0401816
3041,1924;0,040279
3042,1565;0,0403699
3043,1208;0,0404664
3044,0850;0,0405786
3045,0493;0,0407079
3046,0134;0,040846
3046,9778;0,0409789
3047,9419;0,0410964
3048,9063;0,0411984
3049,8704;0,0412968
3050,8347;0,0414079
3051,7988;0,0415435
3052,7632;0,0417032
3053,7273;0,0418746
3054,6917;0,0420397
3055,6558;0,0421843
3056,6201;0,0423055
3057,5842;0,0424122
3058,5486;0,0425205
3059,5127;0,0426448
3060,4771;0,0427915
3061,4412;0,0429562
3062,4055;0,0431262
3063,3696;0,0432856
3064,3340;0,0434222
3065,2981;0,0435322
3066,2625;0,0436222
3067,2266;0,043706
3068,1909;0,0437977
3069,1550;0,0439063
3070,1194;0,0440324
3071,0835;0,0441707
3072,0479;0,0443136
3073,0120;0,0444561
3073,9763;0,0445969
3074,9404;0,0447372
3075,9048;0,0448779
3076,8689;0,0450177
3077,8333;0,0451538
3078,7974;0,0452835
3079,7617;0,0454069
3080,7258;0,0455266
3081,6902;0,0456472
3082,6543;0,0457724
3083,6187;0,0459039
3084,5828;0,0460403
3085,5471;0,0461783
3086,5112;0,0463146
3087,4756;0,0464484
3088,4397;0,0465827
3089,4041;0,0467233
3090,3682;0,0468748
3091,3325;0,0470369
3092,2966;0,0472029
3093,2610;0,0473626
3094,2251;0,0475096
3095,1895;0,0476461
3096,1536;0,0477826
3097,1179;0,0479305
3098,0820;0,0480933
3099,0464;0,048263
3100,0105;0,0484245
3100,9749;0,0485659
3101,9390;0,0486867
3102,9033;0,0487987
3103,8674;0,0489189
3104,8318;0,0490593
3105,7959;0,0492218
3106,7603;0,0493994
3107,7244;0,0495818
3108,6887;0,0497616
3109,6528;0,0499359
3110,6172;0,0501055
3111,5813;0,0502726
3112,5457;0,0504392
3113,5098;0,0506083
3114,4741;0,0507833
3115,4382;0,0509676
3116,4026;0,0511611
3117,3667;0,0513587
3118,3311;0,0515507
3119,2952;0,0517263
3120,2595;0,0518792
3121,2236;0,052011
3122,1880;0,0521319
3123,1521;0,052257
3124,1165;0,0523996
3125,0806;0,0525668
3126,0449;0,0527567
3127,0090;0,052961
3127,9734;0,0531692
3128,9375;0,0533724
3129,9019;0,0535655
3130,8660;0,0537469
3131,8303;0,0539182
3132,7944;0,0540831
3133,7588;0,0542472
3134,7229;0,0544159
3135,6873;0,0545931
3136,6514;0,0547796
3137,6157;0,0549737
3138,5798;0,0551723
3139,5442;0,0553724
3140,5083;0,055572
3141,4727;0,0557699
3142,4368;0,0559649
3143,4011;0,056157
3144,3652;0,0563479
3145,3296;0,0565412
3146,2937;0,056741
3147,2581;0,0569487
3148,2222;0,0571612
3149,1865;0,0573716
3150,1506;0,0575726
3151,1150;0,0577616
3152,0791;0,0579429
3153,0435;0,0581266
3154,0076;0,0583234
3154,9719;0,0585393
3155,9360;0,0587722
3156,9004;0,0590133
3157,8645;0,0592513
3158,8289;0,0594776
3159,7930;0,0596898
3160,7573;0,0598909
3161,7214;0,0600867
3162,6858;0,0602826
3163,6499;0,0604823
3164,6143;0,060688
3165,5784;0,0609022
3166,5427;0,0611267
3167,5068;0,0613615
3168,4712;0,0616034
3169,4353;0,0616995
3170,3997;0,0619393
3171,3638;0,0621732
3172,3281;0,0624005
3173,2922;0,0626212
3174,2566;0,0628341
3175,2207;0,0630366
3176,1851;0,0632279
3177,1492;0,063412
3178,1135;0,0635989
3179,0776;0,0638002
3180,0420;0,0640229
3181,0061;0,0642643
3181,9705;0,0645136
3182,9346;0,0647578
3183,8989;0,0649887
3184,8630;0,0652071
3185,8274;0,0654203
3186,7915;0,0656361
3187,7559;0,065857
3188,7200;0,0660795
3189,6843;0,0662978
3190,6484;0,0665086
3191,6128;0,0667142
3192,5769;0,0669199
3193,5413;0,0671297
3194,5054;0,0673438
3195,4697;0,0675581
3196,4338;0,0677682
3197,3982;0,0679724
3198,3623;0,0681725
3199,3267;0,068372
3200,2908;0,0685743
3201,2551;0,0687807
3202,2192;0,068992
3203,1836;0,0692078
3204,1477;0,0694273
3205,1121;0,0696475
3206,0762;0,0698644
3207,0405;0,0700742
3208,0046;0,0702764
3208,9690;0,0704733
3209,9331;0,0706688
3210,8975;0,0708652
3211,8616;0,0710621
3212,8259;0,0712582
3213,7900;0,0714537
3214,7544;0,0716513
3215,7185;0,0718543
3216,6829;0,0720627
3217,6470;0,0722717
3218,6113;0,072474
3219,5754;0,0726652
3220,5398;0,072848
3221,5039;0,0730316
3222,4683;0,0732264
3223,4324;0,0734379
3224,3967;0,073663
3225,3608;0,0738917
3226,3252;0,074113
3227,2893;0,0743209
3228,2537;0,0745171
3229,2178;0,0747097
3230,1821;0,074907
3231,1462;0,075113
3232,1106;0,0753244
3233,0747;0,0755336
3234,0391;0,0757335
3235,0032;0,0759232
3235,9675;0,0761091
3236,9316;0,0763015
3237,8960;0,0765085
3238,8601;0,0767312
3239,8245;0,0769635
3240,7886;0,0771956
3241,7529;0,0774195
3242,7170;0,0776319
3243,6814;0,0778337
3244,6455;0,0780283
3245,6099;0,0782199
3246,5740;0,0784136
3247,5383;0,0786155
3248,5024;0,0788313
3249,4668;0,0790638
3250,4309;0,0793103
3251,3953;0,079562
3252,3594;0,0798075
3253,3237;0,0800376
3254,2878;0,0802494
3255,2522;0,0804474
3256,2163;0,0806397
3257,1807;0,0808345
3258,1448;0,0810367
3259,1091;0,0812479
3260,0732;0,0814676
3261,0376;0,0816945
3262,0017;0,0819266
3262,9661;0,0821613
3263,9302;0,0823957
3264,8945;0,082627
3265,8586;0,0828536
3266,8230;0,0830749
3267,7871;0,0832911
3268,7515;0,0835021
3269,7156;0,0837052
3270,6799;0,0838955
3271,6440;0,0840657
3272,6084;0,0842096
3273,5725;0,0843259
3274,5369;0,0844207
3275,5010;0,0845078
3276,4653;0,0846036
3277,4294;0,0847199
3278,3938;0,0848583
3279,3579;0,0850093
3280,3223;0,0851561
3281,2864;0,0852829
3282,2507;0,0853818
3283,2148;0,0854548
3284,1792;0,0855118
3285,1433;0,0855645
3286,1077;0,0856207
3287,0718;0,0856819
3288,0361;0,0857453
3289,0002;0,0858066
3289,9646;0,0858637
3290,9287;0,0859181
3291,8931;0,0859738
3292,8572;0,0860342
3293,8215;0,0860992
3294,7856;0,0861641
3295,7500;0,0862202
3296,7141;0,0862588
3297,6785;0,0862757
3298,6426;0,0862732
3299,6069;0,0862601
3300,5710;0,0862488
3301,5354;0,0862508
3302,4995;0,086273
3303,4639;0,0863154
3304,4280;0,0863715
3305,3923;0,0864314
3306,3564;0,0864851
3307,3208;0,0865262
3308,2849;0,0865541
3309,2493;0,0865736
3310,2134;0,0865922
3311,1777;0,0866171
3312,1418;0,0866525
3313,1062;0,0866992
3314,0703;0,0867556
3315,0347;0,0868193
3315,9988;0,0868897
3316,9631;0,0869683
3317,9272;0,0870586
3318,8916;0,0871644
3319,8557;0,0872873
3320,8201;0,0874251
3321,7842;0,0875711
3322,7485;0,0877163
3323,7126;0,0878516
3324,6770;0,0879704
3325,6411;0,0880699
3326,6055;0,0881519
3327,5696;0,0882215
3328,5339;0,0882873
3329,4980;0,0883583
3330,4624;0,08844
3331,4265;0,0885315
3332,3909;0,088623
3333,3550;0,0886984
3334,3193;0,0887414
3335,2834;0,0887426
3336,2478;0,0887037
3337,2119;0,0886361
3338,1763;0,0885543
3339,1404;0,0884689
3340,1047;0,0883828
3341,0688;0,0882923
3342,0332;0,0881916
3342,9973;0,0880769
3343,9617;0,087949
3344,9258;0,0878122
3345,8901;0,0876732
3346,8542;0,0875379
3347,8186;0,0874094
3348,7827;0,0872862
3349,7471;0,0871624
3350,7112;0,0870298
3351,6755;0,086882
3352,6396;0,0867177
3353,6040;0,0865423
3354,5681;0,0863654
3355,5325;0,0861957
3356,4966;0,0860359
3357,4609;0,0858816
3358,4250;0,0857235
3359,3894;0,0855542
3360,3535;0,0853736
3361,3179;0,0851906
3362,2820;0,0850195
3363,2463;0,0848711
3364,2104;0,0847452
3365,1748;0,0846281
3366,1389;0,0844971
3367,1033;0,0843321
3368,0674;0,0841263
3369,0317;0,0838903
3369,9958;0,0836464
3370,9602;0,0834178
3371,9243;0,0832171
3372,8887;0,0830422
3373,8528;0,0828796
3374,8171;0,0827141
3375,7813;0,0825371
3376,7456;0,0823515
3377,7097;0,0821681
3378,6741;0,0819986
3379,6382;0,0818466
3380,6025;0,0817038
3381,5667;0,0815522
3382,5310;0,0813732
3383,4951;0,0811595
3384,4595;0,0809227
3385,4236;0,0806916
3386,3879;0,080499
3387,3521;0,0803637
3388,3164;0,0802794
3389,2805;0,0802163
3390,2449;0,0801349
3391,2090;0,0800046
3392,1733;0,0798181
3393,1375;0,0795921
3394,1018;0,0793555
3395,0659;0,079133
3396,0303;0,0789349
3396,9944;0,0787562
3397,9587;0,0785832
3398,9229;0,0784011
3399,8872;0,0782
3400,8513;0,0779772
3401,8157;0,0777384
3402,7798;0,0774949
3403,7441;0,077259
3404,7083;0,0770389
3405,6726;0,0768344
3406,6367;0,0766383
3407,6011;0,0764403
3408,5652;0,076232
3409,5295;0,0760083
3410,4937;0,0757673
3411,4580;0,0755106
3412,4221;0,0752454
3413,3865;0,0749872
3414,3506;0,0747565
3415,3149;0,074569
3416,2791;0,0744243
3417,2434;0,0742984
3418,2075;0,0741499
3419,1719;0,0739374
3420,1360;0,0736424
3421,1003;0,0732814
3422,0645;0,0728985
3423,0288;0,0725415
3423,9929;0,0722386
3424,9573;0,0719899
3425,9214;0,0717738
3426,8857;0,0715615
3427,8499;0,0713303
3428,8142;0,0710711
3429,7783;0,0707877
3430,7427;0,0704903
3431,7068;0,0701891
3432,6711;0,0698905
3433,6353;0,0695976
3434,5996;0,0693125
3435,5637;0,0690368
3436,5281;0,0687719
3437,4922;0,0685181
3438,4565;0,0682756
3439,4207;0,068047
3440,3850;0,0678374
3441,3491;0,0676492
3442,3135;0,0674743
3443,2776;0,0672888
3444,2419;0,0670567
3445,2061;0,0667464
3446,1704;0,0663513
3447,1345;0,0659015
3448,0989;0,0654535
3449,0630;0,0650597
3450,0273;0,0647413
3450,9915;0,064484
3451,9558;0,0642541
3452,9199;0,0640217
3453,8843;0,063776
3454,8484;0,0635257
3455,8127;0,0632868
3456,7769;0,063066
3457,7412;0,0628523
3458,7053;0,0626211
3459,6697;0,0623487
3460,6338;0,0620266
3461,5981;0,0616693
3462,5623;0,0613074
3463,5266;0,0609718
3464,4907;0,0606779
3465,4551;0,0604203
3466,4192;0,0601799
3467,3835;0,0599371
3468,3477;0,0596821
3469,3120;0,0594146
3470,2761;0,0591368
3471,2405;0,0588462
3472,2046;0,0585392
3473,1689;0,0582209
3474,1331;0,0579133
3475,0974;0,0576484
3476,0615;0,0574493
3477,0259;0,0573089
3477,9900;0,0571863
3478,9543;0,0570232
3479,9185;0,0567748
3480,8828;0,0564365
3481,8469;0,0560497
3482,8113;0,0556753
3483,7754;0,0553547
3484,7397;0,0550867
3485,7039;0,0548353
3486,6682;0,0545594
3487,6323;0,0542425
3488,5967;0,0539052
3489,5608;0,0535907
3490,5251;0,0533337
3491,4893;0,0531347
3492,4536;0,0529581
3493,4177;0,0527552
3494,3821;0,0524984
3495,3462;0,0522065
3496,3105;0,05194
3497,2747;0,0517621
3498,2390;0,051692
3499,2031;0,0516828
3500,1675;0,0516385
3501,1316;0,0514609
3502,0959;0,0511092
3503,0601;0,0506363
3504,0244;0,0501605
3504,9885;0,0497854
3505,9529;0,0495362
3506,9170;0,0493589
3507,8813;0,0491656
3508,8455;0,0488895
3509,8098;0,0485225
3510,7739;0,0481149
3511,7383;0,0477358
3512,7024;0,0474267
3513,6667;0,0471837
3514,6309;0,0469759
3515,5952;0,0467748
3516,5593;0,0465765
3517,5237;0,046402
3518,4878;0,0462802
3519,4521;0,0462259
3520,4163;0,0462258
3521,3806;0,0462395
3522,3447;0,0462137
3523,3091;0,0461017
3524,2732;0,0458785
3525,2375;0,0455411
3526,2017;0,0451021
3527,1660;0,0445873
3528,1301;0,0440407
3529,0945;0,0435249
3530,0586;0,0431048
3531,0229;0,0428192
3531,9871;0,0426623
3532,9514;0,0425849
3533,9155;0,0425117
3534,8799;0,0423685
3535,8440;0,0421158
3536,8083;0,0417741
3537,7725;0,0414197
3538,7368;0,0411473
3539,7009;0,0410225
3540,6653;0,041053
3541,6294;0,0411835
3542,5938;0,0413056
3543,5579;0,0412866
3544,5222;0,0410297
3545,4863;0,0405452
3546,4507;0,0399617
3547,4148;0,0394416
3548,3792;0,0390739
3549,3433;0,0388396
3550,3076;0,0386493
3551,2717;0,0384082
3552,2361;0,0380747
3553,2002;0,0376863
3554,1646;0,0373279
3555,1287;0,037066
3556,0930;0,0369064
3557,0571;0,0368056
3558,0215;0,0367147
3558,9856;0,0366201
3559,9500;0,0365588
3560,9141;0,036591
3561,8784;0,0367486
3562,8425;0,0369932
3563,8069;0,0371972
3564,7710;0,0371487
3565,7354;0,0366301
3566,6995;0,0356233
3567,6638;0,0344459
3568,6279;0,0335226
3569,5923;0,0330385
3570,5564;0,0328985
3571,5208;0,032904
3572,4849;0,0328966
3573,4492;0,0328058
3574,4133;0,0326364
3575,3777;0,0324281
3576,3418;0,0322123
3577,3062;0,0319932
3578,2703;0,0317653
3579,2346;0,0315455
3580,1987;0,0313849
3581,1631;0,0313407
3582,1272;0,0314299
3583,0916;0,0316015
3584,0557;0,0317349
3585,0200;0,0316576
3585,9841;0,031211
3586,9485;0,0304071
3587,9126;0,0295325
3588,8770;0,0289559
3589,8411;0,0288203
3590,8054;0,0289997
3591,7695;0,0292615
3592,7339;0,0294084
3593,6980;0,0293444
3594,6624;0,0290949
3595,6265;0,0287674
3596,5908;0,0284569
3597,5549;0,0281734
3598,5193;0,0278646
3599,4834;0,0274989
3600,4478;0,0271254
3601,4119;0,0268488
3602,3762;0,0267407
3603,3403;0,0267761
3604,3047;0,026849
3605,2688;0,0268308
3606,2332;0,0266308
3607,1973;0,0262444
3608,1616;0,0257684
3609,1257;0,0253488
3610,0901;0,025085
3611,0542;0,0249828
3612,0186;0,0249861
3612,9827;0,0250331
3613,9470;0,0250817
3614,9111;0,0250952
3615,8755;0,025015
3616,8396;0,0247555
3617,8040;0,0242457
3618,7681;0,0235232
3619,7324;0,0228003
3620,6965;0,022362
3621,6609;0,0223501
3622,6250;0,0226779
3623,5894;0,0231282
3624,5535;0,0234772
3625,5178;0,0235459
3626,4819;0,0231919
3627,4463;0,0223414
3628,4104;0,0211617
3629,3748;0,0201411
3630,3389;0,019693
3631,3032;0,0197801
3632,2673;0,0200808
3633,2317;0,0203098
3634,1958;0,0203552
3635,1602;0,020259
3636,1243;0,0201291
3637,0886;0,0200467
3638,0527;0,0200224
3639,0171;0,020019
3639,9812;0,0200069
3640,9456;0,0199987
3641,9097;0,0200379
3642,8740;0,0201583
3643,8381;0,0203537
3644,8025;0,0205722
3645,7666;0,0207017
3646,7310;0,0205096
3647,6951;0,0196447
3648,6594;0,0180389
3649,6235;0,0163879
3650,5879;0,0155297
3651,5520;0,0155627
3652,5164;0,0160485
3653,4805;0,0165337
3654,4448;0,0167629
3655,4089;0,0166963
3656,3733;0,0164697
3657,3374;0,0162883
3658,3018;0,0162682
3659,2659;0,0163664
3660,2302;0,0164624
3661,1943;0,0164845
3662,1587;0,0164623
3663,1228;0,0164837
3664,0872;0,0166002
3665,0513;0,0167722
3666,0156;0,0168873
3666,9797;0,016822
3667,9441;0,0165083
3668,9082;0,0160078
3669,8726;0,0155399
3670,8367;0,0153294
3671,8010;0,0153946
3672,7651;0,015545
3673,7295;0,0155312
3674,6936;0,0151944
3675,6580;0,0146159
3676,6221;0,0141244
3677,5864;0,0139857
3678,5505;0,0141679
3679,5149;0,0144767
3680,4790;0,014771
3681,4434;0,0150279
3682,4075;0,0152882
3683,3718;0,015574
3684,3359;0,015848
3685,3003;0,0160294
3686,2644;0,0160293
3687,2288;0,0157718
3688,1929;0,0152304
3689,1572;0,0145317
3690,1213;0,013976
3691,0857;0,0137995
3692,0498;0,0139839
3693,0142;0,0143571
3693,9783;0,0147628
3694,9426;0,0151231
3695,9067;0,0154169
3696,8711;0,0156364
3697,8352;0,015759
3698,7996;0,0157461
3699,7637;0,0155674
3700,7280;0,0152438
3701,6921;0,0148816
3702,6565;0,014641
3703,6206;0,0146367
3704,5850;0,0148659
3705,5491;0,0152302
3706,5134;0,0156029
3707,4775;0,0158688
3708,4419;0,0159147
3709,4060;0,0156233
3710,3704;0,0149665
3711,3345;0,0141697
3712,2988;0,0136295
3713,2629;0,0135717
3714,2273;0,0139207
3715,1914;0,01446
3716,1558;0,0150009
3717,1199;0,0154461
3718,0842;0,0157806
3719,0483;0,0160366
3720,0127;0,0162519
3720,9768;0,0164359
3721,9412;0,0165557
3722,9053;0,0165562
3723,8696;0,0164052
3724,8337;0,0161377
3725,7981;0,0158541
3726,7622;0,0156604
3727,7266;0,0156083
3728,6907;0,0156927
3729,6550;0,0158935
3730,6191;0,0162031
3731,5835;0,0165973
3732,5476;0,0169531
3733,5120;0,0170042
3734,4761;0,0165185
3735,4404;0,0156474
3736,4045;0,0149064
3737,3689;0,0146776
3738,3330;0,0149289
3739,2974;0,0153678
3740,2615;0,0156781
3741,2258;0,0156461
3742,1899;0,0152068
3743,1543;0,0144835
3744,1184;0,0138071
3745,0828;0,013556
3746,0469;0,0138309
3747,0112;0,0143656
3747,9753;0,0147487
3748,9397;0,0146372
3749,9038;0,0139225
3750,8682;0,0129291
3751,8323;0,0123039
3752,7966;0,0124217
3753,7607;0,0131112
3754,7251;0,0139607
3755,6892;0,014626
3756,6536;0,0149221
3757,6177;0,014829
3758,5820;0,0144912
3759,5461;0,0141554
3760,5105;0,0140186
3761,4746;0,0141177
3762,4390;0,0143599
3763,4031;0,0146186
3764,3674;0,0147982
3765,3315;0,0148514
3766,2959;0,014769
3767,2600;0,0145618
3768,2244;0,0142547
3769,1885;0,0139009
3770,1528;0,0135991
3771,1169;0,0134667
3772,0813;0,0135715
3773,0454;0,0138834
3774,0098;0,0142919
3774,9739;0,01466
3775,9382;0,0148734
3776,9023;0,0148718
3777,8667;0,0146761
3778,8308;0,0144
3779,7952;0,0141978
3780,7593;0,0141627
3781,7236;0,014274
3782,6877;0,0144354
3783,6521;0,0145472
3784,6162;0,0145567
3785,5806;0,0144759
3786,5447;0,0143652
3787,5090;0,0142959
3788,4731;0,0143139
3789,4375;0,014423
3790,4016;0,0145896
3791,3660;0,0147632
3792,3301;0,0149014
3793,2944;0,0149892
3794,2585;0,0150418
3795,2229;0,0150867
3796,1870;0,0151296
3797,1514;0,0151279
3798,1155;0,0149978
3799,0798;0,0146648
3800,0439;0,014144
3801,0083;0,0135981
3801,9724;0,0132635
3802,9368;0,0132489
3803,9009;0,0134348
3804,8652;0,0135877
3805,8293;0,0135493
3806,7937;0,013361
3807,7578;0,0132462
3808,7222;0,0134189
3809,6863;0,0138875
3810,6506;0,0144624
3811,6147;0,0149109
3812,5791;0,0150857
3813,5432;0,0149753
3814,5076;0,0146993
3815,4717;0,0144487
3816,4360;0,0143581
3817,4001;0,0143956
3818,3645;0,014392
3819,3286;0,0141903
3820,2930;0,0138044
3821,2571;0,0134575
3822,2214;0,0134066
3823,1855;0,0137086
3824,1499;0,0142036
3825,1140;0,0146722
3826,0784;0,0149688
3827,0425;0,0150604
3828,0068;0,0150001
3828,9709;0,0148728
3829,9353;0,0147471
3830,8994;0,0146578
3831,8638;0,0146156
3832,8279;0,014623
3833,7922;0,0146776
3834,7563;0,0147652
3835,7207;0,0148524
3836,6848;0,0148909
3837,6492;0,0148473
3838,6133;0,0147401
3839,5776;0,0146272
3840,5417;0,0145408
3841,5061;0,0144595
3842,4702;0,0143577
3843,4346;0,0142669
3844,3987;0,0142788
3845,3630;0,0144832
3846,3271;0,0148941
3847,2915;0,015425
3848,2556;0,0159243
3849,2200;0,0162249
3850,1841;0,016164
3851,1484;0,0155706
3852,1125;0,014339
3853,0769;0,0127743
3854,0410;0,0117068
3855,0054;0,0116821
3855,9695;0,0124722
3856,9338;0,0135566
3857,8979;0,0145591
3858,8623;0,0153137
3859,8264;0,0157859
3860,7908;0,0159925
3861,7549;0,0159607
3862,7192;0,0157441
3863,6833;0,0154552
3864,6477;0,015233
3865,6118;0,0151562
3866,5762;0,0152068
3867,5403;0,0153049
3868,5046;0,0153563
3869,4688;0,0152866
3870,4331;0,0150773
3871,3972;0,0147919
3872,3616;0,0145487
3873,3257;0,0144496
3874,2900;0,0145276
3875,2542;0,0147457
3876,2185;0,0150292
3877,1826;0,0153024
3878,1470;0,0155125
3879,1111;0,0156393
3880,0754;0,0156889
3881,0396;0,0156715
3882,0039;0,0155732
3882,9680;0,0153603
3883,9324;0,0150355
3884,8965;0,014693
3885,8608;0,014492
3886,8250;0,0145426
3887,7893;0,0148107
3888,7534;0,0151372
3889,7178;0,0153348
3890,6819;0,0153009
3891,6462;0,0151015
3892,6104;0,014943
3893,5747;0,0150014
3894,5388;0,0152849
3895,5032;0,0156721
3896,4673;0,0160275
3897,4316;0,016271
3898,3958;0,0163839
3899,3601;0,0163838
3900,3242;0,016289
3901,2886;0,0160888
3902,2527;0,0157533
3903,2170;0,0152937
3904,1812;0,014808
3905,1455;0,0144351
3906,1096;0,0142554
3907,0740;0,0142536
3908,0381;0,0143622
3909,0024;0,0145218
3909,9666;0,0147102
3910,9309;0,0149343
3911,8950;0,0152027
3912,8594;0,0154981
3913,8235;0,0157656
3914,7878;0,0159243
3915,7520;0,0159054
3916,7163;0,0157076
3917,6804;0,0154313
3918,6448;0,0152335
3919,6089;0,0152212
3920,5732;0,0153835
3921,5374;0,0156118
3922,5017;0,0157713
3923,4658;0,0157813
3924,4302;0,0156668
3925,3943;0,0155429
3926,3586;0,0155283
3927,3228;0,0156609
3928,2871;0,0158795
3929,2512;0,0160623
3930,2156;0,0160882
3931,1797;0,0159058
3932,1440;0,0155739
3933,1082;0,0152283
3934,0725;0,0149933
3935,0366;0,0149206
3936,0010;0,0149939
3936,9651;0,0151642
3937,9294;0,0153768
3938,8936;0,0155804
3939,8579;0,0157312
3940,8220;0,0158034
3941,7864;0,0158058
3942,7505;0,0157858
3943,7148;0,0158027
3944,6790;0,0158833
3945,6433;0,0159971
3946,6074;0,0160709
3947,5718;0,01603
3948,5359;0,0158469
3949,5002;0,0155664
3950,4644;0,0152844
3951,4287;0,015089
3952,3928;0,0150157
3953,3572;0,0150466
3954,3213;0,0151385
3955,2856;0,0152508
3956,2498;0,0153587
3957,2141;0,01545
3958,1782;0,0155144
3959,1426;0,0155376
3960,1067;0,0155066
3961,0710;0,0154201
3962,0352;0,0152968
3962,9995;0,0151703
3963,9636;0,0150739
3964,9280;0,0150269
3965,8921;0,01503
3966,8564;0,0150714
3967,8206;0,015136
3968,7849;0,0152122
3969,7490;0,0152921
3970,7134;0,0153679
3971,6775;0,0154279
3972,6418;0,0154577
3973,6060;0,015446
3974,5703;0,0153929
3975,5344;0,0153127
3976,4988;0,0152289
3977,4629;0,0151629
3978,4272;0,0151241
3979,3914;0,0151075
3980,3557;0,015099
3981,3198;0,0150854
3982,2842;0,0150639
3983,2483;0,0150441
3984,2126;0,0150421
3985,1768;0,0150697
3986,1411;0,0151257
3987,1052;0,0151949
3988,0696;0,0152543
3989,0337;0,0152842
3989,9980;0,0152763
3990,9622;0,0152354
3991,9265;0,0151745
3992,8906;0,0151077
3993,8550;0,0150458
3994,8191;0,0149968
3995,7834;0,0149666
3996,7476;0,0149587
3997,7119;0,0149716
3998,6760;0,0149979
3999,6404;0,0150271
4000,6045;0,015303

##### Extended Information
[Comments]
Sample name
Comment
Username
Division
Organization;UNIVERSIDAD INDUSTRIAL DE SANTANDER

[Detailed Information]
Creation date;26/03/2025 5:39 p.m.

Data array type;Linear data array
Horizontal axis;Wavenumber [cm-1]
Vertical axis;Abs
Start;399,193 cm-1
End;4000,6 cm-1
Data interval;0,964233 cm-1
Data points;3736    

[Measurement Information]
Model name;FT/IR-4X1typeA
Serial No.;A035162111

Accessory;ATR PRO 4X
Accessory S/N;A021162126
Incident angle;45 deg

Measurement date;26/03/2025 5:38 p.m.

Light source;Standard
Detector;TGS
Accumulation;40
Resolution;4 cm-1
Zero filling;On
Apodization;Cosine
Gain;Auto (8)
Aperture;Auto (7 mm)
Scan speed;Auto (2 mm/sec)
Filter;Auto (12800 Hz)

