TITLE;
DATA TYPE;INFRARED SPECTRUM
ORIGIN;JASCO
OWNER;
DATE;25/03/26
TIME;17:31:10
SPECTROMETER/DATA SYSTEM;
LOCALE;9226
RESOLUTION;
DELTAX;0,964233
XUNITS;1/CM
YUNITS;ABSORBANCE
FIRSTX;  399,1927
LASTX; 4000,6047
NPOINTS;    3736
FIRSTY;     0,17862
MAXY;     0,27829
MINY;     0,01456
XYDATA
399,1927;0,178623
400,1569;0,178606
401,1211;0,179002
402,0854;0,179404
403,0496;0,179526
404,0138;0,179264
404,9781;0,178697
405,9423;0,178014
406,9065;0,177402
407,8708;0,176931
408,8350;0,176564
409,7992;0,17628
410,7635;0,176206
411,7277;0,176601
412,6919;0,177669
413,6562;0,179364
414,6204;0,181355
415,5846;0,183091
416,5489;0,183901
417,5131;0,183233
418,4773;0,181251
419,4416;0,179216
420,4058;0,178525
421,3700;0,179463
422,3343;0,181424
423,2985;0,183685
424,2627;0,18572
425,2270;0,187224
426,1912;0,188084
427,1554;0,18836
428,1197;0,188224
429,0839;0,187896
430,0481;0,187591
431,0124;0,187473
431,9766;0,187601
432,9408;0,187918
433,9051;0,188296
434,8693;0,188629
435,8335;0,188913
436,7978;0,189231
437,7620;0,189667
438,7262;0,190207
439,6905;0,190725
440,6547;0,191046
441,6189;0,191037
442,5832;0,190693
443,5474;0,190137
444,5116;0,189549
445,4759;0,189046
446,4401;0,188643
447,4043;0,188289
448,3686;0,187923
449,3328;0,187527
450,2970;0,187131
451,2613;0,1868
452,2255;0,186599
453,1897;0,186558
454,1540;0,186652
455,1182;0,186802
456,0824;0,186907
457,0467;0,1869
458,0109;0,186805
458,9751;0,186742
459,9394;0,186824
460,9036;0,187063
461,8678;0,18736
462,8321;0,187567
463,7963;0,18757
464,7605;0,187356
465,7248;0,187037
466,6890;0,186789
467,6532;0,186748
468,6175;0,186923
469,5817;0,18719
470,5459;0,187359
471,5102;0,187284
472,4744;0,186965
473,4386;0,186563
474,4029;0,186294
475,3671;0,186287
476,3313;0,186536
477,2956;0,186932
478,2598;0,187328
479,2240;0,187589
480,1883;0,18763
481,1525;0,187435
482,1167;0,187068
483,0810;0,186661
484,0452;0,186391
485,0094;0,186411
485,9737;0,186784
486,9379;0,187461
487,9021;0,188318
488,8664;0,189212
489,8306;0,190025
490,7948;0,190668
491,7591;0,191077
492,7233;0,191208
493,6875;0,191041
494,6518;0,190599
495,6160;0,189968
496,5802;0,189287
497,5445;0,188725
498,5087;0,188433
499,4729;0,188508
500,4372;0,188954
501,4014;0,189676
502,3656;0,190504
503,3299;0,19127
504,2941;0,191875
505,2583;0,192313
506,2226;0,192651
507,1868;0,192975
508,1510;0,193342
509,1153;0,193754
510,0795;0,194173
511,0437;0,19456
512,0080;0,194923
512,9722;0,195329
513,9365;0,195879
514,9007;0,196646
515,8649;0,197606
516,8292;0,198604
517,7934;0,199406
518,7576;0,199819
519,7219;0,199815
520,6861;0,199535
521,6503;0,199181
522,6146;0,198916
523,5788;0,198818
524,5430;0,198882
525,5073;0,199043
526,4715;0,199211
527,4357;0,199303
528,4000;0,199274
529,3642;0,199124
530,3284;0,19889
531,2927;0,198635
532,2569;0,198429
533,2211;0,198314
534,1854;0,198288
535,1496;0,1983
536,1138;0,198282
537,0781;0,198185
538,0423;0,197999
539,0065;0,197746
539,9708;0,197459
540,9350;0,197174
541,8992;0,196931
542,8635;0,196784
543,8277;0,196795
544,7919;0,197012
545,7562;0,197433
546,7204;0,197994
547,6846;0,198586
548,6489;0,199106
549,6131;0,199509
550,5773;0,199816
551,5416;0,2001
552,5058;0,200439
553,4700;0,200875
554,4343;0,201393
555,3985;0,201919
556,3627;0,202346
557,3270;0,202565
558,2912;0,202499
559,2554;0,202122
560,2197;0,201461
561,1839;0,200588
562,1481;0,199597
563,1124;0,198578
564,0766;0,197596
565,0408;0,196678
566,0051;0,195821
566,9693;0,195017
567,9335;0,194273
568,8978;0,193622
569,8620;0,193111
570,8262;0,192772
571,7905;0,192592
572,7547;0,192517
573,7189;0,192467
574,6832;0,192375
575,6474;0,192219
576,6116;0,192029
577,5759;0,191873
578,5401;0,191808
579,5043;0,191842
580,4686;0,191929
581,4328;0,191987
582,3970;0,191939
583,3613;0,191752
584,3255;0,191461
585,2897;0,191152
586,2540;0,190931
587,2182;0,190881
588,1824;0,191032
589,1467;0,191351
590,1109;0,191746
591,0751;0,192098
592,0394;0,192294
593,0036;0,192276
593,9678;0,192052
594,9321;0,191676
595,8963;0,191214
596,8605;0,190712
597,8248;0,190187
598,7890;0,189639
599,7532;0,189072
600,7175;0,188504
601,6817;0,187966
602,6459;0,187491
603,6102;0,187098
604,5744;0,186779
605,5386;0,186503
606,5029;0,186218
607,4671;0,185866
608,4313;0,185401
609,3956;0,184812
610,3598;0,184131
611,3240;0,183425
612,2883;0,182773
613,2525;0,182227
614,2167;0,181784
615,1810;0,181372
616,1452;0,180869
617,1094;0,180154
618,0737;0,179159
619,0379;0,177905
620,0021;0,17648
620,9664;0,174992
621,9306;0,173536
622,8948;0,172176
623,8591;0,170959
624,8233;0,169896
625,7875;0,169007
626,7518;0,168258
627,7160;0,167595
628,6802;0,166961
629,6445;0,166318
630,6087;0,165655
631,5729;0,164987
632,5372;0,164334
633,5014;0,163707
634,4656;0,163106
635,4299;0,162525
636,3941;0,161963
637,3583;0,161426
638,3226;0,160928
639,2868;0,160476
640,2510;0,16007
641,2153;0,159702
642,1795;0,15936
643,1437;0,159034
644,1080;0,15871
645,0722;0,158376
646,0364;0,158013
647,0007;0,157613
647,9649;0,157184
648,9291;0,15676
649,8934;0,156394
650,8576;0,156136
651,8218;0,156014
652,7861;0,156021
653,7503;0,156119
654,7145;0,156258
655,6788;0,15639
656,6430;0,15649
657,6072;0,156557
658,5715;0,156596
659,5357;0,156596
660,4999;0,15652
661,4642;0,156323
662,4284;0,155976
663,3926;0,155485
664,3569;0,154889
665,3211;0,154275
666,2853;0,153771
667,2496;0,153447
668,2138;0,15312
669,1780;0,152468
670,1423;0,151465
671,1065;0,150273
672,0707;0,148931
673,0350;0,147395
673,9992;0,145658
674,9634;0,143797
675,9277;0,141934
676,8919;0,140176
677,8561;0,138562
678,8204;0,137081
679,7846;0,135724
680,7488;0,134513
681,7131;0,133479
682,6773;0,132619
683,6415;0,131888
684,6058;0,131225
685,5700;0,130585
686,5342;0,129957
687,4985;0,129352
688,4627;0,12878
689,4269;0,128238
690,3912;0,127715
691,3554;0,127208
692,3196;0,126729
693,2839;0,126299
694,2481;0,125934
695,2123;0,125631
696,1766;0,125362
697,1408;0,125078
698,1050;0,124725
699,0693;0,124267
700,0335;0,123703
700,9977;0,123065
701,9620;0,122413
702,9262;0,121804
703,8904;0,12127
704,8547;0,120809
705,8189;0,120389
706,7831;0,119964
707,7474;0,119497
708,7116;0,118975
709,6758;0,118409
710,6401;0,11782
711,6043;0,117231
712,5685;0,116657
713,5328;0,11611
714,4970;0,115602
715,4612;0,114939
716,4255;0,114568
717,3897;0,114235
718,3539;0,113875
719,3182;0,113405
720,2824;0,112755
721,2466;0,11191
722,2109;0,110919
723,1751;0,109866
724,1393;0,108829
725,1036;0,107857
726,0678;0,106965
727,0320;0,106141
727,9963;0,105359
728,9605;0,104592
729,9247;0,103816
730,8890;0,103026
731,8532;0,102231
732,8174;0,101456
733,7817;0,100732
734,7459;0,100088
735,7101;0,0995377
736,6744;0,0990733
737,6386;0,0986656
738,6028;0,098274
739,5671;0,0978612
740,5313;0,0974071
741,4955;0,0969154
742,4598;0,0964077
743,4240;0,0959084
744,3882;0,0954293
745,3525;0,0949633
746,3167;0,0944912
747,2809;0,0939963
748,2452;0,0934764
749,2094;0,092946
750,1736;0,0924278
751,1379;0,0919396
752,1021;0,0914858
753,0663;0,0910573
754,0306;0,0906385
754,9948;0,090215
755,9590;0,0897795
756,9233;0,0893316
757,8875;0,0888764
758,8517;0,0884217
759,8160;0,0879771
760,7802;0,0875538
761,7444;0,0871619
762,7087;0,0868065
763,6729;0,0864835
764,6371;0,0861789
765,6014;0,0858734
766,5656;0,0855512
767,5298;0,0852072
768,4941;0,0848486
769,4583;0,0844906
770,4225;0,0841485
771,3868;0,083832
772,3510;0,0835452
773,3152;0,0832907
774,2795;0,0830723
775,2437;0,0828942
776,2079;0,0827558
777,1722;0,0826464
778,1364;0,0825434
779,1006;0,0824165
780,0649;0,0822347
781,0291;0,0819743
781,9933;0,0816251
782,9576;0,081193
783,9218;0,0806993
784,8860;0,0801765
785,8503;0,0796612
786,8145;0,0791862
787,7787;0,0787738
788,7430;0,0784332
789,7072;0,0781595
790,6714;0,0779368
791,6357;0,0777428
792,5999;0,0775552
793,5641;0,0773601
794,5284;0,0771578
795,4926;0,0769627
796,4568;0,0767957
797,4211;0,0766707
798,3853;0,0765825
799,3495;0,0765053
800,3138;0,0764033
801,2780;0,0762481
802,2422;0,0760337
803,2065;0,0757794
804,1707;0,0755206
805,1349;0,0752926
806,0992;0,0751169
807,0634;0,074996
808,0276;0,074916
808,9919;0,0748551
809,9561;0,0747927
810,9203;0,0747157
811,8846;0,0746202
812,8488;0,07451
813,8130;0,0743901
814,7773;0,0742614
815,7415;0,0741185
816,7057;0,0739541
817,6700;0,0737672
818,6342;0,0735698
819,5984;0,0733864
820,5627;0,0732445
821,5269;0,0731611
822,4911;0,0731341
823,4554;0,0731428
824,4196;0,0731594
825,3839;0,073161
826,3481;0,0731378
827,3123;0,0730906
828,2766;0,0730243
829,2408;0,0729403
830,2050;0,0728362
831,1693;0,0727099
832,1335;0,0725638
833,0977;0,0724052
834,0620;0,0722401
835,0262;0,0720674
835,9904;0,0718767
836,9547;0,0716548
837,9189;0,0713957
838,8831;0,0711075
839,8474;0,0708123
840,8116;0,0705364
841,7758;0,0702995
842,7401;0,0701084
843,7043;0,0699586
844,6685;0,0698412
845,6328;0,0697496
846,5970;0,0696812
847,5612;0,0696347
848,5255;0,0696059
849,4897;0,069587
850,4539;0,0695691
851,4182;0,0695457
852,3824;0,0695148
853,3466;0,0694761
854,3109;0,0694284
855,2751;0,0693683
856,2393;0,0692922
857,2036;0,0692017
858,1678;0,0691068
859,1320;0,0690244
860,0963;0,0689723
861,0605;0,0689607
862,0247;0,0689879
862,9890;0,0690426
863,9532;0,0691118
864,9174;0,0691897
865,8817;0,0692806
866,8459;0,0693957
867,8101;0,0695443
868,7744;0,0697279
869,7386;0,069939
870,7028;0,0701654
871,6671;0,070395
872,6313;0,0706173
873,5955;0,0708216
874,5598;0,0709962
875,5240;0,0711315
876,4882;0,0712267
877,4525;0,0712957
878,4167;0,0713658
879,3809;0,0714697
880,3452;0,0716355
881,3094;0,0718802
882,2736;0,0722102
883,2379;0,0726264
884,2021;0,0731284
885,1663;0,0737152
886,1306;0,0743844
887,0948;0,0751311
888,0590;0,0759499
889,0233;0,0768344
889,9875;0,0777751
890,9517;0,0787532
891,9160;0,0797354
892,8802;0,0806745
893,8444;0,0815174
894,8087;0,0822163
895,7729;0,0827378
896,7371;0,0830652
897,7014;0,083195
898,6656;0,0831315
899,6298;0,0828838
900,5941;0,0824659
901,5583;0,0818994
902,5225;0,0812157
903,4868;0,080456
904,4510;0,0796692
905,4152;0,0789067
906,3795;0,0782166
907,3437;0,0776365
908,3079;0,0771882
909,2722;0,0768748
910,2364;0,0766828
911,2007;0,0765878
912,1649;0,0765629
913,1292;0,0765868
914,0934;0,0766499
915,0576;0,0767545
916,0219;0,0769111
916,9861;0,077129
917,9503;0,0774081
918,9146;0,0777343
919,8788;0,0780824
920,8430;0,0784239
921,8073;0,0787364
922,7715;0,0790091
923,7357;0,0792431
924,7000;0,0794471
925,6642;0,0796324
926,6284;0,0798094
927,5927;0,0799851
928,5569;0,0801633
929,5211;0,0803439
930,4854;0,0805248
931,4496;0,0807045
932,4138;0,0808852
933,3781;0,0810748
934,3423;0,0812852
935,3065;0,0815294
936,2708;0,0818173
937,2350;0,0821541
938,1992;0,0825406
939,1635;0,0829761
940,1277;0,0834613
941,0919;0,0840005
942,0562;0,0846011
943,0204;0,0852717
943,9846;0,0860182
944,9489;0,0868404
945,9131;0,0877322
946,8773;0,088685
947,8416;0,0896935
948,8058;0,0907596
949,7700;0,0918911
950,7343;0,0930967
951,6985;0,0943811
952,6627;0,0957433
953,6270;0,0971801
954,5912;0,0986906
955,5554;0,100277
956,5197;0,101943
957,4839;0,103687
958,4481;0,105502
959,4124;0,107377
960,3766;0,109304
961,3408;0,11128
962,3051;0,113305
963,2693;0,115373
964,2335;0,117472
965,1978;0,119589
966,1620;0,121712
967,1262;0,123848
968,0905;0,12602
969,0547;0,128262
970,0189;0,130615
970,9832;0,133117
971,9474;0,135799
972,9116;0,138687
973,8759;0,141806
974,8401;0,145179
975,8043;0,148825
976,7686;0,152756
977,7328;0,156963
978,6970;0,161411
979,6613;0,166025
980,6255;0,170694
981,5897;0,175279
982,5540;0,179637
983,5182;0,183645
984,4824;0,187222
985,4467;0,190342
986,4109;0,193025
987,3751;0,195321
988,3394;0,197289
989,3036;0,198986
990,2678;0,200456
991,2321;0,20173
992,1963;0,202838
993,1605;0,203808
994,1248;0,204677
995,0890;0,205484
996,0532;0,206274
997,0175;0,207086
997,9817;0,207945
998,9459;0,208862
999,9102;0,209838
1000,8744;0,210867
1001,8386;0,211952
1002,8029;0,213114
1003,7671;0,214389
1004,7313;0,215827
1005,6956;0,217483
1006,6598;0,21941
1007,6240;0,221646
1008,5883;0,224211
1009,5525;0,2271
1010,5167;0,230278
1011,4810;0,233677
1012,4452;0,237205
1013,4094;0,240754
1014,3737;0,244214
1015,3379;0,247494
1016,3021;0,250531
1017,2664;0,253297
1018,2306;0,255792
1019,1948;0,258045
1020,1591;0,260101
1021,1233;0,262017
1022,0875;0,263859
1023,0518;0,265686
1024,0160;0,267537
1024,9802;0,269418
1025,9445;0,271298
1026,9087;0,273114
1027,8729;0,274785
1028,8372;0,276226
1029,8014;0,277349
1030,7656;0,278067
1031,7299;0,278291
1032,6941;0,277948
1033,6583;0,277
1034,6226;0,275468
1035,5868;0,273447
1036,5510;0,27109
1037,5153;0,268586
1038,4795;0,266129
1039,4437;0,263888
1040,4080;0,261991
1041,3722;0,260506
1042,3364;0,259438
1043,3007;0,258726
1044,2649;0,258255
1045,2291;0,257885
1046,1934;0,257482
1047,1576;0,256948
1048,1218;0,25623
1049,0861;0,255306
1050,0503;0,254167
1051,0145;0,252799
1051,9788;0,25118
1052,9430;0,249295
1053,9072;0,247144
1054,8715;0,244746
1055,8357;0,242123
1056,7999;0,239271
1057,7642;0,236155
1058,7284;0,232716
1059,6926;0,228911
1060,6569;0,22475
1061,6211;0,220318
1062,5853;0,215769
1063,5496;0,211281
1064,5138;0,207008
1065,4780;0,203049
1066,4423;0,199433
1067,4065;0,196138
1068,3707;0,193114
1069,3350;0,190312
1070,2992;0,187688
1071,2634;0,185202
1072,2277;0,182815
1073,1919;0,180481
1074,1561;0,178157
1075,1204;0,175813
1076,0846;0,173438
1077,0488;0,171051
1078,0131;0,168686
1078,9773;0,166393
1079,9415;0,164217
1080,9058;0,162197
1081,8700;0,160361
1082,8342;0,158728
1083,7985;0,157306
1084,7627;0,156091
1085,7269;0,155064
1086,6912;0,154194
1087,6554;0,153447
1088,6196;0,152795
1089,5839;0,152229
1090,5481;0,151756
1091,5123;0,151392
1092,4766;0,151148
1093,4408;0,151022
1094,4050;0,151
1095,3693;0,15106
1096,3335;0,151187
1097,2977;0,151377
1098,2620;0,151626
1099,2262;0,151929
1100,1904;0,152266
1101,1547;0,152607
1102,1189;0,15291
1103,0831;0,153136
1104,0474;0,153254
1105,0116;0,153239
1105,9758;0,153075
1106,9401;0,152752
1107,9043;0,152266
1108,8685;0,151612
1109,8328;0,150783
1110,7970;0,149768
1111,7612;0,148552
1112,7255;0,147131
1113,6897;0,145528
1114,6539;0,143803
1115,6182;0,142045
1116,5824;0,14035
1117,5466;0,138788
1118,5109;0,137377
1119,4751;0,136083
1120,4393;0,134826
1121,4036;0,133513
1122,3678;0,13206
1123,3320;0,130409
1124,2963;0,128534
1125,2605;0,126434
1126,2247;0,124133
1127,1890;0,12167
1128,1532;0,119098
1129,1174;0,116473
1130,0817;0,113854
1131,0459;0,111287
1132,0101;0,10881
1132,9744;0,106454
1133,9386;0,104245
1134,9028;0,102212
1135,8671;0,100389
1136,8313;0,0988101
1137,7955;0,0975014
1138,7598;0,0964767
1139,7240;0,0957313
1140,6882;0,095243
1141,6525;0,0949751
1142,6167;0,0948843
1143,5809;0,0949288
1144,5452;0,0950766
1145,5094;0,0953099
1146,4736;0,0956262
1147,4379;0,0960327
1148,4021;0,0965386
1149,3663;0,0971464
1150,3306;0,0978463
1151,2948;0,0986146
1152,2590;0,0994158
1153,2233;0,100207
1154,1875;0,100939
1155,1517;0,101562
1156,1160;0,102021
1157,0802;0,10226
1158,0444;0,102219
1159,0087;0,101835
1159,9729;0,101052
1160,9371;0,0998221
1161,9014;0,098118
1162,8656;0,0959461
1163,8298;0,0933506
1164,7941;0,0904126
1165,7583;0,0872412
1166,7225;0,0839597
1167,6868;0,0806905
1168,6510;0,0775421
1169,6152;0,0745991
1170,5795;0,0719162
1171,5437;0,0695174
1172,5079;0,0674004
1173,4722;0,0655448
1174,4364;0,0639227
1175,4006;0,0625076
1176,3649;0,0612782
1177,3291;0,0602181
1178,2933;0,0593132
1179,2576;0,0585493
1180,2218;0,0579117
1181,1860;0,0573872
1182,1503;0,056965
1183,1145;0,0566373
1184,0787;0,0563974
1185,0430;0,056239
1186,0072;0,0561568
1186,9714;0,0561476
1187,9357;0,0562132
1188,8999;0,0563599
1189,8641;0,0565969
1190,8284;0,0569319
1191,7926;0,0573674
1192,7568;0,0578985
1193,7211;0,0585136
1194,6853;0,0591959
1195,6495;0,0599269
1196,6138;0,0606877
1197,5780;0,0614614
1198,5422;0,062234
1199,5065;0,0628516
1200,4707;0,0636158
1201,4349;0,064367
1202,3992;0,0651085
1203,3634;0,0658429
1204,3276;0,0665695
1205,2919;0,0672842
1206,2561;0,0679827
1207,2203;0,068666
1208,1846;0,0693443
1209,1488;0,0700372
1210,1130;0,0707693
1211,0773;0,0715637
1212,0415;0,0724356
1213,0057;0,0733893
1213,9700;0,074418
1214,9342;0,0755056
1215,8984;0,0766292
1216,8627;0,077761
1217,8269;0,0788731
1218,7911;0,0799445
1219,7554;0,0809655
1220,7196;0,0819377
1221,6838;0,0828693
1222,6481;0,0837674
1223,6123;0,0846325
1224,5765;0,0854581
1225,5408;0,0862348
1226,5050;0,086956
1227,4692;0,08762
1228,4335;0,0882293
1229,3977;0,0887861
1230,3619;0,0892899
1231,3262;0,0897375
1232,2904;0,0901252
1233,2546;0,0904508
1234,2189;0,0907151
1235,1831;0,0909222
1236,1473;0,0910792
1237,1116;0,0911957
1238,0758;0,0912825
1239,0400;0,0913484
1240,0043;0,0913959
1240,9685;0,0914188
1241,9327;0,0914034
1242,8970;0,0913326
1243,8612;0,0911928
1244,8254;0,0909782
1245,7897;0,0906923
1246,7539;0,0903453
1247,7181;0,0899507
1248,6824;0,0895222
1249,6466;0,0890723
1250,6108;0,088611
1251,5751;0,0881467
1252,5393;0,0876859
1253,5035;0,0872335
1254,4678;0,0867912
1255,4320;0,0863568
1256,3962;0,0859217
1257,3605;0,0854718
1258,3247;0,0849887
1259,2889;0,0844557
1260,2532;0,083862
1261,2174;0,0832067
1262,1816;0,0824977
1263,1459;0,081748
1264,1101;0,08097
1265,0743;0,080172
1266,0386;0,079355
1267,0028;0,0785126
1267,9670;0,0776339
1268,9313;0,0767086
1269,8955;0,0757337
1270,8597;0,074718
1271,8240;0,0736807
1272,7882;0,0726455
1273,7524;0,0716332
1274,7167;0,070658
1275,6809;0,0697273
1276,6451;0,0688446
1277,6094;0,0680095
1278,5736;0,0672165
1279,5378;0,0664542
1280,5021;0,0657095
1281,4663;0,0649743
1282,4305;0,0642527
1283,3948;0,0635615
1284,3590;0,0629233
1285,3232;0,0623556
1286,2875;0,0618629
1287,2517;0,061437
1288,2159;0,0610648
1289,1802;0,0607401
1290,1444;0,0604694
1291,1086;0,0602699
1292,0729;0,06016
1293,0371;0,0601505
1294,0013;0,06024
1294,9656;0,0604179
1295,9298;0,0606706
1296,8940;0,0609888
1297,8583;0,0613692
1298,8225;0,0618124
1299,7867;0,0623186
1300,7510;0,0628847
1301,7152;0,0635068
1302,6794;0,06418
1303,6437;0,0649004
1304,6079;0,0656656
1305,5721;0,066472
1306,5364;0,0673154
1307,5006;0,0681926
1308,4648;0,0691033
1309,4291;0,0700469
1310,3933;0,0710157
1311,3575;0,0719878
1312,3218;0,0729258
1313,2860;0,0737855
1314,2502;0,0745275
1315,2145;0,0751222
1316,1787;0,0755462
1317,1429;0,0757768
1318,1072;0,0757968
1319,0714;0,0756108
1320,0356;0,0752585
1320,9999;0,0748098
1321,9641;0,0743408
1322,9283;0,073909
1323,8926;0,0735426
1324,8568;0,0732442
1325,8210;0,0730018
1326,7853;0,0727987
1327,7495;0,0726172
1328,7137;0,0724397
1329,6780;0,072247
1330,6422;0,0720238
1331,6064;0,0717673
1332,5707;0,071492
1333,5349;0,0712277
1334,4991;0,0710022
1335,4634;0,0708195
1336,4276;0,0706413
1337,3918;0,0703818
1338,3561;0,0699384
1339,3203;0,0692606
1340,2845;0,0684077
1341,2488;0,0675201
1342,2130;0,0667308
1343,1772;0,0661073
1344,1415;0,0656579
1345,1057;0,065361
1346,0699;0,0651885
1347,0342;0,0651151
1347,9984;0,0651246
1348,9626;0,0652104
1349,9269;0,0653731
1350,8911;0,0656142
1351,8553;0,06593
1352,8196;0,0663105
1353,7838;0,0667428
1354,7480;0,067218
1355,7123;0,0677368
1356,6765;0,0683091
1357,6407;0,0689484
1358,6050;0,0696629
1359,5692;0,0704425
1360,5334;0,07124
1361,4977;0,0719651
1362,4619;0,0725273
1363,4261;0,0729093
1364,3904;0,0731798
1365,3546;0,0734271
1366,3188;0,0736994
1367,2831;0,0739962
1368,2473;0,0742893
1369,2115;0,0745462
1370,1758;0,0747432
1371,1400;0,074865
1372,1042;0,074892
1373,0685;0,0747928
1374,0327;0,0745381
1374,9969;0,0741288
1375,9612;0,0735991
1376,9254;0,0729764
1377,8896;0,0722482
1378,8539;0,071381
1379,8181;0,0703698
1380,7823;0,0692715
1381,7466;0,0681852
1382,7108;0,0671931
1383,6750;0,0663127
1384,6393;0,065496
1385,6035;0,0646673
1386,5677;0,0637843
1387,5320;0,0628934
1388,4962;0,0621115
1389,4604;0,0615293
1390,4247;0,0611526
1391,3889;0,0609366
1392,3531;0,0608427
1393,3174;0,0608522
1394,2816;0,0609421
1395,2458;0,0610597
1396,2101;0,0611377
1397,1743;0,0611377
1398,1385;0,0610802
1399,1028;0,0610316
1400,0670;0,0610629
1401,0313;0,0612117
1401,9955;0,061473
1402,9597;0,0618135
1403,9240;0,0621941
1404,8882;0,0625881
1405,8524;0,0629941
1406,8167;0,0634325
1407,7809;0,0639245
1408,7451;0,0644768
1409,7094;0,0650857
1410,6736;0,0657467
1411,6378;0,0664568
1412,6021;0,0672089
1413,5663;0,0679856
1414,5305;0,0687606
1415,4948;0,0695026
1416,4590;0,0701678
1417,4232;0,0706824
1418,3875;0,0709757
1419,3517;0,0710794
1420,3159;0,0711267
1421,2802;0,0711973
1422,2444;0,0712409
1423,2086;0,0711546
1424,1729;0,0708786
1425,1371;0,0704268
1426,1013;0,0698498
1427,0656;0,0691783
1428,0298;0,068404
1428,9940;0,0675158
1429,9583;0,0665542
1430,9225;0,0656109
1431,8867;0,0647544
1432,8510;0,0639647
1433,8152;0,0631453
1434,7794;0,06219
1435,7437;0,0610744
1436,7079;0,0599438
1437,6721;0,059066
1438,6364;0,0586046
1439,6006;0,0584993
1440,5648;0,0585848
1441,5291;0,0587391
1442,4933;0,0589298
1443,4575;0,0591832
1444,4218;0,059532
1445,3860;0,0599778
1446,3502;0,0604859
1447,3145;0,0610095
1448,2787;0,0615217
1449,2429;0,0620282
1450,2072;0,062541
1451,1714;0,063041
1452,1356;0,0634773
1453,0999;0,0638047
1454,0641;0,0640175
1455,0283;0,064127
1455,9926;0,0640608
1456,9568;0,0636753
1457,9210;0,063116
1458,8853;0,0627969
1459,8495;0,0628285
1460,8137;0,0629915
1461,7780;0,0630364
1462,7422;0,0627986
1463,7064;0,0621945
1464,6707;0,0612465
1465,6349;0,0601238
1466,5991;0,0590402
1467,5634;0,0580689
1468,5276;0,0571184
1469,4918;0,0560418
1470,4561;0,0547125
1471,4203;0,0530394
1472,3845;0,0510169
1473,3488;0,0488482
1474,3130;0,0468984
1475,2772;0,0453895
1476,2415;0,0442829
1477,2057;0,0434367
1478,1699;0,0427399
1479,1342;0,0421345
1480,0984;0,0415964
1481,0626;0,0411223
1482,0269;0,0407288
1482,9911;0,0404459
1483,9553;0,040301
1484,9196;0,0403067
1485,8838;0,0404603
1486,8480;0,0407326
1487,8123;0,0410332
1488,7765;0,0412197
1489,7407;0,0412459
1490,7050;0,0412563
1491,6692;0,0414159
1492,6334;0,0417616
1493,5977;0,0422575
1494,5619;0,0428862
1495,5261;0,0436624
1496,4904;0,0445797
1497,4546;0,0455712
1498,4188;0,0465631
1499,3831;0,0475244
1500,3473;0,0484145
1501,3115;0,0491503
1502,2758;0,0496613
1503,2400;0,0499663
1504,2042;0,0502236
1505,1685;0,0506849
1506,1327;0,0513886
1507,0969;0,0518258
1508,0612;0,0515963
1509,0254;0,0510527
1509,9896;0,050554
1510,9539;0,0501223
1511,9181;0,049679
1512,8823;0,0491752
1513,8466;0,0485891
1514,8108;0,0478997
1515,7750;0,0470883
1516,7393;0,0461627
1517,7035;0,045164
1518,6677;0,0441425
1519,6320;0,0431409
1520,5962;0,0422115
1521,5604;0,0414376
1522,5247;0,0408998
1523,4889;0,0406046
1524,4531;0,0404717
1525,4174;0,0404021
1526,3816;0,0403478
1527,3458;0,0403224
1528,3101;0,0403587
1529,2743;0,0404726
1530,2385;0,0406691
1531,2028;0,0409617
1532,1670;0,041358
1533,1312;0,0418235
1534,0955;0,0422811
1535,0597;0,0426521
1536,0239;0,0428861
1536,9882;0,0429901
1537,9524;0,0430659
1538,9166;0,0432857
1539,8809;0,0436914
1540,8451;0,0440032
1541,8093;0,0440033
1542,7736;0,0438526
1543,7378;0,043701
1544,7020;0,0435594
1545,6663;0,0434357
1546,6305;0,0433682
1547,5947;0,0433801
1548,5590;0,0434488
1549,5232;0,0435209
1550,4874;0,0435532
1551,4517;0,0435417
1552,4159;0,043513
1553,3801;0,0434816
1554,3444;0,0434266
1555,3086;0,0433169
1556,2728;0,0431449
1557,2371;0,0428846
1558,2013;0,0424429
1559,1655;0,0419849
1560,1298;0,0420365
1561,0940;0,0427197
1562,0582;0,0437037
1563,0225;0,0446737
1563,9867;0,0454818
1564,9509;0,0461043
1565,9152;0,0465853
1566,8794;0,0470017
1567,8436;0,0474372
1568,8079;0,0479545
1569,7721;0,0485718
1570,7363;0,0492548
1571,7006;0,0499352
1572,6648;0,050559
1573,6290;0,0511335
1574,5933;0,0517233
1575,5575;0,0523796
1576,5217;0,0530803
1577,4860;0,0537885
1578,4502;0,0545082
1579,4144;0,0552366
1580,3787;0,055948
1581,3429;0,0566289
1582,3071;0,057291
1583,2714;0,0579575
1584,2356;0,0586482
1585,1998;0,059374
1586,1641;0,0601334
1587,1283;0,06091
1588,0925;0,0616731
1589,0568;0,0623848
1590,0210;0,0630091
1590,9852;0,0635161
1591,9495;0,0638778
1592,9137;0,0640637
1593,8779;0,0640499
1594,8422;0,0638382
1595,8064;0,0634689
1596,7706;0,0630097
1597,7349;0,0625269
1598,6991;0,0620626
1599,6633;0,0616295
1600,6276;0,0612211
1601,5918;0,0608287
1602,5560;0,0604549
1603,5203;0,0601143
1604,4845;0,0598185
1605,4487;0,0595593
1606,4130;0,059307
1607,3772;0,0590296
1608,3414;0,0587233
1609,3057;0,0584287
1610,2699;0,058203
1611,2341;0,0580648
1612,1984;0,0579731
1613,1626;0,0578599
1614,1268;0,0576791
1615,0911;0,0574363
1616,0553;0,0572066
1617,0195;0,0571268
1617,9838;0,0572978
1618,9480;0,0576751
1619,9122;0,0581093
1620,8765;0,058464
1621,8407;0,0586724
1622,8049;0,0587356
1623,7692;0,0587057
1624,7334;0,0586563
1625,6976;0,0586374
1626,6619;0,0586573
1627,6261;0,0587074
1628,5903;0,0587861
1629,5546;0,0588869
1630,5188;0,0589776
1631,4830;0,0590068
1632,4473;0,058941
1633,4115;0,0587921
1634,3757;0,0585945
1635,3400;0,0583676
1636,3042;0,0581696
1637,2684;0,0581307
1638,2327;0,0582937
1639,1969;0,0585586
1640,1611;0,0588013
1641,1254;0,05895
1642,0896;0,0589872
1643,0538;0,0589286
1644,0181;0,058801
1644,9823;0,0586076
1645,9465;0,0583153
1646,9108;0,0579379
1647,8750;0,0575775
1648,8392;0,0572731
1649,8035;0,0569337
1650,7677;0,0564436
1651,7319;0,0557186
1652,6962;0,0547114
1653,6604;0,0536471
1654,6246;0,053069
1655,5889;0,0531132
1656,5531;0,0534176
1657,5173;0,0536255
1658,4816;0,0535692
1659,4458;0,0532185
1660,4100;0,0526064
1661,3743;0,0518057
1662,3385;0,0509529
1663,3027;0,0502223
1664,2670;0,0497085
1665,2312;0,0493636
1666,1954;0,0490562
1667,1597;0,0486488
1668,1239;0,0480412
1669,0881;0,0472199
1670,0524;0,0463091
1671,0166;0,0454909
1671,9808;0,0448264
1672,9451;0,0442286
1673,9093;0,0435989
1674,8735;0,0429511
1675,8378;0,0424237
1676,8020;0,0421595
1677,7662;0,0421615
1678,7305;0,0422832
1679,6947;0,0423321
1680,6589;0,0421524
1681,6232;0,0416341
1682,5874;0,0407076
1683,5516;0,0394602
1684,5159;0,0382976
1685,4801;0,0376478
1686,4443;0,0375105
1687,4086;0,0375904
1688,3728;0,0376257
1689,3370;0,037507
1690,3013;0,0372483
1691,2655;0,036922
1692,2297;0,0366055
1693,1940;0,0363553
1694,1582;0,0361952
1695,1224;0,0361007
1696,0867;0,0359897
1697,0509;0,0357554
1698,0151;0,0353589
1698,9794;0,0349142
1699,9436;0,034651
1700,9078;0,0347439
1701,8721;0,0351834
1702,8363;0,0358144
1703,8005;0,0364603
1704,7648;0,0370074
1705,7290;0,0374292
1706,6932;0,0377741
1707,6575;0,0381251
1708,6217;0,0385446
1709,5859;0,0390447
1710,5502;0,0396002
1711,5144;0,0401768
1712,4786;0,0407466
1713,4429;0,0412845
1714,4071;0,0417488
1715,3713;0,0420538
1716,3356;0,0421045
1717,2998;0,0419657
1718,2640;0,0419235
1719,2283;0,0422026
1720,1925;0,0427739
1721,1567;0,0434736
1722,1210;0,0441534
1723,0852;0,0447348
1724,0494;0,0452109
1725,0137;0,0456313
1725,9779;0,0460701
1726,9421;0,0465808
1727,9064;0,0471615
1728,8706;0,0477526
1729,8348;0,0482613
1730,7991;0,0485891
1731,7633;0,0486504
1732,7275;0,0484121
1733,6918;0,0479834
1734,6560;0,0476119
1735,6202;0,0474588
1736,5845;0,0474588
1737,5487;0,0474369
1738,5129;0,0472628
1739,4772;0,0469073
1740,4414;0,0464259
1741,4056;0,0459024
1742,3699;0,0453831
1743,3341;0,0448542
1744,2983;0,0442745
1745,2626;0,0436162
1746,2268;0,0428644
1747,1910;0,0419786
1748,1553;0,0408679
1749,1195;0,0394579
1750,0837;0,0378352
1751,0480;0,0362627
1752,0122;0,0349765
1752,9764;0,0340226
1753,9407;0,033295
1754,9049;0,0326558
1755,8691;0,0320155
1756,8334;0,0313502
1757,7976;0,0306716
1758,7618;0,0299796
1759,7261;0,0292455
1760,6903;0,028446
1761,6545;0,027618
1762,6188;0,0268648
1763,5830;0,0262902
1764,5472;0,0259249
1765,5115;0,0257177
1766,4757;0,0255806
1767,4399;0,0254337
1768,4042;0,0252242
1769,3684;0,0249242
1770,3326;0,024525
1771,2969;0,0240489
1772,2611;0,0235771
1773,2253;0,0232336
1774,1896;0,0230988
1775,1538;0,0231478
1776,1180;0,0232849
1777,0823;0,0234143
1778,0465;0,0234804
1779,0107;0,0234715
1779,9750;0,0234043
1780,9392;0,0233029
1781,9034;0,0231816
1782,8677;0,0230464
1783,8319;0,0229109
1784,7961;0,0228086
1785,7604;0,0227801
1786,7246;0,0228429
1787,6888;0,0229745
1788,6531;0,0231231
1789,6173;0,0232281
1790,5815;0,0232356
1791,5458;0,0231213
1792,5100;0,0229333
1793,4742;0,0227846
1794,4385;0,0227549
1795,4027;0,0228267
1796,3669;0,0229275
1797,3312;0,0229967
1798,2954;0,0230093
1799,2596;0,0229651
1800,2239;0,0228713
1801,1881;0,0227406
1802,1523;0,022597
1803,1166;0,0224734
1804,0808;0,0223996
1805,0450;0,0223927
1806,0093;0,0224517
1806,9735;0,0225555
1807,9377;0,022666
1808,9020;0,0227393
1809,8662;0,0227444
1810,8304;0,0226826
1811,7947;0,0225872
1812,7589;0,0224981
1813,7231;0,0224359
1814,6874;0,0223974
1815,6516;0,0223685
1816,6158;0,0223379
1817,5801;0,0223069
1818,5443;0,0222892
1819,5085;0,0223023
1820,4728;0,0223552
1821,4370;0,0224425
1822,4012;0,0225466
1823,3655;0,022645
1824,3297;0,0227185
1825,2939;0,0227595
1826,2582;0,0227682
1827,2224;0,022741
1828,1866;0,0226656
1829,1509;0,022536
1830,1151;0,0223792
1831,0793;0,0222569
1832,0436;0,0222224
1833,0078;0,0222782
1833,9720;0,0223811
1834,9363;0,0224772
1835,9005;0,0225328
1836,8647;0,0225484
1837,8290;0,0225543
1838,7932;0,0225847
1839,7574;0,0226527
1840,7217;0,0227478
1841,6859;0,0228475
1842,6501;0,0229233
1843,6144;0,0229448
1844,5786;0,0229029
1845,5428;0,0228275
1846,5071;0,0227547
1847,4713;0,0226885
1848,4355;0,0226095
1849,3998;0,022508
1850,3640;0,0223992
1851,3282;0,0223135
1852,2925;0,0222743
1853,2567;0,0222832
1854,2209;0,0223237
1855,1852;0,0223744
1856,1494;0,0224213
1857,1136;0,0224596
1858,0779;0,022488
1859,0421;0,0225037
1860,0063;0,0225067
1860,9706;0,0225078
1861,9348;0,022531
1862,8990;0,022605
1863,8633;0,0227478
1864,8275;0,0229559
1865,7917;0,0231953
1866,7560;0,023394
1867,7202;0,0234584
1868,6844;0,0233359
1869,6487;0,0230771
1870,6129;0,0227994
1871,5771;0,0225907
1872,5414;0,0224692
1873,5056;0,0224102
1874,4698;0,022384
1875,4341;0,0223736
1876,3983;0,0223767
1877,3625;0,0223988
1878,3268;0,022444
1879,2910;0,0225071
1880,2552;0,022574
1881,2195;0,0226285
1882,1837;0,022662
1883,1479;0,0226792
1884,1122;0,0226947
1885,0764;0,0227235
1886,0406;0,0227691
1887,0049;0,0228193
1887,9691;0,0228504
1888,9333;0,0228438
1889,8976;0,0228043
1890,8618;0,0227625
1891,8260;0,0227523
1892,7903;0,0227842
1893,7545;0,0228369
1894,7188;0,0228693
1895,6830;0,0228462
1896,6472;0,0227629
1897,6115;0,0226515
1898,5757;0,0225601
1899,5399;0,0225234
1900,5042;0,0225457
1901,4684;0,0226046
1902,4326;0,0226688
1903,3969;0,0227203
1904,3611;0,0227643
1905,3253;0,0228218
1906,2896;0,02291
1907,2538;0,0230251
1908,2180;0,0231387
1909,1823;0,0232105
1910,1465;0,023213
1911,1107;0,0231467
1912,0750;0,0230346
1913,0392;0,0229056
1914,0034;0,0227845
1914,9677;0,0226931
1915,9319;0,0226528
1916,8961;0,0226806
1917,8604;0,0227791
1918,8246;0,0229299
1919,7888;0,0230957
1920,7531;0,0232318
1921,7173;0,0233028
1922,6815;0,0232962
1923,6458;0,0232275
1924,6100;0,0231309
1925,5742;0,0230394
1926,5385;0,0229688
1927,5027;0,0229184
1928,4669;0,0228842
1929,4312;0,0228691
1930,3954;0,022881
1931,3596;0,0229212
1932,3239;0,0229723
1933,2881;0,0230012
1934,2523;0,0229782
1935,2166;0,0229021
1936,1808;0,0228112
1937,1450;0,0227695
1938,1093;0,0228335
1939,0735;0,0230188
1940,0377;0,0232837
1941,0020;0,0235357
1941,9662;0,0236703
1942,9304;0,0236314
1943,8947;0,0234484
1944,8589;0,0232127
1945,8231;0,023013
1946,7874;0,022891
1947,7516;0,022839
1948,7158;0,0228273
1949,6801;0,022833
1950,6443;0,0228544
1951,6085;0,0229023
1952,5728;0,0229809
1953,5370;0,0230756
1954,5012;0,0231597
1955,4655;0,0232122
1956,4297;0,0232288
1957,3939;0,0232135
1958,3582;0,0231621
1959,3224;0,0230553
1960,2866;0,0228783
1961,2509;0,0226512
1962,2151;0,0224404
1963,1793;0,0223305
1964,1436;0,0223735
1965,1078;0,02255
1966,0720;0,0227754
1967,0363;0,0229538
1968,0005;0,023047
1968,9647;0,0230963
1969,9290;0,0231768
1970,8932;0,0233253
1971,8574;0,0235041
1972,8217;0,0236244
1973,7859;0,0236069
1974,7501;0,0234393
1975,7144;0,0231931
1976,6786;0,0229828
1977,6428;0,0228961
1978,6071;0,0229464
1979,5713;0,023078
1980,5355;0,023209
1981,4998;0,0232751
1982,4640;0,0232528
1983,4282;0,0231647
1984,3925;0,0230715
1985,3567;0,0230499
1986,3209;0,0231606
1987,2852;0,0234181
1988,2494;0,0237777
1989,2136;0,0241459
1990,1779;0,0244127
1991,1421;0,0244939
1992,1063;0,0243706
1993,0706;0,0241002
1994,0348;0,0237894
1994,9990;0,023545
1995,9633;0,023431
1996,9275;0,0234467
1997,8917;0,0235278
1998,8560;0,0235729
1999,8202;0,0234941
2000,7844;0,0232702
2001,7487;0,0229713
2002,7129;0,0227339
2003,6771;0,0226969
2004,6414;0,0229286
2005,6056;0,0233787
2006,5698;0,0238877
2007,5341;0,0242587
2008,4983;0,0243528
2009,4625;0,0241492
2010,4268;0,023736
2011,3910;0,0232504
2012,3552;0,0228137
2013,3195;0,0224956
2014,2837;0,0223148
2015,2479;0,0222617
2016,2122;0,0223216
2017,1764;0,0224839
2018,1406;0,0227355
2019,1049;0,0230502
2020,0691;0,0233883
2021,0333;0,0237077
2021,9976;0,023976
2022,9618;0,0241714
2023,9260;0,024274
2024,8903;0,0242575
2025,8545;0,0241006
2026,8187;0,0238149
2027,7830;0,0234714
2028,7472;0,0231925
2029,7114;0,0231013
2030,6757;0,0232491
2031,6399;0,0235708
2032,6041;0,0239086
2033,5684;0,0241003
2034,5326;0,0240779
2035,4968;0,0239051
2036,4611;0,0237265
2037,4253;0,0236718
2038,3895;0,0237811
2039,3538;0,0239926
2040,3180;0,0241869
2041,2822;0,0242558
2042,2465;0,0241577
2043,2107;0,0239323
2044,1749;0,023677
2045,1392;0,0235016
2046,1034;0,0234836
2047,0676;0,0236332
2048,0320;0,0238859
2048,9961;0,0241343
2049,9604;0,0242888
2050,9246;0,0243266
2051,8889;0,0243001
2052,8530;0,0243009
2053,8174;0,024402
2054,7815;0,0246066
2055,7458;0,0248384
2056,7100;0,0249822
2057,6743;0,0249575
2058,6384;0,0247719
2059,6028;0,0245197
2060,5669;0,0243255
2061,5313;0,024272
2062,4954;0,0243575
2063,4597;0,0245076
2064,4238;0,0246284
2065,3882;0,024664
2066,3523;0,024618
2067,3167;0,0245328
2068,2808;0,02445
2069,2451;0,0243854
2070,2092;0,024332
2071,1736;0,0242803
2072,1377;0,0242343
2073,1021;0,0242109
2074,0662;0,0242272
2075,0305;0,024287
2075,9946;0,0243782
2076,9590;0,0244795
2077,9231;0,0245683
2078,8875;0,0246239
2079,8516;0,0246296
2080,8159;0,0245776
2081,7800;0,0244764
2082,7444;0,0243567
2083,7085;0,0242637
2084,6729;0,0242388
2085,6370;0,0242985
2086,6013;0,0244241
2087,5654;0,0245709
2088,5298;0,0246906
2089,4939;0,0247531
2090,4583;0,0247566
2091,4224;0,0247207
2092,3867;0,0246717
2093,3508;0,0246291
2094,3152;0,0245992
2095,2793;0,0245778
2096,2437;0,0245569
2097,2078;0,0245342
2098,1721;0,0245189
2099,1362;0,0245307
2100,1006;0,0245899
2101,0647;0,0246986
2102,0291;0,0248356
2102,9932;0,024957
2103,9575;0,0250185
2104,9216;0,0250017
2105,8860;0,0249283
2106,8501;0,0248498
2107,8145;0,0248192
2108,7786;0,0248623
2109,7429;0,0249674
2110,7070;0,0250966
2111,6714;0,0252083
2112,6355;0,025275
2113,5999;0,0252871
2114,5640;0,0252476
2115,5283;0,0251662
2116,4924;0,0250592
2117,4568;0,0249518
2118,4209;0,0248769
2119,3853;0,0248655
2120,3494;0,0249334
2121,3137;0,0250713
2122,2778;0,0252459
2123,2422;0,0254126
2124,2063;0,0255324
2125,1707;0,0255865
2126,1348;0,0255795
2127,0991;0,0255344
2128,0632;0,02548
2129,0276;0,0254402
2129,9917;0,025429
2130,9561;0,0254531
2131,9202;0,0255164
2132,8845;0,0256219
2133,8486;0,0257652
2134,8130;0,0259238
2135,7771;0,0260535
2136,7415;0,0260999
2137,7056;0,0260249
2138,6699;0,0258322
2139,6340;0,0255768
2140,5984;0,0253482
2141,5625;0,0252349
2142,5269;0,0252862
2143,4910;0,0254899
2144,4553;0,0257786
2145,4194;0,0260612
2146,3838;0,0262654
2147,3479;0,0263676
2148,3123;0,0263974
2149,2764;0,0264139
2150,2407;0,0264719
2151,2048;0,0265977
2152,1692;0,0267874
2153,1333;0,0270231
2154,0977;0,0272918
2155,0618;0,0275881
2156,0261;0,0278959
2156,9902;0,0281637
2157,9546;0,0283032
2158,9187;0,0282333
2159,8831;0,0279431
2160,8472;0,0275101
2161,8115;0,0270552
2162,7756;0,02668
2163,7400;0,0264342
2164,7041;0,02632
2165,6685;0,0263142
2166,6326;0,0263892
2167,5969;0,0265174
2168,5610;0,0266633
2169,5254;0,0267752
2170,4895;0,0267908
2171,4539;0,0266629
2172,4180;0,0263903
2173,3823;0,0260343
2174,3464;0,0257006
2175,3108;0,0254892
2176,2749;0,0254398
2177,2393;0,0255107
2178,2034;0,0256056
2179,1677;0,0256313
2180,1318;0,0255502
2181,0962;0,0253989
2182,0603;0,0252629
2183,0247;0,0252256
2183,9888;0,0253236
2184,9531;0,0255326
2185,9172;0,0257846
2186,8816;0,0259993
2187,8457;0,0261123
2188,8101;0,0260932
2189,7742;0,0259535
2190,7385;0,0257421
2191,7026;0,0255271
2192,6670;0,0253679
2193,6311;0,0252903
2194,5955;0,0252793
2195,5596;0,0252938
2196,5239;0,0252958
2197,4880;0,0252749
2198,4524;0,02525
2199,4165;0,0252528
2200,3809;0,0253044
2201,3450;0,0254047
2202,3093;0,0255387
2203,2734;0,02569
2204,2378;0,025847
2205,2019;0,0259986
2206,1663;0,0261258
2207,1304;0,026203
2208,0947;0,0262102
2209,0588;0,0261493
2210,0232;0,0260475
2210,9873;0,0259438
2211,9517;0,0258665
2212,9158;0,0258188
2213,8801;0,0257846
2214,8442;0,0257481
2215,8086;0,0257111
2216,7727;0,0256919
2217,7371;0,025706
2218,7012;0,0257463
2219,6655;0,0257803
2220,6296;0,0257699
2221,5940;0,0256989
2222,5581;0,0255877
2223,5225;0,0254813
2224,4866;0,0254203
2225,4509;0,0254146
2226,4150;0,0254425
2227,3794;0,0254715
2228,3435;0,025486
2229,3079;0,0254974
2230,2720;0,025529
2231,2363;0,0255887
2232,2004;0,0256543
2233,1648;0,0256836
2234,1289;0,0256449
2235,0933;0,0255447
2236,0574;0,0254296
2237,0217;0,0253617
2237,9858;0,0253816
2238,9502;0,0254851
2239,9143;0,0256268
2240,8787;0,0257472
2241,8428;0,0258037
2242,8071;0,025787
2243,7712;0,0257185
2244,7356;0,0256329
2245,6997;0,0255622
2246,6641;0,0255265
2247,6282;0,0255335
2248,5925;0,0255804
2249,5566;0,0256551
2250,5210;0,0257375
2251,4851;0,0258038
2252,4495;0,0258348
2253,4136;0,0258234
2254,3779;0,0257765
2255,3420;0,0257096
2256,3064;0,025637
2257,2705;0,0255662
2258,2349;0,0254999
2259,1990;0,0254419
2260,1633;0,0254014
2261,1274;0,0253894
2262,0918;0,025411
2263,0559;0,0254577
2264,0203;0,025508
2264,9844;0,0255366
2265,9487;0,0255257
2266,9128;0,0254736
2267,8772;0,0253945
2268,8413;0,0253112
2269,8057;0,0252454
2270,7698;0,0252095
2271,7341;0,0252043
2272,6982;0,0252213
2273,6626;0,0252495
2274,6267;0,0252814
2275,5911;0,0253153
2276,5552;0,0253534
2277,5195;0,0253968
2278,4836;0,0254418
2279,4480;0,0254828
2280,4121;0,0255179
2281,3765;0,0255546
2282,3406;0,0256086
2283,3049;0,0256956
2284,2690;0,0258222
2285,2334;0,0259805
2286,1975;0,0261513
2287,1619;0,0263143
2288,1260;0,0264573
2289,0903;0,0265813
2290,0544;0,0266979
2291,0188;0,0268224
2291,9829;0,0269669
2292,9473;0,0271367
2293,9114;0,02733
2294,8757;0,0275395
2295,8398;0,027754
2296,8042;0,0279608
2297,7683;0,0281483
2298,7327;0,0283096
2299,6968;0,0284452
2300,6611;0,0285634
2301,6252;0,0286782
2302,5896;0,0288056
2303,5537;0,0289605
2304,5181;0,029154
2305,4822;0,0293898
2306,4465;0,02966
2307,4106;0,029941
2308,3750;0,030193
2309,3391;0,030369
2310,3035;0,030431
2311,2676;0,0303702
2312,2319;0,0302157
2313,1960;0,0300256
2314,1604;0,029861
2315,1245;0,0297588
2316,0889;0,0297209
2317,0530;0,0297209
2318,0173;0,0297239
2318,9814;0,029706
2319,9458;0,0296649
2320,9099;0,0296164
2321,8743;0,0295798
2322,8384;0,0295623
2323,8027;0,0295525
2324,7668;0,029528
2325,7312;0,0294685
2326,6953;0,0293664
2327,6597;0,0292285
2328,6238;0,0290676
2329,5881;0,0288921
2330,5522;0,0287011
2331,5166;0,0284885
2332,4807;0,02825
2333,4451;0,0279877
2334,4092;0,0277138
2335,3735;0,0274558
2336,3376;0,0272584
2337,3020;0,0271744
2338,2661;0,0272418
2339,2305;0,0274576
2340,1946;0,0277618
2341,1589;0,0280447
2342,1230;0,0281879
2343,0874;0,0281476
2344,0515;0,0280375
2345,0159;0,0280747
2345,9800;0,0283865
2346,9443;0,0289058
2347,9084;0,0294502
2348,8728;0,0298516
2349,8369;0,0300293
2350,8013;0,0300025
2351,7654;0,0298635
2352,7297;0,0297242
2353,6938;0,0296583
2354,6582;0,0296773
2355,6223;0,0297493
2356,5867;0,0298239
2357,5508;0,0298444
2358,5151;0,0297674
2359,4792;0,0295902
2360,4436;0,0293549
2361,4077;0,0291176
2362,3721;0,0289148
2363,3362;0,028757
2364,3005;0,0286425
2365,2646;0,0285622
2366,2290;0,0284946
2367,1931;0,0284067
2368,1575;0,0282735
2369,1216;0,0280986
2370,0859;0,0279176
2371,0500;0,0277767
2372,0144;0,0277055
2372,9785;0,0277044
2373,9429;0,0277507
2374,9070;0,0278167
2375,8713;0,0278834
2376,8354;0,0279442
2377,7998;0,0279985
2378,7639;0,0280436
2379,7283;0,0280685
2380,6924;0,0280549
2381,6567;0,0279826
2382,6208;0,0278375
2383,5852;0,0276184
2384,5493;0,0273409
2385,5137;0,0270347
2386,4778;0,026738
2387,4421;0,0264874
2388,4063;0,0263079
2389,3706;0,0262071
2390,3347;0,0261744
2391,2991;0,0261864
2392,2632;0,026216
2393,2275;0,0262409
2394,1917;0,0262484
2395,1560;0,026237
2396,1201;0,0262142
2397,0845;0,0261927
2398,0486;0,0261867
2399,0129;0,0262062
2399,9771;0,0262533
2400,9414;0,0263209
2401,9055;0,0263945
2402,8699;0,0264578
2403,8340;0,0264986
2404,7983;0,0265137
2405,7625;0,0265088
2406,7268;0,0264948
2407,6909;0,0264831
2408,6553;0,0264818
2409,6194;0,0264941
2410,5837;0,0265192
2411,5479;0,0265536
2412,5122;0,0265916
2413,4763;0,0266265
2414,4407;0,0266526
2415,4048;0,0266675
2416,3691;0,0266742
2417,3333;0,0266804
2418,2976;0,026695
2419,2617;0,0267234
2420,2261;0,026764
2421,1902;0,0268083
2422,1545;0,0268458
2423,1187;0,026868
2424,0830;0,0268724
2425,0471;0,0268624
2426,0115;0,0268453
2426,9756;0,0268297
2427,9399;0,0268233
2428,9041;0,0268327
2429,8684;0,0268611
2430,8325;0,0269072
2431,7969;0,0269639
2432,7610;0,0270203
2433,7253;0,0270653
2434,6895;0,0270917
2435,6538;0,0270983
2436,6179;0,0270883
2437,5823;0,0270664
2438,5464;0,0270368
2439,5107;0,0270047
2440,4749;0,0269778
2441,4392;0,0269668
2442,4033;0,026981
2443,3677;0,0270232
2444,3318;0,0270859
2445,2961;0,0271548
2446,2603;0,0272161
2447,2246;0,0272641
2448,1887;0,0273022
2449,1531;0,0273368
2450,1172;0,0273698
2451,0815;0,0273947
2452,0457;0,0274016
2453,0100;0,0273871
2453,9741;0,027361
2454,9385;0,0273443
2455,9026;0,0273587
2456,8669;0,027413
2457,8311;0,0274964
2458,7954;0,0275834
2459,7595;0,0276466
2460,7239;0,0276703
2461,6880;0,0276572
2462,6523;0,0276247
2463,6165;0,0275942
2464,5808;0,0275803
2465,5449;0,0275859
2466,5093;0,0276033
2467,4734;0,0276219
2468,4377;0,0276349
2469,4019;0,0276421
2470,3662;0,0276481
2471,3303;0,0276578
2472,2947;0,0276721
2473,2588;0,0276882
2474,2231;0,0277024
2475,1873;0,0277142
2476,1516;0,0277271
2477,1157;0,0277463
2478,0801;0,0277733
2479,0442;0,0278038
2480,0085;0,0278294
2480,9727;0,0278436
2481,9370;0,0278468
2482,9011;0,0278471
2483,8655;0,0278557
2484,8296;0,0278798
2485,7939;0,0279178
2486,7581;0,0279611
2487,7224;0,0279988
2488,6865;0,0280251
2489,6509;0,0280411
2490,6150;0,0280531
2491,5793;0,028068
2492,5435;0,0280893
2493,5078;0,028116
2494,4719;0,0281451
2495,4363;0,0281738
2496,4004;0,0282013
2497,3647;0,0282283
2498,3289;0,028255
2499,2932;0,0282809
2500,2573;0,0283043
2501,2217;0,0283239
2502,1858;0,0283392
2503,1501;0,0283508
2504,1143;0,0283588
2505,0786;0,0283615
2506,0427;0,0283557
2507,0071;0,028339
2507,9712;0,0283121
2508,9355;0,028281
2509,8997;0,0282554
2510,8640;0,0282449
2511,8281;0,0282538
2512,7925;0,0282787
2513,7566;0,0283097
2514,7209;0,0283356
2515,6851;0,02835
2516,6494;0,0283538
2517,6135;0,0283542
2518,5779;0,0283583
2519,5420;0,0283686
2520,5063;0,0283804
2521,4705;0,0283861
2522,4348;0,028381
2523,3989;0,0283685
2524,3633;0,0283592
2525,3274;0,0283657
2526,2917;0,028395
2527,2559;0,0284436
2528,2202;0,0284976
2529,1843;0,0285394
2530,1487;0,0285552
2531,1128;0,0285422
2532,0771;0,0285096
2533,0413;0,0284742
2534,0056;0,0284529
2534,9697;0,0284545
2535,9341;0,0284772
2536,8982;0,0285101
2537,8625;0,0285403
2538,8267;0,0285599
2539,7910;0,0285693
2540,7551;0,0285748
2541,7195;0,0285825
2542,6836;0,0285933
2543,6479;0,028601
2544,6121;0,0285972
2545,5764;0,0285778
2546,5405;0,0285474
2547,5049;0,0285187
2548,4690;0,028506
2549,4333;0,0285185
2550,3975;0,0285556
2551,3618;0,0286082
2552,3259;0,028663
2553,2903;0,0287076
2554,2544;0,0287342
2555,2188;0,0287406
2556,1829;0,02873
2557,1472;0,02871
2558,1113;0,0286915
2559,0757;0,0286855
2560,0398;0,0286985
2561,0042;0,0287278
2561,9683;0,0287614
2562,9326;0,0287833
2563,8967;0,0287827
2564,8611;0,0287617
2565,8252;0,0287346
2566,7896;0,0287202
2567,7537;0,0287298
2568,7180;0,0287598
2569,6821;0,0287943
2570,6465;0,0288154
2571,6106;0,0288149
2572,5750;0,0287988
2573,5391;0,0287821
2574,5034;0,028779
2575,4675;0,0287942
2576,4319;0,0288222
2577,3960;0,0288525
2578,3604;0,0288764
2579,3245;0,0288907
2580,2888;0,0288969
2581,2529;0,0288987
2582,2173;0,0288998
2583,1814;0,0289041
2584,1458;0,0289147
2585,1099;0,0289336
2586,0742;0,0289592
2587,0383;0,0289866
2588,0027;0,0290103
2588,9668;0,0290284
2589,9312;0,0290436
2590,8953;0,0290609
2591,8596;0,0290822
2592,8237;0,0291028
2593,7881;0,0291132
2594,7522;0,0291056
2595,7166;0,0290808
2596,6807;0,02905
2597,6450;0,0290296
2598,6091;0,0290328
2599,5735;0,0290622
2600,5376;0,0291095
2601,5020;0,0291616
2602,4661;0,0292075
2603,4304;0,0292434
2604,3945;0,0292713
2605,3589;0,0292947
2606,3230;0,0293151
2607,2874;0,029331
2608,2515;0,0293409
2609,2158;0,0293458
2610,1799;0,0293502
2611,1443;0,0293595
2612,1084;0,0293776
2613,0728;0,0294053
2614,0369;0,0294413
2615,0012;0,0294839
2615,9653;0,0295318
2616,9297;0,0295829
2617,8938;0,0296334
2618,8582;0,0296776
2619,8223;0,0297099
2620,7866;0,0297275
2621,7507;0,0297327
2622,7151;0,0297315
2623,6792;0,029731
2624,6436;0,0297367
2625,6077;0,0297506
2626,5720;0,0297717
2627,5361;0,0297981
2628,5005;0,0298275
2629,4646;0,0298578
2630,4290;0,0298873
2631,3931;0,0299144
2632,3574;0,0299382
2633,3215;0,0299587
2634,2859;0,0299773
2635,2500;0,0299953
2636,2144;0,0300131
2637,1785;0,0300307
2638,1428;0,0300476
2639,1069;0,0300647
2640,0713;0,0300842
2641,0354;0,0301094
2641,9998;0,0301423
2642,9639;0,0301825
2643,9282;0,0302264
2644,8923;0,0302692
2645,8567;0,030307
2646,8208;0,0303391
2647,7852;0,0303682
2648,7493;0,0303974
2649,7136;0,0304282
2650,6777;0,0304585
2651,6421;0,0304837
2652,6062;0,0305001
2653,5706;0,0305075
2654,5347;0,0305114
2655,4990;0,0305198
2656,4631;0,0305402
2657,4275;0,0305751
2658,3916;0,0306213
2659,3560;0,0306723
2660,3201;0,0307214
2661,2844;0,0307657
2662,2485;0,0308057
2663,2129;0,0308439
2664,1770;0,0308815
2665,1414;0,0309171
2666,1055;0,0309473
2667,0698;0,0309695
2668,0339;0,0309834
2668,9983;0,0309923
2669,9624;0,0310014
2670,9268;0,0310163
2671,8909;0,0310402
2672,8552;0,0310734
2673,8193;0,031113
2674,7837;0,0311537
2675,7478;0,0311891
2676,7122;0,0312147
2677,6763;0,0312297
2678,6406;0,0312387
2679,6047;0,0312494
2680,5691;0,0312696
2681,5332;0,0313026
2682,4976;0,0313466
2683,4617;0,0313957
2684,4260;0,0314445
2685,3901;0,0314903
2686,3545;0,0315335
2687,3186;0,0315747
2688,2830;0,0316126
2689,2471;0,0316434
2690,2114;0,031664
2691,1755;0,0316746
2692,1399;0,0316799
2693,1040;0,0316878
2694,0684;0,0317054
2695,0325;0,0317361
2695,9968;0,0317794
2696,9609;0,0318317
2697,9253;0,0318882
2698,8894;0,0319442
2699,8538;0,0319956
2700,8179;0,032039
2701,7822;0,0320732
2702,7463;0,0320994
2703,7107;0,0321217
2704,6748;0,0321457
2705,6392;0,0321762
2706,6033;0,0322158
2707,5676;0,0322636
2708,5317;0,0323165
2709,4961;0,0323691
2710,4602;0,032416
2711,4246;0,0324533
2712,3887;0,0324804
2713,3530;0,0325005
2714,3171;0,0325197
2715,2815;0,0325439
2716,2456;0,0325761
2717,2100;0,0326147
2718,1741;0,0326549
2719,1384;0,032692
2720,1025;0,0327241
2721,0669;0,0327526
2722,0310;0,0327809
2722,9954;0,0328116
2723,9595;0,0328448
2724,9238;0,0328791
2725,8879;0,0329127
2726,8523;0,0329453
2727,8164;0,0329779
2728,7808;0,0330119
2729,7449;0,033048
2730,7092;0,0330859
2731,6733;0,0331239
2732,6377;0,0331594
2733,6018;0,0331892
2734,5662;0,0332106
2735,5303;0,0332226
2736,4946;0,0332271
2737,4587;0,0332291
2738,4231;0,0332355
2739,3872;0,0332521
2740,3516;0,0332815
2741,3157;0,0333218
2742,2800;0,0333672
2743,2441;0,0334105
2744,2085;0,0334452
2745,1726;0,0334676
2746,1370;0,033478
2747,1011;0,0334814
2748,0654;0,0334863
2749,0295;0,0335017
2749,9939;0,0335342
2750,9580;0,0335837
2751,9224;0,033644
2752,8865;0,0337048
2753,8508;0,0337567
2754,8149;0,0337955
2755,7793;0,0338233
2756,7434;0,0338462
2757,7078;0,0338708
2758,6719;0,0339003
2759,6362;0,0339343
2760,6003;0,0339703
2761,5647;0,0340061
2762,5288;0,0340419
2763,4932;0,0340795
2764,4573;0,0341205
2765,4216;0,034165
2766,3857;0,0342113
2767,3501;0,0342567
2768,3142;0,0342999
2769,2786;0,0343414
2770,2427;0,0343833
2771,2070;0,0344277
2772,1711;0,0344762
2773,1355;0,034529
2774,0996;0,0345858
2775,0640;0,0346464
2776,0281;0,03471
2776,9924;0,0347751
2777,9565;0,0348391
2778,9209;0,0348997
2779,8850;0,0349566
2780,8494;0,035012
2781,8135;0,0350702
2782,7778;0,0351349
2783,7419;0,0352059
2784,7063;0,0352789
2785,6704;0,0353475
2786,6348;0,0354066
2787,5989;0,0354561
2788,5632;0,0355016
2789,5273;0,0355519
2790,4917;0,0356153
2791,4558;0,0356953
2792,4202;0,0357894
2793,3843;0,0358901
2794,3486;0,0359884
2795,3127;0,0360783
2796,2771;0,0361592
2797,2412;0,0362354
2798,2056;0,0363137
2799,1697;0,0363999
2800,1340;0,0364965
2801,0981;0,0366033
2802,0625;0,0367188
2803,0266;0,0368416
2803,9910;0,0369702
2804,9551;0,0371011
2805,9194;0,0372294
2806,8835;0,0373498
2807,8479;0,0374605
2808,8120;0,0375646
2809,7764;0,0376695
2810,7405;0,0377825
2811,7048;0,0379068
2812,6689;0,0380413
2813,6333;0,0381823
2814,5974;0,0383284
2815,5618;0,0384815
2816,5259;0,0386455
2817,4902;0,0388227
2818,4543;0,0390112
2819,4187;0,0392059
2820,3828;0,0394024
2821,3472;0,0395995
2822,3113;0,0397997
2823,2756;0,0400068
2824,2397;0,0402236
2825,2041;0,0404509
2826,1682;0,0406889
2827,1326;0,0409388
2828,0967;0,0412037
2829,0610;0,0414868
2830,0251;0,0417904
2830,9895;0,0421149
2831,9536;0,0424593
2832,9180;0,0428232
2833,8821;0,0432073
2834,8464;0,0436139
2835,8105;0,0440464
2836,7749;0,0445098
2837,7390;0,0450112
2838,7034;0,0455612
2839,6675;0,0461751
2840,6318;0,0468732
2841,5959;0,0476786
2842,5603;0,04861
2843,5244;0,0496721
2844,4888;0,0508427
2845,4529;0,0520657
2846,4172;0,053254
2847,3813;0,0543049
2848,3457;0,0551261
2849,3098;0,0556603
2850,2742;0,0558979
2851,2383;0,0558734
2852,2026;0,0556468
2853,1667;0,0552832
2854,1311;0,0548366
2855,0952;0,0543454
2856,0596;0,0538355
2857,0237;0,0533267
2857,9880;0,0528379
2858,9521;0,0523886
2859,9165;0,0519974
2860,8806;0,0516798
2861,8450;0,051445
2862,8091;0,0512943
2863,7734;0,051221
2864,7375;0,0512121
2865,7019;0,051252
2866,6660;0,0513252
2867,6304;0,0514174
2868,5945;0,0515158
2869,5588;0,051608
2870,5229;0,0516832
2871,4873;0,051734
2872,4514;0,0517598
2873,4158;0,0517672
2874,3799;0,0517681
2875,3442;0,0517747
2876,3083;0,0517965
2877,2727;0,0518377
2878,2368;0,0518986
2879,2012;0,0519778
2880,1653;0,0520736
2881,1296;0,0521849
2882,0938;0,0523111
2883,0581;0,0524523
2884,0222;0,0526095
2884,9866;0,0527844
2885,9507;0,0529776
2886,9150;0,0531871
2887,8792;0,0534076
2888,8435;0,0536318
2889,8076;0,0538538
2890,7720;0,0540712
2891,7361;0,0542857
2892,7004;0,0545014
2893,6646;0,0547216
2894,6289;0,0549476
2895,5930;0,0551788
2896,5574;0,0554145
2897,5215;0,0556551
2898,4858;0,0559023
2899,4500;0,0561572
2900,4143;0,0564199
2901,3784;0,0566892
2902,3428;0,0569651
2903,3069;0,057251
2904,2712;0,0575552
2905,2354;0,0578917
2906,1997;0,0582788
2907,1638;0,0587379
2908,1282;0,0592906
2909,0923;0,0599551
2910,0566;0,0607393
2911,0208;0,0616346
2911,9851;0,0626095
2912,9492;0,0636095
2913,9136;0,0645644
2914,8777;0,0654016
2915,8420;0,0660622
2916,8062;0,0665125
2917,7705;0,0667473
2918,7346;0,0667841
2919,6990;0,0666521
2920,6631;0,0663814
2921,6274;0,0659968
2922,5916;0,0655175
2923,5559;0,0649595
2924,5200;0,0643379
2925,4844;0,0636675
2926,4485;0,0629624
2927,4128;0,062235
2928,3770;0,0614949
2929,3413;0,0607496
2930,3054;0,0600041
2931,2698;0,0592609
2932,2339;0,0585212
2933,1982;0,057786
2934,1624;0,0570577
2935,1267;0,0563408
2936,0908;0,0556409
2937,0552;0,0549641
2938,0193;0,0543157
2938,9836;0,0537003
2939,9478;0,0531215
2940,9121;0,0525816
2941,8762;0,0520796
2942,8406;0,051612
2943,8047;0,0511736
2944,7690;0,0507609
2945,7332;0,0503745
2946,6975;0,0500197
2947,6616;0,0497034
2948,6260;0,0494307
2949,5901;0,0492014
2950,5544;0,0490091
2951,5186;0,0488417
2952,4829;0,048683
2953,4470;0,0485162
2954,4114;0,0483263
2955,3755;0,0481042
2956,3398;0,047849
2957,3040;0,0475675
2958,2683;0,0472705
2959,2324;0,0469674
2960,1968;0,0466618
2961,1609;0,0463512
2962,1252;0,0460296
2963,0894;0,0456929
2964,0537;0,0453418
2965,0178;0,0449819
2965,9822;0,044622
2966,9463;0,0442704
2967,9106;0,0439329
2968,8748;0,0436116
2969,8391;0,0433049
2970,8032;0,0430084
2971,7676;0,0427169
2972,7317;0,0424274
2973,6960;0,0421414
2974,6602;0,0418655
2975,6245;0,0416085
2976,5886;0,0413767
2977,5530;0,0411703
2978,5171;0,0409828
2979,4814;0,0408055
2980,4456;0,0406324
2981,4099;0,0404634
2982,3740;0,0403036
2983,3384;0,0401585
2984,3025;0,04003
2985,2668;0,039916
2986,2310;0,0398122
2987,1953;0,0397161
2988,1594;0,0396283
2989,1238;0,0395515
2990,0879;0,0394874
2991,0522;0,0394351
2992,0164;0,0393916
2992,9807;0,0393548
2993,9448;0,0393253
2994,9092;0,0393071
2995,8733;0,0393053
2996,8376;0,0393231
2997,8018;0,0393592
2998,7661;0,0394078
2999,7302;0,0394602
3000,6946;0,0395079
3001,6587;0,0395453
3002,6230;0,0395716
3003,5872;0,039591
3004,5515;0,03961
3005,5156;0,0396343
3006,4800;0,0396659
3007,4441;0,0397019
3008,4084;0,0397362
3009,3726;0,0397619
3010,3369;0,0397746
3011,3010;0,0397737
3012,2654;0,0397619
3013,2295;0,0397446
3014,1938;0,0397288
3015,1580;0,039722
3016,1223;0,0397311
3017,0864;0,0397611
3018,0508;0,0398124
3019,0149;0,0398803
3019,9792;0,0399556
3020,9434;0,0400278
3021,9077;0,0400891
3022,8718;0,040138
3023,8362;0,0401795
3024,8003;0,0402233
3025,7646;0,0402789
3026,7288;0,0403516
3027,6931;0,0404404
3028,6572;0,0405387
3029,6216;0,040637
3030,5857;0,040727
3031,5500;0,0408042
3032,5142;0,0408696
3033,4785;0,0409293
3034,4426;0,0409916
3035,4070;0,041064
3036,3711;0,0411499
3037,3354;0,0412468
3038,2996;0,0413467
3039,2639;0,0414402
3040,2280;0,0415215
3041,1924;0,0415928
3042,1565;0,0416651
3043,1208;0,0417527
3044,0850;0,0418647
3045,0493;0,0419988
3046,0134;0,0421411
3046,9778;0,0422725
3047,9419;0,0423802
3048,9063;0,0424649
3049,8704;0,0425411
3050,8347;0,042629
3051,7988;0,0427437
3052,7632;0,0428874
3053,7273;0,0430498
3054,6917;0,043214
3055,6558;0,0433648
3056,6201;0,0434954
3057,5842;0,0436084
3058,5486;0,0437127
3059,5127;0,043818
3060,4771;0,0439303
3061,4412;0,04405
3062,4055;0,0441725
3063,3696;0,0442913
3064,3340;0,0444013
3065,2981;0,0445008
3066,2625;0,0445927
3067,2266;0,0446821
3068,1909;0,0447739
3069,1550;0,0448711
3070,1194;0,0449746
3071,0835;0,0450842
3072,0479;0,0451998
3073,0120;0,045321
3073,9763;0,0454465
3074,9404;0,0455732
3075,9048;0,0456975
3076,8689;0,0458168
3077,8333;0,0459301
3078,7974;0,0460388
3079,7617;0,0461442
3080,7258;0,0462475
3081,6902;0,046349
3082,6543;0,0464495
3083,6187;0,0465507
3084,5828;0,046655
3085,5471;0,0467641
3086,5112;0,0468785
3087,4756;0,0469979
3088,4397;0,047123
3089,4041;0,0472555
3090,3682;0,0473965
3091,3325;0,0475448
3092,2966;0,047695
3093,2610;0,0478402
3094,2251;0,0479756
3095,1895;0,0481014
3096,1536;0,0482228
3097,1179;0,0483452
3098,0820;0,0484697
3099,0464;0,0485924
3100,0105;0,0487071
3100,9749;0,0488114
3101,9390;0,0489103
3102,9033;0,0490137
3103,8674;0,0491312
3104,8318;0,0492661
3105,7959;0,0494142
3106,7603;0,0495678
3107,7244;0,0497201
3108,6887;0,0498695
3109,6528;0,0500177
3110,6172;0,0501664
3111,5813;0,0503142
3112,5457;0,050457
3113,5098;0,0505919
3114,4741;0,0507211
3115,4382;0,0508515
3116,4026;0,0509907
3117,3667;0,0511406
3118,3311;0,0512949
3119,2952;0,0514423
3120,2595;0,0515743
3121,2236;0,0516914
3122,1880;0,0518044
3123,1521;0,0519284
3124,1165;0,052074
3125,0806;0,0522419
3126,0449;0,0524234
3127,0090;0,0526064
3127,9734;0,0527824
3128,9375;0,0529485
3129,9019;0,0531066
3130,8660;0,053259
3131,8303;0,0534069
3132,7944;0,0535504
3133,7588;0,0536906
3134,7229;0,053831
3135,6873;0,053976
3136,6514;0,0541295
3137,6157;0,0542928
3138,5798;0,0544649
3139,5442;0,0546433
3140,5083;0,0548243
3141,4727;0,0550036
3142,4368;0,0551768
3143,4011;0,0553408
3144,3652;0,0554955
3145,3296;0,055645
3146,2937;0,0557964
3147,2581;0,055957
3148,2222;0,056131
3149,1865;0,0563171
3150,1506;0,0565093
3151,1150;0,0566995
3152,0791;0,0568818
3153,0435;0,0570547
3154,0076;0,0572219
3154,9719;0,0573895
3155,9360;0,0575627
3156,9004;0,0577431
3157,8645;0,0579283
3158,8289;0,0581145
3159,7930;0,0582989
3160,7573;0,0584813
3161,7214;0,0586636
3162,6858;0,0588472
3163,6499;0,0590318
3164,6143;0,059216
3165,5784;0,0593988
3166,5427;0,0595812
3167,5068;0,0597655
3168,4712;0,0599538
3169,4353;0,0600214
3170,3997;0,0602169
3171,3638;0,0604132
3172,3281;0,060607
3173,2922;0,0607964
3174,2566;0,0609807
3175,2207;0,0611606
3176,1851;0,0613376
3177,1492;0,0615142
3178,1135;0,0616925
3179,0776;0,0618741
3180,0420;0,0620584
3181,0061;0,0622442
3181,9705;0,0624308
3182,9346;0,0626194
3183,8989;0,062813
3184,8630;0,0630146
3185,8274;0,0632238
3186,7915;0,0634362
3187,7559;0,0636441
3188,7200;0,06384
3189,6843;0,0640198
3190,6484;0,0641848
3191,6128;0,0643408
3192,5769;0,0644955
3193,5413;0,064656
3194,5054;0,0648264
3195,4697;0,0650077
3196,4338;0,0651974
3197,3982;0,0653909
3198,3623;0,0655825
3199,3267;0,0657669
3200,2908;0,0659409
3201,2551;0,0661053
3202,2192;0,0662645
3203,1836;0,066426
3204,1477;0,066597
3205,1121;0,0667819
3206,0762;0,0669798
3207,0405;0,0671843
3208,0046;0,0673858
3208,9690;0,0675747
3209,9331;0,0677452
3210,8975;0,0678984
3211,8616;0,0680425
3212,8259;0,0681902
3213,7900;0,0683542
3214,7544;0,068541
3215,7185;0,0687474
3216,6829;0,0689605
3217,6470;0,0691625
3218,6113;0,0693395
3219,5754;0,0694886
3220,5398;0,0696201
3221,5039;0,0697526
3222,4683;0,0699038
3223,4324;0,0700802
3224,3967;0,0702751
3225,3608;0,0704725
3226,3252;0,070658
3227,2893;0,0708269
3228,2537;0,0709862
3229,2178;0,0711493
3230,1821;0,0713263
3231,1462;0,0715167
3232,1106;0,0717108
3233,0747;0,0718957
3234,0391;0,0720637
3235,0032;0,0722168
3235,9675;0,0723642
3236,9316;0,0725171
3237,8960;0,0726836
3238,8601;0,0728665
3239,8245;0,0730637
3240,7886;0,0732703
3241,7529;0,0734787
3242,7170;0,0736807
3243,6814;0,0738684
3244,6455;0,0740386
3245,6099;0,0741944
3246,5740;0,0743451
3247,5383;0,0745017
3248,5024;0,0746721
3249,4668;0,0748584
3250,4309;0,0750579
3251,3953;0,0752654
3252,3594;0,0754761
3253,3237;0,0756864
3254,2878;0,0758937
3255,2522;0,0760969
3256,2163;0,0762958
3257,1807;0,0764917
3258,1448;0,0766862
3259,1091;0,07688
3260,0732;0,0770719
3261,0376;0,0772597
3262,0017;0,0774418
3262,9661;0,0776198
3263,9302;0,0777988
3264,8945;0,0779848
3265,8586;0,0781813
3266,8230;0,0783855
3267,7871;0,0785893
3268,7515;0,0787814
3269,7156;0,078952
3270,6799;0,079097
3271,6440;0,0792189
3272,6084;0,0793252
3273,5725;0,0794242
3274,5369;0,0795221
3275,5010;0,0796212
3276,4653;0,0797213
3277,4294;0,0798223
3278,3938;0,0799249
3279,3579;0,0800294
3280,3223;0,0801338
3281,2864;0,0802326
3282,2507;0,0803181
3283,2148;0,0803852
3284,1792;0,0804346
3285,1433;0,0804732
3286,1077;0,0805105
3287,0718;0,0805532
3288,0361;0,0806021
3289,0002;0,0806525
3289,9646;0,080698
3290,9287;0,0807348
3291,8931;0,080764
3292,8572;0,080789
3293,8215;0,0808131
3294,7856;0,0808363
3295,7500;0,0808551
3296,7141;0,0808658
3297,6785;0,0808668
3298,6426;0,0808605
3299,6069;0,0808529
3300,5710;0,0808512
3301,5354;0,0808609
3302,4995;0,0808834
3303,4639;0,0809159
3304,4280;0,0809524
3305,3923;0,0809861
3306,3564;0,0810128
3307,3208;0,0810318
3308,2849;0,0810463
3309,2493;0,0810611
3310,2134;0,0810807
3311,1777;0,0811075
3312,1418;0,081142
3313,1062;0,0811834
3314,0703;0,0812303
3315,0347;0,0812817
3315,9988;0,0813374
3316,9631;0,0813996
3317,9272;0,0814732
3318,8916;0,0815642
3319,8557;0,0816761
3320,8201;0,0818059
3321,7842;0,0819424
3322,7485;0,0820693
3323,7126;0,0821719
3324,6770;0,0822437
3325,6411;0,0822897
3326,6055;0,0823229
3327,5696;0,0823578
3328,5339;0,0824058
3329,4980;0,0824718
3330,4624;0,0825557
3331,4265;0,0826532
3332,3909;0,0827556
3333,3550;0,0828482
3334,3193;0,0829121
3335,2834;0,0829298
3336,2478;0,0828936
3337,2119;0,0828106
3338,1763;0,0826999
3339,1404;0,0825833
3340,1047;0,082475
3341,0688;0,082377
3342,0332;0,0822819
3342,9973;0,0821806
3343,9617;0,0820689
3344,9258;0,0819495
3345,8901;0,0818284
3346,8542;0,0817092
3347,8186;0,081591
3348,7827;0,081469
3349,7471;0,081338
3350,7112;0,0811955
3351,6755;0,0810416
3352,6396;0,0808786
3353,6040;0,0807088
3354,5681;0,0805344
3355,5325;0,0803579
3356,4966;0,0801821
3357,4609;0,0800098
3358,4250;0,079842
3359,3894;0,0796776
3360,3535;0,0795152
3361,3179;0,0793545
3362,2820;0,0791987
3363,2463;0,0790528
3364,2104;0,0789197
3365,1748;0,0787961
3366,1389;0,0786706
3367,1033;0,0785278
3368,0674;0,0783555
3369,0317;0,0781508
3369,9958;0,0779231
3370,9602;0,0776887
3371,9243;0,0774645
3372,8887;0,07726
3373,8528;0,0770752
3374,8171;0,0769029
3375,7813;0,0767342
3376,7456;0,0765639
3377,7097;0,0763922
3378,6741;0,0762233
3379,6382;0,0760613
3380,6025;0,0759061
3381,5667;0,0757525
3382,5310;0,0755923
3383,4951;0,07542
3384,4595;0,0752372
3385,4236;0,0750549
3386,3879;0,0748889
3387,3521;0,0747518
3388,3164;0,0746455
3389,2805;0,0745593
3390,2449;0,0744734
3391,2090;0,0743675
3392,1733;0,0742294
3393,1375;0,0740594
3394,1018;0,0738681
3395,0659;0,0736698
3396,0303;0,0734759
3396,9944;0,0732912
3397,9587;0,0731143
3398,9229;0,0729386
3399,8872;0,072756
3400,8513;0,0725603
3401,8157;0,0723501
3402,7798;0,0721305
3403,7441;0,0719106
3404,7083;0,0716999
3405,6726;0,0715033
3406,6367;0,0713193
3407,6011;0,0711408
3408,5652;0,0709585
3409,5295;0,0707636
3410,4937;0,070551
3411,4580;0,0703211
3412,4221;0,0700811
3413,3865;0,0698449
3414,3506;0,0696284
3415,3149;0,0694423
3416,2791;0,0692858
3417,2434;0,0691432
3418,2075;0,0689885
3419,1719;0,0687952
3420,1360;0,068549
3421,1003;0,0682549
3422,0645;0,0679344
3423,0288;0,0676152
3423,9929;0,0673183
3424,9573;0,067053
3425,9214;0,0668167
3426,8857;0,0665995
3427,8499;0,0663891
3428,8142;0,0661752
3429,7783;0,0659517
3430,7427;0,0657171
3431,7068;0,065473
3432,6711;0,0652216
3433,6353;0,0649658
3434,5996;0,0647088
3435,5637;0,0644551
3436,5281;0,0642091
3437,4922;0,0639731
3438,4565;0,0637464
3439,4207;0,0635266
3440,3850;0,0633115
3441,3491;0,0631008
3442,3135;0,0628927
3443,2776;0,0626803
3444,2419;0,0624492
3445,2061;0,0621822
3446,1704;0,0618703
3447,1345;0,0615235
3448,0989;0,0611702
3449,0630;0,0608428
3450,0273;0,0605596
3450,9915;0,0603164
3451,9558;0,0600935
3452,9199;0,0598692
3453,8843;0,0596326
3454,8484;0,0593882
3455,8127;0,0591493
3456,7769;0,0589262
3457,7412;0,0587166
3458,7053;0,0585052
3459,6697;0,0582735
3460,6338;0,0580111
3461,5981;0,0577232
3462,5623;0,0574271
3463,5266;0,0571411
3464,4907;0,0568735
3465,4551;0,0566203
3466,4192;0,0563709
3467,3835;0,0561184
3468,3477;0,055864
3469,3120;0,0556141
3470,2761;0,0553715
3471,2405;0,0551313
3472,2046;0,0548844
3473,1689;0,0546282
3474,1331;0,0543745
3475,0974;0,0541455
3476,0615;0,0539593
3477,0259;0,0538126
3477,9900;0,0536768
3478,9543;0,0535095
3479,9185;0,0532767
3480,8828;0,0529746
3481,8469;0,0526345
3482,8113;0,0523047
3483,7754;0,0520195
3484,7397;0,0517805
3485,7039;0,0515607
3486,6682;0,0513269
3487,6323;0,0510637
3488,5967;0,050785
3489,5608;0,0505233
3490,5251;0,0503049
3491,4893;0,0501292
3492,4536;0,0499666
3493,4177;0,0497774
3494,3821;0,0495397
3495,3462;0,0492701
3496,3105;0,0490187
3497,2747;0,0488372
3498,2390;0,0487418
3499,2031;0,0486976
3500,1675;0,0486328
3501,1316;0,0484748
3502,0959;0,0481938
3503,0601;0,0478271
3504,0244;0,047458
3504,9885;0,0471574
3505,9529;0,04694
3506,9170;0,0467645
3507,8813;0,0465682
3508,8455;0,046306
3509,8098;0,0459778
3510,7739;0,0456257
3511,7383;0,0453038
3512,7024;0,0450426
3513,6667;0,0448361
3514,6309;0,0446564
3515,5952;0,044477
3516,5593;0,044291
3517,5237;0,0441143
3518,4878;0,0439724
3519,4521;0,0438828
3520,4163;0,0438418
3521,3806;0,0438223
3522,3447;0,0437825
3523,3091;0,043681
3524,2732;0,0434895
3525,2375;0,0431976
3526,2017;0,0428127
3527,1660;0,042361
3528,1301;0,0418893
3529,0945;0,0414595
3530,0586;0,0411272
3531,0229;0,0409168
3531,9871;0,0408097
3532,9514;0,0407531
3533,9155;0,0406793
3534,8799;0,0405318
3535,8440;0,0402889
3536,8083;0,0399782
3537,7725;0,0396671
3538,7368;0,039431
3539,7009;0,039318
3540,6653;0,0393308
3541,6294;0,0394241
3542,5938;0,0395109
3543,5579;0,0394842
3544,5222;0,0392635
3545,4863;0,0388535
3546,4507;0,0383559
3547,4148;0,0379032
3548,3792;0,0375722
3549,3433;0,0373532
3550,3076;0,0371788
3551,2717;0,0369761
3552,2361;0,0367124
3553,2002;0,0364148
3554,1646;0,0361454
3555,1287;0,0359494
3556,0930;0,0358241
3557,0571;0,0357301
3558,0215;0,0356276
3558,9856;0,0355111
3559,9500;0,0354188
3560,9141;0,0354078
3561,8784;0,0355072
3562,8425;0,0356828
3563,8069;0,0358246
3564,7710;0,0357559
3565,7354;0,0353034
3566,6995;0,0344635
3567,6638;0,0335011
3568,6279;0,0327561
3569,5923;0,0323668
3570,5564;0,0322469
3571,5208;0,0322327
3572,4849;0,0321995
3573,4492;0,0320991
3574,4133;0,0319461
3575,3777;0,0317785
3576,3418;0,0316191
3577,3062;0,0314623
3578,2703;0,0312941
3579,2346;0,0311238
3580,1987;0,0309941
3581,1631;0,0309542
3582,1272;0,0310177
3583,0916;0,0311386
3584,0557;0,0312137
3585,0200;0,0311042
3585,9841;0,0306967
3586,9485;0,0300264
3587,9126;0,0293394
3588,8770;0,0289218
3589,8411;0,0288632
3590,8054;0,0290404
3591,7695;0,0292558
3592,7339;0,0293505
3593,6980;0,0292569
3594,6624;0,0290099
3595,6265;0,028708
3596,5908;0,0284293
3597,5549;0,0281752
3598,5193;0,0278971
3599,4834;0,0275701
3600,4478;0,0272418
3601,4119;0,027006
3602,3762;0,0269246
3603,3403;0,0269737
3604,3047;0,0270582
3605,2688;0,0270635
3606,2332;0,0269082
3607,1973;0,0265861
3608,1616;0,0261802
3609,1257;0,0258155
3610,0901;0,0255771
3611,0542;0,0254709
3612,0186;0,0254519
3612,9827;0,0254714
3613,9470;0,0254978
3614,9111;0,0255024
3615,8755;0,0254355
3616,8396;0,0252227
3617,8040;0,024802
3618,7681;0,0242048
3619,7324;0,02361
3620,6965;0,0232565
3621,6609;0,0232632
3622,6250;0,0235584
3623,5894;0,0239607
3624,5535;0,0242787
3625,5178;0,0243526
3626,4819;0,0240528
3627,4463;0,0233193
3628,4104;0,0223109
3629,3748;0,0214509
3630,3389;0,0210779
3631,3032;0,0211473
3632,2673;0,0213864
3633,2317;0,0215616
3634,1958;0,0215858
3635,1602;0,0214989
3636,1243;0,0213928
3637,0886;0,0213345
3638,0527;0,0213304
3639,0171;0,0213478
3639,9812;0,0213617
3640,9456;0,0213824
3641,9097;0,0214445
3642,8740;0,0215711
3643,8381;0,0217471
3644,8025;0,0219117
3645,7666;0,0219472
3646,7310;0,021642
3647,6951;0,0207319
3648,6594;0,0192553
3649,6235;0,0178699
3650,5879;0,0172473
3651,5520;0,0173984
3652,5164;0,0179149
3653,4805;0,0184034
3654,4448;0,0186441
3655,4089;0,0186024
3656,3733;0,0183996
3657,3374;0,0182233
3658,3018;0,0181861
3659,2659;0,0182599
3660,2302;0,0183439
3661,1943;0,0183735
3662,1587;0,0183695
3663,1228;0,0184029
3664,0872;0,0185167
3665,0513;0,018676
3666,0156;0,0187809
3666,9797;0,0187188
3667,9441;0,0184275
3668,9082;0,0179682
3669,8726;0,0175434
3670,8367;0,0173512
3671,8010;0,0173983
3672,7651;0,0175076
3673,7295;0,017458
3674,6936;0,0171237
3675,6580;0,0166026
3676,6221;0,0161939
3677,5864;0,0161162
3678,5505;0,0163241
3679,5149;0,016641
3680,4790;0,0169421
3681,4434;0,0172059
3682,4075;0,0174679
3683,3718;0,0177502
3684,3359;0,0180227
3685,3003;0,0182111
3686,2644;0,0182238
3687,2288;0,0179777
3688,1929;0,0174512
3689,1572;0,0167862
3690,1213;0,0162793
3691,0857;0,016142
3692,0498;0,0163419
3693,0142;0,0167128
3693,9783;0,0171102
3694,9426;0,0174639
3695,9067;0,0177566
3696,8711;0,0179832
3697,8352;0,0181222
3698,7996;0,0181335
3699,7637;0,0179827
3700,7280;0,017686
3701,6921;0,0173429
3702,6565;0,0171056
3703,6206;0,0170824
3704,5850;0,0172712
3705,5491;0,0175793
3706,5134;0,0178851
3707,4775;0,0180747
3708,4419;0,0180423
3709,4060;0,0176992
3710,3704;0,0170602
3711,3345;0,0163555
3712,2988;0,015922
3713,2629;0,015922
3714,2273;0,0162669
3715,1914;0,0167649
3716,1558;0,017256
3717,1199;0,0176571
3718,0842;0,0179547
3719,0483;0,0181765
3720,0127;0,0183581
3720,9768;0,0185122
3721,9412;0,0186132
3722,9053;0,0186131
3723,8696;0,0184834
3724,8337;0,0182563
3725,7981;0,0180227
3726,7622;0,0178785
3727,7266;0,0178695
3728,6907;0,017987
3729,6550;0,0182024
3730,6191;0,0184907
3731,5835;0,0188092
3732,5476;0,0190382
3733,5120;0,0189619
3734,4761;0,0184267
3735,4404;0,0176091
3736,4045;0,0169599
3737,3689;0,0167878
3738,3330;0,0170514
3739,2974;0,0174984
3740,2615;0,0178562
3741,2258;0,017927
3742,1899;0,0176262
3743,1543;0,0170299
3744,1184;0,0164162
3745,0828;0,0161327
3746,0469;0,0162921
3747,0112;0,0166761
3747,9753;0,0169262
3748,9397;0,0167441
3749,9038;0,0160549
3750,8682;0,0151748
3751,8323;0,0146695
3752,7966;0,0148285
3753,7607;0,0154716
3754,7251;0,0162347
3755,6892;0,0168241
3756,6536;0,0170872
3757,6177;0,0170174
3758,5820;0,0167507
3759,5461;0,0165017
3760,5105;0,0164303
3761,4746;0,0165549
3762,4390;0,0167885
3763,4031;0,0170211
3764,3674;0,0171736
3765,3315;0,0172094
3766,2959;0,0171246
3767,2600;0,0169313
3768,2244;0,0166542
3769,1885;0,0163442
3770,1528;0,0160913
3771,1169;0,0159976
3772,0813;0,0161165
3773,0454;0,0164139
3774,0098;0,0167863
3774,9739;0,0171092
3775,9382;0,0172792
3776,9023;0,0172454
3777,8667;0,0170363
3778,8308;0,0167639
3779,7952;0,0165684
3780,7593;0,0165258
3781,7236;0,0166099
3782,6877;0,0167346
3783,6521;0,0168173
3784,6162;0,0168197
3785,5806;0,0167563
3786,5447;0,0166768
3787,5090;0,0166367
3788,4731;0,0166712
3789,4375;0,0167832
3790,4016;0,0169464
3791,3660;0,0171188
3792,3301;0,0172612
3793,2944;0,0173559
3794,2585;0,0174137
3795,2229;0,0174608
3796,1870;0,0175078
3797,1514;0,0175187
3798,1155;0,0174136
3799,0798;0,017115
3800,0439;0,0166315
3801,0083;0,0161169
3801,9724;0,0157987
3802,9368;0,0157835
3803,9009;0,0159649
3804,8652;0,0161282
3805,8293;0,016122
3806,7937;0,0159729
3807,7578;0,0158732
3808,7222;0,0160149
3809,6863;0,0164154
3810,6506;0,0169193
3811,6147;0,0173258
3812,5791;0,0174982
3813,5432;0,0174128
3814,5076;0,0171662
3815,4717;0,0169282
3816,4360;0,0168229
3817,4001;0,0168217
3818,3645;0,0167717
3819,3286;0,0165382
3820,2930;0,0161495
3821,2571;0,0158215
3822,2214;0,0157832
3823,1855;0,0160723
3824,1499;0,0165357
3825,1140;0,016975
3826,0784;0,0172599
3827,0425;0,0173598
3828,0068;0,0173206
3828,9709;0,0172179
3829,9353;0,0171147
3830,8994;0,0170442
3831,8638;0,0170174
3832,8279;0,0170339
3833,7922;0,017084
3834,7563;0,0171441
3835,7207;0,0171758
3836,6848;0,0171411
3837,6492;0,0170333
3838,6133;0,0168995
3839,5776;0,0168068
3840,5417;0,0167772
3841,5061;0,0167739
3842,4702;0,0167559
3843,4346;0,0167357
3844,3987;0,0167849
3845,3630;0,0169821
3846,3271;0,0173491
3847,2915;0,0178258
3848,2556;0,0182929
3849,2200;0,0186059
3850,1841;0,018606
3851,1484;0,0181136
3852,1125;0,0170201
3853,0769;0,0156113
3854,0410;0,0146339
3855,0054;0,0145587
3855,9695;0,0151892
3856,9338;0,0160908
3857,8979;0,0169501
3858,8623;0,0176211
3859,8264;0,0180597
3860,7908;0,0182641
3861,7549;0,0182504
3862,7192;0,0180713
3863,6833;0,0178345
3864,6477;0,0176601
3865,6118;0,0176045
3866,5762;0,0176387
3867,5403;0,0176882
3868,5046;0,0176787
3869,4688;0,0175663
3870,4331;0,0173586
3871,3972;0,017121
3872,3616;0,0169481
3873,3257;0,0169125
3874,2900;0,0170321
3875,2542;0,0172709
3876,2185;0,0175612
3877,1826;0,0178298
3878,1470;0,0180214
3879,1111;0,0181134
3880,0754;0,0181191
3881,0396;0,0180653
3882,0039;0,0179567
3882,9680;0,0177704
3883,9324;0,0175034
3884,8965;0,0172265
3885,8608;0,0170679
3886,8250;0,0171174
3887,7893;0,0173448
3888,7534;0,0176125
3889,7178;0,0177591
3890,6819;0,0177004
3891,6462;0,0175038
3892,6104;0,0173575
3893,5747;0,0174153
3894,5388;0,0176803
3895,5032;0,0180427
3896,4673;0,0183796
3897,4316;0,0186157
3898,3958;0,018731
3899,3601;0,0187387
3900,3242;0,0186505
3901,2886;0,0184505
3902,2527;0,0181128
3903,2170;0,017662
3904,1812;0,0172058
3905,1455;0,0168779
3906,1096;0,0167454
3907,0740;0,016782
3908,0381;0,0169149
3909,0024;0,017082
3909,9666;0,0172598
3910,9309;0,0174567
3911,8950;0,0176864
3912,8594;0,0179394
3913,8235;0,0181696
3914,7878;0,0183053
3915,7520;0,0182864
3916,7163;0,0181149
3917,6804;0,0178818
3918,6448;0,0177214
3919,6089;0,0177194
3920,5732;0,0178585
3921,5374;0,0180412
3922,5017;0,0181541
3923,4658;0,0181361
3924,4302;0,0180184
3925,3943;0,0179049
3926,3586;0,0178955
3927,3228;0,0180169
3928,2871;0,0182126
3929,2512;0,0183773
3930,2156;0,0184099
3931,1797;0,0182685
3932,1440;0,0180011
3933,1082;0,0177175
3934,0725;0,0175181
3935,0366;0,0174477
3936,0010;0,0174987
3936,9651;0,0176369
3937,9294;0,0178197
3938,8936;0,0180018
3939,8579;0,0181396
3940,8220;0,0182038
3941,7864;0,0181987
3942,7505;0,0181672
3943,7148;0,0181665
3944,6790;0,0182256
3945,6433;0,0183213
3946,6074;0,0183898
3947,5718;0,0183642
3948,5359;0,0182179
3949,5002;0,017988
3950,4644;0,0177564
3951,4287;0,0175987
3952,3928;0,017545
3953,3572;0,0175787
3954,3213;0,017661
3955,2856;0,0177559
3956,2498;0,0178428
3957,2141;0,0179139
3958,1782;0,0179653
3959,1426;0,0179895
3960,1067;0,0179783
3961,0710;0,0179302
3962,0352;0,0178568
3962,9995;0,0177802
3963,9636;0,0177221
3964,9280;0,0176943
3965,8921;0,0176953
3966,8564;0,0177157
3967,8206;0,0177458
3968,7849;0,017781
3969,7490;0,0178213
3970,7134;0,0178657
3971,6775;0,0179074
3972,6418;0,017933
3973,6060;0,01793
3974,5703;0,0178947
3975,5344;0,0178372
3976,4988;0,0177768
3977,4629;0,0177311
3978,4272;0,0177062
3979,3914;0,0176956
3980,3557;0,0176865
3981,3198;0,01767
3982,2842;0,0176482
3983,2483;0,0176336
3984,2126;0,0176399
3985,1768;0,0176729
3986,1411;0,0177258
3987,1052;0,0177819
3988,0696;0,0178232
3989,0337;0,0178382
3989,9980;0,0178263
3990,9622;0,0177959
3991,9265;0,017758
3992,8906;0,0177212
3993,8550;0,0176894
3994,8191;0,0176633
3995,7834;0,0176429
3996,7476;0,0176287
3997,7119;0,0176216
3998,6760;0,0176221
3999,6404;0,0176304
4000,6045;0,0178136

##### Extended Information
[Comments]
Sample name
Comment
Username
Division
Organization;UNIVERSIDAD INDUSTRIAL DE SANTANDER

[Detailed Information]
Creation date;26/03/2025 5:31 p.m.

Data array type;Linear data array
Horizontal axis;Wavenumber [cm-1]
Vertical axis;Abs
Start;399,193 cm-1
End;4000,6 cm-1
Data interval;0,964233 cm-1
Data points;3736    

[Measurement Information]
Model name;FT/IR-4X1typeA
Serial No.;A035162111

Accessory;ATR PRO 4X
Accessory S/N;A021162126
Incident angle;45 deg

Measurement date;26/03/2025 5:27 p.m.

Light source;Standard
Detector;TGS
Accumulation;40
Resolution;4 cm-1
Zero filling;On
Apodization;Cosine
Gain;Auto (8)
Aperture;Auto (7 mm)
Scan speed;Auto (2 mm/sec)
Filter;Auto (12800 Hz)

