TITLE;
DATA TYPE;INFRARED SPECTRUM
ORIGIN;JASCO
OWNER;
DATE;25/03/26
TIME;16:44:04
SPECTROMETER/DATA SYSTEM;
LOCALE;9226
RESOLUTION;
DELTAX;0,964233
XUNITS;1/CM
YUNITS;ABSORBANCE
FIRSTX;  399,1927
LASTX; 4000,6047
NPOINTS;    3736
FIRSTY;     0,18871
MAXY;     0,26799
MINY;     0,01467
XYDATA
399,1927;0,188711
400,1569;0,188514
401,1211;0,189104
402,0854;0,189887
403,0496;0,190429
404,0138;0,190612
404,9781;0,190579
405,9423;0,19058
406,9065;0,190785
407,8708;0,191179
408,8350;0,191626
409,7992;0,192024
410,7635;0,192411
411,7277;0,192926
412,6919;0,193663
413,6562;0,194582
414,6204;0,195537
415,5846;0,19637
416,5489;0,196982
417,5131;0,19738
418,4773;0,197701
419,4416;0,198132
420,4058;0,198746
421,3700;0,199476
422,3343;0,200237
423,2985;0,200984
424,2627;0,201683
425,2270;0,202284
426,1912;0,202731
427,1554;0,202998
428,1197;0,203109
429,0839;0,203125
430,0481;0,203113
431,0124;0,20312
431,9766;0,203168
432,9408;0,20326
433,9051;0,203379
434,8693;0,203488
435,8335;0,203528
436,7978;0,203441
437,7620;0,2032
438,7262;0,202835
439,6905;0,202424
440,6547;0,202061
441,6189;0,201816
442,5832;0,201697
443,5474;0,201645
444,5116;0,201561
445,4759;0,201359
446,4401;0,201
447,4043;0,200486
448,3686;0,199847
449,3328;0,199125
450,2970;0,198373
451,2613;0,197645
452,2255;0,196987
453,1897;0,196423
454,1540;0,195971
455,1182;0,195663
456,0824;0,195549
457,0467;0,195675
458,0109;0,196006
458,9751;0,196387
459,9394;0,196593
460,9036;0,196449
461,8678;0,195903
462,8321;0,19503
463,7963;0,194022
464,7605;0,193144
465,7248;0,192642
466,6890;0,192619
467,6532;0,192964
468,6175;0,193397
469,5817;0,193605
470,5459;0,193398
471,5102;0,192826
472,4744;0,192187
473,4386;0,191841
474,4029;0,19197
475,3671;0,192494
476,3313;0,193179
477,2956;0,193794
478,2598;0,19421
479,2240;0,194411
480,1883;0,194452
481,1525;0,194415
482,1167;0,194383
483,0810;0,194431
484,0452;0,194621
485,0094;0,194975
485,9737;0,195449
486,9379;0,195938
487,9021;0,196333
488,8664;0,196562
489,8306;0,196623
490,7948;0,196572
491,7591;0,196491
492,7233;0,196449
493,6875;0,196474
494,6518;0,196568
495,6160;0,196726
496,5802;0,196959
497,5445;0,197287
498,5087;0,197724
499,4729;0,198263
500,4372;0,198855
501,4014;0,19942
502,3656;0,19987
503,3299;0,200159
504,2941;0,200303
505,2583;0,200379
506,2226;0,200481
507,1868;0,200681
508,1510;0,200998
509,1153;0,201408
510,0795;0,201867
511,0437;0,202341
512,0080;0,202828
512,9722;0,203347
513,9365;0,203917
514,9007;0,204547
515,8649;0,205224
516,8292;0,205906
517,7934;0,206529
518,7576;0,207017
519,7219;0,207312
520,6861;0,207401
521,6503;0,207317
522,6146;0,207127
523,5788;0,206909
524,5430;0,20673
525,5073;0,206622
526,4715;0,206566
527,4357;0,20652
528,4000;0,206447
529,3642;0,206344
530,3284;0,206239
531,2927;0,206154
532,2569;0,206081
533,2211;0,205971
534,1854;0,205756
535,1496;0,20539
536,1138;0,204893
537,0781;0,20435
538,0423;0,203882
539,0065;0,203584
539,9708;0,203491
540,9350;0,203567
541,8992;0,203747
542,8635;0,203979
543,8277;0,204254
544,7919;0,204588
545,7562;0,204994
546,7204;0,205446
547,6846;0,20588
548,6489;0,206233
549,6131;0,206481
550,5773;0,206665
551,5416;0,206866
552,5058;0,207164
553,4700;0,207591
554,4343;0,208115
555,3985;0,208641
556,3627;0,209042
557,3270;0,209198
558,2912;0,209028
559,2554;0,208514
560,2197;0,207701
561,1839;0,206693
562,1481;0,20562
563,1124;0,204606
564,0766;0,20373
565,0408;0,203009
566,0051;0,202408
566,9693;0,201863
567,9335;0,201324
568,8978;0,200769
569,8620;0,200212
570,8262;0,199687
571,7905;0,199226
572,7547;0,198852
573,7189;0,198574
574,6832;0,198392
575,6474;0,198295
576,6116;0,198263
577,5759;0,198266
578,5401;0,198271
579,5043;0,198252
580,4686;0,19819
581,4328;0,198075
582,3970;0,1979
583,3613;0,197664
584,3255;0,197378
585,2897;0,19707
586,2540;0,196786
587,2182;0,196576
588,1824;0,196471
589,1467;0,196473
590,1109;0,196543
591,0751;0,196615
592,0394;0,196623
593,0036;0,196531
593,9678;0,196343
594,9321;0,196089
595,8963;0,195799
596,8605;0,195483
597,8248;0,195127
598,7890;0,194708
599,7532;0,194212
600,7175;0,193646
601,6817;0,193041
602,6459;0,192436
603,6102;0,191867
604,5744;0,191352
605,5386;0,190881
606,5029;0,190418
607,4671;0,189906
608,4313;0,189288
609,3956;0,188537
610,3598;0,18768
611,3240;0,186793
612,2883;0,185976
613,2525;0,185303
614,2167;0,184777
615,1810;0,184315
616,1452;0,18377
617,1094;0,182994
618,0737;0,181909
619,0379;0,180546
620,0021;0,179017
620,9664;0,177449
621,9306;0,175942
622,8948;0,174555
623,8591;0,173324
624,8233;0,172254
625,7875;0,171376
626,7518;0,17067
627,7160;0,170089
628,6802;0,169572
629,6445;0,169063
630,6087;0,168529
631,5729;0,167967
632,5372;0,167393
633,5014;0,166825
634,4656;0,166273
635,4299;0,165734
636,3941;0,165203
637,3583;0,164681
638,3226;0,164179
639,2868;0,163714
640,2510;0,163301
641,2153;0,162949
642,1795;0,16266
643,1437;0,162426
644,1080;0,162236
645,0722;0,162069
646,0364;0,161897
647,0007;0,161686
647,9649;0,161408
648,9291;0,161057
649,8934;0,160661
650,8576;0,16028
651,8218;0,159983
652,7861;0,159824
653,7503;0,159821
654,7145;0,159949
655,6788;0,16016
656,6430;0,160398
657,6072;0,16062
658,5715;0,160796
659,5357;0,160884
660,4999;0,160826
661,4642;0,160569
662,4284;0,160104
663,3926;0,159468
664,3569;0,158749
665,3211;0,158093
666,2853;0,157703
667,2496;0,157671
668,2138;0,15767
669,1780;0,157124
670,1423;0,155952
671,1065;0,154474
672,0707;0,15286
673,0350;0,15111
673,9992;0,149226
674,9634;0,147267
675,9277;0,145334
676,8919;0,14351
677,8561;0,141824
678,8204;0,140271
679,7846;0,138855
680,7488;0,137606
681,7131;0,136557
682,6773;0,135704
683,6415;0,134997
684,6058;0,134358
685,5700;0,133722
686,5342;0,133053
687,4985;0,132344
688,4627;0,131615
689,4269;0,130889
690,3912;0,130196
691,3554;0,129562
692,3196;0,129003
693,2839;0,128517
694,2481;0,128085
695,2123;0,127683
696,1766;0,127281
697,1408;0,126856
698,1050;0,126383
699,0693;0,125845
700,0335;0,125233
700,9977;0,124556
701,9620;0,123842
702,9262;0,123136
703,8904;0,122474
704,8547;0,121875
705,8189;0,12133
706,7831;0,120808
707,7474;0,120276
708,7116;0,119721
709,6758;0,119147
710,6401;0,118567
711,6043;0,117986
712,5685;0,117395
713,5328;0,116786
714,4970;0,116168
715,4612;0,115324
716,4255;0,114832
717,3897;0,114412
718,3539;0,114004
719,3182;0,113503
720,2824;0,112818
721,2466;0,111923
722,2109;0,110882
723,1751;0,109799
724,1393;0,108765
725,1036;0,107823
726,0678;0,106969
727,0320;0,106174
727,9963;0,105412
728,9605;0,104668
729,9247;0,103936
730,8890;0,103217
731,8532;0,102508
732,8174;0,101816
733,7817;0,101157
734,7459;0,100555
735,7101;0,10003
736,6744;0,0995884
737,6386;0,0992126
738,6028;0,0988664
739,5671;0,0985087
740,5313;0,0981094
741,4955;0,0976602
742,4598;0,0971724
743,4240;0,0966662
744,3882;0,0961579
745,3525;0,0956539
746,3167;0,095153
747,2809;0,0946537
748,2452;0,0941603
749,2094;0,0936808
750,1736;0,0932215
751,1379;0,092781
752,1021;0,0923503
753,0663;0,0919173
754,0306;0,0914736
754,9948;0,0910176
755,9590;0,0905537
756,9233;0,0900872
757,8875;0,0896207
758,8517;0,0891534
759,8160;0,0886833
760,7802;0,0882128
761,7444;0,087751
762,7087;0,0873118
763,6729;0,0869078
764,6371;0,0865414
765,6014;0,0862009
766,5656;0,0858641
767,5298;0,0855085
768,4941;0,0851236
769,4583;0,0847163
770,4225;0,0843073
771,3868;0,0839214
772,3510;0,0835775
773,3152;0,0832834
774,2795;0,0830363
775,2437;0,0828257
776,2079;0,0826366
777,1722;0,0824509
778,1364;0,0822507
779,1006;0,0820224
780,0649;0,0817605
781,0291;0,0814666
781,9933;0,0811443
782,9576;0,0807934
783,9218;0,080408
784,8860;0,0799828
785,8503;0,079523
786,8145;0,0790514
787,7787;0,0786049
788,7430;0,0782214
789,7072;0,0779236
790,6714;0,0777087
791,6357;0,0775512
792,5999;0,0774153
793,5641;0,077271
794,5284;0,0771046
795,4926;0,076919
796,4568;0,0767266
797,4211;0,0765405
798,3853;0,0763678
799,3495;0,0762084
800,3138;0,076057
801,2780;0,0759069
802,2422;0,0757523
803,2065;0,0755913
804,1707;0,0754265
805,1349;0,0752649
806,0992;0,0751149
807,0634;0,0749818
808,0276;0,074864
808,9919;0,0747522
809,9561;0,0746342
810,9203;0,0745017
811,8846;0,0743555
812,8488;0,0742047
813,8130;0,0740606
814,7773;0,0739282
815,7415;0,0738025
816,7057;0,0736723
817,6700;0,0735296
818,6342;0,0733782
819,5984;0,0732339
820,5627;0,0731165
821,5269;0,0730379
822,4911;0,0729949
823,4554;0,0729711
824,4196;0,0729479
825,3839;0,0729157
826,3481;0,0728772
827,3123;0,072842
828,2766;0,0728147
829,2408;0,0727872
830,2050;0,0727392
831,1693;0,0726473
832,1335;0,0724973
833,0977;0,0722905
834,0620;0,072042
835,0262;0,0717734
835,9904;0,0715037
836,9547;0,0712461
837,9189;0,071008
838,8831;0,0707929
839,8474;0,0706017
840,8116;0,0704308
841,7758;0,0702709
842,7401;0,0701092
843,7043;0,069934
844,6685;0,0697405
845,6328;0,0695331
846,5970;0,0693239
847,5612;0,0691279
848,5255;0,0689577
849,4897;0,0688216
850,4539;0,0687225
851,4182;0,0686582
852,3824;0,0686201
853,3466;0,0685932
854,3109;0,0685585
855,2751;0,0685009
856,2393;0,0684172
857,2036;0,0683223
858,1678;0,0682454
859,1320;0,0682184
860,0963;0,0682616
861,0605;0,068373
862,0247;0,0685299
862,9890;0,068699
863,9532;0,0688518
864,9174;0,0689758
865,8817;0,0690771
866,8459;0,0691758
867,8101;0,0692955
868,7744;0,0694544
869,7386;0,0696583
870,7028;0,0698993
871,6671;0,0701582
872,6313;0,0704111
873,5955;0,070638
874,5598;0,0708301
875,5240;0,0709917
876,4882;0,0711371
877,4525;0,0712835
878,4167;0,0714448
879,3809;0,0716312
880,3452;0,0718525
881,3094;0,0721228
882,2736;0,0724617
883,2379;0,0728893
884,2021;0,0734191
885,1663;0,074053
886,1306;0,0747819
887,0948;0,0755915
888,0590;0,0764697
889,0233;0,0774082
889,9875;0,0784
890,9517;0,0794313
891,9160;0,0804738
892,8802;0,0814819
893,8444;0,0823973
894,8087;0,0831589
895,7729;0,0837158
896,7371;0,0840391
897,7014;0,084126
898,6656;0,0839977
899,6298;0,083689
900,5941;0,0832363
901,5583;0,0826699
902,5225;0,0820127
903,4868;0,0812857
904,4510;0,0805157
905,4152;0,0797397
906,3795;0,0790013
907,3437;0,0783426
908,3079;0,0777931
909,2722;0,077364
910,2364;0,0770487
911,2007;0,0768302
912,1649;0,0766914
913,1292;0,0766217
914,0934;0,0766193
915,0576;0,0766862
916,0219;0,0768209
916,9861;0,0770131
917,9503;0,0772447
918,9146;0,0774953
919,8788;0,0777509
920,8430;0,0780081
921,8073;0,0782718
922,7715;0,0785482
923,7357;0,0788364
924,7000;0,079126
925,6642;0,0794004
926,6284;0,0796438
927,5927;0,079848
928,5569;0,0800143
929,5211;0,0801524
930,4854;0,0802776
931,4496;0,080408
932,4138;0,0805621
933,3781;0,0807559
934,3423;0,0809996
935,3065;0,0812964
936,2708;0,0816432
937,2350;0,0820361
938,1992;0,0824742
939,1635;0,0829628
940,1277;0,0835114
941,0919;0,0841302
942,0562;0,0848267
943,0204;0,0856042
943,9846;0,0864623
944,9489;0,0873975
945,9131;0,0884046
946,8773;0,0894779
947,8416;0,0906139
948,8058;0,0918141
949,7700;0,0930853
950,7343;0,0944388
951,6985;0,0958863
952,6627;0,097437
953,6270;0,0990956
954,5912;0,10086
955,5554;0,102719
956,5197;0,104655
957,4839;0,106642
958,4481;0,108654
959,4124;0,110676
960,3766;0,112706
961,3408;0,114754
962,3051;0,116831
963,2693;0,11894
964,2335;0,121074
965,1978;0,123223
966,1620;0,125383
967,1262;0,127565
968,0905;0,129796
969,0547;0,132113
970,0189;0,134554
970,9832;0,13715
971,9474;0,139931
972,9116;0,142919
973,8759;0,146131
974,8401;0,149581
975,8043;0,153273
976,7686;0,157201
977,7328;0,161349
978,6970;0,165686
979,6613;0,170151
980,6255;0,174655
981,5897;0,17908
982,5540;0,183297
983,5182;0,187192
984,4824;0,190687
985,4467;0,193759
986,4109;0,196433
987,3751;0,198766
988,3394;0,200819
989,3036;0,202639
990,2678;0,204245
991,2321;0,205642
992,1963;0,206831
993,1605;0,207826
994,1248;0,208665
995,0890;0,209402
996,0532;0,210093
997,0175;0,210788
997,9817;0,211515
998,9459;0,212289
999,9102;0,213118
1000,8744;0,214016
1001,8386;0,215009
1002,8029;0,216131
1003,7671;0,217417
1004,7313;0,218897
1005,6956;0,220589
1006,6598;0,222508
1007,6240;0,224662
1008,5883;0,227061
1009,5525;0,229709
1010,5167;0,232593
1011,4810;0,235675
1012,4452;0,238886
1013,4094;0,242133
1014,3737;0,245315
1015,3379;0,24834
1016,3021;0,251131
1017,2664;0,25364
1018,2306;0,255839
1019,1948;0,257727
1020,1591;0,259329
1021,1233;0,260694
1022,0875;0,261886
1023,0518;0,262968
1024,0160;0,263984
1024,9802;0,264948
1025,9445;0,265846
1026,9087;0,266643
1027,8729;0,267296
1028,8372;0,26776
1029,8014;0,267988
1030,7656;0,267922
1031,7299;0,267505
1032,6941;0,266685
1033,6583;0,265439
1034,6226;0,263792
1035,5868;0,261822
1036,5510;0,259652
1037,5153;0,257429
1038,4795;0,255297
1039,4437;0,253375
1040,4080;0,251738
1041,3722;0,250412
1042,3364;0,249371
1043,3007;0,248544
1044,2649;0,24783
1045,2291;0,247125
1046,1934;0,246338
1047,1576;0,245409
1048,1218;0,244307
1049,0861;0,243017
1050,0503;0,241529
1051,0145;0,239825
1051,9788;0,237891
1052,9430;0,235731
1053,9072;0,233369
1054,8715;0,230847
1055,8357;0,228199
1056,7999;0,225431
1057,7642;0,222514
1058,7284;0,219399
1059,6926;0,216053
1060,6569;0,212491
1061,6211;0,208787
1062,5853;0,205056
1063,5496;0,201422
1064,5138;0,197981
1065,4780;0,194781
1066,4423;0,191829
1067,4065;0,1891
1068,3707;0,186562
1069,3350;0,184181
1070,2992;0,181922
1071,2634;0,179746
1072,2277;0,177608
1073,1919;0,17546
1074,1561;0,173265
1075,1204;0,171001
1076,0846;0,168674
1077,0488;0,16631
1078,0131;0,163949
1078,9773;0,161643
1079,9415;0,159442
1080,9058;0,157392
1081,8700;0,15553
1082,8342;0,15388
1083,7985;0,152445
1084,7627;0,151209
1085,7269;0,150141
1086,6912;0,149203
1087,6554;0,148367
1088,6196;0,147619
1089,5839;0,146964
1090,5481;0,146414
1091,5123;0,14598
1092,4766;0,145656
1093,4408;0,145427
1094,4050;0,145266
1095,3693;0,145151
1096,3335;0,145067
1097,2977;0,145011
1098,2620;0,144981
1099,2262;0,144972
1100,1904;0,14497
1101,1547;0,144948
1102,1189;0,144877
1103,0831;0,144733
1104,0474;0,144501
1105,0116;0,144177
1105,9758;0,143766
1106,9401;0,143271
1107,9043;0,142689
1108,8685;0,142009
1109,8328;0,141213
1110,7970;0,14028
1111,7612;0,139197
1112,7255;0,13797
1113,6897;0,136626
1114,6539;0,135215
1115,6182;0,133802
1116,5824;0,132448
1117,5466;0,13119
1118,5109;0,130036
1119,4751;0,128953
1120,4393;0,127884
1121,4036;0,126758
1122,3678;0,125506
1123,3320;0,124074
1124,2963;0,122427
1125,2605;0,120554
1126,2247;0,118468
1127,1890;0,116205
1128,1532;0,113817
1129,1174;0,111364
1130,0817;0,108901
1131,0459;0,106472
1132,0101;0,104111
1132,9744;0,101845
1133,9386;0,0997054
1134,9028;0,0977299
1135,8671;0,0959608
1136,8313;0,0944373
1137,7955;0,0931865
1138,7598;0,0922169
1139,7240;0,0915186
1140,6882;0,0910671
1141,6525;0,0908303
1142,6167;0,0907743
1143,5809;0,090867
1144,5452;0,0910817
1145,5094;0,0913983
1146,4736;0,0918047
1147,4379;0,0922953
1148,4021;0,0928672
1149,3663;0,0935142
1150,3306;0,09422
1151,2948;0,0949548
1152,2590;0,0956767
1153,2233;0,0963366
1154,1875;0,096885
1155,1517;0,097276
1156,1160;0,0974681
1157,0802;0,0974212
1158,0444;0,0970927
1159,0087;0,096437
1159,9729;0,095409
1160,9371;0,0939737
1161,9014;0,0921168
1162,8656;0,0898547
1163,8298;0,0872383
1164,7941;0,0843501
1165,7583;0,0812943
1166,7225;0,0781828
1167,6868;0,0751213
1168,6510;0,0721986
1169,6152;0,0694788
1170,5795;0,0669999
1171,5437;0,0647752
1172,5079;0,0627998
1173,4722;0,0610571
1174,4364;0,0595269
1175,4006;0,0581905
1176,3649;0,0570336
1177,3291;0,0560442
1178,2933;0,0552097
1179,2576;0,0545135
1180,2218;0,0539363
1181,1860;0,0534584
1182,1503;0,0530657
1183,1145;0,0527512
1184,0787;0,0525146
1185,0430;0,0523584
1186,0072;0,0522853
1186,9714;0,0522968
1187,9357;0,0523955
1188,8999;0,0525857
1189,8641;0,0528735
1190,8284;0,053263
1191,7926;0,0537535
1192,7568;0,0543382
1193,7211;0,055004
1194,6853;0,0557343
1195,6495;0,0565105
1196,6138;0,0573135
1197,5780;0,0581256
1198,5422;0,058933
1199,5065;0,059651
1200,4707;0,0604409
1201,4349;0,0612207
1202,3992;0,061994
1203,3634;0,062762
1204,3276;0,0635225
1205,2919;0,0642724
1206,2561;0,0650112
1207,2203;0,0657452
1208,1846;0,0664886
1209,1488;0,0672624
1210,1130;0,06809
1211,0773;0,0689924
1212,0415;0,0699823
1213,0057;0,0710611
1213,9700;0,0722183
1214,9342;0,0734339
1215,8984;0,0746824
1216,8627;0,0759359
1217,8269;0,0771677
1218,7911;0,078357
1219,7554;0,079491
1220,7196;0,0805666
1221,6838;0,0815878
1222,6481;0,0825618
1223,6123;0,0834937
1224,5765;0,0843832
1225,5408;0,0852253
1226,5050;0,0860133
1227,4692;0,0867425
1228,4335;0,0874119
1229,3977;0,0880222
1230,3619;0,088574
1231,3262;0,0890654
1232,2904;0,0894924
1233,2546;0,089851
1234,2189;0,0901402
1235,1831;0,0903639
1236,1473;0,0905304
1237,1116;0,0906503
1238,0758;0,0907324
1239,0400;0,0907804
1240,0043;0,0907911
1240,9685;0,0907562
1241,9327;0,0906657
1242,8970;0,0905122
1243,8612;0,0902929
1244,8254;0,0900101
1245,7897;0,0896686
1246,7539;0,0892748
1247,7181;0,0888358
1248,6824;0,0883594
1249,6466;0,0878541
1250,6108;0,0873288
1251,5751;0,086792
1252,5393;0,0862513
1253,5035;0,085713
1254,4678;0,0851805
1255,4320;0,084652
1256,3962;0,084119
1257,3605;0,0835678
1258,3247;0,0829834
1259,2889;0,0823548
1260,2532;0,0816791
1261,2174;0,0809598
1262,1816;0,0802034
1263,1459;0,079414
1264,1101;0,0785929
1265,0743;0,0777389
1266,0386;0,0768508
1267,0028;0,0759272
1267,9670;0,0749662
1268,9313;0,0739659
1269,8955;0,0729271
1270,8597;0,0718571
1271,8240;0,0707697
1272,7882;0,069683
1273,7524;0,0686132
1274,7167;0,0675717
1275,6809;0,0665641
1276,6451;0,0655923
1277,6094;0,0646569
1278,5736;0,0637575
1279,5378;0,0628923
1280,5021;0,0620586
1281,4663;0,0612552
1282,4305;0,0604851
1283,3948;0,0597563
1284,3590;0,0590808
1285,3232;0,0584708
1286,2875;0,0579351
1287,2517;0,057477
1288,2159;0,0570954
1289,1802;0,0567869
1290,1444;0,0565502
1291,1086;0,0563873
1292,0729;0,0563039
1293,0371;0,056306
1294,0013;0,0563957
1294,9656;0,0565694
1295,9298;0,0568175
1296,8940;0,0571288
1297,8583;0,0574946
1298,8225;0,057911
1299,7867;0,0583777
1300,7510;0,0588946
1301,7152;0,0594602
1302,6794;0,0600714
1303,6437;0,0607252
1304,6079;0,0614209
1305,5721;0,0621579
1306,5364;0,0629341
1307,5006;0,063744
1308,4648;0,0645799
1309,4291;0,0654329
1310,3933;0,0662926
1311,3575;0,0671441
1312,3218;0,0679662
1313,2860;0,0687325
1314,2502;0,0694148
1315,2145;0,0699861
1316,1787;0,0704212
1317,1429;0,0706973
1318,1072;0,0708017
1319,0714;0,0707421
1320,0356;0,0705533
1320,9999;0,0702887
1321,9641;0,0700018
1322,9283;0,0697295
1323,8926;0,0694875
1324,8568;0,0692758
1325,8210;0,0690874
1326,7853;0,0689148
1327,7495;0,0687514
1328,7137;0,0685881
1329,6780;0,068411
1330,6422;0,0682029
1331,6064;0,0679501
1332,5707;0,0676488
1333,5349;0,0673071
1334,4991;0,0669368
1335,4634;0,0665412
1336,4276;0,0661068
1337,3918;0,0656043
1338,3561;0,065008
1339,3203;0,0643261
1340,2845;0,0636146
1341,2488;0,0629492
1342,2130;0,0623836
1343,1772;0,061933
1344,1415;0,0615885
1345,1057;0,0613353
1346,0699;0,0611636
1347,0342;0,0610704
1347,9984;0,0610582
1348,9626;0,0611316
1349,9269;0,0612925
1350,8911;0,0615374
1351,8553;0,0618568
1352,8196;0,0622396
1353,7838;0,0626772
1354,7480;0,0631657
1355,7123;0,0637042
1356,6765;0,0642913
1357,6407;0,0649243
1358,6050;0,0656004
1359,5692;0,0663144
1360,5334;0,067048
1361,4977;0,0677595
1362,4619;0,0683953
1363,4261;0,0689268
1364,3904;0,0693679
1365,3546;0,0697524
1366,3188;0,0701023
1367,2831;0,0704171
1368,2473;0,0706809
1369,2115;0,0708748
1370,1758;0,0709852
1371,1400;0,0710031
1372,1042;0,0709163
1373,0685;0,0707063
1374,0327;0,0703614
1374,9969;0,0698935
1375,9612;0,0693328
1376,9254;0,068696
1377,8896;0,0679663
1378,8539;0,0671124
1379,8181;0,0661284
1380,7823;0,0650597
1381,7466;0,0639855
1382,7108;0,0629705
1383,6750;0,0620254
1384,6393;0,0611097
1385,6035;0,0601718
1386,5677;0,0592045
1387,5320;0,0582774
1388,4962;0,0574954
1389,4604;0,056914
1390,4247;0,0565101
1391,3889;0,0562239
1392,3531;0,056008
1393,3174;0,0558441
1394,2816;0,0557323
1395,2458;0,0556713
1396,2101;0,0556483
1397,1743;0,0556464
1398,1385;0,0556613
1399,1028;0,0557061
1400,0670;0,0558013
1401,0313;0,0559591
1401,9955;0,056178
1402,9597;0,0564491
1403,9240;0,0567631
1404,8882;0,0571153
1405,8524;0,0575048
1406,8167;0,0579334
1407,7809;0,0584032
1408,7451;0,0589182
1409,7094;0,0594868
1410,6736;0,0601174
1411,6378;0,0608085
1412,6021;0,0615405
1413,5663;0,0622824
1414,5305;0,0630058
1415,4948;0,0636932
1416,4590;0,0643298
1417,4232;0,0648859
1418,3875;0,0653197
1419,3517;0,0656227
1420,3159;0,0658337
1421,2802;0,0659789
1422,2444;0,0660343
1423,2086;0,0659555
1424,1729;0,0657218
1425,1371;0,0653485
1426,1013;0,0648607
1427,0656;0,0642607
1428,0298;0,0635256
1428,9940;0,0626483
1429,9583;0,0616839
1430,9225;0,0607383
1431,8867;0,0598895
1432,8510;0,0591253
1433,8152;0,0583556
1434,7794;0,057479
1435,7437;0,0564747
1436,7079;0,0554759
1437,6721;0,0547043
1438,6364;0,0542767
1439,6006;0,0541346
1440,5648;0,054152
1441,5291;0,0542405
1442,4933;0,0543749
1443,4575;0,0545692
1444,4218;0,0548415
1445,3860;0,0551917
1446,3502;0,0555979
1447,3145;0,0560293
1448,2787;0,0564625
1449,2429;0,0568884
1450,2072;0,0573022
1451,1714;0,0576885
1452,1356;0,0580188
1453,0999;0,0582637
1454,0641;0,0584022
1455,0283;0,058411
1455,9926;0,0582407
1456,9568;0,0578765
1457,9210;0,0574944
1458,8853;0,0573276
1459,8495;0,0573785
1460,8137;0,0574839
1461,7780;0,057476
1462,7422;0,0572267
1463,7064;0,0566521
1464,6707;0,0557635
1465,6349;0,0547112
1466,5991;0,0536861
1467,5634;0,0527573
1468,5276;0,0518492
1469,4918;0,0508211
1470,4561;0,0495307
1471,4203;0,0478812
1472,3845;0,0459181
1473,3488;0,0439147
1474,3130;0,042212
1475,2772;0,040933
1476,2415;0,0399797
1477,2057;0,039214
1478,1699;0,0385514
1479,1342;0,037959
1480,0984;0,0374298
1481,0626;0,03697
1482,0269;0,0365953
1482,9911;0,036324
1483,9553;0,036165
1484,9196;0,0361114
1485,8838;0,0361446
1486,8480;0,0362404
1487,8123;0,0363701
1488,7765;0,0365101
1489,7407;0,0366749
1490,7050;0,0369172
1491,6692;0,037268
1492,6334;0,0377134
1493,5977;0,0382329
1494,5619;0,0388332
1495,5261;0,0395462
1496,4904;0,0403939
1497,4546;0,0413467
1498,4188;0,0423299
1499,3831;0,0432722
1500,3473;0,0441222
1501,3115;0,0448361
1502,2758;0,0453823
1503,2400;0,0457594
1504,2042;0,0460065
1505,1685;0,0461774
1506,1327;0,0462397
1507,0969;0,0460392
1508,0612;0,045586
1509,0254;0,0451066
1509,9896;0,0446959
1510,9539;0,0442979
1511,9181;0,0438413
1512,8823;0,0432814
1513,8466;0,0425944
1514,8108;0,0417761
1515,7750;0,040854
1516,7393;0,0398859
1517,7035;0,0389271
1518,6677;0,037993
1519,6320;0,0370644
1520,5962;0,0361412
1521,5604;0,0352893
1522,5247;0,0346081
1523,4889;0,034142
1524,4531;0,0338519
1525,4174;0,0336681
1526,3816;0,0335485
1527,3458;0,0334904
1528,3101;0,033501
1529,2743;0,0335736
1530,2385;0,0336902
1531,2028;0,0338404
1532,1670;0,0340287
1533,1312;0,034265
1534,0955;0,0345465
1535,0597;0,0348454
1536,0239;0,0351166
1536,9882;0,0353235
1537,9524;0,0354603
1538,9166;0,0355424
1539,8809;0,0355587
1540,8451;0,0354758
1541,8093;0,0353555
1542,7736;0,0352983
1543,7378;0,0352984
1544,7020;0,035308
1545,6663;0,0353159
1546,6305;0,0353401
1547,5947;0,0353924
1548,5590;0,0354611
1549,5232;0,0355212
1550,4874;0,0355593
1551,4517;0,0355881
1552,4159;0,035635
1553,3801;0,0357113
1554,3444;0,0357955
1555,3086;0,0358435
1556,2728;0,0358035
1557,2371;0,0356172
1558,2013;0,0352772
1559,1655;0,0350105
1560,1298;0,0351283
1561,0940;0,0356168
1562,0582;0,0362641
1563,0225;0,0369082
1563,9867;0,0374762
1564,9509;0,037949
1565,9152;0,0383357
1566,8794;0,0386674
1567,8436;0,038996
1568,8079;0,0393803
1569,7721;0,039852
1570,7363;0,0403906
1571,7006;0,0409433
1572,6648;0,0414704
1573,6290;0,0419762
1574,5933;0,0425068
1575,5575;0,0431109
1576,5217;0,0437904
1577,4860;0,0445072
1578,4502;0,0452329
1579,4144;0,0459599
1580,3787;0,0466899
1581,3429;0,0474286
1582,3071;0,0481816
1583,2714;0,0489497
1584,2356;0,0497328
1585,1998;0,0505349
1586,1641;0,05136
1587,1283;0,0522009
1588,0925;0,0530309
1589,0568;0,0538084
1590,0210;0,0544897
1590,9852;0,055039
1591,9495;0,0554292
1592,9137;0,0556395
1593,8779;0,0556608
1594,8422;0,0555078
1595,8064;0,0552223
1596,7706;0,0548604
1597,7349;0,0544698
1598,6991;0,0540783
1599,6633;0,0536951
1600,6276;0,0533223
1601,5918;0,052965
1602,5560;0,0526353
1603,5203;0,0523463
1604,4845;0,0521009
1605,4487;0,0518843
1606,4130;0,0516683
1607,3772;0,0514295
1608,3414;0,0511721
1609,3057;0,0509363
1610,2699;0,0507725
1611,2341;0,0506999
1612,1984;0,0506913
1613,1626;0,0506933
1614,1268;0,0506596
1615,0911;0,0505785
1616,0553;0,0504966
1617,0195;0,0505084
1617,9838;0,0506748
1618,9480;0,0509612
1619,9122;0,051277
1620,8765;0,0515432
1621,8407;0,0517209
1622,8049;0,0518131
1623,7692;0,0518571
1624,7334;0,0519011
1625,6976;0,0519739
1626,6619;0,0520771
1627,6261;0,0522026
1628,5903;0,0523473
1629,5546;0,0525071
1630,5188;0,052665
1631,4830;0,0527897
1632,4473;0,0528471
1633,4115;0,0528105
1634,3757;0,052666
1635,3400;0,0524393
1636,3042;0,0522351
1637,2684;0,0521716
1638,2327;0,052256
1639,1969;0,0524086
1640,1611;0,052557
1641,1254;0,0526684
1642,0896;0,0527363
1643,0538;0,0527555
1644,0181;0,0527038
1644,9823;0,0525357
1645,9465;0,0522249
1646,9108;0,0518477
1647,8750;0,0515486
1648,8392;0,0513766
1649,8035;0,0512465
1650,7677;0,051014
1651,7319;0,0505187
1652,6962;0,0496711
1653,6604;0,0487173
1654,6246;0,0481288
1655,5889;0,0479899
1656,5531;0,0480492
1657,5173;0,0480824
1658,4816;0,0479774
1659,4458;0,0476881
1660,4100;0,047199
1661,3743;0,0465382
1662,3385;0,0458116
1663,3027;0,0451701
1664,2670;0,0446991
1665,2312;0,0443653
1666,1954;0,0440578
1667,1597;0,0436465
1668,1239;0,0430328
1669,0881;0,0422221
1670,0524;0,0413642
1671,0166;0,0406408
1671,9808;0,0400953
1672,9451;0,03963
1673,9093;0,0391311
1674,8735;0,0385728
1675,8378;0,0380413
1676,8020;0,0376578
1677,7662;0,0374653
1678,7305;0,0374014
1679,6947;0,0373512
1680,6589;0,0371938
1681,6232;0,0368078
1682,5874;0,0360953
1683,5516;0,0351125
1684,5159;0,0341765
1685,4801;0,0335934
1686,4443;0,0333579
1687,4086;0,0332848
1688,3728;0,033223
1689,3370;0,0331153
1690,3013;0,0329726
1691,2655;0,0328308
1692,2297;0,032719
1693,1940;0,0326448
1694,1582;0,0325933
1695,1224;0,0325298
1696,0867;0,0324075
1697,0509;0,0321923
1698,0151;0,0319005
1698,9794;0,0316202
1699,9436;0,0314731
1700,9078;0,0315327
1701,8721;0,031781
1702,8363;0,0321428
1703,8005;0,0325447
1704,7648;0,0329456
1705,7290;0,0333387
1706,6932;0,0337393
1707,6575;0,0341695
1708,6217;0,0346457
1709,5859;0,0351726
1710,5502;0,0357452
1711,5144;0,0363512
1712,4786;0,0369728
1713,4429;0,0375896
1714,4071;0,0381822
1715,3713;0,038734
1716,3356;0,0392352
1717,2998;0,0397054
1718,2640;0,0402012
1719,2283;0,0407639
1720,1925;0,0413845
1721,1567;0,0420262
1722,1210;0,0426533
1723,0852;0,0432398
1724,0494;0,0437736
1725,0137;0,0442592
1725,9779;0,0447165
1726,9421;0,0451666
1727,9064;0,0456141
1728,8706;0,0460369
1729,8348;0,0463881
1730,7991;0,0466009
1731,7633;0,0466009
1732,7275;0,0463511
1733,6918;0,0459307
1734,6560;0,0455182
1735,6202;0,0452259
1736,5845;0,0450119
1737,5487;0,04476
1738,5129;0,0443765
1739,4772;0,0438344
1740,4414;0,0431786
1741,4056;0,0424901
1742,3699;0,0418245
1743,3341;0,0411794
1744,2983;0,0405191
1745,2626;0,0398117
1746,2268;0,0390345
1747,1910;0,0381513
1748,1553;0,0371031
1749,1195;0,0358607
1750,0837;0,03451
1751,0480;0,0332347
1752,0122;0,0321742
1752,9764;0,0313335
1753,9407;0,0306242
1754,9049;0,0299487
1755,8691;0,0292561
1756,8334;0,0285516
1757,7976;0,0278641
1758,7618;0,0271991
1759,7261;0,0265231
1760,6903;0,0258001
1761,6545;0,0250458
1762,6188;0,0243377
1763,5830;0,0237598
1764,5472;0,0233416
1765,5115;0,0230484
1766,4757;0,0228163
1767,4399;0,0225863
1768,4042;0,0223187
1769,3684;0,0219909
1770,3326;0,0215941
1771,2969;0,0211457
1772,2611;0,0207089
1773,2253;0,0203732
1774,1896;0,0201902
1775,1538;0,020139
1776,1180;0,0201547
1777,0823;0,0201731
1778,0465;0,0201561
1779,0107;0,0200967
1779,9750;0,0200113
1780,9392;0,019921
1781,9034;0,0198344
1782,8677;0,0197475
1783,8319;0,0196598
1784,7961;0,0195872
1785,7604;0,019556
1786,7246;0,0195825
1787,6888;0,0196569
1788,6531;0,0197453
1789,6173;0,0198011
1790,5815;0,0197814
1791,5458;0,0196741
1792,5100;0,0195231
1793,4742;0,0194062
1794,4385;0,0193685
1795,4027;0,0193946
1796,3669;0,0194388
1797,3312;0,0194614
1798,2954;0,0194422
1799,2596;0,0193804
1800,2239;0,0192877
1801,1881;0,0191822
1802,1523;0,0190826
1803,1166;0,0190051
1804,0808;0,0189624
1805,0450;0,0189615
1806,0093;0,0190007
1806,9735;0,0190656
1807,9377;0,0191298
1808,9020;0,0191622
1809,8662;0,0191421
1810,8304;0,0190732
1811,7947;0,0189821
1812,7589;0,0189004
1813,7231;0,018845
1814,6874;0,0188146
1815,6516;0,018799
1816,6158;0,0187896
1817,5801;0,0187872
1818,5443;0,018801
1819,5085;0,0188408
1820,4728;0,0189077
1821,4370;0,018991
1822,4012;0,0190716
1823,3655;0,0191286
1824,3297;0,0191473
1825,2939;0,0191241
1826,2582;0,0190639
1827,2224;0,0189731
1828,1866;0,0188587
1829,1509;0,0187361
1830,1151;0,0186345
1831,0793;0,0185859
1832,0436;0,0186025
1833,0078;0,0186689
1833,9720;0,0187532
1834,9363;0,0188253
1835,9005;0,0188695
1836,8647;0,0188893
1837,8290;0,0189034
1838,7932;0,0189307
1839,7574;0,0189768
1840,7217;0,019032
1841,6859;0,0190777
1842,6501;0,0190942
1843,6144;0,0190714
1844,5786;0,0190187
1845,5428;0,0189608
1846,5071;0,0189141
1847,4713;0,0188741
1848,4355;0,0188258
1849,3998;0,0187619
1850,3640;0,0186906
1851,3282;0,0186305
1852,2925;0,0185994
1853,2567;0,0186036
1854,2209;0,0186359
1855,1852;0,0186822
1856,1494;0,0187288
1857,1136;0,0187672
1858,0779;0,0187933
1859,0421;0,0188063
1860,0063;0,0188074
1860,9706;0,0188027
1861,9348;0,0188034
1862,8990;0,0188228
1863,8633;0,018871
1864,8275;0,0189495
1865,7917;0,0190467
1866,7560;0,0191352
1867,7202;0,0191783
1868,6844;0,0191528
1869,6487;0,0190719
1870,6129;0,0189745
1871,5771;0,0188918
1872,5414;0,0188309
1873,5056;0,0187823
1874,4698;0,0187351
1875,4341;0,0186864
1876,3983;0,0186452
1877,3625;0,0186264
1878,3268;0,0186412
1879,2910;0,0186891
1880,2552;0,0187576
1881,2195;0,0188287
1882,1837;0,0188873
1883,1479;0,0189263
1884,1122;0,0189463
1885,0764;0,0189504
1886,0406;0,0189402
1887,0049;0,0189149
1887,9691;0,0188749
1888,9333;0,0188266
1889,8976;0,0187828
1890,8618;0,0187583
1891,8260;0,0187613
1892,7903;0,0187897
1893,7545;0,0188322
1894,7188;0,0188734
1895,6830;0,0188991
1896,6472;0,0189017
1897,6115;0,0188824
1898,5757;0,0188492
1899,5399;0,0188126
1900,5042;0,0187823
1901,4684;0,0187666
1902,4326;0,0187714
1903,3969;0,0187991
1904,3611;0,0188466
1905,3253;0,0189056
1906,2896;0,0189645
1907,2538;0,0190123
1908,2180;0,0190413
1909,1823;0,0190483
1910,1465;0,0190333
1911,1107;0,0189965
1912,0750;0,0189381
1913,0392;0,0188606
1914,0034;0,0187734
1914,9677;0,0186951
1915,9319;0,0186512
1916,8961;0,0186635
1917,8604;0,0187362
1918,8246;0,0188496
1919,7888;0,0189678
1920,7531;0,0190544
1921,7173;0,0190856
1922,6815;0,0190566
1923,6458;0,0189834
1924,6100;0,0188963
1925,5742;0,0188241
1926,5385;0,0187798
1927,5027;0,0187571
1928,4669;0,0187394
1929,4312;0,0187155
1930,3954;0,0186899
1931,3596;0,018682
1932,3239;0,01871
1933,2881;0,018772
1934,2523;0,0188402
1935,2166;0,0188758
1936,1808;0,0188559
1937,1450;0,0187914
1938,1093;0,0187229
1939,0735;0,0186946
1940,0377;0,0187256
1941,0020;0,0187958
1941,9662;0,0188574
1942,9304;0,0188699
1943,8947;0,0188319
1944,8589;0,0187787
1945,8231;0,0187495
1946,7874;0,0187577
1947,7516;0,0187867
1948,7158;0,0188083
1949,6801;0,0188054
1950,6443;0,018782
1951,6085;0,0187524
1952,5728;0,0187213
1953,5370;0,0186755
1954,5012;0,0185963
1955,4655;0,0184845
1956,4297;0,0183733
1957,3939;0,0183149
1958,3582;0,018347
1959,3224;0,0184634
1960,2866;0,0186145
1961,2509;0,0187409
1962,2151;0,0188135
1963,1793;0,0188464
1964,1436;0,0188735
1965,1078;0,0189119
1966,0720;0,018944
1967,0363;0,0189352
1968,0005;0,0188704
1968,9647;0,0187728
1969,9290;0,0186832
1970,8932;0,0186217
1971,8574;0,01857
1972,8217;0,0184905
1973,7859;0,0183704
1974,7501;0,0182528
1975,7144;0,0182256
1976,6786;0,0183641
1977,6428;0,0186713
1978,6071;0,0190672
1979,5713;0,019438
1980,5355;0,0196991
1981,4998;0,0198248
1982,4640;0,0198371
1983,4282;0,0197795
1984,3925;0,0196966
1985,3567;0,0196244
1986,3209;0,019586
1987,2852;0,0195866
1988,2494;0,0196103
1989,2136;0,0196237
1990,1779;0,0195913
1991,1421;0,019498
1992,1063;0,0193653
1993,0706;0,0192432
1994,0348;0,019182
1994,9990;0,0192033
1995,9633;0,0192912
1996,9275;0,0194028
1997,8917;0,0194883
1998,8560;0,0195115
1999,8202;0,0194644
2000,7844;0,0193725
2001,7487;0,0192896
2002,7129;0,0192821
2003,6771;0,0194034
2004,6414;0,0196618
2005,6056;0,0199958
2006,5698;0,020283
2007,5341;0,0203944
2008,4983;0,0202709
2009,4625;0,0199671
2010,4268;0,0196242
2011,3910;0,019388
2012,3552;0,0193271
2013,3195;0,0194012
2014,2837;0,0194966
2015,2479;0,0195056
2016,2122;0,0194032
2017,1764;0,0192665
2018,1406;0,0192194
2019,1049;0,019342
2020,0691;0,019614
2021,0333;0,0199274
2021,9976;0,0201496
2022,9618;0,0201926
2023,9260;0,0200507
2024,8903;0,0197931
2025,8545;0,0195225
2026,8187;0,0193283
2027,7830;0,0192614
2028,7472;0,0193347
2029,7114;0,019538
2030,6757;0,0198478
2031,6399;0,0202274
2032,6041;0,0206209
2033,5684;0,0209562
2034,5326;0,0211622
2035,4968;0,0211966
2036,4611;0,0210659
2037,4253;0,0208263
2038,3895;0,0205621
2039,3538;0,0203538
2040,3180;0,0202474
2041,2822;0,0202406
2042,2465;0,0202938
2043,2107;0,0203634
2044,1749;0,0204329
2045,1392;0,0205202
2046,1034;0,020652
2047,0676;0,020825
2048,0320;0,0209881
2048,9961;0,0210678
2049,9604;0,0210224
2050,9246;0,0208796
2051,8889;0,0207287
2052,8530;0,0206745
2053,8174;0,0207798
2054,7815;0,0210263
2055,7458;0,0213168
2056,7100;0,0215225
2057,6743;0,021549
2058,6384;0,0213822
2059,6028;0,021089
2060,5669;0,0207795
2061,5313;0,0205562
2062,4954;0,0204773
2063,4597;0,0205449
2064,4238;0,0207179
2065,3882;0,0209369
2066,3523;0,0211475
2067,3167;0,0213136
2068,2808;0,02142
2069,2451;0,0214682
2070,2092;0,0214718
2071,1736;0,0214512
2072,1377;0,0214272
2073,1021;0,0214128
2074,0662;0,0214062
2075,0305;0,0213924
2075,9946;0,0213527
2076,9590;0,0212803
2077,9231;0,0211891
2078,8875;0,0211088
2079,8516;0,0210684
2080,8159;0,0210778
2081,7800;0,0211228
2082,7444;0,0211752
2083,7085;0,0212119
2084,6729;0,0212282
2085,6370;0,0212366
2086,6013;0,0212523
2087,5654;0,0212795
2088,5298;0,0213078
2089,4939;0,021322
2090,4583;0,0213165
2091,4224;0,0213023
2092,3867;0,0213006
2093,3508;0,021328
2094,3152;0,0213832
2095,2793;0,021445
2096,2437;0,0214853
2097,2078;0,0214869
2098,1721;0,0214549
2099,1362;0,0214129
2100,1006;0,0213875
2101,0647;0,0213914
2102,0291;0,0214168
2102,9932;0,0214431
2103,9575;0,0214544
2104,9216;0,0214526
2105,8860;0,0214581
2106,8501;0,0214952
2107,8145;0,0215727
2108,7786;0,0216738
2109,7429;0,0217623
2110,7070;0,0218026
2111,6714;0,0217782
2112,6355;0,0216992
2113,5999;0,0215951
2114,5640;0,0215001
2115,5283;0,0214409
2116,4924;0,0214313
2117,4568;0,0214742
2118,4209;0,0215642
2119,3853;0,021689
2120,3494;0,0218303
2121,3137;0,0219656
2122,2778;0,0220721
2123,2422;0,0221313
2124,2063;0,0221322
2125,1707;0,0220715
2126,1348;0,0219526
2127,0991;0,0217853
2128,0632;0,0215863
2129,0276;0,0213817
2129,9917;0,0212069
2130,9561;0,0211034
2131,9202;0,0211093
2132,8845;0,0212436
2133,8486;0,02149
2134,8130;0,0217901
2135,7771;0,0220571
2136,7415;0,0222063
2137,7056;0,0221915
2138,6699;0,0220252
2139,6340;0,0217747
2140,5984;0,0215377
2141,5625;0,0214083
2142,5269;0,0214449
2143,4910;0,0216503
2144,4553;0,0219715
2145,4194;0,0223205
2146,3838;0,0226117
2147,3479;0,0227998
2148,3123;0,0228958
2149,2764;0,0229499
2150,2407;0,0230076
2151,2048;0,0230708
2152,1692;0,0230918
2153,1333;0,0230093
2154,0977;0,022805
2155,0618;0,0225406
2156,0261;0,022344
2156,9902;0,0223396
2157,9546;0,022554
2158,9187;0,0228774
2159,8831;0,0231333
2160,8472;0,0232072
2161,8115;0,0231111
2162,7756;0,0229436
2163,7400;0,0228068
2164,7041;0,0227467
2165,6685;0,0227438
2166,6326;0,0227416
2167,5969;0,0226905
2168,5610;0,0225753
2169,5254;0,0224175
2170,4895;0,0222581
2171,4539;0,0221368
2172,4180;0,0220794
2173,3823;0,0220954
2174,3464;0,0221803
2175,3108;0,0223162
2176,2749;0,0224693
2177,2393;0,0225912
2178,2034;0,0226294
2179,1677;0,0225498
2180,1318;0,0223602
2181,0962;0,0221197
2182,0603;0,0219193
2183,0247;0,0218381
2183,9888;0,0218992
2184,9531;0,0220563
2185,9172;0,0222191
2186,8816;0,0223018
2187,8457;0,0222632
2188,8101;0,0221207
2189,7742;0,0219339
2190,7385;0,0217714
2191,7026;0,0216808
2192,6670;0,0216736
2193,6311;0,021727
2194,5955;0,021799
2195,5596;0,0218481
2196,5239;0,0218496
2197,4880;0,0218049
2198,4524;0,0217398
2199,4165;0,0216932
2200,3809;0,0217006
2201,3450;0,0217804
2202,3093;0,0219275
2203,2734;0,022116
2204,2378;0,0223076
2205,2019;0,0224624
2206,1663;0,0225492
2207,1304;0,022554
2208,0947;0,0224853
2209,0588;0,0223721
2210,0232;0,0222535
2210,9873;0,022162
2211,9517;0,0221077
2212,9158;0,0220766
2213,8801;0,0220429
2214,8442;0,0219907
2215,8086;0,0219295
2216,7727;0,0218895
2217,7371;0,0219006
2218,7012;0,0219692
2219,6655;0,0220719
2220,6296;0,0221709
2221,5940;0,0222406
2222,5581;0,0222824
2223,5225;0,0223159
2224,4866;0,0223526
2225,4509;0,0223778
2226,4150;0,0223562
2227,3794;0,0222618
2228,3435;0,0221091
2229,3079;0,0219554
2230,2720;0,0218699
2231,2363;0,021888
2232,2004;0,0219853
2233,1648;0,0220899
2234,1289;0,0221276
2235,0933;0,0220675
2236,0574;0,0219404
2237,0217;0,0218174
2237,9858;0,0217678
2238,9502;0,0218208
2239,9143;0,0219529
2240,8787;0,0221032
2241,8428;0,0222045
2242,8071;0,0222137
2243,7712;0,0221283
2244,7356;0,0219843
2245,6997;0,0218379
2246,6641;0,0217397
2247,6282;0,021713
2248,5925;0,0217474
2249,5566;0,0218109
2250,5210;0,0218711
2251,4851;0,0219148
2252,4495;0,0219507
2253,4136;0,0219971
2254,3779;0,0220629
2255,3420;0,0221364
2256,3064;0,0221911
2257,2705;0,0222031
2258,2349;0,0221671
2259,1990;0,0221015
2260,1633;0,0220383
2261,1274;0,022008
2262,0918;0,0220251
2263,0559;0,0220838
2264,0203;0,0221618
2264,9844;0,0222302
2265,9487;0,0222642
2266,9128;0,0222512
2267,8772;0,022194
2268,8413;0,0221089
2269,8057;0,0220192
2270,7698;0,0219462
2271,7341;0,0219025
2272,6982;0,0218888
2273,6626;0,0218965
2274,6267;0,0219135
2275,5911;0,0219303
2276,5552;0,0219434
2277,5195;0,021956
2278,4836;0,0219744
2279,4480;0,0220062
2280,4121;0,0220576
2281,3765;0,0221323
2282,3406;0,0222307
2283,3049;0,0223487
2284,2690;0,0224778
2285,2334;0,0226066
2286,1975;0,0227242
2287,1619;0,0228252
2288,1260;0,0229121
2289,0903;0,0229948
2290,0544;0,0230863
2291,0188;0,0231967
2291,9829;0,023329
2292,9473;0,0234782
2293,9114;0,0236338
2294,8757;0,0237835
2295,8398;0,0239162
2296,8042;0,0240232
2297,7683;0,0240981
2298,7327;0,024138
2299,6968;0,0241446
2300,6611;0,0241262
2301,6252;0,0240984
2302,5896;0,0240825
2303,5537;0,0241022
2304,5181;0,0241765
2305,4822;0,0243122
2306,4465;0,0244942
2307,4106;0,0246821
2308,3750;0,0248174
2309,3391;0,0248423
2310,3035;0,0247264
2311,2676;0,0244866
2312,2319;0,0241848
2313,1960;0,0239017
2314,1604;0,0236989
2315,1245;0,023594
2316,0889;0,0235622
2317,0530;0,0235597
2318,0173;0,0235534
2318,9814;0,0235388
2319,9458;0,0235388
2320,9099;0,0235864
2321,8743;0,0237008
2322,8384;0,0238729
2323,8027;0,0240648
2324,7668;0,0242235
2325,7312;0,0243007
2326,6953;0,0242717
2327,6597;0,0241457
2328,6238;0,0239632
2329,5881;0,0237815
2330,5522;0,023652
2331,5166;0,0235965
2332,4807;0,0235956
2333,4451;0,0235987
2334,4092;0,0235574
2335,3735;0,0234625
2336,3376;0,0233606
2337,3020;0,0233348
2338,2661;0,0234553
2339,2305;0,0237246
2340,1946;0,0240517
2341,1589;0,0242714
2342,1230;0,0242182
2343,0874;0,0238632
2344,0515;0,0234358
2345,0159;0,0233119
2345,9800;0,0236792
2346,9443;0,02438
2347,9084;0,0250724
2348,8728;0,0254669
2349,8369;0,0254535
2350,8013;0,0251181
2351,7654;0,0246798
2352,7297;0,0243704
2353,6938;0,0243089
2354,6582;0,0244709
2355,6223;0,0247664
2356,5867;0,025105
2357,5508;0,0253877
2358,5151;0,0255054
2359,4792;0,0253954
2360,4436;0,0250971
2361,4077;0,0247203
2362,3721;0,0243569
2363,3362;0,024029
2364,3005;0,023707
2365,2646;0,0233575
2366,2290;0,0229696
2367,1931;0,0225538
2368,1575;0,0221326
2369,1216;0,0217354
2370,0859;0,0213944
2371,0500;0,0211367
2372,0144;0,0209757
2372,9785;0,0209112
2373,9429;0,0209363
2374,9070;0,0210444
2375,8713;0,0212306
2376,8354;0,0214878
2377,7998;0,0218008
2378,7639;0,0221429
2379,7283;0,0224782
2380,6924;0,0227665
2381,6567;0,0229723
2382,6208;0,0230728
2383,5852;0,0230643
2384,5493;0,0229638
2385,5137;0,0228046
2386,4778;0,0226278
2387,4421;0,0224711
2388,4063;0,0223598
2389,3706;0,0223026
2390,3347;0,022293
2391,2991;0,0223154
2392,2632;0,0223521
2393,2275;0,0223881
2394,1917;0,0224136
2395,1560;0,0224238
2396,1201;0,0224194
2397,0845;0,0224056
2398,0486;0,0223921
2399,0129;0,0223885
2399,9771;0,0224013
2400,9414;0,0224321
2401,9055;0,0224764
2402,8699;0,0225268
2403,8340;0,0225757
2404,7983;0,0226186
2405,7625;0,0226542
2406,7268;0,0226835
2407,6909;0,0227082
2408,6553;0,0227296
2409,6194;0,0227475
2410,5837;0,0227621
2411,5479;0,022775
2412,5122;0,0227895
2413,4763;0,0228098
2414,4407;0,0228384
2415,4048;0,0228741
2416,3691;0,0229113
2417,3333;0,022942
2418,2976;0,0229595
2419,2617;0,0229617
2420,2261;0,0229521
2421,1902;0,0229378
2422,1545;0,0229273
2423,1187;0,0229274
2424,0830;0,0229414
2425,0471;0,0229686
2426,0115;0,023004
2426,9756;0,0230407
2427,9399;0,0230722
2428,9041;0,0230959
2429,8684;0,0231142
2430,8325;0,0231324
2431,7969;0,0231552
2432,7610;0,0231823
2433,7253;0,0232081
2434,6895;0,0232254
2435,6538;0,0232295
2436,6179;0,0232218
2437,5823;0,0232084
2438,5464;0,0231967
2439,5107;0,0231927
2440,4749;0,0231995
2441,4392;0,0232185
2442,4033;0,0232497
2443,3677;0,0232914
2444,3318;0,0233385
2445,2961;0,0233845
2446,2603;0,0234242
2447,2246;0,0234572
2448,1887;0,0234884
2449,1531;0,0235242
2450,1172;0,0235665
2451,0815;0,02361
2452,0457;0,0236444
2453,0100;0,0236608
2453,9741;0,0236586
2454,9385;0,0236463
2455,9026;0,0236368
2456,8669;0,0236408
2457,8311;0,0236615
2458,7954;0,0236947
2459,7595;0,0237331
2460,7239;0,0237697
2461,6880;0,0238002
2462,6523;0,0238222
2463,6165;0,0238334
2464,5808;0,0238317
2465,5449;0,0238168
2466,5093;0,0237914
2467,4734;0,0237629
2468,4377;0,0237406
2469,4019;0,0237334
2470,3662;0,0237454
2471,3303;0,0237736
2472,2947;0,0238086
2473,2588;0,0238377
2474,2231;0,0238517
2475,1873;0,0238495
2476,1516;0,0238394
2477,1157;0,0238351
2478,0801;0,0238474
2479,0442;0,0238787
2480,0085;0,023922
2480,9727;0,0239664
2481,9370;0,0240036
2482,9011;0,024032
2483,8655;0,024054
2484,8296;0,0240718
2485,7939;0,0240843
2486,7581;0,0240892
2487,7224;0,024088
2488,6865;0,0240884
2489,6509;0,0241012
2490,6150;0,0241339
2491,5793;0,0241839
2492,5435;0,0242389
2493,5078;0,0242829
2494,4719;0,0243046
2495,4363;0,0243036
2496,4004;0,0242894
2497,3647;0,0242764
2498,3289;0,0242767
2499,2932;0,0242952
2500,2573;0,0243294
2501,2217;0,0243711
2502,1858;0,0244109
2503,1501;0,0244418
2504,1143;0,0244601
2505,0786;0,0244652
2506,0427;0,0244576
2507,0071;0,024438
2507,9712;0,0244089
2508,9355;0,0243757
2509,8997;0,0243472
2510,8640;0,0243328
2511,8281;0,0243378
2512,7925;0,0243599
2513,7566;0,0243894
2514,7209;0,0244139
2515,6851;0,0244245
2516,6494;0,0244207
2517,6135;0,0244097
2518,5779;0,0244031
2519,5420;0,0244109
2520,5063;0,0244375
2521,4705;0,02448
2522,4348;0,0245293
2523,3989;0,0245729
2524,3633;0,0246004
2525,3274;0,0246065
2526,2917;0,0245934
2527,2559;0,0245682
2528,2202;0,0245394
2529,1843;0,0245125
2530,1487;0,0244894
2531,1128;0,0244699
2532,0771;0,0244552
2533,0413;0,02445
2534,0056;0,0244604
2534,9697;0,0244909
2535,9341;0,0245405
2536,8982;0,0246014
2537,8625;0,0246606
2538,8267;0,0247044
2539,7910;0,0247236
2540,7551;0,0247174
2541,7195;0,0246941
2542,6836;0,0246666
2543,6479;0,0246466
2544,6121;0,0246377
2545,5764;0,0246354
2546,5405;0,0246318
2547,5049;0,0246236
2548,4690;0,0246166
2549,4333;0,0246232
2550,3975;0,0246536
2551,3618;0,024707
2552,3259;0,024769
2553,2903;0,0248183
2554,2544;0,0248378
2555,2188;0,0248233
2556,1829;0,0247849
2557,1472;0,024741
2558,1113;0,024709
2559,0757;0,0246993
2560,0398;0,0247129
2561,0042;0,0247434
2561,9683;0,0247808
2562,9326;0,0248149
2563,8967;0,024838
2564,8611;0,0248471
2565,8252;0,0248445
2566,7896;0,0248363
2567,7537;0,0248292
2568,7180;0,024827
2569,6821;0,0248297
2570,6465;0,0248351
2571,6106;0,0248411
2572,5750;0,0248478
2573,5391;0,0248567
2574,5034;0,0248689
2575,4675;0,0248835
2576,4319;0,0248984
2577,3960;0,0249114
2578,3604;0,0249214
2579,3245;0,0249291
2580,2888;0,0249359
2581,2529;0,0249437
2582,2173;0,0249552
2583,1814;0,0249733
2584,1458;0,0250003
2585,1099;0,0250353
2586,0742;0,0250723
2587,0383;0,0251022
2588,0027;0,0251171
2588,9668;0,0251151
2589,9312;0,025103
2590,8953;0,0250931
2591,8596;0,0250966
2592,8237;0,0251172
2593,7881;0,0251494
2594,7522;0,0251819
2595,7166;0,0252048
2596,6807;0,0252158
2597,6450;0,0252215
2598,6091;0,0252325
2599,5735;0,025257
2600,5376;0,025295
2601,5020;0,0253384
2602,4661;0,0253759
2603,4304;0,0253999
2604,3945;0,0254107
2605,3589;0,0254163
2606,3230;0,0254261
2607,2874;0,0254455
2608,2515;0,0254723
2609,2158;0,0254997
2610,1799;0,0255206
2611,1443;0,025533
2612,1084;0,0255405
2613,0728;0,0255498
2614,0369;0,0255658
2615,0012;0,0255896
2615,9653;0,0256184
2616,9297;0,0256481
2617,8938;0,0256764
2618,8582;0,0257031
2619,8223;0,0257296
2620,7866;0,0257565
2621,7507;0,0257831
2622,7151;0,0258071
2623,6792;0,0258271
2624,6436;0,0258436
2625,6077;0,0258592
2626,5720;0,0258773
2627,5361;0,0258999
2628,5005;0,0259262
2629,4646;0,0259537
2630,4290;0,0259796
2631,3931;0,0260036
2632,3574;0,0260278
2633,3215;0,0260557
2634,2859;0,0260894
2635,2500;0,0261279
2636,2144;0,0261668
2637,1785;0,0262006
2638,1428;0,0262253
2639,1069;0,0262411
2640,0713;0,0262526
2641,0354;0,0262664
2641,9998;0,0262884
2642,9639;0,0263209
2643,9282;0,0263611
2644,8923;0,0264032
2645,8567;0,0264411
2646,8208;0,0264719
2647,7852;0,0264966
2648,7493;0,0265179
2649,7136;0,0265376
2650,6777;0,026554
2651,6421;0,0265637
2652,6062;0,0265647
2653,5706;0,0265601
2654,5347;0,0265578
2655,4990;0,0265667
2656,4631;0,026592
2657,4275;0,0266313
2658,3916;0,0266757
2659,3560;0,0267153
2660,3201;0,026744
2661,2844;0,0267625
2662,2485;0,0267768
2663,2129;0,0267938
2664,1770;0,0268171
2665,1414;0,0268454
2666,1055;0,0268735
2667,0698;0,026896
2668,0339;0,0269098
2668,9983;0,0269154
2669,9624;0,0269167
2670,9268;0,0269193
2671,8909;0,0269283
2672,8552;0,0269466
2673,8193;0,0269735
2674,7837;0,0270048
2675,7478;0,0270347
2676,7122;0,0270587
2677,6763;0,0270759
2678,6406;0,0270903
2679,6047;0,0271081
2680,5691;0,0271348
2681,5332;0,0271722
2682,4976;0,0272181
2683,4617;0,0272683
2684,4260;0,0273189
2685,3901;0,0273675
2686,3545;0,0274126
2687,3186;0,0274516
2688,2830;0,0274809
2689,2471;0,027498
2690,2114;0,027504
2691,1755;0,0275046
2692,1399;0,0275085
2693,1040;0,0275233
2694,0684;0,0275524
2695,0325;0,0275933
2695,9968;0,0276403
2696,9609;0,0276871
2697,9253;0,0277297
2698,8894;0,0277665
2699,8538;0,0277981
2700,8179;0,0278259
2701,7822;0,0278517
2702,7463;0,0278779
2703,7107;0,0279065
2704,6748;0,0279386
2705,6392;0,0279732
2706,6033;0,0280083
2707,5676;0,0280419
2708,5317;0,0280733
2709,4961;0,0281045
2710,4602;0,0281381
2711,4246;0,0281759
2712,3887;0,0282172
2713,3530;0,028259
2714,3171;0,0282973
2715,2815;0,0283296
2716,2456;0,028356
2717,2100;0,0283791
2718,1741;0,0284023
2719,1384;0,0284279
2720,1025;0,028456
2721,0669;0,0284848
2722,0310;0,0285119
2722,9954;0,0285364
2723,9595;0,0285594
2724,9238;0,0285836
2725,8879;0,0286119
2726,8523;0,0286461
2727,8164;0,0286865
2728,7808;0,0287317
2729,7449;0,0287797
2730,7092;0,0288274
2731,6733;0,0288709
2732,6377;0,0289055
2733,6018;0,0289274
2734,5662;0,0289358
2735,5303;0,0289349
2736,4946;0,0289329
2737,4587;0,0289389
2738,4231;0,0289589
2739,3872;0,0289924
2740,3516;0,029034
2741,3157;0,0290755
2742,2800;0,0291105
2743,2441;0,0291357
2744,2085;0,0291509
2745,1726;0,0291576
2746,1370;0,0291577
2747,1011;0,0291549
2748,0654;0,0291544
2749,0295;0,0291633
2749,9939;0,0291873
2750,9580;0,0292282
2751,9224;0,0292821
2752,8865;0,0293408
2753,8508;0,029395
2754,8149;0,029439
2755,7793;0,0294716
2756,7434;0,0294967
2757,7078;0,0295199
2758,6719;0,0295456
2759,6362;0,0295758
2760,6003;0,0296099
2761,5647;0,029646
2762,5288;0,029682
2763,4932;0,0297171
2764,4573;0,0297508
2765,4216;0,0297831
2766,3857;0,0298143
2767,3501;0,0298451
2768,3142;0,0298775
2769,2786;0,0299135
2770,2427;0,0299542
2771,2070;0,0299989
2772,1711;0,0300449
2773,1355;0,0300893
2774,0996;0,0301309
2775,0640;0,0301709
2776,0281;0,0302118
2776,9924;0,0302562
2777,9565;0,0303045
2778,9209;0,0303555
2779,8850;0,0304076
2780,8494;0,0304598
2781,8135;0,0305123
2782,7778;0,0305652
2783,7419;0,0306175
2784,7063;0,0306672
2785,6704;0,0307125
2786,6348;0,0307532
2787,5989;0,0307919
2788,5632;0,0308336
2789,5273;0,0308837
2790,4917;0,0309461
2791,4558;0,0310216
2792,4202;0,0311063
2793,3843;0,0311936
2794,3486;0,0312759
2795,3127;0,0313484
2796,2771;0,0314112
2797,2412;0,03147
2798,2056;0,0315332
2799,1697;0,0316079
2800,1340;0,0316968
2801,0981;0,0317976
2802,0625;0,031905
2803,0266;0,0320138
2803,9910;0,032121
2804,9551;0,0322255
2805,9194;0,0323269
2806,8835;0,0324242
2807,8479;0,0325164
2808,8120;0,0326039
2809,7764;0,0326889
2810,7405;0,0327755
2811,7048;0,0328682
2812,6689;0,0329696
2813,6333;0,0330805
2814,5974;0,0332002
2815,5618;0,0333279
2816,5259;0,0334625
2817,4902;0,033603
2818,4543;0,0337477
2819,4187;0,033894
2820,3828;0,0340398
2821,3472;0,0341844
2822,3113;0,0343294
2823,2756;0,0344785
2824,2397;0,0346362
2825,2041;0,0348065
2826,1682;0,0349917
2827,1326;0,0351925
2828,0967;0,0354077
2829,0610;0,035635
2830,0251;0,0358723
2830,9895;0,0361179
2831,9536;0,0363713
2832,9180;0,036633
2833,8821;0,0369038
2834,8464;0,0371848
2835,8105;0,0374766
2836,7749;0,0377806
2837,7390;0,0381002
2838,7034;0,0384415
2839,6675;0,0388136
2840,6318;0,0392269
2841,5959;0,0396903
2842,5603;0,0402085
2843,5244;0,0407778
2844,4888;0,0413833
2845,4529;0,0419969
2846,4172;0,0425786
2847,3813;0,0430824
2848,3457;0,0434666
2849,3098;0,0437058
2850,2742;0,043799
2851,2383;0,0437704
2852,2026;0,0436611
2853,1667;0,0435157
2854,1311;0,04337
2855,0952;0,043245
2856,0596;0,0431475
2857,0237;0,0430772
2857,9880;0,0430329
2858,9521;0,0430161
2859,9165;0,0430302
2860,8806;0,0430772
2861,8450;0,043156
2862,8091;0,0432621
2863,7734;0,0433905
2864,7375;0,0435373
2865,7019;0,0436995
2866,6660;0,0438733
2867,6304;0,044052
2868,5945;0,0442258
2869,5588;0,0443851
2870,5229;0,0445236
2871,4873;0,0446412
2872,4514;0,0447432
2873,4158;0,0448367
2874,3799;0,0449274
2875,3442;0,0450172
2876,3083;0,0451047
2877,2727;0,0451879
2878,2368;0,0452657
2879,2012;0,0453387
2880,1653;0,0454087
2881,1296;0,0454777
2882,0938;0,0455481
2883,0581;0,0456224
2884,0222;0,0457032
2884,9866;0,0457922
2885,9507;0,045889
2886,9150;0,0459914
2887,8792;0,0460957
2888,8435;0,0461983
2889,8076;0,0462969
2890,7720;0,0463902
2891,7361;0,0464778
2892,7004;0,0465601
2893,6646;0,0466387
2894,6289;0,0467173
2895,5930;0,0468009
2896,5574;0,0468943
2897,5215;0,0469992
2898,4858;0,047112
2899,4500;0,0472246
2900,4143;0,047328
2901,3784;0,0474169
2902,3428;0,0474929
2903,3069;0,0475656
2904,2712;0,0476491
2905,2354;0,0477578
2906,1997;0,0479022
2907,1638;0,0480884
2908,1282;0,04832
2909,0923;0,0486001
2910,0566;0,0489318
2911,0208;0,0493141
2911,9851;0,0497364
2912,9492;0,0501735
2913,9136;0,0505868
2914,8777;0,0509321
2915,8420;0,0511714
2916,8062;0,0512831
2917,7705;0,0512667
2918,7346;0,0511388
2919,6990;0,0509241
2920,6631;0,0506477
2921,6274;0,0503299
2922,5916;0,0499863
2923,5559;0,0496296
2924,5200;0,0492704
2925,4844;0,0489168
2926,4485;0,0485734
2927,4128;0,0482415
2928,3770;0,0479205
2929,3413;0,0476102
2930,3054;0,0473105
2931,2698;0,0470208
2932,2339;0,0467387
2933,1982;0,0464607
2934,1624;0,0461835
2935,1267;0,0459056
2936,0908;0,0456279
2937,0552;0,0453518
2938,0193;0,0450776
2938,9836;0,0448036
2939,9478;0,0445271
2940,9121;0,0442461
2941,8762;0,0439603
2942,8406;0,0436712
2943,8047;0,0433812
2944,7690;0,0430929
2945,7332;0,0428096
2946,6975;0,0425348
2947,6616;0,0422724
2948,6260;0,0420252
2949,5901;0,0417943
2950,5544;0,0415784
2951,5186;0,0413751
2952,4829;0,0411816
2953,4470;0,0409942
2954,4114;0,0408083
2955,3755;0,0406175
2956,3398;0,040416
2957,3040;0,0402013
2958,2683;0,0399771
2959,2324;0,0397531
2960,1968;0,0395412
2961,1609;0,0393491
2962,1252;0,039176
2963,0894;0,0390122
2964,0537;0,038844
2965,0178;0,0386601
2965,9822;0,0384571
2966,9463;0,0382395
2967,9106;0,0380173
2968,8748;0,0378009
2969,8391;0,0375974
2970,8032;0,0374096
2971,7676;0,0372366
2972,7317;0,037075
2973,6960;0,0369199
2974,6602;0,0367664
2975,6245;0,0366107
2976,5886;0,0364512
2977,5530;0,0362896
2978,5171;0,0361309
2979,4814;0,0359817
2980,4456;0,0358481
2981,4099;0,035733
2982,3740;0,0356348
2983,3384;0,0355482
2984,3025;0,0354668
2985,2668;0,0353865
2986,2310;0,035307
2987,1953;0,0352319
2988,1594;0,0351652
2989,1238;0,0351091
2990,0879;0,0350628
2991,0522;0,0350231
2992,0164;0,0349876
2992,9807;0,0349555
2993,9448;0,0349283
2994,9092;0,0349072
2995,8733;0,0348926
2996,8376;0,0348838
2997,8018;0,0348803
2998,7661;0,0348829
2999,7302;0,0348926
3000,6946;0,03491
3001,6587;0,0349344
3002,6230;0,034964
3003,5872;0,0349978
3004,5515;0,0350357
3005,5156;0,0350772
3006,4800;0,0351202
3007,4441;0,0351599
3008,4084;0,0351906
3009,3726;0,0352094
3010,3369;0,0352189
3011,3010;0,0352264
3012,2654;0,0352402
3013,2295;0,0352652
3014,1938;0,0353002
3015,1580;0,0353403
3016,1223;0,0353815
3017,0864;0,0354243
3018,0508;0,0354736
3019,0149;0,0355345
3019,9792;0,0356076
3020,9434;0,035687
3021,9077;0,0357631
3022,8718;0,0358288
3023,8362;0,0358843
3024,8003;0,0359379
3025,7646;0,0360007
3026,7288;0,0360792
3027,6931;0,0361707
3028,6572;0,0362644
3029,6216;0,0363478
3030,5857;0,0364136
3031,5500;0,0364645
3032,5142;0,0365113
3033,4785;0,0365671
3034,4426;0,0366408
3035,4070;0,0367333
3036,3711;0,0368385
3037,3354;0,0369468
3038,2996;0,0370498
3039,2639;0,0371432
3040,2280;0,0372288
3041,1924;0,037313
3042,1565;0,0374042
3043,1208;0,0375084
3044,0850;0,0376261
3045,0493;0,0377512
3046,0134;0,0378745
3046,9778;0,037988
3047,9419;0,0380887
3048,9063;0,0381808
3049,8704;0,0382725
3050,8347;0,0383718
3051,7988;0,0384835
3052,7632;0,0386076
3053,7273;0,0387412
3054,6917;0,0388801
3055,6558;0,0390202
3056,6201;0,0391582
3057,5842;0,0392914
3058,5486;0,0394189
3059,5127;0,0395412
3060,4771;0,0396605
3061,4412;0,0397785
3062,4055;0,0398952
3063,3696;0,0400087
3064,3340;0,0401164
3065,2981;0,0402185
3066,2625;0,0403186
3067,2266;0,0404236
3068,1909;0,0405396
3069,1550;0,0406685
3070,1194;0,0408064
3071,0835;0,0409464
3072,0479;0,0410817
3073,0120;0,041209
3073,9763;0,0413295
3074,9404;0,0414466
3075,9048;0,041563
3076,8689;0,0416795
3077,8333;0,0417952
3078,7974;0,0419098
3079,7617;0,0420251
3080,7258;0,0421442
3081,6902;0,04227
3082,6543;0,0424023
3083,6187;0,0425372
3084,5828;0,0426686
3085,5471;0,0427914
3086,5112;0,0429043
3087,4756;0,043012
3088,4397;0,0431234
3089,4041;0,0432475
3090,3682;0,0433884
3091,3325;0,0435423
3092,2966;0,0436981
3093,2610;0,0438433
3094,2251;0,0439708
3095,1895;0,0440835
3096,1536;0,0441936
3097,1179;0,0443148
3098,0820;0,0444538
3099,0464;0,0446063
3100,0105;0,0447598
3100,9749;0,044902
3101,9390;0,045029
3102,9033;0,0451472
3103,8674;0,0452687
3104,8318;0,0454031
3105,7959;0,0455525
3106,7603;0,045712
3107,7244;0,0458742
3108,6887;0,0460342
3109,6528;0,0461913
3110,6172;0,0463463
3111,5813;0,0464996
3112,5457;0,0466499
3113,5098;0,0467958
3114,4741;0,0469383
3115,4382;0,0470807
3116,4026;0,0472262
3117,3667;0,047375
3118,3311;0,0475234
3119,2952;0,0476661
3120,2595;0,0478005
3121,2236;0,04793
3122,1880;0,0480633
3123,1521;0,0482102
3124,1165;0,0483764
3125,0806;0,0485602
3126,0449;0,0487533
3127,0090;0,0489453
3127,9734;0,0491284
3128,9375;0,0493008
3129,9019;0,0494662
3130,8660;0,0496308
3131,8303;0,0497999
3132,7944;0,0499746
3133,7588;0,0501523
3134,7229;0,050328
3135,6873;0,0504977
3136,6514;0,0506603
3137,6157;0,0508183
3138,5798;0,0509765
3139,5442;0,0511397
3140,5083;0,0513105
3141,4727;0,0514886
3142,4368;0,0516716
3143,4011;0,0518572
3144,3652;0,0520441
3145,3296;0,0522328
3146,2937;0,0524234
3147,2581;0,0526139
3148,2222;0,0527994
3149,1865;0,0529746
3150,1506;0,0531376
3151,1150;0,0532925
3152,0791;0,0534497
3153,0435;0,0536212
3154,0076;0,0538142
3154,9719;0,0540265
3155,9360;0,0542467
3156,9004;0,0544594
3157,8645;0,054653
3158,8289;0,054825
3159,7930;0,0549829
3160,7573;0,0551395
3161,7214;0,0553066
3162,6858;0,0554898
3163,6499;0,0556874
3164,6143;0,0558938
3165,5784;0,0561027
3166,5427;0,0563107
3167,5068;0,0565172
3168,4712;0,056723
3169,4353;0,0568804
3170,3997;0,0570871
3171,3638;0,0572927
3172,3281;0,0574945
3173,2922;0,0576897
3174,2566;0,057877
3175,2207;0,058058
3176,1851;0,0582376
3177,1492;0,0584227
3178,1135;0,0586184
3179,0776;0,0588252
3180,0420;0,0590379
3181,0061;0,0592484
3181,9705;0,0594506
3182,9346;0,0596433
3183,8989;0,0598303
3184,8630;0,0600169
3185,8274;0,0602058
3186,7915;0,0603951
3187,7559;0,0605801
3188,7200;0,0607574
3189,6843;0,0609273
3190,6484;0,0610944
3191,6128;0,0612645
3192,5769;0,0614415
3193,5413;0,0616264
3194,5054;0,0618176
3195,4697;0,0620127
3196,4338;0,0622087
3197,3982;0,0624019
3198,3623;0,062588
3199,3267;0,0627631
3200,2908;0,0629264
3201,2551;0,0630827
3202,2192;0,0632407
3203,1836;0,0634106
3204,1477;0,0635984
3205,1121;0,063803
3206,0762;0,0640158
3207,0405;0,0642247
3208,0046;0,0644195
3208,9690;0,0645957
3209,9331;0,0647557
3210,8975;0,0649068
3211,8616;0,065058
3212,8259;0,065216
3213,7900;0,0653841
3214,7544;0,0655614
3215,7185;0,0657438
3216,6829;0,0659257
3217,6470;0,0661014
3218,6113;0,0662673
3219,5754;0,0664235
3220,5398;0,0665739
3221,5039;0,0667258
3222,4683;0,0668861
3223,4324;0,0670581
3224,3967;0,0672398
3225,3608;0,0674241
3226,3252;0,0676036
3227,2893;0,0677743
3228,2537;0,0679382
3229,2178;0,0681019
3230,1821;0,0682726
3231,1462;0,0684529
3232,1106;0,068639
3233,0747;0,0688235
3234,0391;0,0689997
3235,0032;0,0691662
3235,9675;0,0693279
3236,9316;0,0694926
3237,8960;0,0696669
3238,8601;0,0698517
3239,8245;0,0700416
3240,7886;0,0702277
3241,7529;0,0704019
3242,7170;0,0705612
3243,6814;0,0707083
3244,6455;0,0708503
3245,6099;0,0709956
3246,5740;0,0711505
3247,5383;0,0713187
3248,5024;0,0715009
3249,4668;0,0716958
3250,4309;0,0718997
3251,3953;0,0721061
3252,3594;0,0723056
3253,3237;0,0724891
3254,2878;0,0726521
3255,2522;0,0727974
3256,2163;0,0729348
3257,1807;0,073076
3258,1448;0,0732287
3259,1091;0,0733936
3260,0732;0,0735663
3261,0376;0,0737416
3262,0017;0,0739181
3262,9661;0,0740978
3263,9302;0,0742834
3264,8945;0,0744745
3265,8586;0,0746656
3266,8230;0,0748482
3267,7871;0,0750154
3268,7515;0,0751644
3269,7156;0,0752967
3270,6799;0,0754167
3271,6440;0,0755284
3272,6084;0,0756345
3273,5725;0,075736
3274,5369;0,0758334
3275,5010;0,0759273
3276,4653;0,0760187
3277,4294;0,0761086
3278,3938;0,0761969
3279,3579;0,0762824
3280,3223;0,0763623
3281,2864;0,0764339
3282,2507;0,0764968
3283,2148;0,0765542
3284,1792;0,0766126
3285,1433;0,0766785
3286,1077;0,0767542
3287,0718;0,0768353
3288,0361;0,0769121
3289,0002;0,0769748
3289,9646;0,0770193
3290,9287;0,0770494
3291,8931;0,0770747
3292,8572;0,077104
3293,8215;0,0771402
3294,7856;0,0771799
3295,7500;0,0772173
3296,7141;0,0772496
3297,6785;0,0772791
3298,6426;0,0773114
3299,6069;0,0773506
3300,5710;0,0773958
3301,5354;0,0774417
3302,4995;0,0774821
3303,4639;0,0775129
3304,4280;0,0775344
3305,3923;0,077549
3306,3564;0,0775596
3307,3208;0,0775688
3308,2849;0,0775792
3309,2493;0,0775942
3310,2134;0,0776172
3311,1777;0,0776494
3312,1418;0,0776894
3313,1062;0,0777338
3314,0703;0,0777805
3315,0347;0,0778314
3315,9988;0,0778921
3316,9631;0,0779686
3317,9272;0,0780639
3318,8916;0,0781757
3319,8557;0,0782968
3320,8201;0,0784183
3321,7842;0,078532
3322,7485;0,0786325
3323,7126;0,0787173
3324,6770;0,0787863
3325,6411;0,0788424
3326,6055;0,0788911
3327,5696;0,0789395
3328,5339;0,0789949
3329,4980;0,0790616
3330,4624;0,0791387
3331,4265;0,0792188
3332,3909;0,0792894
3333,3550;0,0793377
3334,3193;0,0793554
3335,2834;0,0793431
3336,2478;0,0793104
3337,2119;0,0792705
3338,1763;0,0792325
3339,1404;0,0791968
3340,1047;0,0791552
3341,0688;0,0790979
3342,0332;0,0790197
3342,9973;0,078924
3343,9617;0,0788205
3344,9258;0,078719
3345,8901;0,0786245
3346,8542;0,0785352
3347,8186;0,0784458
3348,7827;0,078351
3349,7471;0,0782488
3350,7112;0,078141
3351,6755;0,0780319
3352,6396;0,077925
3353,6040;0,0778216
3354,5681;0,0777189
3355,5325;0,0776119
3356,4966;0,0774955
3357,4609;0,077369
3358,4250;0,077237
3359,3894;0,0771086
3360,3535;0,076993
3361,3179;0,0768955
3362,2820;0,0768147
3363,2463;0,0767424
3364,2104;0,0766667
3365,1748;0,0765752
3366,1389;0,0764587
3367,1033;0,0763144
3368,0674;0,0761476
3369,0317;0,0759709
3369,9958;0,0757996
3370,9602;0,075645
3371,9243;0,0755102
3372,8887;0,0753892
3373,8528;0,0752708
3374,8171;0,0751457
3375,7813;0,0750105
3376,7456;0,0748683
3377,7097;0,0747257
3378,6741;0,0745885
3379,6382;0,0744589
3380,6025;0,0743353
3381,5667;0,0742126
3382,5310;0,0740846
3383,4951;0,0739466
3384,4595;0,0737994
3385,4236;0,073651
3386,3879;0,0735146
3387,3521;0,0734014
3388,3164;0,0733136
3389,2805;0,0732417
3390,2449;0,0731676
3391,2090;0,0730739
3392,1733;0,0729514
3393,1375;0,0728021
3394,1018;0,0726352
3395,0659;0,0724603
3396,0303;0,0722841
3396,9944;0,0721109
3397,9587;0,0719446
3398,9229;0,0717892
3399,8872;0,0716452
3400,8513;0,0715076
3401,8157;0,0713666
3402,7798;0,0712127
3403,7441;0,0710422
3404,7083;0,0708584
3405,6726;0,0706692
3406,6367;0,0704817
3407,6011;0,0702981
3408,5652;0,0701152
3409,5295;0,0699277
3410,4937;0,0697313
3411,4580;0,0695259
3412,4221;0,0693168
3413,3865;0,0691125
3414,3506;0,0689214
3415,3149;0,0687468
3416,2791;0,0685843
3417,2434;0,0684211
3418,2075;0,068241
3419,1719;0,0680314
3420,1360;0,0677905
3421,1003;0,0675293
3422,0645;0,0672672
3423,0288;0,0670228
3423,9929;0,0668061
3424,9573;0,0666156
3425,9214;0,0664409
3426,8857;0,0662673
3427,8499;0,0660821
3428,8142;0,0658791
3429,7783;0,0656602
3430,7427;0,0654325
3431,7068;0,065203
3432,6711;0,0649739
3433,6353;0,0647427
3434,5996;0,0645045
3435,5637;0,0642579
3436,5281;0,0640067
3437,4922;0,0637592
3438,4565;0,0635248
3439,4207;0,0633098
3440,3850;0,0631151
3441,3491;0,062935
3442,3135;0,0627567
3443,2776;0,0625619
3444,2419;0,062332
3445,2061;0,0620562
3446,1704;0,0617401
3447,1345;0,0614074
3448,0989;0,06109
3449,0630;0,0608111
3450,0273;0,0605732
3450,9915;0,0603598
3451,9558;0,0601474
3452,9199;0,0599197
3453,8843;0,0596747
3454,8484;0,0594228
3455,8127;0,0591771
3456,7769;0,0589429
3457,7412;0,0587145
3458,7053;0,0584789
3459,6697;0,0582254
3460,6338;0,0579531
3461,5981;0,0576722
3462,5623;0,0573988
3463,5266;0,0571454
3464,4907;0,0569146
3465,4551;0,0566984
3466,4192;0,0564843
3467,3835;0,0562617
3468,3477;0,0560271
3469,3120;0,055782
3470,2761;0,0555283
3471,2405;0,0552654
3472,2046;0,0549922
3473,1689;0,0547126
3474,1331;0,0544396
3475,0974;0,0541901
3476,0615;0,0539741
3477,0259;0,0537854
3477,9900;0,0536017
3478,9543;0,0533956
3479,9185;0,0531508
3480,8828;0,0528723
3481,8469;0,0525839
3482,8113;0,0523111
3483,7754;0,0520634
3484,7397;0,0518289
3485,7039;0,0515852
3486,6682;0,0513166
3487,6323;0,0510277
3488,5967;0,050742
3489,5608;0,0504871
3490,5251;0,0502765
3491,4893;0,0500988
3492,4536;0,049924
3493,4177;0,0497209
3494,3821;0,0494769
3495,3462;0,0492083
3496,3105;0,0489526
3497,2747;0,0487435
3498,2390;0,0485876
3499,2031;0,0484566
3500,1675;0,0483018
3501,1316;0,0480811
3502,0959;0,0477865
3503,0601;0,0474537
3504,0244;0,0471388
3504,9885;0,0468797
3505,9529;0,0466729
3506,9170;0,0464823
3507,8813;0,0462657
3508,8455;0,0460008
3509,8098;0,0456976
3510,7739;0,0453903
3511,7383;0,0451134
3512,7024;0,0448809
3513,6667;0,0446836
3514,6309;0,044501
3515,5952;0,0443157
3516,5593;0,0441222
3517,5237;0,0439268
3518,4878;0,0437409
3519,4521;0,0435723
3520,4163;0,0434204
3521,3806;0,0432761
3522,3447;0,043124
3523,3091;0,0429472
3524,2732;0,0427305
3525,2375;0,0424643
3526,2017;0,0421479
3527,1660;0,0417943
3528,1301;0,0414324
3529,0945;0,0411004
3530,0586;0,0408307
3531,0229;0,0406338
3531,9871;0,0404933
3532,9514;0,0403734
3533,9155;0,040233
3534,8799;0,0400424
3535,8440;0,0397965
3536,8083;0,0395195
3537,7725;0,039255
3538,7368;0,0390444
3539,7009;0,0389078
3540,6653;0,038836
3541,6294;0,0387918
3542,5938;0,0387192
3543,5579;0,038561
3544,5222;0,038288
3545,4863;0,0379244
3546,4507;0,03754
3547,4148;0,0372044
3548,3792;0,0369446
3549,3433;0,0367384
3550,3076;0,0365399
3551,2717;0,0363113
3552,2361;0,0360476
3553,2002;0,0357792
3554,1646;0,0355471
3555,1287;0,0353706
3556,0930;0,0352355
3557,0571;0,0351078
3558,0215;0,0349614
3558,9856;0,0347999
3559,9500;0,0346589
3560,9141;0,034582
3561,8784;0,0345844
3562,8425;0,0346299
3563,8069;0,034628
3564,7710;0,0344562
3565,7354;0,0340252
3566,6995;0,0333805
3567,6638;0,0327204
3568,6279;0,0322432
3569,5923;0,0320008
3570,5564;0,0319154
3571,5208;0,0318747
3572,4849;0,0317965
3573,4492;0,0316508
3574,4133;0,0314544
3575,3777;0,0312465
3576,3418;0,0310571
3577,3062;0,0308917
3578,2703;0,0307418
3579,2346;0,0306076
3580,1987;0,0305078
3581,1631;0,0304666
3582,1272;0,0304867
3583,0916;0,0305317
3584,0557;0,0305265
3585,0200;0,0303779
3585,9841;0,0300288
3586,9485;0,0295357
3587,9126;0,0290765
3588,8770;0,028819
3589,8411;0,028793
3590,8054;0,0289052
3591,7695;0,0290268
3592,7339;0,0290561
3593,6980;0,0289523
3594,6624;0,0287442
3595,6265;0,0285022
3596,5908;0,0282788
3597,5549;0,0280732
3598,5193;0,0278509
3599,4834;0,0275935
3600,4478;0,0273292
3601,4119;0,0271159
3602,3762;0,0269904
3603,3403;0,0269354
3604,3047;0,0268868
3605,2688;0,0267671
3606,2332;0,0265225
3607,1973;0,0261542
3608,1616;0,0257242
3609,1257;0,0253191
3610,0901;0,0249997
3611,0542;0,024784
3612,0186;0,0246653
3612,9827;0,0246296
3613,9470;0,0246527
3614,9111;0,0246891
3615,8755;0,0246717
3616,8396;0,0245332
3617,8040;0,0242491
3618,7681;0,0238828
3619,7324;0,0235818
3620,6965;0,0234862
3621,6609;0,0236313
3622,6250;0,0239438
3623,5894;0,0243009
3624,5535;0,0245738
3625,5178;0,0246346
3626,4819;0,0243619
3627,4463;0,023708
3628,4104;0,0228309
3629,3748;0,0220733
3630,3389;0,0216651
3631,3032;0,0215545
3632,2673;0,0215541
3633,2317;0,0215135
3634,1958;0,0213764
3635,1602;0,0211665
3636,1243;0,0209428
3637,0886;0,0207521
3638,0527;0,0206047
3639,0171;0,0204869
3639,9812;0,0203915
3640,9456;0,0203343
3641,9097;0,0203448
3642,8740;0,0204391
3643,8381;0,0205961
3644,8025;0,0207452
3645,7666;0,020756
3646,7310;0,020438
3647,6951;0,0196363
3648,6594;0,0185002
3649,6235;0,0175499
3650,5879;0,0171642
3651,5520;0,0172623
3652,5164;0,0175545
3653,4805;0,0177935
3654,4448;0,017843
3655,4089;0,017688
3656,3733;0,017428
3657,3374;0,0172121
3658,3018;0,0171297
3659,2659;0,0171623
3660,2302;0,0172338
3661,1943;0,0172871
3662,1587;0,0173213
3663,1228;0,0173754
3664,0872;0,0174803
3665,0513;0,0176204
3666,0156;0,0177311
3666,9797;0,0177299
3667,9441;0,0175685
3668,9082;0,0172957
3669,8726;0,0170581
3670,8367;0,0169797
3671,8010;0,0170431
3672,7651;0,0171123
3673,7295;0,0170334
3674,6936;0,0167382
3675,6580;0,0163254
3676,6221;0,016006
3677,5864;0,0159063
3678,5505;0,0159888
3679,5149;0,0161551
3680,4790;0,0163457
3681,4434;0,0165574
3682,4075;0,0168112
3683,3718;0,01711
3684,3359;0,0174157
3685,3003;0,0176519
3686,2644;0,017725
3687,2288;0,0175599
3688,1929;0,0171693
3689,1572;0,0167162
3690,1213;0,0164346
3691,0857;0,0164345
3692,0498;0,0166526
3693,0142;0,0169656
3693,9783;0,0172833
3694,9426;0,0175643
3695,9067;0,0177958
3696,8711;0,0179687
3697,8352;0,0180651
3698,7996;0,0180619
3699,7637;0,01795
3700,7280;0,0177617
3701,6921;0,0175777
3702,6565;0,0174925
3703,6206;0,0175567
3704,5850;0,0177521
3705,5491;0,0180121
3706,5134;0,0182502
3707,4775;0,0183685
3708,4419;0,0182584
3709,4060;0,0178346
3710,3704;0,0171371
3711,3345;0,0164025
3712,2988;0,0159234
3713,2629;0,0158222
3714,2273;0,0160302
3715,1914;0,0164096
3716,1558;0,016842
3717,1199;0,0172528
3718,0842;0,0176069
3719,0483;0,0178998
3720,0127;0,0181435
3720,9768;0,0183494
3721,9412;0,0185152
3722,9053;0,0186265
3723,8696;0,0186754
3724,8337;0,0186793
3725,7981;0,0186786
3726,7622;0,0187121
3727,7266;0,0187941
3728,6907;0,0189135
3729,6550;0,0190482
3730,6191;0,0191715
3731,5835;0,0192413
3732,5476;0,01918
3733,5120;0,0188861
3734,4761;0,0183297
3735,4404;0,0176654
3736,4045;0,0171569
3737,3689;0,0169611
3738,3330;0,0170488
3739,2974;0,0172832
3740,2615;0,0175044
3741,2258;0,0175687
3742,1899;0,0173787
3743,1543;0,01695
3744,1184;0,0164719
3745,0828;0,0162035
3746,0469;0,0162324
3747,0112;0,0164093
3747,9753;0,0164848
3748,9397;0,0162519
3749,9038;0,0156808
3750,8682;0,0150258
3751,8323;0,0146655
3752,7966;0,014744
3753,7607;0,0151117
3754,7251;0,0155346
3755,6892;0,0158345
3756,6536;0,0159222
3757,6177;0,0158084
3758,5820;0,0156011
3759,5461;0,0154482
3760,5105;0,0154399
3761,4746;0,0155671
3762,4390;0,015759
3763,4031;0,0159377
3764,3674;0,0160481
3765,3315;0,016063
3766,2959;0,0159779
3767,2600;0,0158032
3768,2244;0,0155663
3769,1885;0,0153195
3770,1528;0,0151393
3771,1169;0,0150962
3772,0813;0,0152142
3773,0454;0,0154552
3774,0098;0,0157393
3774,9739;0,015976
3775,9382;0,0160914
3776,9023;0,0160523
3777,8667;0,0158894
3778,8308;0,0156938
3779,7952;0,0155635
3780,7593;0,015539
3781,7236;0,0155901
3782,6877;0,0156559
3783,6521;0,0156879
3784,6162;0,0156726
3785,5806;0,0156296
3786,5447;0,0155941
3787,5090;0,0155965
3788,4731;0,0156505
3789,4375;0,0157511
3790,4016;0,015879
3791,3660;0,0160078
3792,3301;0,0161149
3793,2944;0,016192
3794,2585;0,0162514
3795,2229;0,0163157
3796,1870;0,0163921
3797,1514;0,0164494
3798,1155;0,0164209
3799,0798;0,0162455
3800,0439;0,0159332
3801,0083;0,0156004
3801,9724;0,0154009
3802,9368;0,0153901
3803,9009;0,015482
3804,8652;0,0155351
3805,8293;0,015464
3806,7937;0,015308
3807,7578;0,0152105
3808,7222;0,0152991
3809,6863;0,0155811
3810,6506;0,0159557
3811,6147;0,0162924
3812,5791;0,0164912
3813,5432;0,0165165
3814,5076;0,0164165
3815,4717;0,0163013
3816,4360;0,0162553
3817,4001;0,0162574
3818,3645;0,0162023
3819,3286;0,0160026
3820,2930;0,0156862
3821,2571;0,0154025
3822,2214;0,0152977
3823,1855;0,0153936
3824,1499;0,0156027
3825,1140;0,0158192
3826,0784;0,0159787
3827,0425;0,0160692
3828,0068;0,0161148
3828,9709;0,0161485
3829,9353;0,0161926
3830,8994;0,0162545
3831,8638;0,0163338
3832,8279;0,0164264
3833,7922;0,0165204
3834,7563;0,0165879
3835,7207;0,016588
3836,6848;0,0164872
3837,6492;0,0162936
3838,6133;0,0160677
3839,5776;0,0158837
3840,5417;0,0157737
3841,5061;0,0157217
3842,4702;0,0157021
3843,4346;0,0157166
3844,3987;0,0157994
3845,3630;0,0159903
3846,3271;0,0163026
3847,2915;0,0167067
3848,2556;0,0171341
3849,2200;0,0174814
3850,1841;0,0176044
3851,1484;0,017328
3852,1125;0,0165654
3853,0769;0,0155702
3854,0410;0,0148772
3855,0054;0,0147562
3855,9695;0,0150603
3856,9338;0,0155408
3857,8979;0,01603
3858,8623;0,0164395
3859,8264;0,0167201
3860,7908;0,0168415
3861,7549;0,0168021
3862,7192;0,0166526
3863,6833;0,0164926
3864,6477;0,0164128
3865,6118;0,0164372
3866,5762;0,0165218
3867,5403;0,0165931
3868,5046;0,0165868
3869,4688;0,016475
3870,4331;0,0162824
3871,3972;0,0160771
3872,3616;0,0159353
3873,3257;0,0159042
3874,2900;0,0159871
3875,2542;0,0161506
3876,2185;0,0163418
3877,1826;0,016506
3878,1470;0,0166064
3879,1111;0,01664
3880,0754;0,0166368
3881,0396;0,016631
3882,0039;0,0166235
3882,9680;0,0165803
3883,9324;0,0164758
3884,8965;0,0163375
3885,8608;0,0162398
3886,8250;0,0162419
3887,7893;0,0163326
3888,7534;0,0164336
3889,7178;0,0164524
3890,6819;0,0163518
3891,6462;0,0161947
3892,6104;0,01611
3893,5747;0,0161864
3894,5388;0,0164124
3895,5032;0,0167082
3896,4673;0,0169848
3897,4316;0,0171789
3898,3958;0,0172648
3899,3601;0,0172485
3900,3242;0,0171456
3901,2886;0,0169581
3902,2527;0,0166831
3903,2170;0,0163499
3904,1812;0,0160334
3905,1455;0,0158144
3906,1096;0,015727
3907,0740;0,015751
3908,0381;0,0158418
3909,0024;0,0159625
3909,9666;0,0160988
3910,9309;0,0162538
3911,8950;0,0164317
3912,8594;0,0166196
3913,8235;0,0167803
3914,7878;0,0168631
3915,7520;0,016833
3916,7163;0,0167034
3917,6804;0,0165451
3918,6448;0,0164452
3919,6089;0,0164486
3920,5732;0,0165333
3921,5374;0,0166334
3922,5017;0,0166835
3923,4658;0,0166588
3924,4302;0,0165917
3925,3943;0,0165477
3926,3586;0,0165743
3927,3228;0,016667
3928,2871;0,0167737
3929,2512;0,0168257
3930,2156;0,0167757
3931,1797;0,0166284
3932,1440;0,0164423
3933,1082;0,0162918
3934,0725;0,0162229
3935,0366;0,0162385
3936,0010;0,0163143
3936,9651;0,0164198
3937,9294;0,0165282
3938,8936;0,0166188
3939,8579;0,0166773
3940,8220;0,0167009
3941,7864;0,0167031
3942,7505;0,0167094
3943,7148;0,0167403
3944,6790;0,0167941
3945,6433;0,0168435
3946,6074;0,01685
3947,5718;0,0167868
3948,5359;0,0166587
3949,5002;0,0165046
3950,4644;0,0163761
3951,4287;0,0163078
3952,3928;0,0163042
3953,3572;0,0163471
3954,3213;0,0164121
3955,2856;0,0164798
3956,2498;0,0165391
3957,2141;0,0165834
3958,1782;0,0166075
3959,1426;0,0166074
3960,1067;0,0165838
3961,0710;0,0165442
3962,0352;0,0165014
3962,9995;0,016468
3963,9636;0,0164507
3964,9280;0,0164485
3965,8921;0,0164563
3966,8564;0,0164686
3967,8206;0,0164831
3968,7849;0,0165004
3969,7490;0,0165218
3970,7134;0,0165467
3971,6775;0,0165714
3972,6418;0,0165895
3973,6060;0,0165949
3974,5703;0,0165846
3975,5344;0,016561
3976,4988;0,0165312
3977,4629;0,016504
3978,4272;0,016486
3979,3914;0,0164792
3980,3557;0,0164805
3981,3198;0,0164841
3982,2842;0,0164853
3983,2483;0,0164837
3984,2126;0,0164829
3985,1768;0,0164881
3986,1411;0,0165019
3987,1052;0,0165224
3988,0696;0,0165429
3989,0337;0,0165556
3989,9980;0,0165549
3990,9622;0,01654
3991,9265;0,0165147
3992,8906;0,016486
3993,8550;0,0164609
3994,8191;0,016444
3995,7834;0,0164363
3996,7476;0,0164347
3997,7119;0,0164341
3998,6760;0,0164308
3999,6404;0,0164248
4000,6045;0,0164332

##### Extended Information
[Comments]
Sample name
Comment
Username
Division
Organization;UNIVERSIDAD INDUSTRIAL DE SANTANDER

[Detailed Information]
Creation date;26/03/2025 4:44 p.m.

Data array type;Linear data array
Horizontal axis;Wavenumber [cm-1]
Vertical axis;Abs
Start;399,193 cm-1
End;4000,6 cm-1
Data interval;0,964233 cm-1
Data points;3736    

[Measurement Information]
Model name;FT/IR-4X1typeA
Serial No.;A035162111

Accessory;ATR PRO 4X
Accessory S/N;A021162126
Incident angle;45 deg

Measurement date;26/03/2025 4:43 p.m.

Light source;Standard
Detector;TGS
Accumulation;40
Resolution;4 cm-1
Zero filling;On
Apodization;Cosine
Gain;Auto (8)
Aperture;Auto (7 mm)
Scan speed;Auto (2 mm/sec)
Filter;Auto (12800 Hz)

