TITLE;
DATA TYPE;INFRARED SPECTRUM
ORIGIN;JASCO
OWNER;
DATE;25/03/26
TIME;16:46:40
SPECTROMETER/DATA SYSTEM;
LOCALE;9226
RESOLUTION;
DELTAX;0,964233
XUNITS;1/CM
YUNITS;ABSORBANCE
FIRSTX;  399,1927
LASTX; 4000,6047
NPOINTS;    3736
FIRSTY;     0,20181
MAXY;     0,28308
MINY;     0,01483
XYDATA
399,1927;0,201814
400,1569;0,202385
401,1211;0,202813
402,0854;0,203037
403,0496;0,203
404,0138;0,202671
404,9781;0,202098
405,9423;0,201455
406,9065;0,201008
407,8708;0,20101
408,8350;0,20158
409,7992;0,202658
410,7635;0,204041
411,7277;0,205474
412,6919;0,206762
413,6562;0,207817
414,6204;0,208632
415,5846;0,209207
416,5489;0,209517
417,5131;0,209544
418,4773;0,209404
419,4416;0,209393
420,4058;0,209775
421,3700;0,210577
422,3343;0,211673
423,2985;0,21293
424,2627;0,214223
425,2270;0,215405
426,1912;0,216311
427,1554;0,216816
428,1197;0,2169
429,0839;0,216665
430,0481;0,216309
431,0124;0,216059
431,9766;0,216089
432,9408;0,216443
433,9051;0,217013
434,8693;0,217587
435,8335;0,217938
436,7978;0,217938
437,7620;0,217606
438,7262;0,21708
439,6905;0,216533
440,6547;0,216101
441,6189;0,215835
442,5832;0,215699
443,5474;0,215613
444,5116;0,215519
445,4759;0,215421
446,4401;0,215354
447,4043;0,215326
448,3686;0,215283
449,3328;0,215139
450,2970;0,214839
451,2613;0,214414
452,2255;0,213969
453,1897;0,213613
454,1540;0,21339
455,1182;0,213256
456,0824;0,213127
457,0467;0,212953
458,0109;0,212761
458,9751;0,212632
459,9394;0,21262
460,9036;0,212704
461,8678;0,212821
462,8321;0,212911
463,7963;0,21293
464,7605;0,212854
465,7248;0,212664
466,6890;0,212362
467,6532;0,211972
468,6175;0,211553
469,5817;0,211174
470,5459;0,2109
471,5102;0,21076
472,4744;0,210742
473,4386;0,210814
474,4029;0,210953
475,3671;0,211157
476,3313;0,211435
477,2956;0,211778
478,2598;0,212156
479,2240;0,212518
480,1883;0,212813
481,1525;0,213005
482,1167;0,213085
483,0810;0,213079
484,0452;0,213054
485,0094;0,213098
485,9737;0,213281
486,9379;0,213612
487,9021;0,214032
488,8664;0,214435
489,8306;0,214721
490,7948;0,214844
491,7591;0,214845
492,7233;0,214831
493,6875;0,214905
494,6518;0,215104
495,6160;0,215381
496,5802;0,215653
497,5445;0,215859
498,5087;0,215994
499,4729;0,216099
500,4372;0,216228
501,4014;0,216403
502,3656;0,216598
503,3299;0,216771
504,2941;0,216904
505,2583;0,21703
506,2226;0,217212
507,1868;0,217502
508,1510;0,217911
509,1153;0,218405
510,0795;0,218936
511,0437;0,219475
512,0080;0,220024
512,9722;0,220601
513,9365;0,221206
514,9007;0,221808
515,8649;0,222351
516,8292;0,222788
517,7934;0,22311
518,7576;0,223353
519,7219;0,223561
520,6861;0,223746
521,6503;0,223881
522,6146;0,223927
523,5788;0,223871
524,5430;0,22375
525,5073;0,223636
526,4715;0,223582
527,4357;0,223577
528,4000;0,223538
529,3642;0,223373
530,3284;0,223035
531,2927;0,222552
532,2569;0,222
533,2211;0,221455
534,1854;0,220956
535,1496;0,220491
536,1138;0,220041
537,0781;0,219622
538,0423;0,219293
539,0065;0,219124
539,9708;0,219149
540,9350;0,219335
541,8992;0,219603
542,8635;0,219874
543,8277;0,220116
544,7919;0,220349
545,7562;0,220628
546,7204;0,220997
547,6846;0,221454
548,6489;0,221952
549,6131;0,222427
550,5773;0,222838
551,5416;0,223184
552,5058;0,2235
553,4700;0,22383
554,4343;0,224196
555,3985;0,224565
556,3627;0,224854
557,3270;0,224949
558,2912;0,224745
559,2554;0,224185
560,2197;0,223278
561,1839;0,222096
562,1481;0,220757
563,1124;0,219387
564,0766;0,218092
565,0408;0,216933
566,0051;0,215925
566,9693;0,215048
567,9335;0,214276
568,8978;0,213596
569,8620;0,213014
570,8262;0,21255
571,7905;0,212211
572,7547;0,211982
573,7189;0,211823
574,6832;0,211677
575,6474;0,211495
576,6116;0,211255
577,5759;0,210964
578,5401;0,210653
579,5043;0,210357
580,4686;0,210102
581,4328;0,209896
582,3970;0,209733
583,3613;0,209597
584,3255;0,209465
585,2897;0,209321
586,2540;0,209157
587,2182;0,208979
588,1824;0,208808
589,1467;0,20867
590,1109;0,208586
591,0751;0,208554
592,0394;0,208548
593,0036;0,208517
593,9678;0,208409
594,9321;0,208191
595,8963;0,207851
596,8605;0,207409
597,8248;0,206899
598,7890;0,206363
599,7532;0,205837
600,7175;0,205339
601,6817;0,204866
602,6459;0,204403
603,6102;0,203926
604,5744;0,20342
605,5386;0,202871
606,5029;0,202266
607,4671;0,20159
608,4313;0,200829
609,3956;0,199984
610,3598;0,199087
611,3240;0,1982
612,2883;0,197397
613,2525;0,196732
614,2167;0,196204
615,1810;0,195744
616,1452;0,195216
617,1094;0,194469
618,0737;0,193401
619,0379;0,192009
620,0021;0,190385
620,9664;0,188668
621,9306;0,186996
622,8948;0,18547
623,8591;0,184155
624,8233;0,183052
625,7875;0,182157
626,7518;0,181406
627,7160;0,180728
628,6802;0,18006
629,6445;0,179372
630,6087;0,178665
631,5729;0,177959
632,5372;0,177277
633,5014;0,176637
634,4656;0,176044
635,4299;0,175492
636,3941;0,174975
637,3583;0,174487
638,3226;0,174021
639,2868;0,173576
640,2510;0,17315
641,2153;0,172749
642,1795;0,172385
643,1437;0,172066
644,1080;0,171795
645,0722;0,171555
646,0364;0,17132
647,0007;0,171057
647,9649;0,17075
648,9291;0,170406
649,8934;0,170063
650,8576;0,169773
651,8218;0,169585
652,7861;0,169522
653,7503;0,16958
654,7145;0,16973
655,6788;0,169937
656,6430;0,170167
657,6072;0,1704
658,5715;0,170611
659,5357;0,170755
660,4999;0,170758
661,4642;0,170557
662,4284;0,17014
663,3926;0,169553
664,3569;0,168894
665,3211;0,168314
666,2853;0,168002
667,2496;0,168002
668,2138;0,167915
669,1780;0,16716
670,1423;0,165755
671,1065;0,164097
672,0707;0,16236
673,0350;0,160509
673,9992;0,158507
674,9634;0,15638
675,9277;0,154216
676,8919;0,152116
677,8561;0,150152
678,8204;0,148361
679,7846;0,146773
680,7488;0,145415
681,7131;0,144294
682,6773;0,143371
683,6415;0,142569
684,6058;0,141815
685,5700;0,141065
686,5342;0,140313
687,4985;0,139574
688,4627;0,138861
689,4269;0,138181
690,3912;0,137544
691,3554;0,136966
692,3196;0,136458
693,2839;0,13602
694,2481;0,13563
695,2123;0,135251
696,1766;0,134846
697,1408;0,134386
698,1050;0,13386
699,0693;0,133272
700,0335;0,132635
700,9977;0,131968
701,9620;0,131294
702,9262;0,130636
703,8904;0,130003
704,8547;0,129398
705,8189;0,128807
706,7831;0,128209
707,7474;0,127588
708,7116;0,126944
709,6758;0,126284
710,6401;0,125613
711,6043;0,124926
712,5685;0,124207
713,5328;0,123454
714,4970;0,122694
715,4612;0,12172
716,4255;0,121135
717,3897;0,12065
718,3539;0,120187
719,3182;0,119613
720,2824;0,118807
721,2466;0,117736
722,2109;0,116474
723,1751;0,115156
724,1393;0,113908
725,1036;0,1128
726,0678;0,111845
727,0320;0,111011
727,9963;0,110255
728,9605;0,109533
729,9247;0,108814
730,8890;0,108077
731,8532;0,107319
732,8174;0,106551
733,7817;0,105803
734,7459;0,105108
735,7101;0,104496
736,6744;0,103977
737,6386;0,10354
738,6028;0,103154
739,5671;0,102782
740,5313;0,102389
741,4955;0,101953
742,4598;0,101466
743,4240;0,100939
744,3882;0,100387
745,3525;0,0998288
746,3167;0,0992764
747,2809;0,0987382
748,2452;0,0982189
749,2094;0,0977211
750,1736;0,0972451
751,1379;0,0967872
752,1021;0,0963389
753,0663;0,0958896
754,0306;0,0954312
754,9948;0,0949619
755,9590;0,0944854
756,9233;0,0940077
757,8875;0,0935324
758,8517;0,0930609
759,8160;0,0925951
760,7802;0,0921413
761,7444;0,0917096
762,7087;0,0913073
763,6729;0,0909312
764,6371;0,0905655
765,6014;0,090189
766,5656;0,0897877
767,5298;0,0893652
768,4941;0,0889414
769,4583;0,0885409
770,4225;0,0881791
771,3868;0,0878552
772,3510;0,087558
773,3152;0,0872772
774,2795;0,0870123
775,2437;0,0867714
776,2079;0,0865619
777,1722;0,086381
778,1364;0,0862132
779,1006;0,0860353
780,0649;0,0858238
781,0291;0,0855598
781,9933;0,0852289
782,9576;0,0848212
783,9218;0,0843356
784,8860;0,0837868
785,8503;0,0832086
786,8145;0,0826488
787,7787;0,0821544
788,7430;0,0817534
789,7072;0,0814451
790,6714;0,0812027
791,6357;0,0809881
792,5999;0,0807694
793,5641;0,0805313
794,5284;0,0802765
795,4926;0,0800175
796,4568;0,0797674
797,4211;0,0795337
798,3853;0,0793166
799,3495;0,0791117
800,3138;0,0789125
801,2780;0,0787128
802,2422;0,0785081
803,2065;0,0782975
804,1707;0,0780846
805,1349;0,0778765
806,0992;0,0776812
807,0634;0,0775048
808,0276;0,0773485
808,9919;0,0772092
809,9561;0,0770821
810,9203;0,0769622
811,8846;0,0768461
812,8488;0,0767298
813,8130;0,0766079
814,7773;0,0764746
815,7415;0,0763276
816,7057;0,0761719
817,6700;0,0760204
818,6342;0,0758893
819,5984;0,0757911
820,5627;0,0757291
821,5269;0,075697
822,4911;0,0756831
823,4554;0,0756755
824,4196;0,0756641
825,3839;0,07564
826,3481;0,075594
827,3123;0,0755188
828,2766;0,0754133
829,2408;0,0752853
830,2050;0,0751493
831,1693;0,0750185
832,1335;0,0748961
833,0977;0,0747718
834,0620;0,0746263
835,0262;0,0744415
835,9904;0,0742103
836,9547;0,0739403
837,9189;0,0736496
838,8831;0,0733583
839,8474;0,0730806
840,8116;0,0728224
841,7758;0,0725842
842,7401;0,0723671
843,7043;0,0721752
844,6685;0,072014
845,6328;0,0718847
846,5970;0,0717795
847,5612;0,0716828
848,5255;0,0715789
849,4897;0,0714613
850,4539;0,0713365
851,4182;0,0712186
852,3824;0,0711187
853,3466;0,0710359
854,3109;0,0709583
855,2751;0,0708716
856,2393;0,070771
857,2036;0,0706656
858,1678;0,0705744
859,1320;0,0705162
860,0963;0,0705024
861,0605;0,0705364
862,0247;0,0706168
862,9890;0,0707418
863,9532;0,0709083
864,9174;0,0711089
865,8817;0,0713298
866,8459;0,0715543
867,8101;0,0717689
868,7744;0,0719702
869,7386;0,0721656
870,7028;0,0723688
871,6671;0,0725912
872,6313;0,0728353
873,5955;0,073092
874,5598;0,0733445
875,5240;0,0735745
876,4882;0,0737713
877,4525;0,0739374
878,4167;0,0740895
879,3809;0,0742543
880,3452;0,0744616
881,3094;0,0747373
882,2736;0,0750999
883,2379;0,0755611
884,2021;0,076128
885,1663;0,0768034
886,1306;0,0775849
887,0948;0,0784622
888,0590;0,0794177
889,0233;0,0804286
889,9875;0,0814702
890,9517;0,0825167
891,9160;0,0835387
892,8802;0,0844997
893,8444;0,0853562
894,8087;0,0860631
895,7729;0,0865837
896,7371;0,0868979
897,7014;0,0870045
898,6656;0,0869156
899,6298;0,0866492
900,5941;0,0862231
901,5583;0,0856565
902,5225;0,0849758
903,4868;0,0842193
904,4510;0,0834356
905,4152;0,0826756
906,3795;0,0819818
907,3437;0,0813812
908,3079;0,0808847
909,2722;0,0804927
910,2364;0,0802002
911,2007;0,0800003
912,1649;0,0798834
913,1292;0,0798374
914,0934;0,0798504
915,0576;0,0799148
916,0219;0,0800304
916,9861;0,0802019
917,9503;0,0804325
918,9146;0,0807172
919,8788;0,0810412
920,8430;0,0813851
921,8073;0,0817325
922,7715;0,0820753
923,7357;0,0824119
924,7000;0,0827413
925,6642;0,0830568
926,6284;0,0833464
927,5927;0,083598
928,5569;0,0838076
929,5211;0,0839835
930,4854;0,0841455
931,4496;0,0843176
932,4138;0,0845204
933,3781;0,0847659
934,3423;0,0850574
935,3065;0,0853937
936,2708;0,085774
937,2350;0,086202
938,1992;0,086686
939,1635;0,0872362
940,1277;0,0878618
941,0919;0,0885689
942,0562;0,0893614
943,0204;0,0902417
943,9846;0,0912117
944,9489;0,0922708
945,9131;0,0934152
946,8773;0,0946388
947,8416;0,0959367
948,8058;0,0973085
949,7700;0,0987584
950,7343;0,100291
951,6985;0,101907
952,6627;0,1036
953,6270;0,105362
954,5912;0,10719
955,5554;0,109088
956,5197;0,111066
957,4839;0,11313
958,4481;0,115274
959,4124;0,117487
960,3766;0,119748
961,3408;0,122039
962,3051;0,124343
963,2693;0,126646
964,2335;0,128935
965,1978;0,131205
966,1620;0,133465
967,1262;0,135747
968,0905;0,138097
969,0547;0,140569
970,0189;0,143206
970,9832;0,146034
971,9474;0,149061
972,9116;0,152292
973,8759;0,155733
974,8401;0,159402
975,8043;0,163323
976,7686;0,167511
977,7328;0,17196
978,6970;0,176625
979,6613;0,181416
980,6255;0,186207
981,5897;0,190855
982,5540;0,195231
983,5182;0,199244
984,4824;0,202853
985,4467;0,206064
986,4109;0,208905
987,3751;0,211415
988,3394;0,213629
989,3036;0,215575
990,2678;0,217278
991,2321;0,218762
992,1963;0,220054
993,1605;0,22118
994,1248;0,22217
995,0890;0,223057
996,0532;0,223877
997,0175;0,224668
997,9817;0,225461
998,9459;0,22628
999,9102;0,227138
1000,8744;0,228051
1001,8386;0,229044
1002,8029;0,230159
1003,7671;0,231445
1004,7313;0,232955
1005,6956;0,234726
1006,6598;0,236772
1007,6240;0,239086
1008,5883;0,241648
1009,5525;0,244432
1010,5167;0,247412
1011,4810;0,250555
1012,4452;0,253813
1013,4094;0,257116
1014,3737;0,260368
1015,3379;0,263462
1016,3021;0,266299
1017,2664;0,268809
1018,2306;0,270968
1019,1948;0,272793
1020,1591;0,274336
1021,1233;0,275667
1022,0875;0,276851
1023,0518;0,27794
1024,0160;0,278966
1024,9802;0,279937
1025,9445;0,28084
1026,9087;0,281653
1027,8729;0,282335
1028,8372;0,282834
1029,8014;0,283076
1030,7656;0,282976
1031,7299;0,282448
1032,6941;0,281427
1033,6583;0,279898
1034,6226;0,27791
1035,5868;0,275574
1036,5510;0,273044
1037,5153;0,270493
1038,4795;0,268082
1039,4437;0,265944
1040,4080;0,264165
1041,3722;0,262778
1042,3364;0,261759
1043,3007;0,261038
1044,2649;0,260508
1045,2291;0,260051
1046,1934;0,259562
1047,1576;0,258963
1048,1218;0,258202
1049,0861;0,257247
1050,0503;0,256071
1051,0145;0,254652
1051,9788;0,252975
1052,9430;0,251045
1053,9072;0,248885
1054,8715;0,246526
1055,8357;0,243988
1056,7999;0,241256
1057,7642;0,238283
1058,7284;0,235012
1059,6926;0,23141
1060,6569;0,227509
1061,6211;0,223407
1062,5853;0,219255
1063,5496;0,21521
1064,5138;0,211392
1065,4780;0,207864
1066,4423;0,204626
1067,4065;0,201638
1068,3707;0,198846
1069,3350;0,196197
1070,2992;0,193649
1071,2634;0,191172
1072,2277;0,188738
1073,1919;0,186316
1074,1561;0,183875
1075,1204;0,181387
1076,0846;0,17884
1077,0488;0,176249
1078,0131;0,173656
1078,9773;0,171122
1079,9415;0,168716
1080,9058;0,166494
1081,8700;0,164494
1082,8342;0,162736
1083,7985;0,161225
1084,7627;0,159952
1085,7269;0,158897
1086,6912;0,158028
1087,6554;0,157306
1088,6196;0,156696
1089,5839;0,156178
1090,5481;0,155747
1091,5123;0,15541
1092,4766;0,155175
1093,4408;0,155037
1094,4050;0,154982
1095,3693;0,154985
1096,3335;0,155024
1097,2977;0,155087
1098,2620;0,155164
1099,2262;0,155249
1100,1904;0,155325
1101,1547;0,155365
1102,1189;0,155337
1103,0831;0,15521
1104,0474;0,154969
1105,0116;0,154617
1105,9758;0,154171
1106,9401;0,153647
1107,9043;0,153049
1108,8685;0,152359
1109,8328;0,151542
1110,7970;0,150555
1111,7612;0,149366
1112,7255;0,147971
1113,6897;0,146401
1114,6539;0,144721
1115,6182;0,143019
1116,5824;0,141377
1117,5466;0,139851
1118,5109;0,138455
1119,4751;0,137155
1120,4393;0,135878
1121,4036;0,134537
1122,3678;0,133048
1123,3320;0,131351
1124,2963;0,129415
1125,2605;0,127242
1126,2247;0,124857
1127,1890;0,122306
1128,1532;0,119642
1129,1174;0,116917
1130,0817;0,114177
1131,0459;0,111458
1132,0101;0,108794
1132,9744;0,10622
1133,9386;0,103784
1134,9028;0,10154
1135,8671;0,0995479
1136,8313;0,0978572
1137,7955;0,0964995
1138,7598;0,0954811
1139,7240;0,0947845
1140,6882;0,0943753
1141,6525;0,094211
1142,6167;0,0942497
1143,5809;0,094455
1144,5452;0,094798
1145,5094;0,095257
1146,4736;0,0958158
1147,4379;0,0964612
1148,4021;0,0971818
1149,3663;0,097965
1150,3306;0,098794
1151,2948;0,099645
1152,2590;0,100484
1153,2233;0,101267
1154,1875;0,101942
1155,1517;0,102449
1156,1160;0,102732
1157,0802;0,102735
1158,0444;0,102407
1159,0087;0,1017
1159,9729;0,10057
1160,9371;0,0989838
1161,9014;0,0969285
1162,8656;0,0944217
1163,8298;0,0915191
1164,7941;0,0883134
1165,7583;0,0849232
1166,7225;0,0814774
1167,6868;0,0780982
1168,6510;0,074887
1169,6152;0,0719163
1170,5795;0,0692268
1171,5437;0,0668306
1172,5079;0,0647183
1173,4722;0,0628687
1174,4364;0,061257
1175,4006;0,0598609
1176,3649;0,058661
1177,3291;0,0576386
1178,2933;0,0567732
1179,2576;0,0560428
1180,2218;0,0554273
1181,1860;0,0549125
1182,1503;0,0544913
1183,1145;0,0541617
1184,0787;0,0539219
1185,0430;0,0537682
1186,0072;0,0536961
1186,9714;0,0537044
1187,9357;0,0537987
1188,8999;0,0539901
1189,8641;0,0542893
1190,8284;0,0547007
1191,7926;0,0552192
1192,7568;0,0558319
1193,7211;0,056523
1194,6853;0,0572766
1195,6495;0,0580764
1196,6138;0,0589035
1197,5780;0,0597363
1198,5422;0,0605539
1199,5065;0,0612909
1200,4707;0,0620513
1201,4349;0,0627836
1202,3992;0,0634955
1203,3634;0,0641905
1204,3276;0,0648652
1205,2919;0,0655128
1206,2561;0,0661307
1207,2203;0,0667266
1208,1846;0,0673215
1209,1488;0,0679459
1210,1130;0,0686332
1211,0773;0,0694125
1212,0415;0,0703021
1213,0057;0,071306
1213,9700;0,0724132
1214,9342;0,0736004
1215,8984;0,074836
1216,8627;0,0760859
1217,8269;0,0773199
1218,7911;0,0785174
1219,7554;0,0796683
1220,7196;0,0807718
1221,6838;0,081831
1222,6481;0,0828475
1223,6123;0,083819
1224,5765;0,0847398
1225,5408;0,0856051
1226,5050;0,0864132
1227,4692;0,0871662
1228,4335;0,0878673
1229,3977;0,0885162
1230,3619;0,0891078
1231,3262;0,0896323
1232,2904;0,0900798
1233,2546;0,0904442
1234,2189;0,0907264
1235,1831;0,0909344
1236,1473;0,091081
1237,1116;0,0911804
1238,0758;0,091244
1239,0400;0,0912773
1240,0043;0,0912783
1240,9685;0,0912378
1241,9327;0,0911437
1242,8970;0,0909845
1243,8612;0,0907544
1244,8254;0,0904542
1245,7897;0,0900912
1246,7539;0,089676
1247,7181;0,0892199
1248,6824;0,0887325
1249,6466;0,0882217
1250,6108;0,0876941
1251,5751;0,0871574
1252,5393;0,0866208
1253,5035;0,0860944
1254,4678;0,0855862
1255,4320;0,0850973
1256,3962;0,0846201
1257,3605;0,084139
1258,3247;0,0836358
1259,2889;0,0830946
1260,2532;0,0825062
1261,2174;0,0818679
1262,1816;0,0811815
1263,1459;0,080451
1264,1101;0,0796818
1265,0743;0,0788806
1266,0386;0,0780545
1267,0028;0,0772074
1267,9670;0,0763379
1268,9313;0,0754402
1269,8955;0,0745093
1270,8597;0,0735466
1271,8240;0,0725625
1272,7882;0,0715734
1273,7524;0,0705963
1274,7167;0,0696446
1275,6809;0,0687267
1276,6451;0,0678478
1277,6094;0,0670101
1278,5736;0,0662115
1279,5378;0,0654451
1280,5021;0,0647016
1281,4663;0,0639746
1282,4305;0,0632656
1283,3948;0,0625852
1284,3590;0,0619496
1285,3232;0,0613748
1286,2875;0,0608729
1287,2517;0,0604507
1288,2159;0,0601112
1289,1802;0,0598559
1290,1444;0,0596855
1291,1086;0,0595997
1292,0729;0,0595967
1293,0371;0,0596738
1294,0013;0,0598279
1294,9656;0,0600561
1295,9298;0,0603564
1296,8940;0,0607278
1297,8583;0,0611702
1298,8225;0,0616827
1299,7867;0,0622622
1300,7510;0,0629018
1301,7152;0,0635919
1302,6794;0,0643231
1303,6437;0,0650896
1304,6079;0,065891
1305,5721;0,066731
1306,5364;0,0676129
1307,5006;0,0685368
1308,4648;0,0694973
1309,4291;0,0704837
1310,3933;0,0714794
1311,3575;0,0724607
1312,3218;0,0733973
1313,2860;0,0742562
1314,2502;0,0750053
1315,2145;0,0756151
1316,1787;0,0760571
1317,1429;0,0763055
1318,1072;0,0763463
1319,0714;0,0761925
1320,0356;0,0758901
1320,9999;0,0755066
1321,9641;0,075107
1322,9283;0,0747347
1323,8926;0,0744072
1324,8568;0,0741241
1325,8210;0,0738781
1326,7853;0,0736618
1327,7495;0,0734687
1328,7137;0,0732886
1329,6780;0,0731055
1330,6422;0,0728994
1331,6064;0,0726539
1332,5707;0,072363
1333,5349;0,0720315
1334,4991;0,0716662
1335,4634;0,0712632
1336,4276;0,0708009
1337,3918;0,070245
1338,3561;0,0695726
1339,3203;0,0688045
1340,2845;0,0680121
1341,2488;0,0672809
1342,2130;0,0666656
1343,1772;0,066177
1344,1415;0,0658008
1345,1057;0,0655186
1346,0699;0,0653197
1347,0342;0,0652035
1347,9984;0,0651769
1348,9626;0,065248
1349,9269;0,06542
1350,8911;0,0656859
1351,8553;0,06603
1352,8196;0,0664341
1353,7838;0,0668866
1354,7480;0,0673864
1355,7123;0,0679404
1356,6765;0,0685538
1357,6407;0,069223
1358,6050;0,0699345
1359,5692;0,0706651
1360,5334;0,0713809
1361,4977;0,0720386
1362,4619;0,0726041
1363,4261;0,0730777
1364,3904;0,0734914
1365,3546;0,0738788
1366,3188;0,0742507
1367,2831;0,0745949
1368,2473;0,0748876
1369,2115;0,0751058
1370,1758;0,0752321
1371,1400;0,0752508
1372,1042;0,0751414
1373,0685;0,0748821
1374,0327;0,074469
1374,9969;0,0739321
1375,9612;0,0733178
1376,9254;0,0726474
1377,8896;0,0718978
1378,8539;0,0710296
1379,8181;0,0700339
1380,7823;0,0689594
1381,7466;0,0678926
1382,7108;0,0669012
1383,6750;0,0659925
1384,6393;0,0651161
1385,6035;0,0642096
1386,5677;0,0632619
1387,5320;0,0623494
1388,4962;0,0615884
1389,4604;0,0610431
1390,4247;0,0606932
1391,3889;0,0604761
1392,3531;0,0603364
1393,3174;0,0602442
1394,2816;0,0601884
1395,2458;0,0601613
1396,2101;0,0601519
1397,1743;0,0601526
1398,1385;0,0601718
1399,1028;0,0602339
1400,0670;0,0603644
1401,0313;0,0605731
1401,9955;0,0608494
1402,9597;0,0611703
1403,9240;0,061514
1404,8882;0,0618712
1405,8524;0,0622496
1406,8167;0,0626671
1407,7809;0,0631386
1408,7451;0,06367
1409,7094;0,0642625
1410,6736;0,0649154
1411,6378;0,0656234
1412,6021;0,0663717
1413,5663;0,0671374
1414,5305;0,0678944
1415,4948;0,0686153
1416,4590;0,069265
1417,4232;0,069794
1418,3875;0,0701608
1419,3517;0,0703811
1420,3159;0,0705181
1421,2802;0,0706037
1422,2444;0,0706069
1423,2086;0,0704771
1424,1729;0,0701931
1425,1371;0,0697729
1426,1013;0,0692415
1427,0656;0,0685937
1428,0298;0,0677961
1428,9940;0,0668381
1429,9583;0,0657871
1430,9225;0,0647721
1431,8867;0,0638885
1432,8510;0,063123
1433,8152;0,0623649
1434,7794;0,0614817
1435,7437;0,0604293
1436,7079;0,0593465
1437,6721;0,0584867
1438,6364;0,0579959
1439,6006;0,0578253
1440,5648;0,0578448
1441,5291;0,0579572
1442,4933;0,0581275
1443,4575;0,0583593
1444,4218;0,0586616
1445,3860;0,0590269
1446,3502;0,0594308
1447,3145;0,0598473
1448,2787;0,0602654
1449,2429;0,0606918
1450,2072;0,0611342
1451,1714;0,0615822
1452,1356;0,0620051
1453,0999;0,0623604
1454,0641;0,0625949
1455,0283;0,0626262
1455,9926;0,0623403
1456,9568;0,0617347
1457,9210;0,061112
1458,8853;0,0608058
1459,8495;0,0608129
1460,8137;0,0609257
1461,7780;0,0609356
1462,7422;0,0606771
1463,7064;0,060039
1464,6707;0,0590361
1465,6349;0,0578599
1466,5991;0,0567482
1467,5634;0,0557888
1468,5276;0,0548955
1469,4918;0,0538991
1470,4561;0,0526159
1471,4203;0,0509052
1472,3845;0,0487958
1473,3488;0,0466002
1474,3130;0,0447264
1475,2772;0,0433312
1476,2415;0,0423102
1477,2057;0,0415069
1478,1699;0,0408213
1479,1342;0,0402097
1480,0984;0,0396596
1481,0626;0,039176
1482,0269;0,0387787
1482,9911;0,0384932
1483,9553;0,0383352
1484,9196;0,0382995
1485,8838;0,0383603
1486,8480;0,0384761
1487,8123;0,0385967
1488,7765;0,0386893
1489,7407;0,0387858
1490,7050;0,0389699
1491,6692;0,0392923
1492,6334;0,0397435
1493,5977;0,0402961
1494,5619;0,0409407
1495,5261;0,0416844
1496,4904;0,0425244
1497,4546;0,0434245
1498,4188;0,0443314
1499,3831;0,0452074
1500,3473;0,0460253
1501,3115;0,0467523
1502,2758;0,0473586
1503,2400;0,0478335
1504,2042;0,0481898
1505,1685;0,048429
1506,1327;0,0484587
1507,0969;0,0481305
1508,0612;0,0475514
1509,0254;0,0470138
1509,9896;0,0466092
1510,9539;0,046264
1511,9181;0,045895
1512,8823;0,0454479
1513,8466;0,0448891
1514,8108;0,0442045
1515,7750;0,0434126
1516,7393;0,0425646
1517,7035;0,0417131
1518,6677;0,040876
1519,6320;0,0400407
1520,5962;0,0392131
1521,5604;0,0384587
1522,5247;0,0378685
1523,4889;0,03748
1524,4531;0,0372552
1525,4174;0,0371314
1526,3816;0,0370733
1527,3458;0,0370795
1528,3101;0,0371567
1529,2743;0,0372975
1530,2385;0,0374857
1531,2028;0,0377135
1532,1670;0,0379886
1533,1312;0,0383226
1534,0955;0,0387107
1535,0597;0,0391211
1536,0239;0,0395057
1536,9882;0,039822
1537,9524;0,0400443
1538,9166;0,0401501
1539,8809;0,0401012
1540,8451;0,0399091
1541,8093;0,0397279
1542,7736;0,0396798
1543,7378;0,0397233
1544,7020;0,0397817
1545,6663;0,0398326
1546,6305;0,0398922
1547,5947;0,039974
1548,5590;0,0400675
1549,5232;0,0401471
1550,4874;0,0401985
1551,4517;0,0402374
1552,4159;0,0403001
1553,3801;0,0404082
1554,3444;0,0405448
1555,3086;0,0406566
1556,2728;0,0406639
1557,2371;0,0404664
1558,2013;0,0400472
1559,1655;0,039698
1560,1298;0,0397822
1561,0940;0,0402738
1562,0582;0,0409442
1563,0225;0,0416286
1563,9867;0,0422533
1564,9509;0,0427948
1565,9152;0,0432545
1566,8794;0,0436555
1567,8436;0,0440466
1568,8079;0,044491
1569,7721;0,0450274
1570,7363;0,0456371
1571,7006;0,0462639
1572,6648;0,0468623
1573,6290;0,047428
1574,5933;0,047998
1575,5575;0,0486205
1576,5217;0,0493141
1577,4860;0,0500617
1578,4502;0,0508392
1579,4144;0,051632
1580,3787;0,0524327
1581,3429;0,0532399
1582,3071;0,0540529
1583,2714;0,0548701
1584,2356;0,0556922
1585,1998;0,0565253
1586,1641;0,0573731
1587,1283;0,0582264
1588,0925;0,0590577
1589,0568;0,059829
1590,0210;0,0605028
1590,9852;0,0610471
1591,9495;0,0614318
1592,9137;0,0616273
1593,8779;0,0616166
1594,8422;0,0614131
1595,8064;0,0610667
1596,7706;0,060644
1597,7349;0,0601991
1598,6991;0,0597581
1599,6633;0,0593245
1600,6276;0,0588956
1601,5918;0,0584785
1602,5560;0,0580931
1603,5203;0,0577622
1604,4845;0,0574924
1605,4487;0,0572645
1606,4130;0,0570406
1607,3772;0,056789
1608,3414;0,0565131
1609,3057;0,0562621
1610,2699;0,0560984
1611,2341;0,0560473
1612,1984;0,0560765
1613,1626;0,0561174
1614,1268;0,0561007
1615,0911;0,0559945
1616,0553;0,0558488
1617,0195;0,0557924
1617,9838;0,0559232
1618,9480;0,0562147
1619,9122;0,0565615
1620,8765;0,0568647
1621,8407;0,0570705
1622,8049;0,0571768
1623,7692;0,0572267
1624,7334;0,0572764
1625,6976;0,0573549
1626,6619;0,0574576
1627,6261;0,0575739
1628,5903;0,0577088
1629,5546;0,0578722
1630,5188;0,0580559
1631,4830;0,0582232
1632,4473;0,0583173
1633,4115;0,0582735
1634,3757;0,0580427
1635,3400;0,0576634
1636,3042;0,0573246
1637,2684;0,057218
1638,2327;0,0573433
1639,1969;0,0575765
1640,1611;0,0578118
1641,1254;0,0580009
1642,0896;0,0581288
1643,0538;0,0581789
1644,0181;0,0581092
1644,9823;0,0578566
1645,9465;0,0574117
1646,9108;0,0569186
1647,8750;0,0565847
1648,8392;0,0564588
1649,8035;0,0564068
1650,7677;0,0562114
1651,7319;0,0556197
1652,6962;0,054491
1653,6604;0,0531901
1654,6246;0,0523811
1655,5889;0,0521744
1656,5531;0,0522411
1657,5173;0,0522962
1658,4816;0,0521948
1659,4458;0,0518696
1660,4100;0,0512924
1661,3743;0,0504978
1662,3385;0,0496245
1663,3027;0,0488628
1664,2670;0,0483134
1665,2312;0,0479296
1666,1954;0,0475725
1667,1597;0,0470818
1668,1239;0,0463404
1669,0881;0,0453643
1670,0524;0,0443446
1671,0166;0,043499
1671,9808;0,0428694
1672,9451;0,0423311
1673,9093;0,0417452
1674,8735;0,0410811
1675,8378;0,0404425
1676,8020;0,0399746
1677,7662;0,0397307
1678,7305;0,0396401
1679,6947;0,0395697
1680,6589;0,0393733
1681,6232;0,0388998
1682,5874;0,038032
1683,5516;0,0368525
1684,5159;0,035749
1685,4801;0,0350653
1686,4443;0,0347705
1687,4086;0,0346413
1688,3728;0,0345089
1689,3370;0,0343179
1690,3013;0,034091
1691,2655;0,0338744
1692,2297;0,0336986
1693,1940;0,0335629
1694,1582;0,03344
1695,1224;0,0332874
1696,0867;0,0330615
1697,0509;0,0327385
1698,0151;0,0323409
1698,9794;0,0319544
1699,9436;0,0317005
1700,9078;0,0316624
1701,8721;0,0318328
1702,8363;0,0321351
1703,8005;0,0324818
1704,7648;0,032815
1705,7290;0,0331198
1706,6932;0,0334206
1707,6575;0,0337589
1708,6217;0,034166
1709,5859;0,0346481
1710,5502;0,0351925
1711,5144;0,0357769
1712,4786;0,0363735
1713,4429;0,0369479
1714,4071;0,0374585
1715,3713;0,0378623
1716,3356;0,0381486
1717,2998;0,0383928
1718,2640;0,0387268
1719,2283;0,0392169
1720,1925;0,0398288
1721,1567;0,0404904
1722,1210;0,0411398
1723,0852;0,0417366
1724,0494;0,0422637
1725,0137;0,04273
1725,9779;0,0431662
1726,9421;0,0436061
1727,9064;0,0440635
1728,8706;0,0445177
1729,8348;0,0449123
1730,7991;0,04516
1731,7633;0,04516
1732,7275;0,0448621
1733,6918;0,0443677
1734,6560;0,0439029
1735,6202;0,0436073
1736,5845;0,0434317
1737,5487;0,043238
1738,5129;0,0429125
1739,4772;0,0424167
1740,4414;0,0417927
1741,4056;0,0411272
1742,3699;0,0404844
1743,3341;0,0398681
1744,2983;0,0392437
1745,2626;0,0385767
1746,2268;0,037839
1747,1910;0,0369858
1748,1553;0,0359478
1749,1195;0,0346906
1750,0837;0,0333083
1751,0480;0,0320044
1752,0122;0,030936
1752,9764;0,0301153
1753,9407;0,0294508
1754,9049;0,0288365
1755,8691;0,02821
1756,8334;0,0275654
1757,7976;0,0269241
1758,7618;0,0262902
1759,7261;0,0256342
1760,6903;0,0249268
1761,6545;0,0241901
1762,6188;0,0235055
1763,5830;0,0229585
1764,5472;0,0225779
1765,5115;0,0223277
1766,4757;0,0221407
1767,4399;0,0219532
1768,4042;0,0217196
1769,3684;0,021412
1770,3326;0,0210216
1771,2969;0,0205736
1772,2611;0,0201446
1773,2253;0,0198332
1774,1896;0,0196888
1775,1538;0,0196814
1776,1180;0,0197378
1777,0823;0,0197886
1778,0465;0,0197942
1779,0107;0,019749
1779,9750;0,0196719
1780,9392;0,0195865
1781,9034;0,0195018
1782,8677;0,0194133
1783,8319;0,0193211
1784,7961;0,0192453
1785,7604;0,0192185
1786,7246;0,0192611
1787,6888;0,019362
1788,6531;0,0194792
1789,6173;0,0195528
1790,5815;0,0195261
1791,5458;0,0193822
1792,5100;0,0191795
1793,4742;0,0190222
1794,4385;0,0189726
1795,4027;0,019014
1796,3669;0,0190885
1797,3312;0,0191424
1798,2954;0,0191457
1799,2596;0,0190946
1800,2239;0,0190055
1801,1881;0,0189049
1802,1523;0,0188171
1803,1166;0,0187573
1804,0808;0,0187322
1805,0450;0,0187421
1806,0093;0,0187808
1806,9735;0,018833
1807,9377;0,0188745
1808,9020;0,0188796
1809,8662;0,0188346
1810,8304;0,0187496
1811,7947;0,0186536
1812,7589;0,0185757
1813,7231;0,018528
1814,6874;0,0185049
1815,6516;0,0184946
1816,6158;0,0184896
1817,5801;0,0184924
1818,5443;0,0185119
1819,5085;0,018554
1820,4728;0,0186146
1821,4370;0,0186813
1822,4012;0,0187402
1823,3655;0,0187826
1824,3297;0,0188073
1825,2939;0,0188166
1826,2582;0,0188081
1827,2224;0,0187706
1828,1866;0,0186927
1829,1509;0,0185787
1830,1151;0,0184596
1831,0793;0,0183787
1832,0436;0,0183605
1833,0078;0,018396
1833,9720;0,0184567
1834,9363;0,0185177
1835,9005;0,0185705
1836,8647;0,0186231
1837,8290;0,0186879
1838,7932;0,0187661
1839,7574;0,0188427
1840,7217;0,0188931
1841,6859;0,0188959
1842,6501;0,018844
1843,6144;0,0187537
1844,5786;0,0186631
1845,5428;0,0186082
1846,5071;0,018594
1847,4713;0,0185955
1848,4355;0,0185819
1849,3998;0,0185382
1850,3640;0,0184714
1851,3282;0,0184053
1852,2925;0,0183666
1853,2567;0,0183717
1854,2209;0,0184209
1855,1852;0,0184993
1856,1494;0,0185847
1857,1136;0,018655
1858,0779;0,0186963
1859,0421;0,0187068
1860,0063;0,0186975
1860,9706;0,0186876
1861,9348;0,0186958
1862,8990;0,0187331
1863,8633;0,0187979
1864,8275;0,0188776
1865,7917;0,0189486
1866,7560;0,0189789
1867,7202;0,0189376
1868,6844;0,0188205
1869,6487;0,0186653
1870,6129;0,0185288
1871,5771;0,0184473
1872,5414;0,0184235
1873,5056;0,0184371
1874,4698;0,018461
1875,4341;0,0184729
1876,3983;0,0184639
1877,3625;0,0184412
1878,3268;0,0184214
1879,2910;0,0184183
1880,2552;0,018436
1881,2195;0,0184693
1882,1837;0,0185102
1883,1479;0,0185538
1884,1122;0,018598
1885,0764;0,018639
1886,0406;0,0186683
1887,0049;0,0186759
1887,9691;0,0186574
1888,9333;0,0186214
1889,8976;0,0185873
1890,8618;0,0185729
1891,8260;0,0185812
1892,7903;0,0185996
1893,7545;0,0186103
1894,7188;0,0186026
1895,6830;0,0185799
1896,6472;0,0185559
1897,6115;0,0185436
1898,5757;0,0185464
1899,5399;0,0185578
1900,5042;0,0185683
1901,4684;0,0185718
1902,4326;0,0185685
1903,3969;0,0185623
1904,3611;0,0185574
1905,3253;0,0185579
1906,2896;0,0185699
1907,2538;0,0186011
1908,2180;0,0186564
1909,1823;0,0187285
1910,1465;0,0187948
1911,1107;0,0188245
1912,0750;0,0187949
1913,0392;0,0187043
1914,0034;0,0185745
1914,9677;0,0184456
1915,9319;0,018363
1916,8961;0,0183582
1917,8604;0,0184298
1918,8246;0,018543
1919,7888;0,0186494
1920,7531;0,0187124
1921,7173;0,0187215
1922,6815;0,0186908
1923,6458;0,0186476
1924,6100;0,018616
1925,5742;0,0186033
1926,5385;0,0185975
1927,5027;0,0185775
1928,4669;0,0185276
1929,4312;0,018447
1930,3954;0,0183518
1931,3596;0,0182647
1932,3239;0,0182001
1933,2881;0,0181553
1934,2523;0,0181159
1935,2166;0,0180713
1936,1808;0,0180299
1937,1450;0,0180194
1938,1093;0,0180716
1939,0735;0,0182005
1940,0377;0,0183852
1941,0020;0,01857
1941,9662;0,0186868
1942,9304;0,0186946
1943,8947;0,0186049
1944,8589;0,0184674
1945,8231;0,0183298
1946,7874;0,0182109
1947,7516;0,0181044
1948,7158;0,0180011
1949,6801;0,0179084
1950,6443;0,0178497
1951,6085;0,0178436
1952,5728;0,0178812
1953,5370;0,0179229
1954,5012;0,0179223
1955,4655;0,0178596
1956,4297;0,0177594
1957,3939;0,017676
1958,3582;0,0176542
1959,3224;0,0176946
1960,2866;0,0177496
1961,2509;0,0177536
1962,2151;0,0176674
1963,1793;0,0175025
1964,1436;0,0173126
1965,1078;0,0171656
1966,0720;0,0171139
1967,0363;0,017174
1968,0005;0,0173205
1968,9647;0,0174957
1969,9290;0,0176294
1970,8932;0,0176636
1971,8574;0,0175764
1972,8217;0,0173968
1973,7859;0,0172038
1974,7501;0,0170994
1975,7144;0,0171637
1976,6786;0,0174144
1977,6428;0,0178004
1978,6071;0,0182343
1979,5713;0,0186352
1980,5355;0,018951
1981,4998;0,0191537
1982,4640;0,0192293
1983,4282;0,0191776
1984,3925;0,019023
1985,3567;0,0188214
1986,3209;0,0186503
1987,2852;0,0185827
1988,2494;0,0186576
1989,2136;0,0188622
1990,1779;0,0191318
1991,1421;0,0193706
1992,1063;0,0194915
1993,0706;0,0194565
1994,0348;0,0192943
1994,9990;0,019081
1995,9633;0,0188972
1996,9275;0,018787
1997,8917;0,0187363
1998,8560;0,0186833
1999,8202;0,0185609
2000,7844;0,0183518
2001,7487;0,0181169
2002,7129;0,0179749
2003,6771;0,0180394
2004,6414;0,0183468
2005,6056;0,0188168
2006,5698;0,0192773
2007,5341;0,0195485
2008,4983;0,0195373
2009,4625;0,0192771
2010,4268;0,0188928
2011,3910;0,0185254
2012,3552;0,0182672
2013,3195;0,0181393
2014,2837;0,0181084
2015,2479;0,0181254
2016,2122;0,0181629
2017,1764;0,0182323
2018,1406;0,0183717
2019,1049;0,0186125
2020,0691;0,0189481
2021,0333;0,019326
2021,9976;0,0196654
2022,9618;0,0198869
2023,9260;0,0199413
2024,8903;0,0198214
2025,8545;0,0195577
2026,8187;0,019208
2027,7830;0,0188488
2028,7472;0,0185706
2029,7114;0,0184629
2030,6757;0,0185827
2031,6399;0,0189198
2032,6041;0,0193842
2033,5684;0,0198386
2034,5326;0,0201612
2035,4968;0,020302
2036,4611;0,0202911
2037,4253;0,020201
2038,3895;0,0200955
2039,3538;0,0200006
2040,3180;0,0199097
2041,2822;0,0198095
2042,2465;0,0197032
2043,2107;0,0196173
2044,1749;0,0195908
2045,1392;0,019657
2046,1034;0,0198272
2047,0676;0,02008
2048,0320;0,0203628
2048,9961;0,0206105
2049,9604;0,0207742
2050,9246;0,0208411
2051,8889;0,0208365
2052,8530;0,0208078
2053,8174;0,0208011
2054,7815;0,0208395
2055,7458;0,0209139
2056,7100;0,0209903
2057,6743;0,0210306
2058,6384;0,0210127
2059,6028;0,0209408
2060,5669;0,0208418
2061,5313;0,0207523
2062,4954;0,0207036
2063,4597;0,0207108
2064,4238;0,0207686
2065,3882;0,0208564
2066,3523;0,0209492
2067,3167;0,0210279
2068,2808;0,0210846
2069,2451;0,0211207
2070,2092;0,0211416
2071,1736;0,0211522
2072,1377;0,021157
2073,1021;0,0211615
2074,0662;0,0211731
2075,0305;0,0211984
2075,9946;0,0212399
2076,9590;0,0212937
2077,9231;0,0213502
2078,8875;0,0213969
2079,8516;0,021422
2080,8159;0,0214174
2081,7800;0,0213823
2082,7444;0,0213253
2083,7085;0,0212638
2084,6729;0,0212186
2085,6370;0,0212052
2086,6013;0,0212273
2087,5654;0,0212764
2088,5298;0,0213363
2089,4939;0,0213917
2090,4583;0,0214314
2091,4224;0,0214483
2092,3867;0,0214364
2093,3508;0,0213923
2094,3152;0,0213199
2095,2793;0,0212346
2096,2437;0,0211618
2097,2078;0,0211267
2098,1721;0,0211433
2099,1362;0,0212089
2100,1006;0,0213081
2101,0647;0,0214187
2102,0291;0,0215193
2102,9932;0,0215909
2103,9575;0,0216198
2104,9216;0,0216018
2105,8860;0,0215471
2106,8501;0,0214816
2107,8145;0,0214392
2108,7786;0,0214473
2109,7429;0,0215135
2110,7070;0,0216207
2111,6714;0,0217343
2112,6355;0,0218189
2113,5999;0,0218534
2114,5640;0,0218392
2115,5283;0,0217964
2116,4924;0,0217525
2117,4568;0,0217305
2118,4209;0,0217409
2119,3853;0,0217818
2120,3494;0,0218432
2121,3137;0,0219136
2122,2778;0,0219823
2123,2422;0,0220389
2124,2063;0,0220715
2125,1707;0,0220662
2126,1348;0,0220114
2127,0991;0,0219029
2128,0632;0,0217485
2129,0276;0,0215692
2129,9917;0,0213972
2130,9561;0,0212707
2131,9202;0,0212267
2132,8845;0,0212883
2133,8486;0,0214519
2134,8130;0,0216802
2135,7771;0,0219108
2136,7415;0,0220821
2137,7056;0,0221595
2138,6699;0,0221462
2139,6340;0,0220699
2140,5984;0,0219593
2141,5625;0,0218292
2142,5269;0,0216866
2143,4910;0,0215521
2144,4553;0,0214745
2145,4194;0,0215202
2146,3838;0,0217365
2147,3479;0,0221125
2148,3123;0,0225645
2149,2764;0,0229617
2150,2407;0,0231775
2151,2048;0,0231413
2152,1692;0,0228638
2153,1333;0,0224311
2154,0977;0,0219755
2155,0618;0,0216378
2156,0261;0,0215289
2156,9902;0,0216902
2157,9546;0,0220637
2158,9187;0,022504
2159,8831;0,0228491
2160,8472;0,0230075
2161,8115;0,0229903
2162,7756;0,0228773
2163,7400;0,0227584
2164,7041;0,0226892
2165,6685;0,0226746
2166,6326;0,0226782
2167,5969;0,0226502
2168,5610;0,0225564
2169,5254;0,0223946
2170,4895;0,0221932
2171,4539;0,0219961
2172,4180;0,0218459
2173,3823;0,0217698
2174,3464;0,0217749
2175,3108;0,0218473
2176,2749;0,0219567
2177,2393;0,022063
2178,2034;0,0221265
2179,1677;0,0221196
2180,1318;0,0220381
2181,0962;0,0219046
2182,0603;0,0217615
2183,0247;0,0216555
2183,9888;0,0216224
2184,9531;0,0216795
2185,9172;0,0218244
2186,8816;0,0220339
2187,8457;0,0222649
2188,8101;0,0224615
2189,7742;0,0225738
2190,7385;0,0225822
2191,7026;0,022509
2192,6670;0,0224051
2193,6311;0,0223166
2194,5955;0,0222561
2195,5596;0,0222003
2196,5239;0,0221188
2197,4880;0,0220117
2198,4524;0,0219233
2199,4165;0,0219182
2200,3809;0,0220349
2201,3450;0,0222519
2202,3093;0,0224927
2203,2734;0,0226676
2204,2378;0,0227233
2205,2019;0,0226677
2206,1663;0,0225564
2207,1304;0,0224555
2208,0947;0,0224049
2209,0588;0,0224041
2210,0232;0,0224218
2210,9873;0,0224187
2211,9517;0,02237
2212,9158;0,0222766
2213,8801;0,0221639
2214,8442;0,0220702
2215,8086;0,0220287
2216,7727;0,0220514
2217,7371;0,022122
2218,7012;0,0222036
2219,6655;0,0222569
2220,6296;0,0222609
2221,5940;0,0222233
2222,5581;0,0221735
2223,5225;0,0221453
2224,4866;0,0221571
2225,4509;0,0222052
2226,4150;0,0222697
2227,3794;0,0223283
2228,3435;0,0223677
2229,3079;0,0223832
2230,2720;0,0223713
2231,2363;0,0223254
2232,2004;0,0222404
2233,1648;0,0221252
2234,1289;0,0220114
2235,0933;0,0219461
2236,0574;0,0219695
2237,0217;0,0220899
2237,9858;0,0222736
2238,9502;0,0224588
2239,9143;0,0225867
2240,8787;0,0226298
2241,8428;0,0226002
2242,8071;0,0225346
2243,7712;0,0224694
2244,7356;0,0224223
2245,6997;0,0223905
2246,6641;0,0223632
2247,6282;0,0223345
2248,5925;0,0223092
2249,5566;0,0222988
2250,5210;0,0223144
2251,4851;0,0223608
2252,4495;0,0224352
2253,4136;0,0225275
2254,3779;0,0226208
2255,3420;0,0226934
2256,3064;0,022724
2257,2705;0,0227008
2258,2349;0,0226282
2259,1990;0,0225283
2260,1633;0,022434
2261,1274;0,0223756
2262,0918;0,0223688
2263,0559;0,0224087
2264,0203;0,0224733
2264,9844;0,022535
2265,9487;0,0225739
2266,9128;0,0225867
2267,8772;0,0225859
2268,8413;0,0225898
2269,8057;0,0226091
2270,7698;0,0226377
2271,7341;0,022656
2272,6982;0,0226425
2273,6626;0,0225898
2274,6267;0,0225113
2275,5911;0,0224362
2276,5552;0,0223938
2277,5195;0,0223983
2278,4836;0,022444
2279,4480;0,022512
2280,4121;0,0225845
2281,3765;0,0226553
2282,3406;0,0227317
2283,3049;0,0228278
2284,2690;0,022954
2285,2334;0,0231104
2286,1975;0,0232848
2287,1619;0,0234578
2288,1260;0,0236105
2289,0903;0,0237328
2290,0544;0,0238275
2291,0188;0,0239081
2291,9829;0,0239919
2292,9473;0,0240913
2293,9114;0,0242076
2294,8757;0,0243316
2295,8398;0,0244493
2296,8042;0,0245494
2297,7683;0,0246268
2298,7327;0,0246828
2299,6968;0,0247212
2300,6611;0,0247466
2301,6252;0,024765
2302,5896;0,0247871
2303,5537;0,0248289
2304,5181;0,0249068
2305,4822;0,0250292
2306,4465;0,0251861
2307,4106;0,0253458
2308,3750;0,0254617
2309,3391;0,025488
2310,3035;0,0253999
2311,2676;0,0252068
2312,2319;0,0249518
2313,1960;0,0246936
2314,1604;0,0244818
2315,1245;0,0243373
2316,0889;0,0242506
2317,0530;0,0241951
2318,0173;0,0241468
2318,9814;0,0241001
2319,9458;0,0240732
2320,9099;0,0240999
2321,8743;0,0242092
2322,8384;0,0244026
2323,8027;0,0246418
2324,7668;0,0248569
2325,7312;0,0249736
2326,6953;0,024946
2327,6597;0,0247783
2328,6238;0,0245274
2329,5881;0,0242817
2330,5522;0,0241221
2331,5166;0,024082
2332,4807;0,0241293
2333,4451;0,0241875
2334,4092;0,0241846
2335,3735;0,0241026
2336,3376;0,0239964
2337,3020;0,0239702
2338,2661;0,024117
2339,2305;0,0244516
2340,1946;0,0248759
2341,1589;0,0251986
2342,1230;0,025217
2343,0874;0,0248746
2344,0515;0,0244055
2345,0159;0,0242206
2345,9800;0,0245413
2346,9443;0,0252165
2347,9084;0,0258908
2348,8728;0,0262582
2349,8369;0,0262031
2350,8013;0,0258201
2351,7654;0,0253484
2352,7297;0,0250372
2353,6938;0,0250023
2354,6582;0,0251881
2355,6223;0,0254677
2356,5867;0,0257431
2357,5508;0,0259489
2358,5151;0,0260263
2359,4792;0,0259399
2360,4436;0,0257069
2361,4077;0,0253825
2362,3721;0,0250135
2363,3362;0,0246171
2364,3005;0,0241974
2365,2646;0,0237629
2366,2290;0,0233259
2367,1931;0,0228953
2368,1575;0,0224805
2369,1216;0,0221032
2370,0859;0,0217963
2371,0500;0,0215889
2372,0144;0,0214903
2372,9785;0,0214903
2373,9429;0,0215717
2374,9070;0,0217234
2375,8713;0,0219428
2376,8354;0,0222274
2377,7998;0,0225642
2378,7639;0,0229246
2379,7283;0,0232674
2380,6924;0,0235491
2381,6567;0,0237355
2382,6208;0,0238107
2383,5852;0,0237807
2384,5493;0,0236709
2385,5137;0,0235188
2386,4778;0,0233628
2387,4421;0,023233
2388,4063;0,0231456
2389,3706;0,0231024
2390,3347;0,0230953
2391,2991;0,0231127
2392,2632;0,0231436
2393,2275;0,023179
2394,1917;0,0232109
2395,1560;0,0232323
2396,1201;0,0232388
2397,0845;0,0232306
2398,0486;0,023215
2399,0129;0,0232027
2399,9771;0,0232035
2400,9414;0,0232236
2401,9055;0,0232617
2402,8699;0,0233116
2403,8340;0,0233647
2404,7983;0,0234132
2405,7625;0,023452
2406,7268;0,0234785
2407,6909;0,023493
2408,6553;0,0234979
2409,6194;0,0234972
2410,5837;0,0234963
2411,5479;0,0235014
2412,5122;0,0235175
2413,4763;0,0235463
2414,4407;0,0235852
2415,4048;0,0236274
2416,3691;0,0236644
2417,3333;0,0236902
2418,2976;0,0237036
2419,2617;0,0237091
2420,2261;0,0237142
2421,1902;0,023725
2422,1545;0,0237433
2423,1187;0,023767
2424,0830;0,0237916
2425,0471;0,0238137
2426,0115;0,0238319
2426,9756;0,0238475
2427,9399;0,0238642
2428,9041;0,0238866
2429,8684;0,0239191
2430,8325;0,0239637
2431,7969;0,0240178
2432,7610;0,0240739
2433,7253;0,0241214
2434,6895;0,0241519
2435,6538;0,0241632
2436,6179;0,0241601
2437,5823;0,0241511
2438,5464;0,0241437
2439,5107;0,0241421
2440,4749;0,0241479
2441,4392;0,0241635
2442,4033;0,0241927
2443,3677;0,0242384
2444,3318;0,0242981
2445,2961;0,0243629
2446,2603;0,0244212
2447,2246;0,0244661
2448,1887;0,0244994
2449,1531;0,0245303
2450,1172;0,024566
2451,0815;0,0246045
2452,0457;0,0246335
2453,0100;0,0246388
2453,9741;0,0246164
2454,9385;0,0245779
2455,9026;0,0245468
2456,8669;0,0245446
2457,8311;0,0245793
2458,7954;0,0246407
2459,7595;0,0247078
2460,7239;0,0247617
2461,6880;0,0247951
2462,6523;0,0248128
2463,6165;0,0248244
2464,5808;0,0248355
2465,5449;0,0248446
2466,5093;0,0248466
2467,4734;0,0248398
2468,4377;0,0248297
2469,4019;0,024826
2470,3662;0,0248352
2471,3303;0,0248543
2472,2947;0,0248718
2473,2588;0,0248744
2474,2231;0,0248567
2475,1873;0,0248258
2476,1516;0,0247977
2477,1157;0,0247885
2478,0801;0,0248054
2479,0442;0,0248442
2480,0085;0,024894
2480,9727;0,0249443
2481,9370;0,0249907
2482,9011;0,0250336
2483,8655;0,0250737
2484,8296;0,0251086
2485,7939;0,025133
2486,7581;0,0251443
2487,7224;0,0251467
2488,6865;0,0251514
2489,6509;0,025172
2490,6150;0,0252165
2491,5793;0,0252829
2492,5435;0,0253597
2493,5078;0,0254314
2494,4719;0,025484
2495,4363;0,0255094
2496,4004;0,0255069
2497,3647;0,0254819
2498,3289;0,0254443
2499,2932;0,0254061
2500,2573;0,0253789
2501,2217;0,0253704
2502,1858;0,0253831
2503,1501;0,0254147
2504,1143;0,0254591
2505,0786;0,0255083
2506,0427;0,0255532
2507,0071;0,0255839
2507,9712;0,0255922
2508,9355;0,0255759
2509,8997;0,0255421
2510,8640;0,0255062
2511,8281;0,0254856
2512,7925;0,02549
2513,7566;0,0255156
2514,7209;0,0255481
2515,6851;0,0255717
2516,6494;0,0255803
2517,6135;0,0255802
2518,5779;0,0255853
2519,5420;0,0256059
2520,5063;0,025641
2521,4705;0,02568
2522,4348;0,0257105
2523,3989;0,0257276
2524,3633;0,0257365
2525,3274;0,0257475
2526,2917;0,0257677
2527,2559;0,0257957
2528,2202;0,0258233
2529,1843;0,0258414
2530,1487;0,0258462
2531,1128;0,025841
2532,0771;0,025833
2533,0413;0,0258287
2534,0056;0,0258313
2534,9697;0,0258406
2535,9341;0,0258546
2536,8982;0,0258715
2537,8625;0,0258892
2538,8267;0,0259058
2539,7910;0,0259194
2540,7551;0,0259296
2541,7195;0,0259375
2542,6836;0,0259444
2543,6479;0,0259493
2544,6121;0,0259482
2545,5764;0,0259362
2546,5405;0,0259126
2547,5049;0,0258841
2548,4690;0,0258647
2549,4333;0,0258692
2550,3975;0,0259045
2551,3618;0,0259647
2552,3259;0,0260325
2553,2903;0,026088
2554,2544;0,0261181
2555,2188;0,0261225
2556,1829;0,0261117
2557,1472;0,0261002
2558,1113;0,0260984
2559,0757;0,0261088
2560,0398;0,0261265
2561,0042;0,0261434
2561,9683;0,0261527
2562,9326;0,0261515
2563,8967;0,0261412
2564,8611;0,0261259
2565,8252;0,0261112
2566,7896;0,0261017
2567,7537;0,0260998
2568,7180;0,026105
2569,6821;0,026115
2570,6465;0,0261285
2571,6106;0,0261465
2572,5750;0,0261726
2573,5391;0,0262099
2574,5034;0,0262576
2575,4675;0,0263091
2576,4319;0,0263532
2577,3960;0,0263791
2578,3604;0,0263821
2579,3245;0,0263664
2580,2888;0,026344
2581,2529;0,0263302
2582,2173;0,0263362
2583,1814;0,0263651
2584,1458;0,0264096
2585,1099;0,0264558
2586,0742;0,0264891
2587,0383;0,0265013
2588,0027;0,0264943
2588,9668;0,0264787
2589,9312;0,0264677
2590,8953;0,0264706
2591,8596;0,0264885
2592,8237;0,0265154
2593,7881;0,0265431
2594,7522;0,0265673
2595,7166;0,026589
2596,6807;0,0266126
2597,6450;0,0266421
2598,6091;0,0266776
2599,5735;0,0267159
2600,5376;0,0267535
2601,5020;0,0267889
2602,4661;0,026823
2603,4304;0,0268573
2604,3945;0,0268921
2605,3589;0,026925
2606,3230;0,0269529
2607,2874;0,0269739
2608,2515;0,0269886
2609,2158;0,0269999
2610,1799;0,0270116
2611,1443;0,0270263
2612,1084;0,0270453
2613,0728;0,027068
2614,0369;0,0270933
2615,0012;0,0271203
2615,9653;0,0271488
2616,9297;0,027179
2617,8938;0,0272115
2618,8582;0,0272465
2619,8223;0,027283
2620,7866;0,0273191
2621,7507;0,0273521
2622,7151;0,0273791
2623,6792;0,0273991
2624,6436;0,0274134
2625,6077;0,0274259
2626,5720;0,0274418
2627,5361;0,0274653
2628,5005;0,0274973
2629,4646;0,0275351
2630,4290;0,0275733
2631,3931;0,0276067
2632,3574;0,027633
2633,3215;0,0276532
2634,2859;0,0276713
2635,2500;0,0276919
2636,2144;0,0277187
2637,1785;0,0277527
2638,1428;0,027793
2639,1069;0,0278369
2640,0713;0,027881
2641,0354;0,0279224
2641,9998;0,0279589
2642,9639;0,02799
2643,9282;0,0280162
2644,8923;0,028039
2645,8567;0,0280608
2646,8208;0,028084
2647,7852;0,028111
2648,7493;0,0281429
2649,7136;0,0281786
2650,6777;0,0282143
2651,6421;0,028245
2652,6062;0,0282669
2653,5706;0,0282801
2654,5347;0,0282888
2655,4990;0,0283
2656,4631;0,028319
2657,4275;0,0283467
2658,3916;0,0283795
2659,3560;0,0284113
2660,3201;0,0284379
2661,2844;0,0284588
2662,2485;0,0284766
2663,2129;0,0284946
2664,1770;0,0285138
2665,1414;0,028533
2666,1055;0,0285502
2667,0698;0,0285644
2668,0339;0,0285773
2668,9983;0,0285921
2669,9624;0,0286116
2670,9268;0,0286369
2671,8909;0,028667
2672,8552;0,0286998
2673,8193;0,0287323
2674,7837;0,0287623
2675,7478;0,028788
2676,7122;0,02881
2677,6763;0,028831
2678,6406;0,0288561
2679,6047;0,0288901
2680,5691;0,0289351
2681,5332;0,0289884
2682,4976;0,0290439
2683,4617;0,0290949
2684,4260;0,029138
2685,3901;0,029175
2686,3545;0,0292102
2687,3186;0,0292476
2688,2830;0,0292868
2689,2471;0,0293241
2690,2114;0,0293549
2691,1755;0,0293779
2692,1399;0,0293966
2693,1040;0,029418
2694,0684;0,029448
2695,0325;0,0294888
2695,9968;0,0295376
2696,9609;0,0295892
2697,9253;0,0296385
2698,8894;0,0296829
2699,8538;0,0297222
2700,8179;0,0297573
2701,7822;0,0297896
2702,7463;0,0298199
2703,7107;0,0298496
2704,6748;0,02988
2705,6392;0,0299124
2706,6033;0,029947
2707,5676;0,029983
2708,5317;0,0300188
2709,4961;0,0300529
2710,4602;0,030085
2711,4246;0,0301161
2712,3887;0,0301481
2713,3530;0,0301833
2714,3171;0,0302234
2715,2815;0,0302689
2716,2456;0,030318
2717,2100;0,0303671
2718,1741;0,0304116
2719,1384;0,0304473
2720,1025;0,0304724
2721,0669;0,030488
2722,0310;0,0304982
2722,9954;0,0305086
2723,9595;0,0305248
2724,9238;0,0305506
2725,8879;0,0305874
2726,8523;0,0306336
2727,8164;0,0306855
2728,7808;0,0307385
2729,7449;0,0307883
2730,7092;0,0308322
2731,6733;0,0308692
2732,6377;0,0308993
2733,6018;0,0309233
2734,5662;0,0309423
2735,5303;0,0309581
2736,4946;0,0309739
2737,4587;0,0309939
2738,4231;0,0310215
2739,3872;0,0310574
2740,3516;0,0310988
2741,3157;0,0311406
2742,2800;0,031177
2743,2441;0,0312044
2744,2085;0,031222
2745,1726;0,0312312
2746,1370;0,0312357
2747,1011;0,0312399
2748,0654;0,0312492
2749,0295;0,0312691
2749,9939;0,0313035
2750,9580;0,0313527
2751,9224;0,031412
2752,8865;0,0314736
2753,8508;0,0315293
2754,8149;0,0315747
2755,7793;0,0316105
2756,7434;0,031641
2757,7078;0,031671
2758,6719;0,0317028
2759,6362;0,031735
2760,6003;0,0317654
2761,5647;0,0317931
2762,5288;0,0318204
2763,4932;0,0318516
2764,4573;0,0318898
2765,4216;0,0319352
2766,3857;0,0319845
2767,3501;0,0320339
2768,3142;0,0320809
2769,2786;0,0321257
2770,2427;0,0321699
2771,2070;0,0322147
2772,1711;0,0322599
2773,1355;0,0323047
2774,0996;0,0323496
2775,0640;0,0323971
2776,0281;0,0324505
2776,9924;0,032512
2777,9565;0,0325804
2778,9209;0,0326523
2779,8850;0,0327238
2780,8494;0,0327927
2781,8135;0,0328592
2782,7778;0,032924
2783,7419;0,0329867
2784,7063;0,0330446
2785,6704;0,0330948
2786,6348;0,0331364
2787,5989;0,0331727
2788,5632;0,0332113
2789,5273;0,0332609
2790,4917;0,0333277
2791,4558;0,0334126
2792,4202;0,0335106
2793,3843;0,033613
2794,3486;0,0337109
2795,3127;0,0337986
2796,2771;0,0338752
2797,2412;0,0339439
2798,2056;0,0340103
2799,1697;0,0340805
2800,1340;0,0341593
2801,0981;0,0342501
2802,0625;0,0343551
2803,0266;0,0344741
2803,9910;0,0346045
2804,9551;0,0347404
2805,9194;0,0348738
2806,8835;0,0349977
2807,8479;0,0351086
2808,8120;0,0352085
2809,7764;0,0353043
2810,7405;0,0354039
2811,7048;0,0355134
2812,6689;0,0356347
2813,6333;0,0357661
2814,5974;0,0359042
2815,5618;0,0360466
2816,5259;0,0361925
2817,4902;0,0363422
2818,4543;0,0364957
2819,4187;0,0366523
2820,3828;0,0368104
2821,3472;0,0369689
2822,3113;0,0371283
2823,2756;0,0372911
2824,2397;0,0374623
2825,2041;0,0376473
2826,1682;0,0378506
2827,1326;0,0380738
2828,0967;0,0383149
2829,0610;0,03857
2830,0251;0,0388355
2830,9895;0,0391107
2831,9536;0,0393972
2832,9180;0,0396974
2833,8821;0,0400113
2834,8464;0,040335
2835,8105;0,0406633
2836,7749;0,0409937
2837,7390;0,0413312
2838,7034;0,0416893
2839,6675;0,0420872
2840,6318;0,0425448
2841,5959;0,043077
2842,5603;0,043689
2843,5244;0,044374
2844,4888;0,04511
2845,4529;0,0458587
2846,4172;0,0465675
2847,3813;0,0471777
2848,3457;0,0476375
2849,3098;0,0479173
2850,2742;0,0480183
2851,2383;0,0479714
2852,2026;0,047826
2853,1667;0,0476336
2854,1311;0,0474347
2855,0952;0,0472528
2856,0596;0,0470972
2857,0237;0,0469701
2857,9880;0,0468732
2858,9521;0,0468113
2859,9165;0,0467909
2860,8806;0,0468162
2861,8450;0,0468861
2862,8091;0,0469937
2863,7734;0,0471288
2864,7375;0,0472817
2865,7019;0,0474462
2866,6660;0,047619
2867,6304;0,047797
2868,5945;0,0479738
2869,5588;0,04814
2870,5229;0,0482856
2871,4873;0,0484052
2872,4514;0,0485011
2873,4158;0,0485828
2874,3799;0,0486618
2875,3442;0,0487466
2876,3083;0,0488391
2877,2727;0,0489359
2878,2368;0,0490318
2879,2012;0,0491237
2880,1653;0,0492115
2881,1296;0,0492974
2882,0938;0,0493846
2883,0581;0,0494754
2884,0222;0,0495714
2884,9866;0,0496741
2885,9507;0,0497846
2886,9150;0,0499028
2887,8792;0,0500274
2888,8435;0,0501551
2889,8076;0,0502816
2890,7720;0,0504031
2891,7361;0,0505177
2892,7004;0,0506256
2893,6646;0,0507297
2894,6289;0,0508346
2895,5930;0,0509444
2896,5574;0,0510613
2897,5215;0,0511844
2898,4858;0,0513102
2899,4500;0,0514348
2900,4143;0,0515562
2901,3784;0,0516757
2902,3428;0,0517973
2903,3069;0,0519265
2904,2712;0,0520681
2905,2354;0,0522263
2906,1997;0,0524062
2907,1638;0,0526163
2908,1282;0,0528702
2909,0923;0,0531845
2910,0566;0,0535735
2911,0208;0,0540406
2911,9851;0,0545707
2912,9492;0,0551266
2913,9136;0,0556543
2914,8777;0,0560943
2915,8420;0,0563979
2916,8062;0,0565383
2917,7705;0,0565155
2918,7346;0,0563508
2919,6990;0,0560771
2920,6631;0,0557284
2921,6274;0,0553336
2922,5916;0,0549145
2923,5559;0,0544866
2924,5200;0,0540595
2925,4844;0,0536388
2926,4485;0,0532264
2927,4128;0,0528233
2928,3770;0,0524311
2929,3413;0,0520525
2930,3054;0,0516897
2931,2698;0,0513423
2932,2339;0,0510065
2933,1982;0,0506766
2934,1624;0,0503478
2935,1267;0,0500177
2936,0908;0,0496865
2937,0552;0,0493554
2938,0193;0,0490256
2938,9836;0,0486981
2939,9478;0,0483735
2940,9121;0,0480526
2941,8762;0,0477351
2942,8406;0,0474197
2943,8047;0,047105
2944,7690;0,046791
2945,7332;0,0464811
2946,6975;0,0461816
2947,6616;0,0458995
2948,6260;0,0456394
2949,5901;0,0454017
2950,5544;0,0451827
2951,5186;0,0449775
2952,4829;0,044781
2953,4470;0,044589
2954,4114;0,044398
2955,3755;0,0442045
2956,3398;0,0440059
2957,3040;0,0438008
2958,2683;0,04359
2959,2324;0,0433754
2960,1968;0,0431584
2961,1609;0,0429392
2962,1252;0,0427171
2963,0894;0,0424924
2964,0537;0,0422673
2965,0178;0,0420458
2965,9822;0,0418311
2966,9463;0,0416239
2967,9106;0,041421
2968,8748;0,0412171
2969,8391;0,0410078
2970,8032;0,040792
2971,7676;0,0405727
2972,7317;0,0403562
2973,6960;0,0401493
2974,6602;0,0399567
2975,6245;0,0397797
2976,5886;0,0396158
2977,5530;0,0394604
2978,5171;0,0393096
2979,4814;0,0391621
2980,4456;0,0390201
2981,4099;0,0388878
2982,3740;0,0387687
2983,3384;0,0386635
2984,3025;0,0385697
2985,2668;0,0384837
2986,2310;0,038403
2987,1953;0,0383271
2988,1594;0,0382566
2989,1238;0,0381923
2990,0879;0,0381337
2991,0522;0,0380809
2992,0164;0,0380352
2992,9807;0,0379997
2993,9448;0,0379772
2994,9092;0,0379681
2995,8733;0,0379696
2996,8376;0,0379774
2997,8018;0,0379888
2998,7661;0,0380041
2999,7302;0,0380253
3000,6946;0,0380536
3001,6587;0,0380882
3002,6230;0,0381263
3003,5872;0,0381655
3004,5515;0,0382051
3005,5156;0,0382456
3006,4800;0,0382867
3007,4441;0,0383263
3008,4084;0,0383615
3009,3726;0,0383909
3010,3369;0,038417
3011,3010;0,0384448
3012,2654;0,0384797
3013,2295;0,0385238
3014,1938;0,0385758
3015,1580;0,0386328
3016,1223;0,0386936
3017,0864;0,0387596
3018,0508;0,0388338
3019,0149;0,0389172
3019,9792;0,0390066
3020,9434;0,0390957
3021,9077;0,0391783
3022,8718;0,0392527
3023,8362;0,0393228
3024,8003;0,0393967
3025,7646;0,039482
3026,7288;0,0395804
3027,6931;0,039687
3028,6572;0,0397923
3029,6216;0,0398872
3030,5857;0,039968
3031,5500;0,040038
3032,5142;0,0401056
3033,4785;0,0401799
3034,4426;0,040267
3035,4070;0,0403681
3036,3711;0,0404808
3037,3354;0,0406005
3038,2996;0,0407217
3039,2639;0,0408394
3040,2280;0,0409507
3041,1924;0,0410561
3042,1565;0,0411607
3043,1208;0,0412719
3044,0850;0,0413955
3045,0493;0,0415309
3046,0134;0,0416704
3046,9778;0,0418024
3047,9419;0,0419186
3048,9063;0,0420207
3049,8704;0,0421203
3050,8347;0,0422333
3051,7988;0,042371
3052,7632;0,0425332
3053,7273;0,0427088
3054,6917;0,0428819
3055,6558;0,0430407
3056,6201;0,0431829
3057,5842;0,0433151
3058,5486;0,0434481
3059,5127;0,043589
3060,4771;0,0437379
3061,4412;0,043888
3062,4055;0,0440294
3063,3696;0,0441542
3064,3340;0,0442603
3065,2981;0,0443538
3066,2625;0,044446
3067,2266;0,0445494
3068,1909;0,0446721
3069,1550;0,0448147
3070,1194;0,0449708
3071,0835;0,0451309
3072,0479;0,0452864
3073,0120;0,0454329
3073,9763;0,045569
3074,9404;0,0456952
3075,9048;0,0458125
3076,8689;0,0459227
3077,8333;0,0460303
3078,7974;0,0461429
3079,7617;0,0462679
3080,7258;0,0464092
3081,6902;0,0465643
3082,6543;0,0467248
3083,6187;0,0468813
3084,5828;0,0470269
3085,5471;0,0471604
3086,5112;0,0472849
3087,4756;0,0474062
3088,4397;0,0475303
3089,4041;0,0476629
3090,3682;0,0478075
3091,3325;0,0479645
3092,2966;0,0481301
3093,2610;0,048297
3094,2251;0,0484569
3095,1895;0,0486047
3096,1536;0,0487412
3097,1179;0,0488719
3098,0820;0,0490041
3099,0464;0,0491425
3100,0105;0,0492884
3100,9749;0,04944
3101,9390;0,0495941
3102,9033;0,0497481
3103,8674;0,0499003
3104,8318;0,0500508
3105,7959;0,0502017
3106,7603;0,0503576
3107,7244;0,050523
3108,6887;0,0507
3109,6528;0,0508843
3110,6172;0,0510663
3111,5813;0,0512356
3112,5457;0,051388
3113,5098;0,0515288
3114,4741;0,0516714
3115,4382;0,0518296
3116,4026;0,0520079
3117,3667;0,0521986
3118,3311;0,052385
3119,2952;0,0525517
3120,2595;0,0526939
3121,2236;0,0528208
3122,1880;0,0529502
3123,1521;0,0530993
3124,1165;0,0532757
3125,0806;0,0534739
3126,0449;0,0536804
3127,0090;0,0538814
3127,9734;0,0540699
3128,9375;0,0542481
3129,9019;0,0544237
3130,8660;0,0546043
3131,8303;0,0547927
3132,7944;0,0549857
3133,7588;0,0551765
3134,7229;0,05536
3135,6873;0,0555356
3136,6514;0,055708
3137,6157;0,0558846
3138,5798;0,0560718
3139,5442;0,0562714
3140,5083;0,0564797
3141,4727;0,0566896
3142,4368;0,0568937
3143,4011;0,0570881
3144,3652;0,0572738
3145,3296;0,0574556
3146,2937;0,0576393
3147,2581;0,0578285
3148,2222;0,0580228
3149,1865;0,0582182
3150,1506;0,0584096
3151,1150;0,0585939
3152,0791;0,0587723
3153,0435;0,0589497
3154,0076;0,0591333
3154,9719;0,0593289
3155,9360;0,0595388
3156,9004;0,0597612
3157,8645;0,0599908
3158,8289;0,0602209
3159,7930;0,0604449
3160,7573;0,0606579
3161,7214;0,0608582
3162,6858;0,0610478
3163,6499;0,0612332
3164,6143;0,0614235
3165,5784;0,0616269
3166,5427;0,0618464
3167,5068;0,0620778
3168,4712;0,0623114
3169,4353;0,0624867
3170,3997;0,0627014
3171,3638;0,0629067
3172,3281;0,0631071
3173,2922;0,0633059
3174,2566;0,063502
3175,2207;0,0636924
3176,1851;0,0638767
3177,1492;0,0640605
3178,1135;0,064253
3179,0776;0,0644617
3180,0420;0,0646869
3181,0061;0,0649212
3181,9705;0,0651545
3182,9346;0,0653802
3183,8989;0,0655975
3184,8630;0,0658104
3185,8274;0,0660231
3186,7915;0,0662361
3187,7559;0,0664469
3188,7200;0,0666528
3189,6843;0,066853
3190,6484;0,0670489
3191,6128;0,067242
3192,5769;0,067432
3193,5413;0,0676176
3194,5054;0,0677991
3195,4697;0,0679796
3196,4338;0,0681643
3197,3982;0,0683568
3198,3623;0,0685557
3199,3267;0,0687561
3200,2908;0,0689528
3201,2551;0,0691453
3202,2192;0,069339
3203,1836;0,069541
3204,1477;0,0697549
3205,1121;0,0699768
3206,0762;0,0701968
3207,0405;0,0704038
3208,0046;0,0705922
3208,9690;0,0707634
3209,9331;0,0709249
3210,8975;0,0710855
3211,8616;0,0712525
3212,8259;0,0714304
3213,7900;0,0716211
3214,7544;0,071824
3215,7185;0,0720349
3216,6829;0,0722454
3217,6470;0,0724451
3218,6113;0,0726258
3219,5754;0,0727867
3220,5398;0,0729358
3221,5039;0,0730864
3222,4683;0,07325
3223,4324;0,07343
3224,3967;0,0736209
3225,3608;0,0738117
3226,3252;0,0739928
3227,2893;0,0741613
3228,2537;0,0743215
3229,2178;0,0744826
3230,1821;0,0746533
3231,1462;0,0748378
3232,1106;0,075035
3233,0747;0,0752394
3234,0391;0,0754442
3235,0032;0,0756439
3235,9675;0,0758364
3236,9316;0,076023
3237,8960;0,0762075
3238,8601;0,0763944
3239,8245;0,0765864
3240,7886;0,076783
3241,7529;0,0769807
3242,7170;0,0771747
3243,6814;0,0773608
3244,6455;0,0775384
3245,6099;0,0777107
3246,5740;0,0778846
3247,5383;0,078068
3248,5024;0,0782662
3249,4668;0,0784796
3250,4309;0,0787026
3251,3953;0,078925
3252,3594;0,0791358
3253,3237;0,079328
3254,2878;0,0795019
3255,2522;0,0796656
3256,2163;0,0798307
3257,1807;0,0800073
3258,1448;0,0801999
3259,1091;0,0804061
3260,0732;0,0806196
3261,0376;0,0808341
3262,0017;0,0810459
3262,9661;0,0812551
3263,9302;0,0814633
3264,8945;0,0816719
3265,8586;0,081879
3266,8230;0,0820795
3267,7871;0,0822657
3268,7515;0,0824305
3269,7156;0,0825698
3270,6799;0,0826853
3271,6440;0,0827838
3272,6084;0,0828759
3273,5725;0,082971
3274,5369;0,0830746
3275,5010;0,0831862
3276,4653;0,0833016
3277,4294;0,0834157
3278,3938;0,0835249
3279,3579;0,0836274
3280,3223;0,0837217
3281,2864;0,0838061
3282,2507;0,0838785
3283,2148;0,0839385
3284,1792;0,0839878
3285,1433;0,0840301
3286,1077;0,0840689
3287,0718;0,0841062
3288,0361;0,0841425
3289,0002;0,0841789
3289,9646;0,0842174
3290,9287;0,0842605
3291,8931;0,0843086
3292,8572;0,0843576
3293,8215;0,0844007
3294,7856;0,0844323
3295,7500;0,0844514
3296,7141;0,0844627
3297,6785;0,0844734
3298,6426;0,084488
3299,6069;0,0845056
3300,5710;0,084522
3301,5354;0,0845335
3302,4995;0,0845414
3303,4639;0,0845513
3304,4280;0,0845684
3305,3923;0,0845932
3306,3564;0,0846193
3307,3208;0,0846374
3308,2849;0,0846414
3309,2493;0,0846333
3310,2134;0,0846229
3311,1777;0,0846222
3312,1418;0,0846397
3313,1062;0,0846772
3314,0703;0,0847311
3315,0347;0,0847965
3315,9988;0,0848702
3316,9631;0,0849523
3317,9272;0,0850441
3318,8916;0,0851457
3319,8557;0,0852547
3320,8201;0,0853659
3321,7842;0,0854737
3322,7485;0,0855735
3323,7126;0,0856638
3324,6770;0,0857456
3325,6411;0,0858221
3326,6055;0,0858969
3327,5696;0,0859727
3328,5339;0,0860509
3329,4980;0,0861312
3330,4624;0,0862119
3331,4265;0,0862891
3332,3909;0,0863557
3333,3550;0,0864029
3334,3193;0,0864218
3335,2834;0,0864086
3336,2478;0,0863669
3337,2119;0,086307
3338,1763;0,0862406
3339,1404;0,0861737
3340,1047;0,0861044
3341,0688;0,0860255
3342,0332;0,0859311
3342,9973;0,0858218
3343,9617;0,0857043
3344,9258;0,0855864
3345,8901;0,0854705
3346,8542;0,0853523
3347,8186;0,0852238
3348,7827;0,0850805
3349,7471;0,084925
3350,7112;0,0847667
3351,6755;0,0846157
3352,6396;0,0844783
3353,6040;0,0843546
3354,5681;0,0842394
3355,5325;0,0841259
3356,4966;0,0840068
3357,4609;0,0838759
3358,4250;0,0837282
3359,3894;0,0835626
3360,3535;0,0833837
3361,3179;0,0832022
3362,2820;0,0830317
3363,2463;0,0828822
3364,2104;0,0827542
3365,1748;0,0826379
3366,1389;0,0825172
3367,1033;0,0823781
3368,0674;0,0822149
3369,0317;0,0820326
3369,9958;0,0818418
3370,9602;0,0816524
3371,9243;0,0814693
3372,8887;0,0812912
3373,8528;0,081114
3374,8171;0,0809355
3375,7813;0,0807577
3376,7456;0,0805866
3377,7097;0,0804284
3378,6741;0,080285
3379,6382;0,0801518
3380,6025;0,0800175
3381,5667;0,0798691
3382,5310;0,0796987
3383,4951;0,079509
3384,4595;0,0793142
3385,4236;0,0791347
3386,3879;0,078986
3387,3521;0,0788698
3388,3164;0,0787725
3389,2805;0,0786711
3390,2449;0,0785449
3391,2090;0,0783847
3392,1733;0,0781969
3393,1375;0,077998
3394,1018;0,0778052
3395,0659;0,077628
3396,0303;0,0774667
3396,9944;0,0773145
3397,9587;0,0771625
3398,9229;0,0770033
3399,8872;0,076832
3400,8513;0,0766472
3401,8157;0,0764506
3402,7798;0,0762466
3403,7441;0,0760399
3404,7083;0,075834
3405,6726;0,0756294
3406,6367;0,0754251
3407,6011;0,0752196
3408,5652;0,075012
3409,5295;0,0748015
3410,4937;0,0745866
3411,4580;0,0743661
3412,4221;0,0741417
3413,3865;0,0739198
3414,3506;0,0737097
3415,3149;0,073517
3416,2791;0,0733369
3417,2434;0,073153
3418,2075;0,072943
3419,1719;0,072691
3420,1360;0,0723984
3421,1003;0,0720861
3422,0645;0,0717837
3423,0288;0,0715136
3423,9929;0,0712807
3424,9573;0,0710732
3425,9214;0,0708717
3426,8857;0,0706598
3427,8499;0,0704302
3428,8142;0,0701845
3429,7783;0,0699284
3430,7427;0,0696664
3431,7068;0,0694005
3432,6711;0,0691315
3433,6353;0,0688621
3434,5996;0,068597
3435,5637;0,0683405
3436,5281;0,0680924
3437,4922;0,067848
3438,4565;0,0676013
3439,4207;0,0673501
3440,3850;0,0670983
3441,3491;0,0668516
3442,3135;0,0666095
3443,2776;0,0663601
3444,2419;0,0660838
3445,2061;0,0657653
3446,1704;0,0654079
3447,1345;0,0650378
3448,0989;0,0646928
3449,0630;0,0644008
3450,0273;0,0641643
3450,9915;0,0639621
3451,9558;0,063763
3452,9199;0,0635425
3453,8843;0,0632927
3454,8484;0,0630218
3455,8127;0,0627449
3456,7769;0,0624711
3457,7412;0,0621979
3458,7053;0,0619143
3459,6697;0,0616098
3460,6338;0,0612845
3461,5981;0,0609519
3462,5623;0,060633
3463,5266;0,0603456
3464,4907;0,0600945
3465,4551;0,0598702
3466,4192;0,0596554
3467,3835;0,0594331
3468,3477;0,0591934
3469,3120;0,0589321
3470,2761;0,0586471
3471,2405;0,0583372
3472,2046;0,0580059
3473,1689;0,0576678
3474,1331;0,0573491
3475,0974;0,0570766
3476,0615;0,0568612
3477,0259;0,056687
3477,9900;0,0565162
3478,9543;0,0563077
3479,9185;0,0560397
3480,8828;0,0557222
3481,8469;0,0553898
3482,8113;0,0550785
3483,7754;0,0548011
3484,7397;0,054543
3485,7039;0,0542763
3486,6682;0,0539825
3487,6323;0,053667
3488,5967;0,0533574
3489,5608;0,0530852
3490,5251;0,0528639
3491,4893;0,0526786
3492,4536;0,052494
3493,4177;0,0522749
3494,3821;0,0520091
3495,3462;0,0517175
3496,3105;0,0514429
3497,2747;0,0512212
3498,2390;0,0510545
3499,2031;0,050906
3500,1675;0,0507192
3501,1316;0,0504511
3502,0959;0,0501026
3503,0601;0,0497237
3504,0244;0,0493816
3504,9885;0,049114
3505,9529;0,0489074
3506,9170;0,0487123
3507,8813;0,0484774
3508,8455;0,0481798
3509,8098;0,0478367
3510,7739;0,0474919
3511,7383;0,0471851
3512,7024;0,0469294
3513,6667;0,0467112
3514,6309;0,0465066
3515,5952;0,0462995
3516,5593;0,0460893
3517,5237;0,0458876
3518,4878;0,0457057
3519,4521;0,0455446
3520,4163;0,0453928
3521,3806;0,0452317
3522,3447;0,0450442
3523,3091;0,04482
3524,2732;0,0445552
3525,2375;0,0442478
3526,2017;0,0438976
3527,1660;0,0435137
3528,1301;0,0431236
3529,0945;0,0427694
3530,0586;0,0424905
3531,0229;0,0423001
3531,9871;0,0421767
3532,9514;0,0420729
3533,9155;0,0419367
3534,8799;0,0417345
3535,8440;0,0414671
3536,8083;0,0411706
3537,7725;0,0408969
3538,7368;0,0406872
3539,7009;0,0405536
3540,6653;0,0404767
3541,6294;0,0404134
3542,5938;0,0403088
3543,5579;0,0401138
3544,5222;0,0398099
3545,4863;0,0394291
3546,4507;0,0390404
3547,4148;0,0387051
3548,3792;0,0384393
3549,3433;0,0382136
3550,3076;0,0379811
3551,2717;0,0377102
3552,2361;0,0374073
3553,2002;0,0371126
3554,1646;0,0368708
3555,1287;0,0366973
3556,0930;0,0365709
3557,0571;0,0364533
3558,0215;0,0363189
3558,9856;0,0361751
3559,9500;0,0360594
3560,9141;0,0360102
3561,8784;0,0360303
3562,8425;0,0360664
3563,8069;0,0360123
3564,7710;0,0357398
3565,7354;0,0351751
3566,6995;0,0344023
3567,6638;0,0336578
3568,6279;0,0331495
3569,5923;0,0329119
3570,5564;0,0328448
3571,5208;0,032823
3572,4849;0,0327616
3573,4492;0,0326348
3574,4133;0,0324631
3575,3777;0,0322834
3576,3418;0,032116
3577,3062;0,0319548
3578,2703;0,0317866
3579,2346;0,0316196
3580,1987;0,0314915
3581,1631;0,0314447
3582,1272;0,0314882
3583,0916;0,0315743
3584,0557;0,031601
3585,0200;0,0314447
3585,9841;0,0310326
3586,9485;0,0304417
3587,9126;0,0298989
3588,8770;0,0296089
3589,8411;0,0295991
3590,8054;0,029748
3591,7695;0,0298955
3592,7339;0,0299215
3593,6980;0,0297861
3594,6624;0,0295362
3595,6265;0,0292636
3596,5908;0,0290288
3597,5549;0,0288219
3598,5193;0,0285952
3599,4834;0,0283257
3600,4478;0,0280516
3601,4119;0,0278466
3602,3762;0,0277559
3603,3403;0,0277544
3604,3047;0,0277581
3605,2688;0,0276654
3606,2332;0,0274048
3607,1973;0,0269767
3608,1616;0,0264621
3609,1257;0,0259756
3610,0901;0,025598
3611,0542;0,0253523
3612,0186;0,0252275
3612,9827;0,025203
3613,9470;0,0252482
3614,9111;0,0253097
3615,8755;0,025309
3616,8396;0,025166
3617,8040;0,0248486
3618,7681;0,024428
3619,7324;0,0240751
3620,6965;0,0239543
3621,6609;0,0241094
3622,6250;0,0244586
3623,5894;0,0248625
3624,5535;0,0251733
3625,5178;0,0252436
3626,4819;0,0249359
3627,4463;0,0242042
3628,4104;0,02324
3629,3748;0,0224326
3630,3389;0,0220272
3631,3032;0,0219509
3632,2673;0,0219879
3633,2317;0,02197
3634,1958;0,0218369
3635,1602;0,0216189
3636,1243;0,0213864
3637,0886;0,0211941
3638,0527;0,0210526
3639,0171;0,0209415
3639,9812;0,0208454
3640,9456;0,020778
3641,9097;0,020774
3642,8740;0,0208584
3643,8381;0,0210174
3644,8025;0,0211813
3645,7666;0,0212113
3646,7310;0,020899
3647,6951;0,02007
3648,6594;0,0188743
3649,6235;0,0178624
3650,5879;0,0174427
3651,5520;0,0175384
3652,5164;0,0178488
3653,4805;0,0181136
3654,4448;0,018186
3655,4089;0,018044
3656,3733;0,0177856
3657,3374;0,0175633
3658,3018;0,01747
3659,2659;0,0174877
3660,2302;0,0175398
3661,1943;0,0175712
3662,1587;0,0175877
3663,1228;0,0176371
3664,0872;0,0177536
3665,0513;0,0179143
3666,0156;0,0180373
3666,9797;0,0180191
3667,9441;0,0178015
3668,9082;0,0174516
3669,8726;0,0171599
3670,8367;0,0170825
3671,8010;0,0171944
3672,7651;0,0173214
3673,7295;0,0172655
3674,6936;0,0169346
3675,6580;0,0164482
3676,6221;0,0160704
3677,5864;0,015963
3678,5505;0,0160836
3679,5149;0,0163083
3680,4790;0,0165536
3681,4434;0,0168034
3682,4075;0,0170773
3683,3718;0,0173844
3684,3359;0,0176942
3685,3003;0,0179347
3686,2644;0,0180109
3687,2288;0,0178436
3688,1929;0,0174437
3689,1572;0,0169789
3690,1213;0,0166903
3691,0857;0,0166903
3692,0498;0,0169135
3693,0142;0,0172357
3693,9783;0,0175681
3694,9426;0,0178721
3695,9067;0,0181358
3696,8711;0,0183468
3697,8352;0,0184783
3698,7996;0,0184938
3699,7637;0,0183731
3700,7280;0,0181463
3701,6921;0,0179071
3702,6565;0,0177727
3703,6206;0,0178112
3704,5850;0,0180077
3705,5491;0,0182861
3706,5134;0,0185445
3707,4775;0,0186694
3708,4419;0,0185411
3709,4060;0,0180747
3710,3704;0,0173264
3711,3345;0,0165552
3712,2988;0,0160619
3713,2629;0,0159607
3714,2273;0,0161723
3715,1914;0,0165559
3716,1558;0,0169968
3717,1199;0,017427
3718,0842;0,017818
3719,0483;0,0181672
3720,0127;0,0184817
3720,9768;0,0187599
3721,9412;0,0189827
3722,9053;0,0191214
3723,8696;0,0191628
3724,8337;0,0191315
3725,7981;0,0190849
3726,7622;0,0190795
3727,7266;0,0191392
3728,6907;0,0192532
3729,6550;0,0193926
3730,6191;0,0195206
3731,5835;0,0195847
3732,5476;0,0194986
3733,5120;0,0191584
3734,4761;0,0185439
3735,4404;0,0178288
3736,4045;0,0172937
3737,3689;0,0171007
3738,3330;0,0172172
3739,2974;0,0174985
3740,2615;0,017774
3741,2258;0,0178842
3742,1899;0,0177127
3743,1543;0,0172627
3744,1184;0,0167349
3745,0828;0,0164216
3746,0469;0,0164368
3747,0112;0,0166315
3747,9753;0,0167368
3748,9397;0,0165191
3749,9038;0,0159293
3750,8682;0,0152284
3751,8323;0,0148265
3752,7966;0,0148937
3753,7607;0,0152845
3754,7251;0,0157547
3755,6892;0,0161103
3756,6536;0,0162449
3757,6177;0,0161529
3758,5820;0,0159358
3759,5461;0,0157493
3760,5105;0,0157012
3761,4746;0,015798
3762,4390;0,0159772
3763,4031;0,0161622
3764,3674;0,0162951
3765,3315;0,0163435
3766,2959;0,0162951
3767,2600;0,016152
3768,2244;0,0159335
3769,1885;0,015688
3770,1528;0,0154941
3771,1169;0,0154298
3772,0813;0,0155274
3773,0454;0,0157538
3774,0098;0,0160295
3774,9739;0,0162617
3775,9382;0,0163733
3776,9023;0,016331
3777,8667;0,0161687
3778,8308;0,0159817
3779,7952;0,0158681
3780,7593;0,0158612
3781,7236;0,0159221
3782,6877;0,015984
3783,6521;0,0160003
3784,6162;0,0159657
3785,5806;0,0159104
3786,5447;0,0158762
3787,5090;0,015893
3788,4731;0,0159683
3789,4375;0,0160901
3790,4016;0,0162339
3791,3660;0,016371
3792,3301;0,0164779
3793,2944;0,0165474
3794,2585;0,0165952
3795,2229;0,0166502
3796,1870;0,0167258
3797,1514;0,0167908
3798,1155;0,0167693
3799,0798;0,0165849
3800,0439;0,0162368
3801,0083;0,0158483
3801,9724;0,0155983
3802,9368;0,0155657
3803,9009;0,0156695
3804,8652;0,0157558
3805,8293;0,0157197
3806,7937;0,0155861
3807,7578;0,0154967
3808,7222;0,0155899
3809,6863;0,0158845
3810,6506;0,0162842
3811,6147;0,0166529
3812,5791;0,0168784
3813,5432;0,0169112
3814,5076;0,0167927
3815,4717;0,0166409
3816,4360;0,0165578
3817,4001;0,0165356
3818,3645;0,0164706
3819,3286;0,016269
3820,2930;0,0159531
3821,2571;0,0156708
3822,2214;0,0155699
3823,1855;0,0156731
3824,1499;0,0158928
3825,1140;0,0161225
3826,0784;0,0162968
3827,0425;0,0164019
3828,0068;0,0164588
3828,9709;0,0164974
3829,9353;0,0165391
3830,8994;0,0165945
3831,8638;0,0166694
3832,8279;0,016766
3833,7922;0,0168724
3834,7563;0,0169539
3835,7207;0,0169575
3836,6848;0,0168416
3837,6492;0,0166171
3838,6133;0,0163594
3839,5776;0,0161569
3840,5417;0,0160453
3841,5061;0,0160019
3842,4702;0,0159929
3843,4346;0,0160163
3844,3987;0,016108
3845,3630;0,016313
3846,3271;0,0166485
3847,2915;0,0170859
3848,2556;0,0175525
3849,2200;0,0179338
3850,1841;0,0180657
3851,1484;0,0177472
3852,1125;0,0168835
3853,0769;0,0157707
3854,0410;0,0150122
3855,0054;0,0148984
3855,9695;0,0152556
3856,9338;0,0158047
3857,8979;0,0163592
3858,8623;0,0168191
3859,8264;0,0171273
3860,7908;0,017251
3861,7549;0,0171954
3862,7192;0,0170288
3863,6833;0,0168694
3864,6477;0,0168149
3865,6118;0,0168815
3866,5762;0,0170097
3867,5403;0,0171112
3868,5046;0,0171123
3869,4688;0,016983
3870,4331;0,0167536
3871,3972;0,0165037
3872,3616;0,0163227
3873,3257;0,016268
3874,2900;0,0163482
3875,2542;0,0165302
3876,2185;0,016755
3877,1826;0,0169579
3878,1470;0,0170902
3879,1111;0,0171402
3880,0754;0,0171363
3881,0396;0,0171187
3882,0039;0,0170963
3882,9680;0,0170397
3883,9324;0,016925
3884,8965;0,0167814
3885,8608;0,016686
3886,8250;0,016698
3887,7893;0,0168001
3888,7534;0,016904
3889,7178;0,0169083
3890,6819;0,0167763
3891,6462;0,0165861
3892,6104;0,0164867
3893,5747;0,0165777
3894,5388;0,0168422
3895,5032;0,0171862
3896,4673;0,0175061
3897,4316;0,0177286
3898,3958;0,0178249
3899,3601;0,0178055
3900,3242;0,0176925
3901,2886;0,0174905
3902,2527;0,0171948
3903,2170;0,0168341
3904,1812;0,016489
3905,1455;0,0162479
3906,1096;0,0161499
3907,0740;0,0161745
3908,0381;0,0162739
3909,0024;0,016408
3909,9666;0,0165595
3910,9309;0,0167297
3911,8950;0,016921
3912,8594;0,0171188
3913,8235;0,0172838
3914,7878;0,0173648
3915,7520;0,0173286
3916,7163;0,0171932
3917,6804;0,0170342
3918,6448;0,016941
3919,6089;0,0169562
3920,5732;0,0170524
3921,5374;0,0171582
3922,5017;0,017204
3923,4658;0,0171642
3924,4302;0,0170749
3925,3943;0,0170083
3926,3586;0,0170194
3927,3228;0,0171084
3928,2871;0,0172246
3929,2512;0,0172971
3930,2156;0,0172733
3931,1797;0,0171497
3932,1440;0,0169768
3933,1082;0,0168255
3934,0725;0,0167444
3935,0366;0,0167444
3936,0010;0,0168107
3936,9651;0,0169195
3937,9294;0,0170451
3938,8936;0,0171608
3939,8579;0,0172421
3940,8220;0,0172757
3941,7864;0,0172711
3942,7505;0,0172587
3943,7148;0,0172698
3944,6790;0,0173111
3945,6433;0,0173572
3946,6074;0,0173646
3947,5718;0,0172998
3948,5359;0,0171641
3949,5002;0,0169989
3950,4644;0,0168623
3951,4287;0,0167941
3952,3928;0,0167992
3953,3572;0,0168556
3954,3213;0,0169334
3955,2856;0,0170092
3956,2498;0,017071
3957,2141;0,0171137
3958,1782;0,0171337
3959,1426;0,017128
3960,1067;0,0170968
3961,0710;0,0170479
3962,0352;0,0169963
3962,9995;0,0169576
3963,9636;0,0169408
3964,9280;0,0169453
3965,8921;0,0169631
3966,8564;0,0169854
3967,8206;0,017007
3968,7849;0,0170281
3969,7490;0,0170511
3970,7134;0,0170762
3971,6775;0,0170987
3972,6418;0,0171104
3973,6060;0,0171047
3974,5703;0,0170811
3975,5344;0,0170464
3976,4988;0,0170109
3977,4629;0,0169825
3978,4272;0,0169634
3979,3914;0,0169503
3980,3557;0,0169392
3981,3198;0,0169294
3982,2842;0,0169243
3983,2483;0,0169286
3984,2126;0,0169443
3985,1768;0,016968
3986,1411;0,0169927
3987,1052;0,017012
3988,0696;0,0170234
3989,0337;0,0170284
3989,9980;0,0170304
3990,9622;0,0170304
3991,9265;0,0170263
3992,8906;0,0170148
3993,8550;0,0169955
3994,8191;0,0169727
3995,7834;0,0169543
3996,7476;0,0169466
3997,7119;0,0169508
3998,6760;0,0169629
3999,6404;0,0169776
4000,6045;0,0169938

##### Extended Information
[Comments]
Sample name
Comment
Username
Division
Organization;UNIVERSIDAD INDUSTRIAL DE SANTANDER

[Detailed Information]
Creation date;26/03/2025 4:46 p.m.

Data array type;Linear data array
Horizontal axis;Wavenumber [cm-1]
Vertical axis;Abs
Start;399,193 cm-1
End;4000,6 cm-1
Data interval;0,964233 cm-1
Data points;3736    

[Measurement Information]
Model name;FT/IR-4X1typeA
Serial No.;A035162111

Accessory;ATR PRO 4X
Accessory S/N;A021162126
Incident angle;45 deg

Measurement date;26/03/2025 4:45 p.m.

Light source;Standard
Detector;TGS
Accumulation;40
Resolution;4 cm-1
Zero filling;On
Apodization;Cosine
Gain;Auto (8)
Aperture;Auto (7 mm)
Scan speed;Auto (2 mm/sec)
Filter;Auto (12800 Hz)

