TITLE;
DATA TYPE;INFRARED SPECTRUM
ORIGIN;JASCO
OWNER;
DATE;25/03/26
TIME;16:38:38
SPECTROMETER/DATA SYSTEM;
LOCALE;9226
RESOLUTION;
DELTAX;0,964233
XUNITS;1/CM
YUNITS;ABSORBANCE
FIRSTX;  399,1927
LASTX; 4000,6047
NPOINTS;    3736
FIRSTY;     0,19234
MAXY;     0,27255
MINY;     0,01574
XYDATA
399,1927;0,192341
400,1569;0,192254
401,1211;0,191754
402,0854;0,19114
403,0496;0,190522
404,0138;0,189903
404,9781;0,189296
405,9423;0,18882
406,9065;0,188682
407,8708;0,189073
408,8350;0,190025
409,7992;0,191358
410,7635;0,192738
411,7277;0,193837
412,6919;0,194492
413,6562;0,194721
414,6204;0,194617
415,5846;0,194224
416,5489;0,193545
417,5131;0,192699
418,4773;0,192121
419,4416;0,192412
420,4058;0,193733
421,3700;0,195632
422,3343;0,197525
423,2985;0,199031
424,2627;0,200019
425,2270;0,200564
426,1912;0,200894
427,1554;0,201249
428,1197;0,201747
429,0839;0,202332
430,0481;0,202837
431,0124;0,203095
431,9766;0,203049
432,9408;0,202775
433,9051;0,202434
434,8693;0,202181
435,8335;0,202099
436,7978;0,202173
437,7620;0,202316
438,7262;0,202415
439,6905;0,202376
440,6547;0,202155
441,6189;0,201791
442,5832;0,201414
443,5474;0,201199
444,5116;0,201262
445,4759;0,201577
446,4401;0,201988
447,4043;0,202294
448,3686;0,20234
449,3328;0,202068
450,2970;0,201504
451,2613;0,200732
452,2255;0,199852
453,1897;0,198962
454,1540;0,198171
455,1182;0,197618
456,0824;0,197451
457,0467;0,197754
458,0109;0,198434
458,9751;0,199206
459,9394;0,199762
460,9036;0,199956
461,8678;0,199842
462,8321;0,199579
463,7963;0,199338
464,7605;0,199222
465,7248;0,199235
466,6890;0,199294
467,6532;0,199272
468,6175;0,199066
469,5817;0,198629
470,5459;0,197999
471,5102;0,197301
472,4744;0,196719
473,4386;0,196415
474,4029;0,196445
475,3671;0,19675
476,3313;0,197203
477,2956;0,197668
478,2598;0,198024
479,2240;0,198183
480,1883;0,198104
481,1525;0,197809
482,1167;0,197399
483,0810;0,19704
484,0452;0,196914
485,0094;0,197132
485,9737;0,197661
486,9379;0,198335
487,9021;0,198936
488,8664;0,199292
489,8306;0,199346
490,7948;0,199174
491,7591;0,198943
492,7233;0,198832
493,6875;0,19893
494,6518;0,199206
495,6160;0,199557
496,5802;0,199875
497,5445;0,200111
498,5087;0,20028
499,4729;0,200434
500,4372;0,200626
501,4014;0,200879
502,3656;0,201184
503,3299;0,20151
504,2941;0,201824
505,2583;0,202103
506,2226;0,202333
507,1868;0,202514
508,1510;0,202665
509,1153;0,20283
510,0795;0,203066
511,0437;0,203429
512,0080;0,203951
512,9722;0,204634
513,9365;0,205456
514,9007;0,206364
515,8649;0,207278
516,8292;0,20809
517,7934;0,208698
518,7576;0,209046
519,7219;0,209158
520,6861;0,209119
521,6503;0,209026
522,6146;0,208944
523,5788;0,208901
524,5430;0,208899
525,5073;0,208922
526,4715;0,208948
527,4357;0,208944
528,4000;0,208871
529,3642;0,208699
530,3284;0,208423
531,2927;0,208073
532,2569;0,207706
533,2211;0,207371
534,1854;0,207081
535,1496;0,206794
536,1138;0,206446
537,0781;0,206001
538,0423;0,205487
539,0065;0,204997
539,9708;0,204644
540,9350;0,204501
541,8992;0,204577
542,8635;0,204817
543,8277;0,205142
544,7919;0,205479
545,7562;0,205791
546,7204;0,206074
547,6846;0,206349
548,6489;0,206636
549,6131;0,20694
550,5773;0,207253
551,5416;0,207561
552,5058;0,207857
553,4700;0,208147
554,4343;0,20844
555,3985;0,208726
556,3627;0,208962
557,3270;0,209076
558,2912;0,208987
559,2554;0,208644
560,2197;0,208052
561,1839;0,207267
562,1481;0,206374
563,1124;0,205446
564,0766;0,204523
565,0408;0,203608
566,0051;0,20269
566,9693;0,201773
567,9335;0,200894
568,8978;0,200112
569,8620;0,199489
570,8262;0,199059
571,7905;0,198815
572,7547;0,198713
573,7189;0,198687
574,6832;0,19866
575,6474;0,198569
576,6116;0,198381
577,5759;0,19811
578,5401;0,197804
579,5043;0,197526
580,4686;0,197322
581,4328;0,197202
582,3970;0,197138
583,3613;0,19708
584,3255;0,196981
585,2897;0,196818
586,2540;0,196598
587,2182;0,196347
588,1824;0,196104
589,1467;0,195901
590,1109;0,195766
591,0751;0,195716
592,0394;0,195751
593,0036;0,195845
593,9678;0,195946
594,9321;0,195984
595,8963;0,195893
596,8605;0,195635
597,8248;0,195215
598,7890;0,194687
599,7532;0,194133
600,7175;0,193617
601,6817;0,19316
602,6459;0,192729
603,6102;0,192266
604,5744;0,191731
605,5386;0,191124
606,5029;0,190478
607,4671;0,189824
608,4313;0,189165
609,3956;0,188472
610,3598;0,187718
611,3240;0,186913
612,2883;0,186116
613,2525;0,185411
614,2167;0,18485
615,1810;0,184404
616,1452;0,183956
617,1094;0,183341
618,0737;0,18243
619,0379;0,181193
620,0021;0,179704
620,9664;0,178088
621,9306;0,176469
622,8948;0,174947
623,8591;0,173591
624,8233;0,172428
625,7875;0,171503
626,7518;0,170783
627,7160;0,170198
628,6802;0,169664
629,6445;0,169113
630,6087;0,168519
631,5729;0,167895
632,5372;0,16728
633,5014;0,166712
634,4656;0,166209
635,4299;0,165764
636,3941;0,165354
637,3583;0,164961
638,3226;0,164573
639,2868;0,164193
640,2510;0,163824
641,2153;0,163472
642,1795;0,163135
643,1437;0,162813
644,1080;0,162507
645,0722;0,16222
646,0364;0,161953
647,0007;0,161697
647,9649;0,161439
648,9291;0,161163
649,8934;0,160866
650,8576;0,160571
651,8218;0,160314
652,7861;0,160136
653,7503;0,160067
654,7145;0,160108
655,6788;0,160236
656,6430;0,160412
657,6072;0,160596
658,5715;0,160752
659,5357;0,160837
660,4999;0,160799
661,4642;0,160592
662,4284;0,160195
663,3926;0,159618
664,3569;0,158921
665,3211;0,158245
666,2853;0,157818
667,2496;0,157769
668,2138;0,157768
669,1780;0,157235
670,1423;0,156148
671,1065;0,154848
672,0707;0,153447
673,0350;0,151884
673,9992;0,150124
674,9634;0,148222
675,9277;0,146283
676,8919;0,144405
677,8561;0,142639
678,8204;0,141001
679,7846;0,13951
680,7488;0,138203
681,7131;0,137107
682,6773;0,136209
683,6415;0,135445
684,6058;0,134738
685,5700;0,134032
686,5342;0,13331
687,4985;0,132586
688,4627;0,131884
689,4269;0,131217
690,3912;0,130587
691,3554;0,129992
692,3196;0,129433
693,2839;0,128913
694,2481;0,128435
695,2123;0,128003
696,1766;0,12761
697,1408;0,127229
698,1050;0,126823
699,0693;0,126344
700,0335;0,125766
700,9977;0,125092
701,9620;0,124362
702,9262;0,123638
703,8904;0,122974
704,8547;0,122398
705,8189;0,121901
706,7831;0,121441
707,7474;0,120971
708,7116;0,120457
709,6758;0,119893
710,6401;0,11929
711,6043;0,118667
712,5685;0,118044
713,5328;0,117444
714,4970;0,116894
715,4612;0,116056
716,4255;0,115724
717,3897;0,115451
718,3539;0,115136
719,3182;0,114656
720,2824;0,113922
721,2466;0,112938
722,2109;0,111791
723,1751;0,110604
724,1393;0,109474
725,1036;0,108446
726,0678;0,107524
727,0320;0,106688
727,9963;0,105916
728,9605;0,105186
729,9247;0,104476
730,8890;0,103765
731,8532;0,103041
732,8174;0,102312
733,7817;0,101606
734,7459;0,100959
735,7101;0,100401
736,6744;0,099934
737,6386;0,0995333
738,6028;0,0991543
739,5671;0,098755
740,5313;0,0983138
741,4955;0,0978367
742,4598;0,0973491
743,4240;0,0968785
744,3882;0,096438
745,3525;0,0960208
746,3167;0,0956078
747,2809;0,0951811
748,2452;0,0947347
749,2094;0,0942751
750,1736;0,0938149
751,1379;0,0933634
752,1021;0,0929216
753,0663;0,0924834
754,0306;0,0920395
754,9948;0,0915825
755,9590;0,0911095
756,9233;0,090623
757,8875;0,09013
758,8517;0,0896404
759,8160;0,0891657
760,7802;0,088716
761,7444;0,088297
762,7087;0,0879072
763,6729;0,0875364
764,6371;0,0871668
765,6014;0,0867798
766,5656;0,0863637
767,5298;0,0859211
768,4941;0,0854693
769,4583;0,0850343
770,4225;0,0846395
771,3868;0,0842967
772,3510;0,0840037
773,3152;0,0837492
774,2795;0,0835203
775,2437;0,0833076
776,2079;0,0831044
777,1722;0,0829039
778,1364;0,0826949
779,1006;0,0824627
780,0649;0,0821917
781,0291;0,0818701
781,9933;0,0814932
782,9576;0,0810658
783,9218;0,080602
784,8860;0,0801235
785,8503;0,0796546
786,8145;0,0792166
787,7787;0,0788228
788,7430;0,0784772
789,7072;0,0781768
790,6714;0,0779156
791,6357;0,0776871
792,5999;0,077484
793,5641;0,0772967
794,5284;0,0771126
795,4926;0,0769203
796,4568;0,0767142
797,4211;0,0764977
798,3853;0,0762817
799,3495;0,0760782
800,3138;0,0758928
801,2780;0,0757222
802,2422;0,0755575
803,2065;0,0753904
804,1707;0,0752189
805,1349;0,0750487
806,0992;0,0748888
807,0634;0,0747463
808,0276;0,0746209
808,9919;0,0745049
809,9561;0,0743861
810,9203;0,074253
811,8846;0,0741001
812,8488;0,0739303
813,8130;0,073753
814,7773;0,0735801
815,7415;0,0734209
816,7057;0,0732789
817,6700;0,0731534
818,6342;0,0730434
819,5984;0,0729508
820,5627;0,0728806
821,5269;0,0728366
822,4911;0,0728169
823,4554;0,0728111
824,4196;0,0728042
825,3839;0,0727837
826,3481;0,0727449
827,3123;0,0726919
828,2766;0,0726319
829,2408;0,0725681
830,2050;0,0724959
831,1693;0,0724055
832,1335;0,0722882
833,0977;0,0721425
834,0620;0,0719744
835,0262;0,0717914
835,9904;0,0715962
836,9547;0,0713836
837,9189;0,0711445
838,8831;0,0708749
839,8474;0,0705821
840,8116;0,0702861
841,7758;0,0700116
842,7401;0,0697785
843,7043;0,0695939
844,6685;0,0694518
845,6328;0,0693381
846,5970;0,0692375
847,5612;0,0691391
848,5255;0,0690379
849,4897;0,0689332
850,4539;0,0688266
851,4182;0,0687207
852,3824;0,0686181
853,3466;0,068521
854,3109;0,0684313
855,2751;0,0683519
856,2393;0,0682877
857,2036;0,0682459
858,1678;0,0682332
859,1320;0,068252
860,0963;0,0682976
861,0605;0,0683592
862,0247;0,0684263
862,9890;0,068496
863,9532;0,0685767
864,9174;0,0686841
865,8817;0,0688314
866,8459;0,0690196
867,8101;0,0692355
868,7744;0,0694585
869,7386;0,0696724
870,7028;0,0698741
871,6671;0,0700722
872,6313;0,0702766
873,5955;0,070487
874,5598;0,0706874
875,5240;0,0708529
876,4882;0,0709645
877,4525;0,0710233
878,4167;0,0710558
879,3809;0,0711066
880,3452;0,071223
881,3094;0,0714397
882,2736;0,0717708
883,2379;0,0722124
884,2021;0,0727513
885,1663;0,0733748
886,1306;0,0740761
887,0948;0,0748535
888,0590;0,0757056
889,0233;0,0766256
889,9875;0,077598
890,9517;0,0785977
891,9160;0,0795906
892,8802;0,0805357
893,8444;0,0813875
894,8087;0,0821016
895,7729;0,0826421
896,7371;0,0829877
897,7014;0,0831349
898,6656;0,0830943
899,6298;0,0828831
900,5941;0,0825179
901,5583;0,0820132
902,5225;0,0813876
903,4868;0,0806716
904,4510;0,0799118
905,4152;0,0791658
906,3795;0,0784897
907,3437;0,0779231
908,3079;0,077482
909,2722;0,0771604
910,2364;0,0769411
911,2007;0,0768063
912,1649;0,076744
913,1292;0,0767487
914,0934;0,076816
915,0576;0,0769398
916,0219;0,0771111
916,9861;0,0773204
917,9503;0,0775602
918,9146;0,0778243
919,8788;0,0781053
920,8430;0,0783927
921,8073;0,0786732
922,7715;0,078937
923,7357;0,0791823
924,7000;0,0794174
925,6642;0,0796551
926,6284;0,0799028
927,5927;0,0801556
928,5569;0,0803967
929,5211;0,0806072
930,4854;0,0807785
931,4496;0,0809189
932,4138;0,0810502
933,3781;0,0811969
934,3423;0,0813769
935,3065;0,0815986
936,2708;0,0818672
937,2350;0,0821902
938,1992;0,0825789
939,1635;0,0830423
940,1277;0,0835806
941,0919;0,0841834
942,0562;0,084837
943,0204;0,0855351
943,9846;0,0862842
944,9489;0,0871012
945,9131;0,0880028
946,8773;0,0889974
947,8416;0,090082
948,8058;0,091249
949,7700;0,0924943
950,7343;0,093823
951,6985;0,0952473
952,6627;0,0967794
953,6270;0,0984239
954,5912;0,100173
955,5554;0,102007
956,5197;0,103905
957,4839;0,105846
958,4481;0,107823
959,4124;0,109839
960,3766;0,111903
961,3408;0,114021
962,3051;0,116184
963,2693;0,118371
964,2335;0,12056
965,1978;0,122736
966,1620;0,12491
967,1262;0,127112
968,0905;0,129388
969,0547;0,131778
970,0189;0,134315
970,9832;0,137018
971,9474;0,139904
972,9116;0,142989
973,8759;0,14629
974,8401;0,149819
975,8043;0,153579
976,7686;0,157565
977,7328;0,16176
978,6970;0,166136
979,6613;0,170647
980,6255;0,175218
981,5897;0,17974
982,5540;0,184081
983,5182;0,188116
984,4824;0,191749
985,4467;0,19494
986,4109;0,197702
987,3751;0,200085
988,3394;0,202151
989,3036;0,203956
990,2678;0,205541
991,2321;0,206933
992,1963;0,208152
993,1605;0,209219
994,1248;0,21016
995,0890;0,211007
996,0532;0,211798
997,0175;0,212569
997,9817;0,213352
998,9459;0,214172
999,9102;0,21505
1000,8744;0,216001
1001,8386;0,217044
1002,8029;0,218206
1003,7671;0,219518
1004,7313;0,221019
1005,6956;0,222749
1006,6598;0,224749
1007,6240;0,227054
1008,5883;0,229678
1009,5525;0,23261
1010,5167;0,235803
1011,4810;0,239185
1012,4452;0,242657
1013,4094;0,246116
1014,3737;0,249456
1015,3379;0,252586
1016,3021;0,25543
1017,2664;0,257937
1018,2306;0,260091
1019,1948;0,26191
1020,1591;0,263441
1021,1233;0,264752
1022,0875;0,26591
1023,0518;0,266973
1024,0160;0,26798
1024,9802;0,268952
1025,9445;0,269887
1026,9087;0,270766
1027,8729;0,271545
1028,8372;0,272157
1029,8014;0,272521
1030,7656;0,272551
1031,7299;0,272178
1032,6941;0,271362
1033,6583;0,270102
1034,6226;0,268443
1035,5868;0,266472
1036,5510;0,26431
1037,5153;0,262099
1038,4795;0,259983
1039,4437;0,258085
1040,4080;0,256485
1041,3722;0,25521
1042,3364;0,254226
1043,3007;0,253453
1044,2649;0,252787
1045,2291;0,252126
1046,1934;0,251386
1047,1576;0,250513
1048,1218;0,24947
1049,0861;0,248233
1050,0503;0,246779
1051,0145;0,245088
1051,9788;0,243153
1052,9430;0,240986
1053,9072;0,238623
1054,8715;0,236107
1055,8357;0,233467
1056,7999;0,230697
1057,7642;0,227756
1058,7284;0,224588
1059,6926;0,221151
1060,6569;0,21746
1061,6211;0,213594
1062,5853;0,20968
1063,5496;0,205864
1064,5138;0,202264
1065,4780;0,198951
1066,4423;0,19594
1067,4065;0,193201
1068,3707;0,190685
1069,3350;0,188338
1070,2992;0,186107
1071,2634;0,183947
1072,2277;0,181817
1073,1919;0,179679
1074,1561;0,177499
1075,1204;0,175255
1076,0846;0,172947
1077,0488;0,170596
1078,0131;0,168245
1078,9773;0,165948
1079,9415;0,16376
1080,9058;0,161721
1081,8700;0,159852
1082,8342;0,158162
1083,7985;0,156648
1084,7627;0,155307
1085,7269;0,154132
1086,6912;0,153109
1087,6554;0,15222
1088,6196;0,151442
1089,5839;0,15076
1090,5481;0,150169
1091,5123;0,149674
1092,4766;0,149286
1093,4408;0,149013
1094,4050;0,148848
1095,3693;0,148772
1096,3335;0,148763
1097,2977;0,148797
1098,2620;0,148859
1099,2262;0,148937
1100,1904;0,149016
1101,1547;0,149073
1102,1189;0,149075
1103,0831;0,148989
1104,0474;0,148792
1105,0116;0,148479
1105,9758;0,148063
1106,9401;0,147562
1107,9043;0,14699
1108,8685;0,146341
1109,8328;0,145596
1110,7970;0,144724
1111,7612;0,143696
1112,7255;0,142501
1113,6897;0,141153
1114,6539;0,139698
1115,6182;0,138204
1116,5824;0,136745
1117,5466;0,135381
1118,5109;0,134139
1119,4751;0,132999
1120,4393;0,131904
1121,4036;0,130772
1122,3678;0,129519
1123,3320;0,128078
1124,2963;0,126413
1125,2605;0,124514
1126,2247;0,122399
1127,1890;0,120106
1128,1532;0,117685
1129,1174;0,11519
1130,0817;0,112677
1131,0459;0,110195
1132,0101;0,107785
1132,9744;0,105483
1133,9386;0,103321
1134,9028;0,101333
1135,8671;0,0995521
1136,8313;0,0980085
1137,7955;0,0967251
1138,7598;0,0957127
1139,7240;0,0949677
1140,6882;0,0944732
1141,6525;0,0942021
1142,6167;0,0941215
1143,5809;0,0941973
1144,5452;0,0943989
1145,5094;0,0947023
1146,4736;0,0950923
1147,4379;0,0955618
1148,4021;0,0961075
1149,3663;0,0967233
1150,3306;0,0973944
1151,2948;0,0980929
1152,2590;0,098779
1153,2233;0,0994052
1154,1875;0,0999224
1155,1517;0,100284
1156,1160;0,100445
1157,0802;0,100365
1158,0444;0,100001
1159,0087;0,0993069
1159,9729;0,0982419
1160,9371;0,096772
1161,9014;0,0948827
1162,8656;0,0925881
1163,8298;0,0899366
1164,7941;0,0870095
1165,7583;0,0839112
1166,7225;0,0807549
1167,6868;0,0776482
1168,6510;0,0746807
1169,6152;0,0719174
1170,5795;0,0693967
1171,5437;0,0671321
1172,5079;0,0651181
1173,4722;0,0633365
1174,4364;0,0617655
1175,4006;0,0603856
1176,3649;0,0591836
1177,3291;0,0581506
1178,2933;0,0572782
1179,2576;0,0565542
1180,2218;0,0559616
1181,1860;0,0554801
1182,1503;0,055091
1183,1145;0,0547804
1184,0787;0,0545406
1185,0430;0,0543699
1186,0072;0,0542713
1186,9714;0,0542517
1187,9357;0,0543196
1188,8999;0,0544831
1189,8641;0,0547466
1190,8284;0,0551091
1191,7926;0,0555644
1192,7568;0,0561035
1193,7211;0,0567171
1194,6853;0,0573954
1195,6495;0,0581273
1196,6138;0,0588978
1197,5780;0,0596882
1198,5422;0,0604799
1199,5065;0,0611894
1200,4707;0,0619601
1201,4349;0,0627184
1202,3992;0,0634719
1203,3634;0,0642267
1204,3276;0,0649835
1205,2919;0,0657381
1206,2561;0,0664866
1207,2203;0,0672305
1208,1846;0,0679807
1209,1488;0,0687567
1210,1130;0,0695828
1211,0773;0,0704808
1212,0415;0,0714649
1213,0057;0,0725376
1213,9700;0,0736895
1214,9342;0,074902
1215,8984;0,0761502
1216,8627;0,0774063
1217,8269;0,078643
1218,7911;0,0798385
1219,7554;0,080979
1220,7196;0,0820605
1221,6838;0,0830868
1222,6481;0,0840656
1223,6123;0,0850037
1224,5765;0,0859039
1225,5408;0,0867645
1226,5050;0,087581
1227,4692;0,088348
1228,4335;0,0890602
1229,3977;0,0897125
1230,3619;0,0902993
1231,3262;0,0908156
1232,2904;0,0912578
1233,2546;0,0916255
1234,2189;0,0919223
1235,1831;0,0921551
1236,1473;0,0923326
1237,1116;0,0924632
1238,0758;0,0925527
1239,0400;0,0926034
1240,0043;0,0926129
1240,9685;0,092575
1241,9327;0,0924814
1242,8970;0,0923244
1243,8612;0,0920999
1244,8254;0,0918086
1245,7897;0,0914563
1246,7539;0,0910523
1247,7181;0,0906065
1248,6824;0,0901266
1249,6466;0,0896176
1250,6108;0,0890826
1251,5751;0,0885267
1252,5393;0,0879591
1253,5035;0,0873922
1254,4678;0,0868366
1255,4320;0,0862939
1256,3962;0,0857534
1257,3605;0,0851943
1258,3247;0,0845945
1259,2889;0,0839397
1260,2532;0,0832285
1261,2174;0,0824699
1262,1816;0,0816758
1263,1459;0,0808538
1264,1101;0,0800055
1265,0743;0,0791291
1266,0386;0,0782224
1267,0028;0,0772838
1267,9670;0,0763111
1268,9313;0,0753021
1269,8955;0,0742569
1270,8597;0,0731814
1271,8240;0,0720888
1272,7882;0,0709966
1273,7524;0,0699218
1274,7167;0,0688776
1275,6809;0,0678722
1276,6451;0,0669103
1277,6094;0,0659931
1278,5736;0,0651181
1279,5378;0,0642784
1280,5021;0,0634653
1281,4663;0,0626731
1282,4305;0,0619028
1283,3948;0,0611635
1284,3590;0,0604691
1285,3232;0,0598343
1286,2875;0,0592705
1287,2517;0,0587847
1288,2159;0,0583799
1289,1802;0,0580558
1290,1444;0,0578102
1291,1086;0,0576396
1292,0729;0,0575412
1293,0371;0,0575141
1294,0013;0,0575595
1294,9656;0,0576799
1295,9298;0,0578765
1296,8940;0,0581481
1297,8583;0,0584909
1298,8225;0,058899
1299,7867;0,0593662
1300,7510;0,0598858
1301,7152;0,0604524
1302,6794;0,0610609
1303,6437;0,0617077
1304,6079;0,0623905
1305,5721;0,0631069
1306,5364;0,0638535
1307,5006;0,0646263
1308,4648;0,0654225
1309,4291;0,0662398
1310,3933;0,0670751
1311,3575;0,0679188
1312,3218;0,0687511
1313,2860;0,0695415
1314,2502;0,0702531
1315,2145;0,0708486
1316,1787;0,0712948
1317,1429;0,0715681
1318,1072;0,0716617
1319,0714;0,0715937
1320,0356;0,0714061
1320,9999;0,071152
1321,9641;0,0708775
1322,9283;0,0706114
1323,8926;0,0703662
1324,8568;0,0701459
1325,8210;0,069952
1326,7853;0,0697841
1327,7495;0,0696358
1328,7137;0,0694925
1329,6780;0,0693332
1330,6422;0,0691376
1331,6064;0,0688938
1332,5707;0,0686006
1333,5349;0,0682643
1334,4991;0,0678879
1335,4634;0,0674638
1336,4276;0,0669728
1337,3918;0,0663946
1338,3561;0,0657286
1339,3203;0,0650134
1340,2845;0,0643199
1341,2488;0,063713
1342,2130;0,0632196
1343,1772;0,0628308
1344,1415;0,0625247
1345,1057;0,0622859
1346,0699;0,0621117
1347,0342;0,0620092
1347,9984;0,0619885
1348,9626;0,0620572
1349,9269;0,0622157
1350,8911;0,0624565
1351,8553;0,0627675
1352,8196;0,0631377
1353,7838;0,0635629
1354,7480;0,0640454
1355,7123;0,0645872
1356,6765;0,0651836
1357,6407;0,0658217
1358,6050;0,0664858
1359,5692;0,0671627
1360,5334;0,0678375
1361,4977;0,0684869
1362,4619;0,0690832
1363,4261;0,0696127
1364,3904;0,0700833
1365,3546;0,0705112
1366,3188;0,0709038
1367,2831;0,0712563
1368,2473;0,071555
1369,2115;0,0717841
1370,1758;0,071929
1371,1400;0,0719749
1372,1042;0,0719038
1373,0685;0,0716984
1374,0327;0,0713561
1374,9969;0,0709003
1375,9612;0,0703658
1376,9254;0,0697641
1377,8896;0,0690696
1378,8539;0,0682459
1379,8181;0,067288
1380,7823;0,0662451
1381,7466;0,0651986
1382,7108;0,0642095
1383,6750;0,0632804
1384,6393;0,0623629
1385,6035;0,0614042
1386,5677;0,0604079
1387,5320;0,0594614
1388,4962;0,0586817
1389,4604;0,058122
1390,4247;0,0577472
1391,3889;0,0574853
1392,3531;0,05728
1393,3174;0,0571096
1394,2816;0,0569773
1395,2458;0,0568903
1396,2101;0,0568453
1397,1743;0,0568326
1398,1385;0,05685
1399,1028;0,056909
1400,0670;0,0570247
1401,0313;0,0572014
1401,9955;0,0574295
1402,9597;0,0576942
1403,9240;0,0579871
1404,8882;0,0583119
1405,8524;0,0586806
1406,8167;0,0591029
1407,7809;0,0595793
1408,7451;0,0601048
1409,7094;0,0606784
1410,6736;0,0613057
1411,6378;0,0619891
1412,6021;0,062716
1413,5663;0,0634579
1414,5305;0,0641803
1415,4948;0,0648526
1416,4590;0,0654474
1417,4232;0,0659349
1418,3875;0,0662968
1419,3517;0,0665575
1420,3159;0,0667683
1421,2802;0,0669412
1422,2444;0,0670315
1423,2086;0,0669825
1424,1729;0,066772
1425,1371;0,0664179
1426,1013;0,0659475
1427,0656;0,0653614
1428,0298;0,0646346
1428,9940;0,0637617
1429,9583;0,0628054
1430,9225;0,0618799
1431,8867;0,0610651
1432,8510;0,0603421
1433,8152;0,0596084
1434,7794;0,058752
1435,7437;0,0577522
1436,7079;0,0567575
1437,6721;0,056006
1438,6364;0,055616
1439,6006;0,0555175
1440,5648;0,0555714
1441,5291;0,0556814
1442,4933;0,0558198
1443,4575;0,0560036
1444,4218;0,0562591
1445,3860;0,0565961
1446,3502;0,0570024
1447,3145;0,0574536
1448,2787;0,0579284
1449,2429;0,0584153
1450,2072;0,0589047
1451,1714;0,0593757
1452,1356;0,0597934
1453,0999;0,0601172
1454,0641;0,0603052
1455,0283;0,0603052
1455,9926;0,0600576
1456,9568;0,0596045
1457,9210;0,0592167
1458,8853;0,0591442
1459,8495;0,0593362
1460,8137;0,0595833
1461,7780;0,0596942
1462,7422;0,0595247
1463,7064;0,0589821
1464,6707;0,0580857
1465,6349;0,057014
1466,5991;0,0559863
1467,5634;0,055081
1468,5276;0,0542135
1469,4918;0,0532227
1470,4561;0,051936
1471,4203;0,0502218
1472,3845;0,0481084
1473,3488;0,0458986
1474,3130;0,0439946
1475,2772;0,0425592
1476,2415;0,0414974
1477,2057;0,040659
1478,1699;0,0399478
1479,1342;0,0393229
1480,0984;0,0387724
1481,0626;0,0382994
1482,0269;0,0379175
1482,9911;0,0376422
1483,9553;0,0374786
1484,9196;0,0374134
1485,8838;0,0374209
1486,8480;0,0374741
1487,8123;0,037554
1488,7765;0,0376635
1489,7407;0,0378413
1490,7050;0,0381351
1491,6692;0,0385506
1492,6334;0,0390545
1493,5977;0,0396185
1494,5619;0,0402456
1495,5261;0,0409658
1496,4904;0,0418037
1497,4546;0,0427421
1498,4188;0,0437233
1499,3831;0,0446856
1500,3473;0,0455779
1501,3115;0,0463542
1502,2758;0,0469788
1503,2400;0,0474387
1504,2042;0,047748
1505,1685;0,047919
1506,1327;0,0478931
1507,0969;0,0475756
1508,0612;0,0470892
1509,0254;0,0466776
1509,9896;0,0463816
1510,9539;0,0461062
1511,9181;0,0457638
1512,8823;0,0453028
1513,8466;0,0446953
1514,8108;0,0439366
1515,7750;0,043058
1516,7393;0,0421239
1517,7035;0,0411973
1518,6677;0,0403008
1519,6320;0,0394221
1520,5962;0,0385634
1521,5604;0,0377835
1522,5247;0,0371679
1523,4889;0,0367529
1524,4531;0,0365048
1525,4174;0,0363663
1526,3816;0,0363039
1527,3458;0,0363125
1528,3101;0,0363922
1529,2743;0,0365334
1530,2385;0,0367273
1531,2028;0,0369826
1532,1670;0,0373231
1533,1312;0,0377588
1534,0955;0,0382579
1535,0597;0,0387558
1536,0239;0,0391909
1536,9882;0,03953
1537,9524;0,0397699
1538,9166;0,0399089
1539,8809;0,0398975
1540,8451;0,0396834
1541,8093;0,0393756
1542,7736;0,0391364
1543,7378;0,0389793
1544,7020;0,0388491
1545,6663;0,0387248
1546,6305;0,0386196
1547,5947;0,038546
1548,5590;0,0384968
1549,5232;0,0384528
1550,4874;0,0384043
1551,4517;0,0383636
1552,4159;0,0383528
1553,3801;0,0383756
1554,3444;0,0384025
1555,3086;0,0383802
1556,2728;0,0382447
1557,2371;0,037933
1558,2013;0,0374702
1559,1655;0,0371347
1560,1298;0,0372229
1561,0940;0,0376754
1562,0582;0,0382694
1563,0225;0,0388533
1563,9867;0,0393645
1564,9509;0,0397888
1565,9152;0,0401355
1566,8794;0,0404325
1567,8436;0,040729
1568,8079;0,0410852
1569,7721;0,0415358
1570,7363;0,0420607
1571,7006;0,0426035
1572,6648;0,0431178
1573,6290;0,0435992
1574,5933;0,0440851
1575,5575;0,0446247
1576,5217;0,0452345
1577,4860;0,0458908
1578,4502;0,046564
1579,4144;0,0472377
1580,3787;0,0479093
1581,3429;0,0485873
1582,3071;0,0492847
1583,2714;0,0500109
1584,2356;0,0507682
1585,1998;0,0515546
1586,1641;0,0523646
1587,1283;0,0531842
1588,0925;0,053988
1589,0568;0,0547416
1590,0210;0,0554095
1590,9852;0,0559603
1591,9495;0,0563664
1592,9137;0,056603
1593,8779;0,0566579
1594,8422;0,0565437
1595,8064;0,0563027
1596,7706;0,0559912
1597,7349;0,0556567
1598,6991;0,0553255
1599,6633;0,0550047
1600,6276;0,0546949
1601,5918;0,0544006
1602,5560;0,0541341
1603,5203;0,0539089
1604,4845;0,0537277
1605,4487;0,0535748
1606,4130;0,0534232
1607,3772;0,0532536
1608,3414;0,0530768
1609,3057;0,0529383
1610,2699;0,0528879
1611,2341;0,0529376
1612,1984;0,0530508
1613,1626;0,053165
1614,1268;0,0532251
1615,0911;0,0532144
1616,0553;0,0531849
1617,0195;0,0532454
1617,9838;0,0534669
1618,9480;0,0538131
1619,9122;0,054187
1620,8765;0,0545031
1621,8407;0,0547187
1622,8049;0,0548379
1623,7692;0,0549051
1624,7334;0,0549764
1625,6976;0,0550835
1626,6619;0,0552271
1627,6261;0,0553988
1628,5903;0,0555966
1629,5546;0,0558168
1630,5188;0,0560384
1631,4830;0,0562211
1632,4473;0,0563152
1633,4115;0,0562739
1634,3757;0,0560732
1635,3400;0,0557674
1636,3042;0,0555245
1637,2684;0,0554935
1638,2327;0,0556546
1639,1969;0,0558926
1640,1611;0,0561169
1641,1254;0,0562896
1642,0896;0,056401
1643,0538;0,0564405
1644,0181;0,0563767
1644,9823;0,0561628
1645,9465;0,0557974
1646,9108;0,0554029
1647,8750;0,0551465
1648,8392;0,0550562
1649,8035;0,0550059
1650,7677;0,0548024
1651,7319;0,0542273
1652,6962;0,0531735
1653,6604;0,0519914
1654,6246;0,0512788
1655,5889;0,0511145
1656,5531;0,051186
1657,5173;0,051231
1658,4816;0,0511193
1659,4458;0,0507931
1660,4100;0,0502327
1661,3743;0,0494772
1662,3385;0,04866
1663,3027;0,047956
1664,2670;0,047453
1665,2312;0,0471032
1666,1954;0,0467778
1667,1597;0,0463319
1668,1239;0,045662
1669,0881;0,0447832
1670,0524;0,0438651
1671,0166;0,0430998
1671,9808;0,0425238
1672,9451;0,0420268
1673,9093;0,0414883
1674,8735;0,0408844
1675,8378;0,0403086
1676,8020;0,0398869
1677,7662;0,0396624
1678,7305;0,039569
1679,6947;0,0394881
1680,6589;0,0392911
1681,6232;0,0388466
1682,5874;0,0380517
1683,5516;0,0369791
1684,5159;0,0359743
1685,4801;0,0353489
1686,4443;0,0350816
1687,4086;0,0349754
1688,3728;0,0348772
1689,3370;0,0347324
1690,3013;0,0345539
1691,2655;0,0343776
1692,2297;0,0342294
1693,1940;0,0341119
1694,1582;0,0340069
1695,1224;0,0338827
1696,0867;0,0337048
1697,0509;0,0334539
1698,0151;0,0331518
1698,9794;0,0328749
1699,9436;0,0327249
1700,9078;0,0327632
1701,8721;0,0329727
1702,8363;0,0332858
1703,8005;0,0336352
1704,7648;0,0339839
1705,7290;0,0343299
1706,6932;0,0346956
1707,6575;0,0351089
1708,6217;0,0355875
1709,5859;0,0361333
1710,5502;0,036736
1711,5144;0,0373768
1712,4786;0,0380278
1713,4429;0,0386536
1714,4071;0,0392166
1715,3713;0,0396899
1716,3356;0,0400835
1717,2998;0,0404678
1718,2640;0,0409331
1719,2283;0,0415082
1720,1925;0,0421548
1721,1567;0,0428181
1722,1210;0,043457
1723,0852;0,0440479
1724,0494;0,0445831
1725,0137;0,0450733
1725,9779;0,0455432
1726,9421;0,0460178
1727,9064;0,0465032
1728,8706;0,0469756
1729,8348;0,0473794
1730,7991;0,0476306
1731,7633;0,0476337
1732,7275;0,0473437
1733,6918;0,0468621
1734,6560;0,0464066
1735,6202;0,0461067
1736,5845;0,0459089
1737,5487;0,0456756
1738,5129;0,0452945
1739,4772;0,044729
1740,4414;0,0440276
1741,4056;0,0432863
1742,3699;0,042577
1743,3341;0,0419039
1744,2983;0,0412277
1745,2626;0,0405081
1746,2268;0,0397142
1747,1910;0,0388032
1748,1553;0,0377135
1749,1195;0,0364199
1750,0837;0,0350186
1751,0480;0,0337029
1752,0122;0,0326154
1752,9764;0,0317592
1753,9407;0,0310424
1754,9049;0,0303649
1755,8691;0,0296746
1756,8334;0,028977
1757,7976;0,0283014
1758,7618;0,0276517
1759,7261;0,0269904
1760,6903;0,0262764
1761,6545;0,0255218
1762,6188;0,0248037
1763,5830;0,0242095
1764,5472;0,0237728
1765,5115;0,0234629
1766,4757;0,0232183
1767,4399;0,0229811
1768,4042;0,0227123
1769,3684;0,0223891
1770,3326;0,0220011
1771,2969;0,0215627
1772,2611;0,0211339
1773,2253;0,0208022
1774,1896;0,0206199
1775,1538;0,0205693
1776,1180;0,0205891
1777,0823;0,0206164
1778,0465;0,0206108
1779,0107;0,0205608
1779,9750;0,0204786
1780,9392;0,0203843
1781,9034;0,0202902
1782,8677;0,0201976
1783,8319;0,02011
1784,7961;0,0200434
1785,7604;0,0200209
1786,7246;0,0200546
1787,6888;0,0201325
1788,6531;0,0202205
1789,6173;0,0202728
1790,5815;0,0202483
1791,5458;0,0201372
1792,5100;0,0199842
1793,4742;0,0198648
1794,4385;0,019821
1795,4027;0,0198368
1796,3669;0,0198693
1797,3312;0,0198817
1798,2954;0,0198568
1799,2596;0,0197965
1800,2239;0,0197144
1801,1881;0,0196274
1802,1523;0,0195492
1803,1166;0,0194895
1804,0808;0,0194552
1805,0450;0,0194506
1806,0093;0,0194738
1806,9735;0,0195137
1807,9377;0,0195508
1808,9020;0,0195634
1809,8662;0,0195393
1810,8304;0,0194851
1811,7947;0,0194224
1812,7589;0,0193729
1813,7231;0,0193454
1814,6874;0,0193352
1815,6516;0,019332
1816,6158;0,0193289
1817,5801;0,0193267
1818,5443;0,0193333
1819,5085;0,0193558
1820,4728;0,019394
1821,4370;0,0194386
1822,4012;0,0194764
1823,3655;0,0194963
1824,3297;0,0194957
1825,2939;0,019479
1826,2582;0,0194511
1827,2224;0,0194091
1828,1866;0,0193452
1829,1509;0,0192584
1830,1151;0,0191665
1831,0793;0,019101
1832,0436;0,0190838
1833,0078;0,0191122
1833,9720;0,0191657
1834,9363;0,0192225
1835,9005;0,0192718
1836,8647;0,019318
1837,8290;0,0193733
1838,7932;0,0194444
1839,7574;0,0195236
1840,7217;0,0195907
1841,6859;0,0196219
1842,6501;0,0196014
1843,6144;0,019534
1844,5786;0,0194493
1845,5428;0,0193827
1846,5071;0,0193463
1847,4713;0,0193238
1848,4355;0,019291
1849,3998;0,0192358
1850,3640;0,0191641
1851,3282;0,0190948
1852,2925;0,0190475
1853,2567;0,019032
1854,2209;0,0190464
1855,1852;0,0190808
1856,1494;0,0191243
1857,1136;0,0191688
1858,0779;0,019209
1859,0421;0,0192414
1860,0063;0,0192632
1860,9706;0,0192745
1861,9348;0,0192791
1862,8990;0,0192848
1863,8633;0,0193013
1864,8275;0,0193369
1865,7917;0,0193935
1866,7560;0,0194602
1867,7202;0,0195102
1868,6844;0,0195142
1869,6487;0,0194645
1870,6129;0,0193819
1871,5771;0,0192955
1872,5414;0,0192235
1873,5056;0,0191699
1874,4698;0,0191297
1875,4341;0,0190961
1876,3983;0,0190659
1877,3625;0,0190418
1878,3268;0,0190296
1879,2910;0,0190332
1880,2552;0,0190514
1881,2195;0,019079
1882,1837;0,0191111
1883,1479;0,0191463
1884,1122;0,0191855
1885,0764;0,0192286
1886,0406;0,019271
1887,0049;0,0193036
1887,9691;0,0193164
1888,9333;0,0193049
1889,8976;0,0192737
1890,8618;0,0192342
1891,8260;0,0191974
1892,7903;0,0191683
1893,7545;0,0191475
1894,7188;0,019135
1895,6830;0,0191335
1896,6472;0,0191469
1897,6115;0,0191775
1898,5757;0,0192219
1899,5399;0,0192715
1900,5042;0,0193158
1901,4684;0,0193469
1902,4326;0,0193622
1903,3969;0,019364
1904,3611;0,0193564
1905,3253;0,0193425
1906,2896;0,0193246
1907,2538;0,019307
1908,2180;0,0192974
1909,1823;0,0193036
1910,1465;0,0193262
1911,1107;0,0193548
1912,0750;0,0193722
1913,0392;0,0193649
1914,0034;0,0193334
1914,9677;0,0192944
1915,9319;0,0192763
1916,8961;0,0193039
1917,8604;0,0193813
1918,8246;0,0194843
1919,7888;0,0195722
1920,7531;0,0196085
1921,7173;0,0195771
1922,6815;0,0194886
1923,6458;0,0193764
1924,6100;0,0192821
1925,5742;0,0192345
1926,5385;0,0192368
1927,5027;0,0192694
1928,4669;0,019304
1929,4312;0,0193204
1930,3954;0,0193167
1931,3596;0,0193053
1932,3239;0,0192976
1933,2881;0,0192883
1934,2523;0,019255
1935,2166;0,0191763
1936,1808;0,0190539
1937,1450;0,0189221
1938,1093;0,0188337
1939,0735;0,0188322
1940,0377;0,0189277
1941,0020;0,0190865
1941,9662;0,0192429
1942,9304;0,019332
1943,8947;0,0193254
1944,8589;0,0192413
1945,8231;0,0191265
1946,7874;0,0190305
1947,7516;0,0189882
1948,7158;0,0190115
1949,6801;0,0190835
1950,6443;0,0191611
1951,6085;0,0191899
1952,5728;0,0191291
1953,5370;0,0189754
1954,5012;0,0187693
1955,4655;0,0185765
1956,4297;0,0184545
1957,3939;0,0184236
1958,3582;0,018462
1959,3224;0,0185254
1960,2866;0,0185773
1961,2509;0,0186073
1962,2151;0,0186253
1963,1793;0,0186394
1964,1436;0,0186385
1965,1078;0,0185962
1966,0720;0,0184935
1967,0363;0,0183424
1968,0005;0,018188
1968,9647;0,0180821
1969,9290;0,0180493
1970,8932;0,0180736
1971,8574;0,0181121
1972,8217;0,0181228
1973,7859;0,0180888
1974,7501;0,0180268
1975,7144;0,017978
1976,6786;0,0179869
1977,6428;0,0180792
1978,6071;0,01825
1979,5713;0,018464
1980,5355;0,0186682
1981,4998;0,0188096
1982,4640;0,0188559
1983,4282;0,0188119
1984,3925;0,0187227
1985,3567;0,018656
1986,3209;0,0186671
1987,2852;0,0187682
1988,2494;0,0189221
1989,2136;0,0190685
1990,1779;0,019163
1991,1421;0,0192055
1992,1063;0,0192357
1993,0706;0,0192982
1994,0348;0,0194056
1994,9990;0,0195283
1995,9633;0,0196136
1996,9275;0,0196134
1997,8917;0,0195039
1998,8560;0,0192912
1999,8202;0,0190076
2000,7844;0,0187059
2001,7487;0,0184546
2002,7129;0,0183315
2003,6771;0,0184048
2004,6414;0,0186999
2005,6056;0,0191647
2006,5698;0,0196665
2007,5341;0,0200384
2008,4983;0,0201612
2009,4625;0,0200222
2010,4268;0,019711
2011,3910;0,0193562
2012,3552;0,0190543
2013,3195;0,0188336
2014,2837;0,0186708
2015,2479;0,0185392
2016,2122;0,0184517
2017,1764;0,0184631
2018,1406;0,0186296
2019,1049;0,0189592
2020,0691;0,0193943
2021,0333;0,019837
2021,9976;0,0201947
2022,9618;0,0204154
2023,9260;0,0204959
2024,8903;0,0204655
2025,8545;0,0203616
2026,8187;0,0202155
2027,7830;0,0200547
2028,7472;0,0199136
2029,7114;0,0198373
2030,6757;0,0198674
2031,6399;0,0200169
2032,6041;0,0202498
2033,5684;0,0204856
2034,5326;0,0206329
2035,4968;0,0206365
2036,4611;0,020506
2037,4253;0,0203085
2038,3895;0,0201308
2039,3538;0,0200353
2040,3180;0,0200342
2041,2822;0,0200959
2042,2465;0,0201765
2043,2107;0,0202548
2044,1749;0,0203454
2045,1392;0,0204814
2046,1034;0,0206802
2047,0676;0,020918
2048,0320;0,0211341
2048,9961;0,0212633
2049,9604;0,0212737
2050,9246;0,0211826
2051,8889;0,021045
2052,8530;0,0209304
2053,8174;0,0208974
2054,7815;0,0209721
2055,7458;0,0211355
2056,7100;0,0213261
2057,6743;0,021462
2058,6384;0,021476
2059,6028;0,0213472
2060,5669;0,0211139
2061,5313;0,0208591
2062,4954;0,0206735
2063,4597;0,0206146
2064,4238;0,0206831
2065,3882;0,0208304
2066,3523;0,020993
2067,3167;0,0211291
2068,2808;0,021234
2069,2451;0,021328
2070,2092;0,0214286
2071,1736;0,0215302
2072,1377;0,0216041
2073,1021;0,0216179
2074,0662;0,0215603
2075,0305;0,0214517
2075,9946;0,021335
2076,9590;0,0212526
2077,9231;0,0212268
2078,8875;0,0212538
2079,8516;0,0213141
2080,8159;0,0213864
2081,7800;0,0214573
2082,7444;0,0215201
2083,7085;0,0215682
2084,6729;0,0215923
2085,6370;0,021585
2086,6013;0,0215486
2087,5654;0,021499
2088,5298;0,021461
2089,4939;0,021455
2090,4583;0,0214868
2091,4224;0,0215453
2092,3867;0,0216103
2093,3508;0,0216647
2094,3152;0,0217005
2095,2793;0,0217173
2096,2437;0,0217161
2097,2078;0,0216958
2098,1721;0,0216567
2099,1362;0,0216066
2100,1006;0,0215622
2101,0647;0,0215429
2102,0291;0,0215588
2102,9932;0,0216053
2103,9575;0,0216651
2104,9216;0,0217193
2105,8860;0,0217578
2106,8501;0,0217827
2107,8145;0,0218029
2108,7786;0,0218265
2109,7429;0,0218562
2110,7070;0,021889
2111,6714;0,0219204
2112,6355;0,0219452
2113,5999;0,0219592
2114,5640;0,0219596
2115,5283;0,0219475
2116,4924;0,0219301
2117,4568;0,0219208
2118,4209;0,0219333
2119,3853;0,0219743
2120,3494;0,0220382
2121,3137;0,0221079
2122,2778;0,0221627
2123,2422;0,0221873
2124,2063;0,0221773
2125,1707;0,0221381
2126,1348;0,0220794
2127,0991;0,0220089
2128,0632;0,0219297
2129,0276;0,0218438
2129,9917;0,0217594
2130,9561;0,0216966
2131,9202;0,0216878
2132,8845;0,021765
2133,8486;0,0219411
2134,8130;0,0221908
2135,7771;0,0224499
2136,7415;0,0226379
2137,7056;0,0226941
2138,6699;0,0226062
2139,6340;0,022413
2140,5984;0,0221832
2141,5625;0,0219843
2142,5269;0,0218609
2143,4910;0,0218308
2144,4553;0,0218948
2145,4194;0,0220478
2146,3838;0,0222765
2147,3479;0,0225484
2148,3123;0,0228021
2149,2764;0,0229564
2150,2407;0,022938
2151,2048;0,022719
2152,1692;0,0223424
2153,1333;0,0219227
2154,0977;0,0216168
2155,0618;0,0215742
2156,0261;0,021878
2156,9902;0,0224894
2157,9546;0,0232298
2158,9187;0,0238413
2159,8831;0,0241185
2160,8472;0,0240124
2161,8115;0,0236272
2162,7756;0,0231387
2163,7400;0,022713
2164,7041;0,022462
2165,6685;0,0224288
2166,6326;0,022591
2167,5969;0,0228758
2168,5610;0,0231821
2169,5254;0,0234065
2170,4895;0,0234697
2171,4539;0,0233405
2172,4180;0,0230518
2173,3823;0,0226971
2174,3464;0,0224001
2175,3108;0,0222614
2176,2749;0,02231
2177,2393;0,0224881
2178,2034;0,0226821
2179,1677;0,0227818
2180,1318;0,0227353
2181,0962;0,0225702
2182,0603;0,0223714
2183,0247;0,0222302
2183,9888;0,022197
2184,9531;0,0222662
2185,9172;0,0223933
2186,8816;0,0225249
2187,8457;0,0226209
2188,8101;0,022661
2189,7742;0,0226447
2190,7385;0,0225865
2191,7026;0,0225117
2192,6670;0,0224471
2193,6311;0,022408
2194,5955;0,022391
2195,5596;0,022379
2196,5239;0,0223568
2197,4880;0,0223275
2198,4524;0,022314
2199,4165;0,0223428
2200,3809;0,0224223
2201,3450;0,022534
2202,3093;0,022644
2203,2734;0,0227273
2204,2378;0,0227826
2205,2019;0,0228277
2206,1663;0,022878
2207,1304;0,0229287
2208,0947;0,0229538
2209,0588;0,0229232
2210,0232;0,0228227
2210,9873;0,0226624
2211,9517;0,0224676
2212,9158;0,0222659
2213,8801;0,0220788
2214,8442;0,0219243
2215,8086;0,0218213
2216,7727;0,0217857
2217,7371;0,0218195
2218,7012;0,0219036
2219,6655;0,0220032
2220,6296;0,0220885
2221,5940;0,0221525
2222,5581;0,0222136
2223,5225;0,0222972
2224,4866;0,0224104
2225,4509;0,0225304
2226,4150;0,0226153
2227,3794;0,0226314
2228,3435;0,0225786
2229,3079;0,0224909
2230,2720;0,0224164
2231,2363;0,0223872
2232,2004;0,0224027
2233,1648;0,0224338
2234,1289;0,0224458
2235,0933;0,0224229
2236,0574;0,0223794
2237,0217;0,0223499
2237,9858;0,0223673
2238,9502;0,0224397
2239,9143;0,0225433
2240,8787;0,022632
2241,8428;0,0226621
2242,8071;0,0226146
2243,7712;0,0225048
2244,7356;0,0223725
2245,6997;0,0222611
2246,6641;0,0221965
2247,6282;0,0221808
2248,5925;0,022199
2249,5566;0,0222345
2250,5210;0,0222801
2251,4851;0,0223385
2252,4495;0,0224131
2253,4136;0,0224985
2254,3779;0,0225771
2255,3420;0,0226261
2256,3064;0,02263
2257,2705;0,0225897
2258,2349;0,0225247
2259,1990;0,0224647
2260,1633;0,0224377
2261,1274;0,0224588
2262,0918;0,0225261
2263,0559;0,0226226
2264,0203;0,0227233
2264,9844;0,022803
2265,9487;0,0228423
2266,9128;0,022832
2267,8772;0,0227764
2268,8413;0,0226933
2269,8057;0,0226098
2270,7698;0,0225525
2271,7341;0,0225362
2272,6982;0,022557
2273,6626;0,0225956
2274,6267;0,0226295
2275,5911;0,0226458
2276,5552;0,0226462
2277,5195;0,0226409
2278,4836;0,0226386
2279,4480;0,0226409
2280,4121;0,0226459
2281,3765;0,0226571
2282,3406;0,0226875
2283,3049;0,0227542
2284,2690;0,0228663
2285,2334;0,0230158
2286,1975;0,0231783
2287,1619;0,0233255
2288,1260;0,0234409
2289,0903;0,0235282
2290,0544;0,0236087
2291,0188;0,0237076
2291,9829;0,0238403
2292,9473;0,0240041
2293,9114;0,0241809
2294,8757;0,0243461
2295,8398;0,0244784
2296,8042;0,0245667
2297,7683;0,0246101
2298,7327;0,024615
2299,6968;0,0245911
2300,6611;0,0245492
2301,6252;0,0245028
2302,5896;0,0244695
2303,5537;0,0244709
2304,5181;0,0245264
2305,4822;0,0246422
2306,4465;0,0248011
2307,4106;0,024959
2308,3750;0,0250556
2309,3391;0,0250382
2310,3035;0,0248867
2311,2676;0,0246273
2312,2319;0,0243226
2313,1960;0,024043
2314,1604;0,0238343
2315,1245;0,0237022
2316,0889;0,0236209
2317,0530;0,0235569
2318,0173;0,023493
2318,9814;0,0234387
2319,9458;0,0234257
2320,9099;0,0234883
2321,8743;0,023643
2322,8384;0,0238748
2323,8027;0,0241372
2324,7668;0,0243647
2325,7312;0,0244952
2326,6953;0,0244939
2327,6597;0,0243675
2328,6238;0,024164
2329,5881;0,023956
2330,5522;0,0238135
2331,5166;0,0237739
2332,4807;0,0238245
2333,4451;0,0239107
2334,4092;0,0239707
2335,3735;0,0239753
2336,3376;0,0239506
2337,3020;0,0239665
2338,2661;0,0240948
2339,2305;0,024354
2340,1946;0,0246731
2341,1589;0,0248954
2342,1230;0,024843
2343,0874;0,0244661
2344,0515;0,0239946
2345,0159;0,0238363
2345,9800;0,0242097
2346,9443;0,0249549
2347,9084;0,0257014
2348,8728;0,026129
2349,8369;0,0261114
2350,8013;0,025735
2351,7654;0,0252299
2352,7297;0,0248381
2353,6938;0,0246851
2354,6582;0,0247588
2355,6223;0,024998
2356,5867;0,0253468
2357,5508;0,0257191
2358,5151;0,0259785
2359,4792;0,0260032
2360,4436;0,0257719
2361,4077;0,0253642
2362,3721;0,0248795
2363,3362;0,0243753
2364,3005;0,0238701
2365,2646;0,0233755
2366,2290;0,0229105
2367,1931;0,0224915
2368,1575;0,0221218
2369,1216;0,021795
2370,0859;0,0215053
2371,0500;0,0212563
2372,0144;0,0210638
2372,9785;0,0209532
2373,9429;0,0209532
2374,9070;0,0210845
2375,8713;0,0213476
2376,8354;0,0217173
2377,7998;0,0221466
2378,7639;0,0225793
2379,7283;0,0229647
2380,6924;0,0232669
2381,6567;0,0234682
2382,6208;0,0235669
2383,5852;0,0235733
2384,5493;0,0235071
2385,5137;0,0233938
2386,4778;0,0232623
2387,4421;0,0231398
2388,4063;0,0230476
2389,3706;0,0229962
2390,3347;0,0229845
2391,2991;0,023002
2392,2632;0,0230334
2393,2275;0,0230648
2394,1917;0,0230879
2395,1560;0,0231011
2396,1201;0,0231076
2397,0845;0,0231127
2398,0486;0,0231219
2399,0129;0,0231372
2399,9771;0,0231577
2400,9414;0,0231814
2401,9055;0,0232051
2402,8699;0,0232272
2403,8340;0,0232476
2404,7983;0,0232677
2405,7625;0,0232892
2406,7268;0,0233133
2407,6909;0,0233399
2408,6553;0,023368
2409,6194;0,0233957
2410,5837;0,0234214
2411,5479;0,0234438
2412,5122;0,0234623
2413,4763;0,0234774
2414,4407;0,0234902
2415,4048;0,0235019
2416,3691;0,0235128
2417,3333;0,0235223
2418,2976;0,0235289
2419,2617;0,023532
2420,2261;0,023534
2421,1902;0,0235393
2422,1545;0,0235541
2423,1187;0,0235827
2424,0830;0,0236242
2425,0471;0,0236722
2426,0115;0,0237168
2426,9756;0,0237499
2427,9399;0,0237694
2428,9041;0,023781
2429,8684;0,0237949
2430,8325;0,02382
2431,7969;0,0238579
2432,7610;0,0239009
2433,7253;0,0239356
2434,6895;0,0239499
2435,6538;0,0239395
2436,6179;0,0239107
2437,5823;0,0238766
2438,5464;0,0238508
2439,5107;0,0238419
2440,4749;0,0238526
2441,4392;0,023882
2442,4033;0,0239282
2443,3677;0,023989
2444,3318;0,0240594
2445,2961;0,0241307
2446,2603;0,0241921
2447,2246;0,0242357
2448,1887;0,0242607
2449,1531;0,0242731
2450,1172;0,0242802
2451,0815;0,0242839
2452,0457;0,0242803
2453,0100;0,0242638
2453,9741;0,0242355
2454,9385;0,0242071
2455,9026;0,0241961
2456,8669;0,0242161
2457,8311;0,0242677
2458,7954;0,0243375
2459,7595;0,0244059
2460,7239;0,0244575
2461,6880;0,0244879
2462,6523;0,0245027
2463,6165;0,0245109
2464,5808;0,0245177
2465,5449;0,0245224
2466,5093;0,0245222
2467,4734;0,0245162
2468,4377;0,0245082
2469,4019;0,0245042
2470,3662;0,0245084
2471,3303;0,0245198
2472,2947;0,0245331
2473,2588;0,0245418
2474,2231;0,0245431
2475,1873;0,0245394
2476,1516;0,0245368
2477,1157;0,0245408
2478,0801;0,0245534
2479,0442;0,0245718
2480,0085;0,0245908
2480,9727;0,024606
2481,9370;0,0246164
2482,9011;0,0246239
2483,8655;0,0246316
2484,8296;0,0246419
2485,7939;0,0246556
2486,7581;0,0246739
2487,7224;0,0246985
2488,6865;0,0247318
2489,6509;0,0247742
2490,6150;0,0248231
2491,5793;0,0248719
2492,5435;0,0249132
2493,5078;0,0249426
2494,4719;0,0249606
2495,4363;0,0249722
2496,4004;0,0249835
2497,3647;0,0249982
2498,3289;0,0250159
2499,2932;0,025033
2500,2573;0,0250461
2501,2217;0,0250544
2502,1858;0,0250605
2503,1501;0,0250683
2504,1143;0,0250805
2505,0786;0,0250954
2506,0427;0,0251075
2507,0071;0,0251093
2507,9712;0,025097
2508,9355;0,0250729
2509,8997;0,0250463
2510,8640;0,0250292
2511,8281;0,0250297
2512,7925;0,0250471
2513,7566;0,0250717
2514,7209;0,0250908
2515,6851;0,0250963
2516,6494;0,02509
2517,6135;0,0250821
2518,5779;0,0250844
2519,5420;0,0251026
2520,5063;0,025133
2521,4705;0,0251655
2522,4348;0,0251909
2523,3989;0,025206
2524,3633;0,0252136
2525,3274;0,0252182
2526,2917;0,0252211
2527,2559;0,0252191
2528,2202;0,0252076
2529,1843;0,0251852
2530,1487;0,0251559
2531,1128;0,0251282
2532,0771;0,025111
2533,0413;0,0251105
2534,0056;0,0251287
2534,9697;0,0251641
2535,9341;0,0252118
2536,8982;0,0252645
2537,8625;0,0253129
2538,8267;0,0253482
2539,7910;0,0253658
2540,7551;0,0253673
2541,7195;0,0253609
2542,6836;0,0253559
2543,6479;0,0253576
2544,6121;0,0253634
2545,5764;0,0253655
2546,5405;0,0253567
2547,5049;0,0253374
2548,4690;0,0253167
2549,4333;0,0253071
2550,3975;0,0253168
2551,3618;0,025343
2552,3259;0,0253728
2553,2903;0,0253905
2554,2544;0,0253877
2555,2188;0,0253678
2556,1829;0,0253445
2557,1472;0,0253333
2558,1113;0,0253425
2559,0757;0,0253687
2560,0398;0,0253999
2561,0042;0,0254226
2561,9683;0,0254289
2562,9326;0,0254202
2563,8967;0,0254045
2564,8611;0,0253922
2565,8252;0,0253905
2566,7896;0,0254014
2567,7537;0,0254217
2568,7180;0,0254457
2569,6821;0,0254667
2570,6465;0,0254795
2571,6106;0,0254815
2572,5750;0,0254736
2573,5391;0,0254616
2574,5034;0,0254545
2575,4675;0,0254624
2576,4319;0,0254908
2577,3960;0,0255368
2578,3604;0,025588
2579,3245;0,0256273
2580,2888;0,0256413
2581,2529;0,0256278
2582,2173;0,0255979
2583,1814;0,0255704
2584,1458;0,0255619
2585,1099;0,0255773
2586,0742;0,0256084
2587,0383;0,0256402
2588,0027;0,0256608
2588,9668;0,0256694
2589,9312;0,0256751
2590,8953;0,0256895
2591,8596;0,0257172
2592,8237;0,0257509
2593,7881;0,0257758
2594,7522;0,0257788
2595,7166;0,0257582
2596,6807;0,0257263
2597,6450;0,0257037
2598,6091;0,0257088
2599,5735;0,0257485
2600,5376;0,0258158
2601,5020;0,0258942
2602,4661;0,0259658
2603,4304;0,0260186
2604,3945;0,0260495
2605,3589;0,0260626
2606,3230;0,0260659
2607,2874;0,0260674
2608,2515;0,0260727
2609,2158;0,0260838
2610,1799;0,0260989
2611,1443;0,0261146
2612,1084;0,0261277
2613,0728;0,0261382
2614,0369;0,0261501
2615,0012;0,0261698
2615,9653;0,0262026
2616,9297;0,0262492
2617,8938;0,0263043
2618,8582;0,0263591
2619,8223;0,0264049
2620,7866;0,0264367
2621,7507;0,026454
2622,7151;0,0264602
2623,6792;0,0264606
2624,6436;0,0264609
2625,6077;0,0264663
2626,5720;0,02648
2627,5361;0,0265028
2628,5005;0,0265318
2629,4646;0,0265625
2630,4290;0,0265901
2631,3931;0,026613
2632,3574;0,0266328
2633,3215;0,0266534
2634,2859;0,0266783
2635,2500;0,0267083
2636,2144;0,0267418
2637,1785;0,0267754
2638,1428;0,0268062
2639,1069;0,0268333
2640,0713;0,0268571
2641,0354;0,0268795
2641,9998;0,0269028
2642,9639;0,0269285
2643,9282;0,0269568
2644,8923;0,0269866
2645,8567;0,0270153
2646,8208;0,0270408
2647,7852;0,0270628
2648,7493;0,0270825
2649,7136;0,0271024
2650,6777;0,0271238
2651,6421;0,0271459
2652,6062;0,0271662
2653,5706;0,0271826
2654,5347;0,0271952
2655,4990;0,0272065
2656,4631;0,02722
2657,4275;0,0272382
2658,3916;0,0272613
2659,3560;0,027288
2660,3201;0,0273173
2661,2844;0,027349
2662,2485;0,0273829
2663,2129;0,0274178
2664,1770;0,0274504
2665,1414;0,027476
2666,1055;0,0274909
2667,0698;0,0274944
2668,0339;0,0274893
2668,9983;0,0274813
2669,9624;0,0274771
2670,9268;0,0274824
2671,8909;0,0275005
2672,8552;0,0275316
2673,8193;0,0275726
2674,7837;0,027617
2675,7478;0,0276574
2676,7122;0,0276882
2677,6763;0,027709
2678,6406;0,0277249
2679,6047;0,0277434
2680,5691;0,0277706
2681,5332;0,027807
2682,4976;0,0278477
2683,4617;0,0278865
2684,4260;0,0279199
2685,3901;0,0279491
2686,3545;0,027978
2687,3186;0,0280086
2688,2830;0,028039
2689,2471;0,0280648
2690,2114;0,0280831
2691,1755;0,0280963
2692,1399;0,0281115
2693,1040;0,0281358
2694,0684;0,0281723
2695,0325;0,0282176
2695,9968;0,0282646
2696,9609;0,0283072
2697,9253;0,0283429
2698,8894;0,0283736
2699,8538;0,028402
2700,8179;0,0284302
2701,7822;0,0284586
2702,7463;0,0284876
2703,7107;0,0285185
2704,6748;0,0285529
2705,6392;0,0285916
2706,6033;0,0286329
2707,5676;0,0286738
2708,5317;0,0287109
2709,4961;0,0287429
2710,4602;0,0287702
2711,4246;0,028795
2712,3887;0,028819
2713,3530;0,0288434
2714,3171;0,0288687
2715,2815;0,0288955
2716,2456;0,0289249
2717,2100;0,0289578
2718,1741;0,0289944
2719,1384;0,0290336
2720,1025;0,0290727
2721,0669;0,0291082
2722,0310;0,0291372
2722,9954;0,029159
2723,9595;0,0291759
2724,9238;0,0291921
2725,8879;0,0292121
2726,8523;0,0292386
2727,8164;0,0292712
2728,7808;0,0293078
2729,7449;0,0293455
2730,7092;0,0293825
2731,6733;0,029418
2732,6377;0,0294515
2733,6018;0,029482
2734,5662;0,0295085
2735,5303;0,0295306
2736,4946;0,0295493
2737,4587;0,0295665
2738,4231;0,0295841
2739,3872;0,0296036
2740,3516;0,0296261
2741,3157;0,0296524
2742,2800;0,0296832
2743,2441;0,0297172
2744,2085;0,029751
2745,1726;0,0297792
2746,1370;0,0297972
2747,1011;0,0298048
2748,0654;0,0298077
2749,0295;0,0298154
2749,9939;0,0298371
2750,9580;0,0298768
2751,9224;0,029931
2752,8865;0,0299909
2753,8508;0,0300468
2754,8149;0,0300923
2755,7793;0,0301264
2756,7434;0,030152
2757,7078;0,0301728
2758,6719;0,0301913
2759,6362;0,0302082
2760,6003;0,0302238
2761,5647;0,0302399
2762,5288;0,0302599
2763,4932;0,0302877
2764,4573;0,0303249
2765,4216;0,0303699
2766,3857;0,0304185
2767,3501;0,0304666
2768,3142;0,0305123
2769,2786;0,0305562
2770,2427;0,0306
2771,2070;0,0306442
2772,1711;0,0306879
2773,1355;0,03073
2774,0996;0,0307711
2775,0640;0,0308152
2776,0281;0,0308671
2776,9924;0,0309301
2777,9565;0,0310022
2778,9209;0,0310767
2779,8850;0,031145
2780,8494;0,0312008
2781,8135;0,0312438
2782,7778;0,0312791
2783,7419;0,0313147
2784,7063;0,0313566
2785,6704;0,0314065
2786,6348;0,0314618
2787,5989;0,0315185
2788,5632;0,0315751
2789,5273;0,0316341
2790,4917;0,0317012
2791,4558;0,0317812
2792,4202;0,0318742
2793,3843;0,0319743
2794,3486;0,0320716
2795,3127;0,0321569
2796,2771;0,0322259
2797,2412;0,032281
2798,2056;0,0323293
2799,1697;0,0323797
2800,1340;0,0324395
2801,0981;0,0325135
2802,0625;0,0326041
2803,0266;0,0327115
2803,9910;0,0328332
2804,9551;0,0329632
2805,9194;0,0330929
2806,8835;0,0332135
2807,8479;0,0333203
2808,8120;0,0334149
2809,7764;0,0335048
2810,7405;0,033599
2811,7048;0,0337039
2812,6689;0,0338202
2813,6333;0,0339446
2814,5974;0,0340732
2815,5618;0,034205
2816,5259;0,034342
2817,4902;0,0344873
2818,4543;0,0346414
2819,4187;0,0348017
2820,3828;0,0349635
2821,3472;0,035124
2822,3113;0,0352843
2823,2756;0,03545
2824,2397;0,0356279
2825,2041;0,0358237
2826,1682;0,0360388
2827,1326;0,0362712
2828,0967;0,0365169
2829,0610;0,0367729
2830,0251;0,0370376
2830,9895;0,0373119
2831,9536;0,0375979
2832,9180;0,037898
2833,8821;0,0382145
2834,8464;0,03855
2835,8105;0,0389079
2836,7749;0,0392936
2837,7390;0,039715
2838,7034;0,0401834
2839,6675;0,0407146
2840,6318;0,0413295
2841,5959;0,042052
2842,5603;0,0429015
2843,5244;0,0438818
2844,4888;0,0449671
2845,4529;0,0460943
2846,4172;0,0471653
2847,3813;0,0480648
2848,3457;0,0486896
2849,3098;0,0489781
2850,2742;0,0489289
2851,2383;0,0485985
2852,2026;0,048082
2853,1667;0,0474829
2854,1311;0,0468872
2855,0952;0,0463494
2856,0596;0,0458931
2857,0237;0,0455203
2857,9880;0,0452246
2858,9521;0,0449994
2859,9165;0,0448414
2860,8806;0,0447483
2861,8450;0,0447168
2862,8091;0,0447404
2863,7734;0,0448105
2864,7375;0,0449177
2865,7019;0,045053
2866,6660;0,0452073
2867,6304;0,0453712
2868,5945;0,0455341
2869,5588;0,0456851
2870,5229;0,0458164
2871,4873;0,0459252
2872,4514;0,0460154
2873,4158;0,0460964
2874,3799;0,0461795
2875,3442;0,0462729
2876,3083;0,0463792
2877,2727;0,0464952
2878,2368;0,0466143
2879,2012;0,0467305
2880,1653;0,0468408
2881,1296;0,0469464
2882,0938;0,0470517
2883,0581;0,0471617
2884,0222;0,047281
2884,9866;0,0474124
2885,9507;0,0475562
2886,9150;0,0477109
2887,8792;0,0478723
2888,8435;0,0480346
2889,8076;0,0481918
2890,7720;0,0483395
2891,7361;0,0484772
2892,7004;0,0486087
2893,6646;0,0487409
2894,6289;0,0488809
2895,5930;0,0490335
2896,5574;0,0491991
2897,5215;0,0493745
2898,4858;0,0495547
2899,4500;0,0497354
2900,4143;0,0499143
2901,3784;0,0500927
2902,3428;0,0502759
2903,3069;0,0504735
2904,2712;0,0506993
2905,2354;0,05097
2906,1997;0,0513032
2907,1638;0,0517167
2908,1282;0,0522277
2909,0923;0,0528515
2910,0566;0,0535977
2911,0208;0,0544617
2911,9851;0,0554141
2912,9492;0,0563943
2913,9136;0,0573151
2914,8777;0,0580792
2915,8420;0,0586041
2916,8062;0,0588437
2917,7705;0,0587974
2918,7346;0,0585034
2919,6990;0,05802
2920,6631;0,0574072
2921,6274;0,0567148
2922,5916;0,05598
2923,5559;0,0552306
2924,5200;0,0544887
2925,4844;0,0537713
2926,4485;0,0530897
2927,4128;0,0524493
2928,3770;0,0518507
2929,3413;0,0512922
2930,3054;0,0507708
2931,2698;0,0502823
2932,2339;0,0498206
2933,1982;0,0493785
2934,1624;0,0489486
2935,1267;0,048526
2936,0908;0,0481089
2937,0552;0,0476991
2938,0193;0,0472998
2938,9836;0,0469148
2939,9478;0,0465456
2940,9121;0,0461909
2941,8762;0,0458469
2942,8406;0,0455095
2943,8047;0,0451771
2944,7690;0,0448525
2945,7332;0,0445427
2946,6975;0,0442556
2947,6616;0,0439956
2948,6260;0,0437615
2949,5901;0,0435467
2950,5544;0,0433426
2951,5186;0,0431415
2952,4829;0,0429389
2953,4470;0,0427326
2954,4114;0,0425218
2955,3755;0,0423064
2956,3398;0,0420869
2957,3040;0,0418655
2958,2683;0,0416445
2959,2324;0,0414257
2960,1968;0,0412085
2961,1609;0,0409903
2962,1252;0,040768
2963,0894;0,0405401
2964,0537;0,0403076
2965,0178;0,0400732
2965,9822;0,0398395
2966,9463;0,0396075
2967,9106;0,0393765
2968,8748;0,0391456
2969,8391;0,0389149
2970,8032;0,0386863
2971,7676;0,0384633
2972,7317;0,03825
2973,6960;0,03805
2974,6602;0,0378648
2975,6245;0,0376935
2976,5886;0,0375322
2977,5530;0,0373756
2978,5171;0,0372204
2979,4814;0,0370671
2980,4456;0,0369211
2981,4099;0,0367896
2982,3740;0,0366775
2983,3384;0,0365836
2984,3025;0,0365012
2985,2668;0,0364213
2986,2310;0,036338
2987,1953;0,0362513
2988,1594;0,0361664
2989,1238;0,0360894
2990,0879;0,0360247
2991,0522;0,0359734
2992,0164;0,0359344
2992,9807;0,0359069
2993,9448;0,0358905
2994,9092;0,0358848
2995,8733;0,0358876
2996,8376;0,0358954
2997,8018;0,0359045
2998,7661;0,0359128
2999,7302;0,0359199
3000,6946;0,0359274
3001,6587;0,035937
3002,6230;0,0359507
3003,5872;0,0359705
3004,5515;0,0359976
3005,5156;0,0360317
3006,4800;0,03607
3007,4441;0,0361073
3008,4084;0,0361385
3009,3726;0,0361616
3010,3369;0,0361793
3011,3010;0,036198
3012,2654;0,0362242
3013,2295;0,0362601
3014,1938;0,0363032
3015,1580;0,0363479
3016,1223;0,0363902
3017,0864;0,0364304
3018,0508;0,0364726
3019,0149;0,0365221
3019,9792;0,0365809
3020,9434;0,0366472
3021,9077;0,0367161
3022,8718;0,0367838
3023,8362;0,03685
3024,8003;0,0369176
3025,7646;0,03699
3026,7288;0,0370681
3027,6931;0,0371489
3028,6572;0,0372273
3029,6216;0,037299
3030,5857;0,0373635
3031,5500;0,0374246
3032,5142;0,0374889
3033,4785;0,0375623
3034,4426;0,0376481
3035,4070;0,0377457
3036,3711;0,037851
3037,3354;0,0379574
3038,2996;0,0380572
3039,2639;0,038145
3040,2280;0,0382205
3041,1924;0,038291
3042,1565;0,0383695
3043,1208;0,0384689
3044,0850;0,0385942
3045,0493;0,0387388
3046,0134;0,0388855
3046,9778;0,0390156
3047,9419;0,0391183
3048,9063;0,0391972
3049,8704;0,0392682
3050,8347;0,0393509
3051,7988;0,0394586
3052,7632;0,0395923
3053,7273;0,0397422
3054,6917;0,0398944
3055,6558;0,0400384
3056,6201;0,0401715
3057,5842;0,0402985
3058,5486;0,0404271
3059,5127;0,0405617
3060,4771;0,0407008
3061,4412;0,0408371
3062,4055;0,0409616
3063,3696;0,041068
3064,3340;0,0411567
3065,2981;0,0412352
3066,2625;0,041315
3067,2266;0,0414061
3068,1909;0,0415135
3069,1550;0,0416353
3070,1194;0,041766
3071,0835;0,0418992
3072,0479;0,0420305
3073,0120;0,0421576
3073,9763;0,0422791
3074,9404;0,042393
3075,9048;0,0424972
3076,8689;0,0425911
3077,8333;0,0426783
3078,7974;0,042766
3079,7617;0,0428637
3080,7258;0,0429786
3081,6902;0,0431118
3082,6543;0,0432575
3083,6187;0,043405
3084,5828;0,0435431
3085,5471;0,043665
3086,5112;0,0437718
3087,4756;0,0438723
3088,4397;0,0439793
3089,4041;0,0441028
3090,3682;0,0442449
3091,3325;0,0443973
3092,2966;0,0445461
3093,2610;0,0446789
3094,2251;0,0447925
3095,1895;0,0448947
3096,1536;0,0449994
3097,1179;0,0451177
3098,0820;0,0452511
3099,0464;0,0453917
3100,0105;0,0455289
3100,9749;0,0456576
3101,9390;0,045782
3102,9033;0,0459121
3103,8674;0,046056
3104,8318;0,0462139
3105,7959;0,0463787
3106,7603;0,0465408
3107,7244;0,0466939
3108,6887;0,0468382
3109,6528;0,0469776
3110,6172;0,0471166
3111,5813;0,0472564
3112,5457;0,0473965
3113,5098;0,047536
3114,4741;0,0476754
3115,4382;0,0478157
3116,4026;0,0479567
3117,3667;0,0480963
3118,3311;0,0482318
3119,2952;0,0483626
3120,2595;0,0484921
3121,2236;0,0486257
3122,1880;0,0487693
3123,1521;0,0489253
3124,1165;0,0490928
3125,0806;0,0492679
3126,0449;0,0494462
3127,0090;0,0496237
3127,9734;0,0497976
3128,9375;0,0499664
3129,9019;0,0501304
3130,8660;0,050291
3131,8303;0,0504512
3132,7944;0,0506135
3133,7588;0,0507785
3134,7229;0,0509448
3135,6873;0,0511099
3136,6514;0,051273
3137,6157;0,0514364
3138,5798;0,0516043
3139,5442;0,0517804
3140,5083;0,0519641
3141,4727;0,0521501
3142,4368;0,0523309
3143,4011;0,0525014
3144,3652;0,0526625
3145,3296;0,0528216
3146,2937;0,0529884
3147,2581;0,05317
3148,2222;0,0533663
3149,1865;0,0535702
3150,1506;0,0537714
3151,1150;0,0539619
3152,0791;0,0541408
3153,0435;0,0543144
3154,0076;0,0544925
3154,9719;0,0546823
3155,9360;0,0548838
3156,9004;0,0550896
3157,8645;0,0552883
3158,8289;0,055471
3159,7930;0,0556356
3160,7573;0,0557884
3161,7214;0,0559408
3162,6858;0,0561044
3163,6499;0,0562868
3164,6143;0,0564889
3165,5784;0,0567053
3166,5427;0,056926
3167,5068;0,05714
3168,4712;0,057339
3169,4353;0,0574874
3170,3997;0,0576587
3171,3638;0,0578299
3172,3281;0,0580113
3173,2922;0,0582065
3174,2566;0,0584108
3175,2207;0,0586141
3176,1851;0,0588082
3177,1492;0,0589925
3178,1135;0,0591746
3179,0776;0,0593644
3180,0420;0,0595665
3181,0061;0,0597766
3181,9705;0,059984
3182,9346;0,0601792
3183,8989;0,0603604
3184,8630;0,060534
3185,8274;0,0607107
3186,7915;0,0608986
3187,7559;0,0610993
3188,7200;0,0613081
3189,6843;0,061517
3190,6484;0,0617189
3191,6128;0,0619089
3192,5769;0,0620858
3193,5413;0,0622516
3194,5054;0,0624119
3195,4697;0,0625745
3196,4338;0,0627461
3197,3982;0,062929
3198,3623;0,0631194
3199,3267;0,0633094
3200,2908;0,0634921
3201,2551;0,0636664
3202,2192;0,063838
3203,1836;0,0640158
3204,1477;0,0642064
3205,1121;0,0644093
3206,0762;0,0646175
3207,0405;0,0648205
3208,0046;0,0650099
3208,9690;0,0651819
3209,9331;0,0653384
3210,8975;0,065485
3211,8616;0,0656289
3212,8259;0,0657773
3213,7900;0,0659358
3214,7544;0,0661067
3215,7185;0,066288
3216,6829;0,0664745
3217,6470;0,0666591
3218,6113;0,0668362
3219,5754;0,0670042
3220,5398;0,067165
3221,5039;0,0673229
3222,4683;0,0674822
3223,4324;0,0676457
3224,3967;0,067815
3225,3608;0,0679904
3226,3252;0,0681717
3227,2893;0,0683573
3228,2537;0,0685442
3229,2178;0,0687286
3230,1821;0,0689072
3231,1462;0,0690778
3232,1106;0,0692396
3233,0747;0,0693931
3234,0391;0,0695395
3235,0032;0,0696818
3235,9675;0,0698253
3236,9316;0,0699775
3237,8960;0,0701449
3238,8601;0,07033
3239,8245;0,0705287
3240,7886;0,0707321
3241,7529;0,0709296
3242,7170;0,0711137
3243,6814;0,0712827
3244,6455;0,0714407
3245,6099;0,0715948
3246,5740;0,0717523
3247,5383;0,0719178
3248,5024;0,0720933
3249,4668;0,0722771
3250,4309;0,0724655
3251,3953;0,0726536
3252,3594;0,0728376
3253,3237;0,0730166
3254,2878;0,073193
3255,2522;0,073371
3256,2163;0,073553
3257,1807;0,073737
3258,1448;0,0739173
3259,1091;0,0740878
3260,0732;0,074247
3261,0376;0,0743998
3262,0017;0,0745563
3262,9661;0,0747262
3263,9302;0,0749134
3264,8945;0,0751139
3265,8586;0,0753169
3266,8230;0,0755096
3267,7871;0,0756822
3268,7515;0,0758303
3269,7156;0,0759555
3270,6799;0,0760634
3271,6440;0,0761614
3272,6084;0,0762564
3273,5725;0,0763537
3274,5369;0,0764556
3275,5010;0,0765617
3276,4653;0,0766694
3277,4294;0,0767756
3278,3938;0,0768773
3279,3579;0,0769721
3280,3223;0,0770578
3281,2864;0,0771332
3282,2507;0,0771987
3283,2148;0,0772579
3284,1792;0,0773171
3285,1433;0,077383
3286,1077;0,0774583
3287,0718;0,077539
3288,0361;0,0776148
3289,0002;0,0776741
3289,9646;0,0777103
3290,9287;0,0777254
3291,8931;0,0777299
3292,8572;0,0777366
3293,8215;0,0777548
3294,7856;0,0777866
3295,7500;0,077828
3296,7141;0,0778728
3297,6785;0,0779157
3298,6426;0,0779544
3299,6069;0,0779889
3300,5710;0,0780207
3301,5354;0,0780518
3302,4995;0,0780843
3303,4639;0,0781196
3304,4280;0,078157
3305,3923;0,0781934
3306,3564;0,0782243
3307,3208;0,0782455
3308,2849;0,078256
3309,2493;0,0782587
3310,2134;0,0782602
3311,1777;0,0782682
3312,1418;0,0782899
3313,1062;0,0783296
3314,0703;0,0783886
3315,0347;0,0784643
3315,9988;0,0785509
3316,9631;0,0786409
3317,9272;0,078728
3318,8916;0,0788096
3319,8557;0,0788874
3320,8201;0,0789659
3321,7842;0,0790496
3322,7485;0,0791396
3323,7126;0,0792332
3324,6770;0,079325
3325,6411;0,0794101
3326,6055;0,0794861
3327,5696;0,0795542
3328,5339;0,0796182
3329,4980;0,0796827
3330,4624;0,0797497
3331,4265;0,0798171
3332,3909;0,079877
3333,3550;0,0799187
3334,3193;0,0799329
3335,2834;0,0799176
3336,2478;0,0798793
3337,2119;0,0798304
3338,1763;0,0797814
3339,1404;0,0797347
3340,1047;0,0796841
3341,0688;0,0796201
3342,0332;0,0795375
3342,9973;0,0794404
3343,9617;0,0793392
3344,9258;0,0792441
3345,8901;0,0791587
3346,8542;0,0790788
3347,8186;0,0789962
3348,7827;0,0789048
3349,7471;0,0788032
3350,7112;0,0786944
3351,6755;0,0785818
3352,6396;0,0784673
3353,6040;0,0783514
3354,5681;0,0782344
3355,5325;0,0781184
3356,4966;0,0780052
3357,4609;0,0778954
3358,4250;0,0777868
3359,3894;0,0776768
3360,3535;0,0775646
3361,3179;0,0774529
3362,2820;0,0773461
3363,2463;0,0772463
3364,2104;0,0771499
3365,1748;0,0770476
3366,1389;0,0769287
3367,1033;0,0767876
3368,0674;0,0766275
3369,0317;0,0764591
3369,9958;0,0762945
3370,9602;0,0761405
3371,9243;0,0759959
3372,8887;0,0758528
3373,8528;0,0757036
3374,8171;0,0755458
3375,7813;0,0753847
3376,7456;0,0752309
3377,7097;0,0750941
3378,6741;0,0749784
3379,6382;0,0748791
3380,6025;0,0747858
3381,5667;0,0746861
3382,5310;0,0745719
3383,4951;0,0744425
3384,4595;0,0743047
3385,4236;0,0741693
3386,3879;0,0740449
3387,3521;0,0739333
3388,3164;0,0738293
3389,2805;0,0737234
3390,2449;0,073607
3391,2090;0,0734764
3392,1733;0,0733331
3393,1375;0,0731821
3394,1018;0,0730294
3395,0659;0,0728798
3396,0303;0,0727372
3396,9944;0,0726032
3397,9587;0,0724765
3398,9229;0,0723508
3399,8872;0,0722172
3400,8513;0,0720673
3401,8157;0,071898
3402,7798;0,0717136
3403,7441;0,0715224
3404,7083;0,0713322
3405,6726;0,0711467
3406,6367;0,070965
3407,6011;0,0707841
3408,5652;0,0706015
3409,5295;0,070415
3410,4937;0,0702232
3411,4580;0,0700259
3412,4221;0,0698265
3413,3865;0,0696332
3414,3506;0,0694561
3415,3149;0,0692996
3416,2791;0,069157
3417,2434;0,0690095
3418,2075;0,0688344
3419,1719;0,068617
3420,1360;0,0683605
3421,1003;0,0680866
3422,0645;0,0678241
3423,0288;0,0675942
3423,9929;0,0674013
3424,9573;0,0672337
3425,9214;0,0670719
3426,8857;0,0668981
3427,8499;0,0667028
3428,8142;0,0664863
3429,7783;0,0662555
3430,7427;0,0660189
3431,7068;0,0657825
3432,6711;0,065549
3433,6353;0,0653191
3434,5996;0,0650931
3435,5637;0,0648711
3436,5281;0,0646522
3437,4922;0,0644342
3438,4565;0,0642156
3439,4207;0,0639975
3440,3850;0,0637839
3441,3491;0,0635783
3442,3135;0,0633774
3443,2776;0,0631687
3444,2419;0,0629343
3445,2061;0,062662
3446,1704;0,0623554
3447,1345;0,0620364
3448,0989;0,0617347
3449,0630;0,0614701
3450,0273;0,061243
3450,9915;0,0610367
3451,9558;0,0608303
3452,9199;0,0606108
3453,8843;0,0603779
3454,8484;0,0601409
3455,8127;0,0599097
3456,7769;0,0596866
3457,7412;0,0594649
3458,7053;0,0592333
3459,6697;0,058984
3460,6338;0,0587172
3461,5981;0,0584415
3462,5623;0,0581691
3463,5266;0,0579083
3464,4907;0,0576614
3465,4551;0,0574254
3466,4192;0,057197
3467,3835;0,0569757
3468,3477;0,0567621
3469,3120;0,0565531
3470,2761;0,0563383
3471,2405;0,056103
3472,2046;0,0558379
3473,1689;0,0555492
3474,1331;0,0552611
3475,0974;0,0550043
3476,0615;0,0547975
3477,0259;0,0546331
3477,9900;0,0544788
3478,9543;0,0542939
3479,9185;0,0540517
3480,8828;0,0537564
3481,8469;0,05344
3482,8113;0,0531424
3483,7754;0,0528857
3484,7397;0,0526638
3485,7039;0,052451
3486,6682;0,052222
3487,6323;0,0519684
3488,5967;0,0517029
3489,5608;0,0514484
3490,5251;0,05122
3491,4893;0,0510134
3492,4536;0,0508088
3493,4177;0,0505854
3494,3821;0,0503387
3495,3462;0,0500877
3496,3105;0,0498652
3497,2747;0,0496944
3498,2390;0,0495699
3499,2031;0,0494563
3500,1675;0,0493053
3501,1316;0,0490821
3502,0959;0,0487888
3503,0601;0,0484662
3504,0244;0,048167
3504,9885;0,0479197
3505,9529;0,0477125
3506,9170;0,047508
3507,8813;0,0472703
3508,8455;0,0469885
3509,8098;0,0466818
3510,7739;0,0463858
3511,7383;0,0461263
3512,7024;0,0459052
3513,6667;0,0457051
3514,6309;0,0455067
3515,5952;0,0453027
3516,5593;0,0451011
3517,5237;0,0449165
3518,4878;0,0447581
3519,4521;0,0446215
3520,4163;0,0444912
3521,3806;0,0443487
3522,3447;0,0441808
3523,3091;0,043981
3524,2732;0,0437459
3525,2375;0,043471
3526,2017;0,0431531
3527,1660;0,0428009
3528,1301;0,0424423
3529,0945;0,0421186
3530,0586;0,0418643
3531,0229;0,0416868
3531,9871;0,041562
3532,9514;0,0414462
3533,9155;0,0412973
3534,8799;0,0410926
3535,8440;0,0408395
3536,8083;0,0405716
3537,7725;0,0403315
3538,7368;0,0401493
3539,7009;0,0400307
3540,6653;0,0399555
3541,6294;0,039884
3542,5938;0,0397673
3543,5579;0,0395642
3544,5222;0,0392664
3545,4863;0,038913
3546,4507;0,0385728
3547,4148;0,0382983
3548,3792;0,0380924
3549,3433;0,0379138
3550,3076;0,0377081
3551,2717;0,0374428
3552,2361;0,0371304
3553,2002;0,0368226
3554,1646;0,0365745
3555,1287;0,0364071
3556,0930;0,0362979
3557,0571;0,0362023
3558,0215;0,0360861
3558,9856;0,0359485
3559,9500;0,0358231
3560,9141;0,0357503
3561,8784;0,0357409
3562,8425;0,0357527
3563,8069;0,0356936
3564,7710;0,0354508
3565,7354;0,034961
3566,6995;0,0342996
3567,6638;0,0336691
3568,6279;0,0332411
3569,5923;0,0330375
3570,5564;0,0329684
3571,5208;0,0329261
3572,4849;0,0328401
3573,4492;0,0326919
3574,4133;0,0325047
3575,3777;0,0323162
3576,3418;0,0321504
3577,3062;0,0320074
3578,2703;0,0318779
3579,2346;0,031766
3580,1987;0,0316942
3581,1631;0,0316862
3582,1272;0,0317392
3583,0916;0,0318078
3584,0557;0,0318075
3585,0200;0,0316411
3585,9841;0,031259
3586,9485;0,0307357
3587,9126;0,0302633
3588,8770;0,0300071
3589,8411;0,0299846
3590,8054;0,0300951
3591,7695;0,0302094
3592,7339;0,0302309
3593,6980;0,0301247
3594,6624;0,0299233
3595,6265;0,029694
3596,5908;0,0294823
3597,5549;0,029283
3598,5193;0,0290653
3599,4834;0,0288196
3600,4478;0,0285816
3601,4119;0,0284088
3602,3762;0,0283292
3603,3403;0,0283134
3604,3047;0,0282869
3605,2688;0,0281661
3606,2332;0,0278965
3607,1973;0,0274861
3608,1616;0,0270095
3609,1257;0,0265653
3610,0901;0,0262209
3611,0542;0,0259955
3612,0186;0,02588
3612,9827;0,0258563
3613,9470;0,0258945
3614,9111;0,0259432
3615,8755;0,0259323
3616,8396;0,0257963
3617,8040;0,0255178
3618,7681;0,025169
3619,7324;0,0248987
3620,6965;0,0248368
3621,6609;0,0250056
3622,6250;0,0253257
3623,5894;0,0256758
3624,5535;0,0259303
3625,5178;0,025963
3626,4819;0,0256562
3627,4463;0,0249744
3628,4104;0,02409
3629,3748;0,0233402
3630,3389;0,0229302
3631,3032;0,0227946
3632,2673;0,0227534
3633,2317;0,0226705
3634,1958;0,0225012
3635,1602;0,0222736
3636,1243;0,0220453
3637,0886;0,0218583
3638,0527;0,0217177
3639,0171;0,0216054
3639,9812;0,0215105
3640,9456;0,0214461
3641,9097;0,0214411
3642,8740;0,0215138
3643,8381;0,0216476
3644,8025;0,021777
3645,7666;0,021777
3646,7310;0,0214664
3647,6951;0,020707
3648,6594;0,0196536
3649,6235;0,0187904
3650,5879;0,0184482
3651,5520;0,0185371
3652,5164;0,0187899
3653,4805;0,018984
3654,4448;0,0189983
3655,4089;0,0188227
3656,3733;0,0185525
3657,3374;0,0183257
3658,3018;0,0182221
3659,2659;0,0182223
3660,2302;0,0182587
3661,1943;0,0182861
3662,1587;0,0183123
3663,1228;0,0183782
3664,0872;0,0185098
3665,0513;0,0186832
3666,0156;0,0188266
3666,9797;0,0188536
3667,9441;0,0187177
3668,9082;0,018474
3669,8726;0,0182735
3670,8367;0,0182361
3671,8010;0,0183379
3672,7651;0,0184401
3673,7295;0,0183876
3674,6936;0,018109
3675,6580;0,0176965
3676,6221;0,0173545
3677,5864;0,0172098
3678,5505;0,0172357
3679,5149;0,0173471
3680,4790;0,0174931
3681,4434;0,0176727
3682,4075;0,0179062
3683,3718;0,0181952
3684,3359;0,0185015
3685,3003;0,0187498
3686,2644;0,018847
3687,2288;0,01872
3688,1929;0,0183843
3689,1572;0,0179987
3690,1213;0,017778
3691,0857;0,0178112
3692,0498;0,0180286
3693,0142;0,0183154
3693,9783;0,0185944
3694,9426;0,0188371
3695,9067;0,0190412
3696,8711;0,019205
3697,8352;0,0193112
3698,7996;0,0193301
3699,7637;0,0192398
3700,7280;0,0190577
3701,6921;0,0188573
3702,6565;0,018737
3703,6206;0,0187606
3704,5850;0,0189228
3705,5491;0,0191632
3706,5134;0,0193924
3707,4775;0,0195027
3708,4419;0,0193748
3709,4060;0,0189231
3710,3704;0,0182025
3711,3345;0,0174658
3712,2988;0,0170002
3713,2629;0,0169078
3714,2273;0,0171064
3715,1914;0,0174592
3716,1558;0,0178573
3717,1199;0,0182391
3718,0842;0,0185819
3719,0483;0,0188897
3720,0127;0,0191757
3720,9768;0,0194444
3721,9412;0,0196814
3722,9053;0,019861
3723,8696;0,0199671
3724,8337;0,0200125
3725,7981;0,0200358
3726,7622;0,0200776
3727,7266;0,0201555
3728,6907;0,0202624
3729,6550;0,0203767
3730,6191;0,0204688
3731,5835;0,0204931
3732,5476;0,0203743
3733,5120;0,0200247
3734,4761;0,0194344
3735,4404;0,0187635
3736,4045;0,0182599
3737,3689;0,0180639
3738,3330;0,0181458
3739,2974;0,0183783
3740,2615;0,0186093
3741,2258;0,0186917
3742,1899;0,0185139
3743,1543;0,0180727
3744,1184;0,0175514
3745,0828;0,0172225
3746,0469;0,0171972
3747,0112;0,0173454
3747,9753;0,0174274
3748,9397;0,0172368
3749,9038;0,016732
3750,8682;0,0161382
3751,8323;0,0158004
3752,7966;0,0158521
3753,7607;0,016162
3754,7251;0,0165223
3755,6892;0,0167744
3756,6536;0,0168389
3757,6177;0,0167264
3758,5820;0,0165355
3759,5461;0,0163985
3760,5105;0,0163941
3761,4746;0,0165117
3762,4390;0,0166869
3763,4031;0,0168506
3764,3674;0,0169535
3765,3315;0,0169717
3766,2959;0,0169005
3767,2600;0,0167483
3768,2244;0,0165375
3769,1885;0,0163135
3770,1528;0,0161441
3771,1169;0,0160939
3772,0813;0,0161867
3773,0454;0,0163907
3774,0098;0,0166348
3774,9739;0,0168371
3775,9382;0,0169302
3776,9023;0,0168861
3777,8667;0,0167386
3778,8308;0,0165758
3779,7952;0,0164859
3780,7593;0,0164962
3781,7236;0,0165674
3782,6877;0,0166351
3783,6521;0,0166534
3784,6162;0,0166145
3785,5806;0,0165448
3786,5447;0,0164853
3787,5090;0,0164695
3788,4731;0,016512
3789,4375;0,016608
3790,4016;0,0167376
3791,3660;0,0168731
3792,3301;0,0169884
3793,2944;0,0170716
3794,2585;0,0171326
3795,2229;0,0171961
3796,1870;0,0172759
3797,1514;0,0173476
3798,1155;0,0173473
3799,0798;0,0172101
3800,0439;0,0169354
3801,0083;0,0166279
3801,9724;0,0164355
3802,9368;0,0164168
3803,9009;0,0164951
3804,8652;0,0165364
3805,8293;0,0164573
3806,7937;0,0162939
3807,7578;0,0161844
3808,7222;0,0162546
3809,6863;0,016516
3810,6506;0,0168753
3811,6147;0,0172085
3812,5791;0,0174177
3813,5432;0,0174648
3814,5076;0,0173927
3815,4717;0,0173046
3816,4360;0,0172789
3817,4001;0,0172911
3818,3645;0,0172374
3819,3286;0,0170331
3820,2930;0,0167074
3821,2571;0,016407
3822,2214;0,0162753
3823,1855;0,016335
3824,1499;0,0165059
3825,1140;0,0166909
3826,0784;0,0168314
3827,0425;0,0169155
3828,0068;0,0169625
3828,9709;0,0169997
3829,9353;0,0170465
3830,8994;0,0171126
3831,8638;0,0172019
3832,8279;0,0173124
3833,7922;0,0174275
3834,7563;0,0175102
3835,7207;0,0175109
3836,6848;0,0173963
3837,6492;0,0171839
3838,6133;0,0169465
3839,5776;0,0167611
3840,5417;0,0166535
3841,5061;0,0166006
3842,4702;0,0165765
3843,4346;0,0165878
3844,3987;0,0166732
3845,3630;0,0168734
3846,3271;0,0171978
3847,2915;0,0176121
3848,2556;0,0180442
3849,2200;0,018388
3850,1841;0,0184984
3851,1484;0,0182048
3852,1125;0,017439
3853,0769;0,0164737
3854,0410;0,0158293
3855,0054;0,0157381
3855,9695;0,0160391
3856,9338;0,0164936
3857,8979;0,0169475
3858,8623;0,0173209
3859,8264;0,0175699
3860,7908;0,0176699
3861,7549;0,0176272
3862,7192;0,0174975
3863,6833;0,0173751
3864,6477;0,0173355
3865,6118;0,0173883
3866,5762;0,0174827
3867,5403;0,0175461
3868,5046;0,0175187
3869,4688;0,0173794
3870,4331;0,01716
3871,3972;0,0169356
3872,3616;0,0167865
3873,3257;0,01676
3874,2900;0,0168566
3875,2542;0,0170396
3876,2185;0,0172525
3877,1826;0,0174381
3878,1470;0,0175562
3879,1111;0,017599
3880,0754;0,01759
3881,0396;0,0175586
3882,0039;0,017509
3882,9680;0,0174205
3883,9324;0,0172868
3884,8965;0,01715
3885,8608;0,0170832
3886,8250;0,0171289
3887,7893;0,017255
3888,7534;0,0173696
3889,7178;0,0173792
3890,6819;0,0172558
3891,6462;0,0170765
3892,6104;0,0169785
3893,5747;0,0170488
3894,5388;0,0172696
3895,5032;0,0175566
3896,4673;0,0178202
3897,4316;0,0179988
3898,3958;0,0180704
3899,3601;0,0180452
3900,3242;0,0179424
3901,2886;0,017766
3902,2527;0,0175141
3903,2170;0,0172132
3904,1812;0,0169309
3905,1455;0,0167374
3906,1096;0,0166608
3907,0740;0,0166819
3908,0381;0,0167625
3909,0024;0,0168733
3909,9666;0,0170036
3910,9309;0,0171554
3911,8950;0,0173271
3912,8594;0,0174987
3913,8235;0,0176298
3914,7878;0,0176742
3915,7520;0,0176089
3916,7163;0,0174614
3917,6804;0,017309
3918,6448;0,0172327
3919,6089;0,0172639
3920,5732;0,0173697
3921,5374;0,0174816
3922,5017;0,0175378
3923,4658;0,0175176
3924,4302;0,0174531
3925,3943;0,0174047
3926,3586;0,0174148
3927,3228;0,0174801
3928,2871;0,0175571
3929,2512;0,0175907
3930,2156;0,0175456
3931,1797;0,0174291
3932,1440;0,0172891
3933,1082;0,0171823
3934,0725;0,0171409
3935,0366;0,0171642
3936,0010;0,0172321
3936,9651;0,0173202
3937,9294;0,0174067
3938,8936;0,0174728
3939,8579;0,0175059
3940,8220;0,0175055
3941,7864;0,0174885
3942,7505;0,0174828
3943,7148;0,0175096
3944,6790;0,0175656
3945,6433;0,0176221
3946,6074;0,0176406
3947,5718;0,0175957
3948,5359;0,0174924
3949,5002;0,017366
3950,4644;0,017261
3951,4287;0,0172048
3952,3928;0,0171972
3953,3572;0,0172207
3954,3213;0,0172558
3955,2856;0,0172915
3956,2498;0,0173247
3957,2141;0,017354
3958,1782;0,0173753
3959,1426;0,017382
3960,1067;0,0173705
3961,0710;0,0173448
3962,0352;0,0173159
3962,9995;0,0172962
3963,9636;0,0172922
3964,9280;0,0173028
3965,8921;0,0173209
3966,8564;0,0173392
3967,8206;0,0173531
3968,7849;0,0173625
3969,7490;0,0173701
3970,7134;0,0173782
3971,6775;0,0173867
3972,6418;0,0173932
3973,6060;0,0173944
3974,5703;0,0173892
3975,5344;0,0173798
3976,4988;0,0173708
3977,4629;0,0173659
3978,4272;0,017366
3979,3914;0,017368
3980,3557;0,0173679
3981,3198;0,017364
3982,2842;0,0173586
3983,2483;0,0173569
3984,2126;0,0173633
3985,1768;0,0173777
3986,1411;0,0173956
3987,1052;0,0174106
3988,0696;0,0174187
3989,0337;0,01742
3989,9980;0,0174171
3990,9622;0,0174123
3991,9265;0,0174046
3992,8906;0,0173916
3993,8550;0,0173718
3994,8191;0,0173475
3995,7834;0,0173243
3996,7476;0,0173084
3997,7119;0,0173028
3998,6760;0,0173077
3999,6404;0,0173217
4000,6045;0,0173451

##### Extended Information
[Comments]
Sample name
Comment
Username
Division
Organization;UNIVERSIDAD INDUSTRIAL DE SANTANDER

[Detailed Information]
Creation date;26/03/2025 4:38 p.m.

Data array type;Linear data array
Horizontal axis;Wavenumber [cm-1]
Vertical axis;Abs
Start;399,193 cm-1
End;4000,6 cm-1
Data interval;0,964233 cm-1
Data points;3736    

[Measurement Information]
Model name;FT/IR-4X1typeA
Serial No.;A035162111

Accessory;ATR PRO 4X
Accessory S/N;A021162126
Incident angle;45 deg

Measurement date;26/03/2025 4:37 p.m.

Light source;Standard
Detector;TGS
Accumulation;40
Resolution;4 cm-1
Zero filling;On
Apodization;Cosine
Gain;Auto (8)
Aperture;Auto (7 mm)
Scan speed;Auto (2 mm/sec)
Filter;Auto (12800 Hz)

