TITLE;
DATA TYPE;INFRARED SPECTRUM
ORIGIN;JASCO
OWNER;
DATE;25/03/26
TIME;17:35:57
SPECTROMETER/DATA SYSTEM;
LOCALE;9226
RESOLUTION;
DELTAX;0,964233
XUNITS;1/CM
YUNITS;ABSORBANCE
FIRSTX;  399,1927
LASTX; 4000,6047
NPOINTS;    3736
FIRSTY;     0,15330
MAXY;     0,24557
MINY;     0,01234
XYDATA
399,1927;0,153301
400,1569;0,153729
401,1211;0,155374
402,0854;0,157295
403,0496;0,158829
404,0138;0,159694
404,9781;0,159924
405,9423;0,159743
406,9065;0,15939
407,8708;0,158965
408,8350;0,158415
409,7992;0,157689
410,7635;0,156931
411,7277;0,156515
412,6919;0,156851
413,6562;0,158119
414,6204;0,160167
415,5846;0,162565
416,5489;0,164672
417,5131;0,165745
418,4773;0,165372
419,4416;0,164088
420,4058;0,163062
421,3700;0,16294
422,3343;0,163561
423,2985;0,164458
424,2627;0,165254
425,2270;0,165784
426,1912;0,16608
427,1554;0,166274
428,1197;0,166478
429,0839;0,166727
430,0481;0,167007
431,0124;0,167304
431,9766;0,167626
432,9408;0,167983
433,9051;0,168348
434,8693;0,168647
435,8335;0,168805
436,7978;0,168803
437,7620;0,168713
438,7262;0,168657
439,6905;0,168746
440,6547;0,169022
441,6189;0,169421
442,5832;0,169779
443,5474;0,169885
444,5116;0,169595
445,4759;0,168906
446,4401;0,167952
447,4043;0,166923
448,3686;0,16599
449,3328;0,16526
450,2970;0,164786
451,2613;0,164579
452,2255;0,164637
453,1897;0,164933
454,1540;0,165405
455,1182;0,16593
456,0824;0,166341
457,0467;0,166491
458,0109;0,166367
458,9751;0,166134
459,9394;0,166011
460,9036;0,166102
461,8678;0,166335
462,8321;0,166545
463,7963;0,166582
464,7605;0,166418
465,7248;0,16616
466,6890;0,16598
467,6532;0,16598
468,6175;0,166109
469,5817;0,166192
470,5459;0,166042
471,5102;0,165602
472,4744;0,165009
473,4386;0,164519
474,4029;0,164324
475,3671;0,164439
476,3313;0,164744
477,2956;0,165088
478,2598;0,165362
479,2240;0,165518
480,1883;0,165542
481,1525;0,165436
482,1167;0,165215
483,0810;0,164931
484,0452;0,164688
485,0094;0,164612
485,9737;0,164786
486,9379;0,1652
487,9021;0,165766
488,8664;0,166368
489,8306;0,166919
490,7948;0,167373
491,7591;0,167729
492,7233;0,167997
493,6875;0,168184
494,6518;0,168285
495,6160;0,168306
496,5802;0,168274
497,5445;0,168244
498,5087;0,168286
499,4729;0,168464
500,4372;0,168812
501,4014;0,169305
502,3656;0,169857
503,3299;0,170346
504,2941;0,17067
505,2583;0,170795
506,2226;0,170769
507,1868;0,170699
508,1510;0,170709
509,1153;0,170884
510,0795;0,171247
511,0437;0,171771
512,0080;0,172416
512,9722;0,173157
513,9365;0,17399
514,9007;0,174899
515,8649;0,175829
516,8292;0,176669
517,7934;0,17729
518,7576;0,177612
519,7219;0,177655
520,6861;0,177524
521,6503;0,177343
522,6146;0,177208
523,5788;0,177163
524,5430;0,177212
525,5073;0,177316
526,4715;0,177416
527,4357;0,177449
528,4000;0,177383
529,3642;0,177222
530,3284;0,177004
531,2927;0,176781
532,2569;0,176599
533,2211;0,176487
534,1854;0,17644
535,1496;0,176433
536,1138;0,176432
537,0781;0,176416
538,0423;0,176379
539,0065;0,176326
539,9708;0,176261
540,9350;0,176183
541,8992;0,176091
542,8635;0,175999
543,8277;0,175946
544,7919;0,175997
545,7562;0,17622
546,7204;0,176645
547,6846;0,177233
548,6489;0,177878
549,6131;0,178441
550,5773;0,178819
551,5416;0,178996
552,5058;0,179061
553,4700;0,179167
554,4343;0,179456
555,3985;0,179972
556,3627;0,180622
557,3270;0,181208
558,2912;0,181507
559,2554;0,181377
560,2197;0,180813
561,1839;0,179932
562,1481;0,178912
563,1124;0,17791
564,0766;0,177006
565,0408;0,176199
566,0051;0,175446
566,9693;0,174707
567,9335;0,17398
568,8978;0,173303
569,8620;0,172742
570,8262;0,172351
571,7905;0,172148
572,7547;0,172111
573,7189;0,172178
574,6832;0,172277
575,6474;0,17235
576,6116;0,172376
577,5759;0,172376
578,5401;0,172385
579,5043;0,172416
580,4686;0,172446
581,4328;0,172427
582,3970;0,172325
583,3613;0,172145
584,3255;0,171933
585,2897;0,171755
586,2540;0,171668
587,2182;0,171695
588,1824;0,171838
589,1467;0,172075
590,1109;0,172364
591,0751;0,172639
592,0394;0,172814
593,0036;0,172818
593,9678;0,172622
594,9321;0,172259
595,8963;0,171799
596,8605;0,171314
597,8248;0,170842
598,7890;0,170384
599,7532;0,169922
600,7175;0,169441
601,6817;0,168953
602,6459;0,168487
603,6102;0,168072
604,5744;0,167715
605,5386;0,167397
606,5029;0,16708
607,4671;0,166725
608,4313;0,16631
609,3956;0,165835
610,3598;0,165327
611,3240;0,164831
612,2883;0,164388
613,2525;0,164021
614,2167;0,163713
615,1810;0,163401
616,1452;0,162988
617,1094;0,162376
618,0737;0,161508
619,0379;0,1604
620,0021;0,159129
620,9664;0,157793
621,9306;0,156482
622,8948;0,155259
623,8591;0,154164
624,8233;0,1532
625,7875;0,152382
626,7518;0,151681
627,7160;0,151057
628,6802;0,150473
629,6445;0,149903
630,6087;0,149336
631,5729;0,148779
632,5372;0,148241
633,5014;0,147733
634,4656;0,147257
635,4299;0,146806
636,3941;0,146369
637,3583;0,145934
638,3226;0,145496
639,2868;0,145057
640,2510;0,144628
641,2153;0,14422
642,1795;0,143841
643,1437;0,143493
644,1080;0,143174
645,0722;0,142875
646,0364;0,142591
647,0007;0,142316
647,9649;0,142048
648,9291;0,141789
649,8934;0,141546
650,8576;0,141331
651,8218;0,141158
652,7861;0,141038
653,7503;0,14098
654,7145;0,140987
655,6788;0,141056
656,6430;0,141177
657,6072;0,141333
658,5715;0,141493
659,5357;0,141612
660,4999;0,141634
661,4642;0,141512
662,4284;0,141238
663,3926;0,140835
664,3569;0,140361
665,3211;0,139922
666,2853;0,139669
667,2496;0,139669
668,2138;0,139656
669,1780;0,139194
670,1423;0,138264
671,1065;0,137123
672,0707;0,135866
673,0350;0,134458
673,9992;0,132882
674,9634;0,131187
675,9277;0,12947
676,8919;0,127823
677,8561;0,126292
678,8204;0,124885
679,7846;0,123614
680,7488;0,122504
681,7131;0,121579
682,6773;0,12082
683,6415;0,120166
684,6058;0,119543
685,5700;0,118907
686,5342;0,118253
687,4985;0,117612
688,4627;0,117021
689,4269;0,116497
690,3912;0,116038
691,3554;0,11563
692,3196;0,115252
693,2839;0,114892
694,2481;0,114538
695,2123;0,114186
696,1766;0,113826
697,1408;0,113447
698,1050;0,113035
699,0693;0,112575
700,0335;0,112065
700,9977;0,111519
701,9620;0,11097
702,9262;0,110452
703,8904;0,109984
704,8547;0,109561
705,8189;0,10915
706,7831;0,10871
707,7474;0,108213
708,7116;0,107658
709,6758;0,10707
710,6401;0,10648
711,6043;0,105909
712,5685;0,105365
713,5328;0,104852
714,4970;0,104378
715,4612;0,103731
716,4255;0,103414
717,3897;0,103141
718,3539;0,102834
719,3182;0,102398
720,2824;0,101762
721,2466;0,100932
722,2109;0,0999789
723,1751;0,0990004
724,1393;0,0980744
725,1036;0,097237
726,0678;0,0964883
727,0320;0,0958078
727,9963;0,0951661
728,9605;0,0945327
729,9247;0,0938831
730,8890;0,0932072
731,8532;0,0925155
732,8174;0,0918376
733,7817;0,0912106
734,7459;0,0906627
735,7101;0,0902016
736,6744;0,0898127
737,6386;0,0894657
738,6028;0,0891251
739,5671;0,0887598
740,5313;0,0883513
741,4955;0,0878993
742,4598;0,0874215
743,4240;0,0869453
744,3882;0,0864931
745,3525;0,0860702
746,3167;0,0856626
747,2809;0,0852479
748,2452;0,0848121
749,2094;0,0843598
750,1736;0,0839107
751,1379;0,0834859
752,1021;0,0830927
753,0663;0,0827208
754,0306;0,08235
754,9948;0,0819641
755,9590;0,0815595
756,9233;0,081145
757,8875;0,0807337
758,8517;0,080335
759,8160;0,0799526
760,7802;0,079587
761,7444;0,07924
762,7087;0,0789145
763,6729;0,078611
764,6371;0,0783228
765,6014;0,0780363
766,5656;0,0777371
767,5298;0,0774186
768,4941;0,0770872
769,4583;0,0767602
770,4225;0,0764573
771,3868;0,0761919
772,3510;0,0759666
773,3152;0,0757763
774,2795;0,0756131
775,2437;0,0754703
776,2079;0,0753423
777,1722;0,0752206
778,1364;0,075092
779,1006;0,0749402
780,0649;0,0747499
781,0291;0,0745119
781,9933;0,0742245
782,9576;0,0738923
783,9218;0,0735251
784,8860;0,0731362
785,8503;0,0727427
786,8145;0,0723643
787,7787;0,0720203
788,7430;0,0717243
789,7072;0,0714797
790,6714;0,0712787
791,6357;0,0711057
792,5999;0,0709439
793,5641;0,070782
794,5284;0,0706177
795,4926;0,0704572
796,4568;0,0703106
797,4211;0,0701851
798,3853;0,0700808
799,3495;0,0699884
800,3138;0,0698931
801,2780;0,0697799
802,2422;0,0696415
803,2065;0,0694811
804,1707;0,0693128
805,1349;0,0691553
806,0992;0,0690237
807,0634;0,0689217
808,0276;0,0688385
808,9919;0,068753
809,9561;0,0686432
810,9203;0,0684978
811,8846;0,0683222
812,8488;0,068136
813,8130;0,0679618
814,7773;0,0678118
815,7415;0,0676806
816,7057;0,0675502
817,6700;0,0674032
818,6342;0,0672368
819,5984;0,0670669
820,5627;0,0669195
821,5269;0,0668148
822,4911;0,066754
823,4554;0,066719
824,4196;0,0666829
825,3839;0,066627
826,3481;0,0665508
827,3123;0,0664705
828,2766;0,0664058
829,2408;0,0663659
830,2050;0,0663405
831,1693;0,0663046
832,1335;0,0662307
833,0977;0,0661028
834,0620;0,0659231
835,0262;0,0657092
835,9904;0,065483
836,9547;0,0652609
837,9189;0,0650489
838,8831;0,0648451
839,8474;0,064647
840,8116;0,0644564
841,7758;0,0642805
842,7401;0,0641285
843,7043;0,0640063
844,6685;0,0639136
845,6328;0,0638448
846,5970;0,0637917
847,5612;0,0637475
848,5255;0,0637092
849,4897;0,0636767
850,4539;0,0636507
851,4182;0,0636296
852,3824;0,0636084
853,3466;0,0635802
854,3109;0,0635395
855,2751;0,0634857
856,2393;0,0634252
857,2036;0,0633702
858,1678;0,0633343
859,1320;0,0633289
860,0963;0,0633577
861,0605;0,0634164
862,0247;0,0634934
862,9890;0,0635753
863,9532;0,0636532
864,9174;0,0637276
865,8817;0,0638078
866,8459;0,0639071
867,8101;0,0640349
868,7744;0,0641917
869,7386;0,0643701
870,7028;0,06456
871,6671;0,0647535
872,6313;0,0649456
873,5955;0,0651307
874,5598;0,0652996
875,5240;0,0654419
876,4882;0,0655519
877,4525;0,0656355
878,4167;0,0657103
879,3809;0,0657996
880,3452;0,0659236
881,3094;0,0660962
882,2736;0,0663269
883,2379;0,0666261
884,2021;0,0670079
885,1663;0,0674857
886,1306;0,0680659
887,0948;0,0687422
888,0590;0,0694969
889,0233;0,0703053
889,9875;0,0711418
890,9517;0,0719808
891,9160;0,0727966
892,8802;0,0735609
893,8444;0,0742436
894,8087;0,0748158
895,7729;0,0752527
896,7371;0,0755366
897,7014;0,0756573
898,6656;0,0756119
899,6298;0,0754047
900,5941;0,0750475
901,5583;0,07456
902,5225;0,0739695
903,4868;0,0733106
904,4510;0,0726235
905,4152;0,0719501
906,3795;0,0713303
907,3437;0,0707969
908,3079;0,0703723
909,2722;0,0700664
910,2364;0,0698756
911,2007;0,0697839
912,1649;0,0697669
913,1292;0,0697981
914,0934;0,0698585
915,0576;0,0699416
916,0219;0,0700533
916,9861;0,0702041
917,9503;0,0703984
918,9146;0,0706281
919,8788;0,070875
920,8430;0,0711205
921,8073;0,0713547
922,7715;0,0715785
923,7357;0,0717978
924,7000;0,0720154
925,6642;0,0722266
926,6284;0,0724227
927,5927;0,0725972
928,5569;0,0727509
929,5211;0,0728904
930,4854;0,073024
931,4496;0,0731582
932,4138;0,0732991
933,3781;0,0734563
934,3423;0,0736441
935,3065;0,0738781
936,2708;0,0741677
937,2350;0,0745118
938,1992;0,0749008
939,1635;0,0753252
940,1277;0,0757847
941,0919;0,0762905
942,0562;0,0768587
943,0204;0,0774986
943,9846;0,0782043
944,9489;0,0789562
945,9131;0,0797321
946,8773;0,0805224
947,8416;0,081338
948,8058;0,082207
949,7700;0,0831601
950,7343;0,0842139
951,6985;0,0853642
952,6627;0,0865911
953,6270;0,0878734
954,5912;0,0892008
955,5554;0,0905764
956,5197;0,0920091
957,4839;0,0935019
958,4481;0,0950471
959,4124;0,0966306
960,3766;0,0982416
961,3408;0,0998784
962,3051;0,101546
963,2693;0,103247
964,2335;0,104977
965,1978;0,106727
966,1620;0,108495
967,1262;0,110294
968,0905;0,112151
969,0547;0,114098
970,0189;0,11616
970,9832;0,118349
971,9474;0,120672
972,9116;0,123141
973,8759;0,12578
974,8401;0,128624
975,8043;0,131707
976,7686;0,135052
977,7328;0,138658
978,6970;0,142499
979,6613;0,146517
980,6255;0,150619
981,5897;0,154685
982,5540;0,158579
983,5182;0,162179
984,4824;0,165401
985,4467;0,16821
986,4109;0,170622
987,3751;0,172681
988,3394;0,174441
989,3036;0,175951
990,2678;0,177259
991,2321;0,178404
992,1963;0,179424
993,1605;0,180352
994,1248;0,181216
995,0890;0,182039
996,0532;0,182844
997,0175;0,183657
997,9817;0,184502
998,9459;0,185399
999,9102;0,186354
1000,8744;0,187374
1001,8386;0,188463
1002,8029;0,189638
1003,7671;0,190929
1004,7313;0,192371
1005,6956;0,193999
1006,6598;0,195844
1007,6240;0,197927
1008,5883;0,200261
1009,5525;0,202846
1010,5167;0,205663
1011,4810;0,208664
1012,4452;0,211776
1013,4094;0,214903
1014,3737;0,217945
1015,3379;0,220811
1016,3021;0,223432
1017,2664;0,225774
1018,2306;0,227836
1019,1948;0,229649
1020,1591;0,23127
1021,1233;0,232767
1022,0875;0,234209
1023,0518;0,235647
1024,0160;0,23711
1024,9802;0,238598
1025,9445;0,240086
1026,9087;0,241528
1027,8729;0,242864
1028,8372;0,244021
1029,8014;0,244916
1030,7656;0,245462
1031,7299;0,24557
1032,6941;0,245173
1033,6583;0,244241
1034,6226;0,242802
1035,5868;0,240942
1036,5510;0,238804
1037,5153;0,236562
1038,4795;0,234392
1039,4437;0,232444
1040,4080;0,230817
1041,3722;0,229552
1042,3364;0,228627
1043,3007;0,227977
1044,2649;0,227505
1045,2291;0,22711
1046,1934;0,226702
1047,1576;0,226213
1048,1218;0,225596
1049,0861;0,224821
1050,0503;0,223865
1051,0145;0,222708
1051,9788;0,221334
1052,9430;0,219736
1053,9072;0,217922
1054,8715;0,215907
1055,8357;0,213704
1056,7999;0,211305
1057,7642;0,208675
1058,7284;0,205765
1059,6926;0,202539
1060,6569;0,199007
1061,6211;0,195242
1062,5853;0,191366
1063,5496;0,187523
1064,5138;0,183837
1065,4780;0,180394
1066,4423;0,177226
1067,4065;0,17433
1068,3707;0,171675
1069,3350;0,16922
1070,2992;0,166918
1071,2634;0,16472
1072,2277;0,162582
1073,1919;0,160472
1074,1561;0,158371
1075,1204;0,156272
1076,0846;0,15418
1077,0488;0,1521
1078,0131;0,150047
1078,9773;0,148043
1079,9415;0,146121
1080,9058;0,144321
1081,8700;0,142682
1082,8342;0,141233
1083,7985;0,139986
1084,7627;0,138931
1085,7269;0,138044
1086,6912;0,137292
1087,6554;0,136641
1088,6196;0,136071
1089,5839;0,135573
1090,5481;0,135156
1091,5123;0,134833
1092,4766;0,134615
1093,4408;0,134501
1094,4050;0,134478
1095,3693;0,134526
1096,3335;0,13463
1097,2977;0,134781
1098,2620;0,134975
1099,2262;0,135208
1100,1904;0,135466
1101,1547;0,135727
1102,1189;0,135958
1103,0831;0,136126
1104,0474;0,136199
1105,0116;0,136155
1105,9758;0,13598
1106,9401;0,135662
1107,9043;0,135197
1108,8685;0,134574
1109,8328;0,133781
1110,7970;0,132802
1111,7612;0,131627
1112,7255;0,130264
1113,6897;0,128749
1114,6539;0,127151
1115,6182;0,125554
1116,5824;0,124039
1117,5466;0,122655
1118,5109;0,121407
1119,4751;0,120256
1120,4393;0,119134
1121,4036;0,117968
1122,3678;0,116689
1123,3320;0,115252
1124,2963;0,113632
1125,2605;0,111826
1126,2247;0,109849
1127,1890;0,107733
1128,1532;0,105523
1129,1174;0,103268
1130,0817;0,101014
1131,0459;0,0988024
1132,0101;0,0966657
1132,9744;0,0946311
1133,9386;0,0927245
1134,9028;0,0909742
1135,8671;0,0894099
1136,8313;0,0880592
1137,7955;0,0869422
1138,7598;0,0860681
1139,7240;0,0854326
1140,6882;0,0850196
1141,6525;0,0848029
1142,6167;0,0847493
1143,5809;0,084823
1144,5452;0,0849907
1145,5094;0,085228
1146,4736;0,0855242
1147,4379;0,0858825
1148,4021;0,0863151
1149,3663;0,0868335
1150,3306;0,087439
1151,2948;0,0881167
1152,2590;0,0888359
1153,2233;0,0895558
1154,1875;0,0902305
1155,1517;0,090813
1156,1160;0,0912556
1157,0802;0,091508
1158,0444;0,0915165
1159,0087;0,091226
1159,9729;0,0905838
1160,9371;0,089547
1161,9014;0,0880921
1162,8656;0,0862225
1163,8298;0,0839743
1164,7941;0,0814161
1165,7583;0,0786417
1166,7225;0,0757597
1167,6868;0,0728797
1168,6510;0,0700992
1169,6152;0,0674948
1170,5795;0,065116
1171,5437;0,0629854
1172,5079;0,0611026
1173,4722;0,0594513
1174,4364;0,0580073
1175,4006;0,0567461
1176,3649;0,0556473
1177,3291;0,0546958
1178,2933;0,0538807
1179,2576;0,0531926
1180,2218;0,0526225
1181,1860;0,0521607
1182,1503;0,0517968
1183,1145;0,0515204
1184,0787;0,051321
1185,0430;0,0511894
1186,0072;0,0511194
1186,9714;0,0511096
1187,9357;0,051165
1188,8999;0,0512951
1189,8641;0,05151
1190,8284;0,0518155
1191,7926;0,0522105
1192,7568;0,0526879
1193,7211;0,0532384
1194,6853;0,0538531
1195,6495;0,0545234
1196,6138;0,055238
1197,5780;0,0559797
1198,5422;0,0567265
1199,5065;0,0572334
1200,4707;0,0579614
1201,4349;0,0586593
1202,3992;0,059333
1203,3634;0,0599907
1204,3276;0,0606369
1205,2919;0,06127
1206,2561;0,0618864
1207,2203;0,0624876
1208,1846;0,063084
1209,1488;0,0636955
1210,1130;0,064346
1211,0773;0,0650571
1212,0415;0,0658417
1213,0057;0,0667018
1213,9700;0,0676272
1214,9342;0,0685991
1215,8984;0,069594
1216,8627;0,0705874
1217,8269;0,0715584
1218,7911;0,0724961
1219,7554;0,0733972
1220,7196;0,0742633
1221,6838;0,0750962
1222,6481;0,0758946
1223,6123;0,0766556
1224,5765;0,0773766
1225,5408;0,0780582
1226,5050;0,0787032
1227,4692;0,0793131
1228,4335;0,0798849
1229,3977;0,08041
1230,3619;0,0808781
1231,3262;0,0812817
1232,2904;0,0816197
1233,2546;0,0818974
1234,2189;0,0821232
1235,1831;0,0823053
1236,1473;0,0824503
1237,1116;0,0825641
1238,0758;0,0826528
1239,0400;0,0827221
1240,0043;0,0827742
1240,9685;0,0828051
1241,9327;0,0828041
1242,8970;0,0827575
1243,8612;0,0826535
1244,8254;0,0824875
1245,7897;0,0822626
1246,7539;0,081988
1247,7181;0,0816747
1248,6824;0,0813317
1249,6466;0,0809642
1250,6108;0,0805753
1251,5751;0,0801684
1252,5393;0,0797502
1253,5035;0,0793307
1254,4678;0,0789205
1255,4320;0,0785247
1256,3962;0,0781384
1257,3605;0,0777461
1258,3247;0,0773262
1259,2889;0,0768596
1260,2532;0,0763371
1261,2174;0,0757613
1262,1816;0,0751434
1263,1459;0,0744957
1264,1101;0,0738269
1265,0743;0,07314
1266,0386;0,072433
1267,0028;0,0716993
1267,9670;0,0709302
1268,9313;0,0701167
1269,8955;0,0692551
1270,8597;0,0683507
1271,8240;0,0674192
1272,7882;0,0664833
1273,7524;0,0655659
1274,7167;0,0646852
1275,6809;0,0638514
1276,6451;0,0630679
1277,6094;0,0623312
1278,5736;0,061632
1279,5378;0,060957
1280,5021;0,0602942
1281,4663;0,059639
1282,4305;0,0589988
1283,3948;0,058391
1284,3590;0,057836
1285,3232;0,057348
1286,2875;0,0569284
1287,2517;0,0565674
1288,2159;0,0562508
1289,1802;0,0559706
1290,1444;0,0557313
1291,1086;0,0555483
1292,0729;0,0554401
1293,0371;0,0554201
1294,0013;0,0554905
1294,9656;0,0556437
1295,9298;0,055867
1296,8940;0,0561497
1297,8583;0,0564873
1298,8225;0,0568809
1299,7867;0,057333
1300,7510;0,0578428
1301,7152;0,0584075
1302,6794;0,0590203
1303,6437;0,0596728
1304,6079;0,0603591
1305,5721;0,0610748
1306,5364;0,0618184
1307,5006;0,062592
1308,4648;0,0633999
1309,4291;0,064243
1310,3933;0,065112
1311,3575;0,0659814
1312,3218;0,0668129
1313,2860;0,0675662
1314,2502;0,0682099
1315,2145;0,0687231
1316,1787;0,0690871
1317,1429;0,0692781
1318,1072;0,0692732
1319,0714;0,0690705
1320,0356;0,0687066
1320,9999;0,0682515
1321,9641;0,0677821
1322,9283;0,0673545
1323,8926;0,066993
1324,8568;0,0666967
1325,8210;0,0664528
1326,7853;0,0662482
1327,7495;0,0660718
1328,7137;0,0659124
1329,6780;0,0657546
1330,6422;0,0655831
1331,6064;0,0653921
1332,5707;0,0651922
1333,5349;0,06501
1334,4991;0,064872
1335,4634;0,0647829
1336,4276;0,0647042
1337,3918;0,064545
1338,3561;0,0641894
1339,3203;0,063573
1340,2845;0,0627528
1341,2488;0,0618815
1342,2130;0,0611074
1343,1772;0,060506
1344,1415;0,0600842
1345,1057;0,0598148
1346,0699;0,0596626
1347,0342;0,0595984
1347,9984;0,0596065
1348,9626;0,0596865
1349,9269;0,059847
1350,8911;0,0600941
1351,8553;0,0604221
1352,8196;0,0608131
1353,7838;0,0612442
1354,7480;0,0616993
1355,7123;0,0621789
1356,6765;0,0626993
1357,6407;0,0632828
1358,6050;0,0639448
1359,5692;0,0646797
1360,5334;0,0654395
1361,4977;0,066127
1362,4619;0,0666448
1363,4261;0,0669779
1364,3904;0,0672053
1365,3546;0,0674204
1366,3188;0,0676669
1367,2831;0,0679378
1368,2473;0,068203
1369,2115;0,0684336
1370,1758;0,0686123
1371,1400;0,0687284
1372,1042;0,0687623
1373,0685;0,0686775
1374,0327;0,0684376
1374,9969;0,0680426
1375,9612;0,0675355
1376,9254;0,0669542
1377,8896;0,0662914
1378,8539;0,0655127
1379,8181;0,0646106
1380,7823;0,0636383
1381,7466;0,06269
1382,7108;0,0618412
1383,6750;0,0611042
1384,6393;0,0604279
1385,6035;0,0597324
1386,5677;0,0589657
1387,5320;0,058165
1388,4962;0,05745
1389,4604;0,0569217
1390,4247;0,0565913
1391,3889;0,0564158
1392,3531;0,0563622
1393,3174;0,0564206
1394,2816;0,0565665
1395,2458;0,0567295
1396,2101;0,0568164
1397,1743;0,0567767
1398,1385;0,056643
1399,1028;0,0565102
1400,0670;0,0564746
1401,0313;0,056582
1401,9955;0,0568166
1402,9597;0,057125
1403,9240;0,0574516
1404,8882;0,0577679
1405,8524;0,0580876
1406,8167;0,0584509
1407,7809;0,0588859
1408,7451;0,0593875
1409,7094;0,0599322
1410,6736;0,0605052
1411,6378;0,0611099
1412,6021;0,0617558
1413,5663;0,0624357
1414,5305;0,0631176
1415,4948;0,0637562
1416,4590;0,0642961
1417,4232;0,0646606
1418,3875;0,0647941
1419,3517;0,0647699
1420,3159;0,0647659
1421,2802;0,0648668
1422,2444;0,0649884
1423,2086;0,0649884
1424,1729;0,0647852
1425,1371;0,0643897
1426,1013;0,0638595
1427,0656;0,0632357
1428,0298;0,0625196
1428,9940;0,0617066
1429,9583;0,0608361
1430,9225;0,0599893
1431,8867;0,0592176
1432,8510;0,0584857
1433,8152;0,0576932
1434,7794;0,0567443
1435,7437;0,0556301
1436,7079;0,0545099
1437,6721;0,0536678
1438,6364;0,0532769
1439,6006;0,0532621
1440,5648;0,0534288
1441,5291;0,053634
1442,4933;0,0538404
1443,4575;0,0540797
1444,4218;0,0543891
1445,3860;0,054769
1446,3502;0,0551832
1447,3145;0,0555915
1448,2787;0,0559882
1449,2429;0,0564054
1450,2072;0,0568665
1451,1714;0,0573371
1452,1356;0,0577348
1453,0999;0,0579913
1454,0641;0,0581046
1455,0283;0,0581124
1455,9926;0,0579482
1456,9568;0,057431
1457,9210;0,0567291
1458,8853;0,0563629
1459,8495;0,0564629
1460,8137;0,0567368
1461,7780;0,0568718
1462,7422;0,056695
1463,7064;0,0561544
1464,6707;0,0553088
1465,6349;0,054341
1466,5991;0,0534508
1467,5634;0,0526824
1468,5276;0,0519236
1469,4918;0,0510361
1470,4561;0,0499334
1471,4203;0,0485612
1472,3845;0,046888
1473,3488;0,0450273
1474,3130;0,043296
1475,2772;0,0419518
1476,2415;0,0410018
1477,2057;0,0403157
1478,1699;0,039773
1479,1342;0,0393044
1480,0984;0,0388787
1481,0626;0,0384916
1482,0269;0,038163
1482,9911;0,0379289
1483,9553;0,0378231
1484,9196;0,0378661
1485,8838;0,0380657
1486,8480;0,0384008
1487,8123;0,0387654
1488,7765;0,0389689
1489,7407;0,0389332
1490,7050;0,0388369
1491,6692;0,0388964
1492,6334;0,039161
1493,5977;0,0395814
1494,5619;0,0401335
1495,5261;0,0408386
1496,4904;0,0416944
1497,4546;0,0426288
1498,4188;0,0435702
1499,3831;0,0445005
1500,3473;0,0453717
1501,3115;0,0460671
1502,2758;0,0464862
1503,2400;0,0466551
1504,2042;0,0467992
1505,1685;0,0472876
1506,1327;0,0482209
1507,0969;0,0489394
1508,0612;0,0488564
1509,0254;0,0483776
1509,9896;0,0479552
1510,9539;0,0476162
1511,9181;0,0472633
1512,8823;0,0468487
1513,8466;0,0463651
1514,8108;0,0457995
1515,7750;0,0451201
1516,7393;0,044309
1517,7035;0,0433902
1518,6677;0,0424203
1519,6320;0,0414644
1520,5962;0,0405945
1521,5604;0,0398986
1522,5247;0,0394495
1523,4889;0,039241
1524,4531;0,0391805
1525,4174;0,0391619
1526,3816;0,0391397
1527,3458;0,0391347
1528,3101;0,0391832
1529,2743;0,039298
1530,2385;0,039482
1531,2028;0,0397541
1532,1670;0,040131
1533,1312;0,0405793
1534,0955;0,0410131
1535,0597;0,0413392
1536,0239;0,0414935
1536,9882;0,0414874
1537,9524;0,041469
1538,9166;0,0416944
1539,8809;0,0422426
1540,8451;0,0427184
1541,8093;0,0427796
1542,7736;0,0426309
1543,7378;0,0424913
1544,7020;0,0423788
1545,6663;0,0422892
1546,6305;0,0422523
1547,5947;0,0422844
1548,5590;0,0423552
1549,5232;0,0424067
1550,4874;0,0423984
1551,4517;0,0423367
1552,4159;0,0422566
1553,3801;0,0421693
1554,3444;0,0420413
1555,3086;0,0418354
1556,2728;0,0415581
1557,2371;0,0411939
1558,2013;0,0406087
1559,1655;0,0399725
1560,1298;0,0399646
1561,0940;0,040764
1562,0582;0,0419387
1563,0225;0,0430678
1563,9867;0,0439558
1564,9509;0,0445791
1565,9152;0,0450051
1566,8794;0,0453347
1567,8436;0,0456606
1568,8079;0,0460434
1569,7721;0,0465096
1570,7363;0,0470482
1571,7006;0,0476043
1572,6648;0,0481178
1573,6290;0,0485851
1574,5933;0,0490667
1575,5575;0,049609
1576,5217;0,0501878
1577,4860;0,0507869
1578,4502;0,0514352
1579,4144;0,0521212
1580,3787;0,052789
1581,3429;0,0534032
1582,3071;0,0539719
1583,2714;0,0545255
1584,2356;0,0550919
1585,1998;0,0556859
1586,1641;0,0563072
1587,1283;0,0569413
1588,0925;0,0575632
1589,0568;0,0581425
1590,0210;0,0586502
1590,9852;0,0590603
1591,9495;0,0593465
1592,9137;0,0594803
1593,8779;0,0594392
1594,8422;0,0592249
1595,8064;0,0588753
1596,7706;0,0584539
1597,7349;0,0580229
1598,6991;0,0576198
1599,6633;0,0572529
1600,6276;0,0569113
1601,5918;0,0565833
1602,5560;0,0562718
1603,5203;0,0559941
1604,4845;0,0557637
1605,4487;0,0555695
1606,4130;0,0553736
1607,3772;0,0551343
1608,3414;0,0548426
1609,3057;0,0545438
1610,2699;0,054308
1611,2341;0,0541635
1612,1984;0,0540689
1613,1626;0,0539514
1614,1268;0,0537617
1615,0911;0,0535009
1616,0553;0,0532343
1617,0195;0,0531029
1617,9838;0,0532369
1618,9480;0,0536104
1619,9122;0,0540631
1620,8765;0,0544395
1621,8407;0,0546666
1622,8049;0,0547498
1623,7692;0,0547472
1624,7334;0,0547331
1625,6976;0,0547514
1626,6619;0,0548005
1627,6261;0,0548654
1628,5903;0,0549462
1629,5546;0,0550428
1630,5188;0,0551244
1631,4830;0,0551374
1632,4473;0,0550543
1633,4115;0,0549077
1634,3757;0,0547499
1635,3400;0,0545774
1636,3042;0,0544041
1637,2684;0,0543691
1638,2327;0,0545537
1639,1969;0,0548648
1640,1611;0,0551612
1641,1254;0,0553572
1642,0896;0,0554339
1643,0538;0,0554193
1644,0181;0,0553594
1644,9823;0,0552612
1645,9465;0,0550521
1646,9108;0,054691
1647,8750;0,0542791
1648,8392;0,0538931
1649,8035;0,053469
1650,7677;0,0529149
1651,7319;0,052174
1652,6962;0,051178
1653,6604;0,0500897
1654,6246;0,0494961
1655,5889;0,0496098
1656,5531;0,0500418
1657,5173;0,0503731
1658,4816;0,0504064
1659,4458;0,0501169
1660,4100;0,0495559
1661,3743;0,0488035
1662,3385;0,0479876
1663,3027;0,0472777
1664,2670;0,0467755
1665,2312;0,0464435
1666,1954;0,0461602
1667,1597;0,0458015
1668,1239;0,0452745
1669,0881;0,0445516
1670,0524;0,0437257
1671,0166;0,0429629
1671,9808;0,0423305
1672,9451;0,0417521
1673,9093;0,0411356
1674,8735;0,0405037
1675,8378;0,0400092
1676,8020;0,0398073
1677,7662;0,0398978
1678,7305;0,0401128
1679,6947;0,040237
1680,6589;0,0401073
1681,6232;0,0396261
1682,5874;0,0387349
1683,5516;0,0375083
1684,5159;0,0363451
1685,4801;0,0357047
1686,4443;0,0356028
1687,4086;0,0357178
1688,3728;0,0357555
1689,3370;0,0355951
1690,3013;0,0352617
1691,2655;0,0348509
1692,2297;0,0344653
1693,1940;0,0341828
1694,1582;0,0340397
1695,1224;0,0340052
1696,0867;0,033962
1697,0509;0,0337466
1698,0151;0,0332761
1698,9794;0,0326764
1699,9436;0,0322466
1700,9078;0,0322333
1701,8721;0,0326441
1702,8363;0,0332848
1703,8005;0,0339203
1704,7648;0,0343938
1705,7290;0,0346713
1706,6932;0,0348323
1707,6575;0,0350116
1708,6217;0,0353102
1709,5859;0,0357492
1710,5502;0,0362922
1711,5144;0,0368912
1712,4786;0,0375108
1713,4429;0,038122
1714,4071;0,03867
1715,3713;0,0390272
1716,3356;0,0390323
1717,2998;0,0387303
1718,2640;0,0384879
1719,2283;0,0386217
1720,1925;0,0391153
1721,1567;0,0397639
1722,1210;0,0403779
1723,0852;0,0408611
1724,0494;0,0412148
1725,0137;0,0415132
1725,9779;0,0418573
1726,9421;0,0423151
1727,9064;0,0428819
1728,8706;0,0434822
1729,8348;0,0440015
1730,7991;0,0443174
1731,7633;0,0443164
1732,7275;0,0439413
1733,6918;0,0433155
1734,6560;0,0427567
1735,6202;0,0424941
1736,5845;0,0424714
1737,5487;0,0424862
1738,5129;0,0423844
1739,4772;0,0421298
1740,4414;0,0417803
1741,4056;0,0414184
1742,3699;0,0410833
1743,3341;0,0407515
1744,2983;0,0403746
1745,2626;0,0399223
1746,2268;0,039382
1747,1910;0,0387136
1748,1553;0,0378145
1749,1195;0,0365825
1750,0837;0,0350791
1751,0480;0,0335725
1752,0122;0,0323304
1752,9764;0,0314298
1753,9407;0,0307812
1754,9049;0,0302502
1755,8691;0,0297417
1756,8334;0,0292198
1757,7976;0,0286813
1758,7618;0,0281156
1759,7261;0,0274883
1760,6903;0,0267727
1761,6545;0,0260031
1762,6188;0,0252844
1763,5830;0,0247297
1764,5472;0,0243834
1765,5115;0,0242068
1766,4757;0,024121
1767,4399;0,0240509
1768,4042;0,0239442
1769,3684;0,0237658
1770,3326;0,0234874
1771,2969;0,0230998
1772,2611;0,0226564
1773,2253;0,0222834
1774,1896;0,0220927
1775,1538;0,022092
1776,1180;0,0222017
1777,0823;0,022328
1778,0465;0,0224108
1779,0107;0,0224298
1779,9750;0,0223899
1780,9392;0,0223047
1781,9034;0,0221844
1782,8677;0,0220359
1783,8319;0,0218758
1784,7961;0,0217413
1785,7604;0,0216789
1786,7246;0,021715
1787,6888;0,0218388
1788,6531;0,0220112
1789,6173;0,0221821
1790,5815;0,0222941
1791,5458;0,0222939
1792,5100;0,022185
1793,4742;0,022059
1794,4385;0,0220109
1795,4027;0,0220492
1796,3669;0,0221187
1797,3312;0,0221665
1798,2954;0,0221696
1799,2596;0,0221235
1800,2239;0,0220245
1801,1881;0,0218742
1802,1523;0,0216935
1803,1166;0,0215228
1804,0808;0,0214052
1805,0450;0,0213707
1806,0093;0,021426
1806,9735;0,021549
1807,9377;0,02169
1808,9020;0,0217842
1809,8662;0,021781
1810,8304;0,0216764
1811,7947;0,0215188
1812,7589;0,0213746
1813,7231;0,0212853
1814,6874;0,021254
1815,6516;0,0212582
1816,6158;0,0212704
1817,5801;0,0212753
1818,5443;0,0212789
1819,5085;0,021301
1820,4728;0,0213572
1821,4370;0,0214448
1822,4012;0,021543
1823,3655;0,0216241
1824,3297;0,0216713
1825,2939;0,0216912
1826,2582;0,0217045
1827,2224;0,0217189
1828,1866;0,0217122
1829,1509;0,0216476
1830,1151;0,0215178
1831,0793;0,0213738
1832,0436;0,0212882
1833,0078;0,0212923
1833,9720;0,0213608
1834,9363;0,0214414
1835,9005;0,0214901
1836,8647;0,021495
1837,8290;0,021481
1838,7932;0,0214891
1839,7574;0,021547
1840,7217;0,0216586
1841,6859;0,0218098
1842,6501;0,0219661
1843,6144;0,0220724
1844,5786;0,022086
1845,5428;0,0220188
1846,5071;0,0219137
1847,4713;0,0217904
1848,4355;0,0216407
1849,3998;0,0214606
1850,3640;0,0212704
1851,3282;0,0211078
1852,2925;0,0210062
1853,2567;0,0209777
1854,2209;0,0210135
1855,1852;0,0210939
1856,1494;0,021198
1857,1136;0,0213059
1858,0779;0,0213966
1859,0421;0,0214494
1860,0063;0,0214548
1860,9706;0,0214259
1861,9348;0,021399
1862,8990;0,0214201
1863,8633;0,0215249
1864,8275;0,0217246
1865,7917;0,0219942
1866,7560;0,0222577
1867,7202;0,0223958
1868,6844;0,0223166
1869,6487;0,0220457
1870,6129;0,0217109
1871,5771;0,0214331
1872,5414;0,0212607
1873,5056;0,0211836
1874,4698;0,0211672
1875,4341;0,0211743
1876,3983;0,0211779
1877,3625;0,0211699
1878,3268;0,0211606
1879,2910;0,0211667
1880,2552;0,0211964
1881,2195;0,0212432
1882,1837;0,0212923
1883,1479;0,0213337
1884,1122;0,0213709
1885,0764;0,0214174
1886,0406;0,0214834
1887,0049;0,0215634
1887,9691;0,0216334
1888,9333;0,0216658
1889,8976;0,0216549
1890,8618;0,0216268
1891,8260;0,021619
1892,7903;0,021649
1893,7545;0,0216993
1894,7188;0,0217282
1895,6830;0,0216968
1896,6472;0,021598
1897,6115;0,0214641
1898,5757;0,0213464
1899,5399;0,0212844
1900,5042;0,0212878
1901,4684;0,0213397
1902,4326;0,0214124
1903,3969;0,0214857
1904,3611;0,0215553
1905,3253;0,0216275
1906,2896;0,021707
1907,2538;0,0217872
1908,2180;0,0218496
1909,1823;0,0218715
1910,1465;0,0218378
1911,1107;0,0217487
1912,0750;0,0216162
1913,0392;0,0214599
1914,0034;0,0213064
1914,9677;0,0211922
1915,9319;0,021158
1916,8961;0,0212304
1917,8604;0,0214029
1918,8246;0,0216322
1919,7888;0,0218562
1920,7531;0,022017
1921,7173;0,0220779
1922,6815;0,0220321
1923,6458;0,0219045
1924,6100;0,0217429
1925,5742;0,0215955
1926,5385;0,0214894
1927,5027;0,0214242
1928,4669;0,0213818
1929,4312;0,021343
1930,3954;0,0213003
1931,3596;0,0212616
1932,3239;0,0212404
1933,2881;0,0212426
1934,2523;0,021259
1935,2166;0,0212719
1936,1808;0,0212721
1937,1450;0,0212722
1938,1093;0,021305
1939,0735;0,0214066
1940,0377;0,0215908
1941,0020;0,0218277
1941,9662;0,0220442
1942,9304;0,0221591
1943,8947;0,0221337
1944,8589;0,0219915
1945,8231;0,0217945
1946,7874;0,0216031
1947,7516;0,0214548
1948,7158;0,0213626
1949,6801;0,021324
1950,6443;0,0213311
1951,6085;0,021374
1952,5728;0,0214406
1953,5370;0,0215159
1954,5012;0,0215859
1955,4655;0,0216427
1956,4297;0,0216836
1957,3939;0,0217026
1958,3582;0,0216819
1959,3224;0,0215967
1960,2866;0,021438
1961,2509;0,0212373
1962,2151;0,0210676
1963,1793;0,02101
1964,1436;0,0211045
1965,1078;0,0213163
1966,0720;0,021545
1967,0363;0,0216806
1968,0005;0,0216759
1968,9647;0,0215737
1969,9290;0,0214659
1970,8932;0,0214189
1971,8574;0,0214282
1972,8217;0,021428
1973,7859;0,0213412
1974,7501;0,0211362
1975,7144;0,0208559
1976,6786;0,0205967
1977,6428;0,0204524
1978,6071;0,0204646
1979,5713;0,0206139
1980,5355;0,0208461
1981,4998;0,0211033
1982,4640;0,0213415
1983,4282;0,0215357
1984,3925;0,0216815
1985,3567;0,0217942
1986,3209;0,021902
1987,2852;0,0220303
1988,2494;0,0221827
1989,2136;0,0223318
1990,1779;0,0224276
1991,1421;0,0224275
1992,1063;0,0223284
1993,0706;0,0221774
1994,0348;0,0220453
1994,9990;0,0219825
1995,9633;0,0219881
1996,9275;0,0220124
1997,8917;0,0219848
1998,8560;0,0218578
1999,8202;0,0216417
2000,7844;0,021411
2001,7487;0,0212737
2002,7129;0,0213207
2003,6771;0,0215791
2004,6414;0,0219873
2005,6056;0,0224055
2006,5698;0,0226644
2007,5341;0,022639
2008,4983;0,0223099
2009,4625;0,0217759
2010,4268;0,021209
2011,3910;0,0207828
2012,3552;0,0206084
2013,3195;0,0207062
2014,2837;0,0210133
2015,2479;0,0214177
2016,2122;0,0218027
2017,1764;0,0220839
2018,1406;0,022226
2019,1049;0,0222354
2020,0691;0,0221428
2021,0333;0,0219889
2021,9976;0,021818
2022,9618;0,0216736
2023,9260;0,0215889
2024,8903;0,0215762
2025,8545;0,0216223
2026,8187;0,0216961
2027,7830;0,0217635
2028,7472;0,021801
2029,7114;0,0218008
2030,6757;0,021771
2031,6399;0,0217309
2032,6041;0,0217063
2033,5684;0,0217212
2034,5326;0,0217858
2035,4968;0,0218857
2036,4611;0,0219817
2037,4253;0,0220246
2038,3895;0,0219807
2039,3538;0,0218531
2040,3180;0,0216877
2041,2822;0,0215562
2042,2465;0,0215227
2043,2107;0,0216124
2044,1749;0,0217996
2045,1392;0,0220218
2046,1034;0,0222072
2047,0676;0,0223049
2048,0320;0,0223033
2048,9961;0,0222301
2049,9604;0,0221358
2050,9246;0,0220729
2051,8889;0,0220817
2052,8530;0,0221828
2053,8174;0,022371
2054,7815;0,0226109
2055,7458;0,0228428
2056,7100;0,0230003
2057,6743;0,0230378
2058,6384;0,022953
2059,6028;0,0227914
2060,5669;0,022629
2061,5313;0,0225384
2062,4954;0,0225552
2063,4597;0,0226608
2064,4238;0,0227935
2065,3882;0,0228832
2066,3523;0,0228912
2067,3167;0,0228289
2068,2808;0,0227462
2069,2451;0,0226985
2070,2092;0,0227154
2071,1736;0,0227885
2072,1377;0,0228813
2073,1021;0,0229553
2074,0662;0,0229899
2075,0305;0,0229882
2075,9946;0,022966
2076,9590;0,0229369
2077,9231;0,0229053
2078,8875;0,0228689
2079,8516;0,0228287
2080,8159;0,0227947
2081,7800;0,0227835
2082,7444;0,0228108
2083,7085;0,022881
2084,6729;0,0229836
2085,6370;0,0230961
2086,6013;0,0231945
2087,5654;0,0232632
2088,5298;0,023302
2089,4939;0,0233228
2090,4583;0,0233392
2091,4224;0,0233551
2092,3867;0,0233603
2093,3508;0,0233369
2094,3152;0,0232734
2095,2793;0,0231755
2096,2437;0,0230663
2097,2078;0,0229742
2098,1721;0,0229194
2099,1362;0,022908
2100,1006;0,022936
2101,0647;0,0229936
2102,0291;0,0230713
2102,9932;0,0231528
2103,9575;0,0232149
2104,9216;0,023234
2105,8860;0,0232002
2106,8501;0,023127
2107,8145;0,0230484
2108,7786;0,0230014
2109,7429;0,0230054
2110,7070;0,0230525
2111,6714;0,0231159
2112,6355;0,0231682
2113,5999;0,0231985
2114,5640;0,0232164
2115,5283;0,0232429
2116,4924;0,0232964
2117,4568;0,0233817
2118,4209;0,0234875
2119,3853;0,0235917
2120,3494;0,02367
2121,3137;0,0237045
2122,2778;0,0236904
2123,2422;0,0236377
2124,2063;0,0235667
2125,1707;0,0234997
2126,1348;0,0234503
2127,0991;0,0234192
2128,0632;0,0233977
2129,0276;0,0233793
2129,9917;0,0233698
2130,9561;0,0233874
2131,9202;0,0234511
2132,8845;0,0235627
2133,8486;0,0236959
2134,8130;0,0238062
2135,7771;0,0238561
2136,7415;0,0238396
2137,7056;0,0237849
2138,6699;0,02373
2139,6340;0,0236925
2140,5984;0,023657
2141,5625;0,0235915
2142,5269;0,0234822
2143,4910;0,0233597
2144,4553;0,0232961
2145,4194;0,0233701
2146,3838;0,0236208
2147,3479;0,0240165
2148,3123;0,0244576
2149,2764;0,0248116
2150,2407;0,0249651
2151,2048;0,0248744
2152,1692;0,0245951
2153,1333;0,0242777
2154,0977;0,024121
2155,0618;0,0242889
2156,0261;0,0248127
2156,9902;0,025526
2157,9546;0,0261047
2158,9187;0,0262483
2159,8831;0,0258883
2160,8472;0,0252261
2161,8115;0,0245654
2162,7756;0,024116
2163,7400;0,0239156
2164,7041;0,0238775
2165,6685;0,0238919
2166,6326;0,0239059
2167,5969;0,0239368
2168,5610;0,0240244
2169,5254;0,0241713
2170,4895;0,0243204
2171,4539;0,0243841
2172,4180;0,0243014
2173,3823;0,0240833
2174,3464;0,0238124
2175,3108;0,0235965
2176,2749;0,023506
2177,2393;0,0235396
2178,2034;0,0236372
2179,1677;0,0237255
2180,1318;0,0237618
2181,0962;0,02375
2182,0603;0,0237236
2183,0247;0,0237125
2183,9888;0,0237192
2184,9531;0,0237205
2185,9172;0,0236893
2186,8816;0,0236159
2187,8457;0,0235162
2188,8101;0,0234237
2189,7742;0,0233743
2190,7385;0,0233919
2191,7026;0,0234795
2192,6670;0,0236155
2193,6311;0,0237564
2194,5955;0,0238478
2195,5596;0,0238454
2196,5239;0,0237373
2197,4880;0,0235542
2198,4524;0,0233588
2199,4165;0,0232178
2200,3809;0,0231717
2201,3450;0,0232233
2202,3093;0,0233487
2203,2734;0,0235191
2204,2378;0,0237155
2205,2019;0,0239235
2206,1663;0,0241188
2207,1304;0,0242581
2208,0947;0,0242905
2209,0588;0,0241845
2210,0232;0,0239514
2210,9873;0,0236481
2211,9517;0,0233549
2212,9158;0,0231434
2213,8801;0,0230525
2214,8442;0,0230832
2215,8086;0,0232101
2216,7727;0,0233953
2217,7371;0,0235972
2218,7012;0,0237743
2219,6655;0,0238908
2220,6296;0,0239256
2221,5940;0,0238822
2222,5581;0,0237886
2223,5225;0,023686
2224,4866;0,0236096
2225,4509;0,0235753
2226,4150;0,0235801
2227,3794;0,0236116
2228,3435;0,0236603
2229,3079;0,0237203
2230,2720;0,0237821
2231,2363;0,0238268
2232,2004;0,0238301
2233,1648;0,0237783
2234,1289;0,0236828
2235,0933;0,0235828
2236,0574;0,0235284
2237,0217;0,0235542
2237,9858;0,0236595
2238,9502;0,0238076
2239,9143;0,0239435
2240,8787;0,0240201
2241,8428;0,0240172
2242,8071;0,0239457
2243,7712;0,0238373
2244,7356;0,0237283
2245,6997;0,0236454
2246,6641;0,0235988
2247,6282;0,0235831
2248,5925;0,0235841
2249,5566;0,0235883
2250,5210;0,0235906
2251,4851;0,0235968
2252,4495;0,0236184
2253,4136;0,023663
2254,3779;0,0237255
2255,3420;0,023787
2256,3064;0,0238233
2257,2705;0,0238201
2258,2349;0,0237835
2259,1990;0,0237401
2260,1633;0,0237242
2261,1274;0,0237604
2262,0918;0,0238508
2263,0559;0,0239738
2264,0203;0,0240942
2264,9844;0,0241782
2265,9487;0,0242046
2266,9128;0,0241688
2267,8772;0,0240793
2268,8413;0,0239534
2269,8057;0,023814
2270,7698;0,0236866
2271,7341;0,0235948
2272,6982;0,0235531
2273,6626;0,023561
2274,6267;0,0236034
2275,5911;0,0236581
2276,5552;0,023707
2277,5195;0,023744
2278,4836;0,0237752
2279,4480;0,023812
2280,4121;0,0238637
2281,3765;0,0239336
2282,3406;0,0240211
2283,3049;0,0241252
2284,2690;0,0242465
2285,2334;0,0243856
2286,1975;0,0245406
2287,1619;0,0247066
2288,1260;0,0248769
2289,0903;0,0250462
2290,0544;0,0252116
2291,0188;0,0253723
2291,9829;0,0255292
2292,9473;0,0256854
2293,9114;0,0258472
2294,8757;0,0260238
2295,8398;0,0262227
2296,8042;0,026444
2297,7683;0,0266759
2298,7327;0,0268969
2299,6968;0,0270861
2300,6611;0,0272349
2301,6252;0,027354
2302,5896;0,0274704
2303,5537;0,0276152
2304,5181;0,02781
2305,4822;0,0280568
2306,4465;0,0283355
2307,4106;0,0286082
2308,3750;0,0288297
2309,3391;0,0289584
2310,3035;0,0289698
2311,2676;0,0288656
2312,2319;0,0286777
2313,1960;0,0284593
2314,1604;0,028266
2315,1245;0,0281354
2316,0889;0,0280761
2317,0530;0,0280699
2318,0173;0,0280838
2318,9814;0,0280858
2319,9458;0,0280585
2320,9099;0,0280063
2321,8743;0,027952
2322,8384;0,0279216
2323,8027;0,0279259
2324,7668;0,0279529
2325,7312;0,0279756
2326,6953;0,0279671
2327,6597;0,0279116
2328,6238;0,0278051
2329,5881;0,0276517
2330,5522;0,0274594
2331,5166;0,0272372
2332,4807;0,0269908
2333,4451;0,0267186
2334,4092;0,0264201
2335,3735;0,0261113
2336,3376;0,0258394
2337,3020;0,0256787
2338,2661;0,0257002
2339,2305;0,0259274
2340,1946;0,0263013
2341,1589;0,026682
2342,1230;0,0269018
2343,0874;0,0268813
2344,0515;0,0267474
2345,0159;0,0267738
2345,9800;0,027131
2346,9443;0,027743
2347,9084;0,0283834
2348,8728;0,0288382
2349,8369;0,0289992
2350,8013;0,0288821
2351,7654;0,028597
2352,7297;0,0282895
2353,6938;0,0280763
2354,6582;0,0280111
2355,6223;0,0280867
2356,5867;0,0282429
2357,5508;0,0283794
2358,5151;0,0283975
2359,4792;0,0282618
2360,4436;0,0280256
2361,4077;0,0277847
2362,3721;0,0276059
2363,3362;0,0274965
2364,3005;0,0274242
2365,2646;0,0273484
2366,2290;0,0272378
2367,1931;0,0270753
2368,1575;0,0268624
2369,1216;0,0266251
2370,0859;0,026407
2371,0500;0,0262501
2372,0144;0,0261752
2372,9785;0,0261752
2373,9429;0,0262258
2374,9070;0,0263008
2375,8713;0,0263828
2376,8354;0,0264623
2377,7998;0,0265322
2378,7639;0,0265814
2379,7283;0,0265944
2380,6924;0,0265543
2381,6567;0,0264483
2382,6208;0,0262718
2383,5852;0,0260304
2384,5493;0,0257399
2385,5137;0,0254244
2386,4778;0,0251133
2387,4421;0,0248361
2388,4063;0,0246172
2389,3706;0,0244701
2390,3347;0,0243954
2391,2991;0,0243811
2392,2632;0,0244065
2393,2275;0,0244477
2394,1917;0,0244828
2395,1560;0,0244965
2396,1201;0,024484
2397,0845;0,0244526
2398,0486;0,0244211
2399,0129;0,0244116
2399,9771;0,0244398
2400,9414;0,0245067
2401,9055;0,024596
2402,8699;0,0246814
2403,8340;0,0247391
2404,7983;0,02476
2405,7625;0,0247525
2406,7268;0,024736
2407,6909;0,0247285
2408,6553;0,0247374
2409,6194;0,0247572
2410,5837;0,024776
2411,5479;0,0247853
2412,5122;0,0247846
2413,4763;0,0247809
2414,4407;0,0247821
2415,4048;0,0247923
2416,3691;0,0248092
2417,3333;0,0248278
2418,2976;0,0248443
2419,2617;0,0248583
2420,2261;0,0248717
2421,1902;0,0248854
2422,1545;0,0248988
2423,1187;0,0249103
2424,0830;0,0249199
2425,0471;0,0249301
2426,0115;0,0249437
2426,9756;0,0249619
2427,9399;0,0249837
2428,9041;0,0250084
2429,8684;0,0250381
2430,8325;0,0250776
2431,7969;0,02513
2432,7610;0,025191
2433,7253;0,0252475
2434,6895;0,025282
2435,6538;0,0252817
2436,6179;0,0252468
2437,5823;0,0251911
2438,5464;0,0251356
2439,5107;0,0250986
2440,4749;0,025089
2441,4392;0,0251058
2442,4033;0,0251421
2443,3677;0,02519
2444,3318;0,0252432
2445,2961;0,0252967
2446,2603;0,0253462
2447,2246;0,025388
2448,1887;0,0254194
2449,1531;0,025439
2450,1172;0,025446
2451,0815;0,0254398
2452,0457;0,0254218
2453,0100;0,0253974
2453,9741;0,0253774
2454,9385;0,0253748
2455,9026;0,0253991
2456,8669;0,0254507
2457,8311;0,025519
2458,7954;0,0255875
2459,7595;0,0256403
2460,7239;0,0256692
2461,6880;0,0256754
2462,6523;0,0256664
2463,6165;0,0256513
2464,5808;0,0256375
2465,5449;0,0256292
2466,5093;0,0256284
2467,4734;0,0256357
2468,4377;0,0256507
2469,4019;0,0256721
2470,3662;0,0256968
2471,3303;0,0257207
2472,2947;0,0257388
2473,2588;0,0257479
2474,2231;0,025749
2475,1873;0,0257476
2476,1516;0,0257519
2477,1157;0,0257677
2478,0801;0,0257936
2479,0442;0,0258204
2480,0085;0,0258369
2480,9727;0,0258377
2481,9370;0,0258291
2482,9011;0,0258255
2483,8655;0,0258406
2484,8296;0,0258768
2485,7939;0,0259232
2486,7581;0,0259627
2487,7224;0,0259844
2488,6865;0,0259908
2489,6509;0,0259953
2490,6150;0,0260121
2491,5793;0,0260456
2492,5435;0,026088
2493,5078;0,0261248
2494,4719;0,026145
2495,4363;0,0261465
2496,4004;0,0261364
2497,3647;0,026125
2498,3289;0,0261205
2499,2932;0,026126
2500,2573;0,02614
2501,2217;0,0261586
2502,1858;0,026178
2503,1501;0,0261956
2504,1143;0,0262105
2505,0786;0,0262225
2506,0427;0,0262309
2507,0071;0,0262333
2507,9712;0,0262265
2508,9355;0,0262089
2509,8997;0,0261838
2510,8640;0,02616
2511,8281;0,0261478
2512,7925;0,0261532
2513,7566;0,0261738
2514,7209;0,0261997
2515,6851;0,0262202
2516,6494;0,0262303
2517,6135;0,0262336
2518,5779;0,0262387
2519,5420;0,0262522
2520,5063;0,0262741
2521,4705;0,0262979
2522,4348;0,0263161
2523,3989;0,0263258
2524,3633;0,0263306
2525,3274;0,0263381
2526,2917;0,0263543
2527,2559;0,0263781
2528,2202;0,0264017
2529,1843;0,0264132
2530,1487;0,0264035
2531,1128;0,0263715
2532,0771;0,0263266
2533,0413;0,0262861
2534,0056;0,0262684
2534,9697;0,0262848
2535,9341;0,0263344
2536,8982;0,0264037
2537,8625;0,0264729
2538,8267;0,026524
2539,7910;0,0265476
2540,7551;0,0265451
2541,7195;0,0265252
2542,6836;0,026498
2543,6479;0,0264705
2544,6121;0,0264456
2545,5764;0,0264244
2546,5405;0,0264093
2547,5049;0,0264055
2548,4690;0,0264193
2549,4333;0,0264536
2550,3975;0,0265043
2551,3618;0,02656
2552,3259;0,0266052
2553,2903;0,0266264
2554,2544;0,0266178
2555,2188;0,0265831
2556,1829;0,026533
2557,1472;0,0264815
2558,1113;0,026441
2559,0757;0,0264197
2560,0398;0,0264204
2561,0042;0,02644
2561,9683;0,0264708
2562,9326;0,0265029
2563,8967;0,0265276
2564,8611;0,0265419
2565,8252;0,0265494
2566,7896;0,0265568
2567,7537;0,0265685
2568,7180;0,0265821
2569,6821;0,0265901
2570,6465;0,0265853
2571,6106;0,0265675
2572,5750;0,0265461
2573,5391;0,0265355
2574,5034;0,0265467
2575,4675;0,0265804
2576,4319;0,0266262
2577,3960;0,0266684
2578,3604;0,0266935
2579,3245;0,0266973
2580,2888;0,0266857
2581,2529;0,0266716
2582,2173;0,0266685
2583,1814;0,0266846
2584,1458;0,0267193
2585,1099;0,0267633
2586,0742;0,0268034
2587,0383;0,0268286
2588,0027;0,0268347
2588,9668;0,0268264
2589,9312;0,026813
2590,8953;0,0268026
2591,8596;0,0267983
2592,8237;0,0267973
2593,7881;0,0267948
2594,7522;0,0267879
2595,7166;0,0267779
2596,6807;0,0267693
2597,6450;0,0267668
2598,6091;0,0267734
2599,5735;0,0267898
2600,5376;0,0268151
2601,5020;0,0268484
2602,4661;0,0268876
2603,4304;0,0269299
2604,3945;0,0269701
2605,3589;0,0270028
2606,3230;0,0270238
2607,2874;0,0270325
2608,2515;0,0270329
2609,2158;0,0270322
2610,1799;0,0270375
2611,1443;0,0270522
2612,1084;0,0270752
2613,0728;0,0271018
2614,0369;0,0271281
2615,0012;0,0271532
2615,9653;0,0271798
2616,9297;0,0272107
2617,8938;0,0272457
2618,8582;0,0272804
2619,8223;0,0273084
2620,7866;0,0273258
2621,7507;0,0273336
2622,7151;0,0273369
2623,6792;0,0273417
2624,6436;0,0273512
2625,6077;0,0273651
2626,5720;0,0273817
2627,5361;0,0273995
2628,5005;0,0274194
2629,4646;0,027443
2630,4290;0,027471
2631,3931;0,0275022
2632,3574;0,0275339
2633,3215;0,0275637
2634,2859;0,0275898
2635,2500;0,0276114
2636,2144;0,027628
2637,1785;0,0276397
2638,1428;0,0276472
2639,1069;0,0276531
2640,0713;0,0276615
2641,0354;0,0276768
2641,9998;0,0277024
2642,9639;0,027739
2643,9282;0,0277845
2644,8923;0,0278345
2645,8567;0,0278836
2646,8208;0,027927
2647,7852;0,0279614
2648,7493;0,0279855
2649,7136;0,0280002
2650,6777;0,0280083
2651,6421;0,0280132
2652,6062;0,0280185
2653,5706;0,0280269
2654,5347;0,0280399
2655,4990;0,0280583
2656,4631;0,0280821
2657,4275;0,0281119
2658,3916;0,0281485
2659,3560;0,0281925
2660,3201;0,0282429
2661,2844;0,0282967
2662,2485;0,0283486
2663,2129;0,0283932
2664,1770;0,0284271
2665,1414;0,0284501
2666,1055;0,0284652
2667,0698;0,0284771
2668,0339;0,0284897
2668,9983;0,0285052
2669,9624;0,0285236
2670,9268;0,0285447
2671,8909;0,0285682
2672,8552;0,0285944
2673,8193;0,0286228
2674,7837;0,0286515
2675,7478;0,0286777
2676,7122;0,0287001
2677,6763;0,0287202
2678,6406;0,0287428
2679,6047;0,0287735
2680,5691;0,0288148
2681,5332;0,0288645
2682,4976;0,0289155
2683,4617;0,0289606
2684,4260;0,0289956
2685,3901;0,0290217
2686,3545;0,0290434
2687,3186;0,029065
2688,2830;0,0290874
2689,2471;0,0291088
2690,2114;0,0291266
2691,1755;0,0291406
2692,1399;0,0291539
2693,1040;0,0291713
2694,0684;0,0291967
2695,0325;0,0292313
2695,9968;0,029274
2696,9609;0,0293219
2697,9253;0,0293717
2698,8894;0,0294195
2699,8538;0,0294611
2700,8179;0,0294929
2701,7822;0,0295131
2702,7463;0,0295238
2703,7107;0,0295309
2704,6748;0,029542
2705,6392;0,0295636
2706,6033;0,0295985
2707,5676;0,0296448
2708,5317;0,029697
2709,4961;0,0297483
2710,4602;0,0297931
2711,4246;0,0298288
2712,3887;0,0298555
2713,3530;0,0298756
2714,3171;0,0298927
2715,2815;0,0299098
2716,2456;0,0299295
2717,2100;0,0299534
2718,1741;0,0299822
2719,1384;0,0300152
2720,1025;0,0300502
2721,0669;0,0300834
2722,0310;0,0301111
2722,9954;0,0301316
2723,9595;0,0301469
2724,9238;0,0301623
2725,8879;0,0301839
2726,8523;0,0302161
2727,8164;0,0302591
2728,7808;0,0303097
2729,7449;0,0303625
2730,7092;0,0304126
2731,6733;0,0304555
2732,6377;0,0304878
2733,6018;0,0305067
2734,5662;0,0305116
2735,5303;0,0305049
2736,4946;0,0304927
2737,4587;0,0304835
2738,4231;0,0304848
2739,3872;0,030501
2740,3516;0,0305314
2741,3157;0,0305719
2742,2800;0,0306166
2743,2441;0,0306595
2744,2085;0,0306956
2745,1726;0,0307218
2746,1370;0,0307379
2747,1011;0,0307472
2748,0654;0,0307561
2749,0295;0,0307717
2749,9939;0,0307983
2750,9580;0,0308355
2751,9224;0,0308783
2752,8865;0,0309199
2753,8508;0,0309558
2754,8149;0,0309854
2755,7793;0,0310114
2756,7434;0,0310375
2757,7078;0,031066
2758,6719;0,0310967
2759,6362;0,0311285
2760,6003;0,0311613
2761,5647;0,0311961
2762,5288;0,0312349
2763,4932;0,031278
2764,4573;0,0313234
2765,4216;0,0313673
2766,3857;0,0314059
2767,3501;0,0314384
2768,3142;0,0314674
2769,2786;0,0314977
2770,2427;0,0315336
2771,2070;0,0315762
2772,1711;0,0316235
2773,1355;0,031672
2774,0996;0,031719
2775,0640;0,0317648
2776,0281;0,0318114
2776,9924;0,0318609
2777,9565;0,0319135
2778,9209;0,0319674
2779,8850;0,0320204
2780,8494;0,0320721
2781,8135;0,032124
2782,7778;0,0321788
2783,7419;0,032238
2784,7063;0,0323004
2785,6704;0,0323623
2786,6348;0,0324191
2787,5989;0,0324682
2788,5632;0,0325106
2789,5273;0,0325507
2790,4917;0,0325952
2791,4558;0,0326503
2792,4202;0,0327188
2793,3843;0,032799
2794,3486;0,0328847
2795,3127;0,0329679
2796,2771;0,0330427
2797,2412;0,0331082
2798,2056;0,0331688
2799,1697;0,0332328
2800,1340;0,0333077
2801,0981;0,0333969
2802,0625;0,0334986
2803,0266;0,0336072
2803,9910;0,0337167
2804,9551;0,0338236
2805,9194;0,0339274
2806,8835;0,0340298
2807,8479;0,0341333
2808,8120;0,0342388
2809,7764;0,0343461
2810,7405;0,0344539
2811,7048;0,0345617
2812,6689;0,0346699
2813,6333;0,0347808
2814,5974;0,0348975
2815,5618;0,0350226
2816,5259;0,0351574
2817,4902;0,0353005
2818,4543;0,035449
2819,4187;0,0355993
2820,3828;0,0357491
2821,3472;0,0358984
2822,3113;0,0360497
2823,2756;0,0362074
2824,2397;0,0363763
2825,2041;0,0365609
2826,1682;0,0367635
2827,1326;0,0369837
2828,0967;0,0372183
2829,0610;0,0374622
2830,0251;0,0377103
2830,9895;0,0379607
2831,9536;0,0382159
2832,9180;0,0384828
2833,8821;0,0387698
2834,8464;0,0390841
2835,8105;0,0394291
2836,7749;0,0398041
2837,7390;0,0402076
2838,7034;0,0406404
2839,6675;0,0411104
2840,6318;0,0416341
2841,5959;0,0422348
2842,5603;0,0429352
2843,5244;0,0437454
2844,4888;0,0446506
2845,4529;0,0456029
2846,4172;0,0465255
2847,3813;0,0473277
2848,3457;0,0479302
2849,3098;0,048287
2850,2742;0,0483976
2851,2383;0,0483014
2852,2026;0,0480611
2853,1667;0,0477409
2854,1311;0,0473914
2855,0952;0,0470434
2856,0596;0,0467114
2857,0237;0,0464005
2857,9880;0,0461141
2858,9521;0,0458578
2859,9165;0,0456404
2860,8806;0,0454726
2861,8450;0,0453628
2862,8091;0,0453138
2863,7734;0,0453209
2864,7375;0,0453726
2865,7019;0,0454538
2866,6660;0,0455499
2867,6304;0,0456502
2868,5945;0,0457477
2869,5588;0,0458383
2870,5229;0,0459186
2871,4873;0,0459854
2872,4514;0,0460366
2873,4158;0,046073
2874,3799;0,046099
2875,3442;0,0461221
2876,3083;0,0461497
2877,2727;0,0461876
2878,2368;0,0462378
2879,2012;0,0462995
2880,1653;0,0463708
2881,1296;0,0464502
2882,0938;0,0465381
2883,0581;0,0466365
2884,0222;0,0467479
2884,9866;0,0468743
2885,9507;0,0470153
2886,9150;0,0471682
2887,8792;0,0473282
2888,8435;0,0474895
2889,8076;0,0476476
2890,7720;0,0478004
2891,7361;0,0479484
2892,7004;0,0480945
2893,6646;0,048242
2894,6289;0,0483931
2895,5930;0,048549
2896,5574;0,0487102
2897,5215;0,0488773
2898,4858;0,0490511
2899,4500;0,0492323
2900,4143;0,0494196
2901,3784;0,0496108
2902,3428;0,049804
2903,3069;0,0500004
2904,2712;0,0502065
2905,2354;0,0504352
2906,1997;0,0507036
2907,1638;0,0510311
2908,1282;0,0514367
2909,0923;0,0519355
2910,0566;0,0525341
2911,0208;0,0532247
2911,9851;0,0539796
2912,9492;0,0547498
2913,9136;0,0554717
2914,8777;0,0560802
2915,8420;0,056525
2916,8062;0,0567814
2917,7705;0,0568526
2918,7346;0,0567621
2919,6990;0,0565425
2920,6631;0,0562247
2921,6274;0,055834
2922,5916;0,0553889
2923,5559;0,0549034
2924,5200;0,054388
2925,4844;0,0538507
2926,4485;0,0532983
2927,4128;0,0527388
2928,3770;0,0521824
2929,3413;0,0516399
2930,3054;0,0511187
2931,2698;0,0506188
2932,2339;0,0501335
2933,1982;0,0496528
2934,1624;0,0491703
2935,1267;0,048686
2936,0908;0,0482065
2937,0552;0,04774
2938,0193;0,047293
2938,9836;0,0468679
2939,9478;0,0464638
2940,9121;0,0460782
2941,8762;0,0457077
2942,8406;0,0453488
2943,8047;0,0449993
2944,7690;0,0446602
2945,7332;0,0443376
2946,6975;0,0440417
2947,6616;0,0437831
2948,6260;0,0435672
2949,5901;0,0433913
2950,5544;0,0432449
2951,5186;0,0431129
2952,4829;0,0429803
2953,4470;0,0428354
2954,4114;0,0426704
2955,3755;0,0424822
2956,3398;0,0422715
2957,3040;0,042043
2958,2683;0,0418042
2959,2324;0,0415627
2960,1968;0,0413237
2961,1609;0,0410874
2962,1252;0,04085
2963,0894;0,0406061
2964,0537;0,0403518
2965,0178;0,0400875
2965,9822;0,0398172
2966,9463;0,0395477
2967,9106;0,0392857
2968,8748;0,0390367
2969,8391;0,0388031
2970,8032;0,0385841
2971,7676;0,0383765
2972,7317;0,0381759
2973,6960;0,0379788
2974,6602;0,0377839
2975,6245;0,0375927
2976,5886;0,0374074
2977,5530;0,0372293
2978,5171;0,0370579
2979,4814;0,0368928
2980,4456;0,0367353
2981,4099;0,0365892
2982,3740;0,0364599
2983,3384;0,0363504
2984,3025;0,0362597
2985,2668;0,0361824
2986,2310;0,0361121
2987,1953;0,0360441
2988,1594;0,0359772
2989,1238;0,0359124
2990,0879;0,0358512
2991,0522;0,0357942
2992,0164;0,035742
2992,9807;0,0356963
2993,9448;0,0356606
2994,9092;0,0356388
2995,8733;0,0356335
2996,8376;0,0356443
2997,8018;0,0356688
2998,7661;0,035703
2999,7302;0,0357424
3000,6946;0,0357824
3001,6587;0,0358183
3002,6230;0,0358473
3003,5872;0,0358696
3004,5515;0,0358901
3005,5156;0,035916
3006,4800;0,0359524
3007,4441;0,0359989
3008,4084;0,0360479
3009,3726;0,0360887
3010,3369;0,0361123
3011,3010;0,0361165
3012,2654;0,0361067
3013,2295;0,0360924
3014,1938;0,0360832
3015,1580;0,0360853
3016,1223;0,0361017
3017,0864;0,036133
3018,0508;0,0361791
3019,0149;0,0362381
3019,9792;0,0363059
3020,9434;0,0363759
3021,9077;0,0364415
3022,8718;0,0364988
3023,8362;0,0365502
3024,8003;0,0366033
3025,7646;0,0366679
3026,7288;0,036751
3027,6931;0,036852
3028,6572;0,0369626
3029,6216;0,0370692
3030,5857;0,0371594
3031,5500;0,0372268
3032,5142;0,0372744
3033,4785;0,0373116
3034,4426;0,0373501
3035,4070;0,0373986
3036,3711;0,0374598
3037,3354;0,0375312
3038,2996;0,0376075
3039,2639;0,037684
3040,2280;0,0377589
3041,1924;0,0378341
3042,1565;0,0379147
3043,1208;0,0380065
3044,0850;0,0381125
3045,0493;0,0382303
3046,0134;0,0383515
3046,9778;0,0384649
3047,9419;0,0385622
3048,9063;0,0386426
3049,8704;0,0387154
3050,8347;0,0387953
3051,7988;0,038895
3052,7632;0,0390182
3053,7273;0,0391576
3054,6917;0,039298
3055,6558;0,0394249
3056,6201;0,0395318
3057,5842;0,0396229
3058,5486;0,03971
3059,5127;0,0398051
3060,4771;0,0399142
3061,4412;0,0400346
3062,4055;0,0401571
3063,3696;0,0402711
3064,3340;0,0403692
3065,2981;0,0404501
3066,2625;0,0405183
3067,2266;0,0405813
3068,1909;0,0406472
3069,1550;0,0407217
3070,1194;0,0408075
3071,0835;0,040904
3072,0479;0,0410084
3073,0120;0,0411167
3073,9763;0,0412252
3074,9404;0,0413314
3075,9048;0,0414339
3076,8689;0,0415324
3077,8333;0,0416266
3078,7974;0,041716
3079,7617;0,041801
3080,7258;0,0418831
3081,6902;0,0419659
3082,6543;0,0420538
3083,6187;0,0421496
3084,5828;0,0422532
3085,5471;0,0423608
3086,5112;0,0424672
3087,4756;0,0425698
3088,4397;0,0426705
3089,4041;0,0427752
3090,3682;0,0428893
3091,3325;0,0430134
3092,2966;0,0431415
3093,2610;0,0432643
3094,2251;0,0433753
3095,1895;0,0434752
3096,1536;0,0435714
3097,1179;0,0436721
3098,0820;0,0437805
3099,0464;0,0438923
3100,0105;0,0439996
3100,9749;0,0440977
3101,9390;0,0441893
3102,9033;0,0442826
3103,8674;0,0443855
3104,8318;0,0444997
3105,7959;0,0446206
3106,7603;0,0447416
3107,7244;0,0448595
3108,6887;0,0449766
3109,6528;0,0450986
3110,6172;0,045229
3111,5813;0,0453664
3112,5457;0,0455051
3113,5098;0,04564
3114,4741;0,0457704
3115,4382;0,0459002
3116,4026;0,0460344
3117,3667;0,0461742
3118,3311;0,0463148
3119,2952;0,0464481
3120,2595;0,0465685
3121,2236;0,0466769
3122,1880;0,0467809
3123,1521;0,0468896
3124,1165;0,0470077
3125,0806;0,0471335
3126,0449;0,0472608
3127,0090;0,0473852
3127,9734;0,0475079
3128,9375;0,0476354
3129,9019;0,0477739
3130,8660;0,0479239
3131,8303;0,0480779
3132,7944;0,0482246
3133,7588;0,0483556
3134,7229;0,0484702
3135,6873;0,0485757
3136,6514;0,0486834
3137,6157;0,0488028
3138,5798;0,0489384
3139,5442;0,0490893
3140,5083;0,0492508
3141,4727;0,0494161
3142,4368;0,0495779
3143,4011;0,0497308
3144,3652;0,049873
3145,3296;0,0500076
3146,2937;0,0501416
3147,2581;0,050283
3148,2222;0,0504358
3149,1865;0,0505978
3150,1506;0,0507612
3151,1150;0,0509175
3152,0791;0,0510631
3153,0435;0,0512016
3154,0076;0,0513423
3154,9719;0,0514945
3155,9360;0,0516619
3156,9004;0,0518407
3157,8645;0,0520214
3158,8289;0,0521947
3159,7930;0,0523557
3160,7573;0,0525056
3161,7214;0,0526504
3162,6858;0,052797
3163,6499;0,0529508
3164,6143;0,0531141
3165,5784;0,0532859
3166,5427;0,0534627
3167,5068;0,0536399
3168,4712;0,0538132
3169,4353;0,0538302
3170,3997;0,0539955
3171,3638;0,0541634
3172,3281;0,054337
3173,2922;0,0545156
3174,2566;0,0546935
3175,2207;0,0548632
3176,1851;0,0550196
3177,1492;0,0551634
3178,1135;0,0553015
3179,0776;0,0554437
3180,0420;0,0555975
3181,0061;0,0557649
3181,9705;0,0559424
3182,9346;0,0561241
3183,8989;0,0563047
3184,8630;0,056482
3185,8274;0,0566563
3186,7915;0,0568281
3187,7559;0,0569963
3188,7200;0,0571581
3189,6843;0,0573108
3190,6484;0,0574547
3191,6128;0,0575943
3192,5769;0,0577369
3193,5413;0,0578891
3194,5054;0,058053
3195,4697;0,0582251
3196,4338;0,0583986
3197,3982;0,0585666
3198,3623;0,0587253
3199,3267;0,0588749
3200,2908;0,0590186
3201,2551;0,0591612
3202,2192;0,0593079
3203,1836;0,0594632
3204,1477;0,059629
3205,1121;0,0598033
3206,0762;0,0599799
3207,0405;0,0601515
3208,0046;0,0603131
3208,9690;0,0604643
3209,9331;0,0606087
3210,8975;0,0607504
3211,8616;0,060891
3212,8259;0,0610301
3213,7900;0,061168
3214,7544;0,061308
3215,7185;0,0614561
3216,6829;0,0616161
3217,6470;0,0617859
3218,6113;0,0619568
3219,5754;0,0621185
3220,5398;0,0622657
3221,5039;0,0624019
3222,4683;0,0625373
3223,4324;0,0626817
3224,3967;0,0628389
3225,3608;0,0630043
3226,3252;0,0631689
3227,2893;0,0633244
3228,2537;0,0634681
3229,2178;0,0636038
3230,1821;0,0637393
3231,1462;0,0638816
3232,1106;0,0640344
3233,0747;0,0641968
3234,0391;0,0643638
3235,0032;0,0645291
3235,9675;0,0646876
3236,9316;0,0648381
3237,8960;0,0649844
3238,8601;0,0651343
3239,8245;0,0652959
3240,7886;0,0654733
3241,7529;0,0656637
3242,7170;0,0658585
3243,6814;0,0660457
3244,6455;0,0662164
3245,6099;0,0663686
3246,5740;0,0665084
3247,5383;0,0666458
3248,5024;0,06679
3249,4668;0,0669461
3250,4309;0,0671145
3251,3953;0,067293
3252,3594;0,0674782
3253,3237;0,0676676
3254,2878;0,0678591
3255,2522;0,0680506
3256,2163;0,0682398
3257,1807;0,0684238
3258,1448;0,0686001
3259,1091;0,0687676
3260,0732;0,0689271
3261,0376;0,0690823
3262,0017;0,069239
3262,9661;0,0694034
3263,9302;0,0695804
3264,8945;0,06977
3265,8586;0,0699673
3266,8230;0,0701632
3267,7871;0,070349
3268,7515;0,0705188
3269,7156;0,0706714
3270,6799;0,0708079
3271,6440;0,07093
3272,6084;0,0710376
3273,5725;0,071131
3274,5369;0,0712124
3275,5010;0,0712882
3276,4653;0,0713668
3277,4294;0,0714548
3278,3938;0,0715528
3279,3579;0,0716544
3280,3223;0,0717488
3281,2864;0,0718264
3282,2507;0,0718836
3283,2148;0,0719238
3284,1792;0,0719556
3285,1433;0,0719869
3286,1077;0,072022
3287,0718;0,0720603
3288,0361;0,0720987
3289,0002;0,0721352
3289,9646;0,0721705
3290,9287;0,0722067
3291,8931;0,072246
3292,8572;0,0722876
3293,8215;0,0723286
3294,7856;0,0723652
3295,7500;0,0723941
3296,7141;0,0724129
3297,6785;0,0724199
3298,6426;0,0724139
3299,6069;0,0723964
3300,5710;0,0723734
3301,5354;0,0723555
3302,4995;0,0723533
3303,4639;0,0723723
3304,4280;0,0724082
3305,3923;0,0724485
3306,3564;0,0724793
3307,3208;0,0724937
3308,2849;0,0724958
3309,2493;0,0724977
3310,2134;0,072511
3311,1777;0,0725401
3312,1418;0,0725805
3313,1062;0,0726239
3314,0703;0,0726642
3315,0347;0,0727019
3315,9988;0,0727429
3316,9631;0,0727944
3317,9272;0,0728615
3318,8916;0,0729459
3319,8557;0,0730461
3320,8201;0,0731583
3321,7842;0,0732759
3322,7485;0,0733895
3323,7126;0,0734888
3324,6770;0,0735656
3325,6411;0,0736183
3326,6055;0,0736528
3327,5696;0,073681
3328,5339;0,0737165
3329,4980;0,0737693
3330,4624;0,0738416
3331,4265;0,0739273
3332,3909;0,0740124
3333,3550;0,0740792
3334,3193;0,0741113
3335,2834;0,0741
3336,2478;0,0740478
3337,2119;0,0739672
3338,1763;0,0738742
3339,1404;0,0737796
3340,1047;0,0736855
3341,0688;0,0735872
3342,0332;0,0734795
3342,9973;0,0733632
3343,9617;0,0732452
3344,9258;0,0731342
3345,8901;0,073034
3346,8542;0,0729407
3347,8186;0,072845
3348,7827;0,0727378
3349,7471;0,0726158
3350,7112;0,0724815
3351,6755;0,072341
3352,6396;0,0721998
3353,6040;0,0720604
3354,5681;0,0719234
3355,5325;0,0717879
3356,4966;0,0716527
3357,4609;0,0715155
3358,4250;0,0713729
3359,3894;0,0712219
3360,3535;0,0710628
3361,3179;0,0709002
3362,2820;0,0707421
3363,2463;0,0705957
3364,2104;0,0704627
3365,1748;0,0703374
3366,1389;0,0702085
3367,1033;0,0700649
3368,0674;0,0699003
3369,0317;0,0697156
3369,9958;0,0695176
3370,9602;0,069316
3371,9243;0,0691203
3372,8887;0,0689375
3373,8528;0,0687708
3374,8171;0,0686186
3375,7813;0,068475
3376,7456;0,0683331
3377,7097;0,0681879
3378,6741;0,0680398
3379,6382;0,0678931
3380,6025;0,0677519
3381,5667;0,0676148
3382,5310;0,0674741
3383,4951;0,067321
3384,4595;0,0671541
3385,4236;0,0669841
3386,3879;0,0668304
3387,3521;0,066709
3388,3164;0,0666214
3389,2805;0,0665515
3390,2449;0,0664714
3391,2090;0,0663559
3392,1733;0,066194
3393,1375;0,0659938
3394,1018;0,0657767
3395,0659;0,065566
3396,0303;0,0653774
3396,9944;0,0652154
3397,9587;0,0650736
3398,9229;0,064938
3399,8872;0,0647918
3400,8513;0,0646216
3401,8157;0,0644237
3402,7798;0,0642065
3403,7441;0,0639871
3404,7083;0,0637823
3405,6726;0,0635998
3406,6367;0,0634348
3407,6011;0,0632731
3408,5652;0,0631
3409,5295;0,0629073
3410,4937;0,0626962
3411,4580;0,0624745
3412,4221;0,062254
3413,3865;0,0620468
3414,3506;0,0618629
3415,3149;0,0617076
3416,2791;0,0615786
3417,2434;0,0614621
3418,2075;0,0613349
3419,1719;0,0611705
3420,1360;0,0609518
3421,1003;0,060681
3422,0645;0,0603807
3423,0288;0,0600832
3423,9929;0,059815
3424,9573;0,0595863
3425,9214;0,0593893
3426,8857;0,0592048
3427,8499;0,0590124
3428,8142;0,0587995
3429,7783;0,0585646
3430,7427;0,0583144
3431,7068;0,0580577
3432,6711;0,0578014
3433,6353;0,0575511
3434,5996;0,0573131
3435,5637;0,0570942
3436,5281;0,0568982
3437,4922;0,0567216
3438,4565;0,056554
3439,4207;0,0563851
3440,3850;0,0562113
3441,3491;0,0560375
3442,3135;0,0558694
3443,2776;0,0557012
3444,2419;0,055511
3445,2061;0,0552696
3446,1704;0,0549611
3447,1345;0,0546008
3448,0989;0,0542333
3449,0630;0,0539074
3450,0273;0,0536481
3450,9915;0,0534455
3451,9558;0,0532681
3452,9199;0,0530843
3453,8843;0,05288
3454,8484;0,052663
3455,8127;0,0524519
3456,7769;0,0522591
3457,7412;0,0520801
3458,7053;0,0518954
3459,6697;0,0516829
3460,6338;0,0514327
3461,5981;0,0511542
3462,5623;0,0508714
3463,5266;0,0506082
3464,4907;0,0503749
3465,4551;0,0501637
3466,4192;0,0499563
3467,3835;0,0497371
3468,3477;0,0495031
3469,3120;0,0492627
3470,2761;0,0490258
3471,2405;0,0487946
3472,2046;0,0485635
3473,1689;0,0483289
3474,1331;0,0480996
3475,0974;0,0478973
3476,0615;0,0477422
3477,0259;0,0476349
3477,9900;0,0475478
3478,9543;0,0474353
3479,9185;0,0472565
3480,8828;0,0470006
3481,8469;0,0466955
3482,8113;0,0463907
3483,7754;0,0461247
3484,7397;0,0459029
3485,7039;0,0457006
3486,6682;0,0454849
3487,6323;0,0452393
3488,5967;0,0449763
3489,5608;0,0447277
3490,5251;0,0445212
3491,4893;0,0443588
3492,4536;0,0442146
3493,4177;0,044051
3494,3821;0,0438465
3495,3462;0,0436165
3496,3105;0,0434105
3497,2747;0,0432814
3498,2390;0,0432472
3499,2031;0,0432712
3500,1675;0,0432736
3501,1316;0,0431675
3502,0959;0,0429093
3503,0601;0,0425336
3504,0244;0,0421367
3504,9885;0,0418125
3505,9529;0,0415947
3506,9170;0,0414492
3507,8813;0,0413059
3508,8455;0,0411022
3509,8098;0,0408179
3510,7739;0,040483
3511,7383;0,0401532
3512,7024;0,0398715
3513,6667;0,0396483
3514,6309;0,0394678
3515,5952;0,0393087
3516,5593;0,0391621
3517,5237;0,0390371
3518,4878;0,0389535
3519,4521;0,0389258
3520,4163;0,03895
3521,3806;0,0389987
3522,3447;0,0390278
3523,3091;0,0389915
3524,2732;0,038857
3525,2375;0,0386112
3526,2017;0,0382591
3527,1660;0,0378241
3528,1301;0,0373513
3529,0945;0,0369049
3530,0586;0,0365498
3531,0229;0,0363226
3531,9871;0,0362151
3532,9514;0,0361771
3533,9155;0,0361358
3534,8799;0,0360225
3535,8440;0,0358035
3536,8083;0,0355021
3537,7725;0,0351919
3538,7368;0,0349608
3539,7009;0,0348686
3540,6653;0,0349232
3541,6294;0,0350773
3542,5938;0,0352358
3543,5579;0,0352782
3544,5222;0,0351103
3545,4863;0,0347306
3546,4507;0,0342477
3547,4148;0,0338079
3548,3792;0,0334971
3549,3433;0,0333042
3550,3076;0,0331524
3551,2717;0,0329571
3552,2361;0,0326798
3553,2002;0,0323537
3554,1646;0,0320559
3555,1287;0,0318477
3556,0930;0,031735
3557,0571;0,0316775
3558,0215;0,031628
3558,9856;0,0315702
3559,9500;0,0315348
3560,9141;0,0315773
3561,8784;0,0317334
3562,8425;0,0319787
3563,8069;0,032208
3564,7710;0,0322311
3565,7354;0,0318354
3566,6995;0,0309769
3567,6638;0,02993
3568,6279;0,0290937
3569,5923;0,0286592
3570,5564;0,0285526
3571,5208;0,0285933
3572,4849;0,0286314
3573,4492;0,0285947
3574,4133;0,0284813
3575,3777;0,0283248
3576,3418;0,0281562
3577,3062;0,0279838
3578,2703;0,0278056
3579,2346;0,0276354
3580,1987;0,0275146
3581,1631;0,0274903
3582,1272;0,0275779
3583,0916;0,0277379
3584,0557;0,0278751
3585,0200;0,0278479
3585,9841;0,0275172
3586,9485;0,0268771
3587,9126;0,0261605
3588,8770;0,0256867
3589,8411;0,0255899
3590,8054;0,0257682
3591,7695;0,0260229
3592,7339;0,0261843
3593,6980;0,0261678
3594,6624;0,0259908
3595,6265;0,0257425
3596,5908;0,0255047
3597,5549;0,0252887
3598,5193;0,0250509
3599,4834;0,0247625
3600,4478;0,0244628
3601,4119;0,0242402
3602,3762;0,0241573
3603,3403;0,0241957
3604,3047;0,0242672
3605,2688;0,0242635
3606,2332;0,0241055
3607,1973;0,0237835
3608,1616;0,0233754
3609,1257;0,0230086
3610,0901;0,0227784
3611,0542;0,0226996
3612,0186;0,0227276
3612,9827;0,0228038
3613,9470;0,0228822
3614,9111;0,0229225
3615,8755;0,022873
3616,8396;0,0226649
3617,8040;0,0222447
3618,7681;0,021648
3619,7324;0,0210562
3620,6965;0,020712
3621,6609;0,0207331
3622,6250;0,0210377
3623,5894;0,0214329
3624,5535;0,0217287
3625,5178;0,0217862
3626,4819;0,0215039
3627,4463;0,0208238
3628,4104;0,0198663
3629,3748;0,0190255
3630,3389;0,0186603
3631,3032;0,0187514
3632,2673;0,0190236
3633,2317;0,0192286
3634,1958;0,0192717
3635,1602;0,0191955
3636,1243;0,0190989
3637,0886;0,019053
3638,0527;0,019063
3639,0171;0,0190922
3639,9812;0,019112
3640,9456;0,0191325
3641,9097;0,0191898
3642,8740;0,0193094
3643,8381;0,0194812
3644,8025;0,0196587
3645,7666;0,0197501
3646,7310;0,019561
3647,6951;0,0187846
3648,6594;0,0173535
3649,6235;0,0158904
3650,5879;0,0151596
3651,5520;0,0152496
3652,5164;0,0157503
3653,4805;0,0162383
3654,4448;0,0164763
3655,4089;0,0164291
3656,3733;0,016226
3657,3374;0,0160632
3658,3018;0,0160569
3659,2659;0,0161729
3660,2302;0,0162995
3661,1943;0,0163634
3662,1587;0,0163803
3663,1228;0,0164187
3664,0872;0,016519
3665,0513;0,0166476
3666,0156;0,0167147
3666,9797;0,016628
3667,9441;0,0163433
3668,9082;0,0159172
3669,8726;0,0155289
3670,8367;0,0153609
3671,8010;0,0154241
3672,7651;0,0155543
3673,7295;0,015539
3674,6936;0,0152417
3675,6580;0,014734
3676,6221;0,0143112
3677,5864;0,0142191
3678,5505;0,0144311
3679,5149;0,0147664
3680,4790;0,0150884
3681,4434;0,0153676
3682,4075;0,0156338
3683,3718;0,0159036
3684,3359;0,0161461
3685,3003;0,0162978
3686,2644;0,0162918
3687,2288;0,0160681
3688,1929;0,0155964
3689,1572;0,0149735
3690,1213;0,0144671
3691,0857;0,014307
3692,0498;0,014491
3693,0142;0,0148632
3693,9783;0,0152739
3694,9426;0,0156438
3695,9067;0,0159479
3696,8711;0,0161763
3697,8352;0,016308
3698,7996;0,0163092
3699,7637;0,0161538
3700,7280;0,0158625
3701,6921;0,0155332
3702,6565;0,0153123
3703,6206;0,0153026
3704,5850;0,0154967
3705,5491;0,015799
3706,5134;0,0160927
3707,4775;0,0162776
3708,4419;0,0162633
3709,4060;0,0159556
3710,3704;0,015335
3711,3345;0,0146048
3712,2988;0,0141244
3713,2629;0,0140993
3714,2273;0,0144569
3715,1914;0,014992
3716,1558;0,0155246
3717,1199;0,0159583
3718,0842;0,0162747
3719,0483;0,0165026
3720,0127;0,0166837
3720,9768;0,01684
3721,9412;0,0169562
3722,9053;0,0169872
3723,8696;0,0168952
3724,8337;0,0166941
3725,7981;0,0164594
3726,7622;0,0162831
3727,7266;0,0162163
3728,6907;0,0162609
3729,6550;0,0164036
3730,6191;0,0166415
3731,5835;0,0169586
3732,5476;0,0172517
3733,5120;0,017285
3734,4761;0,0168458
3735,4404;0,016063
3736,4045;0,0153982
3737,3689;0,0151959
3738,3330;0,0154222
3739,2974;0,015805
3740,2615;0,0160536
3741,2258;0,015977
3742,1899;0,0155253
3743,1543;0,0148205
3744,1184;0,014169
3745,0828;0,0139173
3746,0469;0,0141551
3747,0112;0,0146339
3747,9753;0,014973
3748,9397;0,0148628
3749,9038;0,0142128
3750,8682;0,0133259
3751,8323;0,0127919
3752,7966;0,0129445
3753,7607;0,0136136
3754,7251;0,0144133
3755,6892;0,01503
3756,6536;0,0153052
3757,6177;0,0152324
3758,5820;0,0149457
3759,5461;0,0146608
3760,5105;0,0145447
3761,4746;0,0146246
3762,4390;0,0148188
3763,4031;0,0150214
3764,3674;0,0151566
3765,3315;0,0151902
3766,2959;0,0151169
3767,2600;0,0149442
3768,2244;0,014689
3769,1885;0,014394
3770,1528;0,0141434
3771,1169;0,0140395
3772,0813;0,0141407
3773,0454;0,0144181
3774,0098;0,0147714
3774,9739;0,0150801
3775,9382;0,0152474
3776,9023;0,015227
3777,8667;0,0150427
3778,8308;0,0147964
3779,7952;0,0146229
3780,7593;0,0146024
3781,7236;0,0147145
3782,6877;0,0148724
3783,6521;0,0149856
3784,6162;0,0150051
3785,5806;0,014939
3786,5447;0,0148404
3787,5090;0,0147754
3788,4731;0,0147902
3789,4375;0,014892
3790,4016;0,0150521
3791,3660;0,0152234
3792,3301;0,0153645
3793,2944;0,0154583
3794,2585;0,0155151
3795,2229;0,0155561
3796,1870;0,0155825
3797,1514;0,0155528
3798,1155;0,015392
3799,0798;0,0150388
3800,0439;0,0145195
3801,0083;0,0139965
3801,9724;0,0136932
3802,9368;0,0137044
3803,9009;0,0139085
3804,8652;0,0140802
3805,8293;0,0140687
3806,7937;0,0139116
3807,7578;0,013816
3808,7222;0,0139793
3809,6863;0,0144068
3810,6506;0,0149203
3811,6147;0,0153047
3812,5791;0,0154309
3813,5432;0,0153009
3814,5076;0,0150366
3815,4717;0,0148173
3816,4360;0,0147608
3817,4001;0,0148287
3818,3645;0,0148584
3819,3286;0,0147008
3820,2930;0,0143629
3821,2571;0,0140462
3822,2214;0,0139894
3823,1855;0,0142509
3824,1499;0,0146876
3825,1140;0,0150991
3826,0784;0,0153536
3827,0425;0,0154253
3828,0068;0,0153692
3828,9709;0,0152681
3829,9353;0,0151844
3830,8994;0,0151424
3831,8638;0,0151382
3832,8279;0,0151596
3833,7922;0,0151961
3834,7563;0,0152383
3835,7207;0,015271
3836,6848;0,0152708
3837,6492;0,0152217
3838,6133;0,0151405
3839,5776;0,0150673
3840,5417;0,0150166
3841,5061;0,0149602
3842,4702;0,0148729
3843,4346;0,0147854
3844,3987;0,0147854
3845,3630;0,0149583
3846,3271;0,0153179
3847,2915;0,0157845
3848,2556;0,0162189
3849,2200;0,0164715
3850,1841;0,0164024
3851,1484;0,0158656
3852,1125;0,0147609
3853,0769;0,013344
3854,0410;0,012364
3855,0054;0,0123376
3855,9695;0,0130664
3856,9338;0,0140683
3857,8979;0,0149917
3858,8623;0,0156849
3859,8264;0,0161246
3860,7908;0,0163349
3861,7549;0,0163422
3862,7192;0,016184
3863,6833;0,0159451
3864,6477;0,0157409
3865,6118;0,0156448
3866,5762;0,0156518
3867,5403;0,0157043
3868,5046;0,0157307
3869,4688;0,0156702
3870,4331;0,0155011
3871,3972;0,0152658
3872,3616;0,0150583
3873,3257;0,0149682
3874,2900;0,0150325
3875,2542;0,0152272
3876,2185;0,0154906
3877,1826;0,0157537
3878,1470;0,0159621
3879,1111;0,0160878
3880,0754;0,01613
3881,0396;0,0161004
3882,0039;0,0159955
3882,9680;0,015792
3883,9324;0,0154918
3884,8965;0,0151742
3885,8608;0,0149806
3886,8250;0,0150143
3887,7893;0,0152525
3888,7534;0,0155566
3889,7178;0,0157567
3890,6819;0,0157521
3891,6462;0,0155904
3892,6104;0,0154505
3893,5747;0,0154932
3894,5388;0,0157319
3895,5032;0,0160618
3896,4673;0,016364
3897,4316;0,0165704
3898,3958;0,0166668
3899,3601;0,0166687
3900,3242;0,0165888
3901,2886;0,0164128
3902,2527;0,0161115
3903,2170;0,0156968
3904,1812;0,0152617
3905,1455;0,0149345
3906,1096;0,0147862
3907,0740;0,0147965
3908,0381;0,0148983
3909,0024;0,0150353
3909,9666;0,0151904
3910,9309;0,0153771
3911,8950;0,0156108
3912,8594;0,0158805
3913,8235;0,0161362
3914,7878;0,0162993
3915,7520;0,0162996
3916,7163;0,0161298
3917,6804;0,015881
3918,6448;0,015702
3919,6089;0,0156982
3920,5732;0,0158634
3921,5374;0,016095
3922,5017;0,0162617
3923,4658;0,0162789
3924,4302;0,016163
3925,3943;0,016022
3926,3586;0,015976
3927,3228;0,0160746
3928,2871;0,0162738
3929,2512;0,0164665
3930,2156;0,0165353
3931,1797;0,0164144
3932,1440;0,0161345
3933,1082;0,0158062
3934,0725;0,0155462
3935,0366;0,0154181
3936,0010;0,0154282
3936,9651;0,0155501
3937,9294;0,0157431
3938,8936;0,0159576
3939,8579;0,0161388
3940,8220;0,0162416
3941,7864;0,0162557
3942,7505;0,0162197
3943,7148;0,0161991
3944,6790;0,0162376
3945,6433;0,0163236
3946,6074;0,016396
3947,5718;0,0163812
3948,5359;0,0162407
3949,5002;0,0160018
3950,4644;0,0157449
3951,4287;0,0155524
3952,3928;0,0154654
3953,3572;0,015477
3954,3213;0,0155546
3955,2856;0,015664
3956,2498;0,0157808
3957,2141;0,0158888
3958,1782;0,0159721
3959,1426;0,0160121
3960,1067;0,0159923
3961,0710;0,0159111
3962,0352;0,0157888
3962,9995;0,0156628
3963,9636;0,0155706
3964,9280;0,0155334
3965,8921;0,0155493
3966,8564;0,0155996
3967,8206;0,015661
3968,7849;0,0157175
3969,7490;0,0157647
3970,7134;0,0158055
3971,6775;0,0158411
3972,6418;0,0158643
3973,6060;0,0158624
3974,5703;0,0158263
3975,5344;0,0157599
3976,4988;0,015681
3977,4629;0,0156126
3978,4272;0,0155703
3979,3914;0,015555
3980,3557;0,0155542
3981,3198;0,0155515
3982,2842;0,0155379
3983,2483;0,0155175
3984,2126;0,0155046
3985,1768;0,0155131
3986,1411;0,0155479
3987,1052;0,0156009
3988,0696;0,0156555
3989,0337;0,0156947
3989,9980;0,0157077
3990,9622;0,0156931
3991,9265;0,0156558
3992,8906;0,0156032
3993,8550;0,0155425
3994,8191;0,0154816
3995,7834;0,0154292
3996,7476;0,0153941
3997,7119;0,0153821
3998,6760;0,0153932
3999,6404;0,0154213
4000,6045;0,0157054

##### Extended Information
[Comments]
Sample name
Comment
Username
Division
Organization;UNIVERSIDAD INDUSTRIAL DE SANTANDER

[Detailed Information]
Creation date;26/03/2025 5:35 p.m.

Data array type;Linear data array
Horizontal axis;Wavenumber [cm-1]
Vertical axis;Abs
Start;399,193 cm-1
End;4000,6 cm-1
Data interval;0,964233 cm-1
Data points;3736    

[Measurement Information]
Model name;FT/IR-4X1typeA
Serial No.;A035162111

Accessory;ATR PRO 4X
Accessory S/N;A021162126
Incident angle;45 deg

Measurement date;26/03/2025 5:35 p.m.

Light source;Standard
Detector;TGS
Accumulation;40
Resolution;4 cm-1
Zero filling;On
Apodization;Cosine
Gain;Auto (8)
Aperture;Auto (7 mm)
Scan speed;Auto (2 mm/sec)
Filter;Auto (12800 Hz)

