TITLE;
DATA TYPE;INFRARED SPECTRUM
ORIGIN;JASCO
OWNER;
DATE;25/04/01
TIME;14:57:47
SPECTROMETER/DATA SYSTEM;
LOCALE;9226
RESOLUTION;
DELTAX;0,964233
XUNITS;1/CM
YUNITS;ABSORBANCE
FIRSTX;  399,1927
LASTX; 4000,6047
NPOINTS;    3736
FIRSTY;     0,14845
MAXY;     0,17160
MINY;     0,02391
XYDATA
399,1927;0,148445
400,1569;0,148952
401,1211;0,147927
402,0854;0,145927
403,0496;0,14361
404,0138;0,141588
404,9781;0,14035
405,9423;0,140128
406,9065;0,14081
407,8708;0,142012
408,8350;0,143293
409,7992;0,144351
410,7635;0,14509
411,7277;0,145564
412,6919;0,145885
413,6562;0,146156
414,6204;0,146452
415,5846;0,14684
416,5489;0,147365
417,5131;0,148
418,4773;0,148567
419,4416;0,148812
420,4058;0,148668
421,3700;0,14832
422,3343;0,148017
423,2985;0,147931
424,2627;0,148133
425,2270;0,148599
426,1912;0,149223
427,1554;0,149853
428,1197;0,150355
429,0839;0,150658
430,0481;0,150779
431,0124;0,150814
431,9766;0,150892
432,9408;0,151106
433,9051;0,151461
434,8693;0,151867
435,8335;0,152209
436,7978;0,152437
437,7620;0,152607
438,7262;0,152829
439,6905;0,153169
440,6547;0,153573
441,6189;0,153867
442,5832;0,153834
443,5474;0,153348
444,5116;0,152461
445,4759;0,151375
446,4401;0,150324
447,4043;0,149484
448,3686;0,148954
449,3328;0,148776
450,2970;0,148949
451,2613;0,149427
452,2255;0,150115
453,1897;0,15087
454,1540;0,151527
455,1182;0,151912
456,0824;0,151879
457,0467;0,151379
458,0109;0,15054
458,9751;0,149653
459,9394;0,149004
460,9036;0,148708
461,8678;0,148679
462,8321;0,148739
463,7963;0,148731
464,7605;0,148614
465,7248;0,148478
466,6890;0,148474
467,6532;0,148682
468,6175;0,149031
469,5817;0,149329
470,5459;0,149384
471,5102;0,149149
472,4744;0,148779
473,4386;0,148525
474,4029;0,14854
475,3671;0,148778
476,3313;0,149073
477,2956;0,149281
478,2598;0,149366
479,2240;0,149386
480,1883;0,149429
481,1525;0,149526
482,1167;0,149642
483,0810;0,149717
484,0452;0,149731
485,0094;0,149738
485,9737;0,149816
486,9379;0,150007
487,9021;0,150279
488,8664;0,150554
489,8306;0,150746
490,7948;0,150797
491,7591;0,150694
492,7233;0,150465
493,6875;0,150164
494,6518;0,149859
495,6160;0,149616
496,5802;0,149494
497,5445;0,149528
498,5087;0,149723
499,4729;0,150045
500,4372;0,150424
501,4014;0,150768
502,3656;0,150993
503,3299;0,151062
504,2941;0,151
505,2583;0,150881
506,2226;0,150781
507,1868;0,150748
508,1510;0,150783
509,1153;0,150859
510,0795;0,150961
511,0437;0,15111
512,0080;0,151356
512,9722;0,151735
513,9365;0,152235
514,9007;0,152792
515,8649;0,15331
516,8292;0,153708
517,7934;0,15395
518,7576;0,154049
519,7219;0,154035
520,6861;0,153927
521,6503;0,153732
522,6146;0,153465
523,5788;0,15316
524,5430;0,152859
525,5073;0,152594
526,4715;0,15237
527,4357;0,15217
528,4000;0,151987
529,3642;0,151841
530,3284;0,15176
531,2927;0,151751
532,2569;0,151779
533,2211;0,15177
534,1854;0,151653
535,1496;0,151396
536,1138;0,15103
537,0781;0,150623
538,0423;0,150251
539,0065;0,149959
539,9708;0,149758
540,9350;0,149633
541,8992;0,149565
542,8635;0,149541
543,8277;0,149553
544,7919;0,1496
545,7562;0,149683
546,7204;0,149803
547,6846;0,149963
548,6489;0,150165
549,6131;0,150396
550,5773;0,15063
551,5416;0,150826
552,5058;0,150947
553,4700;0,150979
554,4343;0,150948
555,3985;0,150912
556,3627;0,150931
557,3270;0,151023
558,2912;0,151139
559,2554;0,151172
560,2197;0,151
561,1839;0,150554
562,1481;0,149852
563,1124;0,148996
564,0766;0,148123
565,0408;0,147342
566,0051;0,1467
566,9693;0,14618
567,9335;0,145741
568,8978;0,14535
569,8620;0,145006
570,8262;0,144725
571,7905;0,144517
572,7547;0,144368
573,7189;0,144245
574,6832;0,144112
575,6474;0,143948
576,6116;0,143764
577,5759;0,143587
578,5401;0,143443
579,5043;0,143341
580,4686;0,143266
581,4328;0,14319
582,3970;0,14309
583,3613;0,142958
584,3255;0,142812
585,2897;0,142679
586,2540;0,142582
587,2182;0,14252
588,1824;0,142473
589,1467;0,142406
590,1109;0,142295
591,0751;0,142136
592,0394;0,141952
593,0036;0,141777
593,9678;0,141632
594,9321;0,141516
595,8963;0,141406
596,8605;0,141267
597,8248;0,141072
598,7890;0,140812
599,7532;0,140498
600,7175;0,14016
601,6817;0,139831
602,6459;0,139541
603,6102;0,139306
604,5744;0,139122
605,5386;0,138971
606,5029;0,138824
607,4671;0,138647
608,4313;0,138411
609,3956;0,138095
610,3598;0,137698
611,3240;0,137239
612,2883;0,136751
613,2525;0,136276
614,2167;0,135844
615,1810;0,135459
616,1452;0,135088
617,1094;0,134677
618,0737;0,134173
619,0379;0,133553
620,0021;0,132836
620,9664;0,132069
621,9306;0,131301
622,8948;0,130574
623,8591;0,129914
624,8233;0,129318
625,7875;0,12881
626,7518;0,128371
627,7160;0,127972
628,6802;0,127583
629,6445;0,127186
630,6087;0,126775
631,5729;0,12636
632,5372;0,125958
633,5014;0,125583
634,4656;0,125242
635,4299;0,124934
636,3941;0,12465
637,3583;0,124378
638,3226;0,124106
639,2868;0,123822
640,2510;0,12353
641,2153;0,123245
642,1795;0,122988
643,1437;0,122771
644,1080;0,122581
645,0722;0,122381
646,0364;0,122126
647,0007;0,121793
647,9649;0,121396
648,9291;0,120988
649,8934;0,120635
650,8576;0,120381
651,8218;0,12023
652,7861;0,120156
653,7503;0,120122
654,7145;0,120097
655,6788;0,120065
656,6430;0,120015
657,6072;0,119944
658,5715;0,119856
659,5357;0,119759
660,4999;0,119656
661,4642;0,119522
662,4284;0,119295
663,3926;0,118889
664,3569;0,118221
665,3211;0,117271
666,2853;0,116122
667,2496;0,114963
668,2138;0,114016
669,1780;0,113452
670,1423;0,11328
671,1065;0,11328
672,0707;0,113165
673,0350;0,112765
673,9992;0,112062
674,9634;0,111151
675,9277;0,110167
676,8919;0,109212
677,8561;0,108321
678,8204;0,107481
679,7846;0,106677
680,7488;0,105919
681,7131;0,105243
682,6773;0,104678
683,6415;0,10423
684,6058;0,103876
685,5700;0,103578
686,5342;0,103293
687,4985;0,102983
688,4627;0,102631
689,4269;0,102239
690,3912;0,101833
691,3554;0,101448
692,3196;0,101104
693,2839;0,100804
694,2481;0,100534
695,2123;0,100282
696,1766;0,100042
697,1408;0,0998141
698,1050;0,099596
699,0693;0,0993781
700,0335;0,0991489
700,9977;0,0989028
701,9620;0,0986441
702,9262;0,0983814
703,8904;0,0981132
704,8547;0,0978347
705,8189;0,0975333
706,7831;0,0971984
707,7474;0,0968283
708,7116;0,0964324
709,6758;0,0960275
710,6401;0,0956321
711,6043;0,0952624
712,5685;0,0949277
713,5328;0,0946254
714,4970;0,0943379
715,4612;0,0937286
716,4255;0,0934383
717,3897;0,0930945
718,3539;0,0926754
719,3182;0,092181
720,2824;0,0916383
721,2466;0,0910917
722,2109;0,0905816
723,1751;0,0901253
724,1393;0,0897136
725,1036;0,0893207
726,0678;0,0889201
727,0320;0,0884971
727,9963;0,0880536
728,9605;0,0876059
729,9247;0,0871757
730,8890;0,0867801
731,8532;0,0864244
732,8174;0,0861005
733,7817;0,0857916
734,7459;0,0854819
735,7101;0,0851662
736,6744;0,0848529
737,6386;0,0845596
738,6028;0,0843006
739,5671;0,0840766
740,5313;0,0838723
741,4955;0,0836637
742,4598;0,0834305
743,4240;0,0831654
744,3882;0,0828744
745,3525;0,0825707
746,3167;0,0822665
747,2809;0,0819685
748,2452;0,0816793
749,2094;0,0814006
750,1736;0,0811348
751,1379;0,0808837
752,1021;0,0806445
753,0663;0,0804092
754,0306;0,080167
754,9948;0,0799114
755,9590;0,0796459
756,9233;0,0793849
757,8875;0,0791468
758,8517;0,0789446
759,8160;0,0787776
760,7802;0,0786316
761,7444;0,0784865
762,7087;0,078327
763,6729;0,0781495
764,6371;0,0779623
765,6014;0,0777786
766,5656;0,0776105
767,5298;0,077465
768,4941;0,0773445
769,4583;0,0772484
770,4225;0,0771735
771,3868;0,0771139
772,3510;0,0770624
773,3152;0,0770153
774,2795;0,0769773
775,2437;0,0769605
776,2079;0,0769753
777,1722;0,0770168
778,1364;0,0770552
779,1006;0,0770387
780,0649;0,07691
781,0291;0,0766292
781,9933;0,0761896
782,9576;0,0756206
783,9218;0,0749744
784,8860;0,0743075
785,8503;0,0736653
786,8145;0,0730766
787,7787;0,0725575
788,7430;0,0721171
789,7072;0,0717611
790,6714;0,0714898
791,6357;0,071293
792,5999;0,0711475
793,5641;0,0710206
794,5284;0,0708797
795,4926;0,0707039
796,4568;0,0704915
797,4211;0,0702592
798,3853;0,0700326
799,3495;0,0698336
800,3138;0,0696698
801,2780;0,0695333
802,2422;0,0694068
803,2065;0,0692747
804,1707;0,0691307
805,1349;0,0689799
806,0992;0,0688335
807,0634;0,0687015
808,0276;0,068587
808,9919;0,0684859
809,9561;0,0683899
810,9203;0,0682925
811,8846;0,0681927
812,8488;0,068096
813,8130;0,0680117
814,7773;0,0679482
815,7415;0,0679073
816,7057;0,0678812
817,6700;0,0678542
818,6342;0,0678078
819,5984;0,0677277
820,5627;0,0676103
821,5269;0,0674633
822,4911;0,0673025
823,4554;0,067145
824,4196;0,0670033
825,3839;0,0668827
826,3481;0,0667826
827,3123;0,0667002
828,2766;0,0666331
829,2408;0,0665787
830,2050;0,0665312
831,1693;0,0664781
832,1335;0,0664015
833,0977;0,0662847
834,0620;0,0661213
835,0262;0,0659212
835,9904;0,0657077
836,9547;0,0655061
837,9189;0,0653307
838,8831;0,0651788
839,8474;0,0650356
840,8116;0,0648874
841,7758;0,064732
842,7401;0,0645798
843,7043;0,0644438
844,6685;0,0643286
845,6328;0,0642265
846,5970;0,0641249
847,5612;0,0640183
848,5255;0,063914
849,4897;0,0638278
850,4539;0,0637713
851,4182;0,0637427
852,3824;0,0637274
853,3466;0,0637076
854,3109;0,0636732
855,2751;0,0636259
856,2393;0,0635743
857,2036;0,0635266
858,1678;0,0634854
859,1320;0,0634499
860,0963;0,0634197
861,0605;0,0633962
862,0247;0,0633811
862,9890;0,0633732
863,9532;0,0633688
864,9174;0,063365
865,8817;0,0633647
866,8459;0,0633757
867,8101;0,0634062
868,7744;0,0634571
869,7386;0,06352
870,7028;0,0635803
871,6671;0,0636265
872,6313;0,0636575
873,5955;0,0636837
874,5598;0,0637218
875,5240;0,0637851
876,4882;0,0638774
877,4525;0,063992
878,4167;0,064117
879,3809;0,0642433
880,3452;0,0643704
881,3094;0,064508
882,2736;0,0646732
883,2379;0,0648856
884,2021;0,0651609
885,1663;0,0655066
886,1306;0,0659193
887,0948;0,0663854
888,0590;0,0668856
889,0233;0,0674018
889,9875;0,0679234
890,9517;0,0684479
891,9160;0,0689749
892,8802;0,0694956
893,8444;0,0699848
894,8087;0,0704024
895,7729;0,0707048
896,7371;0,0708606
897,7014;0,0708609
898,6656;0,070719
899,6298;0,0704602
900,5941;0,0701097
901,5583;0,0696862
902,5225;0,0692041
903,4868;0,0686796
904,4510;0,0681351
905,4152;0,0675977
906,3795;0,0670949
907,3437;0,0666487
908,3079;0,0662742
909,2722;0,0659799
910,2364;0,0657682
911,2007;0,0656355
912,1649;0,0655708
913,1292;0,0655567
914,0934;0,0655729
915,0576;0,0656011
916,0219;0,0656295
916,9861;0,0656545
917,9503;0,0656802
918,9146;0,0657159
919,8788;0,0657734
920,8430;0,065863
921,8073;0,0659892
922,7715;0,066148
923,7357;0,0663261
924,7000;0,0665051
925,6642;0,0666687
926,6284;0,0668112
927,5927;0,0669402
928,5569;0,0670722
929,5211;0,0672236
930,4854;0,0674014
931,4496;0,0676005
932,4138;0,0678095
933,3781;0,0680216
934,3423;0,0682427
935,3065;0,0684901
936,2708;0,0687831
937,2350;0,0691304
938,1992;0,0695247
939,1635;0,0699471
940,1277;0,0703803
941,0919;0,07082
942,0562;0,0712789
943,0204;0,0717802
943,9846;0,0723464
944,9489;0,0729895
945,9131;0,0737091
946,8773;0,0744958
947,8416;0,0753376
948,8058;0,0762248
949,7700;0,0771517
950,7343;0,0781162
951,6985;0,0791171
952,6627;0,0801516
953,6270;0,0812124
954,5912;0,082288
955,5554;0,0833663
956,5197;0,0844398
957,4839;0,0855096
958,4481;0,0865829
959,4124;0,087667
960,3766;0,0887613
961,3408;0,0898564
962,3051;0,0909387
963,2693;0,0920002
964,2335;0,0930442
965,1978;0,0940829
966,1620;0,09513
967,1262;0,0961924
968,0905;0,0972695
969,0547;0,0983585
970,0189;0,0994619
970,9832;0,100591
971,9474;0,101764
972,9116;0,102999
973,8759;0,104309
974,8401;0,105702
975,8043;0,107184
976,7686;0,10876
977,7328;0,110434
978,6970;0,112199
979,6613;0,114035
980,6255;0,115901
981,5897;0,117742
982,5540;0,119494
983,5182;0,121106
984,4824;0,122547
985,4467;0,123813
986,4109;0,124924
987,3751;0,125911
988,3394;0,126806
989,3036;0,12763
990,2678;0,128392
991,2321;0,129097
992,1963;0,129752
993,1605;0,130368
994,1248;0,13096
995,0890;0,131551
996,0532;0,132157
997,0175;0,132791
997,9817;0,13346
998,9459;0,134162
999,9102;0,13489
1000,8744;0,135635
1001,8386;0,136391
1002,8029;0,137159
1003,7671;0,137945
1004,7313;0,13876
1005,6956;0,139619
1006,6598;0,140541
1007,6240;0,141542
1008,5883;0,142642
1009,5525;0,143854
1010,5167;0,145177
1011,4810;0,146599
1012,4452;0,148092
1013,4094;0,14962
1014,3737;0,151153
1015,3379;0,152666
1016,3021;0,154147
1017,2664;0,15559
1018,2306;0,156993
1019,1948;0,158356
1020,1591;0,159681
1021,1233;0,160975
1022,0875;0,162244
1023,0518;0,163493
1024,0160;0,16472
1024,9802;0,165915
1025,9445;0,167066
1026,9087;0,168156
1027,8729;0,169163
1028,8372;0,170058
1029,8014;0,170799
1030,7656;0,171333
1031,7299;0,171603
1032,6941;0,171567
1033,6583;0,171205
1034,6226;0,170536
1035,5868;0,169613
1036,5510;0,168515
1037,5153;0,167337
1038,4795;0,166171
1039,4437;0,165095
1040,4080;0,16417
1041,3722;0,163428
1042,3364;0,162874
1043,3007;0,162482
1044,2649;0,1622
1045,2291;0,161962
1046,1934;0,161697
1047,1576;0,16135
1048,1218;0,160883
1049,0861;0,160285
1050,0503;0,159556
1051,0145;0,158706
1051,9788;0,157738
1052,9430;0,156659
1053,9072;0,155473
1054,8715;0,154189
1055,8357;0,152815
1056,7999;0,151344
1057,7642;0,149755
1058,7284;0,14801
1059,6926;0,146079
1060,6569;0,143958
1061,6211;0,141684
1062,5853;0,139333
1063,5496;0,137
1064,5138;0,13477
1065,4780;0,132702
1066,4423;0,130827
1067,4065;0,129149
1068,3707;0,127658
1069,3350;0,126335
1070,2992;0,125155
1071,2634;0,124083
1072,2277;0,123077
1073,1919;0,122096
1074,1561;0,121106
1075,1204;0,120088
1076,0846;0,119035
1077,0488;0,117951
1078,0131;0,116851
1078,9773;0,115758
1079,9415;0,1147
1080,9058;0,113706
1081,8700;0,112802
1082,8342;0,112004
1083,7985;0,111313
1084,7627;0,110711
1085,7269;0,110174
1086,6912;0,109672
1087,6554;0,109188
1088,6196;0,108717
1089,5839;0,108268
1090,5481;0,107857
1091,5123;0,107494
1092,4766;0,107179
1093,4408;0,106901
1094,4050;0,10665
1095,3693;0,10642
1096,3335;0,10622
1097,2977;0,106069
1098,2620;0,105984
1099,2262;0,105971
1100,1904;0,106017
1101,1547;0,106097
1102,1189;0,106176
1103,0831;0,106222
1104,0474;0,106212
1105,0116;0,106137
1105,9758;0,105998
1106,9401;0,105799
1107,9043;0,105545
1108,8685;0,105228
1109,8328;0,10483
1110,7970;0,10432
1111,7612;0,103675
1112,7255;0,102889
1113,6897;0,101983
1114,6539;0,101008
1115,6182;0,100026
1116,5824;0,0990936
1117,5466;0,0982441
1118,5109;0,0974786
1119,4751;0,0967715
1120,4393;0,0960802
1121,4036;0,0953574
1122,3678;0,0945607
1123,3320;0,0936574
1124,2963;0,0926277
1125,2605;0,0914658
1126,2247;0,0901813
1127,1890;0,0887969
1128,1532;0,0873457
1129,1174;0,085865
1130,0817;0,0843899
1131,0459;0,0829495
1132,0101;0,0815652
1132,9744;0,0802532
1133,9386;0,0790283
1134,9028;0,0779069
1135,8671;0,0769078
1136,8313;0,0760497
1137,7955;0,0753464
1138,7598;0,0748037
1139,7240;0,0744169
1140,6882;0,0741725
1141,6525;0,074051
1142,6167;0,074031
1143,5809;0,0740928
1144,5452;0,0742215
1145,5094;0,0744082
1146,4736;0,0746495
1147,4379;0,0749441
1148,4021;0,0752892
1149,3663;0,0756774
1150,3306;0,0760958
1151,2948;0,0765281
1152,2590;0,0769578
1153,2233;0,0773696
1154,1875;0,0777478
1155,1517;0,0780727
1156,1160;0,0783182
1157,0802;0,0784512
1158,0444;0,0784354
1159,0087;0,0782362
1159,9729;0,0778247
1160,9371;0,0771817
1161,9014;0,0762998
1162,8656;0,0751859
1163,8298;0,0738638
1164,7941;0,0723738
1165,7583;0,0707704
1166,7225;0,0691151
1167,6868;0,0674679
1168,6510;0,0658785
1169,6152;0,0643824
1170,5795;0,0630002
1171,5437;0,0617418
1172,5079;0,060611
1173,4722;0,0596093
1174,4364;0,0587355
1175,4006;0,0579839
1176,3649;0,0573429
1177,3291;0,0567956
1178,2933;0,0563232
1179,2576;0,0559093
1180,2218;0,0555421
1181,1860;0,0552159
1182,1503;0,0549301
1183,1145;0,0546886
1184,0787;0,0544992
1185,0430;0,0543724
1186,0072;0,0543188
1186,9714;0,0543446
1187,9357;0,0544475
1188,8999;0,0546165
1189,8641;0,0548358
1190,8284;0,0550912
1191,7926;0,0553765
1192,7568;0,0556952
1193,7211;0,056057
1194,6853;0,0564703
1195,6495;0,0569355
1196,6138;0,0574416
1197,5780;0,0579691
1198,5422;0,0584964
1199,5065;0,0589475
1200,4707;0,0594463
1201,4349;0,0599305
1202,3992;0,0604089
1203,3634;0,060887
1204,3276;0,061363
1205,2919;0,0618293
1206,2561;0,0622789
1207,2203;0,0627118
1208,1846;0,0631381
1209,1488;0,0635751
1210,1130;0,0640412
1211,0773;0,0645484
1212,0415;0,065099
1213,0057;0,065686
1213,9700;0,0662964
1214,9342;0,0669158
1215,8984;0,0675318
1216,8627;0,068135
1217,8269;0,0687189
1218,7911;0,0692801
1219,7554;0,069817
1220,7196;0,0703285
1221,6838;0,0708141
1222,6481;0,0712741
1223,6123;0,0717105
1224,5765;0,0721262
1225,5408;0,0725239
1226,5050;0,0729034
1227,4692;0,0732611
1228,4335;0,0735912
1229,3977;0,0738889
1230,3619;0,0741535
1231,3262;0,0743884
1232,2904;0,0745991
1233,2546;0,0747898
1234,2189;0,0749621
1235,1831;0,0751152
1236,1473;0,0752488
1237,1116;0,0753641
1238,0758;0,0754631
1239,0400;0,0755458
1240,0043;0,0756083
1240,9685;0,0756427
1241,9327;0,0756397
1242,8970;0,0755925
1243,8612;0,0754989
1244,8254;0,075361
1245,7897;0,0751832
1246,7539;0,0749702
1247,7181;0,0747261
1248,6824;0,0744555
1249,6466;0,0741643
1250,6108;0,0738608
1251,5751;0,0735543
1252,5393;0,0732532
1253,5035;0,0729614
1254,4678;0,0726766
1255,4320;0,0723901
1256,3962;0,0720891
1257,3605;0,0717619
1258,3247;0,0714022
1259,2889;0,0710116
1260,2532;0,0705981
1261,2174;0,0701714
1262,1816;0,0697383
1263,1459;0,0692998
1264,1101;0,068852
1265,0743;0,0683886
1266,0386;0,0679029
1267,0028;0,067389
1267,9670;0,0668428
1268,9313;0,0662646
1269,8955;0,0656609
1270,8597;0,0650444
1271,8240;0,0644306
1272,7882;0,0638313
1273,7524;0,0632502
1274,7167;0,0626843
1275,6809;0,0621287
1276,6451;0,0615832
1277,6094;0,0610538
1278,5736;0,0605502
1279,5378;0,0600793
1280,5021;0,0596411
1281,4663;0,0592297
1282,4305;0,0588377
1283,3948;0,0584618
1284,3590;0,0581052
1285,3232;0,0577762
1286,2875;0,0574846
1287,2517;0,0572387
1288,2159;0,0570431
1289,1802;0,0568982
1290,1444;0,0568016
1291,1086;0,0567484
1292,0729;0,0567338
1293,0371;0,0567539
1294,0013;0,0568077
1294,9656;0,0568966
1295,9298;0,0570243
1296,8940;0,0571954
1297,8583;0,0574137
1298,8225;0,0576815
1299,7867;0,0579979
1300,7510;0,0583585
1301,7152;0,0587561
1302,6794;0,0591824
1303,6437;0,0596309
1304,6079;0,0600997
1305,5721;0,0605912
1306,5364;0,0611097
1307,5006;0,0616591
1308,4648;0,0622409
1309,4291;0,0628537
1310,3933;0,0634924
1311,3575;0,0641454
1312,3218;0,0647909
1313,2860;0,0653962
1314,2502;0,0659202
1315,2145;0,0663204
1316,1787;0,0665609
1317,1429;0,0666199
1318,1072;0,0664984
1319,0714;0,066225
1320,0356;0,0658512
1320,9999;0,0654358
1321,9641;0,0650271
1322,9283;0,0646538
1323,8926;0,0643259
1324,8568;0,0640421
1325,8210;0,0637963
1326,7853;0,063581
1327,7495;0,0633884
1328,7137;0,0632106
1329,6780;0,0630385
1330,6422;0,0628635
1331,6064;0,0626782
1332,5707;0,0624783
1333,5349;0,0622621
1334,4991;0,0620279
1335,4634;0,0617701
1336,4276;0,0614783
1337,3918;0,0611406
1338,3561;0,0607553
1339,3203;0,0603426
1340,2845;0,0599434
1341,2488;0,0595982
1342,2130;0,0593255
1343,1772;0,0591204
1344,1415;0,058967
1345,1057;0,0588514
1346,0699;0,0587676
1347,0342;0,0587169
1347,9984;0,0587063
1348,9626;0,0587438
1349,9269;0,0588337
1350,8911;0,0589734
1351,8553;0,059154
1352,8196;0,0593649
1353,7838;0,0596007
1354,7480;0,0598635
1355,7123;0,0601593
1356,6765;0,0604891
1357,6407;0,0608431
1358,6050;0,0612034
1359,5692;0,0615503
1360,5334;0,061868
1361,4977;0,062149
1362,4619;0,0623972
1363,4261;0,0626276
1364,3904;0,0628536
1365,3546;0,0630761
1366,3188;0,0632851
1367,2831;0,0634696
1368,2473;0,0636248
1369,2115;0,0637497
1370,1758;0,0638412
1371,1400;0,0638887
1372,1042;0,0638741
1373,0685;0,063781
1374,0327;0,0636088
1374,9969;0,0633786
1375,9612;0,0631184
1376,9254;0,062836
1377,8896;0,0625118
1378,8539;0,0621191
1379,8181;0,0616521
1380,7823;0,0611378
1381,7466;0,0606191
1382,7108;0,0601223
1383,6750;0,0596362
1384,6393;0,0591226
1385,6035;0,0585513
1386,5677;0,0579406
1387,5320;0,0573696
1388,4962;0,0569279
1389,4604;0,0566457
1390,4247;0,0564815
1391,3889;0,0563668
1392,3531;0,0562487
1393,3174;0,056107
1394,2816;0,0559489
1395,2458;0,0557953
1396,2101;0,0556655
1397,1743;0,055573
1398,1385;0,0555298
1399,1028;0,0555482
1400,0670;0,0556339
1401,0313;0,0557763
1401,9955;0,0559498
1402,9597;0,0561257
1403,9240;0,0562869
1404,8882;0,0564377
1405,8524;0,0566004
1406,8167;0,0567979
1407,7809;0,0570368
1408,7451;0,0573076
1409,7094;0,0575997
1410,6736;0,0579126
1411,6378;0,0582536
1412,6021;0,0586242
1413,5663;0,0590087
1414,5305;0,0593758
1415,4948;0,0596908
1416,4590;0,0599258
1417,4232;0,0600688
1418,3875;0,0601367
1419,3517;0,0601791
1420,3159;0,0602388
1421,2802;0,0603049
1422,2444;0,0603252
1423,2086;0,0602549
1424,1729;0,0600874
1425,1371;0,0598469
1426,1013;0,059556
1427,0656;0,0592091
1428,0298;0,0587795
1428,9940;0,0582575
1429,9583;0,0576841
1430,9225;0,0571355
1431,8867;0,05666
1432,8510;0,0562344
1433,8152;0,05578
1434,7794;0,0552178
1435,7437;0,0545428
1436,7079;0,0538744
1437,6721;0,0533928
1438,6364;0,0531822
1439,6006;0,0531822
1440,5648;0,0532808
1441,5291;0,0534003
1442,4933;0,0535174
1443,4575;0,0536428
1444,4218;0,0537919
1445,3860;0,0539662
1446,3502;0,0541543
1447,3145;0,0543479
1448,2787;0,0545551
1449,2429;0,0547958
1450,2072;0,0550784
1451,1714;0,0553826
1452,1356;0,0556638
1453,0999;0,0558708
1454,0641;0,0559546
1455,0283;0,0558615
1455,9926;0,055539
1456,9568;0,055037
1457,9210;0,0546121
1458,8853;0,0544907
1459,8495;0,0546214
1460,8137;0,0548112
1461,7780;0,0548922
1462,7422;0,0547571
1463,7064;0,0543616
1464,6707;0,053757
1465,6349;0,0530967
1466,5991;0,0525293
1467,5634;0,0520809
1468,5276;0,051664
1469,4918;0,0511518
1470,4561;0,0504246
1471,4203;0,0494023
1472,3845;0,0481188
1473,3488;0,0467921
1474,3130;0,0457021
1475,2772;0,044959
1476,2415;0,0444883
1477,2057;0,0441711
1478,1699;0,0439261
1479,1342;0,0437149
1480,0984;0,0435275
1481,0626;0,0433722
1482,0269;0,0432687
1482,9911;0,0432361
1483,9553;0,0432784
1484,9196;0,043378
1485,8838;0,0435023
1486,8480;0,0436156
1487,8123;0,0436951
1488,7765;0,0437574
1489,7407;0,0438727
1490,7050;0,0441139
1491,6692;0,0444854
1492,6334;0,0449328
1493,5977;0,0453985
1494,5619;0,0458539
1495,5261;0,0463015
1496,4904;0,0467648
1497,4546;0,047279
1498,4188;0,0478757
1499,3831;0,0485533
1500,3473;0,0492632
1501,3115;0,0499338
1502,2758;0,0505043
1503,2400;0,0509418
1504,2042;0,0512362
1505,1685;0,051368
1506,1327;0,0512653
1507,0969;0,050901
1508,0612;0,0504966
1509,0254;0,0502925
1509,9896;0,0502679
1510,9539;0,0502855
1511,9181;0,050242
1512,8823;0,0500869
1513,8466;0,0498046
1514,8108;0,0494051
1515,7750;0,0489235
1516,7393;0,0484097
1517,7035;0,0479021
1518,6677;0,0474074
1519,6320;0,0469108
1520,5962;0,0464124
1521,5604;0,0459533
1522,5247;0,0455914
1523,4889;0,0453495
1524,4531;0,0452055
1525,4174;0,04513
1526,3816;0,0451163
1527,3458;0,0451739
1528,3101;0,0452996
1529,2743;0,0454662
1530,2385;0,0456372
1531,2028;0,0457915
1532,1670;0,0459389
1533,1312;0,0461182
1534,0955;0,046368
1535,0597;0,0466889
1536,0239;0,0470411
1536,9882;0,0473774
1537,9524;0,0476679
1538,9166;0,0478824
1539,8809;0,0479502
1540,8451;0,047829
1541,8093;0,0476682
1542,7736;0,0476549
1543,7378;0,0477947
1544,7020;0,048007
1545,6663;0,0482384
1546,6305;0,0484726
1547,5947;0,0487048
1548,5590;0,0489267
1549,5232;0,0491302
1550,4874;0,0493208
1551,4517;0,0495219
1552,4159;0,049759
1553,3801;0,0500339
1554,3444;0,0503128
1555,3086;0,0505314
1556,2728;0,0505931
1557,2371;0,0503626
1558,2013;0,0497903
1559,1655;0,0492167
1560,1298;0,0491167
1561,0940;0,0495021
1562,0582;0,0501111
1563,0225;0,050742
1563,9867;0,0513023
1564,9509;0,0517621
1565,9152;0,0521209
1566,8794;0,0523978
1567,8436;0,0526367
1568,8079;0,052905
1569,7721;0,0532612
1570,7363;0,0537103
1571,7006;0,0542023
1572,6648;0,0546752
1573,6290;0,0550939
1574,5933;0,0554627
1575,5575;0,0558185
1576,5217;0,0562144
1577,4860;0,0566921
1578,4502;0,0572513
1579,4144;0,0578525
1580,3787;0,058452
1581,3429;0,059026
1582,3071;0,0595711
1583,2714;0,0600963
1584,2356;0,060614
1585,1998;0,0611326
1586,1641;0,0616508
1587,1283;0,0621573
1588,0925;0,0626357
1589,0568;0,0630706
1590,0210;0,0634515
1590,9852;0,0637688
1591,9495;0,0640098
1592,9137;0,0641587
1593,8779;0,0642066
1594,8422;0,0641624
1595,8064;0,0640546
1596,7706;0,0639189
1597,7349;0,0637812
1598,6991;0,0636502
1599,6633;0,0635223
1600,6276;0,063392
1601,5918;0,0632623
1602,5560;0,0631457
1603,5203;0,0630567
1604,4845;0,0629981
1605,4487;0,0629545
1606,4130;0,0628989
1607,3772;0,0628131
1608,3414;0,0627094
1609,3057;0,0626338
1610,2699;0,0626359
1611,2341;0,0627276
1612,1984;0,0628717
1613,1626;0,0630037
1614,1268;0,0630622
1615,0911;0,0630191
1616,0553;0,062916
1617,0195;0,0628641
1617,9838;0,0629525
1618,9480;0,0631617
1619,9122;0,0633972
1620,8765;0,0635693
1621,8407;0,0636338
1622,8049;0,0636025
1623,7692;0,0635308
1624,7334;0,0634758
1625,6976;0,063454
1626,6619;0,0634463
1627,6261;0,0634387
1628,5903;0,0634459
1629,5546;0,0634942
1630,5188;0,0635865
1631,4830;0,063688
1632,4473;0,0637368
1633,4115;0,0636585
1634,3757;0,0633851
1635,3400;0,0629247
1636,3042;0,0624427
1637,2684;0,0621451
1638,2327;0,0620707
1639,1969;0,0621243
1640,1611;0,0622127
1641,1254;0,0622906
1642,0896;0,062341
1643,0538;0,0623441
1644,0181;0,0622557
1644,9823;0,0620152
1645,9465;0,0616125
1646,9108;0,0611734
1647,8750;0,0608755
1648,8392;0,0607518
1649,8035;0,0606682
1650,7677;0,0604102
1651,7319;0,0597273
1652,6962;0,0584906
1653,6604;0,0570881
1654,6246;0,0561969
1655,5889;0,0559258
1656,5531;0,0559401
1657,5173;0,0559515
1658,4816;0,0558203
1659,4458;0,0554943
1660,4100;0,0549668
1661,3743;0,0542841
1662,3385;0,0535671
1663,3027;0,0529636
1664,2670;0,0525437
1665,2312;0,0522622
1666,1954;0,0520063
1667,1597;0,0516501
1668,1239;0,0511017
1669,0881;0,0503692
1670,0524;0,0495925
1671,0166;0,0489352
1671,9808;0,0484306
1672,9451;0,0479825
1673,9093;0,0474828
1674,8735;0,046912
1675,8378;0,0463648
1676,8020;0,0459722
1677,7662;0,0457845
1678,7305;0,045741
1679,6947;0,0457247
1680,6589;0,0456077
1681,6232;0,0452586
1682,5874;0,0445695
1683,5516;0,0435925
1684,5159;0,042646
1685,4801;0,0420416
1686,4443;0,0417815
1687,4086;0,0416865
1688,3728;0,0416098
1689,3370;0,0414965
1690,3013;0,0413575
1691,2655;0,0412252
1692,2297;0,0411224
1693,1940;0,0410511
1694,1582;0,0409951
1695,1224;0,0409231
1696,0867;0,0407908
1697,0509;0,0405523
1698,0151;0,0401929
1698,9794;0,0397726
1699,9436;0,039423
1700,9078;0,0392628
1701,8721;0,0393107
1702,8363;0,0394897
1703,8005;0,0396954
1704,7648;0,0398552
1705,7290;0,0399563
1706,6932;0,0400433
1707,6575;0,0401821
1708,6217;0,0404139
1709,5859;0,0407376
1710,5502;0,0411263
1711,5144;0,0415482
1712,4786;0,0419729
1713,4429;0,042364
1714,4071;0,0426674
1715,3713;0,0428129
1716,3356;0,0427657
1717,2998;0,0426171
1718,2640;0,0425528
1719,2283;0,0426759
1720,1925;0,0429471
1721,1567;0,0432732
1722,1210;0,0435806
1723,0852;0,0438351
1724,0494;0,0440375
1725,0137;0,044212
1725,9779;0,0443904
1726,9421;0,0445941
1727,9064;0,044823
1728,8706;0,0450514
1729,8348;0,0452286
1730,7991;0,0452803
1731,7633;0,0451224
1732,7275;0,0447204
1733,6918;0,0441797
1734,6560;0,0437142
1735,6202;0,0434501
1736,5845;0,0433354
1737,5487;0,0432364
1738,5129;0,0430437
1739,4772;0,0427169
1740,4414;0,0422915
1741,4056;0,0418491
1742,3699;0,0414572
1743,3341;0,0411277
1744,2983;0,0408266
1745,2626;0,0405076
1746,2268;0,0401272
1747,1910;0,0396416
1748,1553;0,0390126
1749,1195;0,0382486
1750,0837;0,0374453
1751,0480;0,0367441
1752,0122;0,0362239
1752,9764;0,0358582
1753,9407;0,0355614
1754,9049;0,0352534
1755,8691;0,0348961
1756,8334;0,0344971
1757,7976;0,0340848
1758,7618;0,0336754
1759,7261;0,0332609
1760,6903;0,0328314
1761,6545;0,0324051
1762,6188;0,0320296
1763,5830;0,0317458
1764,5472;0,0315559
1765,5115;0,0314262
1766,4757;0,0313133
1767,4399;0,031185
1768,4042;0,0310229
1769,3684;0,0308124
1770,3326;0,0305362
1771,2969;0,0301917
1772,2611;0,029824
1773,2253;0,029521
1774,1896;0,0293484
1775,1538;0,0293011
1776,1180;0,0293215
1777,0823;0,0293432
1778,0465;0,0293209
1779,0107;0,0292401
1779,9750;0,0291132
1780,9392;0,0289645
1781,9034;0,0288133
1782,8677;0,02867
1783,8319;0,0285471
1784,7961;0,0284674
1785,7604;0,0284541
1786,7246;0,0285106
1787,6888;0,0286114
1788,6531;0,0287093
1789,6173;0,0287517
1790,5815;0,0286995
1791,5458;0,0285546
1792,5100;0,028377
1793,4742;0,0282509
1794,4385;0,0282151
1795,4027;0,028244
1796,3669;0,0282835
1797,3312;0,0282883
1798,2954;0,0282369
1799,2596;0,0281345
1800,2239;0,0280085
1801,1881;0,0278957
1802,1523;0,0278243
1803,1166;0,027803
1804,0808;0,0278236
1805,0450;0,0278692
1806,0093;0,0279191
1806,9735;0,0279523
1807,9377;0,0279493
1808,9020;0,0278997
1809,8662;0,0278097
1810,8304;0,0277035
1811,7947;0,0276119
1812,7589;0,0275528
1813,7231;0,0275234
1814,6874;0,0275075
1815,6516;0,0274907
1816,6158;0,0274729
1817,5801;0,0274698
1818,5443;0,0275011
1819,5085;0,0275724
1820,4728;0,0276667
1821,4370;0,0277523
1822,4012;0,027801
1823,3655;0,0278049
1824,3297;0,0277817
1825,2939;0,0277598
1826,2582;0,0277524
1827,2224;0,0277432
1828,1866;0,0276992
1829,1509;0,0276032
1830,1151;0,0274809
1831,0793;0,027389
1832,0436;0,0273686
1833,0078;0,0274139
1833,9720;0,0274838
1834,9363;0,027535
1835,9005;0,0275494
1836,8647;0,0275446
1837,8290;0,0275594
1838,7932;0,0276211
1839,7574;0,0277232
1840,7217;0,0278288
1841,6859;0,0278893
1842,6501;0,0278677
1843,6144;0,027762
1844,5786;0,0276173
1845,5428;0,0274975
1846,5071;0,0274354
1847,4713;0,0274181
1848,4355;0,0274142
1849,3998;0,0274024
1850,3640;0,027381
1851,3282;0,0273617
1852,2925;0,0273573
1853,2567;0,0273721
1854,2209;0,027401
1855,1852;0,0274346
1856,1494;0,0274648
1857,1136;0,0274871
1858,0779;0,0275006
1859,0421;0,0275082
1860,0063;0,0275188
1860,9706;0,0275459
1861,9348;0,0276025
1862,8990;0,0276917
1863,8633;0,0278018
1864,8275;0,0279071
1865,7917;0,0279745
1866,7560;0,0279745
1867,7202;0,0278974
1868,6844;0,027768
1869,6487;0,027635
1870,6129;0,0275362
1871,5771;0,0274773
1872,5414;0,0274427
1873,5056;0,027417
1874,4698;0,027397
1875,4341;0,0273897
1876,3983;0,0274034
1877,3625;0,0274382
1878,3268;0,0274853
1879,2910;0,0275322
1880,2552;0,0275701
1881,2195;0,0275963
1882,1837;0,0276105
1883,1479;0,027611
1884,1122;0,0275936
1885,0764;0,0275562
1886,0406;0,0275046
1887,0049;0,0274555
1887,9691;0,0274318
1888,9333;0,0274491
1889,8976;0,0275029
1890,8618;0,0275667
1891,8260;0,0276071
1892,7903;0,0276039
1893,7545;0,0275624
1894,7188;0,0275123
1895,6830;0,0274925
1896,6472;0,027529
1897,6115;0,0276172
1898,5757;0,0277238
1899,5399;0,0278048
1900,5042;0,0278289
1901,4684;0,0277922
1902,4326;0,0277198
1903,3969;0,0276526
1904,3611;0,0276269
1905,3253;0,0276563
1906,2896;0,0277271
1907,2538;0,0278052
1908,2180;0,0278516
1909,1823;0,0278416
1910,1465;0,0277785
1911,1107;0,0276913
1912,0750;0,0276177
1913,0392;0,027583
1914,0034;0,0275906
1914,9677;0,0276238
1915,9319;0,0276544
1916,8961;0,0276569
1917,8604;0,0276237
1918,8246;0,0275706
1919,7888;0,0275268
1920,7531;0,0275175
1921,7173;0,0275521
1922,6815;0,0276214
1923,6458;0,0277018
1924,6100;0,0277647
1925,5742;0,0277887
1926,5385;0,0277681
1927,5027;0,0277137
1928,4669;0,0276469
1929,4312;0,0275904
1930,3954;0,0275588
1931,3596;0,0275535
1932,3239;0,027566
1933,2881;0,0275873
1934,2523;0,0276145
1935,2166;0,0276489
1936,1808;0,0276876
1937,1450;0,0277165
1938,1093;0,0277156
1939,0735;0,0276727
1940,0377;0,027599
1941,0020;0,027531
1941,9662;0,0275139
1942,9304;0,0275678
1943,8947;0,0276669
1944,8589;0,0277537
1945,8231;0,0277784
1946,7874;0,0277297
1947,7516;0,0276372
1948,7158;0,0275476
1949,6801;0,027492
1950,6443;0,0274666
1951,6085;0,0274403
1952,5728;0,0273841
1953,5370;0,0272979
1954,5012;0,0272133
1955,4655;0,0271704
1956,4297;0,0271875
1957,3939;0,0272477
1958,3582;0,0273133
1959,3224;0,0273547
1960,2866;0,0273714
1961,2509;0,0273859
1962,2151;0,0274174
1963,1793;0,0274587
1964,1436;0,0274772
1965,1078;0,0274404
1966,0720;0,0273462
1967,0363;0,0272318
1968,0005;0,02715
1968,9647;0,0271266
1969,9290;0,0271377
1970,8932;0,0271275
1971,8574;0,027052
1972,8217;0,0269178
1973,7859;0,0267908
1974,7501;0,0267641
1975,7144;0,0269007
1976,6786;0,0271874
1977,6428;0,0275357
1978,6071;0,0278322
1979,5713;0,0279982
1980,5355;0,0280145
1981,4998;0,0279064
1982,4640;0,0277167
1983,4282;0,0274893
1984,3925;0,027268
1985,3567;0,0270984
1986,3209;0,0270236
1987,2852;0,0270703
1988,2494;0,0272344
1989,2136;0,0274735
1990,1779;0,0277131
1991,1421;0,0278686
1992,1063;0,0278803
1993,0706;0,0277436
1994,0348;0,0275141
1994,9990;0,0272834
1995,9633;0,0271404
1996,9275;0,0271368
1997,8917;0,0272676
1998,8560;0,0274742
1999,8202;0,0276743
2000,7844;0,0278047
2001,7487;0,0278542
2002,7129;0,0278622
2003,6771;0,0278889
2004,6414;0,0279719
2005,6056;0,0280977
2006,5698;0,0282031
2007,5341;0,0282109
2008,4983;0,0280776
2009,4625;0,0278222
2010,4268;0,0275171
2011,3910;0,0272508
2012,3552;0,0270883
2013,3195;0,0270486
2014,2837;0,0271081
2015,2479;0,027223
2016,2122;0,027355
2017,1764;0,0274839
2018,1406;0,0275961
2019,1049;0,0276653
2020,0691;0,0276502
2021,0333;0,0275204
2021,9976;0,0272936
2022,9618;0,0270494
2023,9260;0,0268963
2024,8903;0,0269043
2025,8545;0,0270509
2026,8187;0,0272301
2027,7830;0,0273268
2028,7472;0,027307
2029,7114;0,0272531
2030,6757;0,027313
2031,6399;0,0275931
2032,6041;0,0280716
2033,5684;0,028597
2034,5326;0,0289779
2035,4968;0,0290983
2036,4611;0,0289776
2037,4253;0,0287435
2038,3895;0,0285509
2039,3538;0,0285028
2040,3180;0,0286119
2041,2822;0,0288079
2042,2465;0,0289836
2043,2107;0,0290498
2044,1749;0,028976
2045,1392;0,028798
2046,1034;0,0285971
2047,0676;0,0284606
2048,0320;0,0284419
2048,9961;0,0285399
2049,9604;0,0287091
2050,9246;0,0288882
2051,8889;0,0290251
2052,8530;0,0290897
2053,8174;0,029077
2054,7815;0,0290063
2055,7458;0,0289158
2056,7100;0,0288503
2057,6743;0,0288431
2058,6384;0,0289022
2059,6028;0,0290079
2060,5669;0,0291255
2061,5313;0,0292236
2062,4954;0,0292881
2063,4597;0,0293236
2064,4238;0,0293427
2065,3882;0,0293523
2066,3523;0,0293472
2067,3167;0,0293148
2068,2808;0,0292459
2069,2451;0,0291444
2070,2092;0,0290308
2071,1736;0,0289365
2072,1377;0,028894
2073,1021;0,0289239
2074,0662;0,0290256
2075,0305;0,0291753
2075,9946;0,0293337
2076,9590;0,0294597
2077,9231;0,0295259
2078,8875;0,0295268
2079,8516;0,029477
2080,8159;0,0294012
2081,7800;0,0293221
2082,7444;0,0292534
2083,7085;0,0291999
2084,6729;0,0291633
2085,6370;0,0291483
2086,6013;0,0291636
2087,5654;0,0292166
2088,5298;0,0293054
2089,4939;0,0294135
2090,4583;0,0295128
2091,4224;0,0295747
2092,3867;0,0295829
2093,3508;0,0295408
2094,3152;0,0294692
2095,2793;0,0293934
2096,2437;0,0293313
2097,2078;0,029288
2098,1721;0,0292609
2099,1362;0,0292489
2100,1006;0,0292559
2101,0647;0,0292852
2102,0291;0,0293325
2102,9932;0,0293831
2103,9575;0,0294195
2104,9216;0,029433
2105,8860;0,0294309
2106,8501;0,0294316
2107,8145;0,0294511
2108,7786;0,0294905
2109,7429;0,0295335
2110,7070;0,0295559
2111,6714;0,0295412
2112,6355;0,0294913
2113,5999;0,0294253
2114,5640;0,029369
2115,5283;0,0293418
2116,4924;0,0293484
2117,4568;0,0293784
2118,4209;0,0294138
2119,3853;0,029437
2120,3494;0,0294363
2121,3137;0,0294079
2122,2778;0,0293561
2123,2422;0,029293
2124,2063;0,0292383
2125,1707;0,029215
2126,1348;0,0292404
2127,0991;0,0293146
2128,0632;0,0294145
2129,0276;0,0294996
2129,9917;0,0295303
2130,9561;0,0294894
2131,9202;0,0293943
2132,8845;0,0292906
2133,8486;0,0292299
2134,8130;0,0292439
2135,7771;0,0293318
2136,7415;0,0294657
2137,7056;0,0296077
2138,6699;0,0297225
2139,6340;0,0297809
2140,5984;0,0297617
2141,5625;0,0296596
2142,5269;0,0294986
2143,4910;0,0293345
2144,4553;0,0292379
2145,4194;0,0292595
2146,3838;0,0294018
2147,3479;0,0296185
2148,3123;0,0298472
2149,2764;0,0300497
2150,2407;0,0302295
2151,2048;0,03041
2152,1692;0,0305926
2153,1333;0,03073
2154,0977;0,0307402
2155,0618;0,0305575
2156,0261;0,0301902
2156,9902;0,029744
2157,9546;0,0293773
2158,9187;0,0292014
2159,8831;0,0292056
2160,8472;0,0292843
2161,8115;0,0293364
2162,7756;0,0293347
2163,7400;0,0293205
2164,7041;0,0293493
2165,6685;0,0294384
2166,6326;0,0295503
2167,5969;0,0296209
2168,5610;0,0296079
2169,5254;0,0295257
2170,4895;0,0294433
2171,4539;0,0294464
2172,4180;0,0295861
2173,3823;0,02984
2174,3464;0,0301107
2175,3108;0,0302686
2176,2749;0,0302176
2177,2393;0,0299473
2178,2034;0,029541
2179,1677;0,029137
2180,1318;0,0288669
2181,0962;0,0288001
2182,0603;0,0289217
2183,0247;0,0291543
2183,9888;0,0294074
2184,9531;0,0296227
2185,9172;0,0297877
2186,8816;0,0299178
2187,8457;0,0300261
2188,8101;0,0301056
2189,7742;0,0301336
2190,7385;0,0300915
2191,7026;0,0299858
2192,6670;0,0298537
2193,6311;0,0297518
2194,5955;0,0297318
2195,5596;0,0298167
2196,5239;0,029987
2197,4880;0,0301841
2198,4524;0,0303281
2199,4165;0,0303479
2200,3809;0,0302113
2201,3450;0,0299437
2202,3093;0,0296253
2203,2734;0,0293623
2204,2378;0,0292438
2205,2019;0,0293039
2206,1663;0,0295073
2207,1304;0,0297676
2208,0947;0,0299869
2209,0588;0,0300979
2210,0232;0,0300863
2210,9873;0,0299874
2211,9517;0,0298628
2212,9158;0,0297709
2213,8801;0,0297465
2214,8442;0,0297938
2215,8086;0,0298927
2216,7727;0,0300108
2217,7371;0,0301151
2218,7012;0,0301796
2219,6655;0,0301883
2220,6296;0,0301361
2221,5940;0,0300296
2222,5581;0,0298876
2223,5225;0,0297403
2224,4866;0,0296236
2225,4509;0,0295676
2226,4150;0,0295849
2227,3794;0,0296637
2228,3435;0,0297721
2229,3079;0,0298711
2230,2720;0,0299299
2231,2363;0,0299361
2232,2004;0,0298953
2233,1648;0,0298245
2234,1289;0,029745
2235,0933;0,0296779
2236,0574;0,0296443
2237,0217;0,0296623
2237,9858;0,0297407
2238,9502;0,0298695
2239,9143;0,0300154
2240,8787;0,0301283
2241,8428;0,0301603
2242,8071;0,0300887
2243,7712;0,0299318
2244,7356;0,0297452
2245,6997;0,0295994
2246,6641;0,029548
2247,6282;0,0296039
2248,5925;0,0297357
2249,5566;0,0298868
2250,5210;0,0300044
2251,4851;0,0300619
2252,4495;0,0300649
2253,4136;0,030038
2254,3779;0,0300056
2255,3420;0,0299779
2256,3064;0,0299499
2257,2705;0,029911
2258,2349;0,0298567
2259,1990;0,0297952
2260,1633;0,0297451
2261,1274;0,0297273
2262,0918;0,0297558
2263,0559;0,02983
2264,0203;0,0299332
2264,9844;0,0300366
2265,9487;0,0301101
2266,9128;0,0301344
2267,8772;0,0301086
2268,8413;0,0300497
2269,8057;0,0299832
2270,7698;0,0299304
2271,7341;0,0299005
2272,6982;0,0298897
2273,6626;0,0298891
2274,6267;0,0298925
2275,5911;0,0299003
2276,5552;0,0299166
2277,5195;0,0299422
2278,4836;0,0299721
2279,4480;0,0299984
2280,4121;0,030017
2281,3765;0,0300334
2282,3406;0,0300611
2283,3049;0,0301136
2284,2690;0,0301944
2285,2334;0,0302931
2286,1975;0,0303897
2287,1619;0,0304648
2288,1260;0,0305098
2289,0903;0,03053
2290,0544;0,0305398
2291,0188;0,0305528
2291,9829;0,0305746
2292,9473;0,0306015
2293,9114;0,0306253
2294,8757;0,03064
2295,8398;0,0306448
2296,8042;0,0306441
2297,7683;0,0306439
2298,7327;0,0306491
2299,6968;0,0306621
2300,6611;0,0306842
2301,6252;0,0307159
2302,5896;0,030757
2303,5537;0,0308068
2304,5181;0,0308629
2305,4822;0,0309209
2306,4465;0,030973
2307,4106;0,0310067
2308,3750;0,0310068
2309,3391;0,0309609
2310,3035;0,0308686
2311,2676;0,0307485
2312,2319;0,0306358
2313,1960;0,0305693
2314,1604;0,030572
2315,1245;0,0306391
2316,0889;0,0307398
2317,0530;0,0308321
2318,0173;0,0308828
2318,9814;0,0308829
2319,9458;0,0308509
2320,9099;0,0308223
2321,8743;0,0308269
2322,8384;0,0308712
2323,8027;0,0309348
2324,7668;0,0309832
2325,7312;0,0309857
2326,6953;0,0309283
2327,6597;0,0308182
2328,6238;0,0306819
2329,5881;0,0305557
2330,5522;0,0304724
2331,5166;0,0304463
2332,4807;0,0304652
2333,4451;0,0304955
2334,4092;0,0304996
2335,3735;0,0304584
2336,3376;0,030385
2337,3020;0,0303218
2338,2661;0,0303153
2339,2305;0,03038
2340,1946;0,0304753
2341,1589;0,0305171
2342,1230;0,0304302
2343,0874;0,030224
2344,0515;0,0300314
2345,0159;0,0300266
2345,9800;0,0302779
2346,9443;0,0307033
2347,9084;0,03115
2348,8728;0,0314872
2349,8369;0,0316503
2350,8013;0,0316465
2351,7654;0,0315406
2352,7297;0,0314264
2353,6938;0,0313882
2354,6582;0,0314669
2355,6223;0,0316461
2356,5867;0,0318595
2357,5508;0,0320112
2358,5151;0,0320085
2359,4792;0,0318049
2360,4436;0,0314277
2361,4077;0,0309638
2362,3721;0,0305159
2363,3362;0,0301626
2364,3005;0,0299384
2365,2646;0,0298319
2366,2290;0,0297984
2367,1931;0,0297832
2368,1575;0,0297457
2369,1216;0,0296741
2370,0859;0,029583
2371,0500;0,029499
2372,0144;0,0294444
2372,9785;0,0294284
2373,9429;0,0294481
2374,9070;0,0294955
2375,8713;0,0295634
2376,8354;0,0296483
2377,7998;0,029749
2378,7639;0,0298631
2379,7283;0,0299853
2380,6924;0,0301074
2381,6567;0,0302206
2382,6208;0,0303181
2383,5852;0,0303963
2384,5493;0,0304555
2385,5137;0,0304986
2386,4778;0,0305305
2387,4421;0,0305575
2388,4063;0,0305854
2389,3706;0,0306171
2390,3347;0,0306505
2391,2991;0,0306777
2392,2632;0,0306894
2393,2275;0,0306804
2394,1917;0,0306552
2395,1560;0,030627
2396,1201;0,0306114
2397,0845;0,030618
2398,0486;0,0306445
2399,0129;0,0306789
2399,9771;0,0307074
2400,9414;0,0307235
2401,9055;0,0307313
2402,8699;0,0307419
2403,8340;0,0307646
2404,7983;0,0308007
2405,7625;0,0308419
2406,7268;0,0308751
2407,6909;0,0308902
2408,6553;0,0308849
2409,6194;0,030866
2410,5837;0,0308453
2411,5479;0,0308351
2412,5122;0,0308438
2413,4763;0,030873
2414,4407;0,0309171
2415,4048;0,030965
2416,3691;0,031003
2417,3333;0,0310202
2418,2976;0,0310132
2419,2617;0,0309883
2420,2261;0,0309599
2421,1902;0,0309434
2422,1545;0,0309482
2423,1187;0,0309727
2424,0830;0,0310058
2425,0471;0,0310336
2426,0115;0,0310481
2426,9756;0,0310519
2427,9399;0,0310564
2428,9041;0,0310747
2429,8684;0,0311138
2430,8325;0,0311703
2431,7969;0,0312326
2432,7610;0,0312867
2433,7253;0,0313224
2434,6895;0,0313359
2435,6538;0,0313303
2436,6179;0,0313135
2437,5823;0,0312958
2438,5464;0,0312875
2439,5107;0,031296
2440,4749;0,0313227
2441,4392;0,0313617
2442,4033;0,031402
2443,3677;0,0314323
2444,3318;0,0314465
2445,2961;0,0314464
2446,2603;0,0314405
2447,2246;0,0314383
2448,1887;0,031446
2449,1531;0,0314637
2450,1172;0,0314876
2451,0815;0,0315127
2452,0457;0,031536
2453,0100;0,0315573
2453,9741;0,0315775
2454,9385;0,0315964
2455,9026;0,0316122
2456,8669;0,0316217
2457,8311;0,0316223
2458,7954;0,0316136
2459,7595;0,0315987
2460,7239;0,0315841
2461,6880;0,0315777
2462,6523;0,0315864
2463,6165;0,0316126
2464,5808;0,0316514
2465,5449;0,0316912
2466,5093;0,0317176
2467,4734;0,0317206
2468,4377;0,0317013
2469,4019;0,0316729
2470,3662;0,0316545
2471,3303;0,0316607
2472,2947;0,0316926
2473,2588;0,0317371
2474,2231;0,0317756
2475,1873;0,0317957
2476,1516;0,0317987
2477,1157;0,0317976
2478,0801;0,031807
2479,0442;0,0318328
2480,0085;0,0318684
2480,9727;0,0318994
2481,9370;0,0319127
2482,9011;0,0319042
2483,8655;0,03188
2484,8296;0,0318532
2485,7939;0,0318376
2486,7581;0,0318413
2487,7224;0,0318634
2488,6865;0,0318932
2489,6509;0,0319155
2490,6150;0,031918
2491,5793;0,0319003
2492,5435;0,0318755
2493,5078;0,0318649
2494,4719;0,0318853
2495,4363;0,031938
2496,4004;0,0320073
2497,3647;0,0320684
2498,3289;0,0321009
2499,2932;0,0320986
2500,2573;0,0320693
2501,2217;0,0320289
2502,1858;0,0319919
2503,1501;0,0319675
2504,1143;0,0319593
2505,0786;0,0319668
2506,0427;0,0319873
2507,0071;0,0320156
2507,9712;0,0320446
2508,9355;0,0320678
2509,8997;0,0320822
2510,8640;0,0320897
2511,8281;0,032096
2512,7925;0,0321063
2513,7566;0,0321225
2514,7209;0,0321411
2515,6851;0,0321551
2516,6494;0,0321571
2517,6135;0,032144
2518,5779;0,0321202
2519,5420;0,0320971
2520,5063;0,0320889
2521,4705;0,0321059
2522,4348;0,0321478
2523,3989;0,0322033
2524,3633;0,0322544
2525,3274;0,032286
2526,2917;0,0322934
2527,2559;0,032284
2528,2202;0,0322726
2529,1843;0,0322728
2530,1487;0,0322892
2531,1128;0,0323158
2532,0771;0,0323394
2533,0413;0,0323475
2534,0056;0,0323353
2534,9697;0,0323089
2535,9341;0,0322823
2536,8982;0,0322705
2537,8625;0,0322814
2538,8267;0,0323124
2539,7910;0,0323526
2540,7551;0,0323897
2541,7195;0,0324165
2542,6836;0,0324326
2543,6479;0,0324422
2544,6121;0,032449
2545,5764;0,0324534
2546,5405;0,032454
2547,5049;0,0324502
2548,4690;0,0324441
2549,4333;0,032439
2550,3975;0,0324364
2551,3618;0,0324347
2552,3259;0,0324307
2553,2903;0,0324227
2554,2544;0,0324122
2555,2188;0,032403
2556,1829;0,032398
2557,1472;0,0323971
2558,1113;0,0323981
2559,0757;0,0323993
2560,0398;0,0324016
2561,0042;0,0324085
2561,9683;0,0324231
2562,9326;0,0324456
2563,8967;0,0324726
2564,8611;0,0324991
2565,8252;0,0325215
2566,7896;0,0325385
2567,7537;0,0325514
2568,7180;0,0325615
2569,6821;0,0325688
2570,6465;0,0325717
2571,6106;0,0325682
2572,5750;0,0325577
2573,5391;0,0325413
2574,5034;0,0325212
2575,4675;0,0324995
2576,4319;0,0324784
2577,3960;0,0324601
2578,3604;0,0324482
2579,3245;0,032447
2580,2888;0,0324599
2581,2529;0,032487
2582,2173;0,0325239
2583,1814;0,032563
2584,1458;0,0325967
2585,1099;0,0326208
2586,0742;0,0326356
2587,0383;0,0326455
2588,0027;0,0326549
2588,9668;0,0326664
2589,9312;0,0326796
2590,8953;0,0326923
2591,8596;0,0327024
2592,8237;0,0327087
2593,7881;0,032711
2594,7522;0,0327099
2595,7166;0,0327066
2596,6807;0,0327034
2597,6450;0,0327038
2598,6091;0,032711
2599,5735;0,0327265
2600,5376;0,0327484
2601,5020;0,0327726
2602,4661;0,0327948
2603,4304;0,032813
2604,3945;0,0328286
2605,3589;0,0328446
2606,3230;0,0328622
2607,2874;0,0328792
2608,2515;0,0328899
2609,2158;0,0328888
2610,1799;0,0328749
2611,1443;0,0328532
2612,1084;0,0328338
2613,0728;0,0328265
2614,0369;0,0328364
2615,0012;0,0328614
2615,9653;0,032894
2616,9297;0,0329253
2617,8938;0,0329504
2618,8582;0,0329699
2619,8223;0,0329889
2620,7866;0,0330126
2621,7507;0,0330427
2622,7151;0,0330761
2623,6792;0,0331064
2624,6436;0,0331277
2625,6077;0,0331373
2626,5720;0,0331374
2627,5361;0,0331336
2628,5005;0,0331323
2629,4646;0,0331386
2630,4290;0,0331548
2631,3931;0,0331803
2632,3574;0,0332118
2633,3215;0,0332441
2634,2859;0,0332711
2635,2500;0,0332879
2636,2144;0,033293
2637,1785;0,0332899
2638,1428;0,0332863
2639,1069;0,0332907
2640,0713;0,0333087
2641,0354;0,0333402
2641,9998;0,0333792
2642,9639;0,033417
2643,9282;0,0334459
2644,8923;0,0334628
2645,8567;0,0334692
2646,8208;0,03347
2647,7852;0,0334709
2648,7493;0,0334761
2649,7136;0,0334877
2650,6777;0,0335053
2651,6421;0,0335265
2652,6062;0,0335475
2653,5706;0,0335646
2654,5347;0,0335752
2655,4990;0,0335793
2656,4631;0,03358
2657,4275;0,0335821
2658,3916;0,0335901
2659,3560;0,0336062
2660,3201;0,0336293
2661,2844;0,033655
2662,2485;0,0336777
2663,2129;0,0336929
2664,1770;0,0336986
2665,1414;0,0336965
2666,1055;0,0336906
2667,0698;0,0336865
2668,0339;0,0336889
2668,9983;0,0336998
2669,9624;0,0337177
2670,9268;0,0337389
2671,8909;0,0337589
2672,8552;0,0337747
2673,8193;0,0337863
2674,7837;0,0337954
2675,7478;0,0338048
2676,7122;0,0338161
2677,6763;0,0338294
2678,6406;0,0338443
2679,6047;0,0338609
2680,5691;0,0338801
2681,5332;0,0339029
2682,4976;0,0339289
2683,4617;0,033956
2684,4260;0,0339811
2685,3901;0,0340014
2686,3545;0,0340163
2687,3186;0,0340272
2688,2830;0,0340372
2689,2471;0,0340493
2690,2114;0,0340659
2691,1755;0,0340883
2692,1399;0,0341167
2693,1040;0,0341502
2694,0684;0,0341856
2695,0325;0,0342182
2695,9968;0,0342426
2696,9609;0,0342549
2697,9253;0,0342548
2698,8894;0,0342466
2699,8538;0,0342382
2700,8179;0,0342385
2701,7822;0,0342538
2702,7463;0,0342854
2703,7107;0,0343285
2704,6748;0,0343745
2705,6392;0,0344142
2706,6033;0,0344423
2707,5676;0,0344594
2708,5317;0,0344711
2709,4961;0,0344844
2710,4602;0,0345038
2711,4246;0,034529
2712,3887;0,0345562
2713,3530;0,0345804
2714,3171;0,0345988
2715,2815;0,0346113
2716,2456;0,0346205
2717,2100;0,0346289
2718,1741;0,0346387
2719,1384;0,0346507
2720,1025;0,0346649
2721,0669;0,0346802
2722,0310;0,0346947
2722,9954;0,0347065
2723,9595;0,0347151
2724,9238;0,0347222
2725,8879;0,0347318
2726,8523;0,0347488
2727,8164;0,0347763
2728,7808;0,034814
2729,7449;0,034858
2730,7092;0,034902
2731,6733;0,0349395
2732,6377;0,0349658
2733,6018;0,0349788
2734,5662;0,0349798
2735,5303;0,0349734
2736,4946;0,0349658
2737,4587;0,0349633
2738,4231;0,0349698
2739,3872;0,0349865
2740,3516;0,0350118
2741,3157;0,0350433
2742,2800;0,0350782
2743,2441;0,0351131
2744,2085;0,035144
2745,1726;0,0351662
2746,1370;0,0351767
2747,1011;0,0351769
2748,0654;0,0351733
2749,0295;0,0351752
2749,9939;0,0351896
2750,9580;0,0352169
2751,9224;0,0352512
2752,8865;0,0352838
2753,8508;0,0353085
2754,8149;0,0353249
2755,7793;0,0353373
2756,7434;0,0353509
2757,7078;0,035368
2758,6719;0,0353871
2759,6362;0,0354052
2760,6003;0,0354203
2761,5647;0,0354335
2762,5288;0,0354479
2763,4932;0,0354665
2764,4573;0,0354903
2765,4216;0,035518
2766,3857;0,0355475
2767,3501;0,0355771
2768,3142;0,0356063
2769,2786;0,0356348
2770,2427;0,0356623
2771,2070;0,0356881
2772,1711;0,0357117
2773,1355;0,0357342
2774,0996;0,0357584
2775,0640;0,0357879
2776,0281;0,035824
2776,9924;0,0358652
2777,9565;0,0359068
2778,9209;0,0359437
2779,8850;0,0359734
2780,8494;0,0359978
2781,8135;0,036022
2782,7778;0,0360512
2783,7419;0,0360875
2784,7063;0,036128
2785,6704;0,0361668
2786,6348;0,0361977
2787,5989;0,0362179
2788,5632;0,0362301
2789,5273;0,0362416
2790,4917;0,0362614
2791,4558;0,0362964
2792,4202;0,0363481
2793,3843;0,0364118
2794,3486;0,0364786
2795,3127;0,0365392
2796,2771;0,0365886
2797,2412;0,0366275
2798,2056;0,0366613
2799,1697;0,0366964
2800,1340;0,0367373
2801,0981;0,0367849
2802,0625;0,0368379
2803,0266;0,0368948
2803,9910;0,0369546
2804,9551;0,0370173
2805,9194;0,0370817
2806,8835;0,0371452
2807,8479;0,0372047
2808,8120;0,0372574
2809,7764;0,0373033
2810,7405;0,037345
2811,7048;0,0373875
2812,6689;0,0374363
2813,6333;0,0374956
2814,5974;0,0375668
2815,5618;0,0376479
2816,5259;0,0377344
2817,4902;0,0378209
2818,4543;0,0379031
2819,4187;0,0379798
2820,3828;0,0380524
2821,3472;0,0381241
2822,3113;0,0381986
2823,2756;0,0382789
2824,2397;0,0383669
2825,2041;0,0384628
2826,1682;0,0385658
2827,1326;0,0386735
2828,0967;0,0387834
2829,0610;0,0388938
2830,0251;0,0390055
2830,9895;0,0391213
2831,9536;0,039245
2832,9180;0,0393786
2833,8821;0,0395205
2834,8464;0,0396655
2835,8105;0,0398082
2836,7749;0,0399463
2837,7390;0,040083
2838,7034;0,0402263
2839,6675;0,0403855
2840,6318;0,040566
2841,5959;0,0407669
2842,5603;0,0409806
2843,5244;0,0411969
2844,4888;0,0414063
2845,4529;0,0416025
2846,4172;0,0417816
2847,3813;0,0419399
2848,3457;0,0420723
2849,3098;0,0421735
2850,2742;0,0422406
2851,2383;0,0422752
2852,2026;0,0422843
2853,1667;0,0422771
2854,1311;0,0422627
2855,0952;0,0422472
2856,0596;0,042235
2857,0237;0,0422296
2857,9880;0,0422348
2858,9521;0,0422542
2859,9165;0,0422892
2860,8806;0,0423386
2861,8450;0,0424
2862,8091;0,0424718
2863,7734;0,0425548
2864,7375;0,0426507
2865,7019;0,0427593
2866,6660;0,0428757
2867,6304;0,0429904
2868,5945;0,043093
2869,5588;0,0431762
2870,5229;0,0432382
2871,4873;0,0432828
2872,4514;0,0433156
2873,4158;0,0433416
2874,3799;0,0433642
2875,3442;0,0433867
2876,3083;0,0434134
2877,2727;0,0434503
2878,2368;0,043502
2879,2012;0,0435695
2880,1653;0,0436479
2881,1296;0,0437281
2882,0938;0,0438002
2883,0581;0,0438574
2884,0222;0,043898
2884,9866;0,0439253
2885,9507;0,0439457
2886,9150;0,0439666
2887,8792;0,0439937
2888,8435;0,0440297
2889,8076;0,0440735
2890,7720;0,0441204
2891,7361;0,044164
2892,7004;0,0441993
2893,6646;0,0442259
2894,6289;0,0442484
2895,5930;0,0442748
2896,5574;0,0443129
2897,5215;0,0443654
2898,4858;0,0444283
2899,4500;0,0444922
2900,4143;0,044547
2901,3784;0,0445858
2902,3428;0,0446089
2903,3069;0,0446226
2904,2712;0,044637
2905,2354;0,0446614
2906,1997;0,0447014
2907,1638;0,044758
2908,1282;0,0448286
2909,0923;0,0449098
2910,0566;0,0449983
2911,0208;0,0450914
2911,9851;0,0451854
2912,9492;0,0452745
2913,9136;0,0453502
2914,8777;0,0454036
2915,8420;0,0454278
2916,8062;0,0454208
2917,7705;0,0453853
2918,7346;0,0453276
2919,6990;0,0452544
2920,6631;0,0451705
2921,6274;0,0450783
2922,5916;0,0449786
2923,5559;0,0448719
2924,5200;0,0447589
2925,4844;0,0446409
2926,4485;0,0445196
2927,4128;0,0443971
2928,3770;0,044277
2929,3413;0,0441638
2930,3054;0,0440614
2931,2698;0,0439712
2932,2339;0,0438914
2933,1982;0,0438174
2934,1624;0,0437445
2935,1267;0,0436702
2936,0908;0,0435944
2937,0552;0,0435178
2938,0193;0,04344
2938,9836;0,043358
2939,9478;0,043267
2940,9121;0,0431634
2941,8762;0,0430468
2942,8406;0,0429207
2943,8047;0,042792
2944,7690;0,0426681
2945,7332;0,0425548
2946,6975;0,0424543
2947,6616;0,0423641
2948,6260;0,0422787
2949,5901;0,0421916
2950,5544;0,042099
2951,5186;0,0420011
2952,4829;0,0419024
2953,4470;0,0418086
2954,4114;0,0417239
2955,3755;0,0416484
2956,3398;0,0415794
2957,3040;0,0415135
2958,2683;0,0414487
2959,2324;0,0413853
2960,1968;0,0413237
2961,1609;0,041263
2962,1252;0,0412002
2963,0894;0,0411322
2964,0537;0,0410578
2965,0178;0,0409789
2965,9822;0,0408994
2966,9463;0,0408219
2967,9106;0,0407463
2968,8748;0,0406699
2969,8391;0,0405898
2970,8032;0,0405067
2971,7676;0,0404258
2972,7317;0,0403551
2973,6960;0,0403007
2974,6602;0,0402623
2975,6245;0,0402316
2976,5886;0,0401958
2977,5530;0,0401437
2978,5171;0,0400726
2979,4814;0,0399896
2980,4456;0,0399087
2981,4099;0,0398437
2982,3740;0,0398016
2983,3384;0,0397805
2984,3025;0,0397719
2985,2668;0,0397655
2986,2310;0,0397538
2987,1953;0,0397336
2988,1594;0,0397058
2989,1238;0,0396736
2990,0879;0,0396418
2991,0522;0,0396154
2992,0164;0,0395989
2992,9807;0,0395946
2993,9448;0,0396016
2994,9092;0,0396163
2995,8733;0,0396345
2996,8376;0,0396534
2997,8018;0,039673
2998,7661;0,0396949
2999,7302;0,0397211
3000,6946;0,0397517
3001,6587;0,0397856
3002,6230;0,039821
3003,5872;0,039857
3004,5515;0,0398939
3005,5156;0,0399327
3006,4800;0,0399737
3007,4441;0,0400153
3008,4084;0,040054
3009,3726;0,0400852
3010,3369;0,0401058
3011,3010;0,040116
3012,2654;0,04012
3013,2295;0,0401247
3014,1938;0,040137
3015,1580;0,0401611
3016,1223;0,040198
3017,0864;0,0402464
3018,0508;0,0403043
3019,0149;0,0403699
3019,9792;0,0404401
3020,9434;0,04051
3021,9077;0,0405729
3022,8718;0,0406239
3023,8362;0,0406632
3024,8003;0,0406977
3025,7646;0,0407375
3026,7288;0,0407902
3027,6931;0,0408552
3028,6572;0,0409231
3029,6216;0,0409812
3030,5857;0,0410214
3031,5500;0,0410457
3032,5142;0,0410668
3033,4785;0,0411012
3034,4426;0,0411605
3035,4070;0,0412462
3036,3711;0,0413491
3037,3354;0,0414542
3038,2996;0,041547
3039,2639;0,0416185
3040,2280;0,0416683
3041,1924;0,0417031
3042,1565;0,0417343
3043,1208;0,0417734
3044,0850;0,0418283
3045,0493;0,0419011
3046,0134;0,0419878
3046,9778;0,0420818
3047,9419;0,0421771
3048,9063;0,0422709
3049,8704;0,0423634
3050,8347;0,0424559
3051,7988;0,0425474
3052,7632;0,0426344
3053,7273;0,0427125
3054,6917;0,0427801
3055,6558;0,0428398
3056,6201;0,0428981
3057,5842;0,042962
3058,5486;0,0430353
3059,5127;0,0431181
3060,4771;0,0432065
3061,4412;0,0432957
3062,4055;0,0433806
3063,3696;0,0434578
3064,3340;0,043526
3065,2981;0,0435869
3066,2625;0,0436449
3067,2266;0,0437047
3068,1909;0,0437685
3069,1550;0,0438337
3070,1194;0,0438951
3071,0835;0,0439481
3072,0479;0,0439932
3073,0120;0,0440368
3073,9763;0,0440877
3074,9404;0,0441512
3075,9048;0,0442262
3076,8689;0,0443049
3077,8333;0,0443783
3078,7974;0,0444414
3079,7617;0,0444953
3080,7258;0,0445462
3081,6902;0,0446012
3082,6543;0,0446647
3083,6187;0,0447366
3084,5828;0,0448132
3085,5471;0,0448891
3086,5112;0,04496
3087,4756;0,0450245
3088,4397;0,0450851
3089,4041;0,0451474
3090,3682;0,0452168
3091,3325;0,045296
3092,2966;0,0453822
3093,2610;0,0454685
3094,2251;0,0455472
3095,1895;0,0456132
3096,1536;0,0456669
3097,1179;0,045713
3098,0820;0,0457585
3099,0464;0,0458098
3100,0105;0,0458711
3100,9749;0,0459437
3101,9390;0,0460257
3102,9033;0,0461123
3103,8674;0,0461969
3104,8318;0,0462737
3105,7959;0,0463402
3106,7603;0,0463987
3107,7244;0,0464557
3108,6887;0,0465192
3109,6528;0,046595
3110,6172;0,0466841
3111,5813;0,046783
3112,5457;0,0468856
3113,5098;0,0469855
3114,4741;0,0470778
3115,4382;0,0471602
3116,4026;0,0472326
3117,3667;0,047297
3118,3311;0,047357
3119,2952;0,0474173
3120,2595;0,0474829
3121,2236;0,0475574
3122,1880;0,0476423
3123,1521;0,0477359
3124,1165;0,0478337
3125,0806;0,04793
3126,0449;0,0480203
3127,0090;0,0481032
3127,9734;0,0481811
3128,9375;0,048259
3129,9019;0,0483416
3130,8660;0,0484304
3131,8303;0,0485231
3132,7944;0,0486148
3133,7588;0,0487011
3134,7229;0,0487809
3135,6873;0,0488574
3136,6514;0,0489363
3137,6157;0,0490229
3138,5798;0,0491193
3139,5442;0,0492236
3140,5083;0,0493312
3141,4727;0,0494369
3142,4368;0,0495379
3143,4011;0,0496342
3144,3652;0,0497288
3145,3296;0,0498249
3146,2937;0,0499235
3147,2581;0,0500218
3148,2222;0,0501144
3149,1865;0,0501961
3150,1506;0,0502656
3151,1150;0,0503279
3152,0791;0,0503924
3153,0435;0,0504688
3154,0076;0,050562
3154,9719;0,0506707
3155,9360;0,0507893
3156,9004;0,0509116
3157,8645;0,051034
3158,8289;0,0511556
3159,7930;0,0512758
3160,7573;0,0513921
3161,7214;0,0515004
3162,6858;0,051598
3163,6499;0,0516857
3164,6143;0,0517692
3165,5784;0,0518553
3166,5427;0,051949
3167,5068;0,0520506
3168,4712;0,0521569
3169,4353;0,0522472
3170,3997;0,0523549
3171,3638;0,0524634
3172,3281;0,0525731
3173,2922;0,0526822
3174,2566;0,0527868
3175,2207;0,0528825
3176,1851;0,0529672
3177,1492;0,0530416
3178,1135;0,053109
3179,0776;0,053174
3180,0420;0,0532411
3181,0061;0,0533158
3181,9705;0,0534039
3182,9346;0,0535105
3183,8989;0,0536374
3184,8630;0,0537797
3185,8274;0,0539261
3186,7915;0,0540618
3187,7559;0,0541749
3188,7200;0,0542617
3189,6843;0,0543282
3190,6484;0,0543879
3191,6128;0,0544551
3192,5769;0,0545383
3193,5413;0,0546371
3194,5054;0,0547435
3195,4697;0,0548474
3196,4338;0,0549422
3197,3982;0,055028
3198,3623;0,0551095
3199,3267;0,0551916
3200,2908;0,0552756
3201,2551;0,0553582
3202,2192;0,0554347
3203,1836;0,0555035
3204,1477;0,0555688
3205,1121;0,0556404
3206,0762;0,0557287
3207,0405;0,0558397
3208,0046;0,0559707
3208,9690;0,0561099
3209,9331;0,0562407
3210,8975;0,0563484
3211,8616;0,0564265
3212,8259;0,0564793
3213,7900;0,0565197
3214,7544;0,0565623
3215,7185;0,0566177
3216,6829;0,0566892
3217,6470;0,056774
3218,6113;0,0568671
3219,5754;0,0569648
3220,5398;0,0570644
3221,5039;0,0571636
3222,4683;0,0572583
3223,4324;0,0573442
3224,3967;0,0574197
3225,3608;0,0574869
3226,3252;0,0575512
3227,2893;0,0576178
3228,2537;0,0576883
3229,2178;0,0577615
3230,1821;0,0578359
3231,1462;0,0579136
3232,1106;0,0579991
3233,0747;0,058096
3234,0391;0,0582015
3235,0032;0,0583057
3235,9675;0,0583965
3236,9316;0,0584678
3237,8960;0,0585244
3238,8601;0,0585799
3239,8245;0,0586485
3240,7886;0,0587353
3241,7529;0,0588333
3242,7170;0,0589275
3243,6814;0,0590057
3244,6455;0,0590673
3245,6099;0,0591246
3246,5740;0,0591955
3247,5383;0,059293
3248,5024;0,0594166
3249,4668;0,0595535
3250,4309;0,0596854
3251,3953;0,0597976
3252,3594;0,0598857
3253,3237;0,0599555
3254,2878;0,0600187
3255,2522;0,0600865
3256,2163;0,0601649
3257,1807;0,0602539
3258,1448;0,0603498
3259,1091;0,060447
3260,0732;0,0605412
3261,0376;0,0606298
3262,0017;0,0607125
3262,9661;0,0607913
3263,9302;0,0608695
3264,8945;0,0609501
3265,8586;0,061034
3266,8230;0,0611188
3267,7871;0,0611997
3268,7515;0,0612714
3269,7156;0,0613311
3270,6799;0,0613795
3271,6440;0,0614207
3272,6084;0,0614614
3273,5725;0,0615075
3274,5369;0,0615631
3275,5010;0,061628
3276,4653;0,0616979
3277,4294;0,0617647
3278,3938;0,061819
3279,3579;0,0618536
3280,3223;0,0618666
3281,2864;0,0618632
3282,2507;0,0618545
3283,2148;0,0618532
3284,1792;0,0618678
3285,1433;0,0618982
3286,1077;0,0619362
3287,0718;0,0619689
3288,0361;0,0619855
3289,0002;0,0619818
3289,9646;0,0619617
3290,9287;0,0619345
3291,8931;0,06191
3292,8572;0,061894
3293,8215;0,0618867
3294,7856;0,0618844
3295,7500;0,0618828
3296,7141;0,0618798
3297,6785;0,0618764
3298,6426;0,0618746
3299,6069;0,0618757
3300,5710;0,0618775
3301,5354;0,0618753
3302,4995;0,0618636
3303,4639;0,0618403
3304,4280;0,0618082
3305,3923;0,0617753
3306,3564;0,0617508
3307,3208;0,0617414
3308,2849;0,0617481
3309,2493;0,0617671
3310,2134;0,0617931
3311,1777;0,0618227
3312,1418;0,0618553
3313,1062;0,0618907
3314,0703;0,0619266
3315,0347;0,0619579
3315,9988;0,061979
3316,9631;0,0619887
3317,9272;0,0619918
3318,8916;0,0619978
3319,8557;0,0620153
3320,8201;0,0620473
3321,7842;0,0620898
3322,7485;0,0621352
3323,7126;0,0621775
3324,6770;0,0622156
3325,6411;0,0622531
3326,6055;0,0622943
3327,5696;0,0623395
3328,5339;0,0623837
3329,4980;0,0624182
3330,4624;0,0624347
3331,4265;0,0624302
3332,3909;0,0624079
3333,3550;0,0623767
3334,3193;0,0623467
3335,2834;0,0623248
3336,2478;0,0623118
3337,2119;0,0623018
3338,1763;0,062285
3339,1404;0,0622526
3340,1047;0,0622009
3341,0688;0,0621325
3342,0332;0,0620549
3342,9973;0,061977
3343,9617;0,0619043
3344,9258;0,0618376
3345,8901;0,061773
3346,8542;0,0617047
3347,8186;0,0616285
3348,7827;0,0615432
3349,7471;0,0614507
3350,7112;0,0613549
3351,6755;0,0612594
3352,6396;0,0611671
3353,6040;0,0610795
3354,5681;0,0609965
3355,5325;0,0609167
3356,4966;0,060838
3357,4609;0,0607582
3358,4250;0,0606761
3359,3894;0,0605914
3360,3535;0,0605034
3361,3179;0,0604101
3362,2820;0,0603081
3363,2463;0,060195
3364,2104;0,0600727
3365,1748;0,059949
3366,1389;0,0598353
3367,1033;0,0597404
3368,0674;0,0596659
3369,0317;0,0596042
3369,9958;0,0595437
3370,9602;0,0594755
3371,9243;0,0593979
3372,8887;0,0593163
3373,8528;0,0592375
3374,8171;0,0591643
3375,7813;0,0590927
3376,7456;0,0590148
3377,7097;0,0589234
3378,6741;0,0588167
3379,6382;0,0586982
3380,6025;0,0585746
3381,5667;0,0584536
3382,5310;0,0583418
3383,4951;0,0582446
3384,4595;0,0581656
3385,4236;0,0581046
3386,3879;0,0580557
3387,3521;0,0580086
3388,3164;0,0579517
3389,2805;0,0578781
3390,2449;0,0577886
3391,2090;0,0576917
3392,1733;0,0575978
3393,1375;0,0575136
3394,1018;0,0574379
3395,0659;0,0573635
3396,0303;0,0572818
3396,9944;0,0571883
3397,9587;0,0570838
3398,9229;0,0569738
3399,8872;0,0568648
3400,8513;0,0567622
3401,8157;0,0566688
3402,7798;0,0565848
3403,7441;0,0565076
3404,7083;0,0564315
3405,6726;0,0563493
3406,6367;0,0562542
3407,6011;0,0561435
3408,5652;0,0560199
3409,5295;0,0558919
3410,4937;0,055771
3411,4580;0,0556668
3412,4221;0,0555835
3413,3865;0,0555167
3414,3506;0,0554536
3415,3149;0,0553779
3416,2791;0,0552758
3417,2434;0,055143
3418,2075;0,0549878
3419,1719;0,0548289
3420,1360;0,0546872
3421,1003;0,0545751
3422,0645;0,0544901
3423,0288;0,0544168
3423,9929;0,0543352
3424,9573;0,054231
3425,9214;0,0541002
3426,8857;0,0539491
3427,8499;0,0537892
3428,8142;0,0536311
3429,7783;0,0534802
3430,7427;0,053336
3431,7068;0,0531949
3432,6711;0,0530553
3433,6353;0,05292
3434,5996;0,0527957
3435,5637;0,0526881
3436,5281;0,0525979
3437,4922;0,0525179
3438,4565;0,052437
3439,4207;0,0523451
3440,3850;0,0522382
3441,3491;0,0521181
3442,3135;0,0519881
3443,2776;0,0518482
3444,2419;0,0516944
3445,2061;0,051523
3446,1704;0,0513365
3447,1345;0,0511461
3448,0989;0,0509667
3449,0630;0,0508087
3450,0273;0,0506732
3450,9915;0,0505525
3451,9558;0,0504363
3452,9199;0,0503172
3453,8843;0,0501931
3454,8484;0,0500662
3455,8127;0,0499404
3456,7769;0,0498172
3457,7412;0,0496947
3458,7053;0,049568
3459,6697;0,049432
3460,6338;0,0492846
3461,5981;0,0491292
3462,5623;0,0489731
3463,5266;0,048824
3464,4907;0,048685
3465,4551;0,048553
3466,4192;0,048421
3467,3835;0,0482829
3468,3477;0,0481379
3469,3120;0,0479903
3470,2761;0,0478456
3471,2405;0,0477073
3472,2046;0,0475759
3473,1689;0,0474517
3474,1331;0,047337
3475,0974;0,0472347
3476,0615;0,0471441
3477,0259;0,047057
3477,9900;0,0469592
3478,9543;0,0468378
3479,9185;0,0466896
3480,8828;0,0465262
3481,8469;0,0463679
3482,8113;0,0462306
3483,7754;0,0461139
3484,7397;0,046001
3485,7039;0,0458699
3486,6682;0,0457084
3487,6323;0,0455243
3488,5967;0,0453422
3489,5608;0,0451889
3490,5251;0,045075
3491,4893;0,0449877
3492,4536;0,0448987
3493,4177;0,0447827
3494,3821;0,0446346
3495,3462;0,0444748
3496,3105;0,0443366
3497,2747;0,0442415
3498,2390;0,0441822
3499,2031;0,0441246
3500,1675;0,0440271
3501,1316;0,0438664
3502,0959;0,0436552
3503,0601;0,0434367
3504,0244;0,0432561
3504,9885;0,0431293
3505,9529;0,0430362
3506,9170;0,0429386
3507,8813;0,042806
3508,8455;0,0426332
3509,8098;0,0424421
3510,7739;0,0422656
3511,7383;0,0421256
3512,7024;0,0420229
3513,6667;0,0419426
3514,6309;0,0418675
3515,5952;0,0417885
3516,5593;0,041706
3517,5237;0,0416239
3518,4878;0,0415439
3519,4521;0,0414619
3520,4163;0,0413717
3521,3806;0,0412694
3522,3447;0,0411557
3523,3091;0,0410341
3524,2732;0,0409041
3525,2375;0,040759
3526,2017;0,0405887
3527,1660;0,0403899
3528,1301;0,0401741
3529,0945;0,0399652
3530,0586;0,0397881
3531,0229;0,0396531
3531,9871;0,0395506
3532,9514;0,0394567
3533,9155;0,0393472
3534,8799;0,0392112
3535,8440;0,0390594
3536,8083;0,0389206
3537,7725;0,0388259
3538,7368;0,0387908
3539,7009;0,038805
3540,6653;0,0388352
3541,6294;0,0388349
3542,5938;0,0387606
3543,5579;0,0385906
3544,5222;0,038342
3545,4863;0,0380692
3546,4507;0,0378333
3547,4148;0,0376638
3548,3792;0,0375439
3549,3433;0,0374309
3550,3076;0,0372874
3551,2717;0,0371072
3552,2361;0,0369209
3553,2002;0,0367751
3554,1646;0,0366982
3555,1287;0,036679
3556,0930;0,0366771
3557,0571;0,0366526
3558,0215;0,0365936
3558,9856;0,036527
3559,9500;0,0365012
3560,9141;0,036549
3561,8784;0,0366557
3562,8425;0,0367523
3563,8069;0,0367351
3564,7710;0,0365075
3565,7354;0,0360488
3566,6995;0,0354724
3567,6638;0,0349755
3568,6279;0,0346868
3569,5923;0,0345913
3570,5564;0,0345913
3571,5208;0,0345922
3572,4849;0,0345432
3573,4492;0,0344412
3574,4133;0,0343144
3575,3777;0,0341948
3576,3418;0,0340958
3577,3062;0,0340117
3578,2703;0,0339356
3579,2346;0,0338777
3580,1987;0,0338636
3581,1631;0,0339122
3582,1272;0,034011
3583,0916;0,034107
3584,0557;0,0341179
3585,0200;0,0339641
3585,9841;0,0336251
3586,9485;0,0331929
3587,9126;0,0328387
3588,8770;0,0326802
3589,8411;0,032701
3590,8054;0,0327974
3591,7695;0,0328608
3592,7339;0,0328279
3593,6980;0,0326996
3594,6624;0,0325295
3595,6265;0,0323773
3596,5908;0,0322585
3597,5549;0,0321384
3598,5193;0,0319755
3599,4834;0,0317703
3600,4478;0,0315773
3601,4119;0,0314667
3602,3762;0,0314672
3603,3403;0,0315441
3604,3047;0,031622
3605,2688;0,0316259
3606,2332;0,0315171
3607,1973;0,0313126
3608,1616;0,0310734
3609,1257;0,030862
3610,0901;0,0307058
3611,0542;0,0306017
3612,0186;0,0305413
3612,9827;0,0305233
3613,9470;0,0305394
3614,9111;0,0305538
3615,8755;0,030501
3616,8396;0,0303129
3617,8040;0,029971
3618,7681;0,0295557
3619,7324;0,0292306
3620,6965;0,0291364
3621,6609;0,0292964
3622,6250;0,0296261
3623,5894;0,0299987
3624,5535;0,0302857
3625,5178;0,0303635
3626,4819;0,030126
3627,4463;0,0295545
3628,4104;0,0288197
3629,3748;0,0282193
3630,3389;0,0279189
3631,3032;0,0278535
3632,2673;0,0278709
3633,2317;0,0278615
3634,1958;0,0277906
3635,1602;0,0276785
3636,1243;0,0275656
3637,0886;0,0274805
3638,0527;0,0274292
3639,0171;0,0274091
3639,9812;0,0274281
3640,9456;0,0275089
3641,9097;0,0276735
3642,8740;0,0279203
3643,8381;0,0282103
3644,8025;0,0284618
3645,7666;0,0285483
3646,7310;0,0283118
3647,6951;0,0276637
3648,6594;0,0267848
3649,6235;0,026098
3650,5879;0,0258483
3651,5520;0,025928
3652,5164;0,0261032
3653,4805;0,0261935
3654,4448;0,0261128
3655,4089;0,025875
3656,3733;0,0255794
3657,3374;0,0253465
3658,3018;0,0252326
3659,2659;0,0252115
3660,2302;0,0252306
3661,1943;0,0252695
3662,1587;0,0253525
3663,1228;0,0255168
3664,0872;0,0257657
3665,0513;0,0260481
3666,0156;0,0262766
3666,9797;0,0263681
3667,9441;0,0262971
3668,9082;0,026139
3669,8726;0,0260346
3670,8367;0,0260593
3671,8010;0,026144
3672,7651;0,0261326
3673,7295;0,0258905
3674,6936;0,0254107
3675,6580;0,0248695
3676,6221;0,0245058
3677,5864;0,0244069
3678,5505;0,0244877
3679,5149;0,0246319
3680,4790;0,0247857
3681,4434;0,0249594
3682,4075;0,0251858
3683,3718;0,0254743
3684,3359;0,0257867
3685,3003;0,026041
3686,2644;0,0261345
3687,2288;0,0259838
3688,1929;0,0255957
3689,1572;0,0251219
3690,1213;0,0247756
3691,0857;0,0246565
3692,0498;0,0247165
3693,0142;0,0248609
3693,9783;0,0250239
3694,9426;0,0251764
3695,9067;0,0253057
3696,8711;0,0253955
3697,8352;0,02542
3698,7996;0,025355
3699,7637;0,0252027
3700,7280;0,0250142
3701,6921;0,024884
3702,6565;0,0249003
3703,6206;0,0250909
3704,5850;0,0254135
3705,5491;0,0257861
3706,5134;0,0261145
3707,4775;0,0262979
3708,4419;0,0262345
3709,4060;0,0258637
3710,3704;0,0252572
3711,3345;0,0246509
3712,2988;0,0242894
3713,2629;0,0242464
3714,2273;0,0244391
3715,1914;0,0247422
3716,1558;0,0250559
3717,1199;0,0253206
3718,0842;0,0255125
3719,0483;0,0256354
3720,0127;0,025707
3720,9768;0,025742
3721,9412;0,025741
3722,9053;0,0256986
3723,8696;0,0256265
3724,8337;0,0255672
3725,7981;0,0255786
3726,7622;0,0256979
3727,7266;0,0259193
3728,6907;0,0262003
3729,6550;0,0264795
3730,6191;0,0266867
3731,5835;0,0267424
3732,5476;0,026568
3733,5120;0,0261369
3734,4761;0,0255583
3735,4404;0,0250764
3736,4045;0,0249016
3737,3689;0,0250607
3738,3330;0,0254312
3739,2974;0,0258501
3740,2615;0,0261729
3741,2258;0,0262908
3742,1899;0,0261563
3743,1543;0,0258423
3744,1184;0,0255633
3745,0828;0,0255287
3746,0469;0,0257426
3747,0112;0,026016
3747,9753;0,0261169
3748,9397;0,0258869
3749,9038;0,0253461
3750,8682;0,024756
3751,8323;0,0244396
3752,7966;0,0244837
3753,7607;0,0247368
3754,7251;0,0250015
3755,6892;0,0251441
3756,6536;0,0251144
3757,6177;0,0249488
3758,5820;0,0247549
3759,5461;0,0246488
3760,5105;0,0246802
3761,4746;0,024818
3762,4390;0,0249936
3763,4031;0,0251444
3764,3674;0,0252317
3765,3315;0,0252396
3766,2959;0,0251666
3767,2600;0,0250195
3768,2244;0,0248156
3769,1885;0,0245939
3770,1528;0,0244165
3771,1169;0,0243448
3772,0813;0,0244043
3773,0454;0,0245698
3774,0098;0,0247799
3774,9739;0,0249622
3775,9382;0,0250563
3776,9023;0,025035
3777,8667;0,0249223
3778,8308;0,0247874
3779,7952;0,0247015
3780,7593;0,0246887
3781,7236;0,0247212
3782,6877;0,0247505
3783,6521;0,0247409
3784,6162;0,0246856
3785,5806;0,0246054
3786,5447;0,0245359
3787,5090;0,0245098
3788,4731;0,0245455
3789,4375;0,0246416
3790,4016;0,0247797
3791,3660;0,0249323
3792,3301;0,0250763
3793,2944;0,0252067
3794,2585;0,0253398
3795,2229;0,0254993
3796,1870;0,0256863
3797,1514;0,0258586
3798,1155;0,0259404
3799,0798;0,025866
3800,0439;0,02564
3801,0083;0,0253636
3801,9724;0,0251658
3802,9368;0,0250866
3803,9009;0,0250488
3804,8652;0,0249416
3805,8293;0,0247218
3806,7937;0,0244675
3807,7578;0,024335
3808,7222;0,0244321
3809,6863;0,0247334
3810,6506;0,02512
3811,6147;0,0254637
3812,5791;0,0256817
3813,5432;0,0257609
3814,5076;0,0257633
3815,4717;0,0257848
3816,4360;0,0258657
3817,4001;0,0259401
3818,3645;0,0258851
3819,3286;0,0256254
3820,2930;0,0252175
3821,2571;0,0248354
3822,2214;0,0246356
3823,1855;0,024641
3824,1499;0,0247689
3825,1140;0,0249243
3826,0784;0,0250542
3827,0425;0,0251525
3828,0068;0,0252404
3828,9709;0,0253417
3829,9353;0,025468
3830,8994;0,025618
3831,8638;0,0257825
3832,8279;0,0259445
3833,7922;0,0260739
3834,7563;0,0261265
3835,7207;0,0260563
3836,6848;0,0258462
3837,6492;0,0255372
3838,6133;0,0252197
3839,5776;0,0249737
3840,5417;0,0248183
3841,5061;0,0247268
3842,4702;0,0246765
3843,4346;0,0246822
3844,3987;0,0247877
3845,3630;0,0250318
3846,3271;0,0254151
3847,2915;0,0258913
3848,2556;0,0263754
3849,2200;0,0267483
3850,1841;0,0268514
3851,1484;0,0265081
3852,1125;0,0256678
3853,0769;0,0246459
3854,0410;0,0239874
3855,0054;0,0239107
3855,9695;0,0242296
3856,9338;0,0246891
3857,8979;0,0251274
3858,8623;0,0254634
3859,8264;0,0256596
3860,7908;0,025709
3861,7549;0,0256441
3862,7192;0,0255414
3863,6833;0,0254903
3864,6477;0,0255352
3865,6118;0,0256491
3866,5762;0,0257606
3867,5403;0,0257965
3868,5046;0,0257128
3869,4688;0,0255136
3870,4331;0,025255
3871,3972;0,0250225
3872,3616;0,024889
3873,3257;0,0248832
3874,2900;0,0249873
3875,2542;0,0251534
3876,2185;0,0253234
3877,1826;0,0254486
3878,1470;0,0255056
3879,1111;0,0255056
3880,0754;0,0254829
3881,0396;0,0254626
3882,0039;0,025435
3882,9680;0,02537
3883,9324;0,0252607
3884,8965;0,0251497
3885,8608;0,0251014
3886,8250;0,0251421
3887,7893;0,0252285
3888,7534;0,0252761
3889,7178;0,0252191
3890,6819;0,0250679
3891,6462;0,0249218
3892,6104;0,0249021
3893,5747;0,0250537
3894,5388;0,0253236
3895,5032;0,0256176
3896,4673;0,0258563
3897,4316;0,0259969
3898,3958;0,0260317
3899,3601;0,025973
3900,3242;0,0258298
3901,2886;0,0256001
3902,2527;0,0252933
3903,2170;0,0249605
3904,1812;0,0246847
3905,1455;0,0245299
3906,1096;0,0245024
3907,0740;0,0245628
3908,0381;0,024663
3909,0024;0,0247726
3909,9666;0,0248852
3910,9309;0,0250076
3911,8950;0,025142
3912,8594;0,025273
3913,8235;0,0253683
3914,7878;0,0253946
3915,7520;0,0253418
3916,7163;0,0252397
3917,6804;0,0251469
3918,6448;0,0251121
3919,6089;0,0251387
3920,5732;0,025188
3921,5374;0,0252109
3922,5017;0,0251826
3923,4658;0,0251207
3924,4302;0,0250756
3925,3943;0,0250922
3926,3586;0,0251748
3927,3228;0,0252825
3928,2871;0,0253549
3929,2512;0,0253451
3930,2156;0,0252449
3931,1797;0,0250926
3932,1440;0,0249519
3933,1082;0,0248741
3934,0725;0,0248736
3935,0366;0,0249338
3936,0010;0,0250264
3936,9651;0,0251247
3937,9294;0,0252061
3938,8936;0,025253
3939,8579;0,025257
3940,8220;0,0252268
3941,7864;0,0251885
3942,7505;0,0251733
3943,7148;0,0251949
3944,6790;0,0252386
3945,6433;0,0252701
3946,6074;0,0252583
3947,5718;0,025195
3948,5359;0,0251009
3949,5002;0,0250124
3950,4644;0,0249573
3951,4287;0,0249393
3952,3928;0,0249433
3953,3572;0,0249527
3954,3213;0,0249616
3955,2856;0,0249747
3956,2498;0,0249984
3957,2141;0,0250313
3958,1782;0,0250629
3959,1426;0,0250806
3960,1067;0,0250786
3961,0710;0,0250614
3962,0352;0,0250393
3962,9995;0,0250209
3963,9636;0,0250087
3964,9280;0,0250012
3965,8921;0,0249979
3966,8564;0,0250026
3967,8206;0,0250204
3968,7849;0,0250508
3969,7490;0,0250834
3970,7134;0,0251006
3971,6775;0,0250868
3972,6418;0,0250402
3973,6060;0,0249762
3974,5703;0,0249218
3975,5344;0,0249013
3976,4988;0,0249229
3977,4629;0,0249748
3978,4272;0,0250322
3979,3914;0,025071
3980,3557;0,0250783
3981,3198;0,0250563
3982,2842;0,0250188
3983,2483;0,0249822
3984,2126;0,0249579
3985,1768;0,0249497
3986,1411;0,024955
3987,1052;0,0249694
3988,0696;0,0249893
3989,0337;0,0250121
3989,9980;0,0250358
3990,9622;0,0250572
3991,9265;0,0250729
3992,8906;0,0250805
3993,8550;0,0250805
3994,8191;0,0250768
3995,7834;0,0250743
3996,7476;0,0250757
3997,7119;0,0250804
3998,6760;0,0250849
3999,6404;0,025087
4000,6045;0,0250888

##### Extended Information
[Comments]
Sample name
Comment
Username
Division
Organization;UNIVERSIDAD INDUSTRIAL DE SANTANDER

[Detailed Information]
Creation date;1/04/2025 2:57 p.m.

Data array type;Linear data array
Horizontal axis;Wavenumber [cm-1]
Vertical axis;Abs
Start;399,193 cm-1
End;4000,6 cm-1
Data interval;0,964233 cm-1
Data points;3736    

[Measurement Information]
Model name;FT/IR-4X1typeA
Serial No.;A035162111

Accessory;ATR PRO 4X
Accessory S/N;A021162126
Incident angle;45 deg

Measurement date;1/04/2025 2:56 p.m.

Light source;Standard
Detector;TGS
Accumulation;40
Resolution;4 cm-1
Zero filling;On
Apodization;Cosine
Gain;Auto (8)
Aperture;Auto (7 mm)
Scan speed;Auto (2 mm/sec)
Filter;Auto (12800 Hz)

