TITLE;
DATA TYPE;INFRARED SPECTRUM
ORIGIN;JASCO
OWNER;
DATE;25/04/01
TIME;14:59:46
SPECTROMETER/DATA SYSTEM;
LOCALE;9226
RESOLUTION;
DELTAX;0,964233
XUNITS;1/CM
YUNITS;ABSORBANCE
FIRSTX;  399,1927
LASTX; 4000,6047
NPOINTS;    3736
FIRSTY;     0,16426
MAXY;     0,18182
MINY;     0,02310
XYDATA
399,1927;0,164256
400,1569;0,163342
401,1211;0,161827
402,0854;0,160209
403,0496;0,158887
404,0138;0,158131
404,9781;0,158062
405,9423;0,158598
406,9065;0,159485
407,8708;0,160418
408,8350;0,161193
409,7992;0,161774
410,7635;0,162228
411,7277;0,162626
412,6919;0,162979
413,6562;0,16326
414,6204;0,163483
415,5846;0,163746
416,5489;0,164209
417,5131;0,164983
418,4773;0,165902
419,4416;0,16648
420,4058;0,166345
421,3700;0,165601
422,3343;0,164641
423,2985;0,163848
424,2627;0,163461
425,2270;0,163551
426,1912;0,164019
427,1554;0,164664
428,1197;0,165292
429,0839;0,165784
430,0481;0,166104
431,0124;0,166254
431,9766;0,166255
432,9408;0,166135
433,9051;0,165943
434,8693;0,165761
435,8335;0,165693
436,7978;0,165831
437,7620;0,166214
438,7262;0,1668
439,6905;0,167465
440,6547;0,168024
441,6189;0,168279
442,5832;0,168091
443,5474;0,167466
444,5116;0,166562
445,4759;0,165605
446,4401;0,164774
447,4043;0,164147
448,3686;0,163724
449,3328;0,163474
450,2970;0,163368
451,2613;0,163382
452,2255;0,163486
453,1897;0,16364
454,1540;0,163799
455,1182;0,163916
456,0824;0,163945
457,0467;0,163844
458,0109;0,163589
458,9751;0,163213
459,9394;0,162798
460,9036;0,162436
461,8678;0,162178
462,8321;0,162018
463,7963;0,161911
464,7605;0,161811
465,7248;0,16171
466,6890;0,161663
467,6532;0,161749
468,6175;0,162012
469,5817;0,16242
470,5459;0,162864
471,5102;0,163203
472,4744;0,163344
473,4386;0,163293
474,4029;0,16313
475,3671;0,162934
476,3313;0,162742
477,2956;0,162558
478,2598;0,162386
479,2240;0,162251
480,1883;0,162182
481,1525;0,162195
482,1167;0,162279
483,0810;0,162411
484,0452;0,162575
485,0094;0,162775
485,9737;0,163022
486,9379;0,163316
487,9021;0,163634
488,8664;0,163933
489,8306;0,164168
490,7948;0,164301
491,7591;0,164309
492,7233;0,164193
493,6875;0,16397
494,6518;0,163682
495,6160;0,163386
496,5802;0,163156
497,5445;0,163066
498,5087;0,163176
499,4729;0,163505
500,4372;0,164013
501,4014;0,164594
502,3656;0,1651
503,3299;0,165406
504,2941;0,16546
505,2583;0,165304
506,2226;0,165036
507,1868;0,164771
508,1510;0,164598
509,1153;0,164556
510,0795;0,164635
511,0437;0,164794
512,0080;0,164986
512,9722;0,165179
513,9365;0,165358
514,9007;0,165528
515,8649;0,1657
516,8292;0,165886
517,7934;0,166075
518,7576;0,166234
519,7219;0,166323
520,6861;0,166316
521,6503;0,166211
522,6146;0,166023
523,5788;0,165763
524,5430;0,165432
525,5073;0,165033
526,4715;0,16458
527,4357;0,164108
528,4000;0,163663
529,3642;0,163281
530,3284;0,162969
531,2927;0,162721
532,2569;0,162524
533,2211;0,162377
534,1854;0,162282
535,1496;0,162222
536,1138;0,16215
537,0781;0,161997
538,0423;0,161715
539,0065;0,161321
539,9708;0,160903
540,9350;0,160583
541,8992;0,160449
542,8635;0,160508
543,8277;0,160682
544,7919;0,160863
545,7562;0,160974
546,7204;0,16101
547,6846;0,161021
548,6489;0,161063
549,6131;0,161154
550,5773;0,161268
551,5416;0,161367
552,5058;0,161438
553,4700;0,161499
554,4343;0,161583
555,3985;0,161697
556,3627;0,161813
557,3270;0,161875
558,2912;0,161824
559,2554;0,161626
560,2197;0,16128
561,1839;0,160815
562,1481;0,160273
563,1124;0,159703
564,0766;0,159143
565,0408;0,158622
566,0051;0,158151
566,9693;0,157725
567,9335;0,157329
568,8978;0,15695
569,8620;0,156579
570,8262;0,156223
571,7905;0,155895
572,7547;0,155617
573,7189;0,155409
574,6832;0,155277
575,6474;0,155206
576,6116;0,155155
577,5759;0,155073
578,5401;0,154921
579,5043;0,154696
580,4686;0,154427
581,4328;0,154164
582,3970;0,153949
583,3613;0,153796
584,3255;0,153693
585,2897;0,153614
586,2540;0,153536
587,2182;0,153451
588,1824;0,153359
589,1467;0,153265
590,1109;0,153173
591,0751;0,153087
592,0394;0,15301
593,0036;0,152942
593,9678;0,152876
594,9321;0,152789
595,8963;0,152654
596,8605;0,152444
597,8248;0,152147
598,7890;0,151772
599,7532;0,151348
600,7175;0,150915
601,6817;0,150507
602,6459;0,150138
603,6102;0,149803
604,5744;0,149482
605,5386;0,149155
606,5029;0,148812
607,4671;0,148456
608,4313;0,148094
609,3956;0,147733
610,3598;0,14737
611,3240;0,146998
612,2883;0,146613
613,2525;0,146214
614,2167;0,145801
615,1810;0,145363
616,1452;0,144879
617,1094;0,144328
618,0737;0,143702
619,0379;0,143018
620,0021;0,142305
620,9664;0,141584
621,9306;0,140863
622,8948;0,140144
623,8591;0,139438
624,8233;0,138757
625,7875;0,138177
626,7518;0,137721
627,7160;0,137383
628,6802;0,137118
629,6445;0,136872
630,6087;0,1366
631,5729;0,136278
632,5372;0,135909
633,5014;0,135508
634,4656;0,135104
635,4299;0,134725
636,3941;0,134397
637,3583;0,134129
638,3226;0,133907
639,2868;0,133696
640,2510;0,133463
641,2153;0,133189
642,1795;0,132888
643,1437;0,132583
644,1080;0,132294
645,0722;0,13201
646,0364;0,131706
647,0007;0,131357
647,9649;0,13097
648,9291;0,130582
649,8934;0,130238
650,8576;0,129962
651,8218;0,129745
652,7861;0,129561
653,7503;0,129389
654,7145;0,129229
655,6788;0,12909
656,6430;0,128977
657,6072;0,128881
658,5715;0,128788
659,5357;0,128689
660,4999;0,128566
661,4642;0,128383
662,4284;0,128064
663,3926;0,127511
664,3569;0,126646
665,3211;0,125483
666,2853;0,12419
667,2496;0,123071
668,2138;0,122378
669,1780;0,122122
670,1423;0,122122
671,1065;0,122118
672,0707;0,121871
673,0350;0,121268
673,9992;0,120346
674,9634;0,119244
675,9277;0,118116
676,8919;0,117059
677,8561;0,116085
678,8204;0,115171
679,7846;0,11431
680,7488;0,113521
681,7131;0,112833
682,6773;0,112247
683,6415;0,111734
684,6058;0,111258
685,5700;0,1108
686,5342;0,110362
687,4985;0,109954
688,4627;0,109584
689,4269;0,109248
690,3912;0,108934
691,3554;0,108634
692,3196;0,108337
693,2839;0,108037
694,2481;0,107735
695,2123;0,10744
696,1766;0,107167
697,1408;0,106919
698,1050;0,106682
699,0693;0,106427
700,0335;0,106132
700,9977;0,105789
701,9620;0,105417
702,9262;0,105043
703,8904;0,104677
704,8547;0,104317
705,8189;0,103943
706,7831;0,103537
707,7474;0,103098
708,7116;0,102645
709,6758;0,102209
710,6401;0,101813
711,6043;0,101463
712,5685;0,101145
713,5328;0,100833
714,4970;0,100498
715,4612;0,0997525
716,4255;0,0994066
717,3897;0,0990499
718,3539;0,0986766
719,3182;0,0982735
720,2824;0,0978292
721,2466;0,0973431
722,2109;0,0968281
723,1751;0,0963065
724,1393;0,0958009
725,1036;0,0953291
726,0678;0,0948997
727,0320;0,0945102
727,9963;0,0941456
728,9605;0,0937826
729,9247;0,0933976
730,8890;0,0929783
731,8532;0,0925304
732,8174;0,0920764
733,7817;0,0916464
734,7459;0,0912649
735,7101;0,0909413
736,6744;0,0906672
737,6386;0,0904228
738,6028;0,0901854
739,5671;0,0899371
740,5313;0,0896688
741,4955;0,0893788
742,4598;0,0890703
743,4240;0,088748
744,3882;0,0884167
745,3525;0,0880817
746,3167;0,0877492
747,2809;0,087427
748,2452;0,0871217
749,2094;0,0868371
750,1736;0,086572
751,1379;0,0863212
752,1021;0,0860776
753,0663;0,0858365
754,0306;0,0855969
754,9948;0,0853615
755,9590;0,0851334
756,9233;0,0849149
757,8875;0,0847057
758,8517;0,0845052
759,8160;0,0843141
760,7802;0,0841343
761,7444;0,0839674
762,7087;0,0838123
763,6729;0,0836658
764,6371;0,0835234
765,6014;0,0833831
766,5656;0,0832456
767,5298;0,0831129
768,4941;0,082987
769,4583;0,0828703
770,4225;0,0827693
771,3868;0,082697
772,3510;0,0826708
773,3152;0,0827045
774,2795;0,0827994
775,2437;0,0829403
776,2079;0,0830995
777,1722;0,0832455
778,1364;0,0833484
779,1006;0,0833787
780,0649;0,083302
781,0291;0,0830789
781,9933;0,0826747
782,9576;0,0820768
783,9218;0,0813085
784,8860;0,0804288
785,8503;0,0795168
786,8145;0,0786485
787,7787;0,0778775
788,7430;0,0772286
789,7072;0,0767022
790,6714;0,076284
791,6357;0,0759533
792,5999;0,075687
793,5641;0,0754622
794,5284;0,0752573
795,4926;0,0750549
796,4568;0,0748444
797,4211;0,0746242
798,3853;0,0744017
799,3495;0,0741908
800,3138;0,0740068
801,2780;0,07386
802,2422;0,0737502
803,2065;0,0736653
804,1707;0,0735856
805,1349;0,0734911
806,0992;0,0733707
807,0634;0,0732272
808,0276;0,0730763
808,9919;0,0729392
809,9561;0,0728326
810,9203;0,0727604
811,8846;0,0727117
812,8488;0,0726678
813,8130;0,0726135
814,7773;0,0725468
815,7415;0,0724783
816,7057;0,0724214
817,6700;0,0723789
818,6342;0,0723366
819,5984;0,0722698
820,5627;0,0721594
821,5269;0,0720048
822,4911;0,0718255
823,4554;0,0716488
824,4196;0,0714938
825,3839;0,0713626
826,3481;0,0712449
827,3123;0,0711305
828,2766;0,0710179
829,2408;0,0709133
830,2050;0,0708212
831,1693;0,0707352
832,1335;0,0706389
833,0977;0,0705149
834,0620;0,0703558
835,0262;0,0701692
835,9904;0,0699714
836,9547;0,0697763
837,9189;0,0695869
838,8831;0,0693948
839,8474;0,0691879
840,8116;0,0689607
841,7758;0,06872
842,7401;0,0684823
843,7043;0,0682666
844,6685;0,0680853
845,6328;0,0679391
846,5970;0,0678185
847,5612;0,0677099
848,5255;0,0676024
849,4897;0,0674923
850,4539;0,0673824
851,4182;0,0672783
852,3824;0,0671831
853,3466;0,0670959
854,3109;0,0670125
855,2751;0,0669293
856,2393;0,0668451
857,2036;0,0667619
858,1678;0,0666823
859,1320;0,0666073
860,0963;0,066536
861,0605;0,066467
862,0247;0,0664021
862,9890;0,0663473
863,9532;0,0663117
864,9174;0,0663044
865,8817;0,0663292
866,8459;0,0663833
867,8101;0,0664573
868,7744;0,0665388
869,7386;0,066616
870,7028;0,0666812
871,6671;0,0667326
872,6313;0,0667745
873,5955;0,0668164
874,5598;0,0668702
875,5240;0,0669461
876,4882;0,0670485
877,4525;0,0671746
878,4167;0,0673156
879,3809;0,0674634
880,3452;0,0676156
881,3094;0,067779
882,2736;0,0679686
883,2379;0,068202
884,2021;0,0684942
885,1663;0,0688535
886,1306;0,0692787
887,0948;0,06976
888,0590;0,0702808
889,0233;0,070822
889,9875;0,0713666
890,9517;0,0719037
891,9160;0,0724268
892,8802;0,0729288
893,8444;0,0733937
894,8087;0,0737929
895,7729;0,0740884
896,7371;0,0742431
897,7014;0,0742324
898,6656;0,0740527
899,6298;0,0737212
900,5941;0,0732698
901,5583;0,0727368
902,5225;0,0721592
903,4868;0,0715689
904,4510;0,0709898
905,4152;0,0704383
906,3795;0,0699256
907,3437;0,0694606
908,3079;0,0690541
909,2722;0,0687186
910,2364;0,0684658
911,2007;0,0683008
912,1649;0,0682176
913,1292;0,0681987
914,0934;0,0682199
915,0576;0,0682585
916,0219;0,0682997
916,9861;0,0683403
917,9503;0,0683872
918,9146;0,0684518
919,8788;0,0685436
920,8430;0,0686649
921,8073;0,0688097
922,7715;0,0689662
923,7357;0,0691225
924,7000;0,0692711
925,6642;0,0694117
926,6284;0,06955
927,5927;0,0696942
928,5569;0,069853
929,5211;0,0700336
930,4854;0,0702405
931,4496;0,0704745
932,4138;0,0707321
933,3781;0,0710073
934,3423;0,0712954
935,3065;0,0715978
936,2708;0,0719244
937,2350;0,0722894
938,1992;0,0727046
939,1635;0,0731724
940,1277;0,0736845
941,0919;0,0742274
942,0562;0,0747915
943,0204;0,0753775
943,9846;0,0759985
944,9489;0,0766748
945,9131;0,0774256
946,8773;0,0782615
947,8416;0,0791796
948,8058;0,0801645
949,7700;0,0811941
950,7343;0,0822477
951,6985;0,0833135
952,6627;0,0843911
953,6270;0,0854883
954,5912;0,0866126
955,5554;0,0877646
956,5197;0,0889354
957,4839;0,0901103
958,4481;0,0912753
959,4124;0,0924222
960,3766;0,0935512
961,3408;0,0946684
962,3051;0,0957835
963,2693;0,0969064
964,2335;0,0980441
965,1978;0,099197
966,1620;0,100357
967,1262;0,101511
968,0905;0,102646
969,0547;0,103758
970,0189;0,104863
970,9832;0,105988
971,9474;0,107167
972,9116;0,108428
973,8759;0,109784
974,8401;0,111239
975,8043;0,112788
976,7686;0,114425
977,7328;0,116146
978,6970;0,117942
979,6613;0,119794
980,6255;0,121666
981,5897;0,123512
982,5540;0,125277
983,5182;0,126914
984,4824;0,128393
985,4467;0,129707
986,4109;0,130872
987,3751;0,131913
988,3394;0,132854
989,3036;0,133712
990,2678;0,134496
991,2321;0,135216
992,1963;0,13589
993,1605;0,136541
994,1248;0,137189
995,0890;0,13785
996,0532;0,138524
997,0175;0,139209
997,9817;0,139905
998,9459;0,140617
999,9102;0,141359
1000,8744;0,142139
1001,8386;0,142961
1002,8029;0,143823
1003,7671;0,144721
1004,7313;0,145658
1005,6956;0,146645
1006,6598;0,1477
1007,6240;0,148844
1008,5883;0,150093
1009,5525;0,151458
1010,5167;0,152941
1011,4810;0,154526
1012,4452;0,156184
1013,4094;0,15788
1014,3737;0,159578
1015,3379;0,161257
1016,3021;0,162911
1017,2664;0,16454
1018,2306;0,166143
1019,1948;0,167708
1020,1591;0,169216
1021,1233;0,170649
1022,0875;0,172003
1023,0518;0,173288
1024,0160;0,174522
1024,9802;0,175723
1025,9445;0,176897
1026,9087;0,178033
1027,8729;0,179104
1028,8372;0,180069
1029,8014;0,180878
1030,7656;0,181472
1031,7299;0,181798
1032,6941;0,181819
1033,6583;0,181522
1034,6226;0,180926
1035,5868;0,180083
1036,5510;0,179065
1037,5153;0,17796
1038,4795;0,176853
1039,4437;0,175819
1040,4080;0,174914
1041,3722;0,174161
1042,3364;0,173553
1043,3007;0,173056
1044,2649;0,172616
1045,2291;0,172178
1046,1934;0,171695
1047,1576;0,171134
1048,1218;0,170472
1049,0861;0,169697
1050,0503;0,168797
1051,0145;0,167762
1051,9788;0,166588
1052,9430;0,165278
1053,9072;0,163849
1054,8715;0,162322
1055,8357;0,160711
1056,7999;0,159018
1057,7642;0,157223
1058,7284;0,155294
1059,6926;0,153209
1060,6569;0,150974
1061,6211;0,148631
1062,5853;0,146255
1063,5496;0,14393
1064,5138;0,141727
1065,4780;0,139691
1066,4423;0,137837
1067,4065;0,136164
1068,3707;0,134664
1069,3350;0,133325
1070,2992;0,132129
1071,2634;0,131049
1072,2277;0,130044
1073,1919;0,129067
1074,1561;0,128078
1075,1204;0,127046
1076,0846;0,125961
1077,0488;0,124831
1078,0131;0,123676
1078,9773;0,122528
1079,9415;0,121419
1080,9058;0,120381
1081,8700;0,119433
1082,8342;0,118587
1083,7985;0,117839
1084,7627;0,11717
1085,7269;0,11655
1086,6912;0,11595
1087,6554;0,115344
1088,6196;0,114729
1089,5839;0,114117
1090,5481;0,113536
1091,5123;0,113012
1092,4766;0,112555
1093,4408;0,112159
1094,4050;0,111805
1095,3693;0,111476
1096,3335;0,111167
1097,2977;0,110893
1098,2620;0,110672
1099,2262;0,110521
1100,1904;0,110439
1101,1547;0,110412
1102,1189;0,11041
1103,0831;0,110402
1104,0474;0,110363
1105,0116;0,110274
1105,9758;0,110122
1106,9401;0,109904
1107,9043;0,109617
1108,8685;0,10926
1109,8328;0,108826
1110,7970;0,108306
1111,7612;0,107688
1112,7255;0,106968
1113,6897;0,106151
1114,6539;0,105262
1115,6182;0,104341
1116,5824;0,103437
1117,5466;0,102591
1118,5109;0,101821
1119,4751;0,101121
1120,4393;0,100451
1121,4036;0,0997571
1122,3678;0,0989817
1123,3320;0,0980798
1124,2963;0,09703
1125,2605;0,0958363
1126,2247;0,094522
1127,1890;0,09312
1128,1532;0,0916633
1129,1174;0,090179
1130,0817;0,0886886
1131,0459;0,0872119
1132,0101;0,0857707
1132,9744;0,0843916
1133,9386;0,0831035
1134,9028;0,0819336
1135,8671;0,0809023
1136,8313;0,0800212
1137,7955;0,0792932
1138,7598;0,0787153
1139,7240;0,078281
1140,6882;0,0779813
1141,6525;0,0778046
1142,6167;0,0777357
1143,5809;0,0777578
1144,5452;0,0778553
1145,5094;0,0780172
1146,4736;0,0782383
1147,4379;0,0785163
1148,4021;0,0788468
1149,3663;0,0792202
1150,3306;0,0796205
1151,2948;0,0800287
1152,2590;0,0804273
1153,2233;0,080801
1154,1875;0,0811345
1155,1517;0,0814077
1156,1160;0,0815932
1157,0802;0,0816577
1158,0444;0,0815672
1159,0087;0,0812922
1159,9729;0,0808112
1160,9371;0,0801103
1161,9014;0,0791839
1162,8656;0,0780359
1163,8298;0,076684
1164,7941;0,0751621
1165,7583;0,0735202
1166,7225;0,0718187
1167,6868;0,0701203
1168,6510;0,0684805
1169,6152;0,0669407
1170,5795;0,065525
1171,5437;0,064241
1172,5079;0,0630843
1173,4722;0,0620456
1174,4364;0,0611163
1175,4006;0,0602916
1176,3649;0,05957
1177,3291;0,05895
1178,2933;0,0584263
1179,2576;0,0579888
1180,2218;0,057624
1181,1860;0,0573187
1182,1503;0,0570634
1183,1145;0,0568535
1184,0787;0,0566897
1185,0430;0,0565771
1186,0072;0,0565234
1186,9714;0,0565372
1187,9357;0,0566251
1188,8999;0,0567879
1189,8641;0,0570192
1190,8284;0,0573073
1191,7926;0,0576396
1192,7568;0,058009
1193,7211;0,0584164
1194,6853;0,0588685
1195,6495;0,0593709
1196,6138;0,059921
1197,5780;0,0605053
1198,5422;0,0611031
1199,5065;0,061589
1200,4707;0,062179
1201,4349;0,0627588
1202,3992;0,06334
1203,3634;0,0639332
1204,3276;0,0645401
1205,2919;0,0651519
1206,2561;0,0657541
1207,2203;0,0663366
1208,1846;0,0669005
1209,1488;0,0674593
1210,1130;0,068033
1211,0773;0,0686399
1212,0415;0,0692884
1213,0057;0,0699752
1213,9700;0,0706877
1214,9342;0,0714102
1215,8984;0,0721288
1216,8627;0,0728326
1217,8269;0,0735135
1218,7911;0,0741659
1219,7554;0,0747851
1220,7196;0,0753671
1221,6838;0,07591
1222,6481;0,0764147
1223,6123;0,0768846
1224,5765;0,0773251
1225,5408;0,0777411
1226,5050;0,0781358
1227,4692;0,0785093
1228,4335;0,0788592
1229,3977;0,079181
1230,3619;0,0794708
1231,3262;0,079726
1232,2904;0,079947
1233,2546;0,080137
1234,2189;0,0803011
1235,1831;0,0804452
1236,1473;0,0805737
1237,1116;0,080688
1238,0758;0,0807865
1239,0400;0,0808648
1240,0043;0,0809173
1240,9685;0,0809378
1241,9327;0,0809204
1242,8970;0,08086
1243,8612;0,0807526
1244,8254;0,0805965
1245,7897;0,080393
1246,7539;0,0801471
1247,7181;0,0798667
1248,6824;0,079561
1249,6466;0,0792393
1250,6108;0,0789088
1251,5751;0,0785752
1252,5393;0,0782418
1253,5035;0,0779095
1254,4678;0,0775765
1255,4320;0,0772368
1256,3962;0,0768818
1257,3605;0,0765022
1258,3247;0,0760921
1259,2889;0,0756512
1260,2532;0,0751855
1261,2174;0,0747034
1262,1816;0,0742115
1263,1459;0,0737107
1264,1101;0,0731966
1265,0743;0,0726614
1266,0386;0,0720968
1267,0028;0,0714965
1267,9670;0,0708576
1268,9313;0,0701823
1269,8955;0,0694795
1270,8597;0,0687638
1271,8240;0,0680518
1272,7882;0,0673565
1273,7524;0,0666836
1274,7167;0,0660318
1275,6809;0,0653972
1276,6451;0,0647791
1277,6094;0,0641814
1278,5736;0,0636102
1279,5378;0,0630705
1280,5021;0,0625627
1281,4663;0,0620842
1282,4305;0,0616328
1283,3948;0,0612092
1284,3590;0,0608174
1285,3232;0,0604627
1286,2875;0,06015
1287,2517;0,0598831
1288,2159;0,0596655
1289,1802;0,0594999
1290,1444;0,0593872
1291,1086;0,0593244
1292,0729;0,0593052
1293,0371;0,0593225
1294,0013;0,0593729
1294,9656;0,0594588
1295,9298;0,0595877
1296,8940;0,0597686
1297,8583;0,0600071
1298,8225;0,0603028
1299,7867;0,0606498
1300,7510;0,0610387
1301,7152;0,0614622
1302,6794;0,0619159
1303,6437;0,0623992
1304,6079;0,062915
1305,5721;0,0634668
1306,5364;0,0640566
1307,5006;0,0646853
1308,4648;0,0653534
1309,4291;0,0660624
1310,3933;0,0668111
1311,3575;0,0675897
1312,3218;0,068373
1313,2860;0,0691193
1314,2502;0,0697762
1315,2145;0,0702898
1316,1787;0,0706144
1317,1429;0,0707195
1318,1072;0,0705987
1319,0714;0,0702773
1320,0356;0,0698109
1320,9999;0,0692711
1321,9641;0,0687241
1322,9283;0,0682154
1323,8926;0,0677676
1324,8568;0,0673845
1325,8210;0,0670587
1326,7853;0,066777
1327,7495;0,0665248
1328,7137;0,0662886
1329,6780;0,0660573
1330,6422;0,0658226
1331,6064;0,0655795
1332,5707;0,0653247
1333,5349;0,0650566
1334,4991;0,0647719
1335,4634;0,0644627
1336,4276;0,0641166
1337,3918;0,0637211
1338,3561;0,0632755
1339,3203;0,0628049
1340,2845;0,0623581
1341,2488;0,0619816
1342,2130;0,0616938
1343,1772;0,061483
1344,1415;0,0613266
1345,1057;0,0612073
1346,0699;0,0611206
1347,0342;0,0610711
1347,9984;0,0610678
1348,9626;0,0611177
1349,9269;0,0612222
1350,8911;0,0613758
1351,8553;0,0615689
1352,8196;0,0617924
1353,7838;0,0620428
1354,7480;0,0623229
1355,7123;0,0626376
1356,6765;0,0629866
1357,6407;0,0633596
1358,6050;0,0637407
1359,5692;0,0641135
1360,5334;0,064465
1361,4977;0,0647855
1362,4619;0,0650744
1363,4261;0,065345
1364,3904;0,0656134
1365,3546;0,0658817
1366,3188;0,0661361
1367,2831;0,0663591
1368,2473;0,0665398
1369,2115;0,0666762
1370,1758;0,0667695
1371,1400;0,0668168
1372,1042;0,0668079
1373,0685;0,0667297
1374,0327;0,0665773
1374,9969;0,0663645
1375,9612;0,0661131
1376,9254;0,0658279
1377,8896;0,0654871
1378,8539;0,0650623
1379,8181;0,0645482
1380,7823;0,063976
1381,7466;0,0633945
1382,7108;0,062834
1383,6750;0,0622851
1384,6393;0,0617101
1385,6035;0,0610793
1386,5677;0,0604124
1387,5320;0,0597915
1388,4962;0,0593111
1389,4604;0,0590025
1390,4247;0,0588188
1391,3889;0,0586856
1392,3531;0,0585501
1393,3174;0,0583979
1394,2816;0,0582403
1395,2458;0,0580942
1396,2101;0,0579703
1397,1743;0,0578765
1398,1385;0,0578273
1399,1028;0,0578434
1400,0670;0,0579376
1401,0313;0,0581012
1401,9955;0,0583055
1402,9597;0,0585172
1403,9240;0,0587175
1404,8882;0,0589117
1405,8524;0,0591245
1406,8167;0,0593791
1407,7809;0,059679
1408,7451;0,0600085
1409,7094;0,0603523
1410,6736;0,06071
1411,6378;0,0610929
1412,6021;0,0615064
1413,5663;0,0619344
1414,5305;0,0623415
1415,4948;0,0626893
1416,4590;0,06295
1417,4232;0,0631108
1418,3875;0,0631854
1419,3517;0,0632287
1420,3159;0,0632994
1421,2802;0,0633949
1422,2444;0,0634526
1423,2086;0,0634099
1424,1729;0,0632479
1425,1371;0,0629883
1426,1013;0,0626571
1427,0656;0,0622551
1428,0298;0,0617616
1428,9940;0,0611721
1429,9583;0,0605328
1430,9225;0,0599226
1431,8867;0,0593875
1432,8510;0,0588985
1433,8152;0,0583742
1434,7794;0,0577413
1435,7437;0,0570044
1436,7079;0,0562924
1437,6721;0,055794
1438,6364;0,0555955
1439,6006;0,0556258
1440,5648;0,0557563
1441,5291;0,0559003
1442,4933;0,0560365
1443,4575;0,0561825
1444,4218;0,0563584
1445,3860;0,0565645
1446,3502;0,0567849
1447,3145;0,0570079
1448,2787;0,0572421
1449,2429;0,05751
1450,2072;0,0578176
1451,1714;0,0581333
1452,1356;0,0583971
1453,0999;0,05855
1454,0641;0,0585545
1455,0283;0,0583882
1455,9926;0,0580243
1456,9568;0,0575022
1457,9210;0,0570681
1458,8853;0,0569741
1459,8495;0,0571696
1460,8137;0,0574229
1461,7780;0,057531
1462,7422;0,0573754
1463,7064;0,0569192
1464,6707;0,0562301
1465,6349;0,0554819
1466,5991;0,0548383
1467,5634;0,0543225
1468,5276;0,0538318
1469,4918;0,0532325
1470,4561;0,0524158
1471,4203;0,0513191
1472,3845;0,0499755
1473,3488;0,048582
1474,3130;0,047411
1475,2772;0,0465887
1476,2415;0,0460535
1477,2057;0,045687
1478,1699;0,0454043
1479,1342;0,0451651
1480,0984;0,0449581
1481,0626;0,0447903
1482,0269;0,0446814
1482,9911;0,0446515
1483,9553;0,0447063
1484,9196;0,0448306
1485,8838;0,0449966
1486,8480;0,045173
1487,8123;0,0453307
1488,7765;0,0454625
1489,7407;0,0456209
1490,7050;0,0458931
1491,6692;0,0463074
1492,6334;0,0468145
1493,5977;0,0473506
1494,5619;0,0478868
1495,5261;0,0484318
1496,4904;0,0490097
1497,4546;0,049643
1498,4188;0,0503523
1499,3831;0,0511367
1500,3473;0,0519424
1501,3115;0,0526784
1502,2758;0,0532659
1503,2400;0,0536752
1504,2042;0,0539346
1505,1685;0,0540887
1506,1327;0,0540887
1507,0969;0,0538156
1508,0612;0,05341
1509,0254;0,0531661
1509,9896;0,0531137
1510,9539;0,053107
1511,9181;0,0530241
1512,8823;0,0528104
1513,8466;0,0524565
1514,8108;0,0519771
1515,7750;0,0514036
1516,7393;0,0507781
1517,7035;0,0501354
1518,6677;0,0494882
1519,6320;0,0488366
1520,5962;0,0481996
1521,5604;0,0476343
1522,5247;0,0472034
1523,4889;0,0469203
1524,4531;0,0467463
1525,4174;0,0466423
1526,3816;0,0466054
1527,3458;0,046654
1528,3101;0,0467877
1529,2743;0,0469711
1530,2385;0,0471569
1531,2028;0,0473194
1532,1670;0,0474714
1533,1312;0,0476569
1534,0955;0,0479171
1535,0597;0,0482476
1536,0239;0,0485962
1536,9882;0,0489107
1537,9524;0,0491786
1538,9166;0,0494051
1539,8809;0,0495241
1540,8451;0,0494346
1541,8093;0,0492642
1542,7736;0,0492564
1543,7378;0,0494436
1544,7020;0,0497256
1545,6663;0,0500263
1546,6305;0,0503167
1547,5947;0,0505862
1548,5590;0,0508231
1549,5232;0,0510215
1550,4874;0,0511961
1551,4517;0,0513834
1552,4159;0,0516161
1553,3801;0,0518888
1554,3444;0,0521507
1555,3086;0,0523258
1556,2728;0,0523258
1557,2371;0,0520358
1558,2013;0,0514107
1559,1655;0,0508077
1560,1298;0,0507697
1561,0940;0,0513178
1562,0582;0,052121
1563,0225;0,0529133
1563,9867;0,0535751
1564,9509;0,0540791
1565,9152;0,0544441
1566,8794;0,0547151
1567,8436;0,0549588
1568,8079;0,0552544
1569,7721;0,0556605
1570,7363;0,0561735
1571,7006;0,0567294
1572,6648;0,0572552
1573,6290;0,0577174
1574,5933;0,0581334
1575,5575;0,0585498
1576,5217;0,0590137
1577,4860;0,0595613
1578,4502;0,0601959
1579,4144;0,0608776
1580,3787;0,0615559
1581,3429;0,0622035
1582,3071;0,0628204
1583,2714;0,0634209
1584,2356;0,0640209
1585,1998;0,0646311
1586,1641;0,0652517
1587,1283;0,0658719
1588,0925;0,0664717
1589,0568;0,0670284
1590,0210;0,067522
1590,9852;0,0679368
1591,9495;0,0682599
1592,9137;0,0684803
1593,8779;0,0685946
1594,8422;0,068616
1595,8064;0,0685744
1596,7706;0,0685057
1597,7349;0,0684368
1598,6991;0,0683786
1599,6633;0,0683293
1600,6276;0,0682848
1601,5918;0,0682466
1602,5560;0,0682247
1603,5203;0,0682305
1604,4845;0,068265
1605,4487;0,0683114
1606,4130;0,0683416
1607,3772;0,0683345
1608,3414;0,0682988
1609,3057;0,068278
1610,2699;0,0683215
1611,2341;0,068442
1612,1984;0,0686022
1613,1626;0,0687394
1614,1268;0,0687982
1615,0911;0,0687558
1616,0553;0,0686506
1617,0195;0,0685914
1617,9838;0,068676
1618,9480;0,0688906
1619,9122;0,0691317
1620,8765;0,0692953
1621,8407;0,0693292
1622,8049;0,0692444
1623,7692;0,0691002
1624,7334;0,0689615
1625,6976;0,0688511
1626,6619;0,068752
1627,6261;0,0686512
1628,5903;0,0685682
1629,5546;0,0685332
1630,5188;0,0685456
1631,4830;0,0685602
1632,4473;0,0685075
1633,4115;0,0683147
1634,3757;0,067918
1635,3400;0,0673218
1636,3042;0,0666977
1637,2684;0,0662832
1638,2327;0,0661345
1639,1969;0,0661394
1640,1611;0,0661785
1641,1254;0,0661909
1642,0896;0,0661548
1643,0538;0,0660516
1644,0181;0,06584
1644,9823;0,0654579
1645,9465;0,0648916
1646,9108;0,0642811
1647,8750;0,0638342
1648,8392;0,0635903
1649,8035;0,0633896
1650,7677;0,0629916
1651,7319;0,0621325
1652,6962;0,0606744
1653,6604;0,059041
1654,6246;0,0580133
1655,5889;0,0577337
1656,5531;0,0577981
1657,5173;0,0578478
1658,4816;0,0577145
1659,4458;0,0573497
1660,4100;0,0567605
1661,3743;0,0560007
1662,3385;0,0551922
1663,3027;0,0544906
1664,2670;0,0539786
1665,2312;0,053617
1666,1954;0,053292
1667,1597;0,0528761
1668,1239;0,0522761
1669,0881;0,0514931
1670,0524;0,0506586
1671,0166;0,0499355
1671,9808;0,0493593
1672,9451;0,0488317
1673,9093;0,048245
1674,8735;0,0475925
1675,8378;0,0469917
1676,8020;0,0465886
1677,7662;0,0464253
1678,7305;0,0464134
1679,6947;0,0464079
1680,6589;0,0462689
1681,6232;0,0458706
1682,5874;0,045114
1683,5516;0,0440523
1684,5159;0,0430183
1685,4801;0,0423593
1686,4443;0,042087
1687,4086;0,0419946
1688,3728;0,0419038
1689,3370;0,0417453
1690,3013;0,0415332
1691,2655;0,0413133
1692,2297;0,0411256
1693,1940;0,0409895
1694,1582;0,0409021
1695,1224;0,0408357
1696,0867;0,0407312
1697,0509;0,0405109
1698,0151;0,0401293
1698,9794;0,0396431
1699,9436;0,0392172
1700,9078;0,0390141
1701,8721;0,0390702
1702,8363;0,0392931
1703,8005;0,0395487
1704,7648;0,0397404
1705,7290;0,0398468
1706,6932;0,0399195
1707,6575;0,0400406
1708,6217;0,0402637
1709,5859;0,0405886
1710,5502;0,040981
1711,5144;0,0414012
1712,4786;0,0418175
1713,4429;0,0422011
1714,4071;0,0425129
1715,3713;0,0426937
1716,3356;0,0426984
1717,2998;0,0425926
1718,2640;0,0425559
1719,2283;0,0427057
1720,1925;0,0430069
1721,1567;0,0433558
1722,1210;0,0436687
1723,0852;0,0439111
1724,0494;0,0440925
1725,0137;0,0442502
1725,9779;0,0444252
1726,9421;0,0446399
1727,9064;0,0448851
1728,8706;0,0451216
1729,8348;0,045287
1730,7991;0,045302
1731,7633;0,0450837
1732,7275;0,0446023
1733,6918;0,0439759
1734,6560;0,0434431
1735,6202;0,043147
1736,5845;0,0430267
1737,5487;0,0429262
1738,5129;0,0427205
1739,4772;0,0423669
1740,4414;0,0419081
1741,4056;0,0414359
1742,3699;0,0410252
1743,3341;0,0406896
1744,2983;0,0403929
1745,2626;0,0400858
1746,2268;0,0397215
1747,1910;0,039248
1748,1553;0,0386098
1749,1195;0,037795
1750,0837;0,0368973
1751,0480;0,0360846
1752,0122;0,0354709
1752,9764;0,0350458
1753,9407;0,0347189
1754,9049;0,0343967
1755,8691;0,0340286
1756,8334;0,033615
1757,7976;0,0331838
1758,7618;0,0327548
1759,7261;0,032324
1760,6903;0,0318807
1761,6545;0,0314387
1762,6188;0,03104
1763,5830;0,0307246
1764,5472;0,0304972
1765,5115;0,0303288
1766,4757;0,0301821
1767,4399;0,0300314
1768,4042;0,029864
1769,3684;0,0296651
1770,3326;0,029407
1771,2969;0,0290667
1772,2611;0,0286733
1773,2253;0,0283197
1774,1896;0,028094
1775,1538;0,0280093
1776,1180;0,0280119
1777,0823;0,0280319
1778,0465;0,0280179
1779,0107;0,0279493
1779,9750;0,0278313
1780,9392;0,0276825
1781,9034;0,027522
1782,8677;0,027365
1783,8319;0,0272304
1784,7961;0,0271442
1785,7604;0,0271287
1786,7246;0,027184
1787,6888;0,0272817
1788,6531;0,0273759
1789,6173;0,027419
1790,5815;0,0273754
1791,5458;0,0272407
1792,5100;0,0270633
1793,4742;0,0269234
1794,4385;0,0268677
1795,4027;0,0268782
1796,3669;0,0269042
1797,3312;0,0269022
1798,2954;0,0268538
1799,2596;0,0267641
1800,2239;0,0266554
1801,1881;0,0265561
1802,1523;0,026489
1803,1166;0,0264626
1804,0808;0,026473
1805,0450;0,0265087
1806,0093;0,0265547
1806,9735;0,0265934
1807,9377;0,0266056
1808,9020;0,0265762
1809,8662;0,0265024
1810,8304;0,0263996
1811,7947;0,0262945
1812,7589;0,026208
1813,7231;0,0261437
1814,6874;0,0260928
1815,6516;0,0260471
1816,6158;0,02601
1817,5801;0,0259966
1818,5443;0,0260224
1819,5085;0,026088
1820,4728;0,0261737
1821,4370;0,0262493
1822,4012;0,026291
1823,3655;0,0262957
1824,3297;0,0262833
1825,2939;0,0262808
1826,2582;0,0262987
1827,2224;0,0263169
1828,1866;0,0262975
1829,1509;0,0262155
1830,1151;0,0260902
1831,0793;0,0259795
1832,0436;0,0259343
1833,0078;0,0259612
1833,9720;0,0260282
1834,9363;0,0260957
1835,9005;0,0261419
1836,8647;0,026171
1837,8290;0,0262031
1838,7932;0,0262517
1839,7574;0,0263084
1840,7217;0,0263474
1841,6859;0,0263425
1842,6501;0,0262832
1843,6144;0,0261852
1844,5786;0,0260891
1845,5428;0,0260344
1846,5071;0,026027
1847,4713;0,0260389
1848,4355;0,0260369
1849,3998;0,026007
1850,3640;0,0259595
1851,3282;0,0259165
1852,2925;0,0258955
1853,2567;0,0258997
1854,2209;0,0259206
1855,1852;0,0259477
1856,1494;0,0259757
1857,1136;0,0260052
1858,0779;0,0260377
1859,0421;0,0260714
1860,0063;0,0261028
1860,9706;0,026132
1861,9348;0,0261652
1862,8990;0,0262125
1863,8633;0,0262809
1864,8275;0,0263688
1865,7917;0,0264614
1866,7560;0,0265278
1867,7202;0,0265283
1868,6844;0,0264419
1869,6487;0,0262921
1870,6129;0,0261324
1871,5771;0,0260055
1872,5414;0,025925
1873,5056;0,0258852
1874,4698;0,0258751
1875,4341;0,0258848
1876,3983;0,0259071
1877,3625;0,0259361
1878,3268;0,0259677
1879,2910;0,0259983
1880,2552;0,0260256
1881,2195;0,0260489
1882,1837;0,0260692
1883,1479;0,0260884
1884,1122;0,0261065
1885,0764;0,0261211
1886,0406;0,0261293
1887,0049;0,0261309
1887,9691;0,0261308
1888,9333;0,0261363
1889,8976;0,0261518
1890,8618;0,0261727
1891,8260;0,0261866
1892,7903;0,026181
1893,7545;0,0261529
1894,7188;0,0261143
1895,6830;0,0260881
1896,6472;0,0260953
1897,6115;0,0261418
1898,5757;0,0262136
1899,5399;0,0262828
1900,5042;0,0263214
1901,4684;0,0263122
1902,4326;0,0262572
1903,3969;0,0261774
1904,3611;0,0261047
1905,3253;0,0260689
1906,2896;0,0260861
1907,2538;0,026152
1908,2180;0,0262427
1909,1823;0,0263241
1910,1465;0,0263675
1911,1107;0,0263633
1912,0750;0,0263205
1913,0392;0,0262579
1914,0034;0,026194
1914,9677;0,0261435
1915,9319;0,0261171
1916,8961;0,0261202
1917,8604;0,0261515
1918,8246;0,0262019
1919,7888;0,0262558
1920,7531;0,0262947
1921,7173;0,0263007
1922,6815;0,0262614
1923,6458;0,0261747
1924,6100;0,0260525
1925,5742;0,0259187
1926,5385;0,0258024
1927,5027;0,0257303
1928,4669;0,02572
1929,4312;0,0257734
1930,3954;0,0258734
1931,3596;0,0259873
1932,3239;0,0260794
1933,2881;0,0261257
1934,2523;0,026121
1935,2166;0,0260774
1936,1808;0,0260146
1937,1450;0,0259502
1938,1093;0,0258943
1939,0735;0,025851
1940,0377;0,0258235
1941,0020;0,0258176
1941,9662;0,025839
1942,9304;0,0258868
1943,8947;0,025947
1944,8589;0,0259929
1945,8231;0,0259952
1946,7874;0,0259359
1947,7516;0,0258207
1948,7158;0,0256808
1949,6801;0,0255617
1950,6443;0,0254988
1951,6085;0,0254957
1952,5728;0,0255199
1953,5370;0,0255231
1954,5012;0,0254738
1955,4655;0,0253818
1956,4297;0,0252945
1957,3939;0,0252658
1958,3582;0,0253178
1959,3224;0,0254194
1960,2866;0,0255017
1961,2509;0,0255009
1962,2151;0,0253997
1963,1793;0,0252353
1964,1436;0,0250701
1965,1078;0,0249499
1966,0720;0,0248765
1967,0363;0,0248134
1968,0005;0,0247205
1968,9647;0,0245916
1969,9290;0,0244642
1970,8932;0,0243995
1971,8574;0,0244499
1972,8217;0,0246356
1973,7859;0,0249367
1974,7501;0,025301
1975,7144;0,0256643
1976,6786;0,0259743
1977,6428;0,0262055
1978,6071;0,0263556
1979,5713;0,0264281
1980,5355;0,0264164
1981,4998;0,0263036
1982,4640;0,0260807
1983,4282;0,0257686
1984,3925;0,0254307
1985,3567;0,0251604
1986,3209;0,0250472
1987,2852;0,0251378
1988,2494;0,0254159
1989,2136;0,0258069
1990,1779;0,0262019
1991,1421;0,0264932
1992,1063;0,0266101
1993,0706;0,026543
1994,0348;0,0263404
1994,9990;0,0260826
1995,9633;0,0258499
1996,9275;0,0256982
1997,8917;0,0256488
1998,8560;0,0256914
1999,8202;0,0257974
2000,7844;0,0259359
2001,7487;0,026082
2002,7129;0,0262141
2003,6771;0,0263101
2004,6414;0,0263509
2005,6056;0,0263347
2006,5698;0,0262884
2007,5341;0,0262584
2008,4983;0,0262829
2009,4625;0,0263657
2010,4268;0,0264745
2011,3910;0,0265637
2012,3552;0,0265997
2013,3195;0,0265714
2014,2837;0,0264842
2015,2479;0,0263507
2016,2122;0,0261893
2017,1764;0,0260274
2018,1406;0,0258965
2019,1049;0,0258158
2020,0691;0,0257776
2021,0333;0,0257521
2021,9976;0,0257118
2022,9618;0,0256568
2023,9260;0,0256164
2024,8903;0,0256188
2025,8545;0,0256553
2026,8187;0,0256719
2027,7830;0,0256075
2028,7472;0,0254523
2029,7114;0,0252805
2030,6757;0,0252221
2031,6399;0,0253871
2032,6041;0,0257889
2033,5684;0,0263256
2034,5326;0,0268335
2035,4968;0,0271791
2036,4611;0,0273226
2037,4253;0,0273193
2038,3895;0,0272687
2039,3538;0,0272522
2040,3180;0,0272933
2041,2822;0,0273567
2042,2465;0,0273812
2043,2107;0,0273264
2044,1749;0,0272046
2045,1392;0,0270812
2046,1034;0,0270415
2047,0676;0,0271414
2048,0320;0,0273691
2048,9961;0,0276476
2049,9604;0,0278783
2050,9246;0,0279936
2051,8889;0,0279823
2052,8530;0,0278827
2053,8174;0,0277563
2054,7815;0,0276566
2055,7458;0,0276094
2056,7100;0,02761
2057,6743;0,0276366
2058,6384;0,0276701
2059,6028;0,0277054
2060,5669;0,0277499
2061,5313;0,0278138
2062,4954;0,0279003
2063,4597;0,0280028
2064,4238;0,0281069
2065,3882;0,028196
2066,3523;0,0282539
2067,3167;0,028267
2068,2808;0,0282287
2069,2451;0,0281458
2070,2092;0,0280433
2071,1736;0,0279599
2072,1377;0,0279326
2073,1021;0,0279767
2074,0662;0,0280751
2075,0305;0,0281859
2075,9946;0,0282654
2076,9590;0,0282917
2077,9231;0,0282742
2078,8875;0,0282432
2079,8516;0,0282287
2080,8159;0,0282422
2081,7800;0,028273
2082,7444;0,0282989
2083,7085;0,0283027
2084,6729;0,0282819
2085,6370;0,0282484
2086,6013;0,0282194
2087,5654;0,0282066
2088,5298;0,0282098
2089,4939;0,0282183
2090,4583;0,0282177
2091,4224;0,0281986
2092,3867;0,0281622
2093,3508;0,0281197
2094,3152;0,0280876
2095,2793;0,0280791
2096,2437;0,0280989
2097,2078;0,0281426
2098,1721;0,0282019
2099,1362;0,0282692
2100,1006;0,0283394
2101,0647;0,0284057
2102,0291;0,0284578
2102,9932;0,0284822
2103,9575;0,0284704
2104,9216;0,028426
2105,8860;0,0283676
2106,8501;0,0283206
2107,8145;0,028304
2108,7786;0,0283189
2109,7429;0,0283483
2110,7070;0,028368
2111,6714;0,0283616
2112,6355;0,0283297
2113,5999;0,0282877
2114,5640;0,0282539
2115,5283;0,0282383
2116,4924;0,0282377
2117,4568;0,028241
2118,4209;0,0282375
2119,3853;0,0282227
2120,3494;0,0281972
2121,3137;0,0281628
2122,2778;0,028119
2123,2422;0,0280652
2124,2063;0,0280052
2125,1707;0,0279499
2126,1348;0,0279141
2127,0991;0,027908
2128,0632;0,0279303
2129,0276;0,0279688
2129,9917;0,0280089
2130,9561;0,0280434
2131,9202;0,0280766
2132,8845;0,0281183
2133,8486;0,0281718
2134,8130;0,028226
2135,7771;0,0282602
2136,7415;0,0282606
2137,7056;0,0282355
2138,6699;0,028217
2139,6340;0,028245
2140,5984;0,0283423
2141,5625;0,0284979
2142,5269;0,0286665
2143,4910;0,0287871
2144,4553;0,028811
2145,4194;0,0287252
2146,3838;0,02856
2147,3479;0,0283783
2148,3123;0,0282511
2149,2764;0,0282302
2150,2407;0,0283281
2151,2048;0,0285131
2152,1692;0,0287215
2153,1333;0,0288816
2154,0977;0,0289397
2155,0618;0,0288791
2156,0261;0,0287243
2156,9902;0,0285301
2157,9546;0,0283575
2158,9187;0,0282448
2159,8831;0,0281962
2160,8472;0,0281955
2161,8115;0,0282301
2162,7756;0,0283001
2163,7400;0,0284097
2164,7041;0,0285524
2165,6685;0,0287034
2166,6326;0,0288269
2167,5969;0,0288939
2168,5610;0,0289008
2169,5254;0,0288752
2170,4895;0,0288652
2171,4539;0,0289151
2172,4180;0,0290377
2173,3823;0,029197
2174,3464;0,029316
2175,3108;0,0293117
2176,2749;0,0291413
2177,2393;0,0288338
2178,2034;0,0284826
2179,1677;0,028204
2180,1318;0,028081
2181,0962;0,0281237
2182,0603;0,0282702
2183,0247;0,0284304
2183,9888;0,0285445
2184,9531;0,0286138
2185,9172;0,0286833
2186,8816;0,0287911
2187,8457;0,0289267
2188,8101;0,0290278
2189,7742;0,0290205
2190,7385;0,0288736
2191,7026;0,0286296
2192,6670;0,0283899
2193,6311;0,0282634
2194,5955;0,0283124
2195,5596;0,0285241
2196,5239;0,0288226
2197,4880;0,0291053
2198,4524;0,0292836
2199,4165;0,0293085
2200,3809;0,0291794
2201,3450;0,0289391
2202,3093;0,0286607
2203,2734;0,0284254
2204,2378;0,0282955
2205,2019;0,0282927
2206,1663;0,0283927
2207,1304;0,0285422
2208,0947;0,0286878
2209,0588;0,0287981
2210,0232;0,028868
2210,9873;0,0289047
2211,9517;0,0289122
2212,9158;0,0288876
2213,8801;0,0288302
2214,8442;0,028753
2215,8086;0,0286836
2216,7727;0,0286523
2217,7371;0,0286765
2218,7012;0,0287522
2219,6655;0,028857
2220,6296;0,0289611
2221,5940;0,0290375
2222,5581;0,0290695
2223,5225;0,0290543
2224,4866;0,0290037
2225,4509;0,0289411
2226,4150;0,0288913
2227,3794;0,0288675
2228,3435;0,0288638
2229,3079;0,0288586
2230,2720;0,028829
2231,2363;0,0287671
2232,2004;0,0286854
2233,1648;0,0286096
2234,1289;0,0285636
2235,0933;0,0285588
2236,0574;0,028594
2237,0217;0,028663
2237,9858;0,02876
2238,9502;0,0288791
2239,9143;0,0290075
2240,8787;0,0291218
2241,8428;0,0291919
2242,8071;0,0291947
2243,7712;0,0291278
2244,7356;0,0290156
2245,6997;0,0289021
2246,6641;0,0288325
2247,6282;0,0288333
2248,5925;0,0289015
2249,5566;0,0290084
2250,5210;0,0291163
2251,4851;0,0291966
2252,4495;0,0292404
2253,4136;0,0292555
2254,3779;0,0292536
2255,3420;0,029239
2256,3064;0,0292053
2257,2705;0,0291428
2258,2349;0,0290492
2259,1990;0,0289361
2260,1633;0,0288269
2261,1274;0,0287481
2262,0918;0,0287207
2263,0559;0,0287543
2264,0203;0,0288452
2264,9844;0,0289776
2265,9487;0,0291277
2266,9128;0,0292684
2267,8772;0,0293763
2268,8413;0,0294374
2269,8057;0,0294501
2270,7698;0,0294232
2271,7341;0,0293719
2272,6982;0,0293124
2273,6626;0,0292582
2274,6267;0,0292176
2275,5911;0,0291936
2276,5552;0,0291851
2277,5195;0,0291881
2278,4836;0,0291988
2279,4480;0,0292149
2280,4121;0,0292363
2281,3765;0,029265
2282,3406;0,029303
2283,3049;0,0293514
2284,2690;0,0294085
2285,2334;0,0294691
2286,1975;0,0295253
2287,1619;0,0295697
2288,1260;0,0296004
2289,0903;0,0296238
2290,0544;0,0296528
2291,0188;0,0296995
2291,9829;0,029766
2292,9473;0,0298411
2293,9114;0,029905
2294,8757;0,0299403
2295,8398;0,0299422
2296,8042;0,0299202
2297,7683;0,029891
2298,7327;0,0298686
2299,6968;0,0298587
2300,6611;0,0298603
2301,6252;0,0298721
2302,5896;0,0298959
2303,5537;0,029936
2304,5181;0,0299944
2305,4822;0,0300672
2306,4465;0,0301445
2307,4106;0,030212
2308,3750;0,0302536
2309,3391;0,0302536
2310,3035;0,030201
2311,2676;0,0300968
2312,2319;0,0299604
2313,1960;0,0298276
2314,1604;0,0297365
2315,1245;0,0297097
2316,0889;0,0297428
2317,0530;0,0298081
2318,0173;0,0298699
2318,9814;0,0299038
2319,9458;0,0299088
2320,9099;0,0299053
2321,8743;0,0299184
2322,8384;0,0299579
2323,8027;0,0300093
2324,7668;0,0300419
2325,7312;0,0300266
2326,6953;0,0299518
2327,6597;0,0298287
2328,6238;0,0296866
2329,5881;0,0295596
2330,5522;0,0294715
2331,5166;0,0294259
2332,4807;0,0294057
2333,4451;0,0293832
2334,4092;0,0293368
2335,3735;0,0292667
2336,3376;0,0291999
2337,3020;0,0291782
2338,2661;0,0292302
2339,2305;0,0293418
2340,1946;0,0294457
2341,1589;0,0294447
2342,1230;0,0292694
2343,0874;0,0289591
2344,0515;0,0286952
2345,0159;0,0286947
2345,9800;0,0290292
2346,9443;0,029577
2347,9084;0,0301307
2348,8728;0,0305188
2349,8369;0,0306633
2350,8013;0,030585
2351,7654;0,0303794
2352,7297;0,030172
2353,6938;0,0300646
2354,6582;0,0300991
2355,6223;0,0302562
2356,5867;0,0304701
2357,5508;0,0306449
2358,5151;0,0306824
2359,4792;0,0305255
2360,4436;0,0301908
2361,4077;0,0297574
2362,3721;0,0293223
2363,3362;0,0289625
2364,3005;0,0287184
2365,2646;0,0285898
2366,2290;0,0285408
2367,1931;0,0285151
2368,1575;0,0284598
2369,1216;0,0283489
2370,0859;0,0281913
2371,0500;0,0280223
2372,0144;0,0278851
2372,9785;0,0278141
2373,9429;0,0278272
2374,9070;0,0279255
2375,8713;0,0280971
2376,8354;0,0283212
2377,7998;0,0285715
2378,7639;0,0288202
2379,7283;0,0290421
2380,6924;0,0292188
2381,6567;0,0293422
2382,6208;0,0294156
2383,5852;0,029451
2384,5493;0,0294651
2385,5137;0,0294743
2386,4778;0,0294902
2387,4421;0,0295176
2388,4063;0,0295539
2389,3706;0,0295913
2390,3347;0,0296194
2391,2991;0,0296298
2392,2632;0,0296197
2393,2275;0,0295944
2394,1917;0,0295659
2395,1560;0,0295479
2396,1201;0,0295499
2397,0845;0,0295723
2398,0486;0,0296077
2399,0129;0,0296447
2399,9771;0,0296751
2400,9414;0,0296981
2401,9055;0,0297197
2402,8699;0,0297478
2403,8340;0,0297859
2404,7983;0,0298296
2405,7625;0,0298684
2406,7268;0,0298905
2407,6909;0,02989
2408,6553;0,0298703
2409,6194;0,0298431
2410,5837;0,0298232
2411,5479;0,0298218
2412,5122;0,0298415
2413,4763;0,0298771
2414,4407;0,0299187
2415,4048;0,0299574
2416,3691;0,0299885
2417,3333;0,0300115
2418,2976;0,0300288
2419,2617;0,0300427
2420,2261;0,0300555
2421,1902;0,0300688
2422,1545;0,0300836
2423,1187;0,0300996
2424,0830;0,0301141
2425,0471;0,0301241
2426,0115;0,0301284
2426,9756;0,0301306
2427,9399;0,0301383
2428,9041;0,030159
2429,8684;0,0301953
2430,8325;0,030242
2431,7969;0,0302888
2432,7610;0,0303259
2433,7253;0,0303498
2434,6895;0,0303636
2435,6538;0,0303731
2436,6179;0,0303823
2437,5823;0,0303906
2438,5464;0,030396
2439,5107;0,0303989
2440,4749;0,0304048
2441,4392;0,0304218
2442,4033;0,0304544
2443,3677;0,0305001
2444,3318;0,0305491
2445,2961;0,0305893
2446,2603;0,030612
2447,2246;0,0306157
2448,1887;0,0306052
2449,1531;0,0305889
2450,1172;0,0305753
2451,0815;0,0305722
2452,0457;0,0305842
2453,0100;0,0306121
2453,9741;0,0306507
2454,9385;0,0306896
2455,9026;0,0307172
2456,8669;0,0307267
2457,8311;0,0307199
2458,7954;0,0307076
2459,7595;0,0307034
2460,7239;0,0307166
2461,6880;0,0307481
2462,6523;0,0307912
2463,6165;0,0308354
2464,5808;0,0308715
2465,5449;0,0308938
2466,5093;0,0308999
2467,4734;0,030891
2468,4377;0,0308729
2469,4019;0,0308556
2470,3662;0,0308502
2471,3303;0,0308631
2472,2947;0,0308911
2473,2588;0,0309209
2474,2231;0,0309366
2475,1873;0,0309292
2476,1516;0,0309035
2477,1157;0,0308758
2478,0801;0,0308646
2479,0442;0,0308811
2480,0085;0,0309231
2480,9727;0,0309779
2481,9370;0,0310292
2482,9011;0,0310647
2483,8655;0,0310798
2484,8296;0,0310779
2485,7939;0,0310677
2486,7581;0,0310593
2487,7224;0,0310603
2488,6865;0,0310714
2489,6509;0,0310868
2490,6150;0,0310974
2491,5793;0,0310976
2492,5435;0,0310907
2493,5078;0,0310884
2494,4719;0,0311033
2495,4363;0,0311397
2496,4004;0,0311889
2497,3647;0,031233
2498,3289;0,0312547
2499,2932;0,0312474
2500,2573;0,0312176
2501,2217;0,0311804
2502,1858;0,0311498
2503,1501;0,0311325
2504,1143;0,0311269
2505,0786;0,0311274
2506,0427;0,0311301
2507,0071;0,0311349
2507,9712;0,0311452
2508,9355;0,0311647
2509,8997;0,0311956
2510,8640;0,0312363
2511,8281;0,0312821
2512,7925;0,0313254
2513,7566;0,0313577
2514,7209;0,0313723
2515,6851;0,0313676
2516,6494;0,0313482
2517,6135;0,0313249
2518,5779;0,0313107
2519,5420;0,031316
2520,5063;0,0313447
2521,4705;0,0313926
2522,4348;0,0314492
2523,3989;0,0315016
2524,3633;0,0315386
2525,3274;0,0315543
2526,2917;0,0315496
2527,2559;0,0315316
2528,2202;0,0315101
2529,1843;0,031494
2530,1487;0,0314872
2531,1128;0,0314882
2532,0771;0,0314915
2533,0413;0,031493
2534,0056;0,0314932
2534,9697;0,0314975
2535,9341;0,0315128
2536,8982;0,031542
2537,8625;0,0315809
2538,8267;0,0316206
2539,7910;0,0316513
2540,7551;0,0316679
2541,7195;0,0316711
2542,6836;0,0316654
2543,6479;0,0316561
2544,6121;0,031648
2545,5764;0,0316458
2546,5405;0,0316539
2547,5049;0,0316746
2548,4690;0,0317045
2549,4333;0,031733
2550,3975;0,0317467
2551,3618;0,0317365
2552,3259;0,0317052
2553,2903;0,0316672
2554,2544;0,0316414
2555,2188;0,0316409
2556,1829;0,0316657
2557,1472;0,0317044
2558,1113;0,031741
2559,0757;0,0317644
2560,0398;0,031772
2561,0042;0,0317678
2561,9683;0,0317582
2562,9326;0,0317477
2563,8967;0,0317392
2564,8611;0,031736
2565,8252;0,0317426
2566,7896;0,0317628
2567,7537;0,0317962
2568,7180;0,0318363
2569,6821;0,031872
2570,6465;0,0318932
2571,6106;0,0318963
2572,5750;0,0318858
2573,5391;0,0318711
2574,5034;0,03186
2575,4675;0,0318537
2576,4319;0,0318468
2577,3960;0,0318326
2578,3604;0,0318097
2579,3245;0,0317848
2580,2888;0,0317705
2581,2529;0,031778
2582,2173;0,0318107
2583,1814;0,0318621
2584,1458;0,0319186
2585,1099;0,0319662
2586,0742;0,0319965
2587,0383;0,0320088
2588,0027;0,0320092
2588,9668;0,032006
2589,9312;0,0320057
2590,8953;0,0320107
2591,8596;0,0320191
2592,8237;0,0320277
2593,7881;0,0320355
2594,7522;0,0320459
2595,7166;0,0320644
2596,6807;0,0320945
2597,6450;0,032133
2598,6091;0,0321695
2599,5735;0,0321911
2600,5376;0,0321899
2601,5020;0,0321689
2602,4661;0,0321419
2603,4304;0,0321273
2604,3945;0,0321382
2605,3589;0,0321759
2606,3230;0,0322299
2607,2874;0,032283
2608,2515;0,03232
2609,2158;0,0323333
2610,1799;0,032325
2611,1443;0,0323046
2612,1084;0,0322843
2613,0728;0,0322745
2614,0369;0,0322806
2615,0012;0,0323021
2615,9653;0,032334
2616,9297;0,0323696
2617,8938;0,0324033
2618,8582;0,0324325
2619,8223;0,0324572
2620,7866;0,0324786
2621,7507;0,0324972
2622,7151;0,0325127
2623,6792;0,0325254
2624,6436;0,0325373
2625,6077;0,0325522
2626,5720;0,0325733
2627,5361;0,0326004
2628,5005;0,0326289
2629,4646;0,0326516
2630,4290;0,0326628
2631,3931;0,032662
2632,3574;0,0326547
2633,3215;0,0326489
2634,2859;0,0326514
2635,2500;0,0326645
2636,2144;0,0326862
2637,1785;0,0327132
2638,1428;0,0327433
2639,1069;0,0327759
2640,0713;0,0328108
2641,0354;0,032846
2641,9998;0,0328778
2642,9639;0,0329019
2643,9282;0,032916
2644,8923;0,0329209
2645,8567;0,03292
2646,8208;0,0329174
2647,7852;0,0329168
2648,7493;0,0329204
2649,7136;0,0329297
2650,6777;0,0329449
2651,6421;0,0329653
2652,6062;0,0329885
2653,5706;0,0330111
2654,5347;0,0330296
2655,4990;0,0330422
2656,4631;0,0330495
2657,4275;0,0330541
2658,3916;0,0330587
2659,3560;0,0330647
2660,3201;0,0330712
2661,2844;0,0330758
2662,2485;0,0330758
2663,2129;0,0330704
2664,1770;0,0330612
2665,1414;0,0330521
2666,1055;0,0330478
2667,0698;0,0330517
2668,0339;0,0330647
2668,9983;0,0330849
2669,9624;0,0331089
2670,9268;0,0331333
2671,8909;0,0331563
2672,8552;0,0331779
2673,8193;0,0331985
2674,7837;0,0332175
2675,7478;0,0332335
2676,7122;0,0332447
2677,6763;0,033251
2678,6406;0,033255
2679,6047;0,0332613
2680,5691;0,0332744
2681,5332;0,0332961
2682,4976;0,0333242
2683,4617;0,0333537
2684,4260;0,0333798
2685,3901;0,0334005
2686,3545;0,033418
2687,3186;0,0334366
2688,2830;0,0334601
2689,2471;0,0334892
2690,2114;0,0335211
2691,1755;0,0335511
2692,1399;0,033576
2693,1040;0,0335956
2694,0684;0,033612
2695,0325;0,0336283
2695,9968;0,0336455
2696,9609;0,0336627
2697,9253;0,0336773
2698,8894;0,0336881
2699,8538;0,0336967
2700,8179;0,0337077
2701,7822;0,0337262
2702,7463;0,0337548
2703,7107;0,033792
2704,6748;0,0338316
2705,6392;0,0338664
2706,6033;0,0338917
2707,5676;0,0339082
2708,5317;0,0339213
2709,4961;0,0339379
2710,4602;0,0339619
2711,4246;0,033992
2712,3887;0,0340231
2713,3530;0,0340497
2714,3171;0,0340698
2715,2815;0,0340854
2716,2456;0,0341008
2717,2100;0,0341195
2718,1741;0,0341415
2719,1384;0,0341641
2720,1025;0,0341833
2721,0669;0,0341966
2722,0310;0,0342041
2722,9954;0,034208
2723,9595;0,0342115
2724,9238;0,0342184
2725,8879;0,0342314
2726,8523;0,0342518
2727,8164;0,0342794
2728,7808;0,0343123
2729,7449;0,0343479
2730,7092;0,0343833
2731,6733;0,0344158
2732,6377;0,0344428
2733,6018;0,0344618
2734,5662;0,034471
2735,5303;0,0344709
2736,4946;0,0344648
2737,4587;0,0344587
2738,4231;0,0344592
2739,3872;0,0344709
2740,3516;0,0344947
2741,3157;0,034528
2742,2800;0,034566
2743,2441;0,0346031
2744,2085;0,0346345
2745,1726;0,0346565
2746,1370;0,0346678
2747,1011;0,0346702
2748,0654;0,0346688
2749,0295;0,0346708
2749,9939;0,0346824
2750,9580;0,0347062
2751,9224;0,0347396
2752,8865;0,0347761
2753,8508;0,034809
2754,8149;0,0348349
2755,7793;0,0348543
2756,7434;0,0348708
2757,7078;0,0348878
2758,6719;0,0349067
2759,6362;0,0349265
2760,6003;0,0349456
2761,5647;0,0349636
2762,5288;0,034981
2763,4932;0,0349993
2764,4573;0,0350191
2765,4216;0,0350402
2766,3857;0,0350625
2767,3501;0,0350866
2768,3142;0,0351137
2769,2786;0,0351443
2770,2427;0,0351775
2771,2070;0,0352101
2772,1711;0,0352389
2773,1355;0,0352627
2774,0996;0,0352835
2775,0640;0,0353059
2776,0281;0,0353345
2776,9924;0,0353717
2777,9565;0,0354164
2778,9209;0,0354643
2779,8850;0,0355103
2780,8494;0,0355503
2781,8135;0,0355827
2782,7778;0,0356086
2783,7419;0,0356315
2784,7063;0,0356555
2785,6704;0,0356832
2786,6348;0,0357144
2787,5989;0,0357461
2788,5632;0,0357749
2789,5273;0,0358
2790,4917;0,0358247
2791,4558;0,0358552
2792,4202;0,0358964
2793,3843;0,0359484
2794,3486;0,036005
2795,3127;0,0360575
2796,2771;0,0360998
2797,2412;0,0361333
2798,2056;0,0361658
2799,1697;0,036207
2800,1340;0,0362624
2801,0981;0,0363297
2802,0625;0,036401
2803,0266;0,0364676
2803,9910;0,0365257
2804,9551;0,0365771
2805,9194;0,036627
2806,8835;0,0366796
2807,8479;0,0367353
2808,8120;0,0367917
2809,7764;0,0368462
2810,7405;0,0368992
2811,7048;0,0369539
2812,6689;0,0370144
2813,6333;0,0370829
2814,5974;0,0371589
2815,5618;0,0372401
2816,5259;0,0373239
2817,4902;0,0374088
2818,4543;0,0374939
2819,4187;0,0375779
2820,3828;0,0376589
2821,3472;0,0377355
2822,3113;0,0378088
2823,2756;0,0378835
2824,2397;0,0379658
2825,2041;0,0380611
2826,1682;0,0381702
2827,1326;0,0382891
2828,0967;0,0384109
2829,0610;0,0385295
2830,0251;0,038643
2830,9895;0,0387542
2831,9536;0,0388682
2832,9180;0,0389897
2833,8821;0,0391199
2834,8464;0,0392566
2835,8105;0,0393955
2836,7749;0,0395334
2837,7390;0,0396693
2838,7034;0,0398059
2839,6675;0,0399476
2840,6318;0,0400983
2841,5959;0,04026
2842,5603;0,0404304
2843,5244;0,0406036
2844,4888;0,0407709
2845,4529;0,040923
2846,4172;0,0410514
2847,3813;0,0411503
2848,3457;0,0412172
2849,3098;0,0412528
2850,2742;0,0412614
2851,2383;0,0412501
2852,2026;0,0412293
2853,1667;0,0412112
2854,1311;0,0412082
2855,0952;0,0412293
2856,0596;0,0412786
2857,0237;0,0413539
2857,9880;0,0414482
2858,9521;0,041553
2859,9165;0,0416611
2860,8806;0,041769
2861,8450;0,0418769
2862,8091;0,0419883
2863,7734;0,0421079
2864,7375;0,0422392
2865,7019;0,0423824
2866,6660;0,0425319
2867,6304;0,0426772
2868,5945;0,0428055
2869,5588;0,0429065
2870,5229;0,0429774
2871,4873;0,0430248
2872,4514;0,043062
2873,4158;0,043104
2874,3799;0,0431605
2875,3442;0,0432335
2876,3083;0,043317
2877,2727;0,043401
2878,2368;0,0434758
2879,2012;0,0435355
2880,1653;0,0435788
2881,1296;0,043609
2882,0938;0,0436319
2883,0581;0,0436542
2884,0222;0,0436806
2884,9866;0,0437131
2885,9507;0,0437504
2886,9150;0,043789
2887,8792;0,0438254
2888,8435;0,0438574
2889,8076;0,0438843
2890,7720;0,043907
2891,7361;0,0439263
2892,7004;0,0439435
2893,6646;0,04396
2894,6289;0,043978
2895,5930;0,0439994
2896,5574;0,0440253
2897,5215;0,0440551
2898,4858;0,0440859
2899,4500;0,0441138
2900,4143;0,0441354
2901,3784;0,0441496
2902,3428;0,0441573
2903,3069;0,0441619
2904,2712;0,0441675
2905,2354;0,0441782
2906,1997;0,0441972
2907,1638;0,0442264
2908,1282;0,0442663
2909,0923;0,0443164
2910,0566;0,0443747
2911,0208;0,0444377
2911,9851;0,0445001
2912,9492;0,0445541
2913,9136;0,0445904
2914,8777;0,0445998
2915,8420;0,0445764
2916,8062;0,0445187
2917,7705;0,0444308
2918,7346;0,0443202
2919,6990;0,0441955
2920,6631;0,0440645
2921,6274;0,0439337
2922,5916;0,0438094
2923,5559;0,0436972
2924,5200;0,0436013
2925,4844;0,0435227
2926,4485;0,043459
2927,4128;0,0434058
2928,3770;0,0433594
2929,3413;0,0433187
2930,3054;0,0432849
2931,2698;0,0432593
2932,2339;0,0432413
2933,1982;0,0432285
2934,1624;0,0432175
2935,1267;0,0432059
2936,0908;0,0431921
2937,0552;0,0431746
2938,0193;0,0431502
2938,9836;0,0431152
2939,9478;0,0430659
2940,9121;0,0430003
2941,8762;0,0429185
2942,8406;0,0428219
2943,8047;0,0427133
2944,7690;0,0425972
2945,7332;0,0424799
2946,6975;0,0423685
2947,6616;0,0422678
2948,6260;0,0421776
2949,5901;0,0420916
2950,5544;0,0420011
2951,5186;0,0418997
2952,4829;0,0417872
2953,4470;0,0416701
2954,4114;0,0415581
2955,3755;0,0414587
2956,3398;0,0413744
2957,3040;0,0413027
2958,2683;0,0412384
2959,2324;0,0411778
2960,1968;0,0411193
2961,1609;0,0410644
2962,1252;0,041015
2963,0894;0,0409724
2964,0537;0,0409359
2965,0178;0,0409023
2965,9822;0,0408676
2966,9463;0,0408279
2967,9106;0,0407801
2968,8748;0,0407231
2969,8391;0,0406574
2970,8032;0,0405855
2971,7676;0,0405119
2972,7317;0,0404427
2973,6960;0,0403838
2974,6602;0,0403387
2975,6245;0,0403056
2976,5886;0,0402779
2977,5530;0,0402466
2978,5171;0,0402051
2979,4814;0,0401525
2980,4456;0,0400941
2981,4099;0,0400387
2982,3740;0,0399943
2983,3384;0,0399646
2984,3025;0,0399486
2985,2668;0,039942
2986,2310;0,0399388
2987,1953;0,0399331
2988,1594;0,0399208
2989,1238;0,0399
2990,0879;0,0398731
2991,0522;0,0398456
2992,0164;0,0398249
2992,9807;0,039816
2993,9448;0,0398198
2994,9092;0,0398326
2995,8733;0,0398491
2996,8376;0,0398657
2997,8018;0,0398832
2998,7661;0,0399051
2999,7302;0,0399347
3000,6946;0,0399722
3001,6587;0,0400141
3002,6230;0,0400554
3003,5872;0,0400927
3004,5515;0,0401269
3005,5156;0,0401617
3006,4800;0,0402013
3007,4441;0,0402466
3008,4084;0,0402938
3009,3726;0,040336
3010,3369;0,0403668
3011,3010;0,0403847
3012,2654;0,0403944
3013,2295;0,0404049
3014,1938;0,0404252
3015,1580;0,0404599
3016,1223;0,0405083
3017,0864;0,0405665
3018,0508;0,0406305
3019,0149;0,0406978
3019,9792;0,040767
3020,9434;0,0408351
3021,9077;0,0408979
3022,8718;0,0409515
3023,8362;0,0409961
3024,8003;0,041038
3025,7646;0,0410872
3026,7288;0,0411516
3027,6931;0,0412317
3028,6572;0,0413186
3029,6216;0,0413982
3030,5857;0,0414596
3031,5500;0,0415009
3032,5142;0,0415317
3033,4785;0,041568
3034,4426;0,0416235
3035,4070;0,041703
3036,3711;0,0418004
3037,3354;0,0419019
3038,2996;0,0419928
3039,2639;0,0420642
3040,2280;0,0421169
3041,1924;0,0421611
3042,1565;0,0422111
3043,1208;0,0422786
3044,0850;0,0423669
3045,0493;0,0424699
3046,0134;0,0425753
3046,9778;0,042672
3047,9419;0,0427556
3048,9063;0,0428299
3049,8704;0,0429032
3050,8347;0,0429821
3051,7988;0,0430676
3052,7632;0,0431561
3053,7273;0,0432433
3054,6917;0,0433282
3055,6558;0,0434137
3056,6201;0,0435031
3057,5842;0,0435972
3058,5486;0,0436932
3059,5127;0,0437879
3060,4771;0,0438803
3061,4412;0,0439725
3062,4055;0,044066
3063,3696;0,0441591
3064,3340;0,044245
3065,2981;0,0443164
3066,2625;0,0443707
3067,2266;0,0444127
3068,1909;0,0444529
3069,1550;0,0445016
3070,1194;0,0445635
3071,0835;0,044637
3072,0479;0,0447165
3073,0120;0,0447969
3073,9763;0,0448755
3074,9404;0,0449517
3075,9048;0,0450258
3076,8689;0,0450978
3077,8333;0,045167
3078,7974;0,0452329
3079,7617;0,0452948
3080,7258;0,0453524
3081,6902;0,0454066
3082,6543;0,0454609
3083,6187;0,0455208
3084,5828;0,0455917
3085,5471;0,0456759
3086,5112;0,0457699
3087,4756;0,0458661
3088,4397;0,0459573
3089,4041;0,0460411
3090,3682;0,0461213
3091,3325;0,0462045
3092,2966;0,0462944
3093,2610;0,0463891
3094,2251;0,0464821
3095,1895;0,0465665
3096,1536;0,0466394
3097,1179;0,0467029
3098,0820;0,0467623
3099,0464;0,0468229
3100,0105;0,0468883
3100,9749;0,04696
3101,9390;0,0470377
3102,9033;0,0471195
3103,8674;0,0472027
3104,8318;0,0472842
3105,7959;0,0473627
3106,7603;0,0474404
3107,7244;0,0475222
3108,6887;0,0476137
3109,6528;0,0477174
3110,6172;0,0478314
3111,5813;0,0479494
3112,5457;0,0480631
3113,5098;0,0481654
3114,4741;0,0482518
3115,4382;0,0483218
3116,4026;0,0483792
3117,3667;0,0484314
3118,3311;0,0484884
3119,2952;0,0485595
3120,2595;0,0486506
3121,2236;0,0487612
3122,1880;0,0488845
3123,1521;0,04901
3124,1165;0,0491276
3125,0806;0,0492323
3126,0449;0,0493255
3127,0090;0,0494148
3127,9734;0,0495096
3128,9375;0,0496167
3129,9019;0,0497362
3130,8660;0,0498606
3131,8303;0,0499775
3132,7944;0,0500763
3133,7588;0,0501534
3134,7229;0,0502152
3135,6873;0,0502742
3136,6514;0,0503435
3137,6157;0,0504298
3138,5798;0,0505323
3139,5442;0,0506445
3140,5083;0,0507596
3141,4727;0,0508746
3142,4368;0,0509908
3143,4011;0,051111
3144,3652;0,0512355
3145,3296;0,0513607
3146,2937;0,0514794
3147,2581;0,0515849
3148,2222;0,0516743
3149,1865;0,0517508
3150,1506;0,0518227
3151,1150;0,0519
3152,0791;0,0519908
3153,0435;0,0520981
3154,0076;0,0522192
3154,9719;0,0523479
3155,9360;0,0524771
3156,9004;0,052602
3157,8645;0,0527213
3158,8289;0,0528374
3159,7930;0,0529537
3160,7573;0,0530733
3161,7214;0,0531967
3162,6858;0,0533218
3163,6499;0,0534451
3164,6143;0,0535636
3165,5784;0,053676
3166,5427;0,0537831
3167,5068;0,0538871
3168,4712;0,0539907
3169,4353;0,0540608
3170,3997;0,0541718
3171,3638;0,0542904
3172,3281;0,0544175
3173,2922;0,0545516
3174,2566;0,0546876
3175,2207;0,0548171
3176,1851;0,0549312
3177,1492;0,0550245
3178,1135;0,0550982
3179,0776;0,0551607
3180,0420;0,0552247
3181,0061;0,0553024
3181,9705;0,0554015
3182,9346;0,0555234
3183,8989;0,0556637
3184,8630;0,0558137
3185,8274;0,0559636
3186,7915;0,0561038
3187,7559;0,0562275
3188,7200;0,0563318
3189,6843;0,0564188
3190,6484;0,0564953
3191,6128;0,0565711
3192,5769;0,0566562
3193,5413;0,0567574
3194,5054;0,0568757
3195,4697;0,0570061
3196,4338;0,0571393
3197,3982;0,057266
3198,3623;0,05738
3199,3267;0,0574805
3200,2908;0,0575715
3201,2551;0,0576584
3202,2192;0,0577455
3203,1836;0,0578339
3204,1477;0,0579233
3205,1121;0,0580137
3206,0762;0,0581076
3207,0405;0,0582096
3208,0046;0,0583227
3208,9690;0,058445
3209,9331;0,0585683
3210,8975;0,0586808
3211,8616;0,0587734
3212,8259;0,0588438
3213,7900;0,0588979
3214,7544;0,0589465
3215,7185;0,0589999
3216,6829;0,0590641
3217,6470;0,0591406
3218,6113;0,0592283
3219,5754;0,0593263
3220,5398;0,0594341
3221,5039;0,0595511
3222,4683;0,0596751
3223,4324;0,0598019
3224,3967;0,059926
3225,3608;0,060041
3226,3252;0,0601405
3227,2893;0,0602207
3228,2537;0,0602815
3229,2178;0,0603294
3230,1821;0,0603761
3231,1462;0,0604356
3232,1106;0,0605178
3233,0747;0,0606242
3234,0391;0,0607465
3235,0032;0,0608707
3235,9675;0,0609834
3236,9316;0,061078
3237,8960;0,0611566
3238,8601;0,0612276
3239,8245;0,0613001
3240,7886;0,061379
3241,7529;0,0614634
3242,7170;0,0615484
3243,6814;0,0616293
3244,6455;0,0617065
3245,6099;0,0617859
3246,5740;0,0618768
3247,5383;0,0619852
3248,5024;0,0621098
3249,4668;0,0622408
3250,4309;0,0623639
3251,3953;0,0624666
3252,3594;0,0625437
3253,3237;0,0626001
3254,2878;0,0626482
3255,2522;0,0627025
3256,2163;0,0627741
3257,1807;0,0628668
3258,1448;0,0629772
3259,1091;0,0630966
3260,0732;0,0632141
3261,0376;0,0633208
3262,0017;0,0634117
3262,9661;0,0634873
3263,9302;0,0635529
3264,8945;0,063616
3265,8586;0,0636839
3266,8230;0,0637604
3267,7871;0,0638446
3268,7515;0,0639314
3269,7156;0,0640122
3270,6799;0,064079
3271,6440;0,0641269
3272,6084;0,064157
3273,5725;0,0641773
3274,5369;0,0641997
3275,5010;0,0642356
3276,4653;0,0642906
3277,4294;0,064362
3278,3938;0,0644398
3279,3579;0,0645109
3280,3223;0,0645642
3281,2864;0,0645941
3282,2507;0,0646021
3283,2148;0,0645954
3284,1792;0,0645842
3285,1433;0,0645786
3286,1077;0,0645858
3287,0718;0,0646077
3288,0361;0,0646405
3289,0002;0,0646758
3289,9646;0,0647037
3290,9287;0,0647172
3291,8931;0,0647153
3292,8572;0,0647029
3293,8215;0,0646878
3294,7856;0,0646768
3295,7500;0,0646725
3296,7141;0,0646735
3297,6785;0,0646764
3298,6426;0,0646785
3299,6069;0,0646786
3300,5710;0,0646764
3301,5354;0,064672
3302,4995;0,0646655
3303,4639;0,0646574
3304,4280;0,0646494
3305,3923;0,0646439
3306,3564;0,0646427
3307,3208;0,064646
3308,2849;0,0646526
3309,2493;0,0646618
3310,2134;0,0646752
3311,1777;0,064696
3312,1418;0,0647269
3313,1062;0,0647668
3314,0703;0,0648097
3315,0347;0,0648474
3315,9988;0,0648739
3316,9631;0,0648898
3317,9272;0,064903
3318,8916;0,0649243
3319,8557;0,0649612
3320,8201;0,065013
3321,7842;0,0650711
3322,7485;0,0651244
3323,7126;0,0651655
3324,6770;0,0651951
3325,6411;0,0652206
3326,6055;0,0652515
3327,5696;0,0652936
3328,5339;0,0653455
3329,4980;0,0653999
3330,4624;0,065446
3331,4265;0,0654736
3332,3909;0,0654762
3333,3550;0,0654532
3334,3193;0,0654109
3335,2834;0,0653607
3336,2478;0,065315
3337,2119;0,0652811
3338,1763;0,0652582
3339,1404;0,0652376
3340,1047;0,0652092
3341,0688;0,0651674
3342,0332;0,065115
3342,9973;0,0650598
3343,9617;0,0650085
3344,9258;0,0649607
3345,8901;0,0649091
3346,8542;0,0648438
3347,8186;0,0647595
3348,7827;0,0646589
3349,7471;0,0645512
3350,7112;0,0644475
3351,6755;0,0643548
3352,6396;0,0642743
3353,6040;0,0642025
3354,5681;0,0641336
3355,5325;0,0640624
3356,4966;0,0639861
3357,4609;0,0639049
3358,4250;0,0638214
3359,3894;0,0637393
3360,3535;0,0636612
3361,3179;0,0635861
3362,2820;0,0635085
3363,2463;0,0634207
3364,2104;0,0633172
3365,1748;0,0631988
3366,1389;0,0630739
3367,1033;0,0629553
3368,0674;0,0628536
3369,0317;0,0627715
3369,9958;0,0627029
3370,9602;0,0626372
3371,9243;0,0625662
3372,8887;0,0624878
3373,8528;0,0624067
3374,8171;0,0623284
3375,7813;0,0622547
3376,7456;0,0621814
3377,7097;0,0621011
3378,6741;0,062009
3379,6382;0,061906
3380,6025;0,061798
3381,5667;0,0616925
3382,5310;0,0615948
3383,4951;0,0615071
3384,4595;0,0614298
3385,4236;0,061362
3386,3879;0,0613009
3387,3521;0,0612404
3388,3164;0,0611726
3389,2805;0,0610921
3390,2449;0,0610003
3391,2090;0,0609067
3392,1733;0,0608228
3393,1375;0,0607541
3394,1018;0,0606948
3395,0659;0,0606305
3396,0303;0,0605476
3396,9944;0,0604417
3397,9587;0,0603203
3398,9229;0,0601973
3399,8872;0,0600845
3400,8513;0,059986
3401,8157;0,059899
3402,7798;0,0598175
3403,7441;0,0597367
3404,7083;0,0596539
3405,6726;0,0595669
3406,6367;0,0594728
3407,6011;0,0593678
3408,5652;0,0592494
3409,5295;0,0591185
3410,4937;0,0589811
3411,4580;0,0588477
3412,4221;0,0587303
3413,3865;0,0586377
3414,3506;0,0585695
3415,3149;0,0585131
3416,2791;0,0584477
3417,2434;0,0583521
3418,2075;0,0582154
3419,1719;0,0580438
3420,1360;0,0578582
3421,1003;0,0576838
3422,0645;0,0575363
3423,0288;0,0574159
3423,9929;0,05731
3424,9573;0,0572035
3425,9214;0,0570871
3426,8857;0,0569597
3427,8499;0,0568253
3428,8142;0,0566877
3429,7783;0,0565465
3430,7427;0,0563977
3431,7068;0,0562374
3432,6711;0,0560664
3433,6353;0,0558925
3434,5996;0,055728
3435,5637;0,0555842
3436,5281;0,0554651
3437,4922;0,0553649
3438,4565;0,055271
3439,4207;0,0551712
3440,3850;0,0550589
3441,3491;0,054935
3442,3135;0,0548028
3443,2776;0,0546627
3444,2419;0,0545101
3445,2061;0,0543389
3446,1704;0,0541495
3447,1345;0,0539515
3448,0989;0,0537609
3449,0630;0,0535901
3450,0273;0,0534411
3450,9915;0,0533066
3451,9558;0,0531765
3452,9199;0,0530444
3453,8843;0,0529101
3454,8484;0,0527768
3455,8127;0,0526471
3456,7769;0,0525199
3457,7412;0,0523907
3458,7053;0,0522545
3459,6697;0,0521085
3460,6338;0,0519524
3461,5981;0,051788
3462,5623;0,0516183
3463,5266;0,0514458
3464,4907;0,0512727
3465,4551;0,0511009
3466,4192;0,0509327
3467,3835;0,0507711
3468,3477;0,050619
3469,3120;0,0504779
3470,2761;0,0503458
3471,2405;0,0502174
3472,2046;0,0500859
3473,1689;0,0499474
3474,1331;0,0498041
3475,0974;0,0496641
3476,0615;0,0495357
3477,0259;0,0494214
3477,9900;0,0493143
3478,9543;0,0492016
3479,9185;0,0490725
3480,8828;0,0489249
3481,8469;0,0487674
3482,8113;0,0486124
3483,7754;0,0484656
3484,7397;0,0483218
3485,7039;0,0481698
3486,6682;0,0480029
3487,6323;0,0478272
3488,5967;0,0476605
3489,5608;0,047521
3490,5251;0,047413
3491,4893;0,0473218
3492,4536;0,0472209
3493,4177;0,0470878
3494,3821;0,0469191
3495,3462;0,0467356
3496,3105;0,0465697
3497,2747;0,0464449
3498,2390;0,0463596
3499,2031;0,0462869
3500,1675;0,0461905
3501,1316;0,0460443
3502,0959;0,0458483
3503,0601;0,0456291
3504,0244;0,0454214
3504,9885;0,0452447
3505,9529;0,0450932
3506,9170;0,0449456
3507,8813;0,0447823
3508,8455;0,0445982
3509,8098;0,0444051
3510,7739;0,0442217
3511,7383;0,0440604
3512,7024;0,0439205
3513,6667;0,043793
3514,6309;0,0436702
3515,5952;0,0435521
3516,5593;0,0434452
3517,5237;0,0433558
3518,4878;0,0432837
3519,4521;0,0432207
3520,4163;0,0431552
3521,3806;0,0430773
3522,3447;0,0429817
3523,3091;0,0428646
3524,2732;0,0427196
3525,2375;0,0425371
3526,2017;0,042311
3527,1660;0,0420499
3528,1301;0,0417807
3529,0945;0,0415407
3530,0586;0,0413574
3531,0229;0,0412319
3531,9871;0,0411387
3532,9514;0,0410401
3533,9155;0,0409053
3534,8799;0,0407263
3535,8440;0,0405227
3536,8083;0,0403336
3537,7725;0,0401978
3538,7368;0,040135
3539,7009;0,0401369
3540,6653;0,0401705
3541,6294;0,040188
3542,5938;0,0401397
3543,5579;0,0399914
3544,5222;0,0397456
3545,4863;0,0394491
3546,4507;0,0391699
3547,4148;0,038954
3548,3792;0,038799
3549,3433;0,038666
3550,3076;0,0385117
3551,2717;0,0383191
3552,2361;0,0381101
3553,2002;0,0379314
3554,1646;0,0378198
3555,1287;0,0377758
3556,0930;0,037766
3557,0571;0,0377496
3558,0215;0,0377065
3558,9856;0,0376508
3559,9500;0,0376194
3560,9141;0,0376416
3561,8784;0,0377087
3562,8425;0,0377659
3563,8069;0,0377255
3564,7710;0,037499
3565,7354;0,0370548
3566,6995;0,0364794
3567,6638;0,0359533
3568,6279;0,0356147
3569,5923;0,035469
3570,5564;0,0354313
3571,5208;0,0354096
3572,4849;0,0353515
3573,4492;0,035249
3574,4133;0,0351229
3575,3777;0,034997
3576,3418;0,0348807
3577,3062;0,034769
3578,2703;0,0346593
3579,2346;0,0345658
3580,1987;0,0345156
3581,1631;0,034527
3582,1272;0,0345876
3583,0916;0,034649
3584,0557;0,0346394
3585,0200;0,0344903
3585,9841;0,0341809
3586,9485;0,0337849
3587,9126;0,033451
3588,8770;0,0332891
3589,8411;0,0332886
3590,8054;0,0333527
3591,7695;0,0333781
3592,7339;0,0333079
3593,6980;0,033149
3594,6624;0,0329584
3595,6265;0,0327962
3596,5908;0,0326762
3597,5549;0,0325604
3598,5193;0,0324017
3599,4834;0,0321935
3600,4478;0,031985
3601,4119;0,0318455
3602,3762;0,0318073
3603,3403;0,0318409
3604,3047;0,0318756
3605,2688;0,0318403
3606,2332;0,0316991
3607,1973;0,0314709
3608,1616;0,0312199
3609,1257;0,0310134
3610,0901;0,0308816
3611,0542;0,0308142
3612,0186;0,0307865
3612,9827;0,0307788
3613,9470;0,0307734
3614,9111;0,0307401
3615,8755;0,030631
3616,8396;0,0303985
3617,8040;0,0300346
3618,7681;0,0296135
3619,7324;0,0292824
3620,6965;0,0291709
3621,6609;0,0292985
3622,6250;0,0295782
3623,5894;0,0298795
3624,5535;0,0300769
3625,5178;0,0300634
3626,4819;0,029761
3627,4463;0,0291733
3628,4104;0,028465
3629,3748;0,027909
3630,3389;0,0276525
3631,3032;0,0276193
3632,2673;0,0276471
3633,2317;0,0276227
3634,1958;0,027518
3635,1602;0,0273672
3636,1243;0,0272227
3637,0886;0,0271169
3638,0527;0,0270516
3639,0171;0,0270161
3639,9812;0,0270121
3640,9456;0,0270603
3641,9097;0,0271839
3642,8740;0,0273839
3643,8381;0,0276263
3644,8025;0,0278404
3645,7666;0,0279179
3646,7310;0,0277133
3647,6951;0,0271132
3648,6594;0,0262341
3649,6235;0,0254768
3650,5879;0,0251409
3651,5520;0,0251649
3652,5164;0,0253126
3653,4805;0,0253849
3654,4448;0,025288
3655,4089;0,0250407
3656,3733;0,0247512
3657,3374;0,0245421
3658,3018;0,0244615
3659,2659;0,0244686
3660,2302;0,0244984
3661,1943;0,0245269
3662,1587;0,0245848
3663,1228;0,0247187
3664,0872;0,0249376
3665,0513;0,0251919
3666,0156;0,0253949
3666,9797;0,0254677
3667,9441;0,0253877
3668,9082;0,0252239
3669,8726;0,0251065
3670,8367;0,0251108
3671,8010;0,0251788
3672,7651;0,0251673
3673,7295;0,0249507
3674,6936;0,0245159
3675,6580;0,0240164
3676,6221;0,0236752
3677,5864;0,0235853
3678,5505;0,0236701
3679,5149;0,0238134
3680,4790;0,0239576
3681,4434;0,0241122
3682,4075;0,0243102
3683,3718;0,0245612
3684,3359;0,0248291
3685,3003;0,0250418
3686,2644;0,0251148
3687,2288;0,0249821
3688,1929;0,024645
3689,1572;0,0242211
3690,1213;0,0238957
3691,0857;0,0237736
3692,0498;0,0238259
3693,0142;0,0239699
3693,9783;0,0241425
3694,9426;0,0243141
3695,9067;0,0244688
3696,8711;0,0245851
3697,8352;0,0246313
3698,7996;0,0245787
3699,7637;0,0244274
3700,7280;0,0242291
3701,6921;0,0240809
3702,6565;0,0240756
3703,6206;0,0242433
3704,5850;0,024539
3705,5491;0,0248769
3706,5134;0,025164
3707,4775;0,0253118
3708,4419;0,0252366
3709,4060;0,0248862
3710,3704;0,0243154
3711,3345;0,0237312
3712,2988;0,0233699
3713,2629;0,0233192
3714,2273;0,0235081
3715,1914;0,023813
3716,1558;0,0241328
3717,1199;0,0244097
3718,0842;0,0246232
3719,0483;0,0247774
3720,0127;0,0248855
3720,9768;0,0249552
3721,9412;0,0249835
3722,9053;0,0249662
3723,8696;0,0249187
3724,8337;0,0248851
3725,7981;0,0249203
3726,7622;0,0250544
3727,7266;0,0252734
3728,6907;0,0255305
3729,6550;0,025769
3730,6191;0,0259348
3731,5835;0,0259732
3732,5476;0,0258258
3733,5120;0,0254603
3734,4761;0,0249477
3735,4404;0,0244929
3736,4045;0,0243051
3737,3689;0,0244325
3738,3330;0,0247609
3739,2974;0,0251175
3740,2615;0,0253475
3741,2258;0,0253475
3742,1899;0,0250953
3743,1543;0,0246981
3744,1184;0,0243927
3745,0828;0,0243872
3746,0469;0,0246665
3747,0112;0,0250164
3747,9753;0,0251855
3748,9397;0,0250025
3749,9038;0,0244721
3750,8682;0,0238482
3751,8323;0,0234814
3752,7966;0,0235018
3753,7607;0,0237711
3754,7251;0,0240757
3755,6892;0,0242613
3756,6536;0,0242639
3757,6177;0,0241096
3758,5820;0,0238999
3759,5461;0,0237561
3760,5105;0,0237432
3761,4746;0,0238447
3762,4390;0,0239989
3763,4031;0,0241443
3764,3674;0,0242404
3765,3315;0,024268
3766,2959;0,0242211
3767,2600;0,0241012
3768,2244;0,023921
3769,1885;0,0237172
3770,1528;0,0235513
3771,1169;0,0234859
3772,0813;0,0235471
3773,0454;0,0237078
3774,0098;0,0239048
3774,9739;0,0240677
3775,9382;0,0241434
3776,9023;0,0241139
3777,8667;0,0240068
3778,8308;0,023887
3779,7952;0,0238184
3780,7593;0,0238219
3781,7236;0,0238699
3782,6877;0,023915
3783,6521;0,0239206
3784,6162;0,023877
3785,5806;0,0238019
3786,5447;0,0237296
3787,5090;0,0236947
3788,4731;0,0237169
3789,4375;0,0237948
3790,4016;0,0239083
3791,3660;0,0240303
3792,3301;0,0241427
3793,2944;0,0242489
3794,2585;0,0243733
3795,2229;0,0245404
3796,1870;0,0247449
3797,1514;0,0249362
3798,1155;0,0250349
3799,0798;0,0249778
3800,0439;0,0247707
3801,0083;0,0245094
3801,9724;0,0243166
3802,9368;0,0242313
3803,9009;0,0241797
3804,8652;0,0240552
3805,8293;0,0238199
3806,7937;0,0235566
3807,7578;0,0234233
3808,7222;0,0235241
3809,6863;0,0238247
3810,6506;0,0241957
3811,6147;0,0245073
3812,5791;0,0246884
3813,5432;0,0247474
3814,5076;0,0247607
3815,4717;0,0248205
3816,4360;0,0249518
3817,4001;0,0250775
3818,3645;0,0250723
3819,3286;0,0248593
3820,2930;0,0244866
3821,2571;0,0241182
3822,2214;0,0239109
3823,1855;0,0238967
3824,1499;0,0239992
3825,1140;0,024125
3826,0784;0,0242236
3827,0425;0,0242944
3828,0068;0,0243643
3828,9709;0,0244586
3829,9353;0,024585
3830,8994;0,0247345
3831,8638;0,0248911
3832,8279;0,0250376
3833,7922;0,0251523
3834,7563;0,0252057
3835,7207;0,0251648
3836,6848;0,0250119
3837,6492;0,0247681
3838,6133;0,024496
3839,5776;0,0242615
3840,5417;0,02409
3841,5061;0,0239699
3842,4702;0,0238911
3843,4346;0,0238744
3844,3987;0,0239644
3845,3630;0,0241948
3846,3271;0,0245569
3847,2915;0,0249937
3848,2556;0,0254157
3849,2200;0,0257148
3850,1841;0,0257649
3851,1484;0,0254327
3852,1125;0,0246771
3853,0769;0,0237545
3854,0410;0,0231517
3855,0054;0,023101
3855,9695;0,0234427
3856,9338;0,0239196
3857,8979;0,0243585
3858,8623;0,0246772
3859,8264;0,0248495
3860,7908;0,024883
3861,7549;0,0248161
3862,7192;0,024718
3863,6833;0,0246653
3864,6477;0,0246983
3865,6118;0,0247962
3866,5762;0,0248973
3867,5403;0,0249355
3868,5046;0,024868
3869,4688;0,0246913
3870,4331;0,0244472
3871,3972;0,024209
3872,3616;0,0240478
3873,3257;0,0239999
3874,2900;0,0240581
3875,2542;0,0241843
3876,2185;0,0243291
3877,1826;0,0244509
3878,1470;0,0245297
3879,1111;0,0245709
3880,0754;0,0245933
3881,0396;0,0246048
3882,0039;0,024586
3882,9680;0,0245075
3883,9324;0,024369
3884,8965;0,0242214
3885,8608;0,0241387
3886,8250;0,0241571
3887,7893;0,0242405
3888,7534;0,024308
3889,7178;0,0242931
3890,6819;0,0241972
3891,6462;0,0241031
3892,6104;0,0241165
3893,5747;0,0242776
3894,5388;0,0245356
3895,5032;0,0248003
3896,4673;0,0249974
3897,4316;0,0250917
3898,3958;0,0250847
3899,3601;0,0249975
3900,3242;0,0248483
3901,2886;0,0246416
3902,2527;0,024384
3903,2170;0,0241101
3904,1812;0,0238819
3905,1455;0,0237506
3906,1096;0,0237228
3907,0740;0,0237665
3908,0381;0,0238422
3909,0024;0,0239276
3909,9666;0,0240215
3910,9309;0,0241327
3911,8950;0,0242621
3912,8594;0,024392
3913,8235;0,0244882
3914,7878;0,0245168
3915,7520;0,0244655
3916,7163;0,0243604
3917,6804;0,0242586
3918,6448;0,0242127
3919,6089;0,0242352
3920,5732;0,0242946
3921,5374;0,0243439
3922,5017;0,0243535
3923,4658;0,0243313
3924,4302;0,0243168
3925,3943;0,0243502
3926,3586;0,0244389
3927,3228;0,0245487
3928,2871;0,0246244
3929,2512;0,0246195
3930,2156;0,0245215
3931,1797;0,0243623
3932,1440;0,0242039
3933,1082;0,0241028
3934,0725;0,0240818
3935,0366;0,0241297
3936,0010;0,0242189
3936,9651;0,0243207
3937,9294;0,0244101
3938,8936;0,0244666
3939,8579;0,0244775
3940,8220;0,0244453
3941,7864;0,0243922
3942,7505;0,0243514
3943,7148;0,0243472
3944,6790;0,0243781
3945,6433;0,024418
3946,6074;0,0244336
3947,5718;0,024405
3948,5359;0,0243374
3949,5002;0,0242581
3950,4644;0,0241976
3951,4287;0,0241701
3952,3928;0,0241697
3953,3572;0,0241798
3954,3213;0,0241868
3955,2856;0,0241863
3956,2498;0,0241814
3957,2141;0,0241767
3958,1782;0,0241731
3959,1426;0,0241686
3960,1067;0,0241612
3961,0710;0,0241529
3962,0352;0,0241489
3962,9995;0,0241548
3963,9636;0,0241719
3964,9280;0,0241972
3965,8921;0,0242253
3966,8564;0,0242514
3967,8206;0,0242735
3968,7849;0,0242904
3969,7490;0,0242999
3970,7134;0,024297
3971,6775;0,0242766
3972,6418;0,0242382
3973,6060;0,0241906
3974,5703;0,0241504
3975,5344;0,0241345
3976,4988;0,0241511
3977,4629;0,0241938
3978,4272;0,0242446
3979,3914;0,0242826
3980,3557;0,024294
3981,3198;0,0242776
3982,2842;0,0242431
3983,2483;0,0242047
3984,2126;0,0241744
3985,1768;0,024158
3986,1411;0,0241561
3987,1052;0,0241665
3988,0696;0,0241851
3989,0337;0,0242063
3989,9980;0,0242229
3990,9622;0,0242285
3991,9265;0,024221
3992,8906;0,0242055
3993,8550;0,024193
3994,8191;0,0241945
3995,7834;0,0242148
3996,7476;0,0242488
3997,7119;0,0242833
3998,6760;0,0243052
3999,6404;0,024308
4000,6045;0,024353

##### Extended Information
[Comments]
Sample name
Comment
Username
Division
Organization;UNIVERSIDAD INDUSTRIAL DE SANTANDER

[Detailed Information]
Creation date;1/04/2025 2:59 p.m.

Data array type;Linear data array
Horizontal axis;Wavenumber [cm-1]
Vertical axis;Abs
Start;399,193 cm-1
End;4000,6 cm-1
Data interval;0,964233 cm-1
Data points;3736    

[Measurement Information]
Model name;FT/IR-4X1typeA
Serial No.;A035162111

Accessory;ATR PRO 4X
Accessory S/N;A021162126
Incident angle;45 deg

Measurement date;1/04/2025 2:57 p.m.

Light source;Standard
Detector;TGS
Accumulation;40
Resolution;4 cm-1
Zero filling;On
Apodization;Cosine
Gain;Auto (8)
Aperture;Auto (7 mm)
Scan speed;Auto (2 mm/sec)
Filter;Auto (12800 Hz)

