TITLE;
DATA TYPE;INFRARED SPECTRUM
ORIGIN;JASCO
OWNER;
DATE;25/04/01
TIME;15:01:02
SPECTROMETER/DATA SYSTEM;
LOCALE;9226
RESOLUTION;
DELTAX;0,964233
XUNITS;1/CM
YUNITS;ABSORBANCE
FIRSTX;  399,1927
LASTX; 4000,6047
NPOINTS;    3736
FIRSTY;     0,21088
MAXY;     0,23152
MINY;     0,02139
XYDATA
399,1927;0,210876
400,1569;0,209975
401,1211;0,208816
402,0854;0,207668
403,0496;0,206758
404,0138;0,206237
404,9781;0,206159
405,9423;0,206448
406,9065;0,206912
407,8708;0,207314
408,8350;0,207477
409,7992;0,207357
410,7635;0,207081
411,7277;0,206907
412,6919;0,207126
413,6562;0,207933
414,6204;0,209363
415,5846;0,211267
416,5489;0,213258
417,5131;0,214645
418,4773;0,214677
419,4416;0,21329
420,4058;0,211382
421,3700;0,209941
422,3343;0,209324
423,2985;0,209392
424,2627;0,209827
425,2270;0,210308
426,1912;0,210604
427,1554;0,210608
428,1197;0,210328
429,0839;0,209855
430,0481;0,209333
431,0124;0,20894
431,9766;0,208833
432,9408;0,209074
433,9051;0,209578
434,8693;0,210139
435,8335;0,210531
436,7978;0,21064
437,7620;0,210514
438,7262;0,210297
439,6905;0,21011
440,6547;0,209961
441,6189;0,209739
442,5832;0,209281
443,5474;0,208495
444,5116;0,207448
445,4759;0,206348
446,4401;0,205433
447,4043;0,204866
448,3686;0,204688
449,3328;0,204818
450,2970;0,205099
451,2613;0,205371
452,2255;0,205545
453,1897;0,205633
454,1540;0,205706
455,1182;0,205817
456,0824;0,205929
457,0467;0,205917
458,0109;0,205665
458,9751;0,205191
459,9394;0,204664
460,9036;0,20426
461,8678;0,204024
462,8321;0,203858
463,7963;0,203593
464,7605;0,203122
465,7248;0,202481
466,6890;0,201842
467,6532;0,201386
468,6175;0,201184
469,5817;0,201156
470,5459;0,201162
471,5102;0,201118
472,4744;0,201079
473,4386;0,201175
474,4029;0,201476
475,3671;0,201913
476,3313;0,202337
477,2956;0,20263
478,2598;0,202772
479,2240;0,202833
480,1883;0,202903
481,1525;0,203031
482,1167;0,203212
483,0810;0,203424
484,0452;0,203677
485,0094;0,204008
485,9737;0,204428
486,9379;0,204887
487,9021;0,205287
488,8664;0,205547
489,8306;0,205652
490,7948;0,205659
491,7591;0,205652
492,7233;0,205672
493,6875;0,205685
494,6518;0,205618
495,6160;0,205425
496,5802;0,205138
497,5445;0,204857
498,5087;0,20471
499,4729;0,204798
500,4372;0,205153
501,4014;0,205713
502,3656;0,206341
503,3299;0,206876
504,2941;0,207204
505,2583;0,207305
506,2226;0,207254
507,1868;0,207179
508,1510;0,207209
509,1153;0,207419
510,0795;0,207799
511,0437;0,208275
512,0080;0,20875
512,9722;0,209149
513,9365;0,209432
514,9007;0,209594
515,8649;0,209646
516,8292;0,209614
517,7934;0,209525
518,7576;0,2094
519,7219;0,209247
520,6861;0,209053
521,6503;0,208792
522,6146;0,208448
523,5788;0,208027
524,5430;0,207571
525,5073;0,207143
526,4715;0,206793
527,4357;0,206528
528,4000;0,206303
529,3642;0,206055
530,3284;0,205742
531,2927;0,205364
532,2569;0,204954
533,2211;0,204556
534,1854;0,204197
535,1496;0,203873
536,1138;0,203556
537,0781;0,20322
538,0423;0,202864
539,0065;0,202515
539,9708;0,202219
540,9350;0,202018
541,8992;0,201934
542,8635;0,201964
543,8277;0,202085
544,7919;0,20226
545,7562;0,202444
546,7204;0,202599
547,6846;0,202702
548,6489;0,202753
549,6131;0,202779
550,5773;0,202818
551,5416;0,202905
552,5058;0,203057
553,4700;0,203266
554,4343;0,203501
555,3985;0,203719
556,3627;0,20387
557,3270;0,203904
558,2912;0,203776
559,2554;0,203453
560,2197;0,202924
561,1839;0,202213
562,1481;0,201382
563,1124;0,200513
564,0766;0,199687
565,0408;0,198953
566,0051;0,198323
566,9693;0,197782
567,9335;0,197311
568,8978;0,196903
569,8620;0,196565
570,8262;0,196307
571,7905;0,19612
572,7547;0,195972
573,7189;0,195817
574,6832;0,19561
575,6474;0,195323
576,6116;0,194963
577,5759;0,194564
578,5401;0,194171
579,5043;0,193829
580,4686;0,19356
581,4328;0,193363
582,3970;0,193212
583,3613;0,193073
584,3255;0,192918
585,2897;0,192742
586,2540;0,192563
587,2182;0,192407
588,1824;0,192288
589,1467;0,192191
590,1109;0,192076
591,0751;0,191903
592,0394;0,19165
593,0036;0,191335
593,9678;0,190997
594,9321;0,19067
595,8963;0,19036
596,8605;0,190047
597,8248;0,189706
598,7890;0,189327
599,7532;0,188926
600,7175;0,188526
601,6817;0,188142
602,6459;0,18776
603,6102;0,187351
604,5744;0,186888
605,5386;0,186362
606,5029;0,185791
607,4671;0,185205
608,4313;0,18463
609,3956;0,184079
610,3598;0,183553
611,3240;0,183047
612,2883;0,182549
613,2525;0,182041
614,2167;0,181497
615,1810;0,180884
616,1452;0,180178
617,1094;0,179381
618,0737;0,178524
619,0379;0,177652
620,0021;0,176798
620,9664;0,175964
621,9306;0,175134
622,8948;0,174292
623,8591;0,173452
624,8233;0,172632
625,7875;0,171931
626,7518;0,171378
627,7160;0,170951
628,6802;0,170588
629,6445;0,170218
630,6087;0,169792
631,5729;0,169305
632,5372;0,168785
633,5014;0,168271
634,4656;0,167792
635,4299;0,167357
636,3941;0,166956
637,3583;0,166569
638,3226;0,166177
639,2868;0,165761
640,2510;0,165317
641,2153;0,164858
642,1795;0,164418
643,1437;0,164038
644,1080;0,163746
645,0722;0,163533
646,0364;0,163346
647,0007;0,16311
647,9649;0,162769
648,9291;0,162311
649,8934;0,161779
650,8576;0,161245
651,8218;0,160775
652,7861;0,160416
653,7503;0,160187
654,7145;0,160093
655,6788;0,160107
656,6430;0,160176
657,6072;0,160222
658,5715;0,160176
659,5357;0,160006
660,4999;0,159719
661,4642;0,159334
662,4284;0,158823
663,3926;0,15809
664,3569;0,157019
665,3211;0,155581
666,2853;0,153925
667,2496;0,152373
668,2138;0,151244
669,1780;0,150669
670,1423;0,15055
671,1065;0,15055
672,0707;0,150276
673,0350;0,14951
673,9992;0,148273
674,9634;0,146754
675,9277;0,145187
676,8919;0,143741
677,8561;0,142459
678,8204;0,141306
679,7846;0,140257
680,7488;0,13932
681,7131;0,138518
682,6773;0,137849
683,6415;0,13727
684,6058;0,136733
685,5700;0,136208
686,5342;0,135692
687,4985;0,135191
688,4627;0,134709
689,4269;0,134234
690,3912;0,133756
691,3554;0,133279
692,3196;0,132815
693,2839;0,13238
694,2481;0,131986
695,2123;0,131631
696,1766;0,131307
697,1408;0,130993
698,1050;0,130665
699,0693;0,130307
700,0335;0,129924
700,9977;0,129536
701,9620;0,129169
702,9262;0,128835
703,8904;0,128513
704,8547;0,128173
705,8189;0,127783
706,7831;0,127327
707,7474;0,126819
708,7116;0,126285
709,6758;0,125751
710,6401;0,125236
711,6043;0,124743
712,5685;0,124274
713,5328;0,123827
714,4970;0,123398
715,4612;0,122482
716,4255;0,12215
717,3897;0,121812
718,3539;0,121412
719,3182;0,120897
720,2824;0,12025
721,2466;0,119501
722,2109;0,118714
723,1751;0,117955
724,1393;0,117267
725,1036;0,116663
726,0678;0,116136
727,0320;0,115668
727,9963;0,115237
728,9605;0,114818
729,9247;0,114385
730,8890;0,113922
731,8532;0,113427
732,8174;0,112913
733,7817;0,112403
734,7459;0,111918
735,7101;0,111473
736,6744;0,111069
737,6386;0,110705
738,6028;0,110375
739,5671;0,110076
740,5313;0,109798
741,4955;0,109522
742,4598;0,109224
743,4240;0,108882
744,3882;0,108487
745,3525;0,10805
746,3167;0,1076
747,2809;0,107173
748,2452;0,106795
749,2094;0,106472
750,1736;0,106189
751,1379;0,105915
752,1021;0,105622
753,0663;0,105295
754,0306;0,10494
754,9948;0,104577
755,9590;0,104234
756,9233;0,103932
757,8875;0,103681
758,8517;0,103477
759,8160;0,103305
760,7802;0,103144
761,7444;0,102973
762,7087;0,10278
763,6729;0,102565
764,6371;0,102343
765,6014;0,102136
766,5656;0,101966
767,5298;0,101845
768,4941;0,101771
769,4583;0,10173
770,4225;0,101705
771,3868;0,101682
772,3510;0,101661
773,3152;0,101651
774,2795;0,101667
775,2437;0,101728
776,2079;0,101845
777,1722;0,102013
778,1364;0,102207
779,1006;0,102369
780,0649;0,102417
781,0291;0,10226
781,9933;0,101828
782,9576;0,1011
783,9218;0,100118
784,8860;0,0989785
785,8503;0,097799
786,8145;0,0966848
787,7787;0,0957032
788,7430;0,0948815
789,7072;0,0942205
790,6714;0,0937102
791,6357;0,0933362
792,5999;0,0930758
793,5641;0,0928935
794,5284;0,0927452
795,4926;0,0925937
796,4568;0,0924258
797,4211;0,0922561
798,3853;0,0921145
799,3495;0,0920235
800,3138;0,0919818
801,2780;0,0919656
802,2422;0,0919455
803,2065;0,0919054
804,1707;0,0918484
805,1349;0,0917872
806,0992;0,0917284
807,0634;0,0916655
808,0276;0,0915859
808,9919;0,0914861
809,9561;0,0913803
810,9203;0,0912949
811,8846;0,0912519
812,8488;0,0912544
813,8130;0,0912845
814,7773;0,0913143
815,7415;0,0913209
816,7057;0,0912956
817,6700;0,0912415
818,6342;0,0911673
819,5984;0,0910817
820,5627;0,0909941
821,5269;0,0909158
822,4911;0,0908579
823,4554;0,0908262
824,4196;0,0908145
825,3839;0,0908064
826,3481;0,0907839
827,3123;0,0907379
828,2766;0,0906727
829,2408;0,0906005
830,2050;0,0905298
831,1693;0,0904559
832,1335;0,0903613
833,0977;0,0902241
834,0620;0,0900297
835,0262;0,0897763
835,9904;0,0894737
836,9547;0,0891365
837,9189;0,0887783
838,8831;0,0884093
839,8474;0,0880375
840,8116;0,0876694
841,7758;0,0873091
842,7401;0,0869566
843,7043;0,086608
844,6685;0,0862593
845,6328;0,0859105
846,5970;0,0855677
847,5612;0,0852391
848,5255;0,0849291
849,4897;0,0846345
850,4539;0,0843464
851,4182;0,0840572
852,3824;0,0837673
853,3466;0,0834861
854,3109;0,0832263
855,2751;0,082996
856,2393;0,0827943
857,2036;0,0826129
858,1678;0,0824424
859,1320;0,0822779
860,0963;0,0821192
861,0605;0,0819686
862,0247;0,0818283
862,9890;0,081702
863,9532;0,0815985
864,9174;0,0815334
865,8817;0,0815249
866,8459;0,0815843
867,8101;0,0817079
868,7744;0,0818745
869,7386;0,082053
870,7028;0,0822154
871,6671;0,0823482
872,6313;0,0824561
873,5955;0,0825564
874,5598;0,0826673
875,5240;0,0827988
876,4882;0,082949
877,4525;0,0831103
878,4167;0,0832784
879,3809;0,08346
880,3452;0,083673
881,3094;0,0839391
882,2736;0,0842747
883,2379;0,0846853
884,2021;0,085167
885,1663;0,0857131
886,1306;0,0863189
887,0948;0,0869818
888,0590;0,0876959
889,0233;0,0884482
889,9875;0,0892181
890,9517;0,0899829
891,9160;0,0907203
892,8802;0,0914081
893,8444;0,0920178
894,8087;0,092512
895,7729;0,0928475
896,7371;0,0929871
897,7014;0,0929114
898,6656;0,0926241
899,6298;0,0921474
900,5941;0,091513
901,5583;0,0907552
902,5225;0,0899113
903,4868;0,0890237
904,4510;0,0881402
905,4152;0,0873067
906,3795;0,0865576
907,3437;0,0859093
908,3079;0,0853626
909,2722;0,0849111
910,2364;0,0845499
911,2007;0,0842789
912,1649;0,0840987
913,1292;0,0840052
914,0934;0,0839863
915,0576;0,0840243
916,0219;0,0841009
916,9861;0,0842017
917,9503;0,0843186
918,9146;0,0844487
919,8788;0,0845932
920,8430;0,0847555
921,8073;0,0849401
922,7715;0,085149
923,7357;0,0853807
924,7000;0,0856289
925,6642;0,085886
926,6284;0,0861482
927,5927;0,0864188
928,5569;0,0867084
929,5211;0,087029
930,4854;0,0873863
931,4496;0,0877748
932,4138;0,0881798
933,3781;0,0885861
934,3423;0,0889891
935,3065;0,0894004
936,2708;0,0898453
937,2350;0,0903516
938,1992;0,0909372
939,1635;0,091605
940,1277;0,092346
941,0919;0,0931497
942,0562;0,0940136
943,0204;0,0949454
943,9846;0,0959572
944,9489;0,0970575
945,9131;0,0982453
946,8773;0,0995118
947,8416;0,100846
948,8058;0,10224
949,7700;0,103689
950,7343;0,105192
951,6985;0,106742
952,6627;0,108332
953,6270;0,10995
954,5912;0,111591
955,5554;0,113254
956,5197;0,114939
957,4839;0,116645
958,4481;0,118366
959,4124;0,120084
960,3766;0,121781
961,3408;0,123441
962,3051;0,125061
963,2693;0,126651
964,2335;0,12823
965,1978;0,129816
966,1620;0,131418
967,1262;0,133036
968,0905;0,134665
969,0547;0,136307
970,0189;0,137973
970,9832;0,13969
971,9474;0,141486
972,9116;0,143384
973,8759;0,145398
974,8401;0,147527
975,8043;0,149765
976,7686;0,152094
977,7328;0,154492
978,6970;0,156925
979,6613;0,159357
980,6255;0,16175
981,5897;0,164072
982,5540;0,166298
983,5182;0,168408
984,4824;0,170386
985,4467;0,172219
986,4109;0,173901
987,3751;0,175435
988,3394;0,17683
989,3036;0,178098
990,2678;0,179248
991,2321;0,180283
992,1963;0,18121
993,1605;0,182045
994,1248;0,182814
995,0890;0,183556
996,0532;0,184306
997,0175;0,185089
997,9817;0,185913
998,9459;0,186776
999,9102;0,187671
1000,8744;0,188598
1001,8386;0,189566
1002,8029;0,190593
1003,7671;0,191699
1004,7313;0,192902
1005,6956;0,194216
1006,6598;0,195651
1007,6240;0,197218
1008,5883;0,198926
1009,5525;0,200778
1010,5167;0,202766
1011,4810;0,204864
1012,4452;0,207032
1013,4094;0,209215
1014,3737;0,211364
1015,3379;0,213437
1016,3021;0,21541
1017,2664;0,217268
1018,2306;0,219005
1019,1948;0,220612
1020,1591;0,222086
1021,1233;0,223432
1022,0875;0,224661
1023,0518;0,225793
1024,0160;0,226848
1024,9802;0,227834
1025,9445;0,228752
1026,9087;0,229589
1027,8729;0,230323
1028,8372;0,230919
1029,8014;0,231336
1030,7656;0,231516
1031,7299;0,231407
1032,6941;0,230968
1033,6583;0,230194
1034,6226;0,229121
1035,5868;0,227827
1036,5510;0,226408
1037,5153;0,22496
1038,4795;0,223563
1039,4437;0,222269
1040,4080;0,221105
1041,3722;0,22008
1042,3364;0,219183
1043,3007;0,218385
1044,2649;0,217641
1045,2291;0,216891
1046,1934;0,216074
1047,1576;0,21514
1048,1218;0,21406
1049,0861;0,212823
1050,0503;0,211429
1051,0145;0,209882
1051,9788;0,208182
1052,9430;0,206333
1053,9072;0,204352
1054,8715;0,202267
1055,8357;0,20011
1056,7999;0,197902
1057,7642;0,195633
1058,7284;0,193267
1059,6926;0,190765
1060,6569;0,188115
1061,6211;0,185354
1062,5853;0,182567
1063,5496;0,179859
1064,5138;0,177323
1065,4780;0,175013
1066,4423;0,172938
1067,4065;0,171076
1068,3707;0,169394
1069,3350;0,167856
1070,2992;0,16643
1071,2634;0,165077
1072,2277;0,16376
1073,1919;0,16244
1074,1561;0,161087
1075,1204;0,159686
1076,0846;0,158239
1077,0488;0,15676
1078,0131;0,155275
1078,9773;0,153811
1079,9415;0,1524
1080,9058;0,151073
1081,8700;0,149852
1082,8342;0,148751
1083,7985;0,147767
1084,7627;0,146882
1085,7269;0,146072
1086,6912;0,145311
1087,6554;0,14458
1088,6196;0,143869
1089,5839;0,143181
1090,5481;0,142529
1091,5123;0,141922
1092,4766;0,141365
1093,4408;0,140853
1094,4050;0,140377
1095,3693;0,139933
1096,3335;0,139523
1097,2977;0,139162
1098,2620;0,138863
1099,2262;0,138632
1100,1904;0,138459
1101,1547;0,13832
1102,1189;0,138182
1103,0831;0,138016
1104,0474;0,137803
1105,0116;0,137534
1105,9758;0,13721
1106,9401;0,136833
1107,9043;0,136401
1108,8685;0,135911
1109,8328;0,135351
1110,7970;0,134703
1111,7612;0,133953
1112,7255;0,133094
1113,6897;0,132137
1114,6539;0,131111
1115,6182;0,130059
1116,5824;0,129026
1117,5466;0,128042
1118,5109;0,127117
1119,4751;0,126233
1120,4393;0,125353
1121,4036;0,124428
1122,3678;0,123406
1123,3320;0,122245
1124,2963;0,120917
1125,2605;0,119415
1126,2247;0,117751
1127,1890;0,115957
1128,1532;0,114074
1129,1174;0,112147
1130,0817;0,110216
1131,0459;0,108313
1132,0101;0,106466
1132,9744;0,104701
1133,9386;0,103049
1134,9028;0,101541
1135,8671;0,100211
1136,8313;0,0990864
1137,7955;0,098184
1138,7598;0,0975053
1139,7240;0,0970381
1140,6882;0,0967608
1141,6525;0,0966483
1142,6167;0,0966764
1143,5809;0,0968251
1144,5452;0,0970789
1145,5094;0,097426
1146,4736;0,0978572
1147,4379;0,0983644
1148,4021;0,0989388
1149,3663;0,0995682
1150,3306;0,100235
1151,2948;0,100918
1152,2590;0,101589
1153,2233;0,102219
1154,1875;0,10278
1155,1517;0,103236
1156,1160;0,103548
1157,0802;0,103672
1158,0444;0,103564
1159,0087;0,103183
1159,9729;0,102501
1160,9371;0,101508
1161,9014;0,100207
1162,8656;0,0986181
1163,8298;0,0967774
1164,7941;0,0947343
1165,7583;0,0925511
1166,7225;0,0902989
1167,6868;0,0880497
1168,6510;0,0858685
1169,6152;0,0838062
1170,5795;0,0818957
1171,5437;0,0801526
1172,5079;0,0785789
1173,4722;0,0771684
1174,4364;0,0759116
1175,4006;0,0747987
1176,3649;0,0738215
1177,3291;0,0729728
1178,2933;0,0722449
1179,2576;0,0716282
1180,2218;0,0711114
1181,1860;0,0706822
1182,1503;0,0703302
1183,1145;0,0700491
1184,0787;0,0698366
1185,0430;0,0696936
1186,0072;0,0696224
1186,9714;0,0696244
1187,9357;0,0696995
1188,8999;0,0698455
1189,8641;0,0700579
1190,8284;0,0703302
1191,7926;0,0706559
1192,7568;0,0710301
1193,7211;0,0714525
1194,6853;0,0719271
1195,6495;0,0724591
1196,6138;0,0730496
1197,5780;0,0736905
1198,5422;0,0743655
1199,5065;0,0749017
1200,4707;0,0756087
1201,4349;0,0763125
1202,3992;0,0770187
1203,3634;0,0777372
1204,3276;0,0784732
1205,2919;0,0792233
1206,2561;0,0799773
1207,2203;0,0807267
1208,1846;0,081473
1209,1488;0,0822298
1210,1130;0,083019
1211,0773;0,0838602
1212,0415;0,0847626
1213,0057;0,0857204
1213,9700;0,0867155
1214,9342;0,0877241
1215,8984;0,0887236
1216,8627;0,0896945
1217,8269;0,090622
1218,7911;0,091497
1219,7554;0,0923156
1220,7196;0,0930782
1221,6838;0,0937886
1222,6481;0,0944505
1223,6123;0,0950665
1224,5765;0,0956365
1225,5408;0,0961605
1226,5050;0,0966399
1227,4692;0,0970788
1228,4335;0,0974817
1229,3977;0,0978506
1230,3619;0,0981835
1231,3262;0,0984757
1232,2904;0,0987246
1233,2546;0,0989335
1234,2189;0,0991121
1235,1831;0,0992727
1236,1473;0,0994243
1237,1116;0,0995674
1238,0758;0,0996938
1239,0400;0,0997902
1240,0043;0,0998445
1240,9685;0,0998504
1241,9327;0,0998086
1242,8970;0,0997244
1243,8612;0,099603
1244,8254;0,0994461
1245,7897;0,0992522
1246,7539;0,0990185
1247,7181;0,0987449
1248,6824;0,0984369
1249,6466;0,0981048
1250,6108;0,0977615
1251,5751;0,0974185
1252,5393;0,0970827
1253,5035;0,0967548
1254,4678;0,0964299
1255,4320;0,0960987
1256,3962;0,0957495
1257,3605;0,0953712
1258,3247;0,0949555
1259,2889;0,0944993
1260,2532;0,0940046
1261,2174;0,0934763
1262,1816;0,092919
1263,1459;0,0923348
1264,1101;0,0917229
1265,0743;0,0910798
1266,0386;0,0904011
1267,0028;0,0896803
1267,9670;0,0889107
1268,9313;0,0880877
1269,8955;0,087213
1270,8597;0,0862969
1271,8240;0,0853577
1272,7882;0,0844151
1273,7524;0,0834848
1274,7167;0,0825754
1275,6809;0,0816914
1276,6451;0,080837
1277,6094;0,0800189
1278,5736;0,0792445
1279,5378;0,0785185
1280,5021;0,0778406
1281,4663;0,077207
1282,4305;0,0766144
1283,3948;0,0760628
1284,3590;0,0755561
1285,3232;0,0751001
1286,2875;0,0747001
1287,2517;0,0743601
1288,2159;0,0740824
1289,1802;0,0738681
1290,1444;0,073716
1291,1086;0,0736223
1292,0729;0,0735808
1293,0371;0,0735862
1294,0013;0,0736361
1294,9656;0,0737322
1295,9298;0,0738783
1296,8940;0,0740779
1297,8583;0,0743308
1298,8225;0,0746336
1299,7867;0,0749813
1300,7510;0,0753701
1301,7152;0,0758002
1302,6794;0,0762737
1303,6437;0,0767929
1304,6079;0,07736
1305,5721;0,0779755
1306,5364;0,0786388
1307,5006;0,0793507
1308,4648;0,080115
1309,4291;0,0809377
1310,3933;0,0818217
1311,3575;0,0827578
1312,3218;0,0837166
1313,2860;0,0846462
1314,2502;0,0854782
1315,2145;0,0861379
1316,1787;0,0865555
1317,1429;0,0866781
1318,1072;0,0864864
1319,0714;0,0860104
1320,0356;0,0853294
1320,9999;0,0845499
1321,9641;0,0837691
1322,9283;0,0830512
1323,8926;0,0824228
1324,8568;0,0818824
1325,8210;0,0814142
1326,7853;0,0809973
1327,7495;0,0806113
1328,7137;0,0802389
1329,6780;0,079866
1330,6422;0,0794839
1331,6064;0,0790902
1332,5707;0,0786882
1333,5349;0,0782843
1334,4991;0,0778804
1335,4634;0,0774677
1336,4276;0,0770246
1337,3918;0,0765222
1338,3561;0,0759434
1339,3203;0,0753086
1340,2845;0,0746823
1341,2488;0,0741382
1342,2130;0,0737156
1343,1772;0,0734083
1344,1415;0,0731873
1345,1057;0,0730255
1346,0699;0,0729102
1347,0342;0,0728429
1347,9984;0,0728349
1348,9626;0,0728993
1349,9269;0,0730432
1350,8911;0,0732617
1351,8553;0,0735394
1352,8196;0,0738573
1353,7838;0,0742025
1354,7480;0,0745745
1355,7123;0,0749824
1356,6765;0,0754342
1357,6407;0,0759271
1358,6050;0,076447
1359,5692;0,0769728
1360,5334;0,0774783
1361,4977;0,0779335
1362,4619;0,07832
1363,4261;0,0786507
1364,3904;0,0789582
1365,3546;0,0792616
1366,3188;0,0795544
1367,2831;0,0798189
1368,2473;0,0800417
1369,2115;0,0802177
1370,1758;0,080344
1371,1400;0,0804097
1372,1042;0,0803914
1373,0685;0,0802599
1374,0327;0,0799995
1374,9969;0,0796287
1375,9612;0,0791879
1376,9254;0,0786992
1377,8896;0,0781443
1378,8539;0,0774896
1379,8181;0,0767292
1380,7823;0,0759037
1381,7466;0,0750766
1382,7108;0,0742852
1383,6750;0,0735134
1384,6393;0,0727083
1385,6035;0,071829
1386,5677;0,0709019
1387,5320;0,0700387
1388,4962;0,0693692
1389,4604;0,0689371
1390,4247;0,0686785
1391,3889;0,0684916
1392,3531;0,0683068
1393,3174;0,0681086
1394,2816;0,0679159
1395,2458;0,0677507
1396,2101;0,0676213
1397,1743;0,0675289
1398,1385;0,0674856
1399,1028;0,0675168
1400,0670;0,0676439
1401,0313;0,0678638
1401,9955;0,0681472
1402,9597;0,0684571
1403,9240;0,0687712
1404,8882;0,0690936
1405,8524;0,0694501
1406,8167;0,0698661
1407,7809;0,0703453
1408,7451;0,070872
1409,7094;0,0714321
1410,6736;0,0720285
1411,6378;0,072673
1412,6021;0,0733619
1413,5663;0,0740617
1414,5305;0,0747176
1415,4948;0,0752795
1416,4590;0,0757183
1417,4232;0,0760266
1418,3875;0,0762279
1419,3517;0,0763964
1420,3159;0,0766099
1421,2802;0,0768565
1422,2444;0,0770351
1423,2086;0,0770426
1424,1729;0,0768431
1425,1371;0,0764704
1426,1013;0,0759796
1427,0656;0,0753983
1428,0298;0,0747214
1428,9940;0,0739519
1429,9583;0,0731417
1430,9225;0,0723741
1431,8867;0,0716897
1432,8510;0,0710406
1433,8152;0,070324
1434,7794;0,0694594
1435,7437;0,0684734
1436,7079;0,06755
1437,6721;0,0669407
1438,6364;0,0667527
1439,6006;0,0668806
1440,5648;0,0671448
1441,5291;0,0674274
1442,4933;0,0677033
1443,4575;0,0680011
1444,4218;0,0683505
1445,3860;0,0687519
1446,3502;0,0691808
1447,3145;0,069615
1448,2787;0,0700585
1449,2429;0,0705343
1450,2072;0,0710461
1451,1714;0,0715476
1452,1356;0,071956
1453,0999;0,0721965
1454,0641;0,0722359
1455,0283;0,0720717
1455,9926;0,0716796
1456,9568;0,0710722
1457,9210;0,0705302
1458,8853;0,0704077
1459,8495;0,0706719
1460,8137;0,0710168
1461,7780;0,0711626
1462,7422;0,0709457
1463,7064;0,0703126
1464,6707;0,0693446
1465,6349;0,0682677
1466,5991;0,067307
1467,5634;0,0665032
1468,5276;0,0657244
1469,4918;0,0647973
1470,4561;0,063589
1471,4203;0,0620282
1472,3845;0,0601568
1473,3488;0,0582202
1474,3130;0,0565739
1475,2772;0,0553927
1476,2415;0,0545973
1477,2057;0,0540239
1478,1699;0,0535518
1479,1342;0,0531238
1480,0984;0,0527265
1481,0626;0,0523746
1482,0269;0,0521
1482,9911;0,0519339
1483,9553;0,0518877
1484,9196;0,0519471
1485,8838;0,0520858
1486,8480;0,052275
1487,8123;0,0524747
1488,7765;0,0526419
1489,7407;0,0528013
1490,7050;0,0530576
1491,6692;0,0534731
1492,6334;0,05401
1493,5977;0,0546044
1494,5619;0,0552394
1495,5261;0,0559503
1496,4904;0,0567763
1497,4546;0,0577168
1498,4188;0,0587474
1499,3831;0,0598344
1500,3473;0,060901
1501,3115;0,0618274
1502,2758;0,0625111
1503,2400;0,0629262
1504,2042;0,0631486
1505,1685;0,0632975
1506,1327;0,0633318
1507,0969;0,0629958
1508,0612;0,0623605
1509,0254;0,0618443
1509,9896;0,0615543
1510,9539;0,0613198
1511,9181;0,0609816
1512,8823;0,0604704
1513,8466;0,0597763
1514,8108;0,0589152
1515,7750;0,05792
1516,7393;0,0568416
1517,7035;0,05573
1518,6677;0,0546068
1519,6320;0,053469
1520,5962;0,0523333
1521,5604;0,0512782
1522,5247;0,0504063
1523,4889;0,0497504
1524,4531;0,0492498
1525,4174;0,0488275
1526,3816;0,0484654
1527,3458;0,0481996
1528,3101;0,0480566
1529,2743;0,0480126
1530,2385;0,0480138
1531,2028;0,0480223
1532,1670;0,0480399
1533,1312;0,0481018
1534,0955;0,0482444
1535,0597;0,0484579
1536,0239;0,0486787
1536,9882;0,0488546
1537,9524;0,0490145
1538,9166;0,0492427
1539,8809;0,0494981
1540,8451;0,0495435
1541,8093;0,0493686
1542,7736;0,049267
1543,7378;0,0493597
1544,7020;0,0495786
1545,6663;0,0498581
1546,6305;0,0501779
1547,5947;0,0505268
1548,5590;0,0508817
1549,5232;0,0512209
1550,4874;0,051548
1551,4517;0,0518917
1552,4159;0,0522732
1553,3801;0,0526678
1554,3444;0,0530057
1555,3086;0,0532152
1556,2728;0,0532561
1557,2371;0,0530845
1558,2013;0,0526533
1559,1655;0,0522474
1560,1298;0,0524478
1561,0940;0,0533328
1562,0582;0,054525
1563,0225;0,0556876
1563,9867;0,0566636
1564,9509;0,0574238
1565,9152;0,0580086
1566,8794;0,0584985
1567,8436;0,058995
1568,8079;0,0595902
1569,7721;0,0603228
1570,7363;0,0611512
1571,7006;0,0619804
1572,6648;0,0627328
1573,6290;0,0634078
1574,5933;0,0640864
1575,5575;0,0648643
1576,5217;0,0657708
1577,4860;0,0667767
1578,4502;0,0678456
1579,4144;0,0689351
1580,3787;0,0700065
1581,3429;0,0710478
1582,3071;0,0720712
1583,2714;0,073093
1584,2356;0,0741208
1585,1998;0,0751557
1586,1641;0,0761925
1587,1283;0,0772162
1588,0925;0,078201
1589,0568;0,0791171
1590,0210;0,07994
1590,9852;0,0806536
1591,9495;0,0812441
1592,9137;0,081694
1593,8779;0,0819895
1594,8422;0,0821369
1595,8064;0,0821715
1596,7706;0,0821476
1597,7349;0,0821145
1598,6991;0,0820998
1599,6633;0,0821086
1600,6276;0,0821336
1601,5918;0,0821685
1602,5560;0,0822146
1603,5203;0,0822781
1604,4845;0,082358
1605,4487;0,0824366
1606,4130;0,0824846
1607,3772;0,0824817
1608,3414;0,0824422
1609,3057;0,0824206
1610,2699;0,0824754
1611,2341;0,0826151
1612,1984;0,0827845
1613,1626;0,0829011
1614,1268;0,082901
1615,0911;0,0827678
1616,0553;0,0825603
1617,0195;0,0824234
1617,9838;0,0824864
1618,9480;0,0827218
1619,9122;0,0829707
1620,8765;0,083073
1621,8407;0,0829478
1622,8049;0,082614
1623,7692;0,0821718
1624,7334;0,0817325
1625,6976;0,081336
1626,6619;0,0809493
1627,6261;0,0805427
1628,5903;0,0801441
1629,5546;0,0798092
1630,5188;0,0795489
1631,4830;0,0793028
1632,4473;0,0789735
1633,4115;0,0784651
1634,3757;0,0776992
1635,3400;0,0766822
1636,3042;0,0756432
1637,2684;0,0749108
1638,2327;0,0745589
1639,1969;0,0744138
1640,1611;0,0742932
1641,1254;0,074109
1642,0896;0,0738429
1643,0538;0,0734938
1644,0181;0,0730383
1644,9823;0,0724156
1645,9465;0,0715909
1646,9108;0,0706962
1647,8750;0,0699692
1648,8392;0,0694586
1649,8035;0,068965
1650,7677;0,0682026
1651,7319;0,0668892
1652,6962;0,0649082
1653,6604;0,0628104
1654,6246;0,0615699
1655,5889;0,0613308
1656,5531;0,0615191
1657,5173;0,0616326
1658,4816;0,0614482
1659,4458;0,0609271
1660,4100;0,060117
1661,3743;0,0591181
1662,3385;0,0580933
1663,3027;0,0572256
1664,2670;0,0566009
1665,2312;0,0561577
1666,1954;0,0557537
1667,1597;0,055245
1668,1239;0,0545325
1669,0881;0,0536162
1670,0524;0,0526351
1671,0166;0,0517708
1671,9808;0,051067
1672,9451;0,0504164
1673,9093;0,0497069
1674,8735;0,0489525
1675,8378;0,0483084
1676,8020;0,0479422
1677,7662;0,0478734
1678,7305;0,0479576
1679,6947;0,0479969
1680,6589;0,0478311
1681,6232;0,0473504
1682,5874;0,0464882
1683,5516;0,0453217
1684,5159;0,0442218
1685,4801;0,0435912
1686,4443;0,043444
1687,4086;0,0435155
1688,3728;0,0435651
1689,3370;0,0434896
1690,3013;0,0432972
1691,2655;0,0430482
1692,2297;0,0428094
1693,1940;0,0426336
1694,1582;0,0425479
1695,1224;0,0425335
1696,0867;0,0425029
1697,0509;0,0423206
1698,0151;0,0418996
1698,9794;0,0413214
1699,9436;0,0408372
1700,9078;0,0406853
1701,8721;0,0409065
1702,8363;0,0413519
1703,8005;0,0418213
1704,7648;0,0421774
1705,7290;0,0423919
1706,6932;0,0425355
1707,6575;0,0427192
1708,6217;0,0430161
1709,5859;0,0434281
1710,5502;0,0439122
1711,5144;0,0444212
1712,4786;0,0449226
1713,4429;0,0453936
1714,4071;0,0457995
1715,3713;0,0460672
1716,3356;0,0461142
1717,2998;0,045993
1718,2640;0,0459435
1719,2283;0,0461509
1720,1925;0,046578
1721,1567;0,0470722
1722,1210;0,0475051
1723,0852;0,0478237
1724,0494;0,0480448
1725,0137;0,0482288
1725,9779;0,0484413
1726,9421;0,0487157
1727,9064;0,0490345
1728,8706;0,0493355
1729,8348;0,0495321
1730,7991;0,0495297
1731,7633;0,0492422
1732,7275;0,0486464
1733,6918;0,0478873
1734,6560;0,0472554
1735,6202;0,0469261
1736,5845;0,0468162
1737,5487;0,0467224
1738,5129;0,0464903
1739,4772;0,0460794
1740,4414;0,0455538
1741,4056;0,0450258
1742,3699;0,0445749
1743,3341;0,044204
1744,2983;0,0438604
1745,2626;0,0434829
1746,2268;0,0430172
1747,1910;0,0424011
1748,1553;0,0415615
1749,1195;0,0404753
1750,0837;0,039262
1751,0480;0,038151
1752,0122;0,0373045
1752,9764;0,036712
1753,9407;0,0362511
1754,9049;0,0357971
1755,8691;0,0352874
1756,8334;0,0347286
1757,7976;0,0341588
1758,7618;0,0335997
1759,7261;0,0330384
1760,6903;0,0324556
1761,6545;0,0318691
1762,6188;0,0313399
1763,5830;0,0309249
1764,5472;0,0306288
1765,5115;0,030405
1766,4757;0,0301939
1767,4399;0,0299569
1768,4042;0,0296818
1769,3684;0,0293661
1770,3326;0,0289981
1771,2969;0,0285653
1772,2611;0,028101
1773,2253;0,0277024
1774,1896;0,0274592
1775,1538;0,0273743
1776,1180;0,0273756
1777,0823;0,0273793
1778,0465;0,0273336
1779,0107;0,0272252
1779,9750;0,0270651
1780,9392;0,0268707
1781,9034;0,0266556
1782,8677;0,0264344
1783,8319;0,0262348
1784,7961;0,0260981
1785,7604;0,026058
1786,7246;0,0261133
1787,6888;0,0262231
1788,6531;0,0263283
1789,6173;0,0263773
1790,5815;0,0263374
1791,5458;0,0262049
1792,5100;0,0260267
1793,4742;0,0258879
1794,4385;0,0258395
1795,4027;0,0258543
1796,3669;0,0258655
1797,3312;0,025822
1798,2954;0,0257115
1799,2596;0,0255545
1800,2239;0,0253868
1801,1881;0,0252438
1802,1523;0,025148
1803,1166;0,0251043
1804,0808;0,0251044
1805,0450;0,0251342
1806,0093;0,0251782
1806,9735;0,0252175
1807,9377;0,025229
1808,9020;0,0251889
1809,8662;0,025085
1810,8304;0,02493
1811,7947;0,0247589
1812,7589;0,0246083
1813,7231;0,0244963
1814,6874;0,0244225
1815,6516;0,0243808
1816,6158;0,0243702
1817,5801;0,0243947
1818,5443;0,0244552
1819,5085;0,024541
1820,4728;0,0246298
1821,4370;0,0246975
1822,4012;0,0247319
1823,3655;0,0247402
1824,3297;0,0247438
1825,2939;0,0247627
1826,2582;0,0247944
1827,2224;0,0248072
1828,1866;0,0247566
1829,1509;0,02462
1830,1151;0,0244293
1831,0793;0,0242631
1832,0436;0,0241868
1833,0078;0,0242059
1833,9720;0,0242763
1834,9363;0,0243469
1835,9005;0,0243903
1836,8647;0,0244094
1837,8290;0,0244248
1838,7932;0,0244496
1839,7574;0,0244765
1840,7217;0,0244865
1841,6859;0,0244678
1842,6501;0,0244238
1843,6144;0,0243674
1844,5786;0,0243159
1845,5428;0,0242848
1846,5071;0,0242715
1847,4713;0,0242511
1848,4355;0,0241984
1849,3998;0,0241111
1850,3640;0,0240127
1851,3282;0,0239365
1852,2925;0,0239047
1853,2567;0,0239192
1854,2209;0,0239672
1855,1852;0,024033
1856,1494;0,0241051
1857,1136;0,0241761
1858,0779;0,0242392
1859,0421;0,0242873
1860,0063;0,0243192
1860,9706;0,0243433
1861,9348;0,0243761
1862,8990;0,0244325
1863,8633;0,0245178
1864,8275;0,024625
1865,7917;0,0247341
1866,7560;0,0248097
1867,7202;0,0248068
1868,6844;0,0247029
1869,6487;0,0245311
1870,6129;0,0243586
1871,5771;0,0242319
1872,5414;0,0241556
1873,5056;0,0241121
1874,4698;0,0240844
1875,4341;0,0240648
1876,3983;0,0240554
1877,3625;0,024063
1878,3268;0,0240946
1879,2910;0,0241513
1880,2552;0,0242258
1881,2195;0,024304
1882,1837;0,0243705
1883,1479;0,0244152
1884,1122;0,0244366
1885,0764;0,0244399
1886,0406;0,0244318
1887,0049;0,0244141
1887,9691;0,024382
1888,9333;0,0243282
1889,8976;0,0242523
1890,8618;0,0241667
1891,8260;0,0240911
1892,7903;0,0240433
1893,7545;0,0240331
1894,7188;0,0240615
1895,6830;0,0241217
1896,6472;0,0242014
1897,6115;0,0242868
1898,5757;0,0243648
1899,5399;0,024423
1900,5042;0,0244496
1901,4684;0,0244368
1902,4326;0,0243863
1903,3969;0,024314
1904,3611;0,0242464
1905,3253;0,0242092
1906,2896;0,0242141
1907,2538;0,0242506
1908,2180;0,024291
1909,1823;0,024307
1910,1465;0,02429
1911,1107;0,0242573
1912,0750;0,0242378
1913,0392;0,0242497
1914,0034;0,024291
1914,9677;0,0243434
1915,9319;0,0243854
1916,8961;0,0244045
1917,8604;0,0244062
1918,8246;0,0244083
1919,7888;0,0244224
1920,7531;0,0244407
1921,7173;0,0244411
1922,6815;0,0244048
1923,6458;0,0243325
1924,6100;0,0242456
1925,5742;0,0241716
1926,5385;0,0241264
1927,5027;0,0241102
1928,4669;0,0241158
1929,4312;0,0241394
1930,3954;0,0241826
1931,3596;0,0242458
1932,3239;0,0243179
1933,2881;0,0243739
1934,2523;0,0243852
1935,2166;0,0243367
1936,1808;0,0242385
1937,1450;0,0241236
1938,1093;0,0240334
1939,0735;0,0240004
1940,0377;0,024038
1941,0020;0,0241356
1941,9662;0,0242613
1942,9304;0,0243754
1943,8947;0,0244477
1944,8589;0,0244673
1945,8231;0,0244382
1946,7874;0,0243704
1947,7516;0,0242752
1948,7158;0,0241644
1949,6801;0,0240513
1950,6443;0,0239502
1951,6085;0,023874
1952,5728;0,0238291
1953,5370;0,0238117
1954,5012;0,023808
1955,4655;0,0237997
1956,4297;0,0237751
1957,3939;0,0237367
1958,3582;0,0237019
1959,3224;0,023693
1960,2866;0,0237232
1961,2509;0,0237866
1962,2151;0,0238588
1963,1793;0,0239062
1964,1436;0,0238989
1965,1078;0,0238225
1966,0720;0,0236864
1967,0363;0,0235265
1968,0005;0,0233947
1968,9647;0,023335
1969,9290;0,0233625
1970,8932;0,0234611
1971,8574;0,0236033
1972,8217;0,0237776
1973,7859;0,0240031
1974,7501;0,0243158
1975,7144;0,0247302
1976,6786;0,0252016
1977,6428;0,0256262
1978,6071;0,0258903
1979,5713;0,0259305
1980,5355;0,0257599
1981,4998;0,0254485
1982,4640;0,0250871
1983,4282;0,0247608
1984,3925;0,024538
1985,3567;0,0244653
1986,3209;0,0245624
1987,2852;0,024813
1988,2494;0,02516
1989,2136;0,02551
1990,1779;0,025753
1991,1421;0,0257993
1992,1063;0,0256202
1993,0706;0,0252688
1994,0348;0,0248606
1994,9990;0,0245255
1995,9633;0,0243617
1996,9275;0,0244076
1997,8917;0,0246349
1998,8560;0,0249606
1999,8202;0,0252786
2000,7844;0,025499
2001,7487;0,0255767
2002,7129;0,0255185
2003,6771;0,0253727
2004,6414;0,0252127
2005,6056;0,0251183
2006,5698;0,0251494
2007,5341;0,0253145
2008,4983;0,0255553
2009,4625;0,0257666
2010,4268;0,0258503
2011,3910;0,0257701
2012,3552;0,02557
2013,3195;0,0253435
2014,2837;0,0251724
2015,2479;0,0250764
2016,2122;0,0250096
2017,1764;0,0249114
2018,1406;0,0247705
2019,1049;0,0246469
2020,0691;0,0246329
2021,0333;0,0247895
2021,9976;0,025108
2022,9618;0,0255165
2023,9260;0,0259155
2024,8903;0,0262121
2025,8545;0,0263361
2026,8187;0,026244
2027,7830;0,0259333
2028,7472;0,0254689
2029,7114;0,024997
2030,6757;0,0247129
2031,6399;0,0247754
2032,6041;0,025213
2033,5684;0,025889
2034,5326;0,0265653
2035,4968;0,0270318
2036,4611;0,0272128
2037,4253;0,0271814
2038,3895;0,0270844
2039,3538;0,0270386
2040,3180;0,0270658
2041,2822;0,0271004
2042,2465;0,027058
2043,2107;0,0269134
2044,1749;0,0267325
2045,1392;0,0266367
2046,1034;0,0267229
2047,0676;0,0269906
2048,0320;0,0273284
2048,9961;0,0275772
2049,9604;0,0276261
2050,9246;0,0274688
2051,8889;0,0271913
2052,8530;0,0269165
2053,8174;0,0267439
2054,7815;0,0267119
2055,7458;0,0267918
2056,7100;0,0269119
2057,6743;0,0269964
2058,6384;0,0269978
2059,6028;0,0269102
2060,5669;0,0267651
2061,5313;0,0266165
2062,4954;0,0265214
2063,4597;0,0265187
2064,4238;0,0266125
2065,3882;0,0267685
2066,3523;0,0269291
2067,3167;0,0270414
2068,2808;0,0270813
2069,2451;0,0270617
2070,2092;0,0270194
2071,1736;0,0269921
2072,1377;0,0269982
2073,1021;0,0270327
2074,0662;0,0270762
2075,0305;0,0271098
2075,9946;0,0271232
2076,9590;0,0271156
2077,9231;0,0270905
2078,8875;0,0270532
2079,8516;0,0270107
2080,8159;0,0269723
2081,7800;0,0269468
2082,7444;0,0269373
2083,7085;0,0269389
2084,6729;0,0269401
2085,6370;0,0269304
2086,6013;0,0269049
2087,5654;0,0268649
2088,5298;0,0268142
2089,4939;0,0267569
2090,4583;0,0266999
2091,4224;0,0266583
2092,3867;0,0266549
2093,3508;0,0267099
2094,3152;0,0268238
2095,2793;0,0269678
2096,2437;0,0270919
2097,2078;0,0271509
2098,1721;0,0271294
2099,1362;0,0270486
2100,1006;0,0269503
2101,0647;0,0268671
2102,0291;0,0268118
2102,9932;0,0267759
2103,9575;0,0267461
2104,9216;0,0267198
2105,8860;0,0267063
2106,8501;0,0267178
2107,8145;0,0267581
2108,7786;0,026818
2109,7429;0,0268811
2110,7070;0,0269313
2111,6714;0,0269576
2112,6355;0,0269533
2113,5999;0,0269153
2114,5640;0,0268472
2115,5283;0,0267638
2116,4924;0,0266922
2117,4568;0,026665
2118,4209;0,0267049
2119,3853;0,0268103
2120,3494;0,0269493
2121,3137;0,0270706
2122,2778;0,0271257
2123,2422;0,027093
2124,2063;0,0269887
2125,1707;0,026858
2126,1348;0,0267506
2127,0991;0,026694
2128,0632;0,0266819
2129,0276;0,0266845
2129,9917;0,0266751
2130,9561;0,0266543
2131,9202;0,0266549
2132,8845;0,0267199
2133,8486;0,0268666
2134,8130;0,0270613
2135,7771;0,0272287
2136,7415;0,0272951
2137,7056;0,0272367
2138,6699;0,0270987
2139,6340;0,0269716
2140,5984;0,0269422
2141,5625;0,0270497
2142,5269;0,0272695
2143,4910;0,0275299
2144,4553;0,0277473
2145,4194;0,0278607
2146,3838;0,0278508
2147,3479;0,027742
2148,3123;0,0275886
2149,2764;0,0274498
2150,2407;0,0273631
2151,2048;0,0273243
2152,1692;0,0272913
2153,1333;0,0272158
2154,0977;0,027094
2155,0618;0,0270052
2156,0261;0,027102
2156,9902;0,0275271
2157,9546;0,0282811
2158,9187;0,0291473
2159,8831;0,0297881
2160,8472;0,0299662
2161,8115;0,0296899
2162,7756;0,0291722
2163,7400;0,0286802
2164,7041;0,0283913
2165,6685;0,0283259
2166,6326;0,0283745
2167,5969;0,0283911
2168,5610;0,0282929
2169,5254;0,0281061
2170,4895;0,0279403
2171,4539;0,0279171
2172,4180;0,0280972
2173,3823;0,0284411
2174,3464;0,0288236
2175,3108;0,029095
2176,2749;0,0291554
2177,2393;0,0290003
2178,2034;0,0287131
2179,1677;0,0284148
2180,1318;0,0282011
2181,0962;0,0281006
2182,0603;0,0280748
2183,0247;0,0280588
2183,9888;0,0280146
2184,9531;0,0279591
2185,9172;0,0279486
2186,8816;0,028033
2187,8457;0,0282138
2188,8101;0,028432
2189,7742;0,0285951
2190,7385;0,0286258
2191,7026;0,0285037
2192,6670;0,0282776
2193,6311;0,0280439
2194,5955;0,0279028
2195,5596;0,0279158
2196,5239;0,0280804
2197,4880;0,02833
2198,4524;0,0285577
2199,4165;0,0286545
2200,3809;0,0285515
2201,3450;0,0282509
2202,3093;0,0278318
2203,2734;0,027425
2204,2378;0,0271626
2205,2019;0,0271231
2206,1663;0,0272986
2207,1304;0,0276012
2208,0947;0,0279045
2209,0588;0,0281004
2210,0232;0,0281421
2210,9873;0,028054
2211,9517;0,0279081
2212,9158;0,0277824
2213,8801;0,0277244
2214,8442;0,0277357
2215,8086;0,0277816
2216,7727;0,027817
2217,7371;0,0278124
2218,7012;0,0277673
2219,6655;0,0277059
2220,6296;0,0276621
2221,5940;0,0276614
2222,5581;0,0277124
2223,5225;0,027805
2224,4866;0,0279154
2225,4509;0,0280117
2226,4150;0,0280591
2227,3794;0,0280294
2228,3435;0,0279131
2229,3079;0,0277287
2230,2720;0,0275215
2231,2363;0,0273476
2232,2004;0,0272513
2233,1648;0,0272477
2234,1289;0,027322
2235,0933;0,027445
2236,0574;0,0275912
2237,0217;0,027748
2237,9858;0,0279093
2238,9502;0,0280618
2239,9143;0,028177
2240,8787;0,0282191
2241,8428;0,0281633
2242,8071;0,0280152
2243,7712;0,0278159
2244,7356;0,0276286
2245,6997;0,0275115
2246,6641;0,0274924
2247,6282;0,0275572
2248,5925;0,0276613
2249,5566;0,0277556
2250,5210;0,0278135
2251,4851;0,0278413
2252,4495;0,0278665
2253,4136;0,0279122
2254,3779;0,0279762
2255,3420;0,0280282
2256,3064;0,0280287
2257,2705;0,0279547
2258,2349;0,027815
2259,1990;0,0276474
2260,1633;0,0275001
2261,1274;0,0274132
2262,0918;0,0274065
2263,0559;0,0274767
2264,0203;0,0276005
2264,9844;0,0277411
2265,9487;0,0278579
2266,9128;0,02792
2267,8772;0,0279178
2268,8413;0,0278675
2269,8057;0,0278024
2270,7698;0,0277547
2271,7341;0,0277406
2272,6982;0,0277557
2273,6626;0,027784
2274,6267;0,0278117
2275,5911;0,0278352
2276,5552;0,0278592
2277,5195;0,0278878
2278,4836;0,0279189
2279,4480;0,0279457
2280,4121;0,0279642
2281,3765;0,0279789
2282,3406;0,0280013
2283,3049;0,0280432
2284,2690;0,0281083
2285,2334;0,0281901
2286,1975;0,028275
2287,1619;0,0283498
2288,1260;0,0284087
2289,0903;0,0284545
2290,0544;0,0284952
2291,0188;0,0285381
2291,9829;0,0285849
2292,9473;0,0286313
2293,9114;0,0286697
2294,8757;0,0286943
2295,8398;0,028704
2296,8042;0,0287026
2297,7683;0,0286962
2298,7327;0,0286902
2299,6968;0,0286878
2300,6611;0,0286908
2301,6252;0,0287015
2302,5896;0,0287236
2303,5537;0,0287621
2304,5181;0,0288215
2305,4822;0,0289013
2306,4465;0,0289927
2307,4106;0,0290759
2308,3750;0,0291227
2309,3391;0,0291061
2310,3035;0,0290132
2311,2676;0,028857
2312,2319;0,0286761
2313,1960;0,0285199
2314,1604;0,028425
2315,1245;0,0283993
2316,0889;0,0284219
2317,0530;0,0284595
2318,0173;0,0284873
2318,9814;0,0285017
2319,9458;0,0285183
2320,9099;0,0285553
2321,8743;0,0286138
2322,8384;0,0286711
2323,8027;0,02869
2324,7668;0,0286367
2325,7312;0,0284973
2326,6953;0,0282855
2327,6597;0,0280409
2328,6238;0,0278172
2329,5881;0,027662
2330,5522;0,0275976
2331,5166;0,0276134
2332,4807;0,0276729
2333,4451;0,0277317
2334,4092;0,0277586
2335,3735;0,0277502
2336,3376;0,027733
2337,3020;0,0277479
2338,2661;0,0278223
2339,2305;0,0279435
2340,1946;0,0280505
2341,1589;0,0280547
2342,1230;0,0278924
2343,0874;0,0276004
2344,0515;0,0273578
2345,0159;0,0273855
2345,9800;0,0277554
2346,9443;0,0283297
2347,9084;0,028877
2348,8728;0,0292112
2349,8369;0,029263
2350,8013;0,0290869
2351,7654;0,0288263
2352,7297;0,0286446
2353,6938;0,0286446
2354,6582;0,0288294
2355,6223;0,0291274
2356,5867;0,0294318
2357,5508;0,0296166
2358,5151;0,0295616
2359,4792;0,0292115
2360,4436;0,0286278
2361,4077;0,0279672
2362,3721;0,0273975
2363,3362;0,0270203
2364,3005;0,0268431
2365,2646;0,0268004
2366,2290;0,0268001
2367,1931;0,0267696
2368,1575;0,0266796
2369,1216;0,0265423
2370,0859;0,0263911
2371,0500;0,0262586
2372,0144;0,0261652
2372,9785;0,0261201
2373,9429;0,02613
2374,9070;0,0262033
2375,8713;0,0263478
2376,8354;0,0265632
2377,7998;0,0268348
2378,7639;0,0271331
2379,7283;0,0274203
2380,6924;0,027661
2381,6567;0,0278324
2382,6208;0,0279305
2383,5852;0,027969
2384,5493;0,0279727
2385,5137;0,0279675
2386,4778;0,0279716
2387,4421;0,0279914
2388,4063;0,0280221
2389,3706;0,0280531
2390,3347;0,0280748
2391,2991;0,0280822
2392,2632;0,0280758
2393,2275;0,0280603
2394,1917;0,0280423
2395,1560;0,0280289
2396,1201;0,0280264
2397,0845;0,0280389
2398,0486;0,0280674
2399,0129;0,0281082
2399,9771;0,0281546
2400,9414;0,0282003
2401,9055;0,0282417
2402,8699;0,02828
2403,8340;0,0283183
2404,7983;0,0283586
2405,7625;0,0283987
2406,7268;0,0284317
2407,6909;0,0284503
2408,6553;0,0284513
2409,6194;0,0284382
2410,5837;0,0284213
2411,5479;0,0284135
2412,5122;0,028425
2413,4763;0,0284593
2414,4407;0,0285124
2415,4048;0,0285739
2416,3691;0,0286315
2417,3333;0,0286757
2418,2976;0,0287037
2419,2617;0,0287205
2420,2261;0,0287363
2421,1902;0,0287608
2422,1545;0,0287978
2423,1187;0,0288427
2424,0830;0,0288851
2425,0471;0,0289155
2426,0115;0,0289314
2426,9756;0,0289403
2427,9399;0,0289548
2428,9041;0,0289863
2429,8684;0,0290376
2430,8325;0,0291014
2431,7969;0,0291641
2432,7610;0,0292123
2433,7253;0,0292385
2434,6895;0,0292432
2435,6538;0,029233
2436,6179;0,0292182
2437,5823;0,0292092
2438,5464;0,0292151
2439,5107;0,0292413
2440,4749;0,0292876
2441,4392;0,0293475
2442,4033;0,0294083
2443,3677;0,0294564
2444,3318;0,0294828
2445,2961;0,0294879
2446,2603;0,0294812
2447,2246;0,0294767
2448,1887;0,0294852
2449,1531;0,0295089
2450,1172;0,0295418
2451,0815;0,0295744
2452,0457;0,0296
2453,0100;0,0296181
2453,9741;0,0296331
2454,9385;0,0296503
2455,9026;0,0296717
2456,8669;0,0296949
2457,8311;0,029715
2458,7954;0,0297278
2459,7595;0,0297329
2460,7239;0,0297338
2461,6880;0,0297365
2462,6523;0,0297473
2463,6165;0,0297695
2464,5808;0,0298016
2465,5449;0,0298378
2466,5093;0,0298706
2467,4734;0,0298957
2468,4377;0,0299153
2469,4019;0,0299369
2470,3662;0,0299678
2471,3303;0,0300079
2472,2947;0,030047
2473,2588;0,030069
2474,2231;0,030062
2475,1873;0,0300275
2476,1516;0,0299823
2477,1157;0,029951
2478,0801;0,0299542
2479,0442;0,0299983
2480,0085;0,0300739
2480,9727;0,0301602
2481,9370;0,0302345
2482,9011;0,0302796
2483,8655;0,0302886
2484,8296;0,030267
2485,7939;0,0302313
2486,7581;0,0302042
2487,7224;0,0302055
2488,6865;0,0302429
2489,6509;0,030307
2490,6150;0,0303748
2491,5793;0,0304216
2492,5435;0,0304342
2493,5078;0,0304182
2494,4719;0,0303939
2495,4363;0,0303845
2496,4004;0,0304032
2497,3647;0,030447
2498,3289;0,0305007
2499,2932;0,0305453
2500,2573;0,0305683
2501,2217;0,0305685
2502,1858;0,0305545
2503,1501;0,0305397
2504,1143;0,0305348
2505,0786;0,0305436
2506,0427;0,030562
2507,0071;0,0305809
2507,9712;0,0305916
2508,9355;0,0305906
2509,8997;0,0305815
2510,8640;0,0305727
2511,8281;0,030573
2512,7925;0,0305872
2513,7566;0,0306137
2514,7209;0,030646
2515,6851;0,0306753
2516,6494;0,0306947
2517,6135;0,0307016
2518,5779;0,0306991
2519,5420;0,0306942
2520,5063;0,0306951
2521,4705;0,0307081
2522,4348;0,0307342
2523,3989;0,0307695
2524,3633;0,0308073
2525,3274;0,030841
2526,2917;0,0308668
2527,2559;0,0308843
2528,2202;0,0308959
2529,1843;0,0309046
2530,1487;0,0309129
2531,1128;0,030923
2532,0771;0,030937
2533,0413;0,0309569
2534,0056;0,0309845
2534,9697;0,03102
2535,9341;0,0310607
2536,8982;0,0311014
2537,8625;0,0311361
2538,8267;0,031161
2539,7910;0,0311768
2540,7551;0,0311882
2541,7195;0,0312011
2542,6836;0,0312188
2543,6479;0,03124
2544,6121;0,0312609
2545,5764;0,0312784
2546,5405;0,0312927
2547,5049;0,0313057
2548,4690;0,0313171
2549,4333;0,0313224
2550,3975;0,0313158
2551,3618;0,0312959
2552,3259;0,0312706
2553,2903;0,0312554
2554,2544;0,0312644
2555,2188;0,0313016
2556,1829;0,0313568
2557,1472;0,0314113
2558,1113;0,031449
2559,0757;0,0314649
2560,0398;0,0314669
2561,0042;0,0314682
2561,9683;0,0314783
2562,9326;0,0314982
2563,8967;0,0315218
2564,8611;0,0315418
2565,8252;0,0315554
2566,7896;0,0315652
2567,7537;0,0315764
2568,7180;0,0315927
2569,6821;0,0316139
2570,6465;0,0316362
2571,6106;0,0316543
2572,5750;0,0316631
2573,5391;0,0316591
2574,5034;0,031641
2575,4675;0,0316108
2576,4319;0,0315747
2577,3960;0,0315432
2578,3604;0,0315289
2579,3245;0,0315412
2580,2888;0,0315822
2581,2529;0,0316442
2582,2173;0,0317126
2583,1814;0,0317721
2584,1458;0,0318133
2585,1099;0,0318363
2586,0742;0,0318491
2587,0383;0,0318624
2588,0027;0,0318836
2588,9668;0,0319144
2589,9312;0,0319509
2590,8953;0,0319873
2591,8596;0,0320185
2592,8237;0,032042
2593,7881;0,0320576
2594,7522;0,0320665
2595,7166;0,0320705
2596,6807;0,0320719
2597,6450;0,0320732
2598,6091;0,0320773
2599,5735;0,0320872
2600,5376;0,0321043
2601,5020;0,0321285
2602,4661;0,0321578
2603,4304;0,0321894
2604,3945;0,0322207
2605,3589;0,0322505
2606,3230;0,0322789
2607,2874;0,0323064
2608,2515;0,0323325
2609,2158;0,0323559
2610,1799;0,0323749
2611,1443;0,0323896
2612,1084;0,0324015
2613,0728;0,0324137
2614,0369;0,0324285
2615,0012;0,0324465
2615,9653;0,0324673
2616,9297;0,0324905
2617,8938;0,0325172
2618,8582;0,0325493
2619,8223;0,0325868
2620,7866;0,0326263
2621,7507;0,032661
2622,7151;0,0326838
2623,6792;0,0326921
2624,6436;0,0326896
2625,6077;0,0326854
2626,5720;0,0326889
2627,5361;0,0327049
2628,5005;0,0327322
2629,4646;0,032765
2630,4290;0,0327977
2631,3931;0,0328278
2632,3574;0,0328564
2633,3215;0,0328851
2634,2859;0,0329134
2635,2500;0,0329383
2636,2144;0,0329567
2637,1785;0,0329684
2638,1428;0,0329778
2639,1069;0,0329921
2640,0713;0,0330169
2641,0354;0,0330532
2641,9998;0,0330962
2642,9639;0,0331381
2643,9282;0,0331713
2644,8923;0,0331916
2645,8567;0,0331992
2646,8208;0,0331976
2647,7852;0,0331926
2648,7493;0,0331898
2649,7136;0,0331939
2650,6777;0,0332071
2651,6421;0,0332281
2652,6062;0,0332524
2653,5706;0,0332741
2654,5347;0,0332887
2655,4990;0,0332951
2656,4631;0,0332965
2657,4275;0,0332981
2658,3916;0,033305
2659,3560;0,033319
2660,3201;0,0333378
2661,2844;0,0333567
2662,2485;0,0333703
2663,2129;0,0333758
2664,1770;0,0333736
2665,1414;0,0333672
2666,1055;0,0333618
2667,0698;0,0333623
2668,0339;0,0333711
2668,9983;0,0333881
2669,9624;0,0334112
2670,9268;0,0334374
2671,8909;0,0334643
2672,8552;0,0334906
2673,8193;0,0335159
2674,7837;0,0335398
2675,7478;0,0335617
2676,7122;0,0335813
2677,6763;0,0335993
2678,6406;0,033618
2679,6047;0,0336403
2680,5691;0,0336685
2681,5332;0,0337028
2682,4976;0,0337412
2683,4617;0,033781
2684,4260;0,0338204
2685,3901;0,0338594
2686,3545;0,0338984
2687,3186;0,0339372
2688,2830;0,0339742
2689,2471;0,0340072
2690,2114;0,0340358
2691,1755;0,0340624
2692,1399;0,0340911
2693,1040;0,0341251
2694,0684;0,0341642
2695,0325;0,0342042
2695,9968;0,0342393
2696,9609;0,0342648
2697,9253;0,0342802
2698,8894;0,0342885
2699,8538;0,0342955
2700,8179;0,0343072
2701,7822;0,0343282
2702,7463;0,0343611
2703,7107;0,0344051
2704,6748;0,0344565
2705,6392;0,0345093
2706,6033;0,0345578
2707,5676;0,0345992
2708,5317;0,0346344
2709,4961;0,034667
2710,4602;0,0347006
2711,4246;0,0347358
2712,3887;0,0347704
2713,3530;0,0348012
2714,3171;0,0348267
2715,2815;0,0348488
2716,2456;0,0348712
2717,2100;0,0348972
2718,1741;0,0349269
2719,1384;0,0349573
2720,1025;0,034984
2721,0669;0,0350032
2722,0310;0,0350141
2722,9954;0,0350194
2723,9595;0,0350243
2724,9238;0,0350344
2725,8879;0,0350535
2726,8523;0,035083
2727,8164;0,0351215
2728,7808;0,0351661
2729,7449;0,0352135
2730,7092;0,0352603
2731,6733;0,0353025
2732,6377;0,0353353
2733,6018;0,0353551
2734,5662;0,0353612
2735,5303;0,0353577
2736,4946;0,0353528
2737,4587;0,0353554
2738,4231;0,0353712
2739,3872;0,0353997
2740,3516;0,0354358
2741,3157;0,0354724
2742,2800;0,0355041
2743,2441;0,035528
2744,2085;0,0355434
2745,1726;0,0355513
2746,1370;0,0355539
2747,1011;0,0355558
2748,0654;0,0355637
2749,0295;0,0355837
2749,9939;0,0356182
2750,9580;0,0356634
2751,9224;0,0357115
2752,8865;0,0357547
2753,8508;0,0357899
2754,8149;0,0358201
2755,7793;0,0358516
2756,7434;0,0358891
2757,7078;0,0359321
2758,6719;0,0359746
2759,6362;0,0360095
2760,6003;0,0360322
2761,5647;0,036044
2762,5288;0,0360509
2763,4932;0,0360606
2764,4573;0,0360786
2765,4216;0,0361067
2766,3857;0,036143
2767,3501;0,0361844
2768,3142;0,0362277
2769,2786;0,0362714
2770,2427;0,0363142
2771,2070;0,0363549
2772,1711;0,036392
2773,1355;0,0364249
2774,0996;0,0364549
2775,0640;0,0364862
2776,0281;0,0365238
2776,9924;0,0365712
2777,9565;0,0366276
2778,9209;0,0366881
2779,8850;0,0367457
2780,8494;0,0367953
2781,8135;0,0368366
2782,7778;0,0368738
2783,7419;0,0369129
2784,7063;0,0369574
2785,6704;0,0370056
2786,6348;0,0370515
2787,5989;0,0370892
2788,5632;0,037117
2789,5273;0,0371403
2790,4917;0,0371693
2791,4558;0,0372141
2792,4202;0,0372789
2793,3843;0,0373598
2794,3486;0,0374462
2795,3127;0,0375267
2796,2771;0,0375943
2797,2412;0,0376494
2798,2056;0,0376986
2799,1697;0,0377507
2800,1340;0,0378126
2801,0981;0,0378869
2802,0625;0,0379716
2803,0266;0,0380626
2803,9910;0,0381551
2804,9551;0,0382452
2805,9194;0,0383307
2806,8835;0,0384109
2807,8479;0,0384867
2808,8120;0,0385604
2809,7764;0,0386351
2810,7405;0,0387138
2811,7048;0,0387986
2812,6689;0,0388906
2813,6333;0,0389901
2814,5974;0,0390962
2815,5618;0,0392079
2816,5259;0,0393236
2817,4902;0,0394411
2818,4543;0,0395583
2819,4187;0,0396734
2820,3828;0,0397857
2821,3472;0,0398962
2822,3113;0,0400072
2823,2756;0,0401229
2824,2397;0,0402474
2825,2041;0,040384
2826,1682;0,0405339
2827,1326;0,040696
2828,0967;0,0408668
2829,0610;0,0410427
2830,0251;0,0412209
2830,9895;0,0414009
2831,9536;0,0415841
2832,9180;0,0417725
2833,8821;0,0419665
2834,8464;0,0421638
2835,8105;0,04236
2836,7749;0,0425511
2837,7390;0,0427367
2838,7034;0,0429217
2839,6675;0,0431156
2840,6318;0,043328
2841,5959;0,0435635
2842,5603;0,0438181
2843,5244;0,0440793
2844,4888;0,0443308
2845,4529;0,044558
2846,4172;0,0447528
2847,3813;0,0449142
2848,3457;0,0450458
2849,3098;0,0451525
2850,2742;0,0452385
2851,2383;0,0453072
2852,2026;0,0453633
2853,1667;0,0454139
2854,1311;0,0454678
2855,0952;0,0455343
2856,0596;0,0456203
2857,0237;0,045729
2857,9880;0,0458592
2858,9521;0,0460059
2859,9165;0,0461622
2860,8806;0,0463209
2861,8450;0,0464777
2862,8091;0,0466331
2863,7734;0,0467918
2864,7375;0,04696
2865,7019;0,0471406
2866,6660;0,0473297
2867,6304;0,0475166
2868,5945;0,0476875
2869,5588;0,0478325
2870,5229;0,0479493
2871,4873;0,0480445
2872,4514;0,0481291
2873,4158;0,0482136
2874,3799;0,0483034
2875,3442;0,0483985
2876,3083;0,0484953
2877,2727;0,048589
2878,2368;0,048676
2879,2012;0,0487535
2880,1653;0,04882
2881,1296;0,0488761
2882,0938;0,0489248
2883,0581;0,0489711
2884,0222;0,0490191
2884,9866;0,0490702
2885,9507;0,0491222
2886,9150;0,0491706
2887,8792;0,0492123
2888,8435;0,049247
2889,8076;0,0492768
2890,7720;0,0493038
2891,7361;0,0493284
2892,7004;0,0493498
2893,6646;0,0493693
2894,6289;0,0493909
2895,5930;0,0494209
2896,5574;0,0494629
2897,5215;0,0495145
2898,4858;0,0495666
2899,4500;0,0496076
2900,4143;0,049629
2901,3784;0,0496302
2902,3428;0,0496185
2903,3069;0,0496053
2904,2712;0,0496018
2905,2354;0,0496143
2906,1997;0,0496434
2907,1638;0,0496848
2908,1282;0,0497318
2909,0923;0,0497785
2910,0566;0,0498222
2911,0208;0,0498632
2911,9851;0,0499038
2912,9492;0,0499446
2913,9136;0,0499819
2914,8777;0,0500085
2915,8420;0,0500153
2916,8062;0,0499956
2917,7705;0,0499472
2918,7346;0,0498721
2919,6990;0,0497756
2920,6631;0,0496645
2921,6274;0,0495465
2922,5916;0,0494302
2923,5559;0,0493231
2924,5200;0,049229
2925,4844;0,0491466
2926,4485;0,0490704
2927,4128;0,0489952
2928,3770;0,0489202
2929,3413;0,0488502
2930,3054;0,0487922
2931,2698;0,0487503
2932,2339;0,0487224
2933,1982;0,0487003
2934,1624;0,0486744
2935,1267;0,0486379
2936,0908;0,0485878
2937,0552;0,0485234
2938,0193;0,0484434
2938,9836;0,0483452
2939,9478;0,0482259
2940,9121;0,0480854
2941,8762;0,0479274
2942,8406;0,0477586
2943,8047;0,0475854
2944,7690;0,0474117
2945,7332;0,047238
2946,6975;0,0470629
2947,6616;0,0468848
2948,6260;0,0467039
2949,5901;0,046522
2950,5544;0,0463424
2951,5186;0,0461683
2952,4829;0,0460024
2953,4470;0,0458467
2954,4114;0,0457015
2955,3755;0,0455657
2956,3398;0,0454364
2957,3040;0,0453104
2958,2683;0,0451853
2959,2324;0,045062
2960,1968;0,0449444
2961,1609;0,0448386
2962,1252;0,0447492
2963,0894;0,0446762
2964,0537;0,0446142
2965,0178;0,0445536
2965,9822;0,0444857
2966,9463;0,0444053
2967,9106;0,0443125
2968,8748;0,0442105
2969,8391;0,0441035
2970,8032;0,0439953
2971,7676;0,04389
2972,7317;0,0437933
2973,6960;0,0437117
2974,6602;0,0436487
2975,6245;0,0436016
2976,5886;0,0435605
2977,5530;0,0435127
2978,5171;0,0434488
2979,4814;0,0433682
2980,4456;0,043279
2981,4099;0,0431932
2982,3740;0,0431198
2983,3384;0,0430616
2984,3025;0,0430156
2985,2668;0,0429772
2986,2310;0,0429437
2987,1953;0,0429148
2988,1594;0,0428916
2989,1238;0,0428743
2990,0879;0,0428618
2991,0522;0,0428528
2992,0164;0,0428461
2992,9807;0,0428415
2993,9448;0,0428396
2994,9092;0,0428413
2995,8733;0,0428487
2996,8376;0,0428645
2997,8018;0,0428915
2998,7661;0,04293
2999,7302;0,0429767
3000,6946;0,0430257
3001,6587;0,0430712
3002,6230;0,0431115
3003,5872;0,04315
3004,5515;0,043193
3005,5156;0,0432455
3006,4800;0,0433069
3007,4441;0,0433701
3008,4084;0,0434252
3009,3726;0,0434642
3010,3369;0,0434861
3011,3010;0,0434977
3012,2654;0,0435103
3013,2295;0,0435339
3014,1938;0,0435732
3015,1580;0,0436263
3016,1223;0,0436881
3017,0864;0,043755
3018,0508;0,0438266
3019,0149;0,0439047
3019,9792;0,0439892
3020,9434;0,0440758
3021,9077;0,0441568
3022,8718;0,044227
3023,8362;0,0442887
3024,8003;0,0443524
3025,7646;0,0444319
3026,7288;0,0445348
3027,6931;0,0446569
3028,6572;0,0447823
3029,6216;0,0448917
3030,5857;0,0449724
3031,5500;0,0450249
3032,5142;0,0450628
3033,4785;0,0451054
3034,4426;0,0451689
3035,4070;0,0452599
3036,3711;0,045375
3037,3354;0,045503
3038,2996;0,0456298
3039,2639;0,0457435
3040,2280;0,0458385
3041,1924;0,0459182
3042,1565;0,0459943
3043,1208;0,0460814
3044,0850;0,0461896
3045,0493;0,0463193
3046,0134;0,0464607
3046,9778;0,0465988
3047,9419;0,0467227
3048,9063;0,0468311
3049,8704;0,046932
3050,8347;0,0470377
3051,7988;0,0471568
3052,7632;0,0472902
3053,7273;0,0474314
3054,6917;0,0475701
3055,6558;0,0476974
3056,6201;0,0478093
3057,5842;0,0479084
3058,5486;0,0480029
3059,5127;0,0481042
3060,4771;0,0482218
3061,4412;0,0483583
3062,4055;0,0485066
3063,3696;0,0486523
3064,3340;0,0487802
3065,2981;0,0488829
3066,2625;0,0489645
3067,2266;0,0490381
3068,1909;0,0491169
3069,1550;0,0492072
3070,1194;0,0493075
3071,0835;0,0494128
3072,0479;0,0495209
3073,0120;0,0496343
3073,9763;0,0497567
3074,9404;0,049888
3075,9048;0,0500219
3076,8689;0,0501489
3077,8333;0,050262
3078,7974;0,0503609
3079,7617;0,0504514
3080,7258;0,0505414
3081,6902;0,0506362
3082,6543;0,0507375
3083,6187;0,0508447
3084,5828;0,0509565
3085,5471;0,0510716
3086,5112;0,0511878
3087,4756;0,0513027
3088,4397;0,0514145
3089,4041;0,051524
3090,3682;0,0516344
3091,3325;0,0517491
3092,2966;0,0518699
3093,2610;0,0519957
3094,2251;0,0521244
3095,1895;0,0522548
3096,1536;0,0523873
3097,1179;0,0525213
3098,0820;0,052653
3099,0464;0,0527758
3100,0105;0,0528837
3100,9749;0,0529764
3101,9390;0,0530614
3102,9033;0,0531507
3103,8674;0,0532544
3104,8318;0,0533757
3105,7959;0,0535107
3106,7603;0,0536517
3107,7244;0,0537927
3108,6887;0,0539329
3109,6528;0,054075
3110,6172;0,0542222
3111,5813;0,0543744
3112,5457;0,0545273
3113,5098;0,0546743
3114,4741;0,0548102
3115,4382;0,0549341
3116,4026;0,0550495
3117,3667;0,0551622
3118,3311;0,0552775
3119,2952;0,0553982
3120,2595;0,0555244
3121,2236;0,0556559
3122,1880;0,0557923
3123,1521;0,0559333
3124,1165;0,0560773
3125,0806;0,0562205
3126,0449;0,0563584
3127,0090;0,0564889
3127,9734;0,0566142
3128,9375;0,0567409
3129,9019;0,0568754
3130,8660;0,05702
3131,8303;0,0571702
3132,7944;0,0573178
3133,7588;0,0574556
3134,7229;0,0575821
3135,6873;0,0577021
3136,6514;0,057823
3137,6157;0,0579505
3138,5798;0,0580856
3139,5442;0,0582262
3140,5083;0,0583696
3141,4727;0,0585147
3142,4368;0,0586621
3143,4011;0,0588127
3144,3652;0,0589662
3145,3296;0,0591209
3146,2937;0,0592747
3147,2581;0,059425
3148,2222;0,0595698
3149,1865;0,0597073
3150,1506;0,0598372
3151,1150;0,0599624
3152,0791;0,0600889
3153,0435;0,0602236
3154,0076;0,0603714
3154,9719;0,0605311
3155,9360;0,0606967
3156,9004;0,0608597
3157,8645;0,061015
3158,8289;0,0611628
3159,7930;0,0613084
3160,7573;0,0614575
3161,7214;0,061613
3162,6858;0,061773
3163,6499;0,0619334
3164,6143;0,062091
3165,5784;0,062246
3166,5427;0,0624008
3167,5068;0,0625581
3168,4712;0,0627184
3169,4353;0,0628008
3170,3997;0,0629644
3171,3638;0,0631296
3172,3281;0,0632964
3173,2922;0,0634628
3174,2566;0,0636229
3175,2207;0,0637692
3176,1851;0,0638961
3177,1492;0,0640048
3178,1135;0,064104
3179,0776;0,0642069
3180,0420;0,0643246
3181,0061;0,0644613
3181,9705;0,0646143
3182,9346;0,0647769
3183,8989;0,0649431
3184,8630;0,0651091
3185,8274;0,0652724
3186,7915;0,0654302
3187,7559;0,0655789
3188,7200;0,0657166
3189,6843;0,0658452
3190,6484;0,0659714
3191,6128;0,0661034
3192,5769;0,0662464
3193,5413;0,0663998
3194,5054;0,0665576
3195,4697;0,066712
3196,4338;0,0668574
3197,3982;0,0669921
3198,3623;0,0671177
3199,3267;0,0672363
3200,2908;0,06735
3201,2551;0,0674604
3202,2192;0,0675706
3203,1836;0,0676845
3204,1477;0,0678066
3205,1121;0,06794
3206,0762;0,0680855
3207,0405;0,0682409
3208,0046;0,0684011
3208,9690;0,0685586
3209,9331;0,068705
3210,8975;0,0688331
3211,8616;0,0689406
3212,8259;0,0690313
3213,7900;0,0691142
3214,7544;0,0691995
3215,7185;0,0692936
3216,6829;0,0693981
3217,6470;0,0695117
3218,6113;0,0696333
3219,5754;0,069764
3220,5398;0,0699046
3221,5039;0,0700519
3222,4683;0,0701977
3223,4324;0,0703314
3224,3967;0,0704463
3225,3608;0,0705439
3226,3252;0,0706327
3227,2893;0,0707225
3228,2537;0,070818
3229,2178;0,0709172
3230,1821;0,0710156
3231,1462;0,0711118
3232,1106;0,0712107
3233,0747;0,0713195
3234,0391;0,0714412
3235,0032;0,0715709
3235,9675;0,0716974
3236,9316;0,0718108
3237,8960;0,0719089
3238,8601;0,0719989
3239,8245;0,0720914
3240,7886;0,072193
3241,7529;0,0723022
3242,7170;0,0724114
3243,6814;0,0725135
3244,6455;0,0726079
3245,6099;0,0727014
3246,5740;0,0728038
3247,5383;0,0729208
3248,5024;0,0730506
3249,4668;0,0731851
3250,4309;0,0733146
3251,3953;0,0734319
3252,3594;0,0735347
3253,3237;0,0736249
3254,2878;0,0737066
3255,2522;0,0737861
3256,2163;0,0738701
3257,1807;0,0739653
3258,1448;0,0740749
3259,1091;0,074197
3260,0732;0,0743234
3261,0376;0,0744427
3262,0017;0,0745456
3262,9661;0,0746294
3263,9302;0,0746997
3264,8945;0,0747664
3265,8586;0,0748392
3266,8230;0,0749217
3267,7871;0,0750116
3268,7515;0,0751021
3269,7156;0,075186
3270,6799;0,0752577
3271,6440;0,0753151
3272,6084;0,0753596
3273,5725;0,0753955
3274,5369;0,0754304
3275,5010;0,0754733
3276,4653;0,0755311
3277,4294;0,0756048
3278,3938;0,0756878
3279,3579;0,0757673
3280,3223;0,0758305
3281,2864;0,0758701
3282,2507;0,0758891
3283,2148;0,0758985
3284,1792;0,0759122
3285,1433;0,0759392
3286,1077;0,0759801
3287,0718;0,076027
3288,0361;0,0760688
3289,0002;0,0760964
3289,9646;0,0761069
3290,9287;0,0761041
3291,8931;0,0760963
3292,8572;0,076092
3293,8215;0,0760975
3294,7856;0,0761142
3295,7500;0,0761393
3296,7141;0,0761673
3297,6785;0,0761929
3298,6426;0,0762139
3299,6069;0,0762317
3300,5710;0,0762506
3301,5354;0,0762744
3302,4995;0,0763037
3303,4639;0,0763344
3304,4280;0,0763605
3305,3923;0,0763772
3306,3564;0,0763846
3307,3208;0,0763882
3308,2849;0,076396
3309,2493;0,0764149
3310,2134;0,0764479
3311,1777;0,076494
3312,1418;0,0765499
3313,1062;0,0766121
3314,0703;0,0766774
3315,0347;0,0767428
3315,9988;0,0768054
3316,9631;0,0768637
3317,9272;0,0769191
3318,8916;0,076976
3319,8557;0,0770394
3320,8201;0,0771106
3321,7842;0,0771854
3322,7485;0,0772547
3323,7126;0,07731
3324,6770;0,0773488
3325,6411;0,0773768
3326,6055;0,0774055
3327,5696;0,0774453
3328,5339;0,0774996
3329,4980;0,0775636
3330,4624;0,0776263
3331,4265;0,0776762
3332,3909;0,0777062
3333,3550;0,0777152
3334,3193;0,0777067
3335,2834;0,0776857
3336,2478;0,0776561
3337,2119;0,0776193
3338,1763;0,0775737
3339,1404;0,0775166
3340,1047;0,0774465
3341,0688;0,0773646
3342,0332;0,0772759
3342,9973;0,0771882
3343,9617;0,0771088
3344,9258;0,0770414
3345,8901;0,076984
3346,8542;0,0769298
3347,8186;0,07687
3348,7827;0,0767977
3349,7471;0,0767112
3350,7112;0,0766152
3351,6755;0,076519
3352,6396;0,0764325
3353,6040;0,0763615
3354,5681;0,0763048
3355,5325;0,0762546
3356,4966;0,0762
3357,4609;0,076133
3358,4250;0,0760523
3359,3894;0,0759636
3360,3535;0,0758745
3361,3179;0,0757896
3362,2820;0,0757064
3363,2463;0,0756172
3364,2104;0,0755144
3365,1748;0,0753964
3366,1389;0,0752692
3367,1033;0,0751436
3368,0674;0,0750287
3369,0317;0,0749276
3369,9958;0,0748366
3370,9602;0,0747491
3371,9243;0,0746597
3372,8887;0,0745671
3373,8528;0,0744728
3374,8171;0,0743788
3375,7813;0,0742863
3376,7456;0,0741957
3377,7097;0,0741081
3378,6741;0,074025
3379,6382;0,0739472
3380,6025;0,0738722
3381,5667;0,0737939
3382,5310;0,0737058
3383,4951;0,0736051
3384,4595;0,0734961
3385,4236;0,073388
3386,3879;0,0732892
3387,3521;0,0732016
3388,3164;0,0731193
3389,2805;0,0730337
3390,2449;0,0729404
3391,2090;0,0728427
3392,1733;0,0727485
3393,1375;0,0726634
3394,1018;0,0725837
3395,0659;0,0724975
3396,0303;0,0723921
3396,9944;0,0722627
3397,9587;0,0721164
3398,9229;0,0719682
3399,8872;0,0718313
3400,8513;0,0717099
3401,8157;0,0715981
3402,7798;0,0714862
3403,7441;0,0713672
3404,7083;0,0712411
3405,6726;0,0711123
3406,6367;0,0709843
3407,6011;0,0708562
3408,5652;0,0707229
3409,5295;0,0705797
3410,4937;0,0704273
3411,4580;0,0702735
3412,4221;0,0701296
3413,3865;0,0700039
3414,3506;0,0698955
3415,3149;0,0697933
3416,2791;0,0696804
3417,2434;0,0695421
3418,2075;0,0693725
3419,1719;0,0691771
3420,1360;0,0689702
3421,1003;0,0687676
3422,0645;0,0685797
3423,0288;0,0684081
3423,9929;0,0682474
3424,9573;0,0680901
3425,9214;0,0679299
3426,8857;0,0677641
3427,8499;0,0675927
3428,8142;0,0674175
3429,7783;0,0672397
3430,7427;0,0670595
3431,7068;0,0668755
3432,6711;0,0666865
3433,6353;0,0664934
3434,5996;0,066301
3435,5637;0,0661159
3436,5281;0,0659434
3437,4922;0,0657843
3438,4565;0,0656348
3439,4207;0,0654892
3440,3850;0,0653431
3441,3491;0,0651939
3442,3135;0,0650372
3443,2776;0,0648642
3444,2419;0,0646615
3445,2061;0,0644185
3446,1704;0,0641365
3447,1345;0,0638339
3448,0989;0,06354
3449,0630;0,0632799
3450,0273;0,0630627
3450,9915;0,062879
3451,9558;0,0627102
3452,9199;0,0625395
3453,8843;0,0623592
3454,8484;0,0621721
3455,8127;0,0619865
3456,7769;0,0618093
3457,7412;0,0616406
3458,7053;0,0614743
3459,6697;0,0613012
3460,6338;0,0611146
3461,5981;0,0609133
3462,5623;0,0607013
3463,5266;0,060484
3464,4907;0,0602646
3465,4551;0,0600428
3466,4192;0,0598185
3467,3835;0,059595
3468,3477;0,0593795
3469,3120;0,0591789
3470,2761;0,0589947
3471,2405;0,0588204
3472,2046;0,0586467
3473,1689;0,0584683
3474,1331;0,0582902
3475,0974;0,0581241
3476,0615;0,057979
3477,0259;0,0578516
3477,9900;0,0577241
3478,9543;0,0575735
3479,9185;0,0573839
3480,8828;0,057157
3481,8469;0,0569114
3482,8113;0,0566701
3483,7754;0,0564455
3484,7397;0,0562335
3485,7039;0,0560205
3486,6682;0,055796
3487,6323;0,0555626
3488,5967;0,0553354
3489,5608;0,0551313
3490,5251;0,0549567
3491,4893;0,054801
3492,4536;0,0546426
3493,4177;0,0544618
3494,3821;0,0542551
3495,3462;0,0540395
3496,3105;0,0538446
3497,2747;0,0536919
3498,2390;0,0535782
3499,2031;0,0534736
3500,1675;0,0533355
3501,1316;0,0531317
3502,0959;0,0528623
3503,0601;0,0525633
3504,0244;0,052285
3504,9885;0,0520573
3505,9529;0,0518712
3506,9170;0,0516902
3507,8813;0,0514774
3508,8455;0,0512192
3509,8098;0,0509332
3510,7739;0,0506557
3511,7383;0,0504168
3512,7024;0,0502237
3513,6667;0,0500635
3514,6309;0,0499186
3515,5952;0,049781
3516,5593;0,0496542
3517,5237;0,0495453
3518,4878;0,0494545
3519,4521;0,0493704
3520,4163;0,0492754
3521,3806;0,0491544
3522,3447;0,0490013
3523,3091;0,0488184
3524,2732;0,0486092
3525,2375;0,0483725
3526,2017;0,048103
3527,1660;0,0478015
3528,1301;0,0474835
3529,0945;0,0471778
3530,0586;0,046913
3531,0229;0,0467003
3531,9871;0,0465283
3532,9514;0,0463707
3533,9155;0,0461998
3534,8799;0,0460004
3535,8440;0,045777
3536,8083;0,0455541
3537,7725;0,0453648
3538,7368;0,0452339
3539,7009;0,0451649
3540,6653;0,0451363
3541,6294;0,0451064
3542,5938;0,0450246
3543,5579;0,0448493
3544,5222;0,0445729
3545,4863;0,0442364
3546,4507;0,0439103
3547,4148;0,0436469
3548,3792;0,0434464
3549,3433;0,043265
3550,3076;0,0430504
3551,2717;0,0427784
3552,2361;0,0424715
3553,2002;0,0421859
3554,1646;0,041973
3555,1287;0,0418449
3556,0930;0,0417723
3557,0571;0,0417131
3558,0215;0,0416455
3558,9856;0,0415832
3559,9500;0,0415634
3560,9141;0,041612
3561,8784;0,0417109
3562,8425;0,0417887
3563,8069;0,0417352
3564,7710;0,0414372
3565,7354;0,0408476
3566,6995;0,0400721
3567,6638;0,0393527
3568,6279;0,0388883
3569,5923;0,0386954
3570,5564;0,0386564
3571,5208;0,038638
3572,4849;0,0385625
3573,4492;0,0384177
3574,4133;0,0382348
3575,3777;0,0380517
3576,3418;0,0378863
3577,3062;0,0377352
3578,2703;0,037594
3579,2346;0,037476
3580,1987;0,037408
3581,1631;0,0374049
3582,1272;0,037445
3583,0916;0,0374681
3584,0557;0,0373938
3585,0200;0,0371524
3585,9841;0,0367299
3586,9485;0,0362175
3587,9126;0,0357919
3588,8770;0,0355858
3589,8411;0,0355858
3590,8054;0,035672
3591,7695;0,035717
3592,7339;0,0356495
3593,6980;0,035473
3594,6624;0,0352478
3595,6265;0,0350424
3596,5908;0,0348789
3597,5549;0,0347214
3598,5193;0,0345183
3599,4834;0,0342564
3600,4478;0,0339834
3601,4119;0,0337748
3602,3762;0,0336731
3603,3403;0,0336548
3604,3047;0,0336484
3605,2688;0,0335762
3606,2332;0,0333919
3607,1973;0,0331051
3608,1616;0,0327814
3609,1257;0,0325055
3610,0901;0,0323299
3611,0542;0,0322551
3612,0186;0,0322471
3612,9827;0,0322619
3613,9470;0,0322559
3614,9111;0,0321836
3615,8755;0,0319977
3616,8396;0,0316645
3617,8040;0,0311975
3618,7681;0,0306931
3619,7324;0,0303164
3620,6965;0,0302031
3621,6609;0,0303603
3622,6250;0,030672
3623,5894;0,0309776
3624,5535;0,0311345
3625,5178;0,0310382
3626,4819;0,0306257
3627,4463;0,0299118
3628,4104;0,0290686
3629,3748;0,0283949
3630,3389;0,0280719
3631,3032;0,0280245
3632,2673;0,0280599
3633,2317;0,0280342
3634,1958;0,027906
3635,1602;0,0277122
3636,1243;0,0275143
3637,0886;0,0273528
3638,0527;0,0272347
3639,0171;0,0271534
3639,9812;0,0271151
3640,9456;0,0271427
3641,9097;0,027256
3642,8740;0,0274459
3643,8381;0,0276674
3644,8025;0,0278484
3645,7666;0,0278929
3646,7310;0,0276707
3647,6951;0,0270527
3648,6594;0,0261078
3649,6235;0,0252345
3650,5879;0,0247934
3651,5520;0,0247537
3652,5164;0,0248557
3653,4805;0,0248683
3654,4448;0,0246878
3655,4089;0,0243455
3656,3733;0,023971
3657,3374;0,023703
3658,3018;0,023591
3659,2659;0,0235828
3660,2302;0,0236002
3661,1943;0,0236134
3662,1587;0,0236536
3663,1228;0,0237683
3664,0872;0,0239644
3665,0513;0,0241916
3666,0156;0,0243722
3666,9797;0,0244477
3667,9441;0,0244101
3668,9082;0,0243115
3669,8726;0,0242367
3670,8367;0,0242272
3671,8010;0,0242273
3672,7651;0,0241218
3673,7295;0,0238226
3674,6936;0,023345
3675,6580;0,0228435
3676,6221;0,0225231
3677,5864;0,0224577
3678,5505;0,0225554
3679,5149;0,0226891
3680,4790;0,0228015
3681,4434;0,0229108
3682,4075;0,0230573
3683,3718;0,0232502
3684,3359;0,0234503
3685,3003;0,0235928
3686,2644;0,0236222
3687,2288;0,0235138
3688,1929;0,0232868
3689,1572;0,0230199
3690,1213;0,0228278
3691,0857;0,0227743
3692,0498;0,0228303
3693,0142;0,0229288
3693,9783;0,0230243
3694,9426;0,0231021
3695,9067;0,0231592
3696,8711;0,0231846
3697,8352;0,0231586
3698,7996;0,0230677
3699,7637;0,0229261
3700,7280;0,0227862
3701,6921;0,0227251
3702,6565;0,0228029
3703,6206;0,0230231
3704,5850;0,0233321
3705,5491;0,0236529
3706,5134;0,023914
3707,4775;0,0240558
3708,4419;0,0240174
3709,4060;0,0237393
3710,3704;0,0232275
3711,3345;0,0226384
3712,2988;0,0222116
3713,2629;0,0220766
3714,2273;0,0221912
3715,1914;0,0224361
3716,1558;0,0227083
3717,1199;0,0229545
3718,0842;0,0231657
3719,0483;0,0233543
3720,0127;0,0235294
3720,9768;0,0236801
3721,9412;0,0237787
3722,9053;0,0238015
3723,8696;0,0237566
3724,8337;0,0236938
3725,7981;0,0236825
3726,7622;0,0237678
3727,7266;0,023945
3728,6907;0,0241714
3729,6550;0,0243955
3730,6191;0,0245725
3731,5835;0,0246576
3732,5476;0,0245919
3733,5120;0,0243204
3734,4761;0,0238775
3735,4404;0,0234529
3736,4045;0,0232728
3737,3689;0,0233992
3738,3330;0,0237016
3739,2974;0,023977
3740,2615;0,0240562
3741,2258;0,0238571
3742,1899;0,0234188
3743,1543;0,0229258
3744,1184;0,0226545
3745,0828;0,022779
3746,0469;0,0232093
3747,0112;0,0236733
3747,9753;0,0239024
3748,9397;0,0237363
3749,9038;0,0231937
3750,8682;0,0225349
3751,8323;0,0221255
3752,7966;0,0221158
3753,7607;0,0223666
3754,7251;0,0226483
3755,6892;0,0227981
3756,6536;0,0227582
3757,6177;0,022568
3758,5820;0,0223379
3759,5461;0,0221898
3760,5105;0,0221839
3761,4746;0,0222959
3762,4390;0,0224562
3763,4031;0,0225978
3764,3674;0,022679
3765,3315;0,0226827
3766,2959;0,0226077
3767,2600;0,0224615
3768,2244;0,0222624
3769,1885;0,022048
3770,1528;0,0218774
3771,1169;0,0218083
3772,0813;0,0218622
3773,0454;0,0220078
3774,0098;0,02218
3774,9739;0,0223115
3775,9382;0,0223597
3776,9023;0,0223196
3777,8667;0,022227
3778,8308;0,0221445
3779,7952;0,0221262
3780,7593;0,0221814
3781,7236;0,0222716
3782,6877;0,0223398
3783,6521;0,022342
3784,6162;0,0222666
3785,5806;0,022137
3786,5447;0,0220006
3787,5090;0,0219069
3788,4731;0,0218871
3789,4375;0,0219442
3790,4016;0,0220578
3791,3660;0,0221993
3792,3301;0,0223503
3793,2944;0,0225129
3794,2585;0,0227039
3795,2229;0,0229336
3796,1870;0,0231831
3797,1514;0,0233987
3798,1155;0,0235132
3799,0798;0,0234811
3800,0439;0,0233127
3801,0083;0,023085
3801,9724;0,0228931
3802,9368;0,0227641
3803,9009;0,0226326
3804,8652;0,0224107
3805,8293;0,0220839
3806,7937;0,0217563
3807,7578;0,0215967
3808,7222;0,0217036
3809,6863;0,0220231
3810,6506;0,022406
3811,6147;0,0227171
3812,5791;0,0229011
3813,5432;0,0229941
3814,5076;0,0230896
3815,4717;0,0232665
3816,4360;0,0235146
3817,4001;0,023725
3818,3645;0,0237577
3819,3286;0,0235343
3820,2930;0,0231107
3821,2571;0,0226717
3822,2214;0,0224023
3823,1855;0,0223512
3824,1499;0,0224368
3825,1140;0,0225502
3826,0784;0,0226293
3827,0425;0,0226733
3828,0068;0,022719
3828,9709;0,0228051
3829,9353;0,0229482
3830,8994;0,0231377
3831,8638;0,0233455
3832,8279;0,0235372
3833,7922;0,0236801
3834,7563;0,0237467
3835,7207;0,0237187
3836,6848;0,0235925
3837,6492;0,0233884
3838,6133;0,0231496
3839,5776;0,0229194
3840,5417;0,0227139
3841,5061;0,0225282
3842,4702;0,0223716
3843,4346;0,0222896
3844,3987;0,0223483
3845,3630;0,0225884
3846,3271;0,0229887
3847,2915;0,0234659
3848,2556;0,0239028
3849,2200;0,0241757
3850,1841;0,0241636
3851,1484;0,023757
3852,1125;0,0229404
3853,0769;0,0219835
3854,0410;0,0213893
3855,0054;0,0213981
3855,9695;0,0218229
3856,9338;0,0223636
3857,8979;0,0228236
3858,8623;0,0231264
3859,8264;0,0232718
3860,7908;0,0232991
3861,7549;0,0232636
3862,7192;0,0232231
3863,6833;0,023223
3864,6477;0,0232776
3865,6118;0,0233616
3866,5762;0,0234268
3867,5403;0,0234273
3868,5046;0,0233386
3869,4688;0,0231655
3870,4331;0,0229441
3871,3972;0,0227318
3872,3616;0,0225822
3873,3257;0,0225211
3874,2900;0,0225405
3875,2542;0,0226103
3876,2185;0,0226974
3877,1826;0,0227817
3878,1470;0,0228614
3879,1111;0,0229454
3880,0754;0,0230332
3881,0396;0,0230985
3882,0039;0,023096
3882,9680;0,0229937
3883,9324;0,0228098
3884,8965;0,0226197
3885,8608;0,0225129
3886,8250;0,0225248
3887,7893;0,0226093
3888,7534;0,0226772
3889,7178;0,0226625
3890,6819;0,0225728
3891,6462;0,0224938
3892,6104;0,0225271
3893,5747;0,0227035
3894,5388;0,0229636
3895,5032;0,0232151
3896,4673;0,0233933
3897,4316;0,0234825
3898,3958;0,0235031
3899,3601;0,0234809
3900,3242;0,023418
3901,2886;0,0232876
3902,2527;0,023064
3903,2170;0,0227645
3904,1812;0,0224581
3905,1455;0,0222225
3906,1096;0,0220922
3907,0740;0,0220518
3908,0381;0,0220674
3909,0024;0,0221167
3909,9666;0,0221973
3910,9309;0,0223146
3911,8950;0,0224636
3912,8594;0,0226197
3913,8235;0,0227444
3914,7878;0,0228033
3915,7520;0,0227858
3916,7163;0,0227179
3917,6804;0,0226532
3918,6448;0,0226394
3919,6089;0,0226855
3920,5732;0,0227587
3921,5374;0,022813
3922,5017;0,0228205
3923,4658;0,0227896
3924,4302;0,0227593
3925,3943;0,0227691
3926,3586;0,0228276
3927,3228;0,0229044
3928,2871;0,02295
3929,2512;0,0229242
3930,2156;0,0228191
3931,1797;0,0226659
3932,1440;0,0225202
3933,1082;0,02243
3934,0725;0,0224107
3935,0366;0,022447
3936,0010;0,0225121
3936,9651;0,022583
3937,9294;0,0226446
3938,8936;0,0226869
3939,8579;0,022704
3940,8220;0,0226972
3941,7864;0,0226797
3942,7505;0,0226737
3943,7148;0,0226969
3944,6790;0,0227484
3945,6433;0,0228059
3946,6074;0,0228384
3947,5718;0,022823
3948,5359;0,0227583
3949,5002;0,0226656
3950,4644;0,0225758
3951,4287;0,0225108
3952,3928;0,0224747
3953,3572;0,022459
3954,3213;0,0224532
3955,2856;0,022451
3956,2498;0,0224501
3957,2141;0,0224492
3958,1782;0,0224463
3959,1426;0,022439
3960,1067;0,0224274
3961,0710;0,0224146
3962,0352;0,0224052
3962,9995;0,0224018
3963,9636;0,0224044
3964,9280;0,0224113
3965,8921;0,022422
3966,8564;0,0224385
3967,8206;0,0224635
3968,7849;0,022496
3969,7490;0,0225284
3970,7134;0,0225481
3971,6775;0,0225426
3972,6418;0,0225082
3973,6060;0,0224535
3974,5703;0,0223969
3975,5344;0,0223583
3976,4988;0,0223488
3977,4629;0,0223657
3978,4272;0,0223953
3979,3914;0,0224204
3980,3557;0,0224287
3981,3198;0,0224166
3982,2842;0,022389
3983,2483;0,0223552
3984,2126;0,0223243
3985,1768;0,0223031
3986,1411;0,0222951
3987,1052;0,0223018
3988,0696;0,0223221
3989,0337;0,0223525
3989,9980;0,0223872
3990,9622;0,0224189
3991,9265;0,0224416
3992,8906;0,0224524
3993,8550;0,0224524
3994,8191;0,0224455
3995,7834;0,0224365
3996,7476;0,0224282
3997,7119;0,0224212
3998,6760;0,022414
3999,6404;0,0224063
4000,6045;0,0225012

##### Extended Information
[Comments]
Sample name
Comment
Username
Division
Organization;UNIVERSIDAD INDUSTRIAL DE SANTANDER

[Detailed Information]
Creation date;1/04/2025 3:01 p.m.

Data array type;Linear data array
Horizontal axis;Wavenumber [cm-1]
Vertical axis;Abs
Start;399,193 cm-1
End;4000,6 cm-1
Data interval;0,964233 cm-1
Data points;3736    

[Measurement Information]
Model name;FT/IR-4X1typeA
Serial No.;A035162111

Accessory;ATR PRO 4X
Accessory S/N;A021162126
Incident angle;45 deg

Measurement date;1/04/2025 3:00 p.m.

Light source;Standard
Detector;TGS
Accumulation;40
Resolution;4 cm-1
Zero filling;On
Apodization;Cosine
Gain;Auto (8)
Aperture;Auto (7 mm)
Scan speed;Auto (2 mm/sec)
Filter;Auto (12800 Hz)

