TITLE;
DATA TYPE;INFRARED SPECTRUM
ORIGIN;JASCO
OWNER;
DATE;25/02/04
TIME;11:29:11
SPECTROMETER/DATA SYSTEM;
LOCALE;9226
RESOLUTION;
DELTAX;0,964233
XUNITS;1/CM
YUNITS;ABSORBANCE
FIRSTX;  399,1927
LASTX; 4000,6047
NPOINTS;    3736
FIRSTY;     0,17840
MAXY;     0,23818
MINY;     0,00985
XYDATA
399,1927;0,178398
400,1569;0,178003
401,1211;0,17716
402,0854;0,176202
403,0496;0,175291
404,0138;0,174519
404,9781;0,17399
405,9423;0,173812
406,9065;0,174033
407,8708;0,174601
408,8350;0,175378
409,7992;0,176211
410,7635;0,176973
411,7277;0,177578
412,6919;0,177974
413,6562;0,17815
414,6204;0,178142
415,5846;0,178056
416,5489;0,178075
417,5131;0,17843
418,4773;0,179234
419,4416;0,180258
420,4058;0,181084
421,3700;0,181529
422,3343;0,181749
423,2985;0,182022
424,2627;0,182567
425,2270;0,183443
426,1912;0,184542
427,1554;0,185668
428,1197;0,186663
429,0839;0,18748
430,0481;0,188163
431,0124;0,188776
431,9766;0,189325
432,9408;0,189746
433,9051;0,189942
434,8693;0,189859
435,8335;0,189544
436,7978;0,189133
437,7620;0,188773
438,7262;0,188536
439,6905;0,188382
440,6547;0,188195
441,6189;0,187871
442,5832;0,1874
443,5474;0,186907
444,5116;0,186587
445,4759;0,186563
446,4401;0,186798
447,4043;0,187118
448,3686;0,187313
449,3328;0,187253
450,2970;0,18695
451,2613;0,186542
452,2255;0,186201
453,1897;0,186034
454,1540;0,186031
455,1182;0,186103
456,0824;0,18615
457,0467;0,186136
458,0109;0,186124
458,9751;0,186221
459,9394;0,186494
460,9036;0,186916
461,8678;0,187386
462,8321;0,187774
463,7963;0,187957
464,7605;0,187862
465,7248;0,187509
466,6890;0,187025
467,6532;0,186592
468,6175;0,186365
469,5817;0,186405
470,5459;0,186659
471,5102;0,186999
472,4744;0,187307
473,4386;0,187544
474,4029;0,187754
475,3671;0,187982
476,3313;0,188213
477,2956;0,188369
478,2598;0,188367
479,2240;0,188188
480,1883;0,1879
481,1525;0,187629
482,1167;0,187499
483,0810;0,187572
484,0452;0,187841
485,0094;0,18825
485,9737;0,188725
486,9379;0,189199
487,9021;0,189611
488,8664;0,189905
489,8306;0,190047
490,7948;0,190043
491,7591;0,189949
492,7233;0,18984
493,6875;0,189772
494,6518;0,18975
495,6160;0,189752
496,5802;0,189761
497,5445;0,189791
498,5087;0,189875
499,4729;0,190035
500,4372;0,190256
501,4014;0,190484
502,3656;0,19066
503,3299;0,190758
504,2941;0,190807
505,2583;0,190869
506,2226;0,19101
507,1868;0,191271
508,1510;0,191661
509,1153;0,192153
510,0795;0,192697
511,0437;0,193233
512,0080;0,193711
512,9722;0,194103
513,9365;0,194415
514,9007;0,194677
515,8649;0,194932
516,8292;0,195214
517,7934;0,195522
518,7576;0,195811
519,7219;0,196017
520,6861;0,196083
521,6503;0,195988
522,6146;0,195751
523,5788;0,195429
524,5430;0,195097
525,5073;0,194831
526,4715;0,194661
527,4357;0,194561
528,4000;0,194469
529,3642;0,194332
530,3284;0,194135
531,2927;0,193897
532,2569;0,193652
533,2211;0,19342
534,1854;0,193205
535,1496;0,193
536,1138;0,192806
537,0781;0,192635
538,0423;0,192504
539,0065;0,192418
539,9708;0,192369
540,9350;0,19235
541,8992;0,192366
542,8635;0,192441
543,8277;0,192608
544,7919;0,192894
545,7562;0,1933
546,7204;0,193801
547,6846;0,194352
548,6489;0,1949
549,6131;0,1954
550,5773;0,195827
551,5416;0,196183
552,5058;0,196495
553,4700;0,196802
554,4343;0,197125
555,3985;0,197435
556,3627;0,197638
557,3270;0,19759
558,2912;0,19715
559,2554;0,196238
560,2197;0,19488
561,1839;0,19321
562,1481;0,191421
563,1124;0,189695
564,0766;0,188148
565,0408;0,18681
566,0051;0,185656
566,9693;0,184647
567,9335;0,183773
568,8978;0,183043
569,8620;0,182471
570,8262;0,182043
571,7905;0,181719
572,7547;0,181458
573,7189;0,181234
574,6832;0,181043
575,6474;0,180896
576,6116;0,18079
577,5759;0,180701
578,5401;0,180591
579,5043;0,180425
580,4686;0,180195
581,4328;0,179923
582,3970;0,179655
583,3613;0,179444
584,3255;0,179324
585,2897;0,179296
586,2540;0,179333
587,2182;0,179392
588,1824;0,179436
589,1467;0,179446
590,1109;0,179423
591,0751;0,179373
592,0394;0,17929
593,0036;0,179157
593,9678;0,178953
594,9321;0,178669
595,8963;0,178314
596,8605;0,177916
597,8248;0,177502
598,7890;0,177093
599,7532;0,176694
600,7175;0,176299
601,6817;0,175904
602,6459;0,175512
603,6102;0,17513
604,5744;0,174767
605,5386;0,174422
606,5029;0,174075
607,4671;0,173695
608,4313;0,173244
609,3956;0,172704
610,3598;0,172083
611,3240;0,171423
612,2883;0,170773
613,2525;0,170163
614,2167;0,169584
615,1810;0,168982
616,1452;0,168284
617,1094;0,167434
618,0737;0,166425
619,0379;0,165296
620,0021;0,164113
620,9664;0,162932
621,9306;0,161791
622,8948;0,160718
623,8591;0,159739
624,8233;0,158882
625,7875;0,158148
626,7518;0,157522
627,7160;0,156967
628,6802;0,156441
629,6445;0,155903
630,6087;0,155325
631,5729;0,154687
632,5372;0,153989
633,5014;0,153244
634,4656;0,15249
635,4299;0,151777
636,3941;0,151152
637,3583;0,150637
638,3226;0,150225
639,2868;0,14988
640,2510;0,149552
641,2153;0,149199
642,1795;0,148796
643,1437;0,148338
644,1080;0,14784
645,0722;0,147331
646,0364;0,14684
647,0007;0,146389
647,9649;0,145996
648,9291;0,145668
649,8934;0,145418
650,8576;0,145262
651,8218;0,145215
652,7861;0,145289
653,7503;0,145487
654,7145;0,145796
655,6788;0,146198
656,6430;0,146666
657,6072;0,147157
658,5715;0,147605
659,5357;0,147927
660,4999;0,148055
661,4642;0,14799
662,4284;0,14782
663,3926;0,147666
664,3569;0,147606
665,3211;0,147606
666,2853;0,147466
667,2496;0,146824
668,2138;0,145407
669,1780;0,143469
670,1423;0,141578
671,1065;0,139973
672,0707;0,13855
673,0350;0,137136
673,9992;0,13563
674,9634;0,134034
675,9277;0,132439
676,8919;0,130949
677,8561;0,129609
678,8204;0,128393
679,7846;0,127265
680,7488;0,12623
681,7131;0,125325
682,6773;0,124579
683,6415;0,123978
684,6058;0,123475
685,5700;0,123016
686,5342;0,122571
687,4985;0,122139
688,4627;0,121743
689,4269;0,121413
690,3912;0,121168
691,3554;0,121005
692,3196;0,120893
693,2839;0,120781
694,2481;0,120617
695,2123;0,12037
696,1766;0,120047
697,1408;0,119681
698,1050;0,119311
699,0693;0,118957
700,0335;0,118613
700,9977;0,118251
701,9620;0,117842
702,9262;0,117363
703,8904;0,116815
704,8547;0,116212
705,8189;0,115583
706,7831;0,11496
707,7474;0,114369
708,7116;0,113818
709,6758;0,113288
710,6401;0,112742
711,6043;0,112137
712,5685;0,111451
713,5328;0,110692
714,4970;0,109897
715,4612;0,109196
716,4255;0,108416
717,3897;0,107644
718,3539;0,106847
719,3182;0,105994
720,2824;0,105074
721,2466;0,104108
722,2109;0,10313
723,1751;0,102169
724,1393;0,101238
725,1036;0,100333
726,0678;0,0994461
727,0320;0,098575
727,9963;0,0977207
728,9605;0,0968868
729,9247;0,0960767
730,8890;0,0952959
731,8532;0,0945534
732,8174;0,0938613
733,7817;0,0932302
734,7459;0,0926636
735,7101;0,0921558
736,6744;0,0916934
737,6386;0,091259
738,6028;0,0908348
739,5671;0,090405
740,5313;0,0899597
741,4955;0,0894969
742,4598;0,089024
743,4240;0,0885555
744,3882;0,088107
745,3525;0,0876879
746,3167;0,0872978
747,2809;0,0869267
748,2452;0,0865593
749,2094;0,0861819
750,1736;0,0857867
751,1379;0,0853739
752,1021;0,0849494
753,0663;0,0845212
754,0306;0,0840955
754,9948;0,083675
755,9590;0,08326
756,9233;0,0828511
757,8875;0,0824504
758,8517;0,0820611
759,8160;0,0816861
760,7802;0,0813268
761,7444;0,0809836
762,7087;0,0806563
763,6729;0,0803441
764,6371;0,0800441
765,6014;0,0797505
766,5656;0,0794565
767,5298;0,0791565
768,4941;0,0788494
769,4583;0,0785374
770,4225;0,0782246
771,3868;0,0779138
772,3510;0,0776078
773,3152;0,0773113
774,2795;0,0770314
775,2437;0,0767744
776,2079;0,0765383
777,1722;0,0763095
778,1364;0,0760658
779,1006;0,075788
780,0649;0,0754713
781,0291;0,07513
781,9933;0,0747899
782,9576;0,074474
783,9218;0,0741896
784,8860;0,0739266
785,8503;0,0736655
786,8145;0,0733916
787,7787;0,0731042
788,7430;0,0728168
789,7072;0,0725498
790,6714;0,0723189
791,6357;0,0721281
792,5999;0,0719678
793,5641;0,0718196
794,5284;0,0716632
795,4926;0,0714841
796,4568;0,0712784
797,4211;0,071053
798,3853;0,0708213
799,3495;0,0705962
800,3138;0,0703843
801,2780;0,0701844
802,2422;0,0699929
803,2065;0,0698093
804,1707;0,0696403
805,1349;0,0694954
806,0992;0,0693792
807,0634;0,0692854
808,0276;0,0691979
808,9919;0,0690998
809,9561;0,0689844
810,9203;0,0688609
811,8846;0,0687502
812,8488;0,0686732
813,8130;0,068639
814,7773;0,06864
815,7415;0,0686564
816,7057;0,068666
817,6700;0,0686548
818,6342;0,0686209
819,5984;0,0685729
820,5627;0,0685225
821,5269;0,0684785
822,4911;0,068443
823,4554;0,0684113
824,4196;0,0683757
825,3839;0,0683292
826,3481;0,0682687
827,3123;0,0681962
828,2766;0,0681165
829,2408;0,0680341
830,2050;0,0679494
831,1693;0,0678563
832,1335;0,0677438
833,0977;0,0676007
834,0620;0,0674219
835,0262;0,0672124
835,9904;0,0669885
836,9547;0,0667716
837,9189;0,0665811
838,8831;0,0664267
839,8474;0,0663056
840,8116;0,0662055
841,7758;0,0661113
842,7401;0,0660121
843,7043;0,0659051
844,6685;0,0657945
845,6328;0,0656876
846,5970;0,0655905
847,5612;0,0655059
848,5255;0,0654345
849,4897;0,0653776
850,4539;0,0653393
851,4182;0,0653252
852,3824;0,0653381
853,3466;0,0653732
854,3109;0,0654175
855,2751;0,0654531
856,2393;0,0654657
857,2036;0,065453
858,1678;0,0654262
859,1320;0,0654055
860,0963;0,065409
861,0605;0,0654446
862,0247;0,0655077
862,9890;0,0655889
863,9532;0,0656834
864,9174;0,0657982
865,8817;0,0659504
866,8459;0,0661593
867,8101;0,0664361
868,7744;0,0667789
869,7386;0,0671732
870,7028;0,067597
871,6671;0,0680263
872,6313;0,0684386
873,5955;0,0688147
874,5598;0,0691411
875,5240;0,0694128
876,4882;0,0696365
877,4525;0,0698307
878,4167;0,0700236
879,3809;0,070248
880,3452;0,0705353
881,3094;0,0709104
882,2736;0,0713886
883,2379;0,0719741
884,2021;0,0726614
885,1663;0,073439
886,1306;0,0742939
887,0948;0,0752141
888,0590;0,0761884
889,0233;0,0772019
889,9875;0,0782316
890,9517;0,079245
891,9160;0,080203
892,8802;0,081067
893,8444;0,0818053
894,8087;0,0823964
895,7729;0,0828279
896,7371;0,0830941
897,7014;0,0831938
898,6656;0,0831323
899,6298;0,0829236
900,5941;0,0825922
901,5583;0,0821711
902,5225;0,081697
903,4868;0,0812037
904,4510;0,0807178
905,4152;0,0802576
906,3795;0,0798354
907,3437;0,0794606
908,3079;0,0791414
909,2722;0,0788857
910,2364;0,0786992
911,2007;0,078585
912,1649;0,0785434
913,1292;0,0785728
914,0934;0,0786706
915,0576;0,0788327
916,0219;0,0790529
916,9861;0,0793231
917,9503;0,0796334
918,9146;0,0799748
919,8788;0,0803398
920,8430;0,0807236
921,8073;0,0811223
922,7715;0,0815317
923,7357;0,0819458
924,7000;0,0823567
925,6642;0,0827553
926,6284;0,0831318
927,5927;0,0834781
928,5569;0,0837899
929,5211;0,0840698
930,4854;0,0843289
931,4496;0,0845862
932,4138;0,0848654
933,3781;0,0851895
934,3423;0,0855766
935,3065;0,0860374
936,2708;0,0865765
937,2350;0,0871945
938,1992;0,0878909
939,1635;0,0886646
940,1277;0,0895135
941,0919;0,0904338
942,0562;0,0914209
943,0204;0,0924713
943,9846;0,0935846
944,9489;0,0947643
945,9131;0,0960156
946,8773;0,0973427
947,8416;0,0987458
948,8058;0,100222
949,7700;0,101766
950,7343;0,103375
951,6985;0,105049
952,6627;0,106789
953,6270;0,108594
954,5912;0,110461
955,5554;0,112385
956,5197;0,114364
957,4839;0,116397
958,4481;0,118487
959,4124;0,120631
960,3766;0,122824
961,3408;0,12505
962,3051;0,127295
963,2693;0,129547
964,2335;0,131798
965,1978;0,13405
966,1620;0,136307
967,1262;0,13858
968,0905;0,140887
969,0547;0,143253
970,0189;0,145714
970,9832;0,148304
971,9474;0,151054
972,9116;0,15398
973,8759;0,157082
974,8401;0,160355
975,8043;0,163787
976,7686;0,167365
977,7328;0,171066
978,6970;0,17484
979,6613;0,178598
980,6255;0,182213
981,5897;0,185542
982,5540;0,188459
983,5182;0,1909
984,4824;0,192877
985,4467;0,194476
986,4109;0,195819
987,3751;0,197024
988,3394;0,19817
989,3036;0,199288
990,2678;0,20037
991,2321;0,201396
992,1963;0,202353
993,1605;0,203241
994,1248;0,204072
995,0890;0,204857
996,0532;0,205597
997,0175;0,206279
997,9817;0,206886
998,9459;0,207411
999,9102;0,207871
1000,8744;0,208308
1001,8386;0,208785
1002,8029;0,209366
1003,7671;0,210102
1004,7313;0,211018
1005,6956;0,212115
1006,6598;0,213379
1007,6240;0,21479
1008,5883;0,216331
1009,5525;0,217986
1010,5167;0,219731
1011,4810;0,221532
1012,4452;0,22334
1013,4094;0,225099
1014,3737;0,226755
1015,3379;0,228264
1016,3021;0,229605
1017,2664;0,230776
1018,2306;0,231792
1019,1948;0,232675
1020,1591;0,233455
1021,1233;0,234157
1022,0875;0,234804
1023,0518;0,235413
1024,0160;0,235997
1024,9802;0,236558
1025,9445;0,237086
1026,9087;0,237558
1027,8729;0,237937
1028,8372;0,238169
1029,8014;0,23818
1030,7656;0,237888
1031,7299;0,23721
1032,6941;0,236087
1033,6583;0,234506
1034,6226;0,232517
1035,5868;0,23023
1036,5510;0,227801
1037,5153;0,225405
1038,4795;0,223204
1039,4437;0,221328
1040,4080;0,219859
1041,3722;0,218827
1042,3364;0,218211
1043,3007;0,217947
1044,2649;0,217943
1045,2291;0,218095
1046,1934;0,218308
1047,1576;0,218504
1048,1218;0,21862
1049,0861;0,218603
1050,0503;0,2184
1051,0145;0,217962
1051,9788;0,217251
1052,9430;0,216254
1053,9072;0,214983
1054,8715;0,213466
1055,8357;0,211714
1056,7999;0,209705
1057,7642;0,207381
1058,7284;0,204677
1059,6926;0,201562
1060,6569;0,198077
1061,6211;0,194342
1062,5853;0,190535
1063,5496;0,186834
1064,5138;0,183377
1065,4780;0,180227
1066,4423;0,177387
1067,4065;0,174821
1068,3707;0,172484
1069,3350;0,170334
1070,2992;0,168334
1071,2634;0,166442
1072,2277;0,164598
1073,1919;0,162737
1074,1561;0,1608
1075,1204;0,158758
1076,0846;0,156616
1077,0488;0,154417
1078,0131;0,152229
1078,9773;0,15013
1079,9415;0,14819
1080,9058;0,146466
1081,8700;0,144988
1082,8342;0,143761
1083,7985;0,142769
1084,7627;0,141975
1085,7269;0,141338
1086,6912;0,140822
1087,6554;0,140404
1088,6196;0,14008
1089,5839;0,139863
1090,5481;0,139766
1091,5123;0,139797
1092,4766;0,13995
1093,4408;0,140204
1094,4050;0,140536
1095,3693;0,140925
1096,3335;0,141359
1097,2977;0,141827
1098,2620;0,142315
1099,2262;0,142797
1100,1904;0,143238
1101,1547;0,143595
1102,1189;0,143831
1103,0831;0,143921
1104,0474;0,143866
1105,0116;0,14368
1105,9758;0,143392
1106,9401;0,143027
1107,9043;0,142589
1108,8685;0,142047
1109,8328;0,141336
1110,7970;0,14037
1111,7612;0,139077
1112,7255;0,137432
1113,6897;0,135482
1114,6539;0,133341
1115,6182;0,131159
1116,5824;0,129082
1117,5466;0,127202
1118,5109;0,125542
1119,4751;0,12406
1120,4393;0,122662
1121,4036;0,121242
1122,3678;0,119702
1123,3320;0,117977
1124,2963;0,116044
1125,2605;0,11392
1126,2247;0,111657
1127,1890;0,109319
1128,1532;0,106969
1129,1174;0,104649
1130,0817;0,102381
1131,0459;0,100173
1132,0101;0,0980305
1132,9744;0,0959729
1133,9386;0,0940367
1134,9028;0,0922717
1135,8671;0,0907305
1136,8313;0,0894562
1137,7955;0,0884759
1138,7598;0,0877985
1139,7240;0,0874168
1140,6882;0,0873107
1141,6525;0,0874488
1142,6167;0,0877904
1143,5809;0,088289
1144,5452;0,0888979
1145,5094;0,0895783
1146,4736;0,0903059
1147,4379;0,0910725
1148,4021;0,091883
1149,3663;0,0927457
1150,3306;0,0936613
1151,2948;0,0946152
1152,2590;0,0955758
1153,2233;0,0965008
1154,1875;0,0973459
1155,1517;0,0980709
1156,1160;0,0986381
1157,0802;0,0990039
1158,0444;0,0991085
1159,0087;0,0988731
1159,9729;0,0982081
1160,9371;0,0970324
1161,9014;0,095297
1162,8656;0,0930031
1163,8298;0,090208
1164,7941;0,0870179
1165,7583;0,0835712
1166,7225;0,0800181
1167,6868;0,0765013
1168,6510;0,073141
1169,6152;0,0700245
1170,5795;0,0672031
1171,5437;0,064695
1172,5079;0,0624931
1173,4722;0,060575
1174,4364;0,0589118
1175,4006;0,0574733
1176,3649;0,0562319
1177,3291;0,0551632
1178,2933;0,0542461
1179,2576;0,0534619
1180,2218;0,0527927
1181,1860;0,052221
1182,1503;0,0517317
1183,1145;0,0513146
1184,0787;0,0509671
1185,0430;0,0506949
1186,0072;0,0505093
1186,9714;0,0504229
1187,9357;0,0504446
1188,8999;0,0505778
1189,8641;0,0508202
1190,8284;0,0511655
1191,7926;0,0516058
1192,7568;0,0521323
1193,7211;0,0527355
1194,6853;0,0534043
1195,6495;0,0541249
1196,6138;0,0548799
1197,5780;0,0556493
1198,5422;0,0564129
1199,5065;0,0571548
1200,4707;0,0578611
1201,4349;0,058527
1202,3992;0,0591474
1203,3634;0,0597136
1204,3276;0,060212
1205,2919;0,0606271
1206,2561;0,0609506
1207,2203;0,0611894
1208,1846;0,0613709
1209,1488;0,0615397
1210,1130;0,0617481
1211,0773;0,0620435
1212,0415;0,0624565
1213,0057;0,0629953
1213,9700;0,0636481
1214,9342;0,0643902
1215,8984;0,0651938
1216,8627;0,066035
1217,8269;0,0668962
1218,7911;0,0677647
1219,7554;0,068631
1220,7196;0,0694861
1221,6838;0,0703225
1222,6481;0,071134
1223,6123;0,071917
1224,5765;0,0726691
1225,5408;0,0733879
1226,5050;0,07407
1227,4692;0,0747121
1228,4335;0,0753116
1229,3977;0,0758671
1230,3619;0,0763778
1231,3262;0,0768398
1232,2904;0,0772447
1233,2546;0,0775802
1234,2189;0,077835
1235,1831;0,0780056
1236,1473;0,0781006
1237,1116;0,0781408
1238,0758;0,0781522
1239,0400;0,0781565
1240,0043;0,0781631
1240,9685;0,0781664
1241,9327;0,0781496
1242,8970;0,0780926
1243,8612;0,0779785
1244,8254;0,0777996
1245,7897;0,0775575
1246,7539;0,0772617
1247,7181;0,0769263
1248,6824;0,0765667
1249,6466;0,0761968
1250,6108;0,0758281
1251,5751;0,0754689
1252,5393;0,0751252
1253,5035;0,0748007
1254,4678;0,0744958
1255,4320;0,0742074
1256,3962;0,0739282
1257,3605;0,0736492
1258,3247;0,0733612
1259,2889;0,0730574
1260,2532;0,0727328
1261,2174;0,0723827
1262,1816;0,0720021
1263,1459;0,0715865
1264,1101;0,0711337
1265,0743;0,0706459
1266,0386;0,0701295
1267,0028;0,0695925
1267,9670;0,0690424
1268,9313;0,0684849
1269,8955;0,0679243
1270,8597;0,0673637
1271,8240;0,0668058
1272,7882;0,0662517
1273,7524;0,0657027
1274,7167;0,0651612
1275,6809;0,0646318
1276,6451;0,0641189
1277,6094;0,0636223
1278,5736;0,0631331
1279,5378;0,0626347
1280,5021;0,0621102
1281,4663;0,0615513
1282,4305;0,0609645
1283,3948;0,060369
1284,3590;0,0597895
1285,3232;0,0592479
1286,2875;0,05876
1287,2517;0,0583348
1288,2159;0,0579772
1289,1802;0,0576887
1290,1444;0,0574673
1291,1086;0,0573081
1292,0729;0,057207
1293,0371;0,0571644
1294,0013;0,0571875
1294,9656;0,0572884
1295,9298;0,0574786
1296,8940;0,0577647
1297,8583;0,0581466
1298,8225;0,0586196
1299,7867;0,0591767
1300,7510;0,0598092
1301,7152;0,0605065
1302,6794;0,0612565
1303,6437;0,0620482
1304,6079;0,0628746
1305,5721;0,0637331
1306,5364;0,0646222
1307,5006;0,0655377
1308,4648;0,0664692
1309,4291;0,0673999
1310,3933;0,0683085
1311,3575;0,0691689
1312,3218;0,0699514
1313,2860;0,0706238
1314,2502;0,0711533
1315,2145;0,0715114
1316,1787;0,0716777
1317,1429;0,0716466
1318,1072;0,0714339
1319,0714;0,0710794
1320,0356;0,0706394
1320,9999;0,07017
1321,9641;0,0697129
1322,9283;0,069292
1323,8926;0,0689194
1324,8568;0,0686044
1325,8210;0,0683566
1326,7853;0,0681839
1327,7495;0,0680875
1328,7137;0,0680575
1329,6780;0,0680725
1330,6422;0,0681022
1331,6064;0,0681126
1332,5707;0,0680713
1333,5349;0,0679514
1334,4991;0,0677304
1335,4634;0,0673876
1336,4276;0,0669056
1337,3918;0,0662819
1338,3561;0,0655483
1339,3203;0,064777
1340,2845;0,0640547
1341,2488;0,0634378
1342,2130;0,0629321
1343,1772;0,0625092
1344,1415;0,0621372
1345,1057;0,0618016
1346,0699;0,0615122
1347,0342;0,0612971
1347,9984;0,0611899
1348,9626;0,0612133
1349,9269;0,0613688
1350,8911;0,0616348
1351,8553;0,0619763
1352,8196;0,062358
1353,7838;0,0627583
1354,7480;0,0631739
1355,7123;0,0636144
1356,6765;0,0640876
1357,6407;0,0645888
1358,6050;0,0650993
1359,5692;0,0655942
1360,5334;0,0660532
1361,4977;0,0664695
1362,4619;0,0668533
1363,4261;0,0672228
1364,3904;0,0675892
1365,3546;0,0679493
1366,3188;0,0682895
1367,2831;0,0685925
1368,2473;0,0688396
1369,2115;0,0690103
1370,1758;0,0690789
1371,1400;0,0690137
1372,1042;0,0687838
1373,0685;0,0683776
1374,0327;0,0678241
1374,9969;0,06719
1375,9612;0,0665362
1376,9254;0,0658728
1377,8896;0,0651586
1378,8539;0,0643438
1379,8181;0,0634187
1380,7823;0,0624317
1381,7466;0,0614611
1382,7108;0,0605603
1383,6750;0,0597223
1384,6393;0,0588933
1385,6035;0,0580249
1386,5677;0,0571349
1387,5320;0,0563216
1388,4962;0,0556956
1389,4604;0,0552941
1390,4247;0,0550716
1391,3889;0,0549497
1392,3531;0,0548615
1393,3174;0,0547711
1394,2816;0,0546771
1395,2458;0,0546053
1396,2101;0,0545921
1397,1743;0,0546659
1398,1385;0,0548372
1399,1028;0,055098
1400,0670;0,0554253
1401,0313;0,055788
1401,9955;0,0561578
1402,9597;0,0565188
1403,9240;0,0568742
1404,8882;0,0572441
1405,8524;0,0576528
1406,8167;0,0581132
1407,7809;0,0586222
1408,7451;0,0591716
1409,7094;0,0597604
1410,6736;0,0603944
1411,6378;0,0610754
1412,6021;0,0617901
1413,5663;0,0625105
1414,5305;0,0632061
1415,4948;0,063852
1416,4590;0,0644323
1417,4232;0,0649399
1418,3875;0,0653786
1419,3517;0,0657565
1420,3159;0,0660696
1421,2802;0,066294
1422,2444;0,0663999
1423,2086;0,0663721
1424,1729;0,0662218
1425,1371;0,0659751
1426,1013;0,065644
1427,0656;0,065205
1428,0298;0,0646126
1428,9940;0,0638524
1429,9583;0,0629879
1430,9225;0,0621385
1431,8867;0,0613905
1432,8510;0,0607286
1433,8152;0,0600464
1434,7794;0,0592202
1435,7437;0,0582217
1436,7079;0,0572017
1437,6721;0,0564024
1438,6364;0,0559462
1439,6006;0,0557772
1440,5648;0,0557753
1441,5291;0,0558528
1442,4933;0,055975
1443,4575;0,05614
1444,4218;0,0563522
1445,3860;0,0566053
1446,3502;0,0568822
1447,3145;0,0571683
1448,2787;0,0574629
1449,2429;0,0577784
1450,2072;0,0581248
1451,1714;0,0584966
1452,1356;0,0588679
1453,0999;0,05919
1454,0641;0,0593804
1455,0283;0,059313
1455,9926;0,0588734
1456,9568;0,0581521
1457,9210;0,0575178
1458,8853;0,0572365
1459,8495;0,0572365
1460,8137;0,0573112
1461,7780;0,0572735
1462,7422;0,0569704
1463,7064;0,0563031
1464,6707;0,0553062
1465,6349;0,0541769
1466,5991;0,0531306
1467,5634;0,0522298
1468,5276;0,0513763
1469,4918;0,0503923
1470,4561;0,0490854
1471,4203;0,047328
1472,3845;0,0452056
1473,3488;0,0430839
1474,3130;0,0413495
1475,2772;0,0400936
1476,2415;0,039172
1477,2057;0,0384196
1478,1699;0,0377395
1479,1342;0,0370914
1480,0984;0,0364666
1481,0626;0,0358756
1482,0269;0,0353437
1482,9911;0,034899
1483,9553;0,034555
1484,9196;0,034298
1485,8838;0,0340916
1486,8480;0,0338959
1487,8123;0,0337022
1488,7765;0,0335636
1489,7407;0,0335677
1490,7050;0,0337511
1491,6692;0,0340718
1492,6334;0,0344652
1493,5977;0,034889
1494,5619;0,0353294
1495,5261;0,0357939
1496,4904;0,0363053
1497,4546;0,0368885
1498,4188;0,0375469
1499,3831;0,0382525
1500,3473;0,0389634
1501,3115;0,0396422
1502,2758;0,0402559
1503,2400;0,0407629
1504,2042;0,0410921
1505,1685;0,0411239
1506,1327;0,0407467
1507,0969;0,0400769
1508,0612;0,0394977
1509,0254;0,0392114
1509,9896;0,0391171
1510,9539;0,0390642
1511,9181;0,0389598
1512,8823;0,0387535
1513,8466;0,0384199
1514,8108;0,0379619
1515,7750;0,0374168
1516,7393;0,0368409
1517,7035;0,0362723
1518,6677;0,0357073
1519,6320;0,0351194
1520,5962;0,0345103
1521,5604;0,0339384
1522,5247;0,0334833
1523,4889;0,0331828
1524,4531;0,0330214
1525,4174;0,0329653
1526,3816;0,0329916
1527,3458;0,0330877
1528,3101;0,0332381
1529,2743;0,0334208
1530,2385;0,0336167
1531,2028;0,0338249
1532,1670;0,0340704
1533,1312;0,0343912
1534,0955;0,0348029
1535,0597;0,0352786
1536,0239;0,03577
1536,9882;0,03623
1537,9524;0,0366071
1538,9166;0,036823
1539,8809;0,0367894
1540,8451;0,0365314
1541,8093;0,0362532
1542,7736;0,0361145
1543,7378;0,0361083
1544,7020;0,0361752
1545,6663;0,0362776
1546,6305;0,0363983
1547,5947;0,0365224
1548,5590;0,0366309
1549,5232;0,036709
1550,4874;0,0367611
1551,4517;0,0368165
1552,4159;0,0369134
1553,3801;0,0370686
1554,3444;0,0372596
1555,3086;0,037424
1556,2728;0,037464
1557,2371;0,0372775
1558,2013;0,0369015
1559,1655;0,0366384
1560,1298;0,0367298
1561,0940;0,0370955
1562,0582;0,0375745
1563,0225;0,0380796
1563,9867;0,0385753
1564,9509;0,0390423
1565,9152;0,0394672
1566,8794;0,0398544
1567,8436;0,0402426
1568,8079;0,0406969
1569,7721;0,0412576
1570,7363;0,0419005
1571,7006;0,0425624
1572,6648;0,0431927
1573,6290;0,0437761
1574,5933;0,0443284
1575,5575;0,0448828
1576,5217;0,0454646
1577,4860;0,046069
1578,4502;0,0466725
1579,4144;0,0472599
1580,3787;0,0478301
1581,3429;0,0483894
1582,3071;0,048947
1583,2714;0,0495157
1584,2356;0,0501104
1585,1998;0,0507419
1586,1641;0,0514085
1587,1283;0,0520919
1588,0925;0,0527607
1589,0568;0,0533792
1590,0210;0,0539157
1590,9852;0,0543442
1591,9495;0,0546427
1592,9137;0,0547931
1593,8779;0,0547906
1594,8422;0,0546536
1595,8064;0,0544216
1596,7706;0,0541386
1597,7349;0,0538337
1598,6991;0,0535158
1599,6633;0,0531814
1600,6276;0,0528292
1601,5918;0,0524698
1602,5560;0,0521249
1603,5203;0,0518163
1604,4845;0,0515511
1605,4487;0,051315
1606,4130;0,0510809
1607,3772;0,0508307
1608,3414;0,0505783
1609,3057;0,0503726
1610,2699;0,050266
1611,2341;0,0502723
1612,1984;0,0503535
1613,1626;0,0504376
1614,1268;0,0504489
1615,0911;0,0503506
1616,0553;0,0501959
1617,0195;0,0501172
1617,9838;0,0502065
1618,9480;0,0504359
1619,9122;0,0507129
1620,8765;0,0509562
1621,8407;0,0511265
1622,8049;0,0512325
1623,7692;0,0513182
1624,7334;0,0514277
1625,6976;0,0515752
1626,6619;0,0517538
1627,6261;0,0519621
1628,5903;0,052212
1629,5546;0,0525114
1630,5188;0,0528444
1631,4830;0,0531675
1632,4473;0,0534141
1633,4115;0,0535041
1634,3757;0,053377
1635,3400;0,0530814
1636,3042;0,0528178
1637,2684;0,0527661
1638,2327;0,0529245
1639,1969;0,053193
1640,1611;0,0534895
1641,1254;0,0537701
1642,0896;0,0540056
1643,0538;0,0541566
1644,0181;0,0541668
1644,9823;0,053995
1645,9465;0,0536977
1646,9108;0,0534597
1647,8750;0,0534384
1648,8392;0,0536102
1649,8035;0,053814
1650,7677;0,0538306
1651,7319;0,053413
1652,6962;0,052459
1653,6604;0,0513532
1654,6246;0,0506729
1655,5889;0,0504786
1656,5531;0,0504955
1657,5173;0,0505023
1658,4816;0,0503817
1659,4458;0,0500667
1660,4100;0,0495233
1661,3743;0,0487869
1662,3385;0,0479931
1663,3027;0,0473105
1664,2670;0,0468143
1665,2312;0,0464488
1666,1954;0,0460804
1667,1597;0,0455601
1668,1239;0,0447902
1669,0881;0,043813
1670,0524;0,0428279
1671,0166;0,04203
1671,9808;0,0414356
1672,9451;0,040911
1673,9093;0,0403132
1674,8735;0,039598
1675,8378;0,0388509
1676,8020;0,0382139
1677,7662;0,0377635
1678,7305;0,0374676
1679,6947;0,0372254
1680,6589;0,0369043
1681,6232;0,036353
1682,5874;0,0354551
1683,5516;0,0342909
1684,5159;0,0332015
1685,4801;0,0324665
1686,4443;0,0320548
1687,4086;0,0317921
1688,3728;0,0315539
1689,3370;0,0313026
1690,3013;0,0310541
1691,2655;0,0308343
1692,2297;0,0306479
1693,1940;0,0304717
1694,1582;0,030267
1695,1224;0,030002
1696,0867;0,0296715
1697,0509;0,0293012
1698,0151;0,0289364
1698,9794;0,0286299
1699,9436;0,0284321
1700,9078;0,0283722
1701,8721;0,0284407
1702,8363;0,0285984
1703,8005;0,0288024
1704,7648;0,0290277
1705,7290;0,0292742
1706,6932;0,0295596
1707,6575;0,0299024
1708,6217;0,0303063
1709,5859;0,0307598
1710,5502;0,0312436
1711,5144;0,0317342
1712,4786;0,032203
1713,4429;0,0326158
1714,4071;0,0329397
1715,3713;0,0331647
1716,3356;0,0333384
1717,2998;0,0335631
1718,2640;0,0339151
1719,2283;0,0343848
1720,1925;0,0349181
1721,1567;0,035471
1722,1210;0,0360192
1723,0852;0,0365486
1724,0494;0,0370489
1725,0137;0,0375151
1725,9779;0,0379505
1726,9421;0,0383639
1727,9064;0,0387594
1728,8706;0,0391255
1729,8348;0,0394285
1730,7991;0,0396128
1731,7633;0,0396201
1732,7275;0,0394418
1733,6918;0,0391752
1734,6560;0,0389705
1735,6202;0,0388876
1736,5845;0,0388601
1737,5487;0,038774
1738,5129;0,0385377
1739,4772;0,0381151
1740,4414;0,0375399
1741,4056;0,0368944
1742,3699;0,0362518
1743,3341;0,03563
1744,2983;0,0350006
1745,2626;0,0343211
1746,2268;0,0335486
1747,1910;0,0326344
1748,1553;0,0315353
1749,1195;0,0302661
1750,0837;0,0289497
1751,0480;0,0277613
1752,0122;0,0267988
1752,9764;0,0260307
1753,9407;0,0253533
1754,9049;0,0246689
1755,8691;0,0239351
1756,8334;0,0231715
1757,7976;0,022426
1758,7618;0,0217252
1759,7261;0,021055
1760,6903;0,0203899
1761,6545;0,0197375
1762,6188;0,0191464
1763,5830;0,0186639
1764,5472;0,0182955
1765,5115;0,0180034
1766,4757;0,0177367
1767,4399;0,0174564
1768,4042;0,0171435
1769,3684;0,0167906
1770,3326;0,0163956
1771,2969;0,0159727
1772,2611;0,0155717
1773,2253;0,0152631
1774,1896;0,0150859
1775,1538;0,0150202
1776,1180;0,0150096
1777,0823;0,0149973
1778,0465;0,0149491
1779,0107;0,0148608
1779,9750;0,014753
1780,9392;0,0146513
1781,9034;0,014568
1782,8677;0,0144994
1783,8319;0,0144418
1784,7961;0,0144023
1785,7604;0,0143942
1786,7246;0,0144208
1787,6888;0,0144653
1788,6531;0,0144935
1789,6173;0,014466
1790,5815;0,0143588
1791,5458;0,014188
1792,5100;0,0140159
1793,4742;0,0139092
1794,4385;0,0138856
1795,4027;0,0139143
1796,3669;0,0139495
1797,3312;0,0139557
1798,2954;0,0139161
1799,2596;0,0138346
1800,2239;0,0137328
1801,1881;0,0136394
1802,1523;0,0135759
1803,1166;0,0135488
1804,0808;0,0135526
1805,0450;0,0135762
1806,0093;0,013606
1806,9735;0,0136278
1807,9377;0,0136282
1808,9020;0,0135991
1809,8662;0,0135437
1810,8304;0,0134762
1811,7947;0,0134145
1812,7589;0,0133688
1813,7231;0,0133375
1814,6874;0,0133119
1815,6516;0,0132851
1816,6158;0,0132587
1817,5801;0,0132421
1818,5443;0,0132451
1819,5085;0,0132678
1820,4728;0,0132989
1821,4370;0,013322
1822,4012;0,0133262
1823,3655;0,013312
1824,3297;0,0132892
1825,2939;0,0132651
1826,2582;0,0132339
1827,2224;0,0131783
1828,1866;0,0130855
1829,1509;0,0129668
1830,1151;0,0128614
1831,0793;0,0128124
1832,0436;0,0128334
1833,0078;0,0129022
1833,9720;0,0129805
1834,9363;0,0130379
1835,9005;0,0130653
1836,8647;0,0130768
1837,8290;0,0130968
1838,7932;0,0131398
1839,7574;0,0131989
1840,7217;0,0132488
1841,6859;0,0132578
1842,6501;0,0132025
1843,6144;0,0130857
1844,5786;0,0129445
1845,5428;0,0128296
1846,5071;0,0127696
1847,4713;0,0127613
1848,4355;0,0127843
1849,3998;0,0128177
1850,3640;0,0128472
1851,3282;0,0128653
1852,2925;0,0128706
1853,2567;0,0128655
1854,2209;0,0128548
1855,1852;0,0128434
1856,1494;0,012834
1857,1136;0,0128254
1858,0779;0,0128136
1859,0421;0,0127957
1860,0063;0,0127744
1860,9706;0,0127587
1861,9348;0,012759
1862,8990;0,01278
1863,8633;0,0128159
1864,8275;0,0128524
1865,7917;0,012872
1866,7560;0,0128624
1867,7202;0,0128248
1868,6844;0,0127765
1869,6487;0,0127397
1870,6129;0,0127244
1871,5771;0,0127243
1872,5414;0,0127257
1873,5056;0,0127182
1874,4698;0,0126993
1875,4341;0,0126751
1876,3983;0,0126556
1877,3625;0,0126493
1878,3268;0,0126578
1879,2910;0,0126757
1880,2552;0,0126944
1881,2195;0,0127078
1882,1837;0,0127152
1883,1479;0,0127201
1884,1122;0,0127253
1885,0764;0,0127288
1886,0406;0,012723
1887,0049;0,0126994
1887,9691;0,0126561
1888,9333;0,0126033
1889,8976;0,0125607
1890,8618;0,0125465
1891,8260;0,0125673
1892,7903;0,0126155
1893,7545;0,0126764
1894,7188;0,0127354
1895,6830;0,0127837
1896,6472;0,012819
1897,6115;0,0128427
1898,5757;0,0128567
1899,5399;0,0128604
1900,5042;0,012853
1901,4684;0,0128345
1902,4326;0,0128073
1903,3969;0,0127748
1904,3611;0,0127392
1905,3253;0,0127008
1906,2896;0,0126603
1907,2538;0,0126208
1908,2180;0,0125891
1909,1823;0,0125723
1910,1465;0,0125729
1911,1107;0,0125853
1912,0750;0,0125989
1913,0392;0,0126052
1914,0034;0,0126039
1914,9677;0,0126042
1915,9319;0,0126199
1916,8961;0,0126595
1917,8604;0,0127165
1918,8246;0,0127707
1919,7888;0,0127996
1920,7531;0,0127928
1921,7173;0,0127563
1922,6815;0,0127074
1923,6458;0,0126637
1924,6100;0,0126327
1925,5742;0,0126099
1926,5385;0,0125864
1927,5027;0,0125581
1928,4669;0,0125301
1929,4312;0,0125124
1930,3954;0,0125113
1931,3596;0,0125223
1932,3239;0,012531
1933,2881;0,0125216
1934,2523;0,0124857
1935,2166;0,0124282
1936,1808;0,012364
1937,1450;0,0123113
1938,1093;0,0122859
1939,0735;0,0122991
1940,0377;0,0123578
1941,0020;0,0124611
1941,9662;0,0125949
1942,9304;0,0127286
1943,8947;0,0128243
1944,8589;0,0128551
1945,8231;0,012818
1946,7874;0,0127348
1947,7516;0,0126405
1948,7158;0,0125662
1949,6801;0,0125249
1950,6443;0,0125067
1951,6085;0,0124884
1952,5728;0,01245
1953,5370;0,0123886
1954,5012;0,0123176
1955,4655;0,0122563
1956,4297;0,0122167
1957,3939;0,0121966
1958,3582;0,0121821
1959,3224;0,0121541
1960,2866;0,0120962
1961,2509;0,012003
1962,2151;0,0118886
1963,1793;0,0117916
1964,1436;0,0117698
1965,1078;0,0118763
1966,0720;0,0121225
1967,0363;0,0124493
1968,0005;0,0127386
1968,9647;0,012872
1969,9290;0,0128002
1970,8932;0,0125709
1971,8574;0,0123026
1972,8217;0,0121242
1973,7859;0,0121148
1974,7501;0,0122731
1975,7144;0,0125316
1976,6786;0,0128043
1977,6428;0,0130337
1978,6071;0,0132044
1979,5713;0,0133221
1980,5355;0,0133879
1981,4998;0,0133914
1982,4640;0,013324
1983,4282;0,0131966
1984,3925;0,0130445
1985,3567;0,0129177
1986,3209;0,0128594
1987,2852;0,0128896
1988,2494;0,0130014
1989,2136;0,0131714
1990,1779;0,0133716
1991,1421;0,013577
1992,1063;0,0137654
1993,0706;0,0139156
1994,0348;0,014008
1994,9990;0,0140295
1995,9633;0,0139771
1996,9275;0,0138589
1997,8917;0,0136921
1998,8560;0,0134987
1999,8202;0,0133046
2000,7844;0,0131401
2001,7487;0,0130406
2002,7129;0,013039
2003,6771;0,0131494
2004,6414;0,0133468
2005,6056;0,0135604
2006,5698;0,0136967
2007,5341;0,0136884
2008,4983;0,0135367
2009,4625;0,0133141
2010,4268;0,0131211
2011,3910;0,0130292
2012,3552;0,0130491
2013,3195;0,0131389
2014,2837;0,013243
2015,2479;0,0133337
2016,2122;0,0134301
2017,1764;0,0135798
2018,1406;0,0138135
2019,1049;0,0141075
2020,0691;0,0143811
2021,0333;0,0145361
2021,9976;0,0145118
2022,9618;0,0143274
2023,9260;0,014082
2024,8903;0,0139068
2025,8545;0,0138905
2026,8187;0,0140247
2027,7830;0,0142084
2028,7472;0,0143141
2029,7114;0,0142715
2030,6757;0,0141143
2031,6399;0,0139586
2032,6041;0,0139272
2033,5684;0,0140718
2034,5326;0,0143466
2035,4968;0,014646
2036,4611;0,0148719
2037,4253;0,0149772
2038,3895;0,0149655
2039,3538;0,0148634
2040,3180;0,0146971
2041,2822;0,0144883
2042,2465;0,0142667
2043,2107;0,0140787
2044,1749;0,0139804
2045,1392;0,0140138
2046,1034;0,0141798
2047,0676;0,0144248
2048,0320;0,0146562
2048,9961;0,0147834
2049,9604;0,0147601
2050,9246;0,0146007
2051,8889;0,014367
2052,8530;0,0141399
2053,8174;0,0139903
2054,7815;0,0139565
2055,7458;0,0140354
2056,7100;0,0141886
2057,6743;0,0143629
2058,6384;0,0145124
2059,6028;0,0146126
2060,5669;0,0146625
2061,5313;0,0146785
2062,4954;0,0146836
2063,4597;0,0146973
2064,4238;0,0147267
2065,3882;0,0147635
2066,3523;0,0147875
2067,3167;0,0147782
2068,2808;0,0147278
2069,2451;0,0146492
2070,2092;0,0145735
2071,1736;0,0145365
2072,1377;0,0145597
2073,1021;0,0146378
2074,0662;0,0147397
2075,0305;0,0148231
2075,9946;0,014856
2076,9590;0,0148303
2077,9231;0,014763
2078,8875;0,014684
2079,8516;0,0146196
2080,8159;0,0145816
2081,7800;0,0145656
2082,7444;0,0145581
2083,7085;0,0145459
2084,6729;0,0145226
2085,6370;0,0144897
2086,6013;0,0144545
2087,5654;0,0144254
2088,5298;0,0144089
2089,4939;0,0144064
2090,4583;0,0144138
2091,4224;0,0144229
2092,3867;0,0144257
2093,3508;0,0144199
2094,3152;0,0144139
2095,2793;0,0144261
2096,2437;0,0144774
2097,2078;0,0145772
2098,1721;0,0147129
2099,1362;0,014849
2100,1006;0,0149401
2101,0647;0,0149511
2102,0291;0,0148759
2102,9932;0,0147437
2103,9575;0,0146065
2104,9216;0,014516
2105,8860;0,0145
2106,8501;0,0145536
2107,8145;0,0146478
2108,7786;0,0147492
2109,7429;0,0148362
2110,7070;0,0149019
2111,6714;0,014946
2112,6355;0,0149643
2113,5999;0,0149488
2114,5640;0,0148966
2115,5283;0,0148214
2116,4924;0,014754
2117,4568;0,0147293
2118,4209;0,0147664
2119,3853;0,0148553
2120,3494;0,0149613
2121,3137;0,0150428
2122,2778;0,0150736
2123,2422;0,0150532
2124,2063;0,0150006
2125,1707;0,0149389
2126,1348;0,0148821
2127,0991;0,0148328
2128,0632;0,0147899
2129,0276;0,0147579
2129,9917;0,0147495
2130,9561;0,0147801
2131,9202;0,0148569
2132,8845;0,0149716
2133,8486;0,0151006
2134,8130;0,0152136
2135,7771;0,0152881
2136,7415;0,01532
2137,7056;0,0153259
2138,6699;0,0153345
2139,6340;0,015372
2140,5984;0,015449
2141,5625;0,0155533
2142,5269;0,0156542
2143,4910;0,0157159
2144,4553;0,0157161
2145,4194;0,0156605
2146,3838;0,0155859
2147,3479;0,0155482
2148,3123;0,0155973
2149,2764;0,0157484
2150,2407;0,0159662
2151,2048;0,0161723
2152,1692;0,0162812
2153,1333;0,0162499
2154,0977;0,0161155
2155,0618;0,0159946
2156,0261;0,0160331
2156,9902;0,0163156
2157,9546;0,0167838
2158,9187;0,0172449
2159,8831;0,0174981
2160,8472;0,0174748
2161,8115;0,0172607
2162,7756;0,0170034
2163,7400;0,0168057
2164,7041;0,0166824
2165,6685;0,0165871
2166,6326;0,0164748
2167,5969;0,0163491
2168,5610;0,0162623
2169,5254;0,016272
2170,4895;0,0163925
2171,4539;0,0165729
2172,4180;0,0167162
2173,3823;0,0167252
2174,3464;0,0165515
2175,3108;0,0162213
2176,2749;0,0158266
2177,2393;0,0154893
2178,2034;0,0153149
2179,1677;0,0153551
2180,1318;0,0155874
2181,0962;0,0159203
2182,0603;0,0162264
2183,0247;0,0163952
2183,9888;0,01638
2184,9531;0,016212
2185,9172;0,0159749
2186,8816;0,0157596
2187,8457;0,0156272
2188,8101;0,0155948
2189,7742;0,0156441
2190,7385;0,0157391
2191,7026;0,015839
2192,6670;0,0159063
2193,6311;0,0159117
2194,5955;0,0158429
2195,5596;0,0157125
2196,5239;0,0155561
2197,4880;0,0154178
2198,4524;0,0153282
2199,4165;0,0152903
2200,3809;0,0152836
2201,3450;0,0152828
2202,3093;0,0152793
2203,2734;0,0152867
2204,2378;0,0153288
2205,2019;0,0154167
2206,1663;0,0155347
2207,1304;0,0156437
2208,0947;0,0157018
2209,0588;0,015687
2210,0232;0,0156083
2210,9873;0,015498
2211,9517;0,0153923
2212,9158;0,0153116
2213,8801;0,0152545
2214,8442;0,0152061
2215,8086;0,0151558
2216,7727;0,0151103
2217,7371;0,0150936
2218,7012;0,0151331
2219,6655;0,0152406
2220,6296;0,0154001
2221,5940;0,0155705
2222,5581;0,0157015
2223,5225;0,0157544
2224,4866;0,0157183
2225,4509;0,0156115
2226,4150;0,0154722
2227,3794;0,0153421
2228,3435;0,0152512
2229,3079;0,0152102
2230,2720;0,0152112
2231,2363;0,0152345
2232,2004;0,0152586
2233,1648;0,0152671
2234,1289;0,0152521
2235,0933;0,0152129
2236,0574;0,015154
2237,0217;0,0150828
2237,9858;0,015009
2238,9502;0,0149446
2239,9143;0,0149016
2240,8787;0,0148879
2241,8428;0,0149027
2242,8071;0,014935
2243,7712;0,0149657
2244,7356;0,0149755
2245,6997;0,0149516
2246,6641;0,0148942
2247,6282;0,0148166
2248,5925;0,0147413
2249,5566;0,0146916
2250,5210;0,0146826
2251,4851;0,0147138
2252,4495;0,0147686
2253,4136;0,0148214
2254,3779;0,0148504
2255,3420;0,0148484
2256,3064;0,0148254
2257,2705;0,0148001
2258,2349;0,0147859
2259,1990;0,0147831
2260,1633;0,0147802
2261,1274;0,0147658
2262,0918;0,0147394
2263,0559;0,0147143
2264,0203;0,0147093
2264,9844;0,0147352
2265,9487;0,0147868
2266,9128;0,0148449
2267,8772;0,0148869
2268,8413;0,0148974
2269,8057;0,0148736
2270,7698;0,0148226
2271,7341;0,0147554
2272,6982;0,014683
2273,6626;0,0146146
2274,6267;0,0145592
2275,5911;0,0145259
2276,5552;0,0145226
2277,5195;0,0145534
2278,4836;0,014616
2279,4480;0,0147002
2280,4121;0,0147899
2281,3765;0,0148673
2282,3406;0,0149186
2283,3049;0,0149391
2284,2690;0,0149332
2285,2334;0,0149122
2286,1975;0,014888
2287,1619;0,014868
2288,1260;0,0148535
2289,0903;0,0148415
2290,0544;0,0148292
2291,0188;0,0148163
2291,9829;0,0148051
2292,9473;0,0147985
2293,9114;0,0147977
2294,8757;0,0148022
2295,8398;0,0148111
2296,8042;0,0148246
2297,7683;0,0148434
2298,7327;0,0148672
2299,6968;0,0148929
2300,6611;0,014915
2301,6252;0,0149279
2302,5896;0,0149294
2303,5537;0,0149234
2304,5181;0,0149188
2305,4822;0,0149261
2306,4465;0,014952
2307,4106;0,0149947
2308,3750;0,0150429
2309,3391;0,0150792
2310,3035;0,0150883
2311,2676;0,0150656
2312,2319;0,0150213
2313,1960;0,0149765
2314,1604;0,0149535
2315,1245;0,0149665
2316,0889;0,0150165
2317,0530;0,0150935
2318,0173;0,0151817
2318,9814;0,0152654
2319,9458;0,0153326
2320,9099;0,0153764
2321,8743;0,0153935
2322,8384;0,015383
2323,8027;0,0153447
2324,7668;0,0152805
2325,7312;0,0151963
2326,6953;0,0151038
2327,6597;0,0150195
2328,6238;0,0149594
2329,5881;0,0149328
2330,5522;0,0149372
2331,5166;0,014962
2332,4807;0,0149942
2333,4451;0,0150233
2334,4092;0,0150419
2335,3735;0,015044
2336,3376;0,0150251
2337,3020;0,0149847
2338,2661;0,0149282
2339,2305;0,0148638
2340,1946;0,0147959
2341,1589;0,01472
2342,1230;0,0146297
2343,0874;0,0145347
2344,0515;0,014475
2345,0159;0,0145
2345,9800;0,0146241
2346,9443;0,0148127
2347,9084;0,0150095
2348,8728;0,0151698
2349,8369;0,0152761
2350,8013;0,0153383
2351,7654;0,0153839
2352,7297;0,015439
2353,6938;0,0155098
2354,6582;0,0155796
2355,6223;0,0156256
2356,5867;0,0156329
2357,5508;0,015594
2358,5151;0,0155016
2359,4792;0,0153492
2360,4436;0,0151381
2361,4077;0,0148834
2362,3721;0,014613
2363,3362;0,0143609
2364,3005;0,0141567
2365,2646;0,0140149
2366,2290;0,0139328
2367,1931;0,0138991
2368,1575;0,013904
2369,1216;0,0139426
2370,0859;0,0140088
2371,0500;0,0140888
2372,0144;0,0141617
2372,9785;0,0142085
2373,9429;0,014222
2374,9070;0,0142111
2375,8713;0,0141953
2376,8354;0,0141953
2377,7998;0,0142237
2378,7639;0,0142822
2379,7283;0,0143632
2380,6924;0,0144556
2381,6567;0,0145493
2382,6208;0,0146377
2383,5852;0,0147176
2384,5493;0,0147886
2385,5137;0,014851
2386,4778;0,0149042
2387,4421;0,014947
2388,4063;0,0149774
2389,3706;0,0149947
2390,3347;0,0150007
2391,2991;0,0150002
2392,2632;0,0150002
2393,2275;0,015007
2394,1917;0,0150239
2395,1560;0,0150498
2396,1201;0,0150804
2397,0845;0,0151104
2398,0486;0,0151361
2399,0129;0,015156
2399,9771;0,0151715
2400,9414;0,0151856
2401,9055;0,0152018
2402,8699;0,0152228
2403,8340;0,0152496
2404,7983;0,0152809
2405,7625;0,0153136
2406,7268;0,0153442
2407,6909;0,0153694
2408,6553;0,0153873
2409,6194;0,015397
2410,5837;0,0153986
2411,5479;0,0153942
2412,5122;0,0153883
2413,4763;0,015387
2414,4407;0,0153963
2415,4048;0,0154186
2416,3691;0,0154512
2417,3333;0,0154872
2418,2976;0,0155192
2419,2617;0,0155432
2420,2261;0,0155605
2421,1902;0,0155762
2422,1545;0,0155955
2423,1187;0,0156211
2424,0830;0,0156521
2425,0471;0,0156849
2426,0115;0,0157155
2426,9756;0,0157412
2427,9399;0,0157618
2428,9041;0,0157798
2429,8684;0,0157994
2430,8325;0,0158246
2431,7969;0,0158569
2432,7610;0,0158935
2433,7253;0,0159288
2434,6895;0,0159564
2435,6538;0,0159736
2436,6179;0,015982
2437,5823;0,0159868
2438,5464;0,0159934
2439,5107;0,0160044
2440,4749;0,0160194
2441,4392;0,0160358
2442,4033;0,0160521
2443,3677;0,0160683
2444,3318;0,016086
2445,2961;0,0161064
2446,2603;0,0161295
2447,2246;0,0161534
2448,1887;0,0161754
2449,1531;0,0161928
2450,1172;0,0162051
2451,0815;0,0162136
2452,0457;0,0162221
2453,0100;0,0162349
2453,9741;0,0162555
2454,9385;0,0162849
2455,9026;0,016321
2456,8669;0,0163591
2457,8311;0,0163932
2458,7954;0,0164181
2459,7595;0,0164312
2460,7239;0,016434
2461,6880;0,0164321
2462,6523;0,0164332
2463,6165;0,0164436
2464,5808;0,0164655
2465,5449;0,016495
2466,5093;0,0165233
2467,4734;0,0165413
2468,4377;0,0165443
2469,4019;0,016535
2470,3662;0,0165225
2471,3303;0,0165185
2472,2947;0,0165311
2473,2588;0,0165616
2474,2231;0,0166036
2475,1873;0,0166472
2476,1516;0,0166833
2477,1157;0,0167075
2478,0801;0,0167209
2479,0442;0,0167283
2480,0085;0,0167353
2480,9727;0,0167459
2481,9370;0,016762
2482,9011;0,0167835
2483,8655;0,0168085
2484,8296;0,0168344
2485,7939;0,0168577
2486,7581;0,0168764
2487,7224;0,0168906
2488,6865;0,0169036
2489,6509;0,0169197
2490,6150;0,0169415
2491,5793;0,0169676
2492,5435;0,0169934
2493,5078;0,0170143
2494,4719;0,0170295
2495,4363;0,0170428
2496,4004;0,0170603
2497,3647;0,0170856
2498,3289;0,0171178
2499,2932;0,0171518
2500,2573;0,017182
2501,2217;0,0172059
2502,1858;0,0172252
2503,1501;0,0172435
2504,1143;0,0172642
2505,0786;0,0172885
2506,0427;0,0173158
2507,0071;0,0173449
2507,9712;0,0173741
2508,9355;0,0174006
2509,8997;0,0174201
2510,8640;0,0174282
2511,8281;0,0174225
2512,7925;0,017406
2513,7566;0,0173866
2514,7209;0,0173745
2515,6851;0,0173768
2516,6494;0,0173939
2517,6135;0,0174185
2518,5779;0,0174397
2519,5420;0,0174482
2520,5063;0,0174415
2521,4705;0,0174247
2522,4348;0,017408
2523,3989;0,0174016
2524,3633;0,0174116
2525,3274;0,0174365
2526,2917;0,0174689
2527,2559;0,0174978
2528,2202;0,0175132
2529,1843;0,0175107
2530,1487;0,0174932
2531,1128;0,0174703
2532,0771;0,0174543
2533,0413;0,0174551
2534,0056;0,0174755
2534,9697;0,0175111
2535,9341;0,0175528
2536,8982;0,0175914
2537,8625;0,0176212
2538,8267;0,017641
2539,7910;0,0176526
2540,7551;0,017659
2541,7195;0,0176637
2542,6836;0,0176705
2543,6479;0,0176837
2544,6121;0,0177057
2545,5764;0,0177353
2546,5405;0,0177668
2547,5049;0,017791
2548,4690;0,0178003
2549,4333;0,0177924
2550,3975;0,0177726
2551,3618;0,0177519
2552,3259;0,0177433
2553,2903;0,0177557
2554,2544;0,0177903
2555,2188;0,0178399
2556,1829;0,017891
2557,1472;0,0179294
2558,1113;0,0179453
2559,0757;0,0179375
2560,0398;0,0179138
2561,0042;0,0178871
2561,9683;0,0178696
2562,9326;0,0178677
2563,8967;0,0178801
2564,8611;0,0178998
2565,8252;0,0179183
2566,7896;0,0179292
2567,7537;0,0179307
2568,7180;0,0179254
2569,6821;0,0179184
2570,6465;0,0179154
2571,6106;0,0179211
2572,5750;0,0179379
2573,5391;0,0179652
2574,5034;0,0179994
2575,4675;0,0180355
2576,4319;0,0180687
2577,3960;0,0180959
2578,3604;0,018116
2579,3245;0,0181299
2580,2888;0,0181388
2581,2529;0,0181449
2582,2173;0,0181506
2583,1814;0,0181593
2584,1458;0,0181741
2585,1099;0,0181966
2586,0742;0,0182256
2587,0383;0,0182568
2588,0027;0,0182851
2588,9668;0,0183064
2589,9312;0,0183191
2590,8953;0,0183249
2591,8596;0,0183267
2592,8237;0,0183279
2593,7881;0,018331
2594,7522;0,0183377
2595,7166;0,0183494
2596,6807;0,0183658
2597,6450;0,0183857
2598,6091;0,0184065
2599,5735;0,0184264
2600,5376;0,0184457
2601,5020;0,0184679
2602,4661;0,0184973
2603,4304;0,018536
2604,3945;0,0185819
2605,3589;0,0186283
2606,3230;0,0186679
2607,2874;0,0186965
2608,2515;0,0187161
2609,2158;0,0187334
2610,1799;0,0187563
2611,1443;0,0187896
2612,1084;0,0188317
2613,0728;0,0188761
2614,0369;0,018914
2615,0012;0,0189393
2615,9653;0,0189512
2616,9297;0,0189547
2617,8938;0,0189584
2618,8582;0,0189711
2619,8223;0,0189978
2620,7866;0,019038
2621,7507;0,0190862
2622,7151;0,0191336
2623,6792;0,0191715
2624,6436;0,0191947
2625,6077;0,0192034
2626,5720;0,0192039
2627,5361;0,0192061
2628,5005;0,0192202
2629,4646;0,0192524
2630,4290;0,0193029
2631,3931;0,0193651
2632,3574;0,0194291
2633,3215;0,0194857
2634,2859;0,0195291
2635,2500;0,0195587
2636,2144;0,0195779
2637,1785;0,0195921
2638,1428;0,0196064
2639,1069;0,0196246
2640,0713;0,0196481
2641,0354;0,0196764
2641,9998;0,0197081
2642,9639;0,0197415
2643,9282;0,0197761
2644,8923;0,0198118
2645,8567;0,0198487
2646,8208;0,0198861
2647,7852;0,0199224
2648,7493;0,0199555
2649,7136;0,0199844
2650,6777;0,0200099
2651,6421;0,0200338
2652,6062;0,0200588
2653,5706;0,0200861
2654,5347;0,0201159
2655,4990;0,0201472
2656,4631;0,0201785
2657,4275;0,0202081
2658,3916;0,0202347
2659,3560;0,0202571
2660,3201;0,0202754
2661,2844;0,0202909
2662,2485;0,0203061
2663,2129;0,0203235
2664,1770;0,0203446
2665,1414;0,0203692
2666,1055;0,0203954
2667,0698;0,0204206
2668,0339;0,0204434
2668,9983;0,0204637
2669,9624;0,0204828
2670,9268;0,0205027
2671,8909;0,0205247
2672,8552;0,0205491
2673,8193;0,0205752
2674,7837;0,020602
2675,7478;0,0206294
2676,7122;0,0206582
2677,6763;0,0206901
2678,6406;0,0207261
2679,6047;0,020766
2680,5691;0,0208079
2681,5332;0,0208494
2682,4976;0,0208881
2683,4617;0,0209238
2684,4260;0,0209573
2685,3901;0,0209905
2686,3545;0,0210249
2687,3186;0,0210611
2688,2830;0,0210989
2689,2471;0,0211383
2690,2114;0,0211794
2691,1755;0,0212225
2692,1399;0,021268
2693,1040;0,0213148
2694,0684;0,0213613
2695,0325;0,0214053
2695,9968;0,0214453
2696,9609;0,0214811
2697,9253;0,0215142
2698,8894;0,0215469
2699,8538;0,0215816
2700,8179;0,02162
2701,7822;0,021663
2702,7463;0,0217104
2703,7107;0,0217615
2704,6748;0,0218141
2705,6392;0,0218653
2706,6033;0,0219121
2707,5676;0,0219524
2708,5317;0,021987
2709,4961;0,0220191
2710,4602;0,022053
2711,4246;0,0220924
2712,3887;0,022138
2713,3530;0,0221878
2714,3171;0,0222381
2715,2815;0,0222855
2716,2456;0,0223285
2717,2100;0,0223676
2718,1741;0,022405
2719,1384;0,0224423
2720,1025;0,0224801
2721,0669;0,0225166
2722,0310;0,0225483
2722,9954;0,0225721
2723,9595;0,022587
2724,9238;0,0225962
2725,8879;0,0226062
2726,8523;0,0226249
2727,8164;0,0226583
2728,7808;0,0227074
2729,7449;0,0227681
2730,7092;0,0228324
2731,6733;0,0228918
2732,6377;0,0229399
2733,6018;0,022974
2734,5662;0,0229953
2735,5303;0,0230081
2736,4946;0,023018
2737,4587;0,0230299
2738,4231;0,0230469
2739,3872;0,0230697
2740,3516;0,0230979
2741,3157;0,02313
2742,2800;0,0231646
2743,2441;0,0231991
2744,2085;0,0232297
2745,1726;0,0232522
2746,1370;0,0232644
2747,1011;0,0232684
2748,0654;0,0232712
2749,0295;0,0232822
2749,9939;0,0233084
2750,9580;0,023351
2751,9224;0,023405
2752,8865;0,0234623
2753,8508;0,0235163
2754,8149;0,0235641
2755,7793;0,0236066
2756,7434;0,023646
2757,7078;0,0236838
2758,6719;0,0237207
2759,6362;0,0237572
2760,6003;0,0237947
2761,5647;0,0238349
2762,5288;0,0238784
2763,4932;0,0239238
2764,4573;0,0239685
2765,4216;0,0240104
2766,3857;0,0240505
2767,3501;0,0240922
2768,3142;0,0241397
2769,2786;0,0241947
2770,2427;0,0242554
2771,2070;0,0243165
2772,1711;0,0243729
2773,1355;0,0244222
2774,0996;0,0244669
2775,0640;0,0245124
2776,0281;0,0245645
2776,9924;0,0246257
2777,9565;0,0246941
2778,9209;0,0247652
2779,8850;0,0248345
2780,8494;0,0249011
2781,8135;0,0249668
2782,7778;0,0250349
2783,7419;0,0251072
2784,7063;0,0251818
2785,6704;0,0252547
2786,6348;0,0253217
2787,5989;0,025382
2788,5632;0,0254391
2789,5273;0,0255007
2790,4917;0,0255753
2791,4558;0,0256683
2792,4202;0,0257797
2793,3843;0,0259024
2794,3486;0,0260251
2795,3127;0,0261369
2796,2771;0,0262322
2797,2412;0,0263139
2798,2056;0,0263924
2799,1697;0,0264805
2800,1340;0,0265874
2801,0981;0,0267147
2802,0625;0,0268565
2803,0266;0,0270036
2803,9910;0,0271483
2804,9551;0,027287
2805,9194;0,0274201
2806,8835;0,0275497
2807,8479;0,0276776
2808,8120;0,0278058
2809,7764;0,0279372
2810,7405;0,028076
2811,7048;0,0282267
2812,6689;0,0283922
2813,6333;0,0285717
2814,5974;0,0287614
2815,5618;0,0289567
2816,5259;0,0291543
2817,4902;0,0293538
2818,4543;0,0295567
2819,4187;0,0297645
2820,3828;0,0299771
2821,3472;0,0301928
2822,3113;0,0304102
2823,2756;0,0306304
2824,2397;0,0308582
2825,2041;0,0311006
2826,1682;0,0313636
2827,1326;0,0316494
2828,0967;0,0319557
2829,0610;0,0322779
2830,0251;0,0326134
2830,9895;0,0329644
2831,9536;0,0333373
2832,9180;0,0337395
2833,8821;0,0341748
2834,8464;0,0346417
2835,8105;0,0351366
2836,7749;0,0356585
2837,7390;0,0362141
2838,7034;0,0368187
2839,6675;0,0374928
2840,6318;0,0382573
2841,5959;0,0391284
2842,5603;0,0401138
2843,5244;0,0412095
2844,4888;0,0423952
2845,4529;0,0436303
2846,4172;0,0448527
2847,3813;0,0459852
2848,3457;0,0469493
2849,3098;0,0476837
2850,2742;0,0481585
2851,2383;0,0483801
2852,2026;0,0483836
2853,1667;0,0482191
2854,1311;0,0479366
2855,0952;0,0475771
2856,0596;0,0471714
2857,0237;0,0467436
2857,9880;0,0463166
2858,9521;0,0459141
2859,9165;0,0455598
2860,8806;0,0452731
2861,8450;0,0450657
2862,8091;0,0449395
2863,7734;0,0448884
2864,7375;0,0449018
2865,7019;0,0449671
2866,6660;0,0450713
2867,6304;0,0451996
2868,5945;0,0453354
2869,5588;0,0454607
2870,5229;0,0455607
2871,4873;0,0456274
2872,4514;0,0456633
2873,4158;0,0456793
2874,3799;0,0456907
2875,3442;0,0457108
2876,3083;0,0457477
2877,2727;0,0458042
2878,2368;0,0458798
2879,2012;0,0459743
2880,1653;0,0460887
2881,1296;0,0462253
2882,0938;0,046386
2883,0581;0,0465712
2884,0222;0,0467794
2884,9866;0,0470076
2885,9507;0,0472523
2886,9150;0,0475102
2887,8792;0,0477789
2888,8435;0,0480563
2889,8076;0,0483398
2890,7720;0,0486254
2891,7361;0,0489079
2892,7004;0,0491829
2893,6646;0,0494491
2894,6289;0,0497097
2895,5930;0,0499717
2896,5574;0,0502415
2897,5215;0,0505216
2898,4858;0,0508084
2899,4500;0,051094
2900,4143;0,0513705
2901,3784;0,0516346
2902,3428;0,0518897
2903,3069;0,0521454
2904,2712;0,052415
2905,2354;0,0527121
2906,1997;0,0530493
2907,1638;0,0534375
2908,1282;0,0538861
2909,0923;0,0544034
2910,0566;0,0549949
2911,0208;0,0556596
2911,9851;0,056386
2912,9492;0,057149
2913,9136;0,0579108
2914,8777;0,0586263
2915,8420;0,0592514
2916,8062;0,0597516
2917,7705;0,0601073
2918,7346;0,0603134
2919,6990;0,0603748
2920,6631;0,0603017
2921,6274;0,0601059
2922,5916;0,0598
2923,5559;0,0593976
2924,5200;0,0589127
2925,4844;0,0583588
2926,4485;0,0577474
2927,4128;0,0570882
2928,3770;0,0563901
2929,3413;0,0556631
2930,3054;0,0549181
2931,2698;0,0541653
2932,2339;0,0534124
2933,1982;0,0526639
2934,1624;0,0519227
2935,1267;0,0511924
2936,0908;0,0504788
2937,0552;0,0497885
2938,0193;0,0491264
2938,9836;0,0484932
2939,9478;0,0478854
2940,9121;0,0472978
2941,8762;0,0467269
2942,8406;0,0461739
2943,8047;0,045645
2944,7690;0,0451499
2945,7332;0,0446986
2946,6975;0,0442985
2947,6616;0,0439523
2948,6260;0,0436566
2949,5901;0,0434027
2950,5544;0,0431776
2951,5186;0,0429667
2952,4829;0,0427567
2953,4470;0,0425377
2954,4114;0,0423037
2955,3755;0,0420517
2956,3398;0,0417791
2957,3040;0,0414833
2958,2683;0,0411611
2959,2324;0,0408117
2960,1968;0,0404376
2961,1609;0,0400456
2962,1252;0,0396442
2963,0894;0,0392403
2964,0537;0,038837
2965,0178;0,0384331
2965,9822;0,0380251
2966,9463;0,0376102
2967,9106;0,0371884
2968,8748;0,0367616
2969,8391;0,0363329
2970,8032;0,0359053
2971,7676;0,0354826
2972,7317;0,0350712
2973,6960;0,0346802
2974,6602;0,0343193
2975,6245;0,0339943
2976,5886;0,0337031
2977,5530;0,0334369
2978,5171;0,0331842
2979,4814;0,0329379
2980,4456;0,0326986
2981,4099;0,0324735
2982,3740;0,0322705
2983,3384;0,0320928
2984,3025;0,0319368
2985,2668;0,0317945
2986,2310;0,031658
2987,1953;0,0315233
2988,1594;0,0313909
2989,1238;0,0312649
2990,0879;0,0311511
2991,0522;0,0310553
2992,0164;0,0309818
2992,9807;0,0309327
2993,9448;0,0309059
2994,9092;0,0308965
2995,8733;0,0308979
2996,8376;0,0309056
2997,8018;0,0309174
2998,7661;0,0309336
2999,7302;0,0309538
3000,6946;0,0309761
3001,6587;0,0309979
3002,6230;0,0310177
3003,5872;0,0310375
3004,5515;0,0310614
3005,5156;0,0310923
3006,4800;0,0311286
3007,4441;0,0311637
3008,4084;0,0311891
3009,3726;0,0311992
3010,3369;0,0311952
3011,3010;0,0311848
3012,2654;0,0311788
3013,2295;0,0311858
3014,1938;0,0312099
3015,1580;0,0312504
3016,1223;0,0313047
3017,0864;0,0313702
3018,0508;0,0314445
3019,0149;0,0315244
3019,9792;0,0316053
3020,9434;0,0316823
3021,9077;0,0317526
3022,8718;0,0318182
3023,8362;0,0318852
3024,8003;0,0319614
3025,7646;0,0320515
3026,7288;0,0321538
3027,6931;0,0322607
3028,6572;0,0323622
3029,6216;0,0324504
3030,5857;0,0325242
3031,5500;0,0325896
3032,5142;0,0326581
3033,4785;0,0327413
3034,4426;0,0328464
3035,4070;0,0329724
3036,3711;0,0331111
3037,3354;0,0332508
3038,2996;0,0333807
3039,2639;0,0334959
3040,2280;0,0335985
3041,1924;0,0336961
3042,1565;0,0337981
3043,1208;0,0339111
3044,0850;0,0340368
3045,0493;0,0341714
3046,0134;0,0343082
3046,9778;0,0344419
3047,9419;0,0345713
3048,9063;0,0347008
3049,8704;0,0348374
3050,8347;0,0349864
3051,7988;0,0351472
3052,7632;0,0353123
3053,7273;0,035471
3054,6917;0,0356161
3055,6558;0,0357482
3056,6201;0,0358761
3057,5842;0,0360111
3058,5486;0,03616
3059,5127;0,0363205
3060,4771;0,0364828
3061,4412;0,0366355
3062,4055;0,036772
3063,3696;0,0368936
3064,3340;0,0370086
3065,2981;0,0371272
3066,2625;0,0372566
3067,2266;0,0373989
3068,1909;0,0375508
3069,1550;0,0377073
3070,1194;0,0378636
3071,0835;0,0380171
3072,0479;0,0381667
3073,0120;0,0383122
3073,9763;0,0384538
3074,9404;0,0385919
3075,9048;0,0387278
3076,8689;0,038864
3077,8333;0,0390035
3078,7974;0,0391475
3079,7617;0,0392951
3080,7258;0,0394426
3081,6902;0,0395859
3082,6543;0,0397228
3083,6187;0,0398544
3084,5828;0,0399846
3085,5471;0,0401184
3086,5112;0,0402588
3087,4756;0,0404063
3088,4397;0,0405583
3089,4041;0,0407107
3090,3682;0,0408604
3091,3325;0,0410062
3092,2966;0,0411502
3093,2610;0,0412968
3094,2251;0,0414503
3095,1895;0,0416121
3096,1536;0,0417788
3097,1179;0,0419434
3098,0820;0,0420987
3099,0464;0,0422426
3100,0105;0,0423796
3100,9749;0,04252
3101,9390;0,042674
3102,9033;0,0428457
3103,8674;0,0430305
3104,8318;0,0432176
3105,7959;0,0433953
3106,7603;0,0435573
3107,7244;0,0437052
3108,6887;0,0438476
3109,6528;0,0439956
3110,6172;0,0441577
3111,5813;0,0443364
3112,5457;0,0445283
3113,5098;0,0447255
3114,4741;0,0449192
3115,4382;0,0451027
3116,4026;0,0452742
3117,3667;0,0454365
3118,3311;0,0455953
3119,2952;0,0457564
3120,2595;0,0459228
3121,2236;0,0460947
3122,1880;0,0462708
3123,1521;0,0464508
3124,1165;0,0466364
3125,0806;0,0468301
3126,0449;0,0470319
3127,0090;0,0472367
3127,9734;0,0474355
3128,9375;0,0476195
3129,9019;0,0477858
3130,8660;0,0479407
3131,8303;0,0480974
3132,7944;0,04827
3133,7588;0,0484653
3134,7229;0,0486799
3135,6873;0,0489021
3136,6514;0,0491195
3137,6157;0,0493248
3138,5798;0,049519
3139,5442;0,0497092
3140,5083;0,0499031
3141,4727;0,0501053
3142,4368;0,0503157
3143,4011;0,0505315
3144,3652;0,0507494
3145,3296;0,0509671
3146,2937;0,0511834
3147,2581;0,0513964
3148,2222;0,051604
3149,1865;0,0518044
3150,1506;0,0519979
3151,1150;0,0521879
3152,0791;0,0523805
3153,0435;0,0525822
3154,0076;0,0527971
3154,9719;0,0530244
3155,9360;0,0532583
3156,9004;0,0534903
3157,8645;0,0537128
3158,8289;0,0539227
3159,7930;0,0541233
3160,7573;0,0543228
3161,7214;0,0545302
3162,6858;0,0547508
3163,6499;0,0549834
3164,6143;0,0552217
3165,5784;0,0554575
3166,5427;0,0556851
3167,5068;0,055904
3168,4712;0,0561182
3169,4353;0,0563323
3170,3997;0,0565528
3171,3638;0,0567787
3172,3281;0,0570066
3173,2922;0,0572313
3174,2566;0,0574487
3175,2207;0,0576581
3176,1851;0,0578627
3177,1492;0,058068
3178,1135;0,0582793
3179,0776;0,0584984
3180,0420;0,0587229
3181,0061;0,0589469
3181,9705;0,0591648
3182,9346;0,0593739
3183,8989;0,0595759
3184,8630;0,0597763
3185,8274;0,0599811
3186,7915;0,0601943
3187,7559;0,0604169
3188,7200;0,0606478
3189,6843;0,0608852
3190,6484;0,0611271
3191,6128;0,0613703
3192,5769;0,0616091
3193,5413;0,0618357
3194,5054;0,062043
3195,4697;0,0622286
3196,4338;0,0623976
3197,3982;0,0625617
3198,3623;0,0627347
3199,3267;0,0629267
3200,2908;0,0631403
3201,2551;0,0633704
3202,2192;0,0636077
3203,1836;0,0638427
3204,1477;0,0640683
3205,1121;0,0642813
3206,0762;0,064482
3207,0405;0,0646734
3208,0046;0,0648601
3208,9690;0,0650471
3209,9331;0,0652384
3210,8975;0,0654357
3211,8616;0,0656386
3212,8259;0,065846
3213,7900;0,0660569
3214,7544;0,0662704
3215,7185;0,066485
3216,6829;0,0666977
3217,6470;0,0669043
3218,6113;0,0671017
3219,5754;0,0672898
3220,5398;0,0674721
3221,5039;0,067654
3222,4683;0,06784
3223,4324;0,0680319
3224,3967;0,0682291
3225,3608;0,0684305
3226,3252;0,0686363
3227,2893;0,0688481
3228,2537;0,0690667
3229,2178;0,0692898
3230,1821;0,0695117
3231,1462;0,0697261
3232,1106;0,0699287
3233,0747;0,0701204
3234,0391;0,0703067
3235,0032;0,0704944
3235,9675;0,070689
3236,9316;0,0708922
3237,8960;0,0711026
3238,8601;0,0713178
3239,8245;0,0715351
3240,7886;0,0717529
3241,7529;0,0719697
3242,7170;0,0721846
3243,6814;0,0723977
3244,6455;0,0726117
3245,6099;0,0728316
3246,5740;0,0730633
3247,5383;0,0733102
3248,5024;0,073571
3249,4668;0,0738394
3250,4309;0,0741072
3251,3953;0,0743672
3252,3594;0,0746164
3253,3237;0,0748567
3254,2878;0,0750935
3255,2522;0,0753328
3256,2163;0,0755792
3257,1807;0,0758348
3258,1448;0,0760992
3259,1091;0,0763698
3260,0732;0,0766422
3261,0376;0,0769114
3262,0017;0,0771733
3262,9661;0,0774259
3263,9302;0,0776699
3264,8945;0,0779076
3265,8586;0,0781402
3266,8230;0,0783662
3267,7871;0,0785805
3268,7515;0,078776
3269,7156;0,0789469
3270,6799;0,0790914
3271,6440;0,0792124
3272,6084;0,0793166
3273,5725;0,0794126
3274,5369;0,079508
3275,5010;0,079608
3276,4653;0,0797149
3277,4294;0,0798282
3278,3938;0,0799447
3279,3579;0,0800594
3280,3223;0,0801665
3281,2864;0,0802609
3282,2507;0,0803406
3283,2148;0,0804068
3284,1792;0,0804638
3285,1433;0,0805162
3286,1077;0,0805668
3287,0718;0,0806158
3288,0361;0,0806622
3289,0002;0,0807051
3289,9646;0,0807449
3290,9287;0,0807826
3291,8931;0,0808175
3292,8572;0,0808463
3293,8215;0,0808649
3294,7856;0,0808707
3295,7500;0,0808653
3296,7141;0,0808541
3297,6785;0,0808446
3298,6426;0,0808428
3299,6069;0,080852
3300,5710;0,0808725
3301,5354;0,0809022
3302,4995;0,0809366
3303,4639;0,0809685
3304,4280;0,0809888
3305,3923;0,0809899
3306,3564;0,080969
3307,3208;0,0809318
3308,2849;0,0808907
3309,2493;0,0808594
3310,2134;0,0808475
3311,1777;0,0808569
3312,1418;0,0808839
3313,1062;0,0809231
3314,0703;0,0809712
3315,0347;0,0810285
3315,9988;0,0810976
3316,9631;0,0811812
3317,9272;0,0812814
3318,8916;0,0813987
3319,8557;0,0815314
3320,8201;0,0816753
3321,7842;0,0818236
3322,7485;0,0819684
3323,7126;0,082104
3324,6770;0,0822297
3325,6411;0,0823495
3326,6055;0,0824693
3327,5696;0,0825926
3328,5339;0,0827178
3329,4980;0,0828386
3330,4624;0,0829469
3331,4265;0,0830365
3332,3909;0,083104
3333,3550;0,0831488
3334,3193;0,0831703
3335,2834;0,0831674
3336,2478;0,0831385
3337,2119;0,0830826
3338,1763;0,0829998
3339,1404;0,0828913
3340,1047;0,0827593
3341,0688;0,0826071
3342,0332;0,0824393
3342,9973;0,0822614
3343,9617;0,0820788
3344,9258;0,0818947
3345,8901;0,0817094
3346,8542;0,0815213
3347,8186;0,0813283
3348,7827;0,0811293
3349,7471;0,0809243
3350,7112;0,0807126
3351,6755;0,0804932
3352,6396;0,0802655
3353,6040;0,0800317
3354,5681;0,0797973
3355,5325;0,0795696
3356,4966;0,0793538
3357,4609;0,079151
3358,4250;0,078958
3359,3894;0,0787705
3360,3535;0,0785858
3361,3179;0,0784036
3362,2820;0,0782243
3363,2463;0,0780469
3364,2104;0,0778679
3365,1748;0,0776843
3366,1389;0,0774949
3367,1033;0,0773017
3368,0674;0,0771081
3369,0317;0,0769167
3369,9958;0,0767277
3370,9602;0,0765392
3371,9243;0,0763488
3372,8887;0,0761545
3373,8528;0,0759559
3374,8171;0,0757549
3375,7813;0,0755566
3376,7456;0,0753684
3377,7097;0,0751968
3378,6741;0,0750427
3379,6382;0,0748978
3380,6025;0,0747468
3381,5667;0,0745752
3382,5310;0,0743791
3383,4951;0,0741706
3384,4595;0,0739731
3385,4236;0,0738091
3386,3879;0,0736861
3387,3521;0,0735914
3388,3164;0,0734983
3389,2805;0,0733798
3390,2449;0,0732221
3391,2090;0,0730295
3392,1733;0,0728209
3393,1375;0,0726183
3394,1018;0,0724365
3395,0659;0,0722786
3396,0303;0,0721385
3396,9944;0,0720063
3397,9587;0,071873
3398,9229;0,0717322
3399,8872;0,0715795
3400,8513;0,0714124
3401,8157;0,0712306
3402,7798;0,0710364
3403,7441;0,070835
3404,7083;0,0706333
3405,6726;0,0704366
3406,6367;0,0702468
3407,6011;0,0700606
3408,5652;0,0698706
3409,5295;0,069668
3410,4937;0,0694478
3411,4580;0,0692121
3412,4221;0,0689704
3413,3865;0,0687349
3414,3506;0,0685133
3415,3149;0,0683028
3416,2791;0,0680905
3417,2434;0,0678601
3418,2075;0,0676016
3419,1719;0,0673186
3420,1360;0,0670277
3421,1003;0,0667503
3422,0645;0,0665004
3423,0288;0,0662777
3423,9929;0,0660699
3424,9573;0,0658606
3425,9214;0,0656383
3426,8857;0,0654012
3427,8499;0,065156
3428,8142;0,0649121
3429,7783;0,0646753
3430,7427;0,0644442
3431,7068;0,0642119
3432,6711;0,0639712
3433,6353;0,06372
3434,5996;0,0634621
3435,5637;0,0632029
3436,5281;0,0629455
3437,4922;0,0626883
3438,4565;0,0624289
3439,4207;0,0621689
3440,3850;0,0619146
3441,3491;0,0616722
3442,3135;0,0614391
3443,2776;0,0612012
3444,2419;0,0609396
3445,2061;0,0606434
3446,1704;0,060321
3447,1345;0,059998
3448,0989;0,0597019
3449,0630;0,0594441
3450,0273;0,0592141
3450,9915;0,0589895
3451,9558;0,0587516
3452,9199;0,0584959
3453,8843;0,0582315
3454,8484;0,057971
3455,8127;0,0577198
3456,7769;0,057472
3457,7412;0,057216
3458,7053;0,0569444
3459,6697;0,0566601
3460,6338;0,0563747
3461,5981;0,0561006
3462,5623;0,0558429
3463,5266;0,0555949
3464,4907;0,0553427
3465,4551;0,0550734
3466,4192;0,0547829
3467,3835;0,0544788
3468,3477;0,0541762
3469,3120;0,0538883
3470,2761;0,0536194
3471,2405;0,0533636
3472,2046;0,0531113
3473,1689;0,0528571
3474,1331;0,052604
3475,0974;0,0523591
3476,0615;0,0521248
3477,0259;0,051892
3477,9900;0,0516433
3478,9543;0,0513633
3479,9185;0,0510514
3480,8828;0,050725
3481,8469;0,0504114
3482,8113;0,0501302
3483,7754;0,0498814
3484,7397;0,0496472
3485,7039;0,0494057
3486,6682;0,0491451
3487,6323;0,0488705
3488,5967;0,0485987
3489,5608;0,0483459
3490,5251;0,0481156
3491,4893;0,0478964
3492,4536;0,04767
3493,4177;0,0474238
3494,3821;0,0471604
3495,3462;0,0468976
3496,3105;0,0466567
3497,2747;0,0464452
3498,2390;0,0462479
3499,2031;0,0460316
3500,1675;0,0457637
3501,1316;0,0454344
3502,0959;0,0450693
3503,0601;0,0447189
3504,0244;0,0444265
3504,9885;0,0441993
3505,9529;0,0440066
3506,9170;0,0438029
3507,8813;0,0435562
3508,8455;0,0432656
3509,8098;0,0429598
3510,7739;0,0426763
3511,7383;0,0424354
3512,7024;0,0422316
3513,6667;0,0420432
3514,6309;0,041851
3515,5952;0,0416488
3516,5593;0,0414426
3517,5237;0,0412401
3518,4878;0,0410404
3519,4521;0,0408319
3520,4163;0,0406003
3521,3806;0,0403396
3522,3447;0,0400576
3523,3091;0,0397708
3524,2732;0,0394921
3525,2375;0,0392211
3526,2017;0,0389476
3527,1660;0,0386639
3528,1301;0,0383775
3529,0945;0,0381092
3530,0586;0,0378788
3531,0229;0,0376896
3531,9871;0,0375231
3532,9514;0,0373488
3533,9155;0,0371402
3534,8799;0,0368908
3535,8440;0,0366197
3536,8083;0,0363625
3537,7725;0,0361515
3538,7368;0,0359971
3539,7009;0,0358819
3540,6653;0,0357675
3541,6294;0,0356078
3542,5938;0,0353656
3543,5579;0,0350328
3544,5222;0,0346435
3545,4863;0,0342642
3546,4507;0,0339552
3547,4148;0,033732
3548,3792;0,0335604
3549,3433;0,0333837
3550,3076;0,033158
3551,2717;0,0328764
3552,2361;0,0325733
3553,2002;0,0323019
3554,1646;0,0320967
3555,1287;0,0319509
3556,0930;0,0318259
3557,0571;0,0316801
3558,0215;0,0314965
3558,9856;0,0312948
3559,9500;0,0311181
3560,9141;0,0309995
3561,8784;0,0309306
3562,8425;0,0308531
3563,8069;0,0306758
3564,7710;0,0303176
3565,7354;0,0297746
3566,6995;0,0291652
3567,6638;0,0286658
3568,6279;0,0283712
3569,5923;0,0282464
3570,5564;0,0281945
3571,5208;0,0281291
3572,4849;0,0280041
3573,4492;0,0278161
3574,4133;0,0275918
3575,3777;0,027364
3576,3418;0,0271495
3577,3062;0,0269464
3578,2703;0,0267502
3579,2346;0,026572
3580,1987;0,0264378
3581,1631;0,026367
3582,1272;0,0263475
3583,0916;0,0263256
3584,0557;0,0262186
3585,0200;0,02595
3585,9841;0,0255092
3586,9485;0,0249986
3587,9126;0,0245827
3588,8770;0,0243557
3589,8411;0,0242844
3590,8054;0,0242663
3591,7695;0,0242049
3592,7339;0,0240494
3593,6980;0,0238078
3594,6624;0,0235348
3595,6265;0,0232881
3596,5908;0,0230833
3597,5549;0,0228928
3598,5193;0,0226838
3599,4834;0,0224569
3600,4478;0,0222514
3601,4119;0,0221122
3602,3762;0,0220484
3603,3403;0,0220222
3604,3047;0,0219701
3605,2688;0,021837
3606,2332;0,0216064
3607,1973;0,0213134
3608,1616;0,0210234
3609,1257;0,0207836
3610,0901;0,0205948
3611,0542;0,0204291
3612,0186;0,0202678
3612,9827;0,0201166
3613,9470;0,0199912
3614,9111;0,0198886
3615,8755;0,0197738
3616,8396;0,0195947
3617,8040;0,0193228
3618,7681;0,0189952
3619,7324;0,0187116
3620,6965;0,0185663
3621,6609;0,0185836
3622,6250;0,0187185
3623,5894;0,0188925
3624,5535;0,0190136
3625,5178;0,0189782
3626,4819;0,0186918
3627,4463;0,018143
3628,4104;0,0174876
3629,3748;0,0169685
3630,3389;0,0166956
3631,3032;0,0165978
3632,2673;0,016553
3633,2317;0,0164803
3634,1958;0,0163554
3635,1602;0,0161941
3636,1243;0,0160277
3637,0886;0,015879
3638,0527;0,0157537
3639,0171;0,0156506
3639,9812;0,0155766
3640,9456;0,0155514
3641,9097;0,0155959
3642,8740;0,0157124
3643,8381;0,0158699
3644,8025;0,0159964
3645,7666;0,0159759
3646,7310;0,0156734
3647,6951;0,0150421
3648,6594;0,0142785
3649,6235;0,0137308
3650,5879;0,0135468
3651,5520;0,0136063
3652,5164;0,0137257
3653,4805;0,0137742
3654,4448;0,0136881
3655,4089;0,0134759
3656,3733;0,0132147
3657,3374;0,0130018
3658,3018;0,0128839
3659,2659;0,012839
3660,2302;0,0128191
3661,1943;0,0127984
3662,1587;0,0127895
3663,1228;0,0128257
3664,0872;0,012924
3665,0513;0,0130593
3666,0156;0,0131676
3666,9797;0,0131746
3667,9441;0,0130476
3668,9082;0,0128439
3669,8726;0,0126877
3670,8367;0,0126539
3671,8010;0,0126964
3672,7651;0,0126912
3673,7295;0,0125221
3674,6936;0,0121666
3675,6580;0,0117436
3676,6221;0,0114262
3677,5864;0,0112841
3678,5505;0,0112694
3679,5149;0,0113118
3680,4790;0,0113786
3681,4434;0,0114758
3682,4075;0,0116228
3683,3718;0,0118237
3684,3359;0,0120483
3685,3003;0,0122315
3686,2644;0,0122865
3687,2288;0,0121427
3688,1929;0,0118126
3689,1572;0,0114328
3690,1213;0,0111756
3691,0857;0,0111063
3692,0498;0,0111752
3693,0142;0,0113055
3693,9783;0,0114475
3694,9426;0,0115816
3695,9067;0,0117013
3696,8711;0,0117971
3697,8352;0,0118475
3698,7996;0,0118242
3699,7637;0,0117113
3700,7280;0,0115309
3701,6921;0,0113495
3702,6565;0,0112458
3703,6206;0,0112626
3704,5850;0,0113881
3705,5491;0,0115721
3706,5134;0,0117457
3707,4775;0,011831
3708,4419;0,011754
3709,4060;0,0114838
3710,3704;0,0110896
3711,3345;0,0107321
3712,2988;0,010544
3713,2629;0,0105385
3714,2273;0,0106487
3715,1914;0,0107995
3716,1558;0,0109393
3717,1199;0,0110421
3718,0842;0,0111051
3719,0483;0,0111441
3720,0127;0,0111805
3720,9768;0,0112221
3721,9412;0,0112541
3722,9053;0,0112513
3723,8696;0,0112048
3724,8337;0,0111394
3725,7981;0,0111028
3726,7622;0,011135
3727,7266;0,0112448
3728,6907;0,0114112
3729,6550;0,0115944
3730,6191;0,0117429
3731,5835;0,011796
3732,5476;0,0116926
3733,5120;0,0114093
3734,4761;0,0110144
3735,4404;0,0106659
3736,4045;0,0105039
3737,3689;0,01056
3738,3330;0,0107787
3739,2974;0,0110747
3740,2615;0,0113579
3741,2258;0,0115361
3742,1899;0,0115342
3743,1543;0,0113559
3744,1184;0,0111325
3745,0828;0,0110352
3746,0469;0,0111105
3747,0112;0,0112571
3747,9753;0,0113192
3748,9397;0,011172
3749,9038;0,0108093
3750,8682;0,0103998
3751,8323;0,0101627
3752,7966;0,0101626
3753,7607;0,0103088
3754,7251;0,0104789
3755,6892;0,0105839
3756,6536;0,0105808
3757,6177;0,010482
3758,5820;0,0103537
3759,5461;0,0102746
3760,5105;0,0102822
3761,4746;0,0103606
3762,4390;0,0104689
3763,4031;0,0105696
3764,3674;0,0106406
3765,3315;0,0106722
3766,2959;0,0106601
3767,2600;0,0105988
3768,2244;0,0104871
3769,1885;0,0103425
3770,1528;0,0102079
3771,1169;0,0101342
3772,0813;0,0101504
3773,0454;0,0102468
3774,0098;0,0103827
3774,9739;0,0105044
3775,9382;0,0105642
3776,9023;0,0105408
3777,8667;0,0104549
3778,8308;0,0103611
3779,7952;0,0103079
3780,7593;0,0103033
3781,7236;0,0103188
3782,6877;0,0103196
3783,6521;0,0102884
3784,6162;0,0102318
3785,5806;0,0101729
3786,5447;0,0101359
3787,5090;0,0101357
3788,4731;0,0101755
3789,4375;0,0102498
3790,4016;0,010347
3791,3660;0,0104507
3792,3301;0,0105447
3793,2944;0,0106218
3794,2585;0,0106899
3795,2229;0,0107678
3796,1870;0,0108656
3797,1514;0,0109644
3798,1155;0,011016
3799,0798;0,01097
3800,0439;0,0108205
3801,0083;0,0106313
3801,9724;0,0104932
3802,9368;0,0104409
3803,9009;0,0104295
3804,8652;0,0103841
3805,8293;0,0102651
3806,7937;0,0101089
3807,7578;0,0100112
3808,7222;0,0100502
3809,6863;0,0102276
3810,6506;0,0104822
3811,6147;0,0107337
3812,5791;0,0109131
3813,5432;0,0109868
3814,5076;0,0109772
3815,4717;0,010951
3816,4360;0,0109551
3817,4001;0,0109654
3818,3645;0,0109075
3819,3286;0,0107289
3820,2930;0,0104612
3821,2571;0,0102136
3822,2214;0,0100828
3823,1855;0,0100809
3824,1499;0,0101561
3825,1140;0,0102512
3826,0784;0,0103349
3827,0425;0,0104038
3828,0068;0,0104704
3828,9709;0,0105475
3829,9353;0,0106385
3830,8994;0,0107387
3831,8638;0,0108411
3832,8279;0,0109387
3833,7922;0,0110188
3834,7563;0,011059
3835,7207;0,0110306
3836,6848;0,0109174
3837,6492;0,0107355
3838,6133;0,0105318
3839,5776;0,0103515
3840,5417;0,0102117
3841,5061;0,0101077
3842,4702;0,0100374
3843,4346;0,0100166
3844,3987;0,0100739
3845,3630;0,0102335
3846,3271;0,0104996
3847,2915;0,0108516
3848,2556;0,0112431
3849,2200;0,0115959
3850,1841;0,0117871
3851,1484;0,0116647
3852,1125;0,0111626
3853,0769;0,0104824
3854,0410;0,00999297
3855,0054;0,00985094
3855,9695;0,0099598
3856,9338;0,010183
3857,8979;0,0104318
3858,8623;0,0106506
3859,8264;0,0107974
3860,7908;0,010846
3861,7549;0,0108045
3862,7192;0,010727
3863,6833;0,0106854
3864,6477;0,0107176
3865,6118;0,0108041
3866,5762;0,0108896
3867,5403;0,0109173
3868,5046;0,0108543
3869,4688;0,0107068
3870,4331;0,0105198
3871,3972;0,010355
3872,3616;0,0102602
3873,3257;0,0102539
3874,2900;0,0103268
3875,2542;0,0104508
3876,2185;0,0105866
3877,1826;0,0106932
3878,1470;0,0107425
3879,1111;0,0107343
3880,0754;0,0106969
3881,0396;0,0106637
3882,0039;0,010643
3882,9680;0,0106166
3883,9324;0,010569
3884,8965;0,0105141
3885,8608;0,0104876
3886,8250;0,0105108
3887,7893;0,0105649
3888,7534;0,010599
3889,7178;0,0105659
3890,6819;0,0104634
3891,6462;0,0103531
3892,6104;0,0103198
3893,5747;0,0104043
3894,5388;0,0105825
3895,5032;0,0107973
3896,4673;0,0109912
3897,4316;0,0111227
3898,3958;0,0111722
3899,3601;0,0111388
3900,3242;0,0110277
3901,2886;0,0108426
3902,2527;0,0106003
3903,2170;0,010348
3904,1812;0,0101513
3905,1455;0,0100537
3906,1096;0,0100539
3907,0740;0,0101181
3908,0381;0,0102082
3909,0024;0,0102994
3909,9666;0,0103847
3910,9309;0,0104687
3911,8950;0,0105553
3912,8594;0,0106371
3913,8235;0,0106936
3914,7878;0,0107013
3915,7520;0,010653
3916,7163;0,0105716
3917,6804;0,0105011
3918,6448;0,0104773
3919,6089;0,0105016
3920,5732;0,0105445
3921,5374;0,0105685
3922,5017;0,0105525
3923,4658;0,0105062
3924,4302;0,0104648
3925,3943;0,0104628
3926,3586;0,0105075
3927,3228;0,0105743
3928,2871;0,0106238
3929,2512;0,010624
3930,2156;0,0105684
3931,1797;0,0104815
3932,1440;0,0104036
3933,1082;0,0103643
3934,0725;0,0103694
3935,0366;0,0104078
3936,0010;0,0104644
3936,9651;0,0105253
3937,9294;0,0105774
3938,8936;0,0106068
3939,8579;0,0106041
3940,8220;0,010573
3941,7864;0,010534
3942,7505;0,0105151
3943,7148;0,0105318
3944,6790;0,0105752
3945,6433;0,0106177
3946,6074;0,0106301
3947,5718;0,0106004
3948,5359;0,0105418
3949,5002;0,0104835
3950,4644;0,0104505
3951,4287;0,0104478
3952,3928;0,0104626
3953,3572;0,0104773
3954,3213;0,0104826
3955,2856;0,0104801
3956,2498;0,0104772
3957,2141;0,0104788
3958,1782;0,0104829
3959,1426;0,0104837
3960,1067;0,0104774
3961,0710;0,0104663
3962,0352;0,0104576
3962,9995;0,0104575
3963,9636;0,0104671
3964,9280;0,0104827
3965,8921;0,0104998
3966,8564;0,0105159
3967,8206;0,0105314
3968,7849;0,0105466
3969,7490;0,0105586
3970,7134;0,0105616
3971,6775;0,0105504
3972,6418;0,010525
3973,6060;0,0104928
3974,5703;0,010466
3975,5344;0,0104554
3976,4988;0,0104644
3977,4629;0,0104882
3978,4272;0,010517
3979,3914;0,0105415
3980,3557;0,0105573
3981,3198;0,0105649
3982,2842;0,010568
3983,2483;0,0105695
3984,2126;0,0105706
3985,1768;0,0105706
3986,1411;0,0105687
3987,1052;0,0105657
3988,0696;0,0105636
3989,0337;0,0105644
3989,9980;0,010568
3990,9622;0,010572
3991,9265;0,0105718
3992,8906;0,0105641
3993,8550;0,0105491
3994,8191;0,0105315
3995,7834;0,0105185
3996,7476;0,0105165
3997,7119;0,010527
3998,6760;0,0105462
3999,6404;0,0105669
4000,6045;0,0105252

##### Extended Information
[Comments]
Sample name
Comment
Username
Division
Organization;UNIVERSIDAD INDUSTRIAL DE SANTANDER

[Detailed Information]
Creation date;4/02/2025 11:29 a.m.

Data array type;Linear data array
Horizontal axis;Wavenumber [cm-1]
Vertical axis;Abs
Start;399,193 cm-1
End;4000,6 cm-1
Data interval;0,964233 cm-1
Data points;3736    

[Measurement Information]
Model name;FT/IR-4X1typeA
Serial No.;A035162111

Accessory;ATR PRO 4X
Accessory S/N;A021162126
Incident angle;45 deg

Measurement date;4/02/2025 11:29 a.m.

Light source;Standard
Detector;TGS
Accumulation;Auto (75)
Resolution;4 cm-1
Zero filling;On
Apodization;Cosine
Gain;Auto (8)
Aperture;Auto (7 mm)
Scan speed;Auto (2 mm/sec)
Filter;Auto (12800 Hz)

