TITLE;
DATA TYPE;INFRARED SPECTRUM
ORIGIN;JASCO
OWNER;
DATE;25/02/04
TIME;12:18:28
SPECTROMETER/DATA SYSTEM;
LOCALE;9226
RESOLUTION;
DELTAX;0,964233
XUNITS;1/CM
YUNITS;ABSORBANCE
FIRSTX;  399,1927
LASTX; 4000,6047
NPOINTS;    3736
FIRSTY;     0,09230
MAXY;     0,14160
MINY;     0,00932
XYDATA
399,1927;0,092304
400,1569;0,0937828
401,1211;0,0956333
402,0854;0,097261
403,0496;0,0984225
404,0138;0,0991115
404,9781;0,0994497
405,9423;0,0996063
406,9065;0,0997297
407,8708;0,0999055
408,8350;0,100164
409,7992;0,100518
410,7635;0,100979
411,7277;0,10153
412,6919;0,102108
413,6562;0,102618
414,6204;0,102999
415,5846;0,103273
416,5489;0,103564
417,5131;0,104069
418,4773;0,104903
419,4416;0,105899
420,4058;0,106704
421,3700;0,107127
422,3343;0,107236
423,2985;0,107192
424,2627;0,107115
425,2270;0,107032
426,1912;0,106899
427,1554;0,106661
428,1197;0,106322
429,0839;0,105963
430,0481;0,105704
431,0124;0,105635
431,9766;0,105752
432,9408;0,105961
433,9051;0,106141
434,8693;0,106218
435,8335;0,106205
436,7978;0,106164
437,7620;0,106139
438,7262;0,106109
439,6905;0,106012
440,6547;0,105806
441,6189;0,105519
442,5832;0,105255
443,5474;0,105127
444,5116;0,105161
445,4759;0,10526
446,4401;0,105258
447,4043;0,105015
448,3686;0,104487
449,3328;0,103736
450,2970;0,102901
451,2613;0,102151
452,2255;0,101621
453,1897;0,101376
454,1540;0,101406
455,1182;0,101643
456,0824;0,101979
457,0467;0,102294
458,0109;0,102485
458,9751;0,102506
459,9394;0,102378
460,9036;0,102159
461,8678;0,101904
462,8321;0,101656
463,7963;0,101446
464,7605;0,101298
465,7248;0,101214
466,6890;0,101178
467,6532;0,101166
468,6175;0,10116
469,5817;0,101152
470,5459;0,101127
471,5102;0,101049
472,4744;0,100868
473,4386;0,10057
474,4029;0,100218
475,3671;0,0999379
476,3313;0,0998528
477,2956;0,100021
478,2598;0,100407
479,2240;0,100895
480,1883;0,101346
481,1525;0,101659
482,1167;0,101805
483,0810;0,101826
484,0452;0,10179
485,0094;0,101761
485,9737;0,101778
486,9379;0,101864
487,9021;0,102037
488,8664;0,102314
489,8306;0,102696
490,7948;0,103156
491,7591;0,103623
492,7233;0,104003
493,6875;0,104213
494,6518;0,104219
495,6160;0,104064
496,5802;0,10385
497,5445;0,103705
498,5087;0,103732
499,4729;0,103973
500,4372;0,10439
501,4014;0,104884
502,3656;0,105349
503,3299;0,105732
504,2941;0,106046
505,2583;0,106345
506,2226;0,106669
507,1868;0,107017
508,1510;0,107352
509,1153;0,107643
510,0795;0,107889
511,0437;0,108132
512,0080;0,108433
512,9722;0,108837
513,9365;0,10935
514,9007;0,109931
515,8649;0,110505
516,8292;0,110986
517,7934;0,111313
518,7576;0,111477
519,7219;0,111521
520,6861;0,111499
521,6503;0,111456
522,6146;0,111413
523,5788;0,111387
524,5430;0,111407
525,5073;0,111511
526,4715;0,111723
527,4357;0,112026
528,4000;0,112356
529,3642;0,112624
530,3284;0,112756
531,2927;0,112722
532,2569;0,11254
533,2211;0,112275
534,1854;0,112009
535,1496;0,111805
536,1138;0,11169
537,0781;0,111653
538,0423;0,11167
539,0065;0,11172
539,9708;0,111795
540,9350;0,111897
541,8992;0,112021
542,8635;0,112153
543,8277;0,112271
544,7919;0,112363
545,7562;0,112441
546,7204;0,112543
547,6846;0,112711
548,6489;0,112967
549,6131;0,113298
550,5773;0,113658
551,5416;0,113998
552,5058;0,114285
553,4700;0,114527
554,4343;0,114752
555,3985;0,114986
556,3627;0,115221
557,3270;0,115402
558,2912;0,115442
559,2554;0,115269
560,2197;0,114859
561,1839;0,11426
562,1481;0,113574
563,1124;0,112911
564,0766;0,112346
565,0408;0,1119
566,0051;0,111547
566,9693;0,111248
567,9335;0,110987
568,8978;0,110768
569,8620;0,110611
570,8262;0,110516
571,7905;0,110461
572,7547;0,110411
573,7189;0,110336
574,6832;0,110233
575,6474;0,11012
576,6116;0,11003
577,5759;0,109977
578,5401;0,109952
579,5043;0,109923
580,4686;0,109855
581,4328;0,109729
582,3970;0,109557
583,3613;0,109377
584,3255;0,109234
585,2897;0,10916
586,2540;0,109161
587,2182;0,10921
588,1824;0,109269
589,1467;0,109298
590,1109;0,109274
591,0751;0,109195
592,0394;0,109078
593,0036;0,108947
593,9678;0,108816
594,9321;0,108685
595,8963;0,108536
596,8605;0,108351
597,8248;0,108117
598,7890;0,107836
599,7532;0,107534
600,7175;0,107243
601,6817;0,106997
602,6459;0,106815
603,6102;0,106691
604,5744;0,106595
605,5386;0,106486
606,5029;0,106322
607,4671;0,106078
608,4313;0,105757
609,3956;0,105387
610,3598;0,105001
611,3240;0,104631
612,2883;0,104283
613,2525;0,103949
614,2167;0,103607
615,1810;0,103235
616,1452;0,102813
617,1094;0,102333
618,0737;0,101792
619,0379;0,101204
620,0021;0,100589
620,9664;0,0999763
621,9306;0,0993956
622,8948;0,0988672
623,8591;0,0983983
624,8233;0,0979937
625,7875;0,0976215
626,7518;0,097271
627,7160;0,0969367
628,6802;0,0966151
629,6445;0,0962965
630,6087;0,0959648
631,5729;0,0956029
632,5372;0,0952043
633,5014;0,0947802
634,4656;0,0943553
635,4299;0,0939558
636,3941;0,0935974
637,3583;0,0932809
638,3226;0,0929976
639,2868;0,0927362
640,2510;0,0924867
641,2153;0,0922375
642,1795;0,0919733
643,1437;0,0916783
644,1080;0,0913456
645,0722;0,0909883
646,0364;0,0906409
647,0007;0,0903487
647,9649;0,090148
648,9291;0,0900467
649,8934;0,0900186
650,8576;0,0900183
651,8218;0,0900063
652,7861;0,0899704
653,7503;0,0899312
654,7145;0,0899331
655,6788;0,0900261
656,6430;0,0902439
657,6072;0,0905841
658,5715;0,0909968
659,5357;0,0913869
660,4999;0,0916445
661,4642;0,0917056
662,4284;0,0916003
663,3926;0,0914358
664,3569;0,0913253
665,3211;0,0913092
666,2853;0,0913091
667,2496;0,0911491
668,2138;0,0906863
669,1780;0,0899307
670,1423;0,088975
671,1065;0,0879197
672,0707;0,0868526
673,0350;0,0858159
673,9992;0,0848072
674,9634;0,0838178
675,9277;0,0828629
676,8919;0,081975
677,8561;0,0811764
678,8204;0,0804688
679,7846;0,0798461
680,7488;0,079307
681,7131;0,0788503
682,6773;0,0784644
683,6415;0,0781236
684,6058;0,0778008
685,5700;0,0774823
686,5342;0,077174
687,4985;0,0768951
688,4627;0,0766624
689,4269;0,076483
690,3912;0,0763472
691,3554;0,0762339
692,3196;0,0761197
693,2839;0,0759879
694,2481;0,0758328
695,2123;0,0756587
696,1766;0,0754743
697,1408;0,0752865
698,1050;0,0750966
699,0693;0,0748996
700,0335;0,0746873
700,9977;0,0744521
701,9620;0,0741903
702,9262;0,073904
703,8904;0,0736046
704,8547;0,0733032
705,8189;0,0730103
706,7831;0,0727307
707,7474;0,0724591
708,7116;0,0721797
709,6758;0,0718705
710,6401;0,0715124
711,6043;0,0710987
712,5685;0,0706423
713,5328;0,0701732
714,4970;0,069727
715,4612;0,0695369
716,4255;0,0691399
717,3897;0,068748
718,3539;0,0683345
719,3182;0,0678832
720,2824;0,0673955
721,2466;0,0668869
722,2109;0,0663744
723,1751;0,065867
724,1393;0,0653659
725,1036;0,0648711
726,0678;0,0643867
727,0320;0,0639187
727,9963;0,0634686
728,9605;0,0630305
729,9247;0,0625948
730,8890;0,0621578
731,8532;0,0617279
732,8174;0,0613219
733,7817;0,0609553
734,7459;0,0606324
735,7101;0,0603445
736,6744;0,0600762
737,6386;0,0598145
738,6028;0,0595537
739,5671;0,059295
740,5313;0,0590419
741,4955;0,0587968
742,4598;0,058559
743,4240;0,0583249
744,3882;0,0580893
745,3525;0,0578476
746,3167;0,0575988
747,2809;0,0573474
748,2452;0,0571024
749,2094;0,0568711
750,1736;0,0566533
751,1379;0,0564382
752,1021;0,0562085
753,0663;0,0559498
754,0306;0,0556592
754,9948;0,0553477
755,9590;0,0550352
756,9233;0,0547414
757,8875;0,0544776
758,8517;0,0542435
759,8160;0,0540284
760,7802;0,0538169
761,7444;0,0535953
762,7087;0,0533581
763,6729;0,0531114
764,6371;0,0528722
765,6014;0,052662
766,5656;0,0524976
767,5298;0,0523825
768,4941;0,0523047
769,4583;0,0522419
770,4225;0,0521703
771,3868;0,0520738
772,3510;0,0519467
773,3152;0,051792
774,2795;0,0516171
775,2437;0,05143
776,2079;0,0512384
777,1722;0,0510487
778,1364;0,0508659
779,1006;0,050692
780,0649;0,0505254
781,0291;0,0503615
781,9933;0,0501953
782,9576;0,0500244
783,9218;0,0498493
784,8860;0,049673
785,8503;0,0494996
786,8145;0,0493329
787,7787;0,0491766
788,7430;0,0490343
789,7072;0,0489084
790,6714;0,0487985
791,6357;0,0487006
792,5999;0,048607
793,5641;0,0485096
794,5284;0,0484026
795,4926;0,0482862
796,4568;0,0481673
797,4211;0,048057
798,3853;0,047966
799,3495;0,0478993
800,3138;0,0478531
801,2780;0,0478157
802,2422;0,0477719
803,2065;0,0477095
804,1707;0,0476235
805,1349;0,0475165
806,0992;0,0473968
807,0634;0,0472743
808,0276;0,0471576
808,9919;0,0470527
809,9561;0,0469633
810,9203;0,0468913
811,8846;0,0468376
812,8488;0,0468027
813,8130;0,0467866
814,7773;0,0467878
815,7415;0,0468014
816,7057;0,046818
817,6700;0,046825
818,6342;0,0468113
819,5984;0,0467731
820,5627;0,0467169
821,5269;0,0466572
822,4911;0,0466101
823,4554;0,0465854
824,4196;0,0465824
825,3839;0,0465916
826,3481;0,046601
827,3123;0,0466016
828,2766;0,0465906
829,2408;0,0465694
830,2050;0,0465387
831,1693;0,0464958
832,1335;0,0464344
833,0977;0,0463493
834,0620;0,0462407
835,0262;0,0461155
835,9904;0,0459847
836,9547;0,0458564
837,9189;0,0457313
838,8831;0,0456038
839,8474;0,0454688
840,8116;0,0453296
841,7758;0,0452007
842,7401;0,0451024
843,7043;0,0450489
844,6685;0,0450391
845,6328;0,045056
846,5970;0,0450756
847,5612;0,0450793
848,5255;0,0450625
849,4897;0,0450335
850,4539;0,0450053
851,4182;0,0449867
852,3824;0,0449778
853,3466;0,0449722
854,3109;0,0449618
855,2751;0,0449414
856,2393;0,04491
857,2036;0,0448699
858,1678;0,0448252
859,1320;0,0447811
860,0963;0,0447424
861,0605;0,0447121
862,0247;0,0446903
862,9890;0,0446754
863,9532;0,0446665
864,9174;0,0446669
865,8817;0,0446839
866,8459;0,0447266
867,8101;0,0448009
868,7744;0,0449059
869,7386;0,0450351
870,7028;0,0451796
871,6671;0,0453316
872,6313;0,045485
873,5955;0,0456339
874,5598;0,0457702
875,5240;0,0458854
876,4882;0,0459756
877,4525;0,0460475
878,4167;0,0461195
879,3809;0,0462181
880,3452;0,0463681
881,3094;0,0465847
882,2736;0,0468687
883,2379;0,0472089
884,2021;0,047589
885,1663;0,0479957
886,1306;0,0484243
887,0948;0,0488807
888,0590;0,0493777
889,0233;0,0499266
889,9875;0,0505274
890,9517;0,0511612
891,9160;0,0517903
892,8802;0,0523679
893,8444;0,0528532
894,8087;0,0532236
895,7729;0,0534783
896,7371;0,0536308
897,7014;0,0536967
898,6656;0,0536842
899,6298;0,0535944
900,5941;0,0534273
901,5583;0,05319
902,5225;0,0528989
903,4868;0,0525765
904,4510;0,0522459
905,4152;0,0519276
906,3795;0,0516386
907,3437;0,0513944
908,3079;0,0512063
909,2722;0,0510795
910,2364;0,0510098
911,2007;0,0509859
912,1649;0,0509951
913,1292;0,0510292
914,0934;0,0510866
915,0576;0,0511689
916,0219;0,0512757
916,9861;0,0514015
917,9503;0,0515375
918,9146;0,0516773
919,8788;0,0518208
920,8430;0,0519737
921,8073;0,0521421
922,7715;0,0523265
923,7357;0,0525185
924,7000;0,0527041
925,6642;0,0528704
926,6284;0,0530113
927,5927;0,0531289
928,5569;0,0532307
929,5211;0,0533245
930,4854;0,0534168
931,4496;0,0535124
932,4138;0,0536171
933,3781;0,0537382
934,3423;0,0538834
935,3065;0,0540587
936,2708;0,0542684
937,2350;0,0545159
938,1992;0,054806
939,1635;0,055143
940,1277;0,055528
941,0919;0,0559561
942,0562;0,0564171
943,0204;0,0569019
943,9846;0,0574087
944,9489;0,0579454
945,9131;0,0585254
946,8773;0,0591592
947,8416;0,0598475
948,8058;0,0605802
949,7700;0,0613421
950,7343;0,0621212
951,6985;0,0629142
952,6627;0,0637262
953,6270;0,0645675
954,5912;0,065448
955,5554;0,0663742
956,5197;0,0673476
957,4839;0,0683657
958,4481;0,0694234
959,4124;0,0705141
960,3766;0,0716306
961,3408;0,0727656
962,3051;0,0739122
963,2693;0,0750651
964,2335;0,0762221
965,1978;0,0773846
966,1620;0,0785583
967,1262;0,0797522
968,0905;0,0809771
969,0547;0,0822455
970,0189;0,0835716
970,9832;0,0849715
971,9474;0,0864611
972,9116;0,0880543
973,8759;0,0897596
974,8401;0,0915805
975,8043;0,0935153
976,7686;0,0955572
977,7328;0,09769
978,6970;0,0998806
979,6613;0,102075
980,6255;0,104201
981,5897;0,106183
982,5540;0,10796
983,5182;0,109502
984,4824;0,110815
985,4467;0,111929
986,4109;0,112887
987,3751;0,113724
988,3394;0,114469
989,3036;0,115143
990,2678;0,115762
991,2321;0,116342
992,1963;0,116897
993,1605;0,117429
994,1248;0,117939
995,0890;0,11842
996,0532;0,118871
997,0175;0,119297
997,9817;0,119709
998,9459;0,120122
999,9102;0,120548
1000,8744;0,120997
1001,8386;0,121479
1002,8029;0,122004
1003,7671;0,122583
1004,7313;0,12323
1005,6956;0,12396
1006,6598;0,124785
1007,6240;0,125712
1008,5883;0,126738
1009,5525;0,127851
1010,5167;0,129028
1011,4810;0,130243
1012,4452;0,131464
1013,4094;0,132663
1014,3737;0,133812
1015,3379;0,134882
1016,3021;0,135846
1017,2664;0,136682
1018,2306;0,137386
1019,1948;0,137967
1020,1591;0,138453
1021,1233;0,138878
1022,0875;0,139274
1023,0518;0,139661
1024,0160;0,140048
1024,9802;0,140432
1025,9445;0,1408
1026,9087;0,141133
1027,8729;0,141404
1028,8372;0,141574
1029,8014;0,1416
1030,7656;0,141436
1031,7299;0,141042
1032,6941;0,140394
1033,6583;0,139494
1034,6226;0,138371
1035,5868;0,137079
1036,5510;0,135695
1037,5153;0,134304
1038,4795;0,132987
1039,4437;0,131812
1040,4080;0,130822
1041,3722;0,130035
1042,3364;0,129439
1043,3007;0,129003
1044,2649;0,12868
1045,2291;0,128422
1046,1934;0,128184
1047,1576;0,12793
1048,1218;0,127633
1049,0861;0,127269
1050,0503;0,126815
1051,0145;0,126254
1051,9788;0,125579
1052,9430;0,124795
1053,9072;0,123913
1054,8715;0,122945
1055,8357;0,121883
1056,7999;0,120703
1057,7642;0,119363
1058,7284;0,117828
1059,6926;0,116084
1060,6569;0,114156
1061,6211;0,112104
1062,5853;0,11001
1063,5496;0,107961
1064,5138;0,106027
1065,4780;0,104252
1066,4423;0,102654
1067,4065;0,101229
1068,3707;0,0999552
1069,3350;0,0987991
1070,2992;0,0977233
1071,2634;0,096691
1072,2277;0,0956721
1073,1919;0,0946461
1074,1561;0,0936034
1075,1204;0,0925426
1076,0846;0,0914677
1077,0488;0,090387
1078,0131;0,0893137
1078,9773;0,0882681
1079,9415;0,087278
1080,9058;0,0863749
1081,8700;0,0855865
1082,8342;0,0849282
1083,7985;0,0843989
1084,7627;0,083982
1085,7269;0,083653
1086,6912;0,0833891
1087,6554;0,0831767
1088,6196;0,0830131
1089,5839;0,0829032
1090,5481;0,0828541
1091,5123;0,0828702
1092,4766;0,0829516
1093,4408;0,0830953
1094,4050;0,0832963
1095,3693;0,0835477
1096,3335;0,0838394
1097,2977;0,084156
1098,2620;0,0844772
1099,2262;0,0847801
1100,1904;0,0850437
1101,1547;0,0852527
1102,1189;0,0854011
1103,0831;0,0854909
1104,0474;0,0855295
1105,0116;0,0855248
1105,9758;0,0854813
1106,9401;0,0853966
1107,9043;0,0852593
1108,8685;0,0850486
1109,8328;0,0847358
1110,7970;0,0842893
1111,7612;0,0836839
1112,7255;0,0829124
1113,6897;0,0819947
1114,6539;0,0809798
1115,6182;0,0799367
1116,5824;0,0789363
1117,5466;0,0780306
1118,5109;0,0772383
1119,4751;0,0765406
1120,4393;0,0758898
1121,4036;0,0752239
1122,3678;0,0744838
1123,3320;0,0736256
1124,2963;0,072628
1125,2605;0,0714937
1126,2247;0,0702458
1127,1890;0,0689206
1128,1532;0,0675579
1129,1174;0,0661921
1130,0817;0,0648458
1131,0459;0,0635303
1132,0101;0,0622511
1132,9744;0,0610166
1133,9386;0,0598448
1134,9028;0,0587641
1135,8671;0,0578081
1136,8313;0,0570064
1137,7955;0,0563768
1138,7598;0,0559215
1139,7240;0,0556297
1140,6882;0,0554828
1141,6525;0,0554594
1142,6167;0,0555377
1143,5809;0,0556962
1144,5452;0,0559139
1145,5094;0,0561728
1146,4736;0,0564621
1147,4379;0,0567805
1148,4021;0,0571347
1149,3663;0,057533
1150,3306;0,0579774
1151,2948;0,0584574
1152,2590;0,0589514
1153,2233;0,0594314
1154,1875;0,05987
1155,1517;0,0602434
1156,1160;0,0605287
1157,0802;0,0606997
1158,0444;0,0607228
1159,0087;0,0605576
1159,9729;0,0601619
1160,9371;0,0594995
1161,9014;0,0585489
1162,8656;0,0573099
1163,8298;0,0558076
1164,7941;0,0540922
1165,7583;0,052234
1166,7225;0,0503143
1167,6868;0,0484133
1168,6510;0,0465991
1169,6152;0,0449207
1170,5795;0,0434054
1171,5437;0,0420619
1172,5079;0,0408846
1173,4722;0,0398598
1174,4364;0,0389699
1175,4006;0,0381974
1176,3649;0,0375277
1177,3291;0,0369503
1178,2933;0,0364579
1179,2576;0,0360443
1180,2218;0,0357025
1181,1860;0,0354232
1182,1503;0,0351969
1183,1145;0,0350158
1184,0787;0,0348762
1185,0430;0,0347795
1186,0072;0,0347303
1186,9714;0,0347345
1187,9357;0,0347968
1188,8999;0,0349187
1189,8641;0,0350988
1190,8284;0,0353339
1191,7926;0,035621
1192,7568;0,0359583
1193,7211;0,0363449
1194,6853;0,0367786
1195,6495;0,0372541
1196,6138;0,037761
1197,5780;0,0382855
1198,5422;0,0388125
1199,5065;0,039282
1200,4707;0,039786
1201,4349;0,0402683
1202,3992;0,0407276
1203,3634;0,0411628
1204,3276;0,041571
1205,2919;0,0419489
1206,2561;0,0422958
1207,2203;0,0426164
1208,1846;0,0429237
1209,1488;0,0432378
1210,1130;0,043582
1211,0773;0,0439773
1212,0415;0,0444368
1213,0057;0,0449643
1213,9700;0,0455546
1214,9342;0,0461976
1215,8984;0,0468807
1216,8627;0,0475895
1217,8269;0,0483083
1218,7911;0,0490213
1219,7554;0,049716
1220,7196;0,0503857
1221,6838;0,0510306
1222,6481;0,0516549
1223,6123;0,0522615
1224,5765;0,0528487
1225,5408;0,0534096
1226,5050;0,0539363
1227,4692;0,0544247
1228,4335;0,0548759
1229,3977;0,0552939
1230,3619;0,0556814
1231,3262;0,0560355
1232,2904;0,0563487
1233,2546;0,056612
1234,2189;0,0568199
1235,1831;0,0569728
1236,1473;0,0570774
1237,1116;0,057144
1238,0758;0,0571835
1239,0400;0,0572044
1240,0043;0,0572111
1240,9685;0,0572021
1241,9327;0,0571704
1242,8970;0,0571049
1243,8612;0,0569947
1244,8254;0,0568334
1245,7897;0,0566216
1246,7539;0,0563671
1247,7181;0,0560817
1248,6824;0,0557777
1249,6466;0,0554648
1250,6108;0,0551502
1251,5751;0,0548391
1252,5393;0,0545362
1253,5035;0,0542448
1254,4678;0,0539648
1255,4320;0,0536925
1256,3962;0,0534204
1257,3605;0,0531405
1258,3247;0,0528461
1259,2889;0,0525332
1260,2532;0,0521999
1261,2174;0,0518444
1262,1816;0,0514647
1263,1459;0,0510592
1264,1101;0,0506286
1265,0743;0,0501773
1266,0386;0,0497123
1267,0028;0,0492403
1267,9670;0,0487653
1268,9313;0,0482876
1269,8955;0,0478051
1270,8597;0,047316
1271,8240;0,0468212
1272,7882;0,0463245
1273,7524;0,0458325
1274,7167;0,0453529
1275,6809;0,0448924
1276,6451;0,0444552
1277,6094;0,0440404
1278,5736;0,043641
1279,5378;0,0432465
1280,5021;0,0428472
1281,4663;0,0424395
1282,4305;0,0420285
1283,3948;0,0416262
1284,3590;0,0412466
1285,3232;0,0409014
1286,2875;0,0405969
1287,2517;0,0403343
1288,2159;0,0401112
1289,1802;0,0399237
1290,1444;0,0397679
1291,1086;0,0396423
1292,0729;0,0395485
1293,0371;0,0394929
1294,0013;0,0394849
1294,9656;0,0395337
1295,9298;0,0396445
1296,8940;0,0398165
1297,8583;0,0400438
1298,8225;0,040319
1299,7867;0,0406363
1300,7510;0,0409928
1301,7152;0,0413876
1302,6794;0,0418196
1303,6437;0,0422862
1304,6079;0,0427832
1305,5721;0,0433047
1306,5364;0,0438435
1307,5006;0,0443925
1308,4648;0,0449452
1309,4291;0,0454952
1310,3933;0,0460346
1311,3575;0,0465508
1312,3218;0,047026
1313,2860;0,0474394
1314,2502;0,0477716
1315,2145;0,0480076
1316,1787;0,0481385
1317,1429;0,048161
1318,1072;0,0480801
1319,0714;0,0479124
1320,0356;0,0476861
1320,9999;0,0474343
1321,9641;0,0471856
1322,9283;0,0469573
1323,8926;0,0467561
1324,8568;0,0465829
1325,8210;0,0464374
1326,7853;0,0463214
1327,7495;0,0462368
1328,7137;0,0461823
1329,6780;0,0461495
1330,6422;0,0461226
1331,6064;0,0460819
1332,5707;0,0460104
1333,5349;0,0458987
1334,4991;0,045745
1335,4634;0,0455491
1336,4276;0,0453075
1337,3918;0,0450118
1338,3561;0,0446562
1339,3203;0,0442516
1340,2845;0,0438301
1341,2488;0,0434316
1342,2130;0,0430833
1343,1772;0,0427927
1344,1415;0,0425567
1345,1057;0,0423725
1346,0699;0,0422434
1347,0342;0,0421772
1347,9984;0,0421818
1348,9626;0,0422595
1349,9269;0,0424041
1350,8911;0,0426015
1351,8553;0,0428354
1352,8196;0,0430927
1353,7838;0,0433676
1354,7480;0,0436608
1355,7123;0,0439757
1356,6765;0,044314
1357,6407;0,0446742
1358,6050;0,0450539
1359,5692;0,0454499
1360,5334;0,0458531
1361,4977;0,0462434
1362,4619;0,0465956
1363,4261;0,046899
1364,3904;0,0471653
1365,3546;0,0474142
1366,3188;0,0476559
1367,2831;0,0478833
1368,2473;0,0480761
1369,2115;0,0482105
1370,1758;0,0482693
1371,1400;0,0482446
1372,1042;0,0481338
1373,0685;0,0479352
1374,0327;0,0476502
1374,9969;0,0472895
1375,9612;0,0468698
1376,9254;0,0463985
1377,8896;0,0458671
1378,8539;0,0452634
1379,8181;0,0445936
1380,7823;0,0438923
1381,7466;0,0432091
1382,7108;0,0425787
1383,6750;0,0420024
1384,6393;0,0414538
1385,6035;0,0409044
1386,5677;0,0403532
1387,5320;0,0398411
1388,4962;0,0394249
1389,4604;0,0391323
1390,4247;0,0389472
1391,3889;0,0388343
1392,3531;0,0387649
1393,3174;0,0387254
1394,2816;0,0387109
1395,2458;0,0387182
1396,2101;0,0387447
1397,1743;0,038792
1398,1385;0,0388669
1399,1028;0,0389777
1400,0670;0,0391279
1401,0313;0,0393139
1401,9955;0,0395269
1402,9597;0,0397583
1403,9240;0,0400026
1404,8882;0,0402583
1405,8524;0,0405277
1406,8167;0,0408163
1407,7809;0,0411304
1408,7451;0,0414757
1409,7094;0,0418549
1410,6736;0,0422645
1411,6378;0,0426916
1412,6021;0,0431158
1413,5663;0,0435201
1414,5305;0,043899
1415,4948;0,0442614
1416,4590;0,044621
1417,4232;0,0449765
1418,3875;0,0452996
1419,3517;0,0455568
1420,3159;0,0457394
1421,2802;0,0458513
1422,2444;0,0458837
1423,2086;0,0458205
1424,1729;0,0456581
1425,1371;0,0454119
1426,1013;0,0451033
1427,0656;0,0447401
1428,0298;0,0443119
1428,9940;0,0438099
1429,9583;0,0432527
1430,9225;0,0426871
1431,8867;0,0421524
1432,8510;0,0416484
1433,8152;0,0411389
1434,7794;0,0405854
1435,7437;0,0399906
1436,7079;0,0394302
1437,6721;0,0390163
1438,6364;0,0388024
1439,6006;0,0387518
1440,5648;0,038794
1441,5291;0,0388806
1442,4933;0,0389979
1443,4575;0,0391531
1444,4218;0,0393549
1445,3860;0,0396017
1446,3502;0,0398798
1447,3145;0,0401692
1448,2787;0,0404504
1449,2429;0,0407108
1450,2072;0,0409431
1451,1714;0,0411394
1452,1356;0,0412893
1453,0999;0,0413861
1454,0641;0,041433
1455,0283;0,0414329
1455,9926;0,0413589
1456,9568;0,041167
1457,9210;0,0409123
1458,8853;0,0407336
1459,8495;0,0406686
1460,8137;0,0406401
1461,7780;0,0405499
1462,7422;0,040318
1463,7064;0,0398914
1464,6707;0,0392741
1465,6349;0,0385534
1466,5991;0,0378436
1467,5634;0,0371871
1468,5276;0,0365372
1469,4918;0,0358056
1470,4561;0,0349047
1471,4203;0,0337793
1472,3845;0,0324651
1473,3488;0,0311381
1474,3130;0,0300148
1475,2772;0,0291778
1476,2415;0,0285665
1477,2057;0,0280877
1478,1699;0,0276788
1479,1342;0,0273113
1480,0984;0,026976
1481,0626;0,026675
1482,0269;0,0264183
1482,9911;0,026218
1483,9553;0,02608
1484,9196;0,025999
1485,8838;0,0259618
1486,8480;0,0259537
1487,8123;0,0259619
1488,7765;0,0259848
1489,7407;0,0260477
1490,7050;0,0261897
1491,6692;0,0264226
1492,6334;0,0267235
1493,5977;0,0270661
1494,5619;0,0274435
1495,5261;0,0278659
1496,4904;0,0283401
1497,4546;0,028852
1498,4188;0,0293765
1499,3831;0,0298927
1500,3473;0,0303768
1501,3115;0,0307963
1502,2758;0,0311249
1503,2400;0,0313603
1504,2042;0,031531
1505,1685;0,0316712
1506,1327;0,0317438
1507,0969;0,03163
1508,0612;0,031351
1509,0254;0,0310873
1509,9896;0,0309133
1510,9539;0,0307842
1511,9181;0,0306433
1512,8823;0,030457
1513,8466;0,0302093
1514,8108;0,0298931
1515,7750;0,0295113
1516,7393;0,0290806
1517,7035;0,0286236
1518,6677;0,0281571
1519,6320;0,0276931
1520,5962;0,0272541
1521,5604;0,0268823
1522,5247;0,0266181
1523,4889;0,0264673
1524,4531;0,0263996
1525,4174;0,0263789
1526,3816;0,0263885
1527,3458;0,0264303
1528,3101;0,026507
1529,2743;0,0266113
1530,2385;0,0267318
1531,2028;0,0268643
1532,1670;0,0270134
1533,1312;0,0271846
1534,0955;0,0273761
1535,0597;0,0275747
1536,0239;0,0277609
1536,9882;0,0279258
1537,9524;0,028086
1538,9166;0,0282701
1539,8809;0,0284582
1540,8451;0,0285635
1541,8093;0,0285766
1542,7736;0,0285952
1543,7378;0,0286659
1544,7020;0,0287692
1545,6663;0,0288824
1546,6305;0,0289968
1547,5947;0,0291071
1548,5590;0,0292015
1549,5232;0,0292671
1550,4874;0,0293002
1551,4517;0,0293139
1552,4159;0,029329
1553,3801;0,0293554
1554,3444;0,0293819
1555,3086;0,0293861
1556,2728;0,0293456
1557,2371;0,0292346
1558,2013;0,0290393
1559,1655;0,0288748
1560,1298;0,0289456
1561,0940;0,0292724
1562,0582;0,0297209
1563,0225;0,0301723
1563,9867;0,0305698
1564,9509;0,0309008
1565,9152;0,0311779
1566,8794;0,0314295
1567,8436;0,031691
1568,8079;0,0319897
1569,7721;0,0323296
1570,7363;0,0326908
1571,7006;0,0330472
1572,6648;0,0333891
1573,6290;0,0337379
1574,5933;0,0341378
1575,5575;0,0346154
1576,5217;0,0351398
1577,4860;0,0356502
1578,4502;0,0361211
1579,4144;0,0365626
1580,3787;0,0369917
1581,3429;0,0374216
1582,3071;0,0378608
1583,2714;0,0383122
1584,2356;0,0387744
1585,1998;0,0392455
1586,1641;0,0397213
1587,1283;0,0401904
1588,0925;0,0406318
1589,0568;0,0410206
1590,0210;0,0413366
1590,9852;0,0415682
1591,9495;0,0417091
1592,9137;0,0417534
1593,8779;0,0416969
1594,8422;0,0415445
1595,8064;0,041314
1596,7706;0,0410319
1597,7349;0,0407231
1598,6991;0,0404043
1599,6633;0,0400851
1600,6276;0,0397716
1601,5918;0,0394705
1602,5560;0,0391903
1603,5203;0,0389382
1604,4845;0,0387161
1605,4487;0,038518
1606,4130;0,0383322
1607,3772;0,0381486
1608,3414;0,0379676
1609,3057;0,0378033
1610,2699;0,0376741
1611,2341;0,037586
1612,1984;0,0375269
1613,1626;0,037478
1614,1268;0,037428
1615,0911;0,0373792
1616,0553;0,037347
1617,0195;0,0373578
1617,9838;0,0374334
1618,9480;0,0375654
1619,9122;0,0377212
1620,8765;0,0378718
1621,8407;0,0380049
1622,8049;0,0381208
1623,7692;0,0382249
1624,7334;0,0383248
1625,6976;0,0384275
1626,6619;0,0385351
1627,6261;0,0386458
1628,5903;0,0387566
1629,5546;0,0388626
1630,5188;0,0389556
1631,4830;0,0390284
1632,4473;0,0390835
1633,4115;0,0391373
1634,3757;0,0392039
1635,3400;0,03927
1636,3042;0,0393167
1637,2684;0,0393662
1638,2327;0,039446
1639,1969;0,039546
1640,1611;0,0396372
1641,1254;0,0396988
1642,0896;0,0397255
1643,0538;0,0397251
1644,0181;0,0397121
1644,9823;0,0396934
1645,9465;0,039658
1646,9108;0,0395968
1647,8750;0,0395249
1648,8392;0,0394492
1649,8035;0,0393457
1650,7677;0,0391805
1651,7319;0,0389204
1652,6962;0,0385346
1653,6604;0,0380866
1654,6246;0,0377656
1655,5889;0,0376404
1656,5531;0,0376033
1657,5173;0,0375349
1658,4816;0,0373734
1659,4458;0,0370987
1660,4100;0,036709
1661,3743;0,0362188
1662,3385;0,0356788
1663,3027;0,0351694
1664,2670;0,0347446
1665,2312;0,0343947
1666,1954;0,0340631
1667,1597;0,033681
1668,1239;0,0331961
1669,0881;0,0326095
1670,0524;0,0319959
1671,0166;0,0314488
1671,9808;0,0309898
1672,9451;0,0305639
1673,9093;0,0301077
1674,8735;0,0296113
1675,8378;0,029134
1676,8020;0,0287563
1677,7662;0,0285058
1678,7305;0,0283377
1679,6947;0,0281721
1680,6589;0,0279276
1681,6232;0,0275291
1682,5874;0,0269202
1683,5516;0,026142
1684,5159;0,0254036
1685,4801;0,0249133
1686,4443;0,024672
1687,4086;0,0245478
1688,3728;0,0244277
1689,3370;0,0242676
1690,3013;0,024075
1691,2655;0,0238762
1692,2297;0,0236902
1693,1940;0,0235202
1694,1582;0,0233565
1695,1224;0,0231825
1696,0867;0,0229802
1697,0509;0,022738
1698,0151;0,0224657
1698,9794;0,0222088
1699,9436;0,022043
1700,9078;0,0220296
1701,8721;0,0221705
1702,8363;0,0224128
1703,8005;0,022689
1704,7648;0,0229509
1705,7290;0,0231822
1706,6932;0,0233975
1707,6575;0,023627
1708,6217;0,023895
1709,5859;0,0242054
1710,5502;0,0245451
1711,5144;0,0248939
1712,4786;0,0252334
1713,4429;0,0255524
1714,4071;0,0258498
1715,3713;0,0261318
1716,3356;0,0264075
1717,2998;0,0266969
1718,2640;0,0270373
1719,2283;0,0274531
1720,1925;0,0279325
1721,1567;0,0284435
1722,1210;0,0289563
1723,0852;0,0294506
1724,0494;0,0299157
1725,0137;0,0303526
1725,9779;0,0307724
1726,9421;0,031187
1727,9064;0,0315963
1728,8706;0,031984
1729,8348;0,0323238
1730,7991;0,0325893
1731,7633;0,0327592
1732,7275;0,0328244
1733,6918;0,0328087
1734,6560;0,0327717
1735,6202;0,0327539
1736,5845;0,0327329
1737,5487;0,0326498
1738,5129;0,0324536
1739,4772;0,0321261
1740,4414;0,0316857
1741,4056;0,0311742
1742,3699;0,0306281
1743,3341;0,0300582
1744,2983;0,0294555
1745,2626;0,0288053
1746,2268;0,0280876
1747,1910;0,0272646
1748,1553;0,026285
1749,1195;0,0251358
1750,0837;0,0239095
1751,0480;0,022775
1752,0122;0,0218502
1752,9764;0,0211292
1753,9407;0,0205245
1754,9049;0,0199447
1755,8691;0,0193439
1756,8334;0,0187308
1757,7976;0,0181415
1758,7618;0,0175985
1759,7261;0,0170922
1760,6903;0,0166007
1761,6545;0,0161247
1762,6188;0,015697
1763,5830;0,0153539
1764,5472;0,015102
1765,5115;0,0149153
1766,4757;0,014756
1767,4399;0,014594
1768,4042;0,0144111
1769,3684;0,0141945
1770,3326;0,0139318
1771,2969;0,0136245
1772,2611;0,0133115
1773,2253;0,0130646
1774,1896;0,0129359
1775,1538;0,0129191
1776,1180;0,0129644
1777,0823;0,0130165
1778,0465;0,0130377
1779,0107;0,0130148
1779,9750;0,012954
1780,9392;0,0128705
1781,9034;0,0127777
1782,8677;0,0126845
1783,8319;0,0126016
1784,7961;0,0125464
1785,7604;0,0125357
1786,7246;0,0125725
1787,6888;0,0126398
1788,6531;0,0127059
1789,6173;0,0127358
1790,5815;0,0127022
1791,5458;0,0126017
1792,5100;0,0124719
1793,4742;0,0123748
1794,4385;0,0123469
1795,4027;0,0123761
1796,3669;0,0124247
1797,3312;0,0124588
1798,2954;0,0124601
1799,2596;0,0124252
1800,2239;0,0123625
1801,1881;0,0122883
1802,1523;0,0122218
1803,1166;0,0121788
1804,0808;0,0121676
1805,0450;0,0121879
1806,0093;0,0122315
1806,9735;0,0122819
1807,9377;0,0123175
1808,9020;0,0123188
1809,8662;0,0122795
1810,8304;0,0122135
1811,7947;0,0121475
1812,7589;0,0121028
1813,7231;0,0120834
1814,6874;0,0120784
1815,6516;0,0120749
1816,6158;0,0120684
1817,5801;0,0120664
1818,5443;0,0120812
1819,5085;0,0121175
1820,4728;0,0121657
1821,4370;0,0122065
1822,4012;0,0122223
1823,3655;0,0122089
1824,3297;0,0121781
1825,2939;0,012149
1826,2582;0,0121317
1827,2224;0,0121184
1828,1866;0,0120913
1829,1509;0,012041
1830,1151;0,011982
1831,0793;0,0119456
1832,0436;0,0119524
1833,0078;0,0119939
1833,9720;0,01204
1834,9363;0,0120616
1835,9005;0,0120481
1836,8647;0,0120137
1837,8290;0,0119863
1838,7932;0,0119857
1839,7574;0,0120085
1840,7217;0,012033
1841,6859;0,0120341
1842,6501;0,0119992
1843,6144;0,0119381
1844,5786;0,0118836
1845,5428;0,0118705
1846,5071;0,011906
1847,4713;0,0119658
1848,4355;0,0120155
1849,3998;0,0120315
1850,3640;0,0120085
1851,3282;0,0119568
1852,2925;0,0118947
1853,2567;0,0118402
1854,2209;0,0118076
1855,1852;0,0118056
1856,1494;0,0118358
1857,1136;0,0118911
1858,0779;0,0119554
1859,0421;0,0120085
1860,0063;0,012035
1860,9706;0,0120322
1861,9348;0,0120112
1862,8990;0,0119895
1863,8633;0,0119815
1864,8275;0,0119926
1865,7917;0,0120177
1866,7560;0,0120421
1867,7202;0,0120457
1868,6844;0,0120164
1869,6487;0,0119632
1870,6129;0,0119104
1871,5771;0,0118771
1872,5414;0,0118686
1873,5056;0,0118812
1874,4698;0,011908
1875,4341;0,0119402
1876,3983;0,0119676
1877,3625;0,011981
1878,3268;0,0119764
1879,2910;0,0119576
1880,2552;0,0119349
1881,2195;0,0119204
1882,1837;0,0119227
1883,1479;0,0119426
1884,1122;0,0119726
1885,0764;0,012001
1886,0406;0,0120167
1887,0049;0,0120137
1887,9691;0,0119934
1888,9333;0,011964
1889,8976;0,0119382
1890,8618;0,0119269
1891,8260;0,0119335
1892,7903;0,0119529
1893,7545;0,0119754
1894,7188;0,0119917
1895,6830;0,0119976
1896,6472;0,0119955
1897,6115;0,0119912
1898,5757;0,0119885
1899,5399;0,0119866
1900,5042;0,0119811
1901,4684;0,0119691
1902,4326;0,0119537
1903,3969;0,0119432
1904,3611;0,0119457
1905,3253;0,0119624
1906,2896;0,0119849
1907,2538;0,0120001
1908,2180;0,0119994
1909,1823;0,0119865
1910,1465;0,0119771
1911,1107;0,0119885
1912,0750;0,0120281
1913,0392;0,0120897
1914,0034;0,0121591
1914,9677;0,0122215
1915,9319;0,0122642
1916,8961;0,0122765
1917,8604;0,0122494
1918,8246;0,01218
1919,7888;0,0120773
1920,7531;0,0119644
1921,7173;0,0118756
1922,6815;0,0118448
1923,6458;0,0118872
1924,6100;0,011985
1925,5742;0,0120927
1926,5385;0,01216
1927,5027;0,0121592
1928,4669;0,0120976
1929,4312;0,0120125
1930,3954;0,0119504
1931,3596;0,0119416
1932,3239;0,0119843
1933,2881;0,0120487
1934,2523;0,0120979
1935,2166;0,0121098
1936,1808;0,0120869
1937,1450;0,0120495
1938,1093;0,0120207
1939,0735;0,0120138
1940,0377;0,0120297
1941,0020;0,0120595
1941,9662;0,0120904
1942,9304;0,0121084
1943,8947;0,0120995
1944,8589;0,012052
1945,8231;0,0119609
1946,7874;0,0118354
1947,7516;0,011703
1948,7158;0,0116035
1949,6801;0,0115727
1950,6443;0,0116224
1951,6085;0,0117305
1952,5728;0,0118492
1953,5370;0,0119259
1954,5012;0,0119277
1955,4655;0,011857
1956,4297;0,0117523
1957,3939;0,0116739
1958,3582;0,0116785
1959,3224;0,011791
1960,2866;0,0119853
1961,2509;0,0121893
1962,2151;0,0123164
1963,1793;0,0123085
1964,1436;0,0121637
1965,1078;0,0119362
1966,0720;0,0117072
1967,0363;0,0115421
1968,0005;0,0114599
1968,9647;0,0114372
1969,9290;0,0114424
1970,8932;0,0114692
1971,8574;0,0115431
1972,8217;0,0116977
1973,7859;0,0119413
1974,7501;0,0122348
1975,7144;0,0125016
1976,6786;0,0126657
1977,6428;0,0126946
1978,6071;0,012615
1979,5713;0,0124914
1980,5355;0,0123865
1981,4998;0,0123353
1982,4640;0,012341
1983,4282;0,0123863
1984,3925;0,0124504
1985,3567;0,0125219
1986,3209;0,0126056
1987,2852;0,0127199
1988,2494;0,0128857
1989,2136;0,0131115
1990,1779;0,0133782
1991,1421;0,0136336
1992,1063;0,0138041
1993,0706;0,0138238
1994,0348;0,0136647
1994,9990;0,0133513
1995,9633;0,0129542
1996,9275;0,0125707
1997,8917;0,0122971
1998,8560;0,0121966
1999,8202;0,0122738
2000,7844;0,0124715
2001,7487;0,0126967
2002,7129;0,0128641
2003,6771;0,012936
2004,6414;0,0129367
2005,6056;0,0129331
2006,5698;0,0129845
2007,5341;0,0130938
2008,4983;0,0131962
2009,4625;0,013202
2010,4268;0,0130621
2011,3910;0,0128086
2012,3552;0,0125424
2013,3195;0,0123806
2014,2837;0,0123989
2015,2479;0,0126023
2016,2122;0,0129367
2017,1764;0,0133279
2018,1406;0,0137154
2019,1049;0,0140562
2020,0691;0,0143077
2021,0333;0,0144179
2021,9976;0,0143441
2022,9618;0,014089
2023,9260;0,0137257
2024,8903;0,0133811
2025,8545;0,0131838
2026,8187;0,0132041
2027,7830;0,0134257
2028,7472;0,0137622
2029,7114;0,0141027
2030,6757;0,0143576
2031,6399;0,0144854
2032,6041;0,0144932
2033,5684;0,0144216
2034,5326;0,0143222
2035,4968;0,0142378
2036,4611;0,0141907
2037,4253;0,0141804
2038,3895;0,0141901
2039,3538;0,0141943
2040,3180;0,0141676
2041,2822;0,0140923
2042,2465;0,013966
2043,2107;0,0138071
2044,1749;0,0136535
2045,1392;0,0135533
2046,1034;0,0135462
2047,0676;0,0136423
2048,0320;0,0138108
2048,9961;0,0139916
2049,9604;0,0141248
2050,9246;0,0141774
2051,8889;0,0141511
2052,8530;0,0140736
2053,8174;0,0139819
2054,7815;0,0139052
2055,7458;0,0138565
2056,7100;0,0138318
2057,6743;0,0138194
2058,6384;0,0138108
2059,6028;0,0138054
2060,5669;0,0138084
2061,5313;0,0138234
2062,4954;0,0138467
2063,4597;0,0138691
2064,4238;0,0138829
2065,3882;0,013888
2066,3523;0,0138909
2067,3167;0,0138971
2068,2808;0,0139048
2069,2451;0,0139052
2070,2092;0,0138918
2071,1736;0,0138683
2072,1377;0,013849
2073,1021;0,0138493
2074,0662;0,0138724
2075,0305;0,0139041
2075,9946;0,013921
2076,9590;0,0139055
2077,9231;0,0138589
2078,8875;0,0138008
2079,8516;0,0137578
2080,8159;0,0137469
2081,7800;0,0137662
2082,7444;0,0137971
2083,7085;0,0138156
2084,6729;0,0138062
2085,6370;0,0137713
2086,6013;0,0137301
2087,5654;0,0137088
2088,5298;0,013727
2089,4939;0,0137871
2090,4583;0,0138738
2091,4224;0,0139627
2092,3867;0,0140329
2093,3508;0,0140749
2094,3152;0,0140905
2095,2793;0,0140857
2096,2437;0,0140646
2097,2078;0,0140299
2098,1721;0,0139883
2099,1362;0,0139532
2100,1006;0,01394
2101,0647;0,0139538
2102,0291;0,0139837
2102,9932;0,0140052
2103,9575;0,0139958
2104,9216;0,013951
2105,8860;0,0138896
2106,8501;0,0138429
2107,8145;0,0138353
2108,7786;0,0138692
2109,7429;0,0139249
2110,7070;0,0139743
2111,6714;0,0139977
2112,6355;0,0139934
2113,5999;0,0139744
2114,5640;0,0139568
2115,5283;0,0139495
2116,4924;0,0139515
2117,4568;0,0139574
2118,4209;0,0139644
2119,3853;0,0139762
2120,3494;0,0139992
2121,3137;0,0140352
2122,2778;0,0140756
2123,2422;0,0141039
2124,2063;0,0141044
2125,1707;0,0140727
2126,1348;0,0140201
2127,0991;0,0139691
2128,0632;0,0139421
2129,0276;0,0139505
2129,9917;0,0139912
2130,9561;0,0140514
2131,9202;0,0141167
2132,8845;0,0141777
2133,8486;0,0142305
2134,8130;0,014273
2135,7771;0,0143025
2136,7415;0,0143155
2137,7056;0,0143109
2138,6699;0,0142922
2139,6340;0,0142677
2140,5984;0,0142504
2141,5625;0,0142574
2142,5269;0,0143073
2143,4910;0,0144132
2144,4553;0,0145705
2145,4194;0,0147491
2146,3838;0,0148979
2147,3479;0,0149675
2148,3123;0,0149402
2149,2764;0,0148458
2150,2407;0,0147519
2151,2048;0,014728
2152,1692;0,0148072
2153,1333;0,0149688
2154,0977;0,0151525
2155,0618;0,0152969
2156,0261;0,0153775
2156,9902;0,0154199
2157,9546;0,015474
2158,9187;0,015563
2159,8831;0,0156515
2160,8472;0,0156709
2161,8115;0,015576
2162,7756;0,0153807
2163,7400;0,0151509
2164,7041;0,014968
2165,6685;0,0148876
2166,6326;0,0149157
2167,5969;0,0150148
2168,5610;0,0151315
2169,5254;0,0152247
2170,4895;0,015277
2171,4539;0,0152861
2172,4180;0,0152503
2173,3823;0,0151638
2174,3464;0,0150268
2175,3108;0,0148602
2176,2749;0,0147091
2177,2393;0,0146231
2178,2034;0,0146256
2179,1677;0,0146925
2180,1318;0,0147604
2181,0962;0,0147609
2182,0603;0,0146636
2183,0247;0,0144967
2183,9888;0,0143304
2184,9531;0,0142332
2185,9172;0,0142351
2186,8816;0,0143192
2187,8457;0,0144422
2188,8101;0,0145629
2189,7742;0,0146588
2190,7385;0,0147223
2191,7026;0,0147466
2192,6670;0,0147183
2193,6311;0,0146258
2194,5955;0,0144758
2195,5596;0,0143043
2196,5239;0,0141675
2197,4880;0,0141165
2198,4524;0,0141698
2199,4165;0,0143016
2200,3809;0,0144539
2201,3450;0,0145655
2202,3093;0,0146013
2203,2734;0,0145669
2204,2378;0,0145013
2205,2019;0,0144538
2206,1663;0,0144569
2207,1304;0,0145096
2208,0947;0,0145781
2209,0588;0,0146143
2210,0232;0,0145821
2210,9873;0,0144786
2211,9517;0,0143383
2212,9158;0,0142162
2213,8801;0,01416
2214,8442;0,0141841
2215,8086;0,0142637
2216,7727;0,0143493
2217,7371;0,014395
2218,7012;0,0143824
2219,6655;0,0143271
2220,6296;0,0142653
2221,5940;0,0142297
2222,5581;0,0142312
2223,5225;0,0142552
2224,4866;0,0142745
2225,4509;0,0142689
2226,4150;0,0142391
2227,3794;0,0142066
2228,3435;0,0141988
2229,3079;0,0142305
2230,2720;0,0142925
2231,2363;0,0143548
2232,2004;0,0143839
2233,1648;0,0143622
2234,1289;0,0142977
2235,0933;0,0142179
2236,0574;0,0141526
2237,0217;0,0141183
2237,9858;0,0141118
2238,9502;0,0141187
2239,9143;0,0141253
2240,8787;0,0141273
2241,8428;0,0141273
2242,8071;0,0141275
2243,7712;0,014123
2244,7356;0,0141043
2245,6997;0,014066
2246,6641;0,0140139
2247,6282;0,0139652
2248,5925;0,0139385
2249,5566;0,013942
2250,5210;0,0139673
2251,4851;0,0139938
2252,4495;0,0140012
2253,4136;0,0139806
2254,3779;0,0139385
2255,3420;0,0138898
2256,3064;0,0138467
2257,2705;0,0138113
2258,2349;0,0137764
2259,1990;0,0137336
2260,1633;0,0136819
2261,1274;0,013631
2262,0918;0,0135966
2263,0559;0,013591
2264,0203;0,0136155
2264,9844;0,0136581
2265,9487;0,0136987
2266,9128;0,0137169
2267,8772;0,0136999
2268,8413;0,013647
2269,8057;0,0135692
2270,7698;0,0134856
2271,7341;0,013418
2272,6982;0,0133831
2273,6626;0,0133863
2274,6267;0,0134194
2275,5911;0,0134635
2276,5552;0,0134973
2277,5195;0,0135077
2278,4836;0,0134957
2279,4480;0,0134755
2280,4121;0,013467
2281,3765;0,0134849
2282,3406;0,0135309
2283,3049;0,0135929
2284,2690;0,0136505
2285,2334;0,0136847
2286,1975;0,0136864
2287,1619;0,0136603
2288,1260;0,0136221
2289,0903;0,0135906
2290,0544;0,0135785
2291,0188;0,0135874
2291,9829;0,0136085
2292,9473;0,0136281
2293,9114;0,0136357
2294,8757;0,0136284
2295,8398;0,0136116
2296,8042;0,0135952
2297,7683;0,0135893
2298,7327;0,0136002
2299,6968;0,0136295
2300,6611;0,0136751
2301,6252;0,0137323
2302,5896;0,0137961
2303,5537;0,013862
2304,5181;0,0139268
2305,4822;0,0139879
2306,4465;0,0140428
2307,4106;0,0140891
2308,3750;0,0141252
2309,3391;0,0141522
2310,3035;0,0141754
2311,2676;0,0142026
2312,2319;0,0142411
2313,1960;0,0142934
2314,1604;0,0143569
2315,1245;0,0144264
2316,0889;0,0144976
2317,0530;0,0145676
2318,0173;0,014632
2318,9814;0,0146806
2319,9458;0,0146961
2320,9099;0,0146596
2321,8743;0,0145615
2322,8384;0,0144103
2323,8027;0,0142304
2324,7668;0,0140521
2325,7312;0,0138991
2326,6953;0,0137834
2327,6597;0,013706
2328,6238;0,0136618
2329,5881;0,0136437
2330,5522;0,0136423
2331,5166;0,0136439
2332,4807;0,013631
2333,4451;0,0135879
2334,4092;0,0135058
2335,3735;0,0133855
2336,3376;0,0132385
2337,3020;0,0130844
2338,2661;0,012945
2339,2305;0,0128358
2340,1946;0,0127614
2341,1589;0,0127214
2342,1230;0,0127203
2343,0874;0,0127672
2344,0515;0,0128546
2345,0159;0,0129476
2345,9800;0,0130152
2346,9443;0,013063
2347,9084;0,0131257
2348,8728;0,0132351
2349,8369;0,013397
2350,8013;0,0135862
2351,7654;0,0137563
2352,7297;0,0138612
2353,6938;0,0138759
2354,6582;0,0137994
2355,6223;0,0136431
2356,5867;0,0134291
2357,5508;0,0132
2358,5151;0,0130132
2359,4792;0,0129096
2360,4436;0,0128825
2361,4077;0,012886
2362,3721;0,0128781
2363,3362;0,0128564
2364,3005;0,0128573
2365,2646;0,0129243
2366,2290;0,0130743
2367,1931;0,0132866
2368,1575;0,0135165
2369,1216;0,0137181
2370,0859;0,0138629
2371,0500;0,0139453
2372,0144;0,0139771
2372,9785;0,0139771
2373,9429;0,0139614
2374,9070;0,0139395
2375,8713;0,0139149
2376,8354;0,0138886
2377,7998;0,0138615
2378,7639;0,0138358
2379,7283;0,0138141
2380,6924;0,0137983
2381,6567;0,0137891
2382,6208;0,0137857
2383,5852;0,0137868
2384,5493;0,0137915
2385,5137;0,0137997
2386,4778;0,0138126
2387,4421;0,0138318
2388,4063;0,0138572
2389,3706;0,013886
2390,3347;0,0139123
2391,2991;0,0139294
2392,2632;0,0139334
2393,2275;0,0139268
2394,1917;0,0139179
2395,1560;0,013917
2396,1201;0,0139303
2397,0845;0,013956
2398,0486;0,013985
2399,0129;0,0140066
2399,9771;0,0140155
2400,9414;0,0140148
2401,9055;0,0140137
2402,8699;0,0140221
2403,8340;0,014045
2404,7983;0,0140803
2405,7625;0,0141207
2406,7268;0,014157
2407,6909;0,0141815
2408,6553;0,0141897
2409,6194;0,0141818
2410,5837;0,0141629
2411,5479;0,0141428
2412,5122;0,0141325
2413,4763;0,0141411
2414,4407;0,0141708
2415,4048;0,0142169
2416,3691;0,0142698
2417,3333;0,0143199
2418,2976;0,0143617
2419,2617;0,0143935
2420,2261;0,0144157
2421,1902;0,014428
2422,1545;0,0144292
2423,1187;0,0144189
2424,0830;0,0144004
2425,0471;0,0143823
2426,0115;0,0143756
2426,9756;0,0143904
2427,9399;0,0144307
2428,9041;0,0144919
2429,8684;0,0145616
2430,8325;0,0146237
2431,7969;0,0146642
2432,7610;0,0146761
2433,7253;0,0146625
2434,6895;0,0146345
2435,6538;0,0146076
2436,6179;0,014595
2437,5823;0,0146028
2438,5464;0,0146287
2439,5107;0,0146635
2440,4749;0,0146959
2441,4392;0,0147181
2442,4033;0,014729
2443,3677;0,0147338
2444,3318;0,0147411
2445,2961;0,0147573
2446,2603;0,014784
2447,2246;0,0148166
2448,1887;0,0148475
2449,1531;0,0148705
2450,1172;0,0148838
2451,0815;0,0148908
2452,0457;0,0148978
2453,0100;0,0149104
2453,9741;0,0149304
2454,9385;0,0149545
2455,9026;0,0149761
2456,8669;0,0149884
2457,8311;0,0149875
2458,7954;0,0149754
2459,7595;0,0149598
2460,7239;0,0149518
2461,6880;0,014961
2462,6523;0,0149907
2463,6165;0,0150363
2464,5808;0,0150869
2465,5449;0,0151303
2466,5093;0,0151591
2467,4734;0,0151725
2468,4377;0,0151755
2469,4019;0,0151744
2470,3662;0,0151723
2471,3303;0,0151688
2472,2947;0,0151626
2473,2588;0,0151552
2474,2231;0,0151521
2475,1873;0,0151606
2476,1516;0,0151853
2477,1157;0,0152239
2478,0801;0,015268
2479,0442;0,015307
2480,0085;0,0153336
2480,9727;0,0153468
2481,9370;0,0153511
2482,9011;0,0153533
2483,8655;0,0153588
2484,8296;0,0153693
2485,7939;0,0153844
2486,7581;0,0154024
2487,7224;0,0154218
2488,6865;0,0154413
2489,6509;0,0154588
2490,6150;0,0154713
2491,5793;0,0154766
2492,5435;0,0154746
2493,5078;0,015469
2494,4719;0,0154667
2495,4363;0,0154749
2496,4004;0,0154978
2497,3647;0,0155337
2498,3289;0,0155764
2499,2932;0,0156175
2500,2573;0,015651
2501,2217;0,0156745
2502,1858;0,0156886
2503,1501;0,0156949
2504,1143;0,0156937
2505,0786;0,0156859
2506,0427;0,0156747
2507,0071;0,0156668
2507,9712;0,0156702
2508,9355;0,0156895
2509,8997;0,0157228
2510,8640;0,0157615
2511,8281;0,015795
2512,7925;0,0158163
2513,7566;0,015825
2514,7209;0,0158261
2515,6851;0,0158264
2516,6494;0,0158294
2517,6135;0,0158342
2518,5779;0,0158369
2519,5420;0,0158339
2520,5063;0,0158247
2521,4705;0,0158132
2522,4348;0,015805
2523,3989;0,0158054
2524,3633;0,0158157
2525,3274;0,0158333
2526,2917;0,0158531
2527,2559;0,0158711
2528,2202;0,0158864
2529,1843;0,0159008
2530,1487;0,0159157
2531,1128;0,0159299
2532,0771;0,0159403
2533,0413;0,015945
2534,0056;0,0159466
2534,9697;0,0159523
2535,9341;0,0159699
2536,8982;0,0160019
2537,8625;0,0160425
2538,8267;0,0160803
2539,7910;0,0161043
2540,7551;0,0161105
2541,7195;0,0161025
2542,6836;0,0160893
2543,6479;0,0160791
2544,6121;0,0160759
2545,5764;0,0160796
2546,5405;0,016088
2547,5049;0,0160998
2548,4690;0,0161147
2549,4333;0,0161324
2550,3975;0,0161513
2551,3618;0,0161681
2552,3259;0,01618
2553,2903;0,0161861
2554,2544;0,0161885
2555,2188;0,0161918
2556,1829;0,0162001
2557,1472;0,0162148
2558,1113;0,016233
2559,0757;0,0162483
2560,0398;0,0162536
2561,0042;0,0162452
2561,9683;0,0162259
2562,9326;0,0162051
2563,8967;0,0161952
2564,8611;0,0162054
2565,8252;0,0162369
2566,7896;0,016281
2567,7537;0,0163235
2568,7180;0,0163511
2569,6821;0,0163586
2570,6465;0,0163502
2571,6106;0,0163361
2572,5750;0,0163262
2573,5391;0,0163244
2574,5034;0,0163292
2575,4675;0,0163362
2576,4319;0,0163434
2577,3960;0,0163525
2578,3604;0,0163667
2579,3245;0,0163872
2580,2888;0,01641
2581,2529;0,0164276
2582,2173;0,0164332
2583,1814;0,0164247
2584,1458;0,0164075
2585,1099;0,0163925
2586,0742;0,0163915
2587,0383;0,016412
2588,0027;0,0164532
2588,9668;0,0165063
2589,9312;0,016558
2590,8953;0,0165966
2591,8596;0,0166168
2592,8237;0,0166216
2593,7881;0,0166193
2594,7522;0,0166186
2595,7166;0,016624
2596,6807;0,0166349
2597,6450;0,0166478
2598,6091;0,0166604
2599,5735;0,0166739
2600,5376;0,0166914
2601,5020;0,0167155
2602,4661;0,0167457
2603,4304;0,0167781
2604,3945;0,0168078
2605,3589;0,0168312
2606,3230;0,0168475
2607,2874;0,0168587
2608,2515;0,016868
2609,2158;0,0168782
2610,1799;0,0168909
2611,1443;0,0169065
2612,1084;0,0169241
2613,0728;0,0169423
2614,0369;0,0169594
2615,0012;0,0169749
2615,9653;0,0169901
2616,9297;0,0170077
2617,8938;0,01703
2618,8582;0,0170578
2619,8223;0,0170886
2620,7866;0,017118
2621,7507;0,0171418
2622,7151;0,0171583
2623,6792;0,0171696
2624,6436;0,0171798
2625,6077;0,0171929
2626,5720;0,0172105
2627,5361;0,0172316
2628,5005;0,0172545
2629,4646;0,0172778
2630,4290;0,0173015
2631,3931;0,0173257
2632,3574;0,0173494
2633,3215;0,0173709
2634,2859;0,0173885
2635,2500;0,0174025
2636,2144;0,017416
2637,1785;0,0174332
2638,1428;0,0174568
2639,1069;0,0174861
2640,0713;0,0175172
2641,0354;0,0175453
2641,9998;0,0175674
2642,9639;0,0175836
2643,9282;0,0175971
2644,8923;0,0176118
2645,8567;0,0176301
2646,8208;0,0176522
2647,7852;0,0176761
2648,7493;0,0176993
2649,7136;0,0177198
2650,6777;0,0177371
2651,6421;0,017752
2652,6062;0,0177663
2653,5706;0,0177817
2654,5347;0,0177988
2655,4990;0,017817
2656,4631;0,0178346
2657,4275;0,0178507
2658,3916;0,0178649
2659,3560;0,0178785
2660,3201;0,0178935
2661,2844;0,017911
2662,2485;0,0179314
2663,2129;0,0179536
2664,1770;0,0179764
2665,1414;0,0179985
2666,1055;0,018019
2667,0698;0,0180371
2668,0339;0,0180515
2668,9983;0,0180616
2669,9624;0,018068
2670,9268;0,0180737
2671,8909;0,0180826
2672,8552;0,0180985
2673,8193;0,0181219
2674,7837;0,0181499
2675,7478;0,018177
2676,7122;0,0181984
2677,6763;0,018213
2678,6406;0,0182241
2679,6047;0,0182378
2680,5691;0,0182598
2681,5332;0,0182919
2682,4976;0,0183312
2683,4617;0,0183719
2684,4260;0,018408
2685,3901;0,0184363
2686,3545;0,0184566
2687,3186;0,018472
2688,2830;0,0184862
2689,2471;0,0185025
2690,2114;0,0185226
2691,1755;0,0185465
2692,1399;0,018573
2693,1040;0,0186001
2694,0684;0,0186259
2695,0325;0,0186494
2695,9968;0,0186705
2696,9609;0,0186905
2697,9253;0,0187109
2698,8894;0,0187328
2699,8538;0,0187568
2700,8179;0,0187824
2701,7822;0,0188092
2702,7463;0,0188371
2703,7107;0,0188666
2704,6748;0,0188981
2705,6392;0,0189312
2706,6033;0,018965
2707,5676;0,0189981
2708,5317;0,0190297
2709,4961;0,0190598
2710,4602;0,0190892
2711,4246;0,0191189
2712,3887;0,0191491
2713,3530;0,0191785
2714,3171;0,0192053
2715,2815;0,0192279
2716,2456;0,0192462
2717,2100;0,0192618
2718,1741;0,0192775
2719,1384;0,0192955
2720,1025;0,0193166
2721,0669;0,0193394
2722,0310;0,0193617
2722,9954;0,0193814
2723,9595;0,0193985
2724,9238;0,0194148
2725,8879;0,0194333
2726,8523;0,0194564
2727,8164;0,0194845
2728,7808;0,0195159
2729,7449;0,019547
2730,7092;0,0195742
2731,6733;0,019595
2732,6377;0,0196099
2733,6018;0,0196213
2734,5662;0,0196331
2735,5303;0,0196479
2736,4946;0,019666
2737,4587;0,0196853
2738,4231;0,0197031
2739,3872;0,0197177
2740,3516;0,0197301
2741,3157;0,0197433
2742,2800;0,01976
2743,2441;0,0197807
2744,2085;0,019803
2745,1726;0,0198228
2746,1370;0,0198372
2747,1011;0,0198461
2748,0654;0,0198526
2749,0295;0,0198615
2749,9939;0,0198772
2750,9580;0,019901
2751,9224;0,0199311
2752,8865;0,0199635
2753,8508;0,0199939
2754,8149;0,0200193
2755,7793;0,0200394
2756,7434;0,0200563
2757,7078;0,0200735
2758,6719;0,0200939
2759,6362;0,0201187
2760,6003;0,0201465
2761,5647;0,0201738
2762,5288;0,0201977
2763,4932;0,0202171
2764,4573;0,0202342
2765,4216;0,0202536
2766,3857;0,0202793
2767,3501;0,0203131
2768,3142;0,0203527
2769,2786;0,0203937
2770,2427;0,0204311
2771,2070;0,0204625
2772,1711;0,0204882
2773,1355;0,0205118
2774,0996;0,0205375
2775,0640;0,0205687
2776,0281;0,0206064
2776,9924;0,0206493
2777,9565;0,0206945
2778,9209;0,0207388
2779,8850;0,0207804
2780,8494;0,0208195
2781,8135;0,0208578
2782,7778;0,0208977
2783,7419;0,0209411
2784,7063;0,0209887
2785,6704;0,0210397
2786,6348;0,0210924
2787,5989;0,0211444
2788,5632;0,0211934
2789,5273;0,0212375
2790,4917;0,0212767
2791,4558;0,0213129
2792,4202;0,0213504
2793,3843;0,0213936
2794,3486;0,0214458
2795,3127;0,0215075
2796,2771;0,0215768
2797,2412;0,0216505
2798,2056;0,0217256
2799,1697;0,0218002
2800,1340;0,0218741
2801,0981;0,0219482
2802,0625;0,0220239
2803,0266;0,0221031
2803,9910;0,0221864
2804,9551;0,0222733
2805,9194;0,0223611
2806,8835;0,0224462
2807,8479;0,0225257
2808,8120;0,0226003
2809,7764;0,0226741
2810,7405;0,0227538
2811,7048;0,0228448
2812,6689;0,0229485
2813,6333;0,0230614
2814,5974;0,0231769
2815,5618;0,0232889
2816,5259;0,0233949
2817,4902;0,023497
2818,4543;0,0236007
2819,4187;0,0237121
2820,3828;0,0238345
2821,3472;0,023968
2822,3113;0,02411
2823,2756;0,0242573
2824,2397;0,0244085
2825,2041;0,0245642
2826,1682;0,0247268
2827,1326;0,0248986
2828,0967;0,025081
2829,0610;0,0252747
2830,0251;0,0254806
2830,9895;0,0256995
2831,9536;0,0259326
2832,9180;0,0261799
2833,8821;0,0264399
2834,8464;0,0267112
2835,8105;0,026994
2836,7749;0,0272922
2837,7390;0,0276136
2838,7034;0,027968
2839,6675;0,0283654
2840,6318;0,0288141
2841,5959;0,0293204
2842,5603;0,0298876
2843,5244;0,0305138
2844,4888;0,0311875
2845,4529;0,0318841
2846,4172;0,0325653
2847,3813;0,0331846
2848,3457;0,0336978
2849,3098;0,0340735
2850,2742;0,0343005
2851,2383;0,0343874
2852,2026;0,0343558
2853,1667;0,0342327
2854,1311;0,0340433
2855,0952;0,0338101
2856,0596;0,0335531
2857,0237;0,0332916
2857,9880;0,0330433
2858,9521;0,0328228
2859,9165;0,0326387
2860,8806;0,0324942
2861,8450;0,0323884
2862,8091;0,0323197
2863,7734;0,0322867
2864,7375;0,0322885
2865,7019;0,0323225
2866,6660;0,0323825
2867,6304;0,0324588
2868,5945;0,0325396
2869,5588;0,0326139
2870,5229;0,0326734
2871,4873;0,0327137
2872,4514;0,0327353
2873,4158;0,0327422
2874,3799;0,0327418
2875,3442;0,0327427
2876,3083;0,0327525
2877,2727;0,0327757
2878,2368;0,0328134
2879,2012;0,0328637
2880,1653;0,032924
2881,1296;0,0329921
2882,0938;0,0330677
2883,0581;0,0331516
2884,0222;0,0332456
2884,9866;0,0333513
2885,9507;0,0334703
2886,9150;0,033603
2887,8792;0,0337479
2888,8435;0,0339015
2889,8076;0,0340585
2890,7720;0,0342139
2891,7361;0,0343647
2892,7004;0,0345116
2893,6646;0,0346576
2894,6289;0,0348061
2895,5930;0,0349586
2896,5574;0,0351139
2897,5215;0,0352689
2898,4858;0,0354209
2899,4500;0,0355685
2900,4143;0,0357129
2901,3784;0,0358567
2902,3428;0,0360034
2903,3069;0,0361571
2904,2712;0,0363221
2905,2354;0,0365029
2906,1997;0,0367049
2907,1638;0,036934
2908,1282;0,0371971
2909,0923;0,0375004
2910,0566;0,0378483
2911,0208;0,0382405
2911,9851;0,0386691
2912,9492;0,039118
2913,9136;0,039563
2914,8777;0,0399757
2915,8420;0,0403286
2916,8062;0,0405999
2917,7705;0,0407775
2918,7346;0,0408598
2919,6990;0,0408537
2920,6631;0,0407706
2921,6274;0,0406224
2922,5916;0,0404183
2923,5559;0,0401643
2924,5200;0,0398647
2925,4844;0,0395253
2926,4485;0,0391543
2927,4128;0,0387626
2928,3770;0,0383614
2929,3413;0,037959
2930,3054;0,0375586
2931,2698;0,037158
2932,2339;0,0367525
2933,1982;0,0363386
2934,1624;0,0359168
2935,1267;0,0354923
2936,0908;0,0350736
2937,0552;0,0346683
2938,0193;0,0342807
2938,9836;0,0339103
2939,9478;0,0335539
2940,9121;0,0332085
2941,8762;0,0328741
2942,8406;0,0325547
2943,8047;0,0322562
2944,7690;0,0319841
2945,7332;0,0317408
2946,6975;0,0315253
2947,6616;0,0313339
2948,6260;0,0311627
2949,5901;0,0310079
2950,5544;0,030866
2951,5186;0,030733
2952,4829;0,0306036
2953,4470;0,0304728
2954,4114;0,0303363
2955,3755;0,0301919
2956,3398;0,0300386
2957,3040;0,0298757
2958,2683;0,0297011
2959,2324;0,0295119
2960,1968;0,029306
2961,1609;0,0290843
2962,1252;0,02885
2963,0894;0,0286077
2964,0537;0,0283613
2965,0178;0,0281127
2965,9822;0,0278627
2966,9463;0,0276127
2967,9106;0,0273651
2968,8748;0,0271231
2969,8391;0,0268883
2970,8032;0,0266602
2971,7676;0,0264367
2972,7317;0,026216
2973,6960;0,025999
2974,6602;0,025789
2975,6245;0,0255901
2976,5886;0,0254059
2977,5530;0,0252375
2978,5171;0,0250847
2979,4814;0,0249464
2980,4456;0,0248214
2981,4099;0,0247076
2982,3740;0,0246018
2983,3384;0,0244997
2984,3025;0,0243974
2985,2668;0,0242936
2986,2310;0,0241906
2987,1953;0,0240937
2988,1594;0,0240086
2989,1238;0,0239391
2990,0879;0,0238859
2991,0522;0,0238466
2992,0164;0,0238172
2992,9807;0,0237941
2993,9448;0,0237745
2994,9092;0,0237575
2995,8733;0,023743
2996,8376;0,023732
2997,8018;0,0237256
2998,7661;0,0237242
2999,7302;0,0237277
3000,6946;0,023735
3001,6587;0,0237448
3002,6230;0,0237563
3003,5872;0,0237694
3004,5515;0,0237844
3005,5156;0,0238013
3006,4800;0,0238192
3007,4441;0,0238365
3008,4084;0,0238513
3009,3726;0,0238627
3010,3369;0,0238705
3011,3010;0,0238759
3012,2654;0,0238802
3013,2295;0,023885
3014,1938;0,0238918
3015,1580;0,0239033
3016,1223;0,0239228
3017,0864;0,0239539
3018,0508;0,0239984
3019,0149;0,0240547
3019,9792;0,0241175
3020,9434;0,0241797
3021,9077;0,0242355
3022,8718;0,0242835
3023,8362;0,0243276
3024,8003;0,024374
3025,7646;0,0244276
3026,7288;0,0244889
3027,6931;0,0245539
3028,6572;0,0246167
3029,6216;0,0246737
3030,5857;0,0247251
3031,5500;0,0247747
3032,5142;0,0248264
3033,4785;0,024882
3034,4426;0,0249405
3035,4070;0,0249998
3036,3711;0,0250593
3037,3354;0,0251201
3038,2996;0,0251844
3039,2639;0,0252535
3040,2280;0,0253268
3041,1924;0,0254027
3042,1565;0,0254797
3043,1208;0,0255573
3044,0850;0,0256357
3045,0493;0,0257145
3046,0134;0,0257927
3046,9778;0,025869
3047,9419;0,025944
3048,9063;0,0260204
3049,8704;0,0261025
3050,8347;0,0261933
3051,7988;0,026292
3052,7632;0,0263935
3053,7273;0,0264909
3054,6917;0,0265788
3055,6558;0,0266574
3056,6201;0,026732
3057,5842;0,0268105
3058,5486;0,0268987
3059,5127;0,0269972
3060,4771;0,0271011
3061,4412;0,0272029
3062,4055;0,0272973
3063,3696;0,0273835
3064,3340;0,027465
3065,2981;0,0275464
3066,2625;0,0276305
3067,2266;0,0277163
3068,1909;0,0278007
3069,1550;0,0278814
3070,1194;0,0279587
3071,0835;0,0280354
3072,0479;0,0281151
3073,0120;0,0281994
3073,9763;0,0282873
3074,9404;0,0283757
3075,9048;0,0284617
3076,8689;0,0285436
3077,8333;0,0286212
3078,7974;0,0286956
3079,7617;0,028768
3080,7258;0,0288397
3081,6902;0,0289125
3082,6543;0,028988
3083,6187;0,0290679
3084,5828;0,0291525
3085,5471;0,0292404
3086,5112;0,0293285
3087,4756;0,0294141
3088,4397;0,0294961
3089,4041;0,0295764
3090,3682;0,0296592
3091,3325;0,0297486
3092,2966;0,0298464
3093,2610;0,029951
3094,2251;0,0300586
3095,1895;0,0301652
3096,1536;0,030268
3097,1179;0,0303667
3098,0820;0,0304615
3099,0464;0,0305528
3100,0105;0,0306401
3100,9749;0,030723
3101,9390;0,0308026
3102,9033;0,0308816
3103,8674;0,0309638
3104,8318;0,0310526
3105,7959;0,0311494
3106,7603;0,0312534
3107,7244;0,0313619
3108,6887;0,031471
3109,6528;0,0315767
3110,6172;0,0316764
3111,5813;0,0317694
3112,5457;0,0318578
3113,5098;0,0319454
3114,4741;0,0320369
3115,4382;0,032136
3116,4026;0,0322443
3117,3667;0,0323609
3118,3311;0,0324826
3119,2952;0,032605
3120,2595;0,0327238
3121,2236;0,0328362
3122,1880;0,0329421
3123,1521;0,0330446
3124,1165;0,0331483
3125,0806;0,0332564
3126,0449;0,033369
3127,0090;0,0334821
3127,9734;0,0335905
3128,9375;0,0336919
3129,9019;0,0337898
3130,8660;0,0338922
3131,8303;0,0340077
3132,7944;0,0341392
3133,7588;0,0342817
3134,7229;0,0344244
3135,6873;0,0345568
3136,6514;0,0346746
3137,6157;0,0347812
3138,5798;0,0348848
3139,5442;0,0349935
3140,5083;0,035111
3141,4727;0,0352366
3142,4368;0,0353671
3143,4011;0,0354998
3144,3652;0,0356334
3145,3296;0,0357667
3146,2937;0,0358977
3147,2581;0,0360238
3148,2222;0,0361436
3149,1865;0,0362582
3150,1506;0,0363719
3151,1150;0,0364895
3152,0791;0,0366147
3153,0435;0,0367479
3154,0076;0,0368868
3154,9719;0,0370283
3155,9360;0,0371696
3156,9004;0,0373094
3157,8645;0,037447
3158,8289;0,0375825
3159,7930;0,0377164
3160,7573;0,0378502
3161,7214;0,0379856
3162,6858;0,0381235
3163,6499;0,0382628
3164,6143;0,0384005
3165,5784;0,0385323
3166,5427;0,0386558
3167,5068;0,0387718
3168,4712;0,0388858
3169,4353;0,0389798
3170,3997;0,0391139
3171,3638;0,0392648
3172,3281;0,0394279
3173,2922;0,0395926
3174,2566;0,0397462
3175,2207;0,0398791
3176,1851;0,0399898
3177,1492;0,0400854
3178,1135;0,0401793
3179,0776;0,0402848
3180,0420;0,0404098
3181,0061;0,0405537
3181,9705;0,0407087
3182,9346;0,0408641
3183,8989;0,0410112
3184,8630;0,0411464
3185,8274;0,0412722
3186,7915;0,0413951
3187,7559;0,0415213
3188,7200;0,0416541
3189,6843;0,0417927
3190,6484;0,041933
3191,6128;0,0420704
3192,5769;0,0422025
3193,5413;0,0423298
3194,5054;0,0424549
3195,4697;0,042581
3196,4338;0,0427101
3197,3982;0,0428427
3198,3623;0,0429777
3199,3267;0,0431133
3200,2908;0,0432476
3201,2551;0,0433788
3202,2192;0,0435051
3203,1836;0,0436257
3204,1477;0,043741
3205,1121;0,0438527
3206,0762;0,0439643
3207,0405;0,0440794
3208,0046;0,044201
3208,9690;0,0443299
3209,9331;0,0444636
3210,8975;0,0445973
3211,8616;0,0447254
3212,8259;0,0448447
3213,7900;0,0449557
3214,7544;0,0450627
3215,7185;0,0451705
3216,6829;0,0452822
3217,6470;0,0453971
3218,6113;0,0455125
3219,5754;0,0456268
3220,5398;0,0457414
3221,5039;0,0458603
3222,4683;0,045987
3223,4324;0,046121
3224,3967;0,0462579
3225,3608;0,0463918
3226,3252;0,0465195
3227,2893;0,0466421
3228,2537;0,0467635
3229,2178;0,0468871
3230,1821;0,047013
3231,1462;0,0471383
3232,1106;0,0472601
3233,0747;0,0473782
3234,0391;0,0474961
3235,0032;0,0476189
3235,9675;0,0477493
3236,9316;0,0478861
3237,8960;0,0480248
3238,8601;0,0481604
3239,8245;0,0482905
3240,7886;0,0484159
3241,7529;0,0485399
3242,7170;0,0486654
3243,6814;0,0487933
3244,6455;0,0489223
3245,6099;0,0490508
3246,5740;0,0491793
3247,5383;0,0493104
3248,5024;0,0494485
3249,4668;0,0495966
3250,4309;0,0497542
3251,3953;0,0499171
3252,3594;0,050079
3253,3237;0,0502347
3254,2878;0,0503823
3255,2522;0,0505241
3256,2163;0,0506643
3257,1807;0,0508073
3258,1448;0,0509547
3259,1091;0,0511062
3260,0732;0,0512595
3261,0376;0,0514124
3262,0017;0,0515628
3262,9661;0,0517089
3263,9302;0,0518488
3264,8945;0,0519816
3265,8586;0,0521075
3266,8230;0,0522278
3267,7871;0,0523449
3268,7515;0,0524604
3269,7156;0,0525738
3270,6799;0,0526832
3271,6440;0,052786
3272,6084;0,05288
3273,5725;0,052965
3274,5369;0,0530416
3275,5010;0,0531108
3276,4653;0,0531733
3277,4294;0,0532298
3278,3938;0,0532816
3279,3579;0,0533304
3280,3223;0,0533778
3281,2864;0,053424
3282,2507;0,0534679
3283,2148;0,0535079
3284,1792;0,0535431
3285,1433;0,0535739
3286,1077;0,0536019
3287,0718;0,0536281
3288,0361;0,0536524
3289,0002;0,0536741
3289,9646;0,0536926
3290,9287;0,0537084
3291,8931;0,0537228
3292,8572;0,0537363
3293,8215;0,0537473
3294,7856;0,0537527
3295,7500;0,0537495
3296,7141;0,0537371
3297,6785;0,053718
3298,6426;0,0536969
3299,6069;0,053678
3300,5710;0,053663
3301,5354;0,0536518
3302,4995;0,0536436
3303,4639;0,0536387
3304,4280;0,0536386
3305,3923;0,053644
3306,3564;0,0536534
3307,3208;0,0536621
3308,2849;0,0536644
3309,2493;0,0536567
3310,2134;0,0536399
3311,1777;0,0536186
3312,1418;0,0535995
3313,1062;0,0535881
3314,0703;0,0535886
3315,0347;0,0536035
3315,9988;0,0536351
3316,9631;0,0536839
3317,9272;0,0537472
3318,8916;0,0538184
3319,8557;0,0538882
3320,8201;0,0539493
3321,7842;0,0539991
3322,7485;0,0540417
3323,7126;0,054084
3324,6770;0,0541317
3325,6411;0,0541863
3326,6055;0,0542449
3327,5696;0,0543041
3328,5339;0,0543617
3329,4980;0,0544172
3330,4624;0,0544693
3331,4265;0,054515
3332,3909;0,0545494
3333,3550;0,0545684
3334,3193;0,0545709
3335,2834;0,0545586
3336,2478;0,0545339
3337,2119;0,0544972
3338,1763;0,0544461
3339,1404;0,0543773
3340,1047;0,0542897
3341,0688;0,0541864
3342,0332;0,0540736
3342,9973;0,0539587
3343,9617;0,053847
3344,9258;0,0537405
3345,8901;0,0536376
3346,8542;0,0535344
3347,8186;0,0534259
3348,7827;0,0533083
3349,7471;0,0531793
3350,7112;0,0530395
3351,6755;0,0528917
3352,6396;0,0527401
3353,6040;0,0525894
3354,5681;0,0524433
3355,5325;0,0523041
3356,4966;0,0521724
3357,4609;0,0520473
3358,4250;0,0519269
3359,3894;0,0518093
3360,3535;0,0516933
3361,3179;0,0515792
3362,2820;0,0514674
3363,2463;0,051358
3364,2104;0,0512489
3365,1748;0,0511361
3366,1389;0,0510157
3367,1033;0,0508861
3368,0674;0,0507496
3369,0317;0,0506112
3369,9958;0,0504762
3370,9602;0,0503474
3371,9243;0,0502247
3372,8887;0,0501062
3373,8528;0,04999
3374,8171;0,049875
3375,7813;0,049761
3376,7456;0,0496473
3377,7097;0,0495322
3378,6741;0,0494144
3379,6382;0,0492932
3380,6025;0,0491695
3381,5667;0,0490443
3382,5310;0,0489186
3383,4951;0,0487932
3384,4595;0,0486696
3385,4236;0,048552
3386,3879;0,0484456
3387,3521;0,0483548
3388,3164;0,0482794
3389,2805;0,0482137
3390,2449;0,0481475
3391,2090;0,0480701
3392,1733;0,0479747
3393,1375;0,0478602
3394,1018;0,0477312
3395,0659;0,047595
3396,0303;0,0474596
3396,9944;0,0473315
3397,9587;0,0472145
3398,9229;0,0471087
3399,8872;0,0470093
3400,8513;0,0469091
3401,8157;0,0468015
3402,7798;0,0466839
3403,7441;0,046559
3404,7083;0,046432
3405,6726;0,0463074
3406,6367;0,0461861
3407,6011;0,046066
3408,5652;0,0459434
3409,5295;0,0458156
3410,4937;0,0456809
3411,4580;0,0455378
3412,4221;0,0453848
3413,3865;0,0452221
3414,3506;0,0450537
3415,3149;0,044887
3416,2791;0,0447306
3417,2434;0,0445894
3418,2075;0,0444611
3419,1719;0,0443363
3420,1360;0,0442022
3421,1003;0,0440497
3422,0645;0,0438776
3423,0288;0,0436933
3423,9929;0,0435089
3424,9573;0,0433354
3425,9214;0,0431779
3426,8857;0,0430344
3427,8499;0,0428973
3428,8142;0,0427576
3429,7783;0,0426097
3430,7427;0,0424536
3431,7068;0,0422937
3432,6711;0,0421348
3433,6353;0,0419788
3434,5996;0,0418248
3435,5637;0,0416707
3436,5281;0,0415157
3437,4922;0,041361
3438,4565;0,0412087
3439,4207;0,0410595
3440,3850;0,0409124
3441,3491;0,0407654
3442,3135;0,0406164
3443,2776;0,0404633
3444,2419;0,0403038
3445,2061;0,0401356
3446,1704;0,0399578
3447,1345;0,0397731
3448,0989;0,0395881
3449,0630;0,0394096
3450,0273;0,0392411
3450,9915;0,039081
3451,9558;0,038925
3452,9199;0,038769
3453,8843;0,0386123
3454,8484;0,038457
3455,8127;0,0383057
3456,7769;0,0381581
3457,7412;0,0380099
3458,7053;0,0378547
3459,6697;0,0376866
3460,6338;0,037504
3461,5981;0,0373103
3462,5623;0,0371129
3463,5266;0,0369205
3464,4907;0,0367397
3465,4551;0,0365731
3466,4192;0,0364189
3467,3835;0,0362718
3468,3477;0,0361255
3469,3120;0,0359744
3470,2761;0,0358149
3471,2405;0,0356456
3472,2046;0,0354673
3473,1689;0,0352836
3474,1331;0,0351009
3475,0974;0,0349266
3476,0615;0,034766
3477,0259;0,0346185
3477,9900;0,0344767
3478,9543;0,0343301
3479,9185;0,0341705
3480,8828;0,0339981
3481,8469;0,0338218
3482,8113;0,0336532
3483,7754;0,0334981
3484,7397;0,0333529
3485,7039;0,0332072
3486,6682;0,0330515
3487,6323;0,0328836
3488,5967;0,0327098
3489,5608;0,0325397
3490,5251;0,0323783
3491,4893;0,0322229
3492,4536;0,0320647
3493,4177;0,031897
3494,3821;0,0317219
3495,3462;0,0315525
3496,3105;0,0314064
3497,2747;0,0312937
3498,2390;0,0312087
3499,2031;0,0311287
3500,1675;0,0310233
3501,1316;0,0308689
3502,0959;0,0306624
3503,0601;0,0304262
3504,0244;0,030196
3504,9885;0,0299989
3505,9529;0,0298391
3506,9170;0,0297018
3507,8813;0,0295655
3508,8455;0,0294164
3509,8098;0,0292547
3510,7739;0,0290919
3511,7383;0,0289402
3512,7024;0,0288034
3513,6667;0,0286751
3514,6309;0,0285455
3515,5952;0,0284085
3516,5593;0,0282662
3517,5237;0,0281266
3518,4878;0,0279981
3519,4521;0,0278841
3520,4163;0,0277803
3521,3806;0,0276767
3522,3447;0,0275626
3523,3091;0,0274304
3524,2732;0,0272773
3525,2375;0,0271038
3526,2017;0,0269128
3527,1660;0,0267104
3528,1301;0,0265073
3529,0945;0,026318
3530,0586;0,0261552
3531,0229;0,0260225
3531,9871;0,0259115
3532,9514;0,0258054
3533,9155;0,0256865
3534,8799;0,0255442
3535,8440;0,025381
3536,8083;0,0252132
3537,7725;0,0250637
3538,7368;0,0249511
3539,7009;0,0248802
3540,6653;0,024839
3541,6294;0,0248004
3542,5938;0,0247287
3543,5579;0,0245923
3544,5222;0,024382
3545,4863;0,0241245
3546,4507;0,0238712
3547,4148;0,0236659
3548,3792;0,0235181
3549,3433;0,0234035
3550,3076;0,0232846
3551,2717;0,0231342
3552,2361;0,022953
3553,2002;0,0227685
3554,1646;0,0226144
3555,1287;0,0225061
3556,0930;0,0224325
3557,0571;0,0223676
3558,0215;0,0222903
3558,9856;0,0221991
3559,9500;0,0221137
3560,9141;0,0220584
3561,8784;0,02204
3562,8425;0,0220343
3563,8069;0,0219873
3564,7710;0,0218318
3565,7354;0,0215268
3566,6995;0,0211105
3567,6638;0,0207008
3568,6279;0,020407
3569,5923;0,0202524
3570,5564;0,020188
3571,5208;0,0201485
3572,4849;0,0200878
3573,4492;0,0199907
3574,4133;0,0198671
3575,3777;0,0197364
3576,3418;0,0196104
3577,3062;0,019487
3578,2703;0,0193591
3579,2346;0,019229
3580,1987;0,019114
3581,1631;0,0190357
3582,1272;0,0190012
3583,0916;0,0189907
3584,0557;0,0189572
3585,0200;0,0188398
3585,9841;0,0185971
3586,9485;0,0182551
3587,9126;0,0179161
3588,8770;0,0176831
3589,8411;0,0175808
3590,8054;0,0175605
3591,7695;0,0175514
3592,7339;0,0175011
3593,6980;0,0173942
3594,6624;0,0172503
3595,6265;0,0171019
3596,5908;0,0169632
3597,5549;0,0168207
3598,5193;0,0166535
3599,4834;0,016464
3600,4478;0,0162883
3601,4119;0,0161742
3602,3762;0,0161445
3603,3403;0,0161797
3604,3047;0,0162306
3605,2688;0,0162448
3606,2332;0,0161906
3607,1973;0,0160724
3608,1616;0,0159268
3609,1257;0,0157967
3610,0901;0,0157018
3611,0542;0,0156354
3612,0186;0,0155832
3612,9827;0,0155393
3613,9470;0,0155053
3614,9111;0,0154746
3615,8755;0,015419
3616,8396;0,0152917
3617,8040;0,0150533
3618,7681;0,0147163
3619,7324;0,0143675
3620,6965;0,0141238
3621,6609;0,0140508
3622,6250;0,0141322
3623,5894;0,0142984
3624,5535;0,0144605
3625,5178;0,0145231
3626,4819;0,0143909
3627,4463;0,0140142
3628,4104;0,0134792
3629,3748;0,0130067
3630,3389;0,0127649
3631,3032;0,0127436
3632,2673;0,0128322
3633,2317;0,0129296
3634,1958;0,0129868
3635,1602;0,0130011
3636,1243;0,0129934
3637,0886;0,0129834
3638,0527;0,0129765
3639,0171;0,0129697
3639,9812;0,012966
3640,9456;0,012982
3641,9097;0,0130399
3642,8740;0,0131515
3643,8381;0,0133035
3644,8025;0,0134513
3645,7666;0,0135135
3646,7310;0,0133724
3647,6951;0,0129325
3648,6594;0,0122779
3649,6235;0,0117148
3650,5879;0,0114803
3651,5520;0,0115428
3652,5164;0,0117316
3653,4805;0,0118906
3654,4448;0,0119292
3655,4089;0,0118332
3656,3733;0,0116615
3657,3374;0,011505
3658,3018;0,0114185
3659,2659;0,0113914
3660,2302;0,0113816
3661,1943;0,011365
3662,1587;0,0113572
3663,1228;0,011396
3664,0872;0,011501
3665,0513;0,0116477
3666,0156;0,0117701
3666,9797;0,0117893
3667,9441;0,0116582
3668,9082;0,0114148
3669,8726;0,011184
3670,8367;0,0110779
3671,8010;0,0110949
3672,7651;0,0111336
3673,7295;0,0110704
3674,6936;0,0108428
3675,6580;0,0105156
3676,6221;0,0102451
3677,5864;0,0101324
3678,5505;0,0101553
3679,5149;0,0102378
3680,4790;0,0103271
3681,4434;0,0104148
3682,4075;0,0105188
3683,3718;0,0106538
3684,3359;0,0108091
3685,3003;0,0109441
3686,2644;0,0109961
3687,2288;0,0109002
3688,1929;0,010635
3689,1572;0,0102786
3690,1213;0,00998478
3691,0857;0,00985788
3692,0498;0,00988948
3693,0142;0,0100113
3693,9783;0,0101598
3694,9426;0,0102993
3695,9067;0,0104151
3696,8711;0,0104995
3697,8352;0,0105397
3698,7996;0,0105154
3699,7637;0,01041
3700,7280;0,0102328
3701,6921;0,0100346
3702,6565;0,00989154
3703,6206;0,00986074
3704,5850;0,0099498
3705,5491;0,0101224
3706,5134;0,010319
3707,4775;0,0104705
3708,4419;0,0105038
3709,4060;0,0103638
3710,3704;0,0100681
3711,3345;0,00974143
3712,2988;0,00953881
3713,2629;0,00952335
3714,2273;0,00965123
3715,1914;0,00983807
3716,1558;0,0100108
3717,1199;0,0101255
3718,0842;0,0101683
3719,0483;0,0101506
3720,0127;0,0100973
3720,9768;0,0100283
3721,9412;0,00994506
3722,9053;0,00983548
3723,8696;0,00969645
3724,8337;0,00955368
3725,7981;0,00945655
3726,7622;0,00944862
3727,7266;0,00954205
3728,6907;0,00971703
3729,6550;0,00993598
3730,6191;0,0101526
3731,5835;0,0103091
3732,5476;0,0103334
3733,5120;0,0101667
3734,4761;0,00983693
3735,4404;0,00950193
3736,4045;0,00934931
3737,3689;0,00944837
3738,3330;0,00973351
3739,2974;0,0100826
3740,2615;0,0103783
3741,2258;0,0105301
3742,1899;0,010492
3743,1543;0,0103006
3744,1184;0,0100999
3745,0828;0,0100556
3746,0469;0,0102049
3747,0112;0,0104354
3747,9753;0,0105822
3748,9397;0,0105129
3749,9038;0,010204
3750,8682;0,00980696
3751,8323;0,00956289
3752,7966;0,00958386
3753,7607;0,0097962
3754,7251;0,0100598
3755,6892;0,0102612
3756,6536;0,0103399
3757,6177;0,010295
3758,5820;0,0101836
3759,5461;0,0100893
3760,5105;0,0100676
3761,4746;0,0101186
3762,4390;0,0102065
3763,4031;0,010291
3764,3674;0,0103456
3765,3315;0,0103597
3766,2959;0,0103312
3767,2600;0,0102597
3768,2244;0,0101484
3769,1885;0,0100151
3770,1528;0,00989896
3771,1169;0,00984694
3772,0813;0,0098847
3773,0454;0,00999971
3774,0098;0,0101486
3774,9739;0,0102773
3775,9382;0,0103402
3776,9023;0,0103171
3777,8667;0,0102261
3778,8308;0,0101205
3779,7952;0,0100564
3780,7593;0,010056
3781,7236;0,0100997
3782,6877;0,0101488
3783,6521;0,0101708
3784,6162;0,0101538
3785,5806;0,0101077
3786,5447;0,0100568
3787,5090;0,0100279
3788,4731;0,0100389
3789,4375;0,0100936
3790,4016;0,010181
3791,3660;0,0102799
3792,3301;0,0103683
3793,2944;0,0104344
3794,2585;0,0104824
3795,2229;0,010528
3796,1870;0,0105809
3797,1514;0,0106272
3798,1155;0,0106286
3799,0798;0,0105458
3800,0439;0,0103779
3801,0083;0,0101864
3801,9724;0,0100598
3802,9368;0,0100351
3803,9009;0,0100671
3804,8652;0,0100736
3805,8293;0,0100044
3806,7937;0,0098864
3807,7578;0,00981195
3808,7222;0,00986314
3809,6863;0,0100428
3810,6506;0,010282
3811,6147;0,010492
3812,5791;0,0106067
3813,5432;0,0106067
3814,5076;0,0105323
3815,4717;0,0104648
3816,4360;0,0104638
3817,4001;0,0105125
3818,3645;0,0105334
3819,3286;0,010455
3820,2930;0,010278
3821,2571;0,0100886
3822,2214;0,00998833
3823,1855;0,0100094
3824,1499;0,0101105
3825,1140;0,0102292
3826,0784;0,0103242
3827,0425;0,0103861
3828,0068;0,0104271
3828,9709;0,0104635
3829,9353;0,0105037
3830,8994;0,0105472
3831,8638;0,0105906
3832,8279;0,0106317
3833,7922;0,010666
3834,7563;0,0106805
3835,7207;0,0106544
3836,6848;0,0105709
3837,6492;0,010436
3838,6133;0,0102855
3839,5776;0,010161
3840,5417;0,0100785
3841,5061;0,0100266
3842,4702;0,00999193
3843,4346;0,00998286
3844,3987;0,0100299
3845,3630;0,0101647
3846,3271;0,0103952
3847,2915;0,0106957
3848,2556;0,0110116
3849,2200;0,0112656
3850,1841;0,0113558
3851,1484;0,0111625
3852,1125;0,0106282
3853,0769;0,00992578
3854,0410;0,00942389
3855,0054;0,00932178
3855,9695;0,00952728
3856,9338;0,00986379
3857,8979;0,010206
3858,8623;0,0104872
3859,8264;0,0106739
3860,7908;0,0107503
3861,7549;0,0107228
3862,7192;0,0106308
3863,6833;0,0105403
3864,6477;0,0105062
3865,6118;0,0105388
3866,5762;0,0106061
3867,5403;0,0106588
3868,5046;0,010656
3869,4688;0,0105815
3870,4331;0,0104531
3871,3972;0,0103157
3872,3616;0,0102186
3873,3257;0,0101926
3874,2900;0,0102409
3875,2542;0,0103437
3876,2185;0,010468
3877,1826;0,0105791
3878,1470;0,0106507
3879,1111;0,010674
3880,0754;0,0106585
3881,0396;0,0106192
3882,0039;0,0105599
3882,9680;0,0104744
3883,9324;0,010368
3884,8965;0,0102754
3885,8608;0,0102455
3886,8250;0,0103003
3887,7893;0,010409
3888,7534;0,0105028
3889,7178;0,0105162
3890,6819;0,0104335
3891,6462;0,0103121
3892,6104;0,0102489
3893,5747;0,0103031
3894,5388;0,0104595
3895,5032;0,010657
3896,4673;0,0108335
3897,4316;0,0109501
3898,3958;0,0109944
3899,3601;0,0109722
3900,3242;0,0108901
3901,2886;0,0107463
3902,2527;0,0105438
3903,2170;0,0103146
3904,1812;0,0101194
3905,1455;0,0100112
3906,1096;0,0100011
3907,0740;0,010061
3908,0381;0,0101501
3909,0024;0,01024
3909,9666;0,0103227
3910,9309;0,0104047
3911,8950;0,010493
3912,8594;0,0105815
3913,8235;0,0106477
3914,7878;0,0106631
3915,7520;0,0106132
3916,7163;0,0105161
3917,6804;0,0104213
3918,6448;0,0103793
3919,6089;0,0104065
3920,5732;0,0104766
3921,5374;0,0105413
3922,5017;0,0105605
3923,4658;0,0105264
3924,4302;0,0104693
3925,3943;0,0104359
3926,3586;0,010456
3927,3228;0,0105218
3928,2871;0,0105962
3929,2512;0,0106341
3930,2156;0,0106067
3931,1797;0,0105183
3932,1440;0,0104053
3933,1082;0,0103141
3934,0725;0,0102744
3935,0366;0,010291
3936,0010;0,0103516
3936,9651;0,0104369
3937,9294;0,0105261
3938,8936;0,010598
3939,8579;0,0106349
3940,8220;0,0106302
3941,7864;0,0105951
3942,7505;0,0105553
3943,7148;0,0105358
3944,6790;0,0105441
3945,6433;0,0105655
3946,6074;0,0105739
3947,5718;0,0105486
3948,5359;0,010488
3949,5002;0,0104115
3950,4644;0,0103469
3951,4287;0,0103127
3952,3928;0,0103106
3953,3572;0,0103305
3954,3213;0,0103602
3955,2856;0,0103916
3956,2498;0,0104214
3957,2141;0,0104473
3958,1782;0,0104647
3959,1426;0,0104676
3960,1067;0,0104524
3961,0710;0,0104219
3962,0352;0,0103856
3962,9995;0,0103554
3963,9636;0,0103394
3964,9280;0,0103392
3965,8921;0,0103501
3966,8564;0,0103653
3967,8206;0,01038
3968,7849;0,0103929
3969,7490;0,0104052
3970,7134;0,010418
3971,6775;0,0104303
3972,6418;0,0104388
3973,6060;0,0104408
3974,5703;0,010436
3975,5344;0,0104277
3976,4988;0,0104202
3977,4629;0,0104159
3978,4272;0,0104131
3979,3914;0,0104077
3980,3557;0,0103958
3981,3198;0,0103778
3982,2842;0,0103592
3983,2483;0,0103482
3984,2126;0,0103513
3985,1768;0,0103697
3986,1411;0,0103977
3987,1052;0,0104251
3988,0696;0,0104419
3989,0337;0,0104421
3989,9980;0,0104262
3990,9622;0,0104003
3991,9265;0,0103731
3992,8906;0,0103525
3993,8550;0,0103434
3994,8191;0,0103468
3995,7834;0,0103606
3996,7476;0,01038
3997,7119;0,0103992
3998,6760;0,0104127
3999,6404;0,0104169
4000,6045;0,0104355

##### Extended Information
[Comments]
Sample name
Comment
Username
Division
Organization;UNIVERSIDAD INDUSTRIAL DE SANTANDER

[Detailed Information]
Creation date;4/02/2025 12:18 p.m.

Data array type;Linear data array
Horizontal axis;Wavenumber [cm-1]
Vertical axis;Abs
Start;399,193 cm-1
End;4000,6 cm-1
Data interval;0,964233 cm-1
Data points;3736    

[Measurement Information]
Model name;FT/IR-4X1typeA
Serial No.;A035162111

Accessory;ATR PRO 4X
Accessory S/N;A021162126
Incident angle;45 deg

Measurement date;4/02/2025 12:18 p.m.

Light source;Standard
Detector;TGS
Accumulation;Auto (73)
Resolution;4 cm-1
Zero filling;On
Apodization;Cosine
Gain;Auto (8)
Aperture;Auto (7 mm)
Scan speed;Auto (2 mm/sec)
Filter;Auto (12800 Hz)

